SpectraSuite Data File
++++++++++++++++++++++++++++++++++++
Date: Mon Oct 07 14:54:02 GMT-05:00 2013
User: price-jones
Dark Spectrum Present: No
Reference Spectrum Present: No
Number of Sampled Component Spectra: 1
Spectrometers: USB2+H05261
Integration Time (usec): 100000 (USB2+H05261)
Spectra Averaged: 1 (USB2+H05261)
Boxcar Smoothing: 0 (USB2+H05261)
Correct for Electrical Dark: No (USB2+H05261)
Strobe/Lamp Enabled: No (USB2+H05261)
Correct for Detector Non-linearity: No (USB2+H05261)
Correct for Stray Light: No (USB2+H05261)
Number of Pixels in Processed Spectrum: 2048
>>>>>Begin Processed Spectral Data<<<<<
365.73	0.00
365.92	0.00
366.12	0.00
366.32	0.00
366.52	0.00
366.72	0.00
366.91	0.00
367.11	0.00
367.31	0.00
367.51	0.00
367.70	0.00
367.90	0.00
368.10	0.00
368.30	0.00
368.49	0.00
368.69	0.00
368.89	0.00
369.09	0.00
369.28	0.00
369.48	0.00
369.68	0.00
369.87	0.00
370.07	0.00
370.27	0.00
370.47	690.46
370.66	3323.56
370.86	3976.57
371.06	4276.16
371.25	4432.97
371.45	3899.33
371.65	3412.50
371.84	3283.77
372.04	3492.08
372.24	3892.31
372.44	4079.55
372.63	3985.93
372.83	3646.55
373.03	3330.58
373.22	3056.74
373.42	3028.65
373.62	3702.73
373.81	4203.60
374.01	3995.29
374.21	3651.24
374.40	3344.63
374.60	3468.67
374.79	3859.54
374.99	4627.24
375.19	5074.28
375.38	4919.81
375.58	4533.62
375.78	4578.09
375.97	4650.64
376.17	4739.58
376.37	4683.41
376.56	4938.53
376.76	5240.46
376.95	5455.79
377.15	5968.37
377.35	5996.45
377.54	6420.09
377.74	6668.19
377.93	6614.35
378.13	6427.11
378.33	6029.22
378.52	5561.11
378.72	5380.89
378.91	5362.17
379.11	4987.68
379.31	4915.12
379.50	4891.72
379.70	5373.87
379.89	5898.15
380.09	6155.61
380.28	6590.95
380.48	6422.43
380.68	6279.66
380.87	6125.18
381.07	5781.12
381.26	5212.37
381.46	4985.34
381.65	4842.57
381.85	4688.09
382.04	4599.15
382.24	4248.07
382.43	4049.13
382.63	3810.39
382.83	3911.04
383.02	3754.22
383.22	3880.61
383.41	3829.12
383.61	4196.58
383.80	4828.53
384.00	5341.10
384.19	6033.90
384.39	6392.00
384.58	6354.55
384.78	6104.12
384.97	6136.88
385.17	5783.46
385.36	5596.22
385.56	5322.38
385.75	5540.05
385.95	5799.85
386.14	6558.18
386.34	6581.59
386.53	6090.07
386.72	5792.83
386.92	5865.38
387.11	6324.13
387.31	6499.67
387.50	6382.64
387.70	6216.46
387.89	5994.11
388.09	6251.57
388.28	6197.74
388.48	6443.49
388.67	6597.97
388.86	7426.52
389.06	7836.11
389.25	8421.25
389.45	8439.97
389.64	8346.35
389.84	8116.98
390.03	8236.35
390.22	8196.56
390.42	8477.42
390.61	9062.55
390.81	9476.83
391.00	9554.07
391.19	9703.86
391.39	9305.97
391.58	8751.26
391.78	8173.15
391.97	8077.19
392.16	7604.40
392.36	6813.30
392.55	5500.26
392.75	4365.10
392.94	3536.55
393.13	3566.98
393.33	4229.35
393.52	5413.66
393.71	6546.48
393.91	7377.37
394.10	8084.21
394.29	8720.84
394.49	9268.52
394.68	10150.90
394.88	10122.82
395.07	10583.90
395.26	10434.11
395.46	10274.95
395.65	9635.99
395.84	8582.74
396.04	6979.48
396.23	5790.49
396.42	4952.57
396.62	4634.26
396.81	5448.77
397.00	6799.26
397.19	8655.30
397.39	10450.49
397.58	11520.12
397.77	12411.86
397.97	12809.75
398.16	12851.88
398.35	13359.78
398.55	13640.64
398.74	14459.83
398.93	14689.20
399.12	14246.84
399.32	13734.26
399.51	14113.43
399.70	14946.66
399.90	14890.49
400.09	15009.86
400.28	14635.37
400.47	14796.87
400.67	15470.94
400.86	16243.32
401.05	15894.58
401.24	16116.93
401.44	16634.19
401.63	16212.89
401.82	16308.85
402.01	16266.72
402.21	16716.11
402.40	16636.53
402.59	16264.38
402.78	15405.41
402.97	15213.48
403.17	15566.90
403.36	16301.83
403.55	17170.17
403.74	17848.93
403.93	16638.87
404.13	15480.30
404.32	15063.69
404.51	15693.29
404.70	17214.64
404.89	16910.37
405.09	16758.24
405.28	16013.95
405.47	16287.79
405.66	15917.98
405.85	15737.76
406.05	15257.95
406.24	15274.34
406.43	16091.18
406.62	16872.92
406.81	16877.60
407.00	15995.22
407.20	16067.78
407.39	16252.68
407.58	16760.58
407.77	17233.36
407.96	17834.88
408.15	18190.64
408.34	18452.78
408.54	19353.89
408.73	19293.04
408.92	19211.12
409.11	18431.72
409.30	17378.48
409.49	16545.25
409.68	15386.68
409.87	14597.92
410.07	16032.67
410.26	16947.82
410.45	18036.17
410.64	18487.89
410.83	19323.46
411.02	19407.72
411.21	20341.60
411.40	20365.00
411.59	20095.84
411.78	20198.82
411.98	19613.69
412.17	19941.36
412.36	19817.32
412.55	20056.05
412.74	19360.91
412.93	18733.65
413.12	19108.13
413.31	20713.74
413.50	20727.78
413.69	21558.67
413.88	20786.30
414.07	20247.97
414.26	20699.70
414.45	21118.65
414.64	20980.56
414.83	21135.04
415.02	20716.08
415.22	20533.52
415.41	21348.03
415.60	21905.07
415.79	22965.34
415.98	23030.87
416.17	23335.14
416.36	22611.92
416.55	22026.78
416.74	21474.42
416.93	20905.66
417.12	20961.84
417.31	20959.50
417.50	21329.30
417.69	22143.81
417.88	22225.73
418.07	21874.65
418.26	21724.85
418.45	21724.85
418.64	22218.71
418.83	23208.75
419.02	23054.28
419.21	22925.55
419.39	21986.99
419.58	20716.08
419.77	20549.90
419.96	21891.03
420.15	22686.81
420.34	23520.04
420.53	24339.23
420.72	24999.26
420.91	24641.16
421.10	24400.08
421.29	23899.21
421.48	23215.77
421.67	24435.19
421.86	23939.00
422.05	22321.69
422.24	20128.61
422.43	19555.18
422.61	21921.46
422.80	23637.07
422.99	23882.83
423.18	22778.09
423.37	22429.35
423.56	22176.58
423.75	22340.41
423.94	22953.63
424.13	22181.26
424.32	21991.67
424.50	21991.67
424.69	22043.17
424.88	21972.95
425.07	21778.68
425.26	21984.65
425.45	21345.69
425.64	21125.68
425.83	21254.40
426.01	22387.22
426.20	22855.33
426.39	22710.22
426.58	21296.53
426.77	19737.74
426.96	18876.42
427.15	19431.13
427.33	20971.20
427.52	22036.14
427.71	22195.30
427.90	22277.22
428.09	21865.28
428.28	21350.37
428.46	20699.70
428.65	19932.00
428.84	20641.18
429.03	21125.68
429.22	19852.42
429.40	19185.37
429.59	17032.08
429.78	15234.55
429.97	15176.03
430.16	15658.18
430.34	15358.60
430.53	15349.23
430.72	16086.50
430.91	17263.79
431.10	20748.85
431.28	23978.79
431.47	26019.74
431.66	26441.03
431.85	24264.33
432.03	22080.61
432.22	20968.86
432.41	21813.79
432.60	24360.30
432.79	25357.36
432.97	26136.76
433.16	25186.50
433.35	23124.49
433.54	20809.70
433.72	19496.66
433.91	20205.84
434.10	22522.98
434.28	24215.18
434.47	25394.81
434.66	24978.20
434.85	24666.91
435.03	24079.43
435.22	25291.83
435.41	26382.52
435.59	26476.14
435.78	26553.38
435.97	27379.59
436.16	27786.84
436.34	26995.74
436.53	26389.54
436.72	26534.65
436.90	25069.48
437.09	25226.29
437.28	24535.84
437.46	25727.17
437.65	25345.66
437.84	23730.69
438.02	21865.28
438.21	21664.00
438.40	22719.58
438.58	25048.41
438.77	25551.63
438.96	25930.80
439.14	26881.05
439.33	27157.24
439.52	27861.74
439.70	27353.84
439.89	26302.94
440.08	25680.36
440.26	25818.45
440.45	26370.82
440.63	28680.92
440.82	30171.85
441.01	29603.10
441.19	29486.07
441.38	29362.02
441.57	30646.97
441.75	31328.07
441.94	31637.02
442.12	30663.36
442.31	31971.72
442.50	31693.19
442.68	31194.66
442.87	30696.13
443.05	30251.42
443.24	30941.88
443.43	31360.84
443.61	32318.12
443.80	32491.32
443.98	30511.22
444.17	30476.12
444.35	31943.63
444.54	32779.20
444.73	32243.22
444.91	31054.23
445.10	29972.90
445.28	28786.25
445.47	28400.06
445.65	28364.95
445.84	29167.76
446.02	30277.17
446.21	30506.54
446.39	31227.43
446.58	30787.41
446.77	30988.69
446.95	31852.35
447.14	33184.12
447.32	33598.39
447.51	32725.37
447.69	31358.50
447.88	31002.74
448.06	30986.35
448.25	32374.29
448.43	32559.19
448.62	31346.79
448.80	31557.44
448.99	31402.97
449.17	32353.23
449.36	32222.16
449.54	33069.43
449.73	33853.51
449.91	33411.15
450.10	35171.23
450.28	35358.47
450.46	35189.95
450.65	34939.52
450.83	35042.50
451.02	34085.22
451.20	34132.03
451.39	34230.33
451.57	33713.08
451.76	34017.35
451.94	33687.33
452.13	33088.15
452.31	31665.11
452.49	30071.20
452.68	30426.96
452.86	30450.37
453.05	30644.63
453.23	31864.05
453.42	32587.28
453.60	33221.56
453.78	33692.01
453.97	33146.67
454.15	33198.16
454.34	32811.97
454.52	32458.55
454.70	32175.34
454.89	32030.23
455.07	32655.15
455.26	32936.02
455.44	34398.85
455.62	35000.37
455.81	35086.97
455.99	34817.81
456.17	34595.46
456.36	34284.17
456.54	35702.53
456.73	35185.27
456.91	35896.80
457.09	35976.37
457.28	36512.36
457.46	35501.25
457.64	35234.42
457.83	33972.88
458.01	33069.43
458.19	33902.66
458.38	34103.95
458.56	35838.28
458.74	35126.76
458.93	34550.99
459.11	34693.76
459.29	33860.53
459.48	34665.67
459.66	34038.41
459.84	34735.89
460.03	35299.96
460.21	35000.37
460.39	35590.19
460.57	35999.78
460.76	36189.36
460.94	36556.83
461.12	35924.88
461.31	36238.51
461.49	35768.07
461.67	35770.41
461.85	37282.39
462.04	36921.95
462.22	37291.76
462.40	36854.08
462.59	36765.14
462.77	36659.81
462.95	36753.43
463.13	36383.63
463.32	36264.26
463.50	35805.52
463.68	35831.26
463.86	35845.30
464.05	35154.85
464.23	34707.80
464.41	34607.16
464.59	33331.57
464.78	36030.21
464.96	35487.20
465.14	35133.78
465.32	35786.79
465.50	36996.85
465.69	36928.97
465.87	36622.36
466.05	35393.58
466.23	34153.10
466.41	32809.63
466.60	34766.32
466.78	33900.32
466.96	34948.88
467.14	35096.33
467.32	36027.87
467.51	35644.02
467.69	34220.97
467.87	34749.93
468.05	35466.14
468.23	35454.44
468.41	35658.06
468.60	35831.26
468.78	35880.41
468.96	35283.58
469.14	36154.26
469.32	36327.45
469.50	34710.14
469.69	35150.17
469.87	34127.35
470.05	34288.85
470.23	34394.17
470.41	34345.02
470.59	34944.20
470.77	35215.70
470.95	35777.43
471.14	36271.28
471.32	36325.11
471.50	38094.56
471.68	38621.18
471.86	38691.40
472.04	38735.87
472.22	38782.68
472.40	36957.06
472.58	36835.35
472.77	36400.01
472.95	36917.27
473.13	38223.29
473.31	37104.51
473.49	36945.36
473.67	38038.39
473.85	37933.06
474.03	39166.52
474.21	38920.77
474.39	39283.55
474.57	39899.11
474.75	39508.24
474.93	39543.35
475.12	38822.47
475.30	38815.44
475.48	38529.90
475.66	39271.85
475.84	39030.77
476.02	38834.17
476.20	38031.36
476.38	38817.78
476.56	39744.64
476.74	39658.04
476.92	40229.13
477.10	40950.01
477.28	42153.05
477.46	42244.33
477.64	42845.85
477.82	42913.72
478.00	42806.06
478.18	42279.44
478.36	41956.44
478.54	42155.39
478.72	42216.24
478.90	43299.91
479.08	44158.89
479.26	45024.89
479.44	45102.12
479.62	44254.85
479.80	44037.18
479.98	45020.20
480.16	45137.23
480.34	44374.22
480.52	45385.33
480.70	45357.24
480.88	45174.68
481.06	45645.13
481.24	46253.67
481.41	47187.54
481.59	47831.19
481.77	47643.94
481.95	46653.90
482.13	46391.76
482.31	46815.40
482.49	47346.70
482.67	47047.11
482.85	47510.53
483.03	48224.40
483.21	48465.47
483.39	48320.36
483.57	47697.78
483.74	47524.58
483.92	47536.28
484.10	47735.23
484.28	49116.14
484.46	49303.38
484.64	49521.05
484.82	48708.89
485.00	48112.05
485.18	47721.18
485.35	46155.36
485.53	43005.00
485.71	39035.45
485.89	38609.48
486.07	40643.40
486.25	44346.13
486.43	46370.69
486.61	47346.70
486.78	47112.64
486.96	47262.44
487.14	48893.79
487.32	49792.56
487.50	50740.47
487.68	51433.27
487.85	51966.91
488.03	51880.31
488.21	51295.18
488.39	50820.05
488.57	50553.23
488.75	49961.08
488.92	50791.97
489.10	53118.46
489.28	54073.40
489.46	54890.24
489.64	54649.17
489.81	54887.90
489.99	54473.63
490.17	54471.29
490.35	54820.03
490.53	54377.67
490.70	54092.12
490.88	54007.86
491.06	54958.12
491.24	55040.04
491.41	54096.80
491.59	52411.62
491.77	51398.16
491.95	52528.64
492.13	53815.94
492.30	54948.76
492.48	55669.64
492.66	56404.57
492.84	55779.65
493.01	55791.35
493.19	55414.52
493.37	55056.42
493.54	54721.72
493.72	55271.75
493.90	56172.86
494.08	56992.04
494.25	57539.73
494.43	57432.07
494.61	57853.36
494.79	57897.83
494.96	57712.93
495.14	57209.71
495.32	56154.13
495.49	55718.79
495.67	56687.78
495.85	57886.13
496.02	58335.51
496.20	58159.97
496.38	57755.06
496.55	57429.72
496.73	58021.88
496.91	58239.55
497.09	58576.59
497.26	58773.19
497.44	58447.86
497.62	58087.42
497.79	57301.00
497.97	56095.62
498.14	56097.96
498.32	57139.50
498.50	58054.65
498.67	58489.99
498.85	58389.34
499.03	58471.26
499.20	58918.31
499.38	58810.64
499.56	58609.35
499.73	58248.91
499.91	57797.19
500.08	57181.63
500.26	56926.51
500.44	57111.41
500.61	57757.40
500.79	57680.16
500.97	57315.04
501.14	57088.01
501.32	57125.46
501.49	56868.00
501.67	57183.97
501.84	57593.56
502.02	57846.34
502.20	58262.96
502.37	58499.35
502.55	58450.20
502.72	58625.74
502.90	59351.30
503.07	59117.25
503.25	58595.31
503.43	57855.70
503.60	57359.51
503.78	56451.38
503.95	57190.99
504.13	58265.30
504.30	59297.47
504.48	58995.54
504.65	58504.03
504.83	58450.20
505.01	59180.45
505.18	59451.95
505.36	60065.17
505.53	59868.56
505.71	60406.89
505.88	60559.02
506.06	59765.58
506.23	59456.63
506.41	59047.04
506.58	59175.76
506.76	59346.62
506.93	59355.99
507.11	59098.53
507.28	59133.63
507.46	58770.85
507.63	58199.76
507.81	57881.45
507.98	58267.64
508.16	59063.42
508.33	59398.12
508.50	59643.87
508.68	59948.14
508.85	60240.71
509.03	60388.16
509.20	60329.65
509.38	59550.25
509.55	58965.12
509.73	58812.98
509.90	59547.91
510.08	59810.05
510.25	59723.45
510.42	59566.63
510.60	59395.77
510.77	59590.04
510.95	60046.44
511.12	60116.66
511.30	60624.56
511.47	60666.69
511.64	60580.09
511.82	60491.15
511.99	59590.04
512.17	59440.24
512.34	58834.05
512.51	59025.97
512.69	59243.64
512.86	59187.47
513.04	59524.50
513.21	59721.11
513.38	59426.20
513.56	59112.57
513.73	58375.30
513.90	58515.73
514.08	58623.40
514.25	59007.25
514.43	58805.96
514.60	59065.76
514.77	59358.33
514.95	59255.34
515.12	59262.36
515.29	59442.59
515.47	59917.71
515.64	60299.22
515.81	59908.35
515.99	59332.58
516.16	57881.45
516.33	55814.76
516.51	54319.15
516.68	53867.43
516.85	53139.52
517.03	53469.54
517.20	56203.28
517.37	58382.32
517.54	59365.35
517.72	58913.62
517.89	56685.43
518.06	54468.95
518.24	54752.15
518.41	56772.03
518.58	58110.82
518.75	58141.25
518.93	58417.43
519.10	58244.23
519.27	58541.48
519.45	58721.70
519.62	59377.05
519.79	60001.97
519.96	59770.26
520.14	59269.39
520.31	58543.82
520.48	58284.02
520.65	58726.38
520.83	59564.29
521.00	60126.02
521.17	59786.64
521.34	59384.07
521.52	59674.30
521.69	59964.52
521.86	60505.19
522.03	60196.24
522.20	59091.51
522.38	58120.18
522.55	58042.95
522.72	58670.21
522.89	58913.62
523.07	59009.59
523.24	59248.32
523.41	59962.18
523.58	60341.35
523.75	60783.71
523.92	60690.09
524.10	60662.00
524.27	60633.92
524.44	60460.72
524.61	60289.86
524.78	60044.10
524.96	60025.38
525.13	60266.45
525.30	60044.10
525.47	60722.86
525.64	60542.64
525.81	59817.07
525.98	58726.38
526.16	57125.46
526.33	56355.42
526.50	56313.29
526.67	55789.01
526.84	56427.98
527.01	57371.21
527.18	58232.53
527.36	59147.68
527.53	59896.65
527.70	60062.83
527.87	59540.89
528.04	59030.65
528.21	59533.87
528.38	60097.94
528.55	60800.10
528.72	60926.49
528.89	61113.73
529.07	60629.24
529.24	60140.07
529.41	59758.56
529.58	59079.80
529.75	59107.89
529.92	59681.32
530.09	60053.47
530.26	60413.91
530.43	60741.58
530.60	60612.85
530.77	60865.63
530.94	61003.72
531.11	60615.19
531.28	59978.57
531.46	60123.68
531.63	60250.07
531.80	60074.53
531.97	59664.94
532.14	59051.72
532.31	58005.50
532.48	57439.09
532.65	57209.71
532.82	58239.55
532.99	59224.92
533.16	59620.47
533.33	60030.06
533.50	59945.80
533.67	59311.52
533.84	58939.37
534.01	59138.32
534.18	59374.71
534.35	59573.66
534.52	59341.94
534.69	59580.68
534.86	59938.78
535.03	60229.01
535.20	60619.88
535.37	60739.24
535.54	60891.38
535.71	60570.72
535.88	60271.14
536.05	59676.64
536.22	59325.56
536.38	58880.86
536.55	58569.57
536.72	58211.46
536.89	57762.08
537.06	58887.88
537.23	59681.32
537.40	59880.27
537.57	59629.83
537.74	59564.29
537.91	59583.02
538.08	59451.95
538.25	59496.42
538.42	59639.19
538.59	59583.02
538.75	59093.85
538.92	58763.83
539.09	58649.14
539.26	58569.57
539.43	58316.79
539.60	58382.32
539.77	58267.64
539.94	58241.89
540.11	57467.17
540.28	57282.27
540.44	57045.88
540.61	57340.78
540.78	57717.61
540.95	58171.67
541.12	58628.08
541.29	58824.68
541.46	58855.11
541.62	59152.36
541.79	58780.21
541.96	58209.12
542.13	58195.08
542.30	58520.41
542.47	58700.64
542.63	58415.09
542.80	58265.30
542.97	58078.05
543.14	58375.30
543.31	58269.98
543.48	58897.24
543.64	59571.32
543.81	59564.29
543.98	59550.25
544.15	58932.35
544.32	58391.68
544.48	58340.19
544.65	58866.81
544.82	59297.47
544.99	58831.71
545.16	58611.70
545.32	58251.25
545.49	59096.19
545.66	59353.65
545.83	59320.88
546.00	58728.72
546.16	58291.04
546.33	58375.30
546.50	58630.42
546.67	58939.37
546.83	58473.60
547.00	58438.50
547.17	57991.45
547.34	57408.66
547.50	57406.32
547.67	57921.24
547.84	57773.78
548.00	58103.80
548.17	58798.94
548.34	58337.85
548.51	58480.63
548.67	58553.18
548.84	58599.99
549.01	58504.03
549.18	58291.04
549.34	58436.16
549.51	58363.60
549.68	58293.38
549.84	58082.73
550.01	58064.01
550.18	57869.75
550.34	58031.24
550.51	57907.19
550.68	57846.34
550.84	57539.73
551.01	57448.45
551.18	57422.70
551.34	57813.57
551.51	58274.66
551.68	58384.66
551.84	58431.47
552.01	58216.14
552.18	58092.10
552.34	57118.43
552.51	56879.70
552.68	56875.02
552.84	57396.96
553.01	57696.55
553.18	57443.77
553.34	57766.76
553.51	57726.97
553.67	58185.72
553.84	58171.67
554.01	57939.96
554.17	57951.66
554.34	58012.52
554.51	57841.66
554.67	58396.37
554.84	58087.42
555.00	57846.34
555.17	57464.83
555.33	57698.89
555.50	57357.17
555.67	57654.42
555.83	57425.04
556.00	56879.70
556.16	57097.37
556.33	56736.93
556.50	56575.43
556.66	56776.72
556.83	56067.53
556.99	56292.22
557.16	56636.28
557.32	56896.08
557.49	57326.74
557.65	56917.15
557.82	57104.39
557.98	56879.70
558.15	56556.70
558.32	55433.25
558.48	54805.98
558.65	55096.21
558.81	55236.64
558.98	55318.56
559.14	55863.91
559.31	56037.11
559.47	55861.57
559.64	55604.11
559.80	55374.73
559.97	55292.82
560.13	55758.58
560.30	56547.34
560.46	57036.51
560.63	57146.52
560.79	57223.76
560.96	56860.97
561.12	55772.63
561.29	54981.52
561.45	54845.77
561.61	55552.62
561.78	55810.07
561.94	56032.42
562.11	55849.86
562.27	55721.13
562.44	55952.85
562.60	56163.50
562.77	56465.42
562.93	56200.94
563.10	56353.08
563.26	55660.28
563.42	55732.84
563.59	55381.76
563.75	55524.53
563.92	55576.02
564.08	55470.70
564.24	55793.69
564.41	55636.87
564.57	55639.22
564.74	55367.71
564.90	55643.90
565.07	55241.32
565.23	54794.28
565.39	54431.50
565.56	53839.34
565.72	53986.80
565.88	54167.02
566.05	54204.47
566.21	54370.64
566.38	54600.02
566.54	54686.62
566.70	55379.42
566.87	55473.04
567.03	55524.53
567.19	55643.90
567.36	55224.94
567.52	54958.12
567.68	54920.67
567.85	54368.30
568.01	54096.80
568.17	53357.19
568.34	53549.12
568.50	53855.73
568.66	53635.72
568.83	53797.21
568.99	54370.64
569.15	54232.55
569.32	54316.81
569.48	53731.68
569.64	53954.03
569.81	53361.87
569.97	53563.16
570.13	53504.65
570.30	52858.66
570.46	52631.63
570.62	51950.53
570.78	51590.09
570.95	51945.85
571.11	52973.34
571.27	52844.62
571.43	53183.99
571.60	53420.39
571.76	53598.27
571.92	53867.43
572.09	54150.63
572.25	54143.61
572.41	53965.73
572.57	53951.69
572.74	53930.62
572.90	53565.50
573.06	53326.77
573.22	53474.22
573.38	53422.73
573.55	53373.58
573.71	53488.26
573.87	53450.81
574.03	53181.65
574.20	53366.55
574.36	52987.39
574.52	52968.66
574.68	52519.28
574.84	52144.80
575.01	51538.60
575.17	51444.98
575.33	51709.46
575.49	52112.03
575.65	52275.87
575.82	52116.71
575.98	51634.56
576.14	52264.16
576.30	52687.80
576.46	52608.22
576.62	52758.02
576.79	52657.37
576.95	51899.04
577.11	52140.11
577.27	52009.04
577.43	52460.77
577.59	52109.69
577.75	51119.64
577.92	50527.48
578.08	50611.74
578.24	50688.98
578.40	50897.29
578.56	51341.99
578.72	51054.11
578.88	51419.23
579.04	51906.06
579.21	51573.70
579.37	51592.43
579.53	51810.10
579.69	51444.98
579.85	52006.70
580.01	51863.93
580.17	51325.61
580.33	50958.14
580.49	51243.69
580.65	51562.00
580.82	51643.92
580.98	51716.48
581.14	51386.46
581.30	51449.66
581.46	51487.10
581.62	51611.15
581.78	51700.09
581.94	51873.29
582.10	51821.80
582.26	51896.70
582.42	51716.48
582.58	51746.90
582.74	51674.35
582.90	51896.70
583.06	51742.22
583.22	51386.46
583.38	51515.19
583.54	51386.46
583.70	51276.46
583.86	51573.70
584.02	51330.29
584.18	51522.21
584.34	51121.98
584.50	51241.35
584.66	50890.27
584.82	50494.72
584.98	50630.47
585.14	50026.61
