SpectraSuite Data File
++++++++++++++++++++++++++++++++++++
Date: Mon Oct 07 14:53:31 GMT-05:00 2013
User: price-jones
Dark Spectrum Present: No
Reference Spectrum Present: No
Number of Sampled Component Spectra: 1
Spectrometers: USB2+H05261
Integration Time (usec): 100000 (USB2+H05261)
Spectra Averaged: 1 (USB2+H05261)
Boxcar Smoothing: 0 (USB2+H05261)
Correct for Electrical Dark: No (USB2+H05261)
Strobe/Lamp Enabled: No (USB2+H05261)
Correct for Detector Non-linearity: No (USB2+H05261)
Correct for Stray Light: No (USB2+H05261)
Number of Pixels in Processed Spectrum: 2048
>>>>>Begin Processed Spectral Data<<<<<
365.73	0.00
365.92	0.00
366.12	0.00
366.32	0.00
366.52	0.00
366.72	0.00
366.91	0.00
367.11	0.00
367.31	0.00
367.51	0.00
367.70	0.00
367.90	0.00
368.10	0.00
368.30	0.00
368.49	0.00
368.69	0.00
368.89	0.00
369.09	0.00
369.28	0.00
369.48	0.00
369.68	0.00
369.87	0.00
370.07	0.00
370.27	0.00
370.47	575.77
370.66	2890.56
370.86	3445.27
371.06	3768.26
371.25	3871.25
371.45	3571.66
371.65	3239.30
371.84	2958.44
372.04	3052.06
372.24	3426.54
372.44	3620.81
372.63	3557.61
372.83	3356.33
373.03	3005.25
373.22	2757.15
373.42	2958.44
373.62	3178.45
373.81	3585.70
374.01	3517.83
374.21	3185.47
374.40	2949.08
374.60	2963.12
374.79	3468.67
374.99	4007.00
375.19	4458.72
375.38	4442.34
375.58	4131.05
375.78	4112.32
375.97	4161.47
376.17	4271.48
376.37	4313.61
376.56	4517.23
376.76	4634.26
376.95	4985.34
377.15	5284.93
377.35	5458.13
377.54	5650.05
377.74	5706.23
377.93	5806.87
378.13	5753.04
378.33	5404.30
378.52	4905.76
378.72	4762.99
378.91	4746.61
379.11	4566.39
379.31	4468.08
379.50	4383.82
379.70	4620.22
379.89	5224.08
380.09	5502.60
380.28	5804.53
380.48	5741.33
380.68	5844.32
380.87	5516.64
381.07	5109.39
381.26	4657.67
381.46	4505.53
381.65	4264.46
381.85	4140.41
382.04	3904.01
382.24	3819.75
382.43	3571.66
382.63	3445.27
382.83	3501.44
383.02	3473.36
383.22	3559.95
383.41	3562.30
383.61	3698.05
383.80	4229.35
384.00	4880.02
384.19	5406.64
384.39	5844.32
384.58	5823.25
384.78	5654.73
384.97	5593.88
385.17	5387.91
385.36	5025.13
385.56	4844.91
385.75	4938.53
385.95	5528.35
386.14	5884.11
386.34	5942.62
386.53	5647.71
386.72	5380.89
386.92	5369.19
387.11	5479.19
387.31	5982.41
387.50	5701.54
387.70	5554.09
387.89	5530.69
388.09	5687.50
388.28	5617.29
388.48	5696.86
388.67	6284.34
388.86	6895.22
389.06	7206.51
389.25	7658.23
389.45	7559.93
389.64	7641.85
389.84	7543.55
390.03	7368.01
390.22	7370.35
390.42	7496.74
390.61	8093.57
390.81	8671.68
391.00	8842.54
391.19	8835.52
391.39	8472.74
391.58	7981.23
391.78	7445.24
391.97	7283.75
392.16	6829.68
392.36	6267.95
392.55	5004.07
392.75	3978.91
392.94	3192.49
393.13	3112.91
393.33	3749.54
393.52	4770.01
393.71	5909.85
393.91	6715.00
394.10	7342.26
394.29	8035.06
394.49	8622.53
394.68	9158.52
394.88	9350.44
395.07	9488.53
395.26	9376.19
395.46	9392.57
395.65	8744.24
395.84	7595.04
396.04	6441.15
396.23	5259.18
396.42	4292.54
396.62	4285.52
396.81	4905.76
397.00	6328.81
397.19	7878.24
397.39	9224.05
397.58	10396.66
397.77	11052.01
397.97	11679.27
398.16	11651.19
398.35	12205.89
398.55	12580.38
398.74	12987.63
398.93	13226.37
399.12	13027.42
399.32	12542.93
399.51	12751.24
399.70	13678.09
399.90	13228.71
400.09	13767.03
400.28	13554.04
400.47	13411.27
400.67	14260.88
400.86	14560.47
401.05	14480.89
401.24	14792.19
401.44	14768.78
401.63	14813.25
401.82	15089.43
402.01	14991.13
402.21	14853.04
402.40	15288.38
402.59	14670.48
402.78	14298.33
402.97	13827.88
403.17	14312.38
403.36	15161.99
403.55	15597.33
403.74	15981.18
403.93	15187.74
404.13	14120.45
404.32	13781.07
404.51	14298.33
404.70	15510.73
404.89	15496.69
405.09	15222.84
405.28	14616.65
405.47	14934.96
405.66	14892.83
405.85	14560.47
406.05	14115.77
406.24	14010.45
406.43	14628.35
406.62	15463.92
406.81	15419.45
407.00	14967.73
407.20	14492.60
407.39	14799.21
407.58	15335.19
407.77	15997.56
407.96	16409.50
408.15	16535.88
408.34	16711.42
408.54	17556.36
408.73	17500.19
408.92	17397.20
409.11	16704.40
409.30	16093.52
409.49	15250.93
409.68	13973.00
409.87	13701.50
410.07	14523.02
410.26	15648.82
410.45	16655.25
410.64	17312.94
410.83	17872.33
411.02	18026.81
411.21	18822.59
411.40	18665.77
411.59	18700.88
411.78	18555.77
411.98	18396.61
412.17	18525.34
412.36	18204.69
412.55	18200.01
412.74	17980.00
412.93	17469.76
413.12	17479.12
413.31	19215.80
413.50	19529.43
413.69	19646.46
413.88	19033.24
414.07	18450.44
414.26	18633.00
414.45	19711.99
414.64	19204.10
414.83	19576.24
415.02	19033.24
415.22	19058.98
415.41	19623.05
415.60	19901.58
415.79	20889.28
415.98	21324.62
416.17	21474.42
416.36	20676.29
416.55	20713.74
416.74	20077.12
416.93	19110.47
417.12	19421.77
417.31	19861.79
417.50	19953.07
417.69	20109.88
417.88	20709.06
418.07	20451.60
418.26	20067.75
418.45	20130.95
418.64	20959.50
418.83	21537.61
419.02	21561.02
419.21	21053.12
419.39	20231.59
419.58	19316.44
419.77	19197.07
419.96	20217.55
420.15	21116.31
420.34	22111.04
420.53	22558.08
420.72	23061.30
420.91	22787.46
421.10	22602.55
421.29	22349.78
421.48	21577.40
421.67	22604.89
421.86	21926.14
422.05	20435.22
422.24	18576.83
422.43	18190.64
422.61	19985.83
422.80	22094.66
422.99	21972.95
423.18	21397.18
423.37	20872.90
423.56	20685.65
423.75	21275.47
423.94	21465.05
424.13	20114.56
424.32	20243.29
424.50	20865.88
424.69	20423.51
424.88	20301.81
425.07	20601.40
425.26	20273.72
425.45	20304.15
425.64	19496.66
425.83	19840.72
426.01	20926.73
426.20	21624.21
426.39	21607.83
426.58	19826.68
426.77	18483.21
426.96	17439.33
427.15	18324.05
427.33	19620.71
427.52	20538.20
427.71	20786.30
427.90	20432.88
428.09	20360.32
428.28	19906.26
428.46	19016.85
428.65	18672.79
428.84	19269.63
429.03	19770.51
429.22	18743.01
429.40	17795.09
429.59	16142.67
429.78	14420.04
429.97	14092.37
430.16	14377.91
430.34	14670.48
430.53	14583.88
430.72	14801.55
430.91	16514.82
431.10	19124.52
431.28	22682.13
431.47	24175.39
431.66	24765.21
431.85	22452.76
432.03	20720.76
432.22	19456.87
432.41	20442.24
432.60	22661.07
432.79	23946.02
432.97	24381.36
433.16	23817.29
433.35	21958.91
433.54	19775.19
433.72	18183.62
433.91	18941.96
434.10	21125.68
434.28	22408.29
434.47	23758.78
434.66	23431.10
434.85	22829.59
435.03	22478.50
435.22	23374.93
435.41	24783.93
435.59	25027.35
435.78	25364.39
435.97	25970.58
436.16	26026.76
436.34	25844.20
436.53	25116.29
436.72	25209.91
436.90	23791.55
437.09	23847.72
437.28	23314.08
437.46	24102.84
437.65	23882.83
437.84	22462.12
438.02	20580.33
438.21	20159.03
438.40	21638.25
438.58	23159.60
438.77	23929.64
438.96	24329.87
439.14	25338.64
439.33	25764.62
439.52	26501.89
439.70	26134.42
439.89	25448.64
440.08	24072.41
440.26	24489.03
440.45	25025.01
440.63	26581.46
440.82	28477.30
441.01	28016.21
441.19	27615.98
441.38	27681.52
441.57	29064.77
441.75	29694.38
441.94	29624.16
442.12	29036.69
442.31	29846.51
442.50	30008.01
442.68	29081.16
442.87	29137.33
443.05	28783.91
443.24	29099.88
443.43	29582.03
443.61	30459.73
443.80	30710.17
443.98	28793.27
444.17	28692.63
444.35	30799.11
444.54	31475.52
444.73	30569.74
444.91	29771.61
445.10	28386.02
445.28	27103.40
445.47	26754.66
445.65	26923.18
445.84	27950.68
446.02	28893.91
446.21	28936.04
446.39	29298.83
446.58	29493.09
446.77	29982.26
446.95	30462.07
447.14	31384.24
447.32	31637.02
447.51	30995.71
447.69	29390.11
447.88	29453.30
448.06	29752.89
448.25	30539.31
448.43	30768.68
448.62	30094.61
448.80	30174.19
448.99	30244.40
449.17	30228.02
449.36	30714.85
449.54	31363.18
449.73	31824.26
449.91	32594.30
450.10	33219.22
450.28	33874.57
450.46	33574.98
450.65	33455.62
450.83	33221.56
451.02	32425.78
451.20	32233.86
451.39	32034.91
451.57	31718.94
451.76	32027.89
451.94	31835.97
452.13	31328.07
452.31	30232.70
452.49	28882.21
452.68	29020.30
452.86	28840.08
453.05	29586.71
453.23	30373.13
453.42	30969.97
453.60	31749.37
453.78	31974.06
453.97	32013.85
454.15	31585.53
454.34	30881.03
454.52	31159.55
454.70	30462.07
454.89	30551.01
455.07	30960.61
455.26	31487.23
455.44	32666.86
455.62	33481.36
455.81	33443.91
455.99	33085.81
456.17	32926.66
456.36	32854.10
456.54	33699.03
456.73	33532.86
456.91	34373.11
457.09	34185.86
457.28	35108.04
457.46	33596.05
457.64	33715.42
457.83	32407.06
458.01	31646.38
458.19	32570.90
458.38	32807.29
458.56	34150.76
458.74	33593.71
458.93	33266.03
459.11	33179.43
459.29	32638.77
459.48	33179.43
459.66	32549.83
459.84	33207.52
460.03	33755.21
460.21	33670.95
460.39	34244.38
460.57	34532.26
460.76	35002.71
460.94	35440.39
461.12	34380.13
461.31	34803.77
461.49	34527.58
461.67	34553.33
461.85	35667.42
462.04	35409.96
462.22	35672.10
462.40	35213.36
462.59	35150.17
462.77	35517.63
462.95	35047.18
463.13	35065.91
463.32	34452.69
463.50	34768.66
463.68	34244.38
463.86	34604.82
464.05	33914.36
464.23	32818.99
464.41	33240.29
464.59	32540.47
464.78	33792.65
464.96	33795.00
465.14	33848.83
465.32	34871.64
465.50	35786.79
465.69	35857.01
465.87	34754.61
466.05	34171.82
466.23	32573.24
466.41	31854.69
466.60	32730.05
466.78	32655.15
466.96	33869.89
467.14	34436.30
467.32	34422.26
467.51	34387.15
467.69	33202.84
467.87	33472.00
468.05	34160.12
468.23	34127.35
468.41	34625.89
468.60	33914.36
468.78	34569.71
468.96	34117.99
469.14	34649.29
469.32	35409.96
469.50	33874.57
469.69	33935.43
469.87	33017.94
470.05	32713.67
470.23	33266.03
470.41	33247.31
470.59	34017.35
470.77	34153.10
470.95	34682.06
471.14	34796.74
471.32	35201.66
471.50	36856.42
471.68	37010.89
471.86	37724.75
472.04	37413.46
472.22	37759.86
472.40	35798.49
472.58	35442.73
472.77	34796.74
472.95	35578.48
473.13	36634.06
473.31	35669.76
473.49	35821.90
473.67	37249.63
473.85	36797.90
474.03	37928.38
474.21	37790.29
474.39	38504.15
474.57	38253.72
474.75	38234.99
474.93	38366.06
475.12	37099.83
475.30	37464.96
475.48	37429.85
475.66	37724.75
475.84	37670.92
476.02	37177.07
476.20	36886.84
476.38	37691.99
476.56	38712.46
476.74	39056.52
476.92	39442.71
477.10	39931.88
477.28	40900.86
477.46	41287.05
477.64	41441.53
477.82	41373.65
478.00	41570.25
478.18	41057.68
478.36	41095.13
478.54	40697.24
478.72	41368.97
478.90	42019.64
479.08	42890.32
479.26	43845.26
479.44	43391.19
479.62	43353.74
479.80	43143.09
479.98	43721.21
480.16	44037.18
480.34	43477.79
480.52	43817.17
480.70	44074.63
480.88	43824.19
481.06	45151.27
481.24	45020.20
481.41	45972.80
481.59	46784.97
481.77	46527.51
481.95	45549.17
482.13	45446.18
482.31	45574.91
482.49	46436.23
482.67	45881.52
482.85	46389.42
483.03	47187.54
483.21	47304.57
483.39	47545.64
483.57	46665.60
483.74	46085.15
483.92	46649.22
484.10	47044.77
484.28	48037.16
484.46	48388.24
484.64	49191.04
484.82	47725.86
485.00	47119.66
485.18	46646.88
485.35	44804.88
485.53	42295.82
485.71	38658.63
485.89	37998.60
486.07	39227.38
486.25	43014.37
486.43	45481.29
486.61	46206.86
486.78	45710.66
486.96	46508.79
487.14	48252.48
487.32	48842.30
487.50	50021.93
487.68	50696.00
487.85	51292.84
488.03	51194.54
488.21	50817.71
488.39	50218.53
488.57	49565.52
488.75	48994.43
488.92	50234.92
489.10	52102.67
489.28	53380.60
489.46	54237.23
489.64	53792.53
489.81	54059.35
489.99	53996.16
490.17	53937.65
490.35	54080.42
490.53	53888.49
490.70	53427.41
490.88	53207.40
491.06	53977.43
491.24	54206.81
491.41	53006.11
491.59	51983.30
491.77	50813.03
491.95	51744.56
492.13	53230.80
492.30	54078.08
492.48	55547.93
492.66	55639.22
492.84	55934.12
493.01	55414.52
493.19	54752.15
493.37	54511.08
493.54	54241.92
493.72	55079.83
493.90	55805.39
494.08	56374.14
494.25	56900.76
494.43	57062.26
494.61	57347.81
494.79	57509.30
494.96	57640.37
495.14	56577.77
495.32	55922.42
495.49	55025.99
495.67	56205.62
495.85	57375.89
496.02	57827.62
496.20	57485.90
496.38	57221.42
496.55	57132.48
496.73	57635.69
496.91	57743.36
497.09	58150.61
497.26	58497.01
497.44	58028.90
497.62	57696.55
497.79	56788.42
497.97	55622.83
498.14	55625.17
498.32	56388.19
498.50	57656.76
498.67	58202.10
498.85	58117.84
499.03	57982.09
499.20	58408.07
499.38	58396.37
499.56	58281.68
499.73	57900.17
499.91	57422.70
500.08	56947.57
500.26	56390.53
500.44	56863.32
500.61	57429.72
500.79	56978.00
500.97	56910.13
501.14	56495.85
501.32	56343.72
501.49	56647.99
501.67	56816.50
501.84	57511.64
502.02	57499.94
502.20	57764.42
502.37	58176.36
502.55	58204.44
502.72	58674.89
502.90	59035.33
503.07	58614.04
503.25	58316.79
503.43	57446.11
503.60	56814.16
503.78	56294.56
503.95	56547.34
504.13	58014.86
504.30	58857.45
504.48	58794.26
504.65	58253.59
504.83	58340.19
505.01	58820.00
505.18	59133.63
505.36	59985.59
505.53	59711.75
505.71	60039.42
505.88	59955.16
506.06	59643.87
506.23	59103.21
506.41	59040.01
506.58	59056.40
506.76	59072.78
506.93	59063.42
507.11	58820.00
507.28	58927.67
507.46	58628.08
507.63	58028.90
507.81	57661.44
507.98	58000.82
508.16	58885.54
508.33	58960.44
508.50	59388.75
508.68	59704.73
508.85	60320.29
509.03	60231.35
509.20	60046.44
509.38	59334.92
509.55	58691.27
509.73	58759.15
509.90	59330.24
510.08	59468.33
510.25	59334.92
510.42	59250.66
510.60	59215.55
510.77	59564.29
510.95	59842.82
511.12	60097.94
511.30	60446.68
511.47	60633.92
511.64	60608.17
511.82	60310.92
511.99	59634.51
512.17	59199.17
512.34	58768.51
512.51	58855.11
512.69	59032.99
512.86	59201.51
513.04	59728.13
513.21	59508.12
513.38	59192.15
513.56	58742.77
513.73	58014.86
513.90	58342.53
514.08	58241.89
514.25	58564.88
514.43	58993.20
514.60	58911.28
514.77	59517.48
514.95	59229.60
515.12	59063.42
515.29	59264.70
515.47	59805.37
515.64	59987.93
515.81	59739.83
515.99	59182.79
516.16	57860.38
516.33	55547.93
516.51	54099.14
516.68	53361.87
516.85	53095.05
517.03	53420.39
517.20	55859.23
517.37	58330.83
517.54	59370.03
517.72	58836.39
517.89	56552.02
518.06	54071.06
518.24	54272.34
518.41	56463.08
518.58	57970.39
518.75	58061.67
518.93	58370.62
519.10	58307.43
519.27	58628.08
519.45	58761.49
519.62	59468.33
519.79	59969.21
519.96	59531.53
520.14	59110.23
520.31	58312.11
520.48	58248.91
520.65	58651.48
520.83	59772.60
521.00	59997.29
521.17	59547.91
521.34	59313.86
521.52	59587.70
521.69	60135.38
521.86	60542.64
522.03	60264.11
522.20	59107.89
522.38	57986.77
522.55	58003.16
522.72	58541.48
522.89	58644.46
523.07	58965.12
523.24	59224.92
523.41	60198.58
523.58	60310.92
523.75	60830.52
523.92	60596.47
524.10	60566.04
524.27	60563.70
524.44	60432.63
524.61	60107.30
524.78	59950.48
524.96	59891.97
525.13	60065.17
525.30	60177.51
525.47	60800.10
525.64	60528.59
525.81	59695.36
525.98	58674.89
526.16	57233.12
526.33	56615.22
526.50	56149.45
526.67	55945.83
526.84	56502.87
527.01	57364.19
527.18	58115.50
527.36	59135.98
527.53	59896.65
527.70	60233.69
527.87	59285.77
528.04	59269.39
528.21	59568.97
528.38	60212.62
528.55	60704.13
528.72	61062.24
528.89	61137.13
529.07	60940.53
529.24	60374.12
529.41	59798.35
529.58	59215.55
529.75	59161.72
529.92	59409.82
530.09	59985.59
530.26	60715.84
530.43	60860.95
530.60	60961.59
530.77	60963.93
530.94	61277.57
531.11	60807.12
531.28	60341.35
531.46	60196.24
531.63	60327.31
531.80	60252.41
531.97	59920.05
532.14	59152.36
532.31	58255.93
532.48	57654.42
532.65	57633.35
532.82	58372.96
532.99	59423.86
533.16	59803.03
533.33	60252.41
533.50	60039.42
533.67	59456.63
533.84	59049.38
534.01	59210.87
534.18	59370.03
534.35	59622.81
534.52	59482.37
534.69	59676.64
534.86	60147.09
535.03	60254.75
535.20	60664.35
535.37	61064.58
535.54	61057.56
535.71	60832.86
535.88	60463.06
536.05	59636.85
536.22	59601.74
536.38	59023.63
536.55	58745.11
536.72	58267.64
536.89	57975.07
537.06	58953.41
537.23	59805.37
537.40	60200.92
537.57	59908.35
537.74	59772.60
537.91	59760.90
538.08	59622.81
538.25	59796.01
538.42	59625.15
538.59	59845.16
538.75	59143.00
538.92	58955.75
539.09	58595.31
539.26	58787.24
539.43	58408.07
539.60	58548.50
539.77	58614.04
539.94	58513.39
540.11	57846.34
540.28	57183.97
540.44	57446.11
540.61	57675.48
540.78	57806.55
540.95	58181.04
541.12	58660.85
541.29	58665.53
541.46	59208.53
541.62	59227.26
541.79	58934.69
541.96	58560.20
542.13	58583.61
542.30	59016.61
542.47	58939.37
542.63	58780.21
542.80	58513.39
542.97	58911.28
543.14	58548.50
543.31	58557.86
543.48	59082.14
543.64	59997.29
543.81	60182.19
543.98	59929.42
544.15	59241.30
544.32	58747.45
544.48	58789.58
544.65	59128.95
544.82	59615.79
544.99	59224.92
545.16	58901.92
545.32	58621.06
545.49	59688.34
545.66	59838.14
545.83	59393.43
546.00	59121.93
546.16	58801.28
546.33	58815.32
546.50	58805.96
546.67	59201.51
546.83	58794.26
547.00	58691.27
547.17	58244.23
547.34	57787.83
547.50	57691.86
547.67	58272.32
547.84	58349.56
548.00	58508.71
548.17	59021.29
548.34	58749.79
548.51	58747.45
548.67	58939.37
548.84	59077.46
549.01	58927.67
549.18	58740.42
549.34	58745.11
549.51	58838.73
549.68	58756.81
549.84	58609.35
550.01	58232.53
550.18	58239.55
550.34	58120.18
550.51	58293.38
550.68	58508.71
550.84	58056.99
551.01	58127.20
551.18	58183.38
551.34	58155.29
551.51	58880.86
551.68	58953.41
551.84	58749.79
552.01	58653.82
552.18	58457.22
552.34	57818.25
552.51	57544.41
552.68	57535.05
552.84	57944.64
553.01	58117.84
553.18	58064.01
553.34	57904.85
553.51	58298.06
553.67	58515.73
553.84	58478.28
554.01	58363.60
554.17	58358.92
554.34	58389.34
554.51	58459.56
554.67	58930.01
554.84	58506.37
555.00	58342.53
555.17	57984.43
555.33	57998.48
555.50	57916.56
555.67	58035.92
555.83	57916.56
556.00	57729.31
556.16	57577.18
556.33	57080.98
556.50	56992.04
556.66	57146.52
556.83	56856.29
556.99	56973.32
557.16	57169.93
557.32	57549.09
557.49	57724.63
557.65	57675.48
557.82	57230.78
557.98	57567.82
558.15	57088.01
558.32	56425.64
558.48	55246.00
558.65	55531.55
558.81	55959.87
558.98	56292.22
559.14	56442.02
559.31	56442.02
559.47	56491.17
559.64	56086.26
559.80	55646.24
559.97	55824.12
560.13	56378.82
560.30	57013.11
560.46	57715.27
560.63	58028.90
560.79	57935.28
560.96	57532.71
561.12	56500.53
561.29	55599.43
561.45	55559.64
561.61	56238.39
561.78	56676.07
561.94	56685.43
562.11	56378.82
562.27	56104.98
562.44	56498.19
562.60	56891.40
562.77	57059.92
562.93	56896.08
563.10	57144.18
563.26	56385.85
563.42	56446.70
563.59	56329.67
563.75	56182.22
563.92	56229.03
564.08	56362.44
564.24	56573.09
564.41	56559.05
564.57	56416.27
564.74	56161.15
564.90	56051.15
565.07	56037.11
565.23	55580.70
565.39	55091.53
565.56	54831.73
565.72	54419.80
565.88	54644.49
566.05	55290.48
566.21	55463.67
566.38	55592.40
566.54	55831.14
566.70	55908.38
566.87	56137.75
567.03	56109.66
567.19	56388.19
567.36	55994.98
567.52	55908.38
567.68	55604.11
567.85	55246.00
568.01	54691.30
568.17	54347.24
568.34	54436.18
568.50	54375.33
568.66	54614.06
568.83	54801.30
568.99	54869.18
569.15	54990.89
569.32	55047.06
569.48	54773.22
569.64	54513.42
569.81	54377.67
569.97	54372.99
570.13	54075.74
570.30	53687.21
570.46	53368.90
570.62	52584.82
570.78	52439.70
570.95	52931.22
571.11	53734.02
571.27	54040.63
571.43	54349.58
571.60	54372.99
571.76	54443.20
571.92	54731.09
572.09	54876.20
572.25	54646.83
572.41	54890.24
572.57	54796.62
572.74	54518.10
572.90	54293.41
573.06	54424.48
573.22	54438.52
573.38	54293.41
573.55	54333.20
573.71	54539.16
573.87	54482.99
574.03	54143.61
574.20	54218.51
574.36	53972.75
574.52	53939.99
574.68	53626.35
574.84	53202.72
575.01	52949.94
575.17	52690.14
575.33	52900.79
575.49	53284.64
575.65	53523.37
575.82	53233.14
575.98	52872.70
576.14	53340.81
576.30	53607.63
576.46	53595.93
576.62	53485.92
576.79	53420.39
576.95	53003.77
577.11	53167.61
577.27	53144.20
577.43	53083.35
577.59	52875.04
577.75	52645.67
577.92	51906.06
578.08	51290.50
578.24	51583.07
578.40	52090.96
578.56	52381.19
578.72	52200.97
578.88	52589.50
579.04	52968.66
579.21	52669.08
579.37	52872.70
579.53	52968.66
579.69	52793.12
579.85	53427.41
580.01	52694.82
580.17	52343.74
580.33	51906.06
580.49	52322.68
580.65	52512.26
580.82	52683.12
580.98	52758.02
581.14	52584.82
581.30	52516.94
581.46	52727.59
581.62	52870.36
581.78	52699.50
581.94	53216.76
582.10	52959.30
582.26	52903.13
582.42	52945.26
582.58	52978.03
582.74	52905.47
582.90	52973.34
583.06	52811.85
583.22	52921.85
583.38	52605.88
583.54	52329.70
583.70	52278.21
583.86	52633.97
584.02	52514.60
584.18	52708.86
584.34	52411.62
584.50	52428.00
584.66	52301.61
584.82	51767.97
584.98	51885.00
585.14	51360.72
585.30	50906.65
