SpectraSuite Data File
++++++++++++++++++++++++++++++++++++
Date: Mon Oct 07 14:53:17 GMT-05:00 2013
User: price-jones
Dark Spectrum Present: No
Reference Spectrum Present: No
Number of Sampled Component Spectra: 1
Spectrometers: USB2+H05261
Integration Time (usec): 100000 (USB2+H05261)
Spectra Averaged: 1 (USB2+H05261)
Boxcar Smoothing: 0 (USB2+H05261)
Correct for Electrical Dark: No (USB2+H05261)
Strobe/Lamp Enabled: No (USB2+H05261)
Correct for Detector Non-linearity: No (USB2+H05261)
Correct for Stray Light: No (USB2+H05261)
Number of Pixels in Processed Spectrum: 2048
>>>>>Begin Processed Spectral Data<<<<<
365.73	0.00
365.92	0.00
366.12	0.00
366.32	0.00
366.52	0.00
366.72	0.00
366.91	0.00
367.11	0.00
367.31	0.00
367.51	0.00
367.70	0.00
367.90	0.00
368.10	0.00
368.30	0.00
368.49	0.00
368.69	0.00
368.89	0.00
369.09	0.00
369.28	0.00
369.48	0.00
369.68	0.00
369.87	0.00
370.07	0.00
370.27	0.00
370.47	1689.87
370.66	6834.36
370.86	8203.58
371.06	8386.14
371.25	8379.12
371.45	7749.51
371.65	6885.86
371.84	6738.40
372.04	7241.62
372.24	7662.91
372.44	7925.05
372.63	7775.26
372.83	7169.06
373.03	6464.56
373.22	5930.92
373.42	6335.83
373.62	7243.96
373.81	7702.70
374.01	7470.99
374.21	6761.81
374.40	6516.05
374.60	6801.60
374.79	7850.16
374.99	8877.65
375.19	9355.12
375.38	9350.44
375.58	8760.63
375.78	8678.71
375.97	8915.10
376.17	9064.89
376.37	9352.78
376.56	9310.65
376.76	9902.81
376.95	10483.26
377.15	11311.81
377.35	11688.64
377.54	12049.08
377.74	12383.77
377.93	12023.33
378.13	11873.54
378.33	11150.31
378.52	10457.51
378.72	10076.01
378.91	9982.38
379.11	9799.82
379.31	9357.46
379.50	9308.31
379.70	10228.14
379.89	11087.12
380.09	11859.49
380.28	12123.98
380.48	11817.36
380.68	11690.98
380.87	11300.11
381.07	10504.32
381.26	9839.61
381.46	9057.87
381.65	8819.14
381.85	8667.00
382.04	8168.47
382.24	7688.66
382.43	7297.79
382.63	7169.06
382.83	7243.96
383.02	6937.35
383.22	7131.61
383.41	7248.64
383.61	7808.03
383.80	9055.53
384.00	10012.81
384.19	11190.10
384.39	11836.09
384.58	11831.41
384.78	11246.27
384.97	11229.89
385.17	10590.92
385.36	10015.15
385.56	9928.55
385.75	10029.20
385.95	10977.11
386.14	11808.00
386.34	11805.66
386.53	11332.87
386.72	10768.80
386.92	10979.45
387.11	11576.29
387.31	11964.82
387.50	11658.21
387.70	11445.22
387.89	11070.73
388.09	11126.91
388.28	11288.40
388.48	11552.88
388.67	12285.47
388.86	13453.40
389.06	14029.17
389.25	15344.55
389.45	15304.76
389.64	15124.54
389.84	15136.24
390.03	14600.26
390.22	14654.09
390.42	15618.39
390.61	16224.59
390.81	17525.93
391.00	17551.68
391.19	17303.58
391.39	16718.45
391.58	15810.32
391.78	14743.03
391.97	14487.92
392.16	13238.07
392.36	11845.45
392.55	9448.74
392.75	7573.97
392.94	6586.27
393.13	6597.97
393.33	7941.44
393.52	9944.94
393.71	12065.46
393.91	13364.46
394.10	14546.43
394.29	15709.68
394.49	17097.61
394.68	18267.88
394.88	18249.16
395.07	18948.98
395.26	18623.64
395.46	18115.75
395.65	16912.71
395.84	14602.60
396.04	12081.85
396.23	10186.01
396.42	8699.77
396.62	8234.00
396.81	9944.94
397.00	12776.98
397.19	15967.13
397.39	18693.86
397.58	20737.15
397.77	21867.63
397.97	22525.32
398.16	23065.98
398.35	24180.07
398.55	24453.92
398.74	25530.56
398.93	26019.74
399.12	25432.26
399.32	24584.99
399.51	25420.56
399.70	26843.60
399.90	26010.37
400.09	26319.32
400.28	25837.17
400.47	26836.58
400.67	27342.14
400.86	28175.37
401.05	27536.40
401.24	28266.65
401.44	28971.15
401.63	28994.56
401.82	29233.29
402.01	28989.88
402.21	29432.24
402.40	29553.94
402.59	28570.92
402.78	27267.24
402.97	26508.91
403.17	27709.60
403.36	29242.65
403.55	30010.35
403.74	30572.08
403.93	29399.47
404.13	26883.39
404.32	26925.52
404.51	27807.90
404.70	29940.13
404.89	30026.73
405.09	29333.93
405.28	28790.93
405.47	28198.77
405.66	28144.94
405.85	27770.46
406.05	26981.70
406.24	27309.37
406.43	28526.45
406.62	29551.60
406.81	29729.48
407.00	28664.54
407.20	27899.19
407.39	28243.24
407.58	29631.18
407.77	30279.51
407.96	31592.55
408.15	31445.10
408.34	31630.00
408.54	33212.20
408.73	33149.01
408.92	32732.39
409.11	31765.75
409.30	30326.32
409.49	28308.78
409.68	26806.16
409.87	26132.08
410.07	27922.59
410.26	30080.56
410.45	31964.70
410.64	33137.30
410.83	33776.27
411.02	34726.53
411.21	35597.21
411.40	34855.26
411.59	35335.07
411.78	35182.93
411.98	34761.64
412.17	35065.91
412.36	34401.19
412.55	34579.07
412.74	33706.05
412.93	33298.80
413.12	33511.79
413.31	36559.17
413.50	36610.66
413.69	37453.25
413.88	35730.62
414.07	35414.65
414.26	35494.22
414.45	36287.67
414.64	36987.49
414.83	36704.28
415.02	35688.49
415.22	36194.04
415.41	37076.43
415.60	38579.05
415.79	39517.60
415.98	40079.33
416.17	39796.13
416.36	39119.71
416.55	38581.39
416.74	37340.91
416.93	35747.00
417.12	36655.13
417.31	36631.72
417.50	37280.05
417.69	38375.42
417.88	38541.60
418.07	37439.21
418.26	37418.14
418.45	37551.56
418.64	39136.10
418.83	40367.22
419.02	39903.79
419.21	38979.28
419.39	37773.91
419.58	36416.40
419.77	36781.52
419.96	37949.45
420.15	40018.48
420.34	40615.32
420.53	41729.41
420.72	42518.17
420.91	42600.09
421.10	42120.28
421.29	41734.09
421.48	40481.91
421.67	42024.32
421.86	40259.55
422.05	37670.92
422.24	34492.47
422.43	34569.71
422.61	37883.91
422.80	40341.47
422.99	40301.68
423.18	38848.21
423.37	38403.51
423.56	38778.00
423.75	39487.18
423.94	40147.21
424.13	37441.55
424.32	38155.41
424.50	37991.58
424.69	37607.73
424.88	38382.45
425.07	38323.93
425.26	37982.21
425.45	37092.81
425.64	36992.17
425.83	37111.53
426.01	38852.89
426.20	40048.91
426.39	39349.09
426.58	36999.19
426.77	34197.57
426.96	32809.63
427.15	34078.20
427.33	36950.04
427.52	38251.38
427.71	38515.86
427.90	37778.59
428.09	37212.18
428.28	36760.45
428.46	35498.91
428.65	35384.22
428.84	36395.33
429.03	36603.64
429.22	34389.49
429.40	32828.35
429.59	29652.25
429.78	26260.81
429.97	27215.75
430.16	26544.02
430.34	26995.74
430.53	27117.45
430.72	27955.36
430.91	31236.79
431.10	36084.04
431.28	41757.50
431.47	44924.24
431.66	44676.15
431.85	41177.04
432.03	38113.28
432.22	37125.58
432.41	38717.14
432.60	42169.43
432.79	43728.23
432.97	44322.72
433.16	43260.12
433.35	39426.32
433.54	35952.97
433.72	34380.13
433.91	35646.36
434.10	39346.75
434.28	41811.33
434.47	43550.35
434.66	42902.02
434.85	41834.74
435.03	41862.82
435.22	42754.57
435.41	45081.06
435.59	45642.79
435.78	45743.43
435.97	46373.03
436.16	46703.05
436.34	46012.59
436.53	45123.19
436.72	45418.10
436.90	43374.81
437.09	43299.91
437.28	42609.45
437.46	44222.08
437.65	44046.54
437.84	40713.62
438.02	37991.58
438.21	37734.12
438.40	39606.55
438.58	42897.34
438.77	44004.41
438.96	44636.36
439.14	46251.33
439.33	46784.97
439.52	47620.54
439.70	46534.53
439.89	45584.27
440.08	44414.01
440.26	44252.51
440.45	45518.74
440.63	47885.02
440.82	49874.48
441.01	49202.74
441.19	49441.48
441.38	50251.30
441.57	50962.82
441.75	50995.59
441.94	51517.53
442.12	51655.62
442.31	51807.76
442.50	51707.12
442.68	50927.72
442.87	50878.57
443.05	50401.10
443.24	51540.94
443.43	51756.27
443.61	51849.89
443.80	52666.73
443.98	50848.14
444.17	50586.00
444.35	52444.38
444.54	52914.83
444.73	52687.80
444.91	51098.58
445.10	49888.52
445.28	48390.58
445.47	47632.24
445.65	48603.56
445.84	49076.35
446.02	50525.14
446.21	51210.92
446.39	50855.16
446.58	51510.51
446.77	52039.47
446.95	52285.23
447.14	53284.64
447.32	53591.25
447.51	53043.56
447.69	51885.00
447.88	51557.32
448.06	52002.02
448.25	52591.84
448.43	52725.25
448.62	52158.84
448.80	51789.03
448.99	52069.90
449.17	52397.57
449.36	52060.54
449.54	53518.69
449.73	53750.40
449.91	54459.58
450.10	55131.32
450.28	55407.50
450.46	55192.17
450.65	55098.55
450.83	54894.92
451.02	54356.60
451.20	54225.53
451.39	54239.57
451.57	54223.19
451.76	54218.51
451.94	53865.09
452.13	53446.13
452.31	51648.60
452.49	50017.25
452.68	50653.87
452.86	50595.36
453.05	51206.24
453.23	52420.98
453.42	53296.34
453.60	53478.90
453.78	54005.52
453.97	53467.20
454.15	53666.14
454.34	53057.60
454.52	53254.21
454.70	52549.71
454.89	52549.71
455.07	52903.13
455.26	53544.44
455.44	54328.52
455.62	54822.37
455.81	54887.90
455.99	54782.58
456.17	54588.31
456.36	54347.24
456.54	55526.87
456.73	55629.85
456.91	56097.96
457.09	56025.40
457.28	56371.80
457.46	55292.82
457.64	55098.55
457.83	54143.61
458.01	53750.40
458.19	54354.26
458.38	54642.15
458.56	55512.83
458.74	55157.06
458.93	54784.92
459.11	54529.80
459.29	54482.99
459.48	54693.64
459.66	54639.81
459.84	54674.91
460.03	55356.01
460.21	55201.53
460.39	55994.98
460.57	55590.06
460.76	56097.96
460.94	56189.24
461.12	55742.20
461.31	56158.81
461.49	56069.87
461.67	56161.15
461.85	56872.68
462.04	56561.39
462.22	56692.46
462.40	56760.33
462.59	56500.53
462.77	56495.85
462.95	56488.83
463.13	56261.80
463.32	55948.17
463.50	55770.28
463.68	55634.53
463.86	56037.11
464.05	55433.25
464.23	55047.06
464.41	54880.88
464.59	54436.18
464.78	55987.95
464.96	55812.41
465.14	55337.29
465.32	56413.93
465.50	56844.59
465.69	57158.22
465.87	56444.36
466.05	55796.03
466.23	54504.06
466.41	53792.53
466.60	54571.93
466.78	54571.93
466.96	54944.08
467.14	55746.88
467.32	56076.90
467.51	56102.64
467.69	54319.15
467.87	54843.43
468.05	55538.57
468.23	55409.84
468.41	55489.42
468.60	55538.57
468.78	55894.33
468.96	55650.92
469.14	56231.37
469.32	56390.53
469.50	54672.57
469.69	55288.13
469.87	55021.31
470.05	54948.76
470.23	54588.31
470.41	54693.64
470.59	55098.55
470.77	55126.64
470.95	55805.39
471.14	56112.00
471.32	56044.13
471.50	57677.82
471.68	57647.39
471.86	58197.42
472.04	58101.46
472.22	58204.44
472.40	56734.59
472.58	56701.82
472.77	56224.35
472.95	56757.99
473.13	57673.14
473.31	57111.41
473.49	57006.09
473.67	57343.12
473.85	57970.39
474.03	58368.28
474.21	58321.47
474.39	58382.32
474.57	58632.76
474.75	58471.26
474.93	58677.23
475.12	57991.45
475.30	57731.65
475.48	58237.21
475.66	58562.54
475.84	58082.73
476.02	58178.70
476.20	57570.16
476.38	58241.89
476.56	58780.21
476.74	59332.58
476.92	59245.98
477.10	59788.98
477.28	60425.61
477.46	60505.19
477.64	60566.04
477.82	60662.00
478.00	60699.45
478.18	60142.41
478.36	60109.64
478.54	60348.37
478.72	60481.78
478.90	61249.48
479.08	61504.60
479.26	61949.30
479.44	61827.59
479.62	61745.67
479.80	61722.27
479.98	61832.27
480.16	61944.62
480.34	61687.16
480.52	61984.41
480.70	62049.94
480.88	62054.62
481.06	62628.05
481.24	62688.91
481.41	63374.69
481.59	63898.97
481.77	63414.47
481.95	63009.56
482.13	62997.86
482.31	63121.91
482.49	63430.86
482.67	63608.74
482.85	63552.57
483.03	64051.10
483.21	64182.17
483.39	64126.00
483.57	63554.91
483.74	63552.57
483.92	63917.69
484.10	63685.98
484.28	64381.12
484.46	64711.13
484.64	64914.76
484.82	64439.63
485.00	64041.74
485.18	63456.60
485.35	62642.10
485.53	60718.18
485.71	58639.78
485.89	58431.47
486.07	59985.59
486.25	61811.21
486.43	63370.00
486.61	63377.03
486.78	63274.04
486.96	63465.97
487.14	64214.94
487.32	64809.43
487.50	65535.00
487.68	65535.00
487.85	65535.00
488.03	65535.00
488.21	65535.00
488.39	65535.00
488.57	65237.75
488.75	65092.64
488.92	65535.00
489.10	65535.00
489.28	65535.00
489.46	65535.00
489.64	65535.00
489.81	65535.00
489.99	65535.00
490.17	65535.00
490.35	65535.00
490.53	65535.00
490.70	65535.00
490.88	65535.00
491.06	65535.00
491.24	65535.00
491.41	65535.00
491.59	65535.00
491.77	65535.00
491.95	65535.00
492.13	65535.00
492.30	65535.00
492.48	65535.00
492.66	65535.00
492.84	65535.00
493.01	65535.00
493.19	65535.00
493.37	65535.00
493.54	65535.00
493.72	65535.00
493.90	65535.00
494.08	65535.00
494.25	65535.00
494.43	65535.00
494.61	65535.00
494.79	65535.00
494.96	65535.00
495.14	65535.00
495.32	65535.00
495.49	65535.00
495.67	65535.00
495.85	65535.00
496.02	65535.00
496.20	65535.00
496.38	65535.00
496.55	65535.00
496.73	65535.00
496.91	65535.00
497.09	65535.00
497.26	65535.00
497.44	65535.00
497.62	65535.00
497.79	65535.00
497.97	65535.00
498.14	65535.00
498.32	65535.00
498.50	65535.00
498.67	65535.00
498.85	65535.00
499.03	65535.00
499.20	65535.00
499.38	65535.00
499.56	65535.00
499.73	65535.00
499.91	65535.00
500.08	65535.00
500.26	65535.00
500.44	65535.00
500.61	65535.00
500.79	65535.00
500.97	65535.00
501.14	65535.00
501.32	65535.00
501.49	65535.00
501.67	65535.00
501.84	65535.00
502.02	65535.00
502.20	65535.00
502.37	65535.00
502.55	65535.00
502.72	65535.00
502.90	65535.00
503.07	65535.00
503.25	65535.00
503.43	65535.00
503.60	65535.00
503.78	65535.00
503.95	65535.00
504.13	65535.00
504.30	65535.00
504.48	65535.00
504.65	65535.00
504.83	65535.00
505.01	65535.00
505.18	65535.00
505.36	65535.00
505.53	65535.00
505.71	65535.00
505.88	65535.00
506.06	65535.00
506.23	65535.00
506.41	65535.00
506.58	65535.00
506.76	65535.00
506.93	65535.00
507.11	65535.00
507.28	65535.00
507.46	65535.00
507.63	65535.00
507.81	65535.00
507.98	65535.00
508.16	65535.00
508.33	65535.00
508.50	65535.00
508.68	65535.00
508.85	65535.00
509.03	65535.00
509.20	65535.00
509.38	65535.00
509.55	65535.00
509.73	65535.00
509.90	65535.00
510.08	65535.00
510.25	65535.00
510.42	65535.00
510.60	65535.00
510.77	65535.00
510.95	65535.00
511.12	65535.00
511.30	65535.00
511.47	65535.00
511.64	65535.00
511.82	65535.00
511.99	65535.00
512.17	65535.00
512.34	65535.00
512.51	65535.00
512.69	65535.00
512.86	65535.00
513.04	65535.00
513.21	65535.00
513.38	65535.00
513.56	65535.00
513.73	65535.00
513.90	65535.00
514.08	65535.00
514.25	65535.00
514.43	65535.00
514.60	65535.00
514.77	65535.00
514.95	65535.00
515.12	65535.00
515.29	65535.00
515.47	65535.00
515.64	65535.00
515.81	65535.00
515.99	65535.00
516.16	65535.00
516.33	65535.00
516.51	65535.00
516.68	65535.00
516.85	65535.00
517.03	65535.00
517.20	65535.00
517.37	65535.00
517.54	65535.00
517.72	65535.00
517.89	65535.00
518.06	65535.00
518.24	65535.00
518.41	65535.00
518.58	65535.00
518.75	65535.00
518.93	65535.00
519.10	65535.00
519.27	65535.00
519.45	65535.00
519.62	65535.00
519.79	65535.00
519.96	65535.00
520.14	65535.00
520.31	65535.00
520.48	65535.00
520.65	65535.00
520.83	65535.00
521.00	65535.00
521.17	65535.00
521.34	65535.00
521.52	65535.00
521.69	65535.00
521.86	65535.00
522.03	65535.00
522.20	65535.00
522.38	65535.00
522.55	65535.00
522.72	65535.00
522.89	65535.00
523.07	65535.00
523.24	65535.00
523.41	65535.00
523.58	65535.00
523.75	65535.00
523.92	65535.00
524.10	65535.00
524.27	65535.00
524.44	65535.00
524.61	65535.00
524.78	65535.00
524.96	65535.00
525.13	65535.00
525.30	65535.00
525.47	65535.00
525.64	65535.00
525.81	65535.00
525.98	65535.00
526.16	65535.00
526.33	65535.00
526.50	65535.00
526.67	65535.00
526.84	65535.00
527.01	65535.00
527.18	65535.00
527.36	65535.00
527.53	65535.00
527.70	65535.00
527.87	65535.00
528.04	65535.00
528.21	65535.00
528.38	65535.00
528.55	65535.00
528.72	65535.00
528.89	65535.00
529.07	65535.00
529.24	65535.00
529.41	65535.00
529.58	65535.00
529.75	65535.00
529.92	65535.00
530.09	65535.00
530.26	65535.00
530.43	65535.00
530.60	65535.00
530.77	65535.00
530.94	65535.00
531.11	65535.00
531.28	65535.00
531.46	65535.00
531.63	65535.00
531.80	65535.00
531.97	65535.00
532.14	65535.00
532.31	65535.00
532.48	65535.00
532.65	65535.00
532.82	65535.00
532.99	65535.00
533.16	65535.00
533.33	65535.00
533.50	65535.00
533.67	65535.00
533.84	65535.00
534.01	65535.00
534.18	65535.00
534.35	65535.00
534.52	65535.00
534.69	65535.00
534.86	65535.00
535.03	65535.00
535.20	65535.00
535.37	65535.00
535.54	65535.00
535.71	65535.00
535.88	65535.00
536.05	65535.00
536.22	65535.00
536.38	65535.00
536.55	65535.00
536.72	65535.00
536.89	65535.00
537.06	65535.00
537.23	65535.00
537.40	65535.00
537.57	65535.00
537.74	65535.00
537.91	65535.00
538.08	65535.00
538.25	65535.00
538.42	65535.00
538.59	65535.00
538.75	65535.00
538.92	65535.00
539.09	65535.00
539.26	65535.00
539.43	65535.00
539.60	65535.00
539.77	65535.00
539.94	65535.00
540.11	65535.00
540.28	65535.00
540.44	65535.00
540.61	65535.00
540.78	65535.00
540.95	65535.00
541.12	65535.00
541.29	65535.00
541.46	65535.00
541.62	65535.00
541.79	65535.00
541.96	65535.00
542.13	65535.00
542.30	65535.00
542.47	65535.00
542.63	65535.00
542.80	65535.00
542.97	65535.00
543.14	65535.00
543.31	65535.00
543.48	65535.00
543.64	65535.00
543.81	65535.00
543.98	65535.00
544.15	65535.00
544.32	65535.00
544.48	65535.00
544.65	65535.00
544.82	65535.00
544.99	65535.00
545.16	65535.00
545.32	65535.00
545.49	65535.00
545.66	65535.00
545.83	65535.00
546.00	65535.00
546.16	65535.00
546.33	65535.00
546.50	65535.00
546.67	65535.00
546.83	65535.00
547.00	65535.00
547.17	65535.00
547.34	65535.00
547.50	65535.00
547.67	65535.00
547.84	65535.00
548.00	65535.00
548.17	65535.00
548.34	65535.00
548.51	65535.00
548.67	65535.00
548.84	65535.00
549.01	65535.00
549.18	65535.00
549.34	65535.00
549.51	65535.00
549.68	65535.00
549.84	65535.00
550.01	65535.00
550.18	65535.00
550.34	65535.00
550.51	65535.00
550.68	65535.00
550.84	65535.00
551.01	65535.00
551.18	65535.00
551.34	65535.00
551.51	65535.00
551.68	65535.00
551.84	65535.00
552.01	65535.00
552.18	65535.00
552.34	65535.00
552.51	65535.00
552.68	65535.00
552.84	65535.00
553.01	65535.00
553.18	65535.00
553.34	65535.00
553.51	65535.00
553.67	65535.00
553.84	65535.00
554.01	65535.00
554.17	65535.00
554.34	65535.00
554.51	65535.00
554.67	65535.00
554.84	65535.00
555.00	65535.00
555.17	65535.00
555.33	65535.00
555.50	65535.00
555.67	65535.00
555.83	65535.00
556.00	65535.00
556.16	65535.00
556.33	65535.00
556.50	65535.00
556.66	65535.00
556.83	65535.00
556.99	65535.00
557.16	65535.00
557.32	65535.00
557.49	65535.00
557.65	65535.00
557.82	65535.00
557.98	65535.00
558.15	65535.00
558.32	65535.00
558.48	65535.00
558.65	65535.00
558.81	65535.00
558.98	65535.00
559.14	65535.00
559.31	65535.00
559.47	65535.00
559.64	65535.00
559.80	65535.00
559.97	65535.00
560.13	65535.00
560.30	65535.00
560.46	65535.00
560.63	65535.00
560.79	65535.00
560.96	65535.00
561.12	65535.00
561.29	65535.00
561.45	65535.00
561.61	65535.00
561.78	65535.00
561.94	65535.00
562.11	65535.00
562.27	65535.00
562.44	65535.00
562.60	65535.00
562.77	65535.00
562.93	65535.00
563.10	65535.00
563.26	65535.00
563.42	65535.00
563.59	65535.00
563.75	65535.00
563.92	65535.00
564.08	65535.00
564.24	65535.00
564.41	65535.00
564.57	65535.00
564.74	65535.00
564.90	65535.00
565.07	65535.00
565.23	65535.00
565.39	65535.00
565.56	65535.00
565.72	65535.00
565.88	65535.00
566.05	65535.00
566.21	65535.00
566.38	65535.00
566.54	65535.00
566.70	65535.00
566.87	65535.00
567.03	65535.00
567.19	65535.00
567.36	65535.00
567.52	65535.00
567.68	65535.00
567.85	65535.00
568.01	65535.00
568.17	65535.00
568.34	65535.00
568.50	65535.00
568.66	65535.00
568.83	65535.00
568.99	65535.00
569.15	65535.00
569.32	65535.00
569.48	65535.00
569.64	65535.00
569.81	65535.00
569.97	65535.00
570.13	65535.00
570.30	65535.00
570.46	65535.00
570.62	65535.00
570.78	65535.00
570.95	65535.00
571.11	65535.00
571.27	65535.00
571.43	65535.00
571.60	65535.00
571.76	65535.00
571.92	65535.00
572.09	65535.00
572.25	65535.00
572.41	65535.00
572.57	65535.00
572.74	65535.00
572.90	65535.00
573.06	65535.00
573.22	65535.00
573.38	65535.00
573.55	65535.00
573.71	65535.00
573.87	65535.00
574.03	65535.00
574.20	65535.00
574.36	65535.00
574.52	65535.00
574.68	65535.00
574.84	65535.00
575.01	65535.00
575.17	65535.00
575.33	65535.00
575.49	65535.00
575.65	65535.00
575.82	65535.00
575.98	65535.00
576.14	65535.00
576.30	65535.00
576.46	65535.00
576.62	65535.00
576.79	65535.00
576.95	65535.00
577.11	65535.00
577.27	65535.00
577.43	65535.00
577.59	65535.00
577.75	65535.00
577.92	65535.00
578.08	65535.00
578.24	65535.00
578.40	65535.00
578.56	65535.00
578.72	65535.00
578.88	65535.00
579.04	65535.00
579.21	65535.00
579.37	65535.00
579.53	65535.00
579.69	65535.00
579.85	65535.00
580.01	65535.00
580.17	65535.00
580.33	65535.00
580.49	65535.00
580.65	65535.00
580.82	65535.00
580.98	65535.00
581.14	65535.00
581.30	65535.00
581.46	65535.00
581.62	65535.00
581.78	65535.00
581.94	65535.00
582.10	65535.00
582.26	65535.00
582.42	65535.00
582.58	65535.00
582.74	65535.00
582.90	65535.00
583.06	65535.00
583.22	65535.00
583.38	65535.00
583.54	65535.00
583.70	65535.00
583.86	65535.00
584.02	65535.00
584.18	65535.00
584.34	65535.00
584.50	65535.00
