SpectraSuite Data File
++++++++++++++++++++++++++++++++++++
Date: Mon Oct 07 14:53:07 GMT-05:00 2013
User: price-jones
Dark Spectrum Present: No
Reference Spectrum Present: No
Number of Sampled Component Spectra: 1
Spectrometers: USB2+H05261
Integration Time (usec): 100000 (USB2+H05261)
Spectra Averaged: 1 (USB2+H05261)
Boxcar Smoothing: 0 (USB2+H05261)
Correct for Electrical Dark: No (USB2+H05261)
Strobe/Lamp Enabled: No (USB2+H05261)
Correct for Detector Non-linearity: No (USB2+H05261)
Correct for Stray Light: No (USB2+H05261)
Number of Pixels in Processed Spectrum: 2048
>>>>>Begin Processed Spectral Data<<<<<
365.73	0.00
365.92	0.00
366.12	0.00
366.32	0.00
366.52	0.00
366.72	0.00
366.91	0.00
367.11	0.00
367.31	0.00
367.51	0.00
367.70	0.00
367.90	0.00
368.10	0.00
368.30	0.00
368.49	0.00
368.69	0.00
368.89	0.00
369.09	0.00
369.28	0.00
369.48	0.00
369.68	0.00
369.87	0.00
370.07	0.00
370.27	0.00
370.47	585.13
370.66	2909.29
370.86	3428.88
371.06	3641.87
371.25	3845.50
371.45	3658.26
371.65	3197.17
371.84	2883.54
372.04	2946.73
372.24	3419.52
372.44	3520.17
372.63	3574.00
372.83	3243.98
373.03	2848.43
373.22	2715.02
373.42	2813.32
373.62	3405.48
373.81	3574.00
374.01	3632.51
374.21	3243.98
374.40	2916.31
374.60	3173.77
374.79	3513.14
374.99	4086.58
375.19	4461.06
375.38	4430.63
375.58	4107.64
375.78	3999.98
375.97	4025.72
376.17	4285.52
376.37	4135.73
376.56	4402.55
376.76	4608.51
376.95	4854.27
377.15	5191.31
377.35	5469.83
377.54	5799.85
377.74	5809.21
377.93	5933.26
378.13	5645.37
378.33	5261.52
378.52	4884.70
378.72	4711.50
378.91	4704.48
379.11	4580.43
379.31	4248.07
379.50	4573.41
379.70	4709.16
379.89	5411.32
380.09	5589.20
380.28	5802.19
380.48	5692.18
380.68	5535.37
380.87	5504.94
381.07	4975.98
381.26	4697.46
381.46	4395.53
381.65	4287.86
381.85	4194.24
382.04	3866.56
382.24	3791.67
382.43	3482.72
382.63	3447.61
382.83	3625.49
383.02	3382.07
383.22	3468.67
383.41	3379.73
383.61	3651.24
383.80	4266.80
384.00	4954.91
384.19	5425.36
384.39	5577.50
384.58	5755.38
384.78	5628.99
384.97	5593.88
385.17	5270.89
385.36	4940.87
385.56	4739.58
385.75	4894.06
385.95	5348.12
386.14	5902.83
386.34	5820.91
386.53	5509.62
386.72	5125.77
386.92	5341.10
387.11	5586.86
387.31	5834.96
387.50	5738.99
387.70	5626.65
387.89	5448.77
388.09	5666.44
388.28	5696.86
388.48	5771.76
388.67	6038.58
388.86	6839.05
389.06	7129.27
389.25	7442.90
389.45	7412.48
389.64	7735.47
389.84	7360.98
390.03	7506.10
390.22	7344.60
390.42	7770.58
390.61	8046.76
390.81	8559.34
391.00	8971.27
391.19	8931.48
391.39	8425.93
391.58	7838.45
391.78	7637.17
391.97	7307.15
392.16	6817.98
392.36	6235.19
392.55	5102.37
392.75	3978.91
392.94	3136.32
393.13	3199.51
393.33	3740.18
393.52	4901.08
393.71	5977.73
393.91	6787.55
394.10	7173.74
394.29	7985.91
394.49	8641.26
394.68	9205.33
394.88	9149.15
395.07	9734.29
395.26	9455.76
395.46	9310.65
395.65	8793.39
395.84	7449.93
396.04	6516.05
396.23	5303.65
396.42	4493.83
396.62	4166.15
396.81	4812.14
397.00	6279.66
397.19	7866.54
397.39	9673.43
397.58	10576.88
397.77	11166.70
397.97	11672.25
398.16	11824.39
398.35	12175.47
398.55	12702.09
398.74	12919.76
398.93	13209.98
399.12	13064.87
399.32	12601.44
399.51	12676.34
399.70	13893.42
399.90	13699.16
400.09	13462.76
400.28	13329.35
400.47	13724.90
400.67	14258.54
400.86	14766.44
401.05	14551.11
401.24	14534.73
401.44	14906.87
401.63	15101.14
401.82	15073.05
402.01	14871.76
402.21	15204.12
402.40	15508.39
402.59	14930.28
402.78	14221.10
402.97	13664.05
403.17	14349.82
403.36	15358.60
403.55	15602.01
403.74	15786.91
403.93	15318.81
404.13	14111.09
404.32	13804.48
404.51	14530.05
404.70	15566.90
404.89	15545.84
405.09	15269.66
405.28	14885.81
405.47	14895.17
405.66	14768.78
405.85	14555.79
406.05	13970.66
406.24	14129.81
406.43	15059.01
406.62	15613.71
406.81	15623.08
407.00	14698.56
407.20	14513.66
407.39	14764.10
407.58	15300.08
407.77	16259.70
407.96	16620.14
408.15	16833.13
408.34	16746.53
408.54	17949.57
408.73	17666.36
408.92	17406.56
409.11	16783.98
409.30	16217.57
409.49	15122.20
409.68	14244.50
409.87	13860.65
410.07	14497.28
410.26	15812.66
410.45	16931.44
410.64	17287.20
410.83	17774.03
411.02	18300.65
411.21	18831.95
411.40	18375.55
411.59	18525.34
411.78	18773.44
411.98	18408.31
412.17	18544.06
412.36	18335.76
412.55	18328.74
412.74	17963.61
412.93	17465.08
413.12	17678.07
413.31	19145.58
413.50	19646.46
413.69	19880.51
413.88	19517.73
414.07	18523.00
414.26	19030.90
414.45	19641.78
414.64	19496.66
414.83	19618.37
415.02	19108.13
415.22	18974.72
415.41	19868.81
415.60	20294.79
415.79	21249.72
415.98	21404.20
416.17	21841.88
416.36	20919.71
416.55	21055.46
416.74	20053.71
416.93	19470.92
417.12	19751.78
417.31	19726.04
417.50	20039.67
417.69	21083.55
417.88	20308.83
418.07	20367.34
418.26	20203.50
418.45	20299.47
418.64	21341.00
418.83	21736.56
419.02	21558.67
419.21	21336.32
419.39	20425.86
419.58	19267.29
419.77	19344.53
419.96	20486.71
420.15	21521.23
420.34	22366.16
420.53	22876.40
420.72	23468.55
420.91	23447.49
421.10	22796.82
421.29	22611.92
421.48	22085.30
421.67	23190.03
421.86	22321.69
422.05	20830.77
422.24	18485.55
422.43	18523.00
422.61	20498.41
422.80	22469.14
422.99	22380.20
423.18	21446.33
423.37	20943.11
423.56	21067.16
423.75	21544.63
423.94	22272.54
424.13	20826.09
424.32	21013.33
424.50	20781.62
424.69	20280.74
424.88	20917.37
425.07	20552.24
425.26	20610.76
425.45	20521.82
425.64	19756.46
425.83	19981.15
426.01	21476.76
426.20	21600.80
426.39	21614.85
426.58	19658.16
426.77	18677.48
426.96	17834.88
427.15	18794.50
427.33	20109.88
427.52	20999.29
427.71	21034.39
427.90	20627.14
428.09	20629.48
428.28	19981.15
428.46	19625.39
428.65	19187.71
428.84	19716.67
429.03	20219.89
429.22	19192.39
429.40	18059.57
429.59	16166.08
429.78	14384.93
429.97	14534.73
430.16	14703.25
430.34	14579.20
430.53	14974.75
430.72	14939.64
430.91	16903.35
431.10	19517.73
431.28	23187.69
431.47	25139.69
431.66	25142.03
431.85	22906.82
432.03	20779.28
432.22	20095.84
432.41	21177.17
432.60	23328.12
432.79	24292.42
432.97	24933.73
433.16	23971.77
433.35	22183.60
433.54	19641.78
433.72	18771.10
433.91	19489.64
434.10	21820.81
434.28	22946.61
434.47	24306.46
434.66	23864.10
434.85	23257.90
435.03	23220.45
435.22	24140.29
435.41	25048.41
435.59	25305.87
435.78	25722.49
435.97	26335.71
436.16	26483.16
436.34	26157.83
436.53	25305.87
436.72	25380.77
436.90	23943.68
437.09	24224.54
437.28	23758.78
437.46	24472.64
437.65	24306.46
437.84	22764.05
438.02	20765.23
438.21	20798.00
438.40	22122.74
438.58	23592.60
438.77	24577.97
438.96	24507.75
439.14	26017.40
439.33	26286.56
439.52	26988.72
439.70	26239.75
439.89	25685.04
440.08	24938.41
440.26	24933.73
440.45	25675.68
440.63	27520.02
440.82	28975.83
441.01	28428.15
441.19	28215.16
441.38	28575.60
441.57	29799.70
441.75	30143.76
441.94	30155.46
442.12	30508.88
442.31	30302.92
442.50	30256.11
442.68	30438.67
442.87	29867.58
443.05	29427.56
443.24	29762.25
443.43	30532.29
443.61	31084.65
443.80	31229.77
443.98	29685.01
444.17	29724.80
444.35	31489.57
444.54	32390.67
444.73	31346.79
444.91	30277.17
445.10	29233.29
445.28	27510.66
445.47	27269.58
445.65	27524.70
445.84	28254.95
446.02	29214.57
446.21	29776.30
446.39	30045.46
446.58	30349.73
446.77	30951.24
446.95	30923.16
447.14	31704.90
447.32	32367.27
447.51	32039.59
447.69	30431.65
447.88	30368.45
448.06	30518.25
448.25	31438.08
448.43	31503.61
448.62	30995.71
448.80	30672.72
448.99	30871.67
449.17	31197.00
449.36	31435.74
449.54	32191.73
449.73	32711.33
449.91	33151.35
450.10	34483.11
450.28	34541.63
450.46	34356.72
450.65	34611.84
450.83	34558.01
451.02	33333.91
451.20	33518.81
451.39	33574.98
451.57	32872.82
451.76	33160.71
451.94	32479.61
452.13	32177.68
452.31	30742.94
452.49	29366.70
452.68	29766.93
452.86	29757.57
453.05	30174.19
453.23	31412.33
453.42	31805.54
453.60	32552.17
453.78	32694.94
453.97	32353.23
454.15	32643.45
454.34	31618.30
454.52	32261.94
454.70	31117.42
454.89	31786.82
455.07	31672.13
455.26	32446.85
455.44	33832.44
455.62	34164.80
455.81	34398.85
455.99	34029.05
456.17	33921.38
456.36	33692.01
456.54	34808.45
456.73	34745.25
456.91	35131.44
457.09	35424.01
457.28	36168.30
457.46	34501.84
457.64	34752.27
457.83	33603.07
458.01	32603.66
458.19	33338.59
458.38	34087.56
458.56	34941.86
458.74	34384.81
458.93	34368.43
459.11	34087.56
459.29	33888.62
459.48	34120.33
459.66	33736.48
459.84	34543.97
460.03	34586.10
460.21	34817.81
460.39	35377.20
460.57	35358.47
460.76	35744.66
460.94	36163.62
461.12	35288.26
461.31	35559.76
461.49	35351.45
461.67	35330.39
461.85	37043.66
462.04	36233.83
462.22	36872.80
462.40	36634.06
462.59	36411.71
462.77	36683.22
462.95	36863.44
463.13	36348.52
463.32	35625.29
463.50	35697.85
463.68	36016.16
463.86	35651.04
464.05	35337.41
464.23	34511.20
464.41	34382.47
464.59	33855.85
464.78	35548.06
464.96	35292.94
465.14	34953.56
465.32	35840.62
465.50	36655.13
465.69	36870.46
465.87	36250.22
466.05	35365.49
466.23	34015.01
466.41	33060.07
466.60	33968.19
466.78	33961.17
466.96	34660.99
467.14	34881.00
467.32	35756.36
467.51	35660.40
467.69	34026.71
467.87	34759.30
468.05	35346.77
468.23	35498.91
468.41	35531.67
468.60	35531.67
468.78	35615.93
468.96	35363.15
469.14	35903.82
469.32	36287.67
469.50	34646.95
469.69	35161.87
469.87	34539.29
470.05	34242.04
470.23	34771.00
470.41	34525.24
470.59	35133.78
470.77	35255.49
470.95	36009.14
471.14	35981.06
471.32	36603.64
471.50	38227.97
471.68	38623.52
471.86	38576.71
472.04	38927.79
472.22	39007.37
472.40	37188.77
472.58	36715.98
472.77	36491.29
472.95	37280.05
473.13	38024.34
473.31	37177.07
473.49	37596.03
473.67	37820.72
473.85	38330.95
474.03	39220.36
474.21	39056.52
474.39	39702.51
474.57	40320.41
474.75	40126.14
474.93	40217.43
475.12	38651.61
475.30	38981.62
475.48	39000.35
475.66	39344.41
475.84	39274.19
476.02	38717.14
476.20	38141.37
476.38	39014.39
476.56	40116.78
476.74	40659.79
476.92	41195.77
477.10	41567.91
477.28	42464.34
477.46	42305.18
477.64	43040.11
477.82	42700.73
478.00	43180.54
478.18	42621.16
478.36	42305.18
478.54	42366.04
478.72	43129.05
478.90	44002.07
479.08	44989.78
479.26	45514.06
479.44	45029.57
479.62	44949.99
479.80	45202.77
479.98	45258.94
480.16	45492.99
480.34	44933.60
480.52	45635.77
480.70	45813.65
480.88	45565.55
481.06	46476.02
481.24	46958.17
481.41	47545.64
481.59	48191.63
481.77	47700.12
481.95	47306.91
482.13	47173.50
482.31	47669.69
482.49	48109.71
482.67	47910.77
482.85	47985.66
483.03	48624.63
483.21	49050.61
483.39	48865.70
483.57	48238.44
483.74	48107.37
483.92	48418.66
484.10	48467.81
484.28	49378.28
484.46	49673.19
484.64	50183.43
484.82	49160.61
485.00	48882.09
485.18	47941.19
485.35	46721.77
485.53	43339.70
485.71	39974.01
485.89	39475.48
486.07	41715.37
486.25	45146.59
486.43	47271.80
486.61	48243.12
486.78	47920.13
486.96	47805.44
487.14	49530.42
487.32	50555.57
487.50	51437.95
487.68	51899.04
487.85	52404.59
488.03	52512.26
488.21	51971.60
488.39	51587.75
488.57	50506.42
488.75	50595.36
488.92	51943.51
489.10	53911.90
489.28	55056.42
489.46	55346.65
489.64	55234.30
489.81	55718.79
489.99	55199.19
490.17	55288.13
490.35	55545.59
490.53	55199.19
490.70	54525.12
490.88	54946.42
491.06	55405.16
491.24	55653.26
491.41	54569.59
491.59	52891.43
491.77	52444.38
491.95	53499.97
492.13	54700.66
492.30	55639.22
492.48	56549.68
492.66	57003.75
492.84	57024.81
493.01	56589.47
493.19	56093.28
493.37	55779.65
493.54	55517.51
493.72	56320.31
493.90	57176.95
494.08	57813.57
494.25	58061.67
494.43	58262.96
494.61	58412.75
494.79	58630.42
494.96	58323.81
495.14	58066.35
495.32	57083.33
495.49	56559.05
495.67	57605.26
495.85	58787.24
496.02	58962.78
496.20	59021.29
496.38	58489.99
496.55	58578.93
496.73	58780.21
496.91	58965.12
497.09	59470.67
497.26	59554.93
497.44	59105.55
497.62	58705.32
497.79	58052.31
497.97	56982.68
498.14	57132.48
498.32	58176.36
498.50	58789.58
498.67	59512.80
498.85	59255.34
499.03	59447.27
499.20	59749.20
499.38	59681.32
499.56	59739.83
499.73	58953.41
499.91	58798.94
500.08	58417.43
500.26	57605.26
500.44	58309.77
500.61	59044.69
500.79	58595.31
500.97	58049.97
501.14	58265.30
501.32	57708.25
501.49	57801.87
501.67	58295.72
501.84	58621.06
502.02	58941.71
502.20	59260.02
502.37	59489.40
502.55	59344.28
502.72	59985.59
502.90	60434.97
503.07	59695.36
503.25	59568.97
503.43	58913.62
503.60	58012.52
503.78	57602.92
503.95	57949.32
504.13	59470.67
504.30	60301.56
504.48	59889.63
504.65	59632.17
504.83	59702.38
505.01	60289.86
505.18	60472.42
505.36	61038.83
505.53	61048.19
505.71	61240.12
505.88	61422.68
506.06	60809.46
506.23	60360.08
506.41	60275.82
506.58	60385.82
506.76	60355.39
506.93	60505.19
507.11	60130.70
507.28	60306.24
507.46	59931.76
507.63	59482.37
507.81	59185.13
507.98	59320.88
508.16	60088.57
508.33	60383.48
508.50	60727.54
508.68	61076.28
508.85	61476.51
509.03	61525.66
509.20	61361.82
509.38	60757.97
509.55	60065.17
509.73	60259.43
509.90	60690.09
510.08	60966.27
510.25	60954.57
510.42	60556.68
510.60	60486.46
510.77	60802.44
510.95	61359.48
511.12	61518.64
511.30	61743.33
511.47	62110.80
511.64	62031.22
511.82	61616.94
511.99	61013.08
512.17	60570.72
512.34	60257.09
512.51	60385.82
512.69	60509.87
512.86	60683.07
513.04	61024.79
513.21	60842.23
513.38	60591.79
513.56	60051.12
513.73	59744.51
513.90	59847.50
514.08	60076.87
514.25	60198.58
514.43	60413.91
514.60	60350.71
514.77	60816.48
514.95	60708.82
515.12	60568.38
515.29	60774.35
515.47	61228.41
515.64	61378.21
515.81	61193.31
515.99	60654.98
516.16	59058.74
516.33	57099.71
516.51	55917.74
516.68	55061.10
516.85	54773.22
517.03	55171.11
517.20	57766.76
517.37	59868.56
517.54	60917.12
517.72	60135.38
517.89	57743.36
518.06	56088.60
518.24	56062.85
518.41	58356.58
518.58	59421.52
518.75	59590.04
518.93	59812.39
519.10	59728.13
519.27	59990.27
519.45	60355.39
519.62	61024.79
519.79	61179.26
519.96	61116.07
520.14	60474.76
520.31	59957.50
520.48	59772.60
520.65	60161.13
520.83	61247.14
521.00	61474.17
521.17	61036.49
521.34	60987.34
521.52	61270.54
521.69	61680.14
521.86	61874.40
522.03	61640.35
522.20	60685.41
522.38	59639.19
522.55	59784.30
522.72	60224.32
522.89	60446.68
523.07	60654.98
523.24	60809.46
523.41	61478.85
523.58	62096.75
523.75	62258.25
523.92	62272.29
524.10	62134.20
524.27	61939.94
524.44	62014.83
524.61	61881.42
524.78	61654.39
524.96	61598.22
525.13	61572.47
525.30	61855.68
525.47	62351.87
525.64	62101.43
525.81	61443.74
525.98	60116.66
526.16	58918.31
526.33	58225.51
526.50	58134.23
526.67	57556.11
526.84	58323.81
527.01	59075.12
527.18	59894.31
527.36	60828.18
527.53	61528.00
527.70	61839.29
527.87	61305.65
528.04	60884.36
528.21	61392.25
528.38	61893.13
528.55	62518.05
528.72	62529.75
528.89	62761.47
529.07	62548.48
529.24	61785.46
529.41	61429.70
529.58	60748.60
529.75	60823.50
529.92	61389.91
530.09	61600.56
530.26	62295.70
530.43	62384.64
530.60	62370.60
530.77	62550.82
530.94	62749.76
531.11	62258.25
531.28	62099.09
531.46	61794.82
531.63	62045.26
531.80	61764.40
531.97	61347.78
532.14	60739.24
532.31	59920.05
532.48	59199.17
532.65	59402.80
532.82	60268.79
532.99	61195.65
533.16	61446.08
533.33	62117.82
533.50	61858.02
533.67	61153.52
533.84	60788.39
534.01	61041.17
534.18	61233.10
534.35	61429.70
534.52	61151.18
534.69	61382.89
534.86	61928.23
535.03	61881.42
535.20	62391.66
535.37	62780.19
535.54	62869.13
535.71	62398.68
535.88	61970.36
536.05	61460.13
536.22	61167.56
536.38	60755.63
536.55	60439.65
536.72	60011.34
536.89	59913.03
537.06	61008.40
537.23	61546.73
537.40	61694.18
537.57	61684.82
537.74	61511.62
537.91	61516.30
538.08	61432.04
538.25	61450.77
538.42	61703.54
538.59	61443.74
538.75	60786.05
538.92	60619.88
539.09	60631.58
539.26	60252.41
539.43	60343.69
539.60	60376.46
539.77	60617.53
539.94	60385.82
540.11	59763.24
540.28	59140.66
540.44	59388.75
540.61	59573.66
540.78	59868.56
540.95	59971.55
541.12	60453.70
541.29	60624.56
541.46	61041.17
541.62	61045.85
541.79	60786.05
541.96	60306.24
542.13	60322.63
542.30	60669.03
542.47	60750.94
542.63	60664.35
542.80	60273.48
542.97	60589.45
543.14	60418.59
543.31	60594.13
543.48	60994.36
543.64	61694.18
543.81	61724.61
543.98	61701.20
544.15	61059.90
544.32	60523.91
544.48	60580.09
544.65	61106.71
544.82	61443.74
544.99	60987.34
545.16	60514.55
545.32	60331.99
545.49	61382.89
545.66	61710.56
545.83	61223.73
546.00	60615.19
546.16	60559.02
546.33	60638.60
546.50	60762.65
546.67	61034.15
546.83	60753.29
547.00	60720.52
547.17	60240.71
547.34	59611.10
547.50	59573.66
547.67	60083.89
547.84	60081.55
548.00	60498.17
548.17	61031.81
548.34	60676.05
548.51	60772.01
548.67	60760.31
548.84	60924.14
549.01	60540.30
549.18	60619.88
549.34	60575.40
549.51	60612.85
549.68	60512.21
549.84	60285.18
550.01	60198.58
550.18	60095.60
550.34	60416.25
550.51	60388.16
550.68	60397.52
550.84	59952.82
551.01	59906.01
551.18	60025.38
551.34	60051.12
551.51	60395.18
551.68	60715.84
551.84	60938.19
552.01	60680.73
552.18	60463.06
552.34	59592.38
552.51	59524.50
552.68	59407.48
552.84	59831.11
553.01	60081.55
553.18	59889.63
553.34	60123.68
553.51	60172.83
553.67	60313.26
553.84	60561.36
554.01	60425.61
554.17	60236.03
554.34	60287.52
554.51	60491.15
554.67	60694.77
554.84	60685.41
555.00	60273.48
555.17	60023.04
555.33	60210.28
555.50	60147.09
555.67	60088.57
555.83	59936.44
556.00	59728.13
556.16	59695.36
556.33	59112.57
556.50	59154.70
556.66	59236.62
556.83	59084.48
556.99	59217.89
557.16	59260.02
557.32	59365.35
557.49	59650.89
557.65	59594.72
557.82	59704.73
557.98	59503.44
558.15	59028.31
558.32	58358.92
558.48	57492.92
558.65	57811.23
558.81	57937.62
558.98	58506.37
559.14	58459.56
559.31	58571.91
559.47	58583.61
559.64	58204.44
559.80	57958.69
559.97	57935.28
560.13	58450.20
560.30	59309.18
560.46	59550.25
560.63	60034.74
560.79	60081.55
560.96	59601.74
561.12	58485.31
561.29	57769.10
561.45	58059.33
561.61	58300.40
561.78	58660.85
561.94	58614.04
562.11	58539.14
562.27	58328.49
562.44	58651.48
562.60	59107.89
562.77	59203.85
562.93	58955.75
563.10	58894.90
563.26	58513.39
563.42	58253.59
563.59	58188.06
563.75	58328.49
563.92	58550.84
564.08	58501.69
564.24	58660.85
564.41	58482.97
564.57	58401.05
564.74	58363.60
564.90	58239.55
565.07	58042.95
565.23	57911.88
565.39	57249.50
565.56	57207.37
565.72	56940.55
565.88	57462.49
566.05	57513.98
566.21	57621.65
566.38	57581.86
566.54	57813.57
566.70	58122.52
566.87	58354.24
567.03	58169.33
567.19	58330.83
567.36	58305.09
567.52	57972.73
567.68	57954.00
567.85	57076.30
568.01	56982.68
568.17	56629.26
568.34	56664.37
568.50	56741.61
568.66	56652.67
568.83	56978.00
568.99	57240.14
569.15	57528.03
569.32	57588.88
569.48	57298.65
569.64	56954.60
569.81	56715.86
569.97	56601.18
570.13	56547.34
570.30	55917.74
570.46	55758.58
570.62	55456.65
570.78	55054.08
570.95	55571.34
571.11	56025.40
571.27	56397.55
571.43	56500.53
571.60	56804.80
571.76	56956.94
571.92	57050.56
572.09	56994.39
572.25	57350.15
572.41	57293.97
572.57	57055.24
572.74	57092.69
572.90	56786.08
573.06	56816.50
573.22	56657.35
573.38	56999.07
573.55	56765.01
573.71	57073.96
573.87	56746.29
574.03	56750.97
574.20	56584.79
574.36	56306.27
574.52	56172.86
574.68	56104.98
574.84	55664.96
575.01	55393.46
575.17	55428.57
575.33	55660.28
575.49	55899.01
575.65	55922.42
575.82	55742.20
575.98	55386.44
576.14	55861.57
576.30	55901.36
576.46	56048.81
576.62	56025.40
576.79	56137.75
576.95	55800.71
577.11	55526.87
577.27	56037.11
577.43	55908.38
577.59	55538.57
577.75	54967.48
577.92	54611.72
578.08	54445.54
578.24	54595.34
578.40	54848.11
578.56	54915.99
578.72	55107.91
578.88	55243.66
579.04	55171.11
579.21	55540.91
579.37	55372.39
579.53	55384.10
579.69	55449.63
579.85	55505.80
580.01	55477.72
580.17	54913.65
580.33	54908.97
580.49	54960.46
580.65	55421.55
580.82	55519.85
580.98	55498.78
581.14	55416.86
581.30	55412.18
581.46	55374.73
581.62	55620.49
581.78	55601.77
581.94	55704.75
582.10	55576.02
582.26	55849.86
582.42	55796.03
582.58	55814.76
582.74	55313.88
582.90	55765.60
583.06	55433.25
583.22	55590.06
583.38	55238.98
583.54	55348.99
583.70	55344.31
583.86	55325.58
584.02	55089.19
584.18	55248.35
584.34	55138.34
584.50	54885.56
584.66	54911.31
584.82	54705.34
584.98	54660.87
585.14	54040.63
585.30	53581.88
