SpectraSuite Data File
++++++++++++++++++++++++++++++++++++
Date: Mon Oct 07 14:53:37 GMT-05:00 2013
User: price-jones
Dark Spectrum Present: No
Reference Spectrum Present: No
Number of Sampled Component Spectra: 1
Spectrometers: USB2+H05261
Integration Time (usec): 100000 (USB2+H05261)
Spectra Averaged: 1 (USB2+H05261)
Boxcar Smoothing: 0 (USB2+H05261)
Correct for Electrical Dark: No (USB2+H05261)
Strobe/Lamp Enabled: No (USB2+H05261)
Correct for Detector Non-linearity: No (USB2+H05261)
Correct for Stray Light: No (USB2+H05261)
Number of Pixels in Processed Spectrum: 2048
>>>>>Begin Processed Spectral Data<<<<<
365.73	0.00
365.92	0.00
366.12	0.00
366.32	0.00
366.52	0.00
366.72	0.00
366.91	0.00
367.11	0.00
367.31	0.00
367.51	0.00
367.70	0.00
367.90	0.00
368.10	0.00
368.30	0.00
368.49	0.00
368.69	0.00
368.89	0.00
369.09	0.00
369.28	0.00
369.48	0.00
369.68	0.00
369.87	0.00
370.07	0.00
370.27	0.00
370.47	657.69
370.66	3281.43
370.86	3908.69
371.06	4367.44
371.25	4423.61
371.45	3922.74
371.65	3456.97
371.84	3253.34
372.04	3449.95
372.24	3782.31
372.44	4014.02
372.63	4037.42
372.83	3754.22
373.03	3396.12
373.22	3178.45
373.42	3227.60
373.62	3758.90
373.81	4016.36
374.01	3925.08
374.21	3576.34
374.40	3384.41
374.60	3618.47
374.79	3880.61
374.99	4528.94
375.19	5100.03
375.38	5034.49
375.58	4521.92
375.78	4528.94
375.97	4414.25
376.17	4823.84
376.37	4905.76
376.56	5041.51
376.76	5149.18
376.95	5535.37
377.15	5959.00
377.35	6338.17
377.54	6429.45
377.74	6588.61
377.93	6604.99
378.13	6282.00
378.33	6291.36
378.52	5717.93
378.72	5500.26
378.91	5479.19
379.11	5174.92
379.31	5088.32
379.50	4847.25
379.70	5493.24
379.89	6029.22
380.09	6200.08
380.28	6693.93
380.48	6553.50
380.68	6492.65
380.87	6235.19
381.07	5795.17
381.26	5366.85
381.46	5027.47
381.65	4830.87
381.85	4753.63
382.04	4505.53
382.24	4194.24
382.43	4030.40
382.63	3950.82
382.83	3892.31
383.02	4074.87
383.22	3997.64
383.41	3927.42
383.61	4334.67
383.80	4851.93
384.00	5657.07
384.19	6211.78
384.39	6338.17
384.58	6504.35
384.78	6457.54
384.97	6370.94
385.17	5916.87
385.36	5734.31
385.56	5434.72
385.75	5579.84
385.95	6267.95
386.14	6602.65
386.34	6710.32
386.53	6263.27
386.72	6155.61
386.92	6005.81
387.11	6317.11
387.31	6553.50
387.50	6389.66
387.70	6361.58
387.89	6417.75
388.09	6377.96
388.28	6324.13
388.48	6586.27
388.67	6829.68
388.86	7578.65
389.06	8107.62
389.25	8580.40
389.45	8608.49
389.64	8751.26
389.84	8554.66
390.03	8367.42
390.22	8425.93
390.42	8767.65
390.61	9357.46
390.81	9708.54
391.00	10139.20
391.19	10083.03
391.39	9486.19
391.58	9107.02
391.78	8592.11
391.97	8393.16
392.16	7889.95
392.36	7080.12
392.55	5533.03
392.75	4477.44
392.94	3695.71
393.13	3620.81
393.33	4264.46
393.52	5568.13
393.71	6916.28
393.91	7819.73
394.10	8428.27
394.29	8987.66
394.49	9776.42
394.68	10684.55
394.88	10597.95
395.07	10808.59
395.26	10883.49
395.46	10537.09
395.65	10171.97
395.84	8842.54
396.04	7503.76
396.23	5921.56
396.42	5135.14
396.62	4835.55
396.81	5568.13
397.00	7206.51
397.19	8870.63
397.39	10628.37
397.58	11948.43
397.77	12856.56
397.97	13151.47
398.16	13497.87
398.35	13671.07
398.55	14141.52
398.74	14871.76
398.93	15197.10
399.12	14920.92
399.32	14291.31
399.51	14696.22
399.70	15707.34
399.90	15772.87
400.09	15875.85
400.28	15276.68
400.47	15602.01
400.67	16276.09
400.86	16901.01
401.05	16678.66
401.24	16664.61
401.44	17078.89
401.63	16861.22
401.82	17064.85
402.01	17380.82
402.21	17490.82
402.40	17284.86
402.59	16945.48
402.78	16161.40
402.97	15442.85
403.17	16147.36
403.36	17025.06
403.55	17813.82
403.74	18200.01
403.93	17537.63
404.13	16243.32
404.32	15555.20
404.51	16395.45
404.70	17474.44
404.89	17797.43
405.09	17624.23
405.28	16922.07
405.47	16727.81
405.66	16957.18
405.85	16594.40
406.05	16013.95
406.24	16315.87
406.43	17018.04
406.62	17734.24
406.81	17982.34
407.00	17102.29
407.20	16465.67
407.39	17020.38
407.58	17680.41
407.77	18457.46
407.96	18740.67
408.15	19080.05
408.34	19201.76
408.54	20224.57
408.73	19999.88
408.92	19744.76
409.11	19241.54
409.30	18331.08
409.49	17256.77
409.68	16133.31
409.87	15489.67
410.07	16648.23
410.26	17884.03
410.45	19002.81
410.64	19611.35
410.83	19810.29
411.02	20720.76
411.21	21137.38
411.40	21352.71
411.59	21326.96
411.78	20723.10
411.98	20835.45
412.17	21207.59
412.36	21001.63
412.55	20786.30
412.74	20545.22
412.93	19845.40
413.12	19819.66
413.31	21972.95
413.50	22122.74
413.69	22616.60
413.88	21865.28
414.07	21032.05
414.26	21577.40
414.45	22326.37
414.64	22377.86
414.83	22436.38
415.02	21914.44
415.22	21832.52
415.41	22530.00
415.60	23087.04
415.79	23845.38
415.98	24627.12
416.17	24580.31
416.36	23887.51
416.55	23587.92
416.74	23103.43
416.93	22410.63
417.12	21879.33
417.31	22017.42
417.50	22710.22
417.69	23641.75
417.88	23838.36
418.07	23440.47
418.26	22979.38
418.45	23175.98
418.64	23658.14
418.83	24868.19
419.02	24603.71
419.21	24360.30
419.39	23365.57
419.58	22040.82
419.77	22019.76
419.96	23124.49
420.15	24484.34
420.34	25362.04
420.53	25773.98
420.72	26478.48
420.91	25956.54
421.10	25600.78
421.29	25542.27
421.48	24631.80
421.67	25804.41
421.86	25111.61
422.05	23960.06
422.24	21303.56
422.43	20802.68
422.61	23136.20
422.80	25324.60
422.99	25034.37
423.18	24168.37
423.37	23779.84
423.56	23950.70
423.75	24261.99
423.94	24463.28
424.13	23384.29
424.32	23594.94
424.50	23833.68
424.69	23452.17
424.88	23529.41
425.07	23417.06
425.26	23531.75
425.45	23098.75
425.64	22677.45
425.83	22665.75
426.01	23950.70
426.20	24685.63
426.39	24465.62
426.58	22787.46
426.77	21088.23
426.96	20362.66
427.15	20884.60
427.33	23089.38
427.52	23295.35
427.71	23889.85
427.90	23438.12
428.09	23143.22
428.28	22948.95
428.46	22010.40
428.65	21500.16
428.84	22305.31
429.03	22494.89
429.22	21530.59
429.40	20470.33
429.59	18324.05
429.78	16100.55
429.97	16332.26
430.16	16318.22
430.34	16610.78
430.53	16397.79
430.72	16905.69
430.91	18717.26
431.10	22155.51
431.28	25720.15
431.47	28254.95
431.66	28133.24
431.85	25895.69
432.03	23742.39
432.22	22857.67
432.41	23990.49
432.60	25820.79
432.79	26993.40
432.97	28079.41
433.16	27058.93
433.35	25315.23
433.54	22558.08
433.72	20638.84
433.91	21558.67
434.10	24421.15
434.28	26183.57
434.47	27496.61
434.66	26906.80
434.85	26520.61
435.03	26143.78
435.22	27016.80
435.41	28409.42
435.59	28400.06
435.78	28957.11
435.97	29589.05
436.16	29839.49
436.34	29317.55
436.53	28510.07
436.72	28734.76
436.90	27194.68
437.09	27185.32
437.28	26764.03
437.46	27981.10
437.65	27758.75
437.84	25816.11
438.02	23541.11
438.21	23201.73
438.40	24723.08
438.58	26724.24
438.77	27424.06
438.96	27901.53
439.14	28603.69
439.33	29626.50
439.52	29937.79
439.70	29415.85
439.89	28849.44
440.08	27821.95
440.26	27943.66
440.45	28755.82
440.63	30991.03
440.82	32893.89
441.01	32039.59
441.19	31880.44
441.38	32292.37
441.57	32992.19
441.75	33923.72
441.94	33804.36
442.12	33474.34
442.31	34183.52
442.50	34206.93
442.68	33876.91
442.87	33539.88
443.05	33010.92
443.24	33455.62
443.43	34328.64
443.61	34794.40
443.80	35220.38
443.98	33333.91
444.17	33296.46
444.35	35356.13
444.54	35700.19
444.73	35271.87
444.91	34019.69
445.10	32570.90
445.28	31051.89
445.47	30995.71
445.65	30991.03
445.84	31676.81
446.02	33109.22
446.21	33205.18
446.39	33565.62
446.58	33598.39
446.77	34218.63
446.95	34586.10
447.14	35934.24
447.32	36503.00
447.51	35552.74
447.69	34162.46
447.88	33837.12
448.06	33811.38
448.25	35381.88
448.43	35386.56
448.62	34169.48
448.80	34366.09
448.99	34611.84
449.17	34518.22
449.36	35117.40
449.54	36341.50
449.73	36528.74
449.91	37436.87
450.10	38335.63
450.28	38532.24
450.46	38150.73
450.65	38408.19
450.83	38490.11
451.02	37429.85
451.20	37109.19
451.39	37179.41
451.57	36840.03
451.76	36727.69
451.94	36713.64
452.13	36215.11
452.31	34333.32
452.49	32929.00
452.68	33249.65
452.86	33556.26
453.05	33771.59
453.23	34988.67
453.42	35644.02
453.60	36800.24
453.78	36905.57
453.97	36392.99
454.15	36292.35
454.34	35667.42
454.52	35646.36
454.70	34993.35
454.89	35435.71
455.07	35779.77
455.26	36070.00
455.44	37757.52
455.62	38176.48
455.81	38197.54
455.99	38167.12
456.17	37743.48
456.36	37467.30
456.54	38525.22
456.73	38382.45
456.91	39377.17
457.09	39562.08
457.28	40514.67
457.46	38672.67
457.64	38337.98
457.83	37521.13
458.01	36683.22
458.19	37373.67
458.38	37799.65
458.56	39199.29
458.74	38747.57
458.93	38103.92
459.11	37919.02
459.29	37509.43
459.48	38174.14
459.66	37867.53
459.84	38155.41
460.03	38555.64
460.21	38871.62
460.39	39590.16
460.57	39688.46
460.76	40165.93
460.94	40554.46
461.12	39515.26
461.31	39515.26
461.49	39524.63
461.67	40004.44
461.85	40517.01
462.04	40264.24
462.22	41249.60
462.40	40624.68
462.59	40327.43
462.77	40603.61
462.95	40720.64
463.13	40081.67
463.32	40072.31
463.50	39892.09
463.68	39505.90
463.86	39639.31
464.05	39014.39
464.23	38508.83
464.41	38183.50
464.59	37605.39
464.78	39136.10
464.96	39100.99
465.14	38586.07
465.32	39948.26
465.50	40786.18
465.69	40940.65
465.87	40151.89
466.05	39182.91
466.23	37460.27
466.41	36919.61
466.60	37780.93
466.78	37703.69
466.96	38340.32
467.14	39187.59
467.32	39835.92
467.51	39618.25
467.69	37663.90
467.87	38534.58
468.05	39503.56
468.23	39239.08
468.41	39225.04
468.60	39332.70
468.78	39618.25
468.96	38962.90
469.14	40030.18
469.32	40610.64
469.50	38286.48
469.69	38761.61
469.87	38452.66
470.05	38068.81
470.23	37963.49
470.41	38202.22
470.59	38829.49
470.77	39325.68
470.95	40009.12
471.14	40329.77
471.32	40556.80
471.50	42529.87
471.68	42574.34
471.86	42997.98
472.04	43203.95
472.22	43068.20
472.40	41148.96
472.58	40587.23
472.77	40285.30
472.95	40811.92
473.13	42099.22
473.31	41198.11
473.49	41806.65
473.67	42204.54
473.85	42459.66
474.03	43613.54
474.21	43423.96
474.39	44133.14
474.57	43847.60
474.75	44348.47
474.93	43950.58
475.12	42698.39
475.30	42948.83
475.48	43196.93
475.66	43732.91
475.84	43494.18
476.02	43072.88
476.20	42337.95
476.38	43082.24
476.56	43910.79
476.74	44594.23
476.92	45460.23
477.10	45673.21
477.28	46873.91
477.46	46873.91
477.64	47129.03
477.82	47299.89
478.00	47536.28
478.18	46354.31
478.36	46609.43
478.54	46490.06
478.72	47189.88
478.90	47938.85
479.08	48868.05
479.26	49469.56
479.44	49205.08
479.62	48596.54
479.80	49045.93
479.98	49050.61
480.16	49656.81
480.34	48851.66
480.52	49708.30
480.70	49579.57
480.88	49464.88
481.06	50494.72
481.24	50901.97
481.41	51334.97
481.59	51901.38
481.77	51533.92
481.95	51019.00
482.13	50974.53
482.31	51058.79
482.49	51749.24
482.67	51435.61
482.85	51632.22
483.03	52397.57
483.21	52711.20
483.39	52685.46
483.57	51882.66
483.74	51803.08
483.92	52083.94
484.10	51992.66
484.28	52928.87
484.46	53017.82
484.64	53406.34
484.82	52392.89
485.00	52392.89
485.18	51770.31
485.35	50581.32
485.53	47929.49
485.71	44231.44
485.89	43498.86
486.07	45158.30
486.25	48727.61
486.43	50869.20
486.61	51489.45
486.78	51037.72
486.96	51444.98
487.14	53165.27
487.32	53347.83
487.50	54628.10
487.68	55077.49
487.85	55716.45
488.03	55458.99
488.21	55416.86
488.39	54492.35
488.57	54265.32
488.75	53951.69
488.92	54611.72
489.10	56488.83
489.28	57689.52
489.46	58054.65
489.64	58007.84
489.81	58164.65
489.99	57762.08
490.17	57844.00
490.35	58262.96
490.53	58000.82
490.70	57542.07
490.88	57483.56
491.06	58218.49
491.24	58255.93
491.41	57336.10
491.59	56090.94
491.77	55363.03
491.95	55992.64
492.13	57233.12
492.30	58248.91
492.48	59112.57
492.66	59458.97
492.84	59348.96
493.01	59112.57
493.19	58578.93
493.37	58637.44
493.54	58653.82
493.72	58836.39
493.90	59704.73
494.08	60196.24
494.25	60481.78
494.43	60526.25
494.61	61226.07
494.79	61104.37
494.96	60933.51
495.14	60430.29
495.32	59711.75
495.49	59084.48
495.67	59969.21
495.85	61055.21
496.02	61490.55
496.20	61300.97
496.38	60949.89
496.55	60846.91
496.73	61315.01
496.91	61134.79
497.09	61907.17
497.26	62316.76
497.44	61516.30
497.62	61165.22
497.79	60509.87
497.97	59374.71
498.14	59245.98
498.32	60341.35
498.50	61375.87
498.67	61724.61
498.85	61609.92
499.03	61815.89
499.20	61890.79
499.38	62103.77
499.56	61897.81
499.73	61497.58
499.91	61167.56
500.08	60996.70
500.26	59971.55
500.44	60458.38
500.61	61167.56
500.79	60982.66
500.97	60456.04
501.14	60547.32
501.32	60331.99
501.49	60280.50
501.67	60528.59
501.84	60952.23
502.02	61125.43
502.20	61579.49
502.37	61715.25
502.55	61783.12
502.72	62255.91
502.90	62611.67
503.07	62316.76
503.25	61780.78
503.43	61270.54
503.60	60816.48
503.78	59987.93
503.95	60552.00
504.13	61731.63
504.30	62405.70
504.48	62181.01
504.65	61949.30
504.83	61975.05
505.01	62499.33
505.18	62969.77
505.36	63463.63
505.53	63346.60
505.71	63592.36
505.88	63632.14
506.06	63056.37
506.23	62944.03
506.41	62424.43
506.58	62719.34
506.76	62738.06
506.93	62693.59
507.11	62511.03
507.28	62522.73
507.46	62164.63
507.63	61633.33
507.81	61413.32
507.98	61764.40
508.16	62225.48
508.33	62789.55
508.50	63079.78
508.68	63332.56
508.85	63718.74
509.03	63746.83
509.20	63482.35
509.38	63044.67
509.55	62298.04
509.73	62246.55
509.90	62843.38
510.08	63175.74
510.25	63257.66
510.42	62822.32
510.60	62798.91
510.77	63103.18
510.95	63585.33
511.12	63575.97
511.30	63758.53
511.47	64191.53
511.64	64135.36
511.82	63805.34
511.99	63192.12
512.17	62679.55
512.34	62450.17
512.51	62457.20
512.69	62639.76
512.86	62637.42
513.04	63248.30
513.21	63157.02
513.38	62897.22
513.56	62248.89
513.73	61792.48
513.90	62131.86
514.08	62068.67
514.25	62466.56
514.43	62639.76
514.60	62733.38
514.77	62904.24
514.95	62993.18
515.12	62770.83
515.29	63091.48
515.47	63437.88
515.64	63472.99
515.81	63398.09
515.99	62841.04
516.16	61539.71
516.33	59702.38
516.51	58295.72
516.68	57652.08
516.85	57415.68
517.03	57623.99
517.20	59627.49
517.37	61836.95
517.54	62913.60
517.72	62590.61
517.89	60512.21
518.06	58204.44
518.24	58365.94
518.41	60411.57
518.58	61619.28
518.75	61886.10
518.93	62010.15
519.10	61736.31
519.27	62262.93
519.45	62496.98
519.62	63119.57
519.79	63426.18
519.96	63110.20
520.14	62763.81
520.31	61923.55
520.48	62150.59
520.65	62403.36
520.83	63187.44
521.00	63695.34
521.17	63320.85
521.34	62677.21
521.52	63182.76
521.69	63625.12
521.86	64032.38
522.03	63866.20
522.20	62777.85
522.38	61829.93
522.55	61801.85
522.72	62234.84
522.89	62438.47
523.07	62489.96
523.24	63007.22
523.41	63873.22
523.58	63969.18
523.75	64388.14
523.92	64324.94
524.10	64102.59
524.27	64135.36
524.44	63833.43
524.61	63887.26
524.78	63688.32
524.96	63540.86
525.13	63646.19
525.30	63835.77
525.47	64210.26
525.64	64362.39
525.81	63477.67
525.98	62223.14
526.16	61015.43
526.33	60404.55
526.50	60184.54
526.67	59786.64
526.84	60441.99
527.01	61176.92
527.18	61961.00
527.36	62780.19
527.53	63451.92
527.70	63795.98
527.87	63295.11
528.04	62958.07
528.21	63264.68
528.38	63788.96
528.55	64425.59
528.72	64603.47
528.89	64903.06
529.07	64584.74
529.24	63913.01
529.41	63547.89
529.58	62869.13
529.75	63009.56
529.92	63412.13
530.09	63568.95
530.26	64228.98
530.43	64456.01
530.60	64303.88
530.77	64601.13
530.94	64619.85
531.11	64271.11
531.28	63938.75
531.46	63978.54
531.63	63849.81
531.80	63875.56
531.97	63522.14
532.14	62969.77
532.31	61907.17
532.48	61300.97
532.65	61408.64
532.82	62005.47
532.99	63075.10
533.16	63252.98
533.33	63873.22
533.50	63728.11
533.67	63047.01
533.84	62698.27
534.01	62988.50
534.18	63164.04
534.35	63332.56
534.52	63168.72
534.69	63384.05
534.86	63627.46
535.03	63795.98
535.20	64324.94
535.37	64463.03
535.54	64701.77
535.71	64432.61
535.88	64273.45
536.05	63540.86
536.22	63238.93
536.38	62974.45
536.55	62496.98
536.72	62003.13
536.89	61956.32
537.06	62801.25
537.23	63580.65
537.40	63735.13
537.57	63545.54
537.74	63444.90
537.91	63625.12
538.08	63311.49
538.25	63484.69
538.42	63746.83
538.59	63444.90
538.75	62733.38
538.92	62628.05
539.09	62595.29
539.26	62267.61
539.43	62202.08
539.60	62328.47
539.77	62667.84
539.94	62431.45
540.11	61705.88
540.28	61270.54
540.44	61151.18
540.61	61535.02
540.78	61684.82
540.95	62204.42
541.12	62363.57
541.29	62646.78
541.46	62948.71
541.62	62974.45
541.79	62920.62
541.96	62358.89
542.13	62354.21
542.30	62614.01
542.47	62794.23
542.63	62452.51
542.80	62199.74
542.97	62396.34
543.14	62396.34
543.31	62106.12
543.48	62740.40
543.64	63515.12
543.81	63795.98
543.98	63421.50
544.15	62850.41
544.32	62511.03
544.48	62604.65
544.65	62887.85
544.82	63447.24
544.99	62941.69
545.16	62709.97
545.32	62173.99
545.49	63056.37
545.66	63428.52
545.83	63217.87
546.00	62616.35
546.16	62602.31
546.33	62539.11
546.50	62628.05
546.67	63093.82
546.83	62529.75
547.00	62712.31
547.17	62042.92
547.34	61542.05
547.50	61471.83
547.67	61979.73
547.84	62049.94
548.00	62227.82
548.17	62665.50
548.34	62644.44
548.51	62672.52
548.67	62721.68
548.84	62796.57
549.01	62515.71
549.18	62663.16
549.34	62344.85
549.51	62550.82
549.68	62468.90
549.84	62218.46
550.01	62323.78
550.18	62080.37
550.34	62045.26
550.51	62063.99
550.68	62489.96
550.84	61696.52
551.01	61963.34
551.18	61820.57
551.34	61977.39
551.51	62440.81
551.68	62679.55
551.84	62705.29
552.01	62307.40
552.18	62351.87
552.34	61705.88
552.51	61357.14
552.68	61277.57
552.84	61916.53
553.01	62028.88
553.18	61900.15
553.34	61876.74
553.51	62173.99
553.67	62143.56
553.84	62506.35
554.01	62279.31
554.17	62129.52
554.34	62159.95
554.51	62209.10
554.67	62564.86
554.84	62522.73
555.00	62075.69
555.17	61860.36
555.33	61902.49
555.50	61792.48
555.67	61834.61
555.83	61719.93
556.00	61598.22
556.16	61446.08
556.33	61092.66
556.50	61165.22
556.66	61066.92
556.83	60769.67
556.99	61001.38
557.16	61087.98
557.32	61567.79
557.49	61366.51
557.65	61497.58
557.82	61439.06
557.98	61284.59
558.15	61080.96
558.32	60069.85
558.48	59398.12
558.65	59559.61
558.81	59987.93
558.98	60186.88
559.14	60374.12
559.31	60423.27
559.47	60303.90
559.64	60285.18
559.80	59997.29
559.97	59774.94
560.13	60247.73
560.30	61102.03
560.46	61488.21
560.63	61764.40
560.79	61769.08
560.96	61520.98
561.12	60493.49
561.29	59793.67
561.45	59728.13
561.61	60336.67
561.78	60647.96
561.94	60495.83
562.11	60530.93
562.27	60280.50
562.44	60491.15
562.60	60701.79
562.77	61048.19
562.93	60776.69
563.10	60699.45
563.26	60308.58
563.42	60444.33
563.59	60053.47
563.75	60156.45
563.92	60367.10
564.08	60142.41
564.24	60275.82
564.41	60573.06
564.57	60425.61
564.74	60126.02
564.90	60203.26
565.07	59913.03
565.23	59709.41
565.39	59175.76
565.56	59000.22
565.72	58812.98
565.88	59112.57
566.05	59093.85
566.21	59334.92
566.38	59451.95
566.54	59594.72
566.70	59929.42
566.87	60104.96
567.03	60308.58
567.19	60491.15
567.36	60177.51
567.52	59831.11
567.68	59683.66
567.85	59110.23
568.01	59025.97
568.17	58887.88
568.34	58419.77
568.50	58541.48
568.66	58644.46
568.83	59000.22
568.99	59262.36
569.15	59143.00
569.32	59255.34
569.48	59147.68
569.64	58831.71
569.81	58658.51
569.97	58447.86
570.13	58592.97
570.30	57979.75
570.46	57902.51
570.62	57352.49
570.78	57256.53
570.95	57413.34
571.11	57965.71
571.27	58255.93
571.43	58436.16
571.60	58569.57
571.76	58766.17
571.92	59018.95
572.09	59189.81
572.25	59320.88
572.41	58859.79
572.57	58820.00
572.74	58995.54
572.90	58646.80
573.06	58639.78
573.22	58747.45
573.38	58791.92
573.55	58602.33
573.71	58810.64
573.87	58653.82
574.03	58466.58
574.20	58527.44
574.36	58244.23
574.52	57977.41
574.68	57879.11
574.84	57673.14
575.01	57261.21
575.17	57137.16
575.33	57506.96
575.49	57619.31
575.65	57649.74
575.82	57530.37
575.98	57387.60
576.14	57577.18
576.30	57876.77
576.46	57991.45
576.62	57811.23
576.79	57701.23
576.95	57462.49
577.11	57366.53
577.27	57703.57
577.43	57804.21
577.59	57249.50
577.75	57036.51
577.92	56507.55
578.08	56348.40
578.24	56193.92
578.40	56631.60
578.56	56985.02
578.72	56853.95
578.88	57102.05
579.04	57364.19
579.21	57151.20
579.37	57521.01
579.53	57293.97
579.69	57277.59
579.85	57457.81
580.01	57312.70
580.17	56849.27
580.33	57109.07
580.49	56954.60
580.65	57064.60
580.82	57352.49
580.98	57237.80
581.14	57148.86
581.30	57396.96
581.46	57172.27
581.62	57214.40
581.78	57382.91
581.94	57551.43
582.10	57207.37
582.26	57521.01
582.42	57396.96
582.58	57413.34
582.74	57193.33
582.90	57205.03
583.06	57415.68
583.22	57120.77
583.38	57073.96
583.54	56989.70
583.70	56942.89
583.86	57078.64
584.02	56877.36
584.18	57139.50
584.34	56926.51
584.50	57043.54
584.66	56856.29
584.82	56411.59
584.98	56662.03
585.14	56055.83
