SpectraSuite Data File
++++++++++++++++++++++++++++++++++++
Date: Mon Oct 07 14:54:55 GMT-05:00 2013
User: price-jones
Dark Spectrum Present: No
Reference Spectrum Present: No
Number of Sampled Component Spectra: 1
Spectrometers: USB2+H05261
Integration Time (usec): 10000 (USB2+H05261)
Spectra Averaged: 1 (USB2+H05261)
Boxcar Smoothing: 0 (USB2+H05261)
Correct for Electrical Dark: No (USB2+H05261)
Strobe/Lamp Enabled: No (USB2+H05261)
Correct for Detector Non-linearity: No (USB2+H05261)
Correct for Stray Light: No (USB2+H05261)
Number of Pixels in Processed Spectrum: 2048
>>>>>Begin Processed Spectral Data<<<<<
365.73	0.00
365.92	0.00
366.12	0.00
366.32	0.00
366.52	0.00
366.72	0.00
366.91	0.00
367.11	0.00
367.31	0.00
367.51	0.00
367.70	0.00
367.90	0.00
368.10	0.00
368.30	0.00
368.49	0.00
368.69	0.00
368.89	0.00
369.09	0.00
369.28	0.00
369.48	0.00
369.68	0.00
369.87	0.00
370.07	0.00
370.27	0.00
370.47	0.00
370.66	28.09
370.86	91.28
371.06	49.15
371.25	105.32
371.45	42.13
371.65	9.36
371.84	18.72
372.04	159.16
372.24	63.19
372.44	70.22
372.63	102.98
372.83	60.85
373.03	117.03
373.22	0.00
373.42	35.11
373.62	98.30
373.81	276.18
374.01	156.82
374.21	95.96
374.40	81.92
374.60	105.32
374.79	112.35
374.99	93.62
375.19	198.95
375.38	210.65
375.58	184.90
375.78	255.12
375.97	222.35
376.17	145.11
376.37	196.60
376.56	215.33
376.76	290.23
376.95	292.57
377.15	287.89
377.35	362.78
377.54	362.78
377.74	372.15
377.93	311.29
378.13	341.72
378.33	404.91
378.52	245.76
378.72	201.29
378.91	220.01
379.11	224.69
379.31	250.44
379.50	224.69
379.70	299.59
379.89	334.70
380.09	339.38
380.28	332.36
380.48	271.50
380.68	304.27
380.87	311.29
381.07	245.76
381.26	262.14
381.46	248.10
381.65	91.28
381.85	163.84
382.04	154.48
382.24	79.58
382.43	161.50
382.63	114.69
382.83	128.73
383.02	198.95
383.22	140.43
383.41	107.66
383.61	140.43
383.80	245.76
384.00	201.29
384.19	266.82
384.39	320.65
384.58	351.08
384.78	334.70
384.97	374.49
385.17	304.27
385.36	320.65
385.56	222.35
385.75	208.31
385.95	245.76
386.14	372.15
386.34	400.23
386.53	372.15
386.72	301.93
386.92	297.25
387.11	358.10
387.31	379.17
387.50	402.57
387.70	339.38
387.89	301.93
388.09	351.08
388.28	339.38
388.48	339.38
388.67	376.83
388.86	411.93
389.06	475.13
389.25	550.03
389.45	498.53
389.64	414.27
389.84	512.58
390.03	531.30
390.22	571.09
390.42	599.18
390.61	601.52
390.81	575.77
391.00	699.82
391.19	627.26
391.39	552.37
391.58	594.50
391.78	514.92
391.97	479.81
392.16	437.68
392.36	379.17
392.55	229.37
392.75	149.79
392.94	72.56
393.13	95.96
393.33	98.30
393.52	222.35
393.71	358.10
393.91	454.06
394.10	482.15
394.29	454.06
394.49	634.29
394.68	730.25
394.88	667.05
395.07	812.17
395.26	753.65
395.46	664.71
395.65	606.20
395.84	510.24
396.04	407.25
396.23	297.25
396.42	243.42
396.62	180.22
396.81	266.82
397.00	416.62
397.19	571.09
397.39	641.31
397.58	781.74
397.77	791.10
397.97	833.23
398.16	917.49
398.35	999.41
398.55	1062.60
398.74	980.68
398.93	1186.65
399.12	1071.97
399.32	887.06
399.51	952.60
399.70	1074.31
399.90	1064.94
400.09	1123.46
400.28	1011.11
400.47	1086.01
400.67	1144.52
400.86	1226.44
401.05	1153.88
401.24	1198.35
401.44	1266.23
401.63	1181.97
401.82	1181.97
402.01	1137.50
402.21	1212.40
402.40	1118.78
402.59	1153.88
402.78	1151.54
402.97	1025.15
403.17	1167.93
403.36	1240.48
403.55	1275.59
403.74	1277.93
403.93	1263.89
404.13	1184.31
404.32	1139.84
404.51	1205.38
404.70	1301.34
404.89	1240.48
405.09	1254.53
405.28	1261.55
405.47	1240.48
405.66	1179.63
405.85	1240.48
406.05	1186.65
406.24	1160.91
406.43	1238.14
406.62	1320.06
406.81	1224.10
407.00	1188.99
407.20	1125.80
407.39	1114.10
407.58	1158.57
407.77	1399.64
407.96	1406.66
408.15	1390.28
408.34	1348.15
408.54	1474.54
408.73	1411.34
408.92	1359.85
409.11	1362.19
409.30	1299.00
409.49	1226.44
409.68	1081.33
409.87	1109.41
410.07	1277.93
410.26	1231.12
410.45	1383.26
410.64	1404.32
410.83	1427.73
411.02	1516.67
411.21	1479.22
411.40	1547.09
411.59	1504.96
411.78	1425.39
411.98	1460.49
412.17	1500.28
412.36	1483.90
412.55	1441.77
412.74	1462.83
412.93	1430.07
413.12	1392.62
413.31	1612.63
413.50	1593.90
413.69	1640.72
413.88	1598.59
414.07	1423.05
414.26	1453.47
414.45	1551.78
414.64	1528.37
414.83	1617.31
415.02	1631.35
415.22	1519.01
415.41	1629.01
415.60	1713.27
415.79	1673.48
415.98	1820.94
416.17	2010.52
416.36	1715.61
416.55	1739.02
416.74	1600.93
416.93	1626.67
417.12	1488.58
417.31	1533.05
417.50	1509.65
417.69	1689.87
417.88	1696.89
418.07	1652.42
418.26	1603.27
418.45	1652.42
418.64	1732.00
418.83	1802.21
419.02	1771.79
419.21	1774.13
419.39	1636.03
419.58	1598.59
419.77	1596.25
419.96	1664.12
420.15	1717.95
420.34	1741.36
420.53	1891.15
420.72	1984.77
420.91	1898.17
421.10	1849.02
421.29	1937.96
421.48	1863.07
421.67	1907.54
421.86	1771.79
422.05	1657.10
422.24	1514.33
422.43	1483.90
422.61	1668.80
422.80	1823.28
422.99	1839.66
423.18	1696.89
423.37	1666.46
423.56	1654.76
423.75	1771.79
423.94	1797.53
424.13	1671.14
424.32	1785.83
424.50	1675.82
424.69	1647.74
424.88	1654.76
425.07	1696.89
425.26	1689.87
425.45	1626.67
425.64	1607.95
425.83	1661.78
426.01	1696.89
426.20	1764.76
426.39	1771.79
426.58	1671.14
426.77	1526.03
426.96	1453.47
427.15	1448.79
427.33	1570.50
427.52	1692.21
427.71	1797.53
427.90	1692.21
428.09	1661.78
428.28	1614.97
428.46	1519.01
428.65	1530.71
428.84	1514.33
429.03	1533.05
429.22	1568.16
429.40	1413.68
429.59	1336.45
429.78	1163.25
429.97	1212.40
430.16	1053.24
430.34	1090.69
430.53	1132.82
430.72	1064.94
430.91	1254.53
431.10	1563.48
431.28	1797.53
431.47	1949.67
431.66	2036.27
431.85	1874.77
432.03	1673.48
432.22	1666.46
432.41	1724.97
432.60	1839.66
432.79	1907.54
432.97	1909.88
433.16	2076.06
433.35	1774.13
433.54	1577.52
433.72	1460.49
433.91	1547.09
434.10	1701.57
434.28	1905.20
434.47	1844.34
434.66	1795.19
434.85	1785.83
435.03	1741.36
435.22	1921.58
435.41	1968.39
435.59	1944.99
435.78	2071.37
435.97	2094.78
436.16	2239.89
436.34	1930.94
436.53	1994.14
436.72	1914.56
436.90	1973.07
437.09	1895.83
437.28	1844.34
437.46	2045.63
437.65	1919.24
437.84	1727.32
438.02	1633.69
438.21	1657.10
438.40	1685.19
438.58	1834.98
438.77	1790.51
438.96	1907.54
439.14	2148.61
439.33	2108.82
439.52	2162.66
439.70	2052.65
439.89	1975.41
440.08	2005.84
440.26	1928.60
440.45	2057.33
440.63	2062.01
440.82	2223.51
441.01	2340.54
441.19	2249.25
441.38	2244.57
441.57	2356.92
441.75	2396.71
441.94	2396.71
442.12	2406.07
442.31	2499.69
442.50	2422.45
442.68	2277.34
442.87	2312.45
443.05	2282.02
443.24	2326.49
443.43	2373.30
443.61	2581.61
443.80	2466.92
443.98	2267.98
444.17	2366.28
444.35	2452.88
444.54	2420.11
444.73	2579.27
444.91	2356.92
445.10	2223.51
445.28	2237.55
445.47	2057.33
445.65	2136.91
445.84	2162.66
446.02	2277.34
446.21	2331.17
446.39	2251.60
446.58	2349.90
446.77	2415.43
446.95	2485.65
447.14	2595.65
447.32	2583.95
447.51	2464.58
447.69	2342.88
447.88	2349.90
448.06	2380.32
448.25	2420.11
448.43	2406.07
448.62	2370.96
448.80	2480.97
448.99	2417.77
449.17	2424.80
449.36	2487.99
449.54	2422.45
449.73	2593.31
449.91	2523.10
450.10	2614.38
450.28	2693.96
450.46	2757.15
450.65	2773.53
450.83	2722.04
451.02	2544.16
451.20	2548.84
451.39	2616.72
451.57	2487.99
451.76	2572.25
451.94	2518.42
452.13	2541.82
452.31	2434.16
452.49	2279.68
452.68	2352.24
452.86	2326.49
453.05	2448.20
453.23	2431.82
453.42	2457.56
453.60	2497.35
453.78	2621.40
453.97	2434.16
454.15	2471.61
454.34	2270.32
454.52	2431.82
454.70	2352.24
454.89	2385.01
455.07	2495.01
455.26	2511.39
455.44	2605.02
455.62	2675.23
455.81	2670.55
455.99	2747.79
456.17	2567.57
456.36	2562.89
456.54	2738.43
456.73	2597.99
456.91	2722.04
457.09	2794.60
457.28	2885.88
457.46	2752.47
457.64	2686.94
457.83	2551.18
458.01	2607.36
458.19	2576.93
458.38	2541.82
458.56	2764.17
458.74	2586.29
458.93	2626.08
459.11	2619.06
459.29	2656.51
459.48	2619.06
459.66	2551.18
459.84	2572.25
460.03	2656.51
460.21	2698.64
460.39	2715.02
460.57	2803.96
460.76	2801.62
460.94	2752.47
461.12	2792.26
461.31	2843.75
461.49	2803.96
461.67	2717.36
461.85	2867.16
462.04	2834.39
462.22	2829.71
462.40	2731.41
462.59	2710.34
462.77	2822.69
462.95	2808.64
463.13	2766.51
463.32	2574.59
463.50	2733.75
463.68	2616.72
463.86	2663.53
464.05	2717.36
464.23	2670.55
464.41	2642.46
464.59	2546.50
464.78	2754.81
464.96	2719.70
465.14	2656.51
465.32	2729.06
465.50	2829.71
465.69	2745.45
465.87	2630.76
466.05	2768.85
466.23	2715.02
466.41	2523.10
466.60	2581.61
466.78	2590.97
466.96	2668.21
467.14	2686.94
467.32	2663.53
467.51	2712.68
467.69	2534.80
467.87	2495.01
468.05	2789.92
468.23	2649.49
468.41	2740.77
468.60	2642.46
468.78	2822.69
468.96	2553.52
469.14	2733.75
469.32	2764.17
469.50	2672.89
469.69	2572.25
469.87	2593.31
470.05	2506.71
470.23	2600.34
470.41	2607.36
470.59	2651.83
470.77	2630.76
470.95	2696.30
471.14	2684.59
471.32	2808.64
471.50	2878.86
471.68	2825.03
471.86	2803.96
472.04	2864.82
472.22	3052.06
472.40	2792.26
472.58	2766.51
472.77	2586.29
472.95	2808.64
473.13	2939.71
473.31	2761.83
473.49	2787.58
473.67	2867.16
473.85	2778.22
474.03	3026.31
474.21	2977.16
474.39	3110.57
474.57	2855.45
474.75	2958.44
474.93	2888.22
475.12	2731.41
475.30	2855.45
475.48	2897.58
475.66	3028.65
475.84	3063.76
476.02	2916.31
476.20	2958.44
476.38	2897.58
476.56	3038.02
476.74	3098.87
476.92	3138.66
477.10	3094.19
477.28	3206.53
477.46	3225.26
477.64	3171.43
477.82	3192.49
478.00	3243.98
478.18	3103.55
478.36	3145.68
478.54	3190.15
478.72	3215.90
478.90	3351.65
479.08	3314.20
479.26	3452.29
479.44	3382.07
479.62	3442.93
479.80	3445.27
479.98	3428.88
480.16	3517.83
480.34	3353.99
480.52	3445.27
480.70	3501.44
480.88	3562.30
481.06	3487.40
481.24	3719.11
481.41	3676.98
481.59	3674.64
481.77	3623.15
481.95	3574.00
482.13	3691.02
482.31	3684.00
482.49	3719.11
482.67	3620.81
482.85	3763.58
483.03	3634.85
483.21	3667.62
483.39	3882.95
483.57	3576.34
483.74	3581.02
483.92	3623.15
484.10	3826.78
484.28	3801.03
484.46	3864.22
484.64	3896.99
484.82	3700.39
485.00	3796.35
485.18	3758.90
485.35	3578.68
485.53	3236.96
485.71	3012.27
485.89	2916.31
486.07	2902.26
486.25	3213.56
486.43	3646.55
486.61	3602.08
486.78	3665.28
486.96	3754.22
487.14	3803.37
487.32	3735.50
487.50	4081.89
487.68	4074.87
487.85	4273.82
488.03	4112.32
488.21	4039.76
488.39	3894.65
488.57	3997.64
488.75	3875.93
488.92	3925.08
489.10	4301.90
489.28	4547.66
489.46	4582.77
489.64	4589.79
489.81	4685.75
489.99	4456.38
490.17	4578.09
490.35	4514.89
490.53	4552.34
490.70	4479.79
490.88	4376.80
491.06	4545.32
491.24	4500.85
491.41	4442.34
491.59	4208.28
491.77	4028.06
491.95	4212.96
492.13	4472.76
492.30	4596.81
492.48	4784.06
492.66	4849.59
492.84	4880.02
493.01	4671.71
493.19	4580.43
493.37	4545.32
493.54	4458.72
493.72	4678.73
493.90	4786.40
494.08	4887.04
494.25	5139.82
494.43	5057.90
494.61	5186.63
494.79	5071.94
494.96	5069.60
495.14	5069.60
495.32	4795.76
495.49	4720.86
495.67	4793.42
495.85	5090.67
496.02	5277.91
496.20	5277.91
496.38	5210.03
496.55	4954.91
496.73	5090.67
496.91	5305.99
497.09	5226.42
497.26	5263.86
497.44	5334.08
497.62	5034.49
497.79	5032.15
497.97	4734.90
498.14	4823.84
498.32	4966.62
498.50	4999.38
498.67	5362.17
498.85	5163.22
499.03	5310.68
499.20	5296.63
499.38	5364.51
499.56	5224.08
499.73	5181.95
499.91	5078.96
500.08	5055.56
500.26	4861.29
500.44	4964.28
500.61	5015.77
500.79	5097.69
500.97	5018.11
501.14	4973.64
501.32	4980.66
501.49	4915.12
501.67	5055.56
501.84	5167.90
502.02	5067.26
502.20	5174.92
502.37	5219.39
502.55	5142.16
502.72	5146.84
502.90	5345.78
503.07	5277.91
503.25	5416.00
503.43	5041.51
503.60	4847.25
503.78	4903.42
503.95	5062.58
504.13	5163.22
504.30	5376.21
504.48	5282.59
504.65	5217.05
504.83	5193.65
505.01	5411.32
505.18	5481.53
505.36	5694.52
505.53	5586.86
505.71	5610.26
505.88	5823.25
506.06	5523.66
506.23	5284.93
506.41	5336.42
506.58	5481.53
506.76	5416.00
506.93	5439.40
507.11	5331.74
507.28	5439.40
507.46	5373.87
507.63	4973.64
507.81	5207.69
507.98	5109.39
508.16	5266.21
508.33	5420.68
508.50	5481.53
508.68	5624.31
508.85	5727.29
509.03	5694.52
509.20	5650.05
509.38	5401.96
509.55	5135.14
509.73	5313.02
509.90	5399.62
510.08	5394.93
510.25	5317.70
510.42	5465.15
510.60	5451.11
510.77	5432.38
510.95	5490.90
511.12	5556.43
511.30	5621.97
511.47	5591.54
511.64	5713.25
511.82	5678.14
511.99	5497.92
512.17	5486.22
512.34	5221.74
512.51	5151.52
512.69	5425.36
512.86	5425.36
513.04	5474.51
513.21	5404.30
513.38	5352.81
513.56	5245.14
513.73	5137.48
513.90	4990.02
514.08	5221.74
514.25	5188.97
514.43	5327.06
514.60	5090.67
514.77	5296.63
514.95	5252.16
515.12	5460.47
515.29	5350.46
515.47	5423.02
515.64	5483.88
515.81	5493.24
515.99	5434.72
516.16	5055.56
516.33	4540.64
516.51	4402.55
516.68	4259.78
516.85	4278.50
517.03	4325.31
517.20	4758.31
517.37	5095.35
517.54	5404.30
517.72	5280.25
517.89	4784.06
518.06	4376.80
518.24	4542.98
518.41	4826.18
518.58	4975.98
518.75	5151.52
518.93	5071.94
519.10	5221.74
519.27	5355.15
519.45	5313.02
519.62	5301.31
519.79	5467.49
519.96	5205.35
520.14	5221.74
520.31	5350.46
520.48	5118.75
520.65	5273.23
520.83	5322.38
521.00	5631.33
521.17	5301.31
521.34	5376.21
521.52	5535.37
521.69	5521.32
521.86	5488.56
522.03	5762.40
522.20	5331.74
522.38	4957.25
522.55	5050.88
522.72	5226.42
522.89	5247.48
523.07	5303.65
523.24	5418.34
523.41	5600.90
523.58	5530.69
523.75	5661.76
523.92	5568.13
524.10	5568.13
524.27	5628.99
524.44	5645.37
524.61	5406.64
524.78	5565.79
524.96	5401.96
525.13	5401.96
525.30	5547.07
525.47	5647.71
525.64	5458.13
525.81	5540.05
525.98	5116.41
526.16	5008.75
526.33	4695.11
526.50	4844.91
526.67	4655.33
526.84	4755.97
527.01	4877.68
527.18	5046.20
527.36	5142.16
527.53	5399.62
527.70	5416.00
527.87	5277.91
528.04	5256.84
528.21	5210.03
528.38	5490.90
528.55	5657.07
528.72	5748.36
528.89	5724.95
529.07	5607.92
529.24	5547.07
529.41	5355.15
529.58	5221.74
529.75	5343.44
529.92	5425.36
530.09	5465.15
530.26	5439.40
530.43	5657.07
530.60	5589.20
530.77	5748.36
530.94	5682.82
531.11	5664.10
531.28	5565.79
531.46	5645.37
531.63	5549.41
531.80	5376.21
531.97	5467.49
532.14	5245.14
532.31	5151.52
532.48	4994.70
532.65	4933.85
532.82	4915.12
532.99	5322.38
533.16	5474.51
533.33	5556.43
533.50	5488.56
533.67	5423.02
533.84	5231.10
534.01	5177.26
534.18	5191.31
534.35	5259.18
534.52	5172.58
534.69	5313.02
534.86	5275.57
535.03	5540.05
535.20	5497.92
535.37	5636.01
535.54	5661.76
535.71	5708.57
535.88	5467.49
536.05	5289.61
536.22	5287.27
536.38	5287.27
536.55	5181.95
536.72	5078.96
536.89	5125.77
537.06	5132.79
537.23	5341.10
537.40	5348.12
537.57	5427.70
537.74	5401.96
537.91	5392.59
538.08	5280.25
538.25	5291.95
538.42	5268.55
538.59	5416.00
538.75	5095.35
538.92	5146.84
539.09	5158.54
539.26	5093.01
539.43	4987.68
539.60	4987.68
539.77	5165.56
539.94	5156.20
540.11	4870.65
540.28	4858.95
540.44	4758.31
540.61	4615.54
540.78	4915.12
540.95	4973.64
541.12	5093.01
541.29	5298.97
541.46	5233.44
541.62	5226.42
541.79	5254.50
541.96	5041.51
542.13	5097.69
542.30	5195.99
542.47	5139.82
542.63	5149.18
542.80	5125.77
542.97	5055.56
543.14	4971.30
543.31	4983.00
543.48	5039.17
543.64	5411.32
543.81	5085.98
543.98	5280.25
544.15	5111.73
544.32	4973.64
544.48	5125.77
544.65	5114.07
544.82	5280.25
544.99	5130.45
545.16	5160.88
545.32	5050.88
545.49	5214.71
545.66	5317.70
545.83	5144.50
546.00	5158.54
546.16	5090.67
546.33	5081.30
546.50	5050.88
546.67	5050.88
546.83	5064.92
547.00	5055.56
547.17	4933.85
547.34	4802.78
547.50	4812.14
547.67	4858.95
547.84	4884.70
548.00	4959.60
548.17	5039.17
548.34	5039.17
548.51	4938.53
548.67	5043.85
548.84	5167.90
549.01	4922.15
549.18	4896.40
549.34	4992.36
549.51	5022.79
549.68	5004.07
549.84	4966.62
550.01	5111.73
550.18	5064.92
550.34	4933.85
550.51	4990.02
550.68	4997.04
550.84	4819.16
551.01	5048.54
551.18	4858.95
551.34	4873.00
551.51	4870.65
551.68	5032.15
551.84	5060.24
552.01	5074.28
552.18	4915.12
552.34	4858.95
552.51	4716.18
552.68	4720.86
552.84	4985.34
553.01	4856.61
553.18	5020.45
553.34	4849.59
553.51	4901.08
553.67	4889.38
553.84	5085.98
554.01	5027.47
554.17	4912.78
554.34	5064.92
554.51	4917.47
554.67	4940.87
554.84	4985.34
555.00	4966.62
555.17	5008.75
555.33	4851.93
555.50	4908.10
555.67	4767.67
555.83	4856.61
556.00	4826.18
556.16	4765.33
556.33	4791.08
556.50	4648.30
556.66	4657.67
556.83	4706.82
556.99	4755.97
557.16	4685.75
557.32	4660.01
557.49	4823.84
557.65	4732.56
557.82	4779.37
557.98	4777.03
558.15	4545.32
558.32	4402.55
558.48	4451.70
558.65	4465.74
558.81	4360.42
558.98	4596.81
559.14	4545.32
559.31	4599.15
559.47	4489.15
559.64	4470.42
559.80	4521.92
559.97	4477.44
560.13	4531.28
560.30	4748.95
560.46	4816.82
560.63	4809.80
560.79	4791.08
560.96	4784.06
561.12	4517.23
561.29	4379.14
561.45	4500.85
561.61	4517.23
561.78	4561.70
561.94	4690.43
562.11	4521.92
562.27	4411.91
562.44	4355.74
562.60	4566.39
562.77	4580.43
562.93	4669.37
563.10	4582.77
563.26	4503.19
563.42	4608.51
563.59	4571.07
563.75	4390.84
563.92	4402.55
564.08	4512.55
564.24	4566.39
564.41	4634.26
564.57	4617.88
564.74	4430.63
564.90	4477.44
565.07	4454.04
565.23	4404.89
565.39	4360.42
565.56	4301.90
565.72	4042.11
565.88	4311.27
566.05	4386.16
566.21	4210.62
566.38	4308.93
566.54	4339.35
566.70	4372.12
566.87	4491.49
567.03	4236.37
567.19	4489.15
567.36	4521.92
567.52	4454.04
567.68	4365.10
567.85	4255.09
568.01	4194.24
568.17	4077.21
568.34	4194.24
568.50	4117.00
568.66	4095.94
568.83	4262.12
568.99	4189.56
569.15	4145.09
569.32	4358.08
569.48	4156.79
569.64	4166.15
569.81	4161.47
569.97	4002.32
570.13	4184.88
570.30	4154.45
570.46	3964.87
570.62	4088.92
570.78	3864.22
570.95	3985.93
571.11	4159.13
571.27	4126.36
571.43	4049.13
571.60	4177.86
571.76	4117.00
571.92	4276.16
572.09	4248.07
572.25	4290.20
572.41	4173.18
572.57	4208.28
572.74	4212.96
572.90	4138.07
573.06	4245.73
573.22	4086.58
573.38	4196.58
573.55	4266.80
573.71	4212.96
573.87	4229.35
574.03	4215.30
574.20	4058.49
574.36	4063.17
574.52	4007.00
574.68	3943.80
574.84	3866.56
575.01	3915.72
575.17	3852.52
575.33	4035.08
575.49	4051.47
575.65	4018.70
575.82	4102.96
575.98	3838.48
576.14	3985.93
576.30	4121.68
576.46	4088.92
576.62	3815.07
576.79	4004.66
576.95	4014.02
577.11	3981.25
577.27	3878.27
577.43	3887.63
577.59	3950.82
577.75	3978.91
577.92	3599.74
578.08	3826.78
578.24	3854.86
578.40	3712.09
578.56	3845.50
578.72	3779.97
578.88	3985.93
579.04	3782.31
579.21	3866.56
579.37	3873.59
579.53	4063.17
579.69	3969.55
579.85	3875.93
580.01	3913.38
580.17	3829.12
580.33	3805.71
580.49	3929.76
580.65	3845.50
580.82	4007.00
580.98	3866.56
581.14	3875.93
581.30	3899.33
581.46	3920.40
581.62	3904.01
581.78	3957.85
581.94	3962.53
582.10	3789.33
582.26	3805.71
582.42	4037.42
582.58	3995.29
582.74	3894.65
582.90	3887.63
583.06	3733.15
583.22	3840.82
583.38	3875.93
583.54	3847.84
583.70	3887.63
583.86	3896.99
584.02	3915.72
584.18	3805.71
584.34	3782.31
584.50	3688.68
584.66	3808.05
584.82	3744.86
584.98	3817.41
585.14	3611.45
585.30	3698.05
585.46	3461.65
585.62	3616.13
585.78	3684.00
585.94	3637.19
586.10	3702.73
586.26	3698.05
586.42	3716.77
586.58	3784.65
586.74	3829.12
586.90	3707.41
587.06	3662.94
587.22	3655.92
587.38	3709.75
587.54	3707.41
587.70	3639.53
587.86	3459.31
588.02	3515.48
588.18	3545.91
588.34	3405.48
588.49	3171.43
588.65	3063.76
588.81	3103.55
588.97	3028.65
589.13	2986.52
589.29	2928.01
589.45	2972.48
589.61	3204.19
589.77	3260.37
589.93	3452.29
590.08	3421.86
590.24	3496.76
590.40	3393.78
590.56	3576.34
590.72	3618.47
590.88	3351.65
591.04	3361.01
591.20	3349.31
591.35	3442.93
591.51	3419.52
591.67	3414.84
591.83	3311.86
591.99	3447.61
592.15	3325.90
592.31	3538.89
592.46	3449.95
592.62	3290.79
592.78	3222.92
592.94	3267.39
593.10	3433.57
593.26	3461.65
593.41	3492.08
593.57	3489.74
593.73	3452.29
593.89	3410.16
594.05	3351.65
594.20	3122.27
594.36	3253.34
594.52	3225.26
594.68	3267.39
594.84	3335.26
594.99	3332.92
595.15	3288.45
595.31	3176.11
595.47	3314.20
595.62	3412.50
595.78	3344.63
595.94	3356.33
596.10	3344.63
596.25	3229.94
596.41	3393.78
596.57	3339.94
596.73	3396.12
596.88	3276.75
597.04	3403.14
597.20	3258.03
597.36	3363.35
597.51	3201.85
597.67	3229.94
597.83	3208.87
597.99	3377.39
598.14	3272.07
598.30	3243.98
