SpectraSuite Data File
++++++++++++++++++++++++++++++++++++
Date: Mon Oct 07 14:54:58 GMT-05:00 2013
User: price-jones
Dark Spectrum Present: No
Reference Spectrum Present: No
Number of Sampled Component Spectra: 1
Spectrometers: USB2+H05261
Integration Time (usec): 10000 (USB2+H05261)
Spectra Averaged: 1 (USB2+H05261)
Boxcar Smoothing: 0 (USB2+H05261)
Correct for Electrical Dark: No (USB2+H05261)
Strobe/Lamp Enabled: No (USB2+H05261)
Correct for Detector Non-linearity: No (USB2+H05261)
Correct for Stray Light: No (USB2+H05261)
Number of Pixels in Processed Spectrum: 2048
>>>>>Begin Processed Spectral Data<<<<<
365.73	0.00
365.92	0.00
366.12	0.00
366.32	0.00
366.52	0.00
366.72	0.00
366.91	0.00
367.11	0.00
367.31	0.00
367.51	0.00
367.70	0.00
367.90	0.00
368.10	0.00
368.30	0.00
368.49	0.00
368.69	0.00
368.89	0.00
369.09	0.00
369.28	0.00
369.48	0.00
369.68	0.00
369.87	0.00
370.07	0.00
370.27	0.00
370.47	105.32
370.66	1308.36
370.86	1713.27
371.06	1645.40
371.25	1769.44
371.45	1549.43
371.65	1313.04
371.84	1383.26
372.04	1387.94
372.24	1558.80
372.44	1682.85
372.63	1547.09
372.83	1490.92
373.03	1252.19
373.22	1273.25
373.42	1390.28
373.62	1528.37
373.81	1565.82
374.01	1617.31
374.21	1483.90
374.40	1296.66
374.60	1462.83
374.79	1636.03
374.99	1832.64
375.19	2022.22
375.38	2052.65
375.58	1923.92
375.78	1806.89
375.97	1853.70
376.17	1970.73
376.37	1863.07
376.56	2094.78
376.76	2165.00
376.95	2340.54
377.15	2441.18
377.35	2588.63
377.54	2761.83
377.74	2724.38
377.93	2705.66
378.13	2621.40
378.33	2457.56
378.52	2293.72
378.72	2150.95
378.91	2272.66
379.11	2115.84
379.31	1970.73
379.50	2045.63
379.70	2324.15
379.89	2370.96
380.09	2576.93
380.28	2693.96
380.48	2724.38
380.68	2677.57
380.87	2495.01
381.07	2235.21
381.26	2106.48
381.46	2064.35
381.65	1863.07
381.85	1809.23
382.04	1720.29
382.24	1593.90
382.43	1558.80
382.63	1554.12
382.83	1528.37
383.02	1586.88
383.22	1614.97
383.41	1692.21
383.61	1830.30
383.80	1966.05
384.00	2275.00
384.19	2525.44
384.39	2590.97
384.58	2572.25
384.78	2502.03
384.97	2593.31
385.17	2237.55
385.36	2146.27
385.56	2230.53
385.75	2296.07
385.95	2600.34
386.14	2724.38
386.34	2693.96
386.53	2558.21
386.72	2495.01
386.92	2595.65
387.11	2562.89
387.31	2726.72
387.50	2722.04
387.70	2518.42
387.89	2506.71
388.09	2497.35
388.28	2499.69
388.48	2855.45
388.67	2932.69
388.86	3234.62
389.06	3405.48
389.25	3648.90
389.45	3637.19
389.64	3564.64
389.84	3534.21
390.03	3599.74
390.22	3602.08
390.42	3623.15
390.61	3901.67
390.81	3995.29
391.00	4168.49
391.19	4093.60
391.39	3889.97
391.58	3552.93
391.78	3461.65
391.97	3267.39
392.16	3019.29
392.36	2731.41
392.55	2017.54
392.75	1626.67
392.94	1451.13
393.13	1472.20
393.33	1842.00
393.52	2363.94
393.71	2946.73
393.91	3260.37
394.10	3363.35
394.29	3768.26
394.49	4042.11
394.68	4493.83
394.88	4475.10
395.07	4503.19
395.26	4411.91
395.46	4212.96
395.65	3878.27
395.84	3234.62
396.04	2719.70
396.23	2129.89
396.42	1710.93
396.62	1916.90
396.81	2450.54
397.00	3187.81
397.19	3974.23
397.39	4641.28
397.58	5242.80
397.77	5305.99
397.97	5526.00
398.16	5469.83
398.35	5556.43
398.55	5827.93
398.74	6090.07
398.93	6363.92
399.12	6136.88
399.32	6010.50
399.51	6078.37
399.70	6537.12
399.90	6239.87
400.09	6406.05
400.28	6445.84
400.47	6490.31
400.67	6801.60
400.86	6871.81
401.05	6743.08
401.24	7009.90
401.44	6942.03
401.63	7019.27
401.82	7049.69
402.01	7096.50
402.21	7089.48
402.40	7112.89
402.59	6909.26
402.78	6532.44
402.97	6312.42
403.17	6668.19
403.36	7206.51
403.55	7309.49
403.74	7145.66
403.93	6960.75
404.13	6450.52
404.32	6408.39
404.51	6773.51
404.70	7220.55
404.89	7314.17
405.09	7073.10
405.28	7068.42
405.47	6977.14
405.66	6834.36
405.85	6527.75
406.05	6382.64
406.24	6787.55
406.43	6937.35
406.62	6977.14
406.81	7042.67
407.00	6881.18
407.20	6794.58
407.39	7002.88
407.58	7393.75
407.77	7536.52
407.96	7651.21
408.15	7840.79
408.34	7866.54
408.54	8290.18
408.73	8198.90
408.92	8060.80
409.11	7576.31
409.30	7473.33
409.49	6902.24
409.68	6511.37
409.87	6796.92
410.07	7178.42
410.26	7300.13
410.45	7777.60
410.64	8072.51
410.83	8224.64
411.02	8730.20
411.21	8926.80
411.40	8685.73
411.59	8884.67
411.78	8669.34
411.98	8500.83
412.17	8575.72
412.36	8533.59
412.55	8353.37
412.74	8329.97
412.93	8098.25
413.12	8486.78
413.31	8917.44
413.50	9228.73
413.69	8978.30
413.88	8664.66
414.07	8828.50
414.26	8896.38
414.45	8861.27
414.64	9067.24
414.83	9076.60
415.02	8975.95
415.22	8840.20
415.41	9135.11
415.60	9434.70
415.79	9750.67
415.98	9949.62
416.17	10104.09
416.36	9572.79
416.55	9345.76
416.74	9139.79
416.93	8994.68
417.12	9034.47
417.31	9057.87
417.50	9081.28
417.69	9518.96
417.88	9486.19
418.07	9338.74
418.26	9139.79
418.45	9570.45
418.64	9827.91
418.83	10129.84
419.02	9563.43
419.21	9680.46
419.39	9415.98
419.58	8912.76
419.77	9322.35
419.96	9596.20
420.15	9813.87
420.34	10118.14
420.53	10820.30
420.72	10689.23
420.91	10284.31
421.10	10394.32
421.29	10298.36
421.48	10307.72
421.67	10235.16
421.86	9944.94
422.05	9174.90
422.24	8341.67
422.43	8582.74
422.61	9523.64
422.80	10134.52
422.99	9825.57
423.18	9614.92
423.37	9673.43
423.56	9776.42
423.75	9940.26
423.94	10015.15
424.13	9432.36
424.32	9408.95
424.50	9317.67
424.69	9376.19
424.88	9448.74
425.07	9369.16
425.26	9373.85
425.45	9334.06
425.64	9228.73
425.83	9481.51
426.01	10003.45
426.20	10043.24
426.39	9481.51
426.58	8938.51
426.77	8461.04
426.96	8304.22
427.15	8706.79
427.33	9376.19
427.52	9291.93
427.71	9659.39
427.90	9104.68
428.09	9195.96
428.28	8968.93
428.46	8854.25
428.65	8910.42
428.84	9142.13
429.03	9160.86
429.22	8411.89
429.40	7779.94
429.59	7164.38
429.78	6424.77
429.97	6473.92
430.16	6616.69
430.34	6553.50
430.53	6689.25
430.72	6953.73
430.91	8051.44
431.10	9303.63
431.28	10317.08
431.47	11042.65
431.66	11049.67
431.85	10005.79
432.03	9308.31
432.22	9270.86
432.41	9839.61
432.60	10326.44
432.79	10995.84
432.97	10951.37
433.16	10668.16
433.35	9565.77
433.54	8905.74
433.72	8601.47
433.91	9137.45
434.10	10057.28
434.28	10792.21
434.47	10801.57
434.66	10415.38
434.85	10483.26
435.03	10885.83
435.22	10757.10
435.41	11206.48
435.59	11246.27
435.78	11356.28
435.97	11726.08
436.16	11606.72
436.34	11634.80
436.53	11398.41
436.72	11510.75
436.90	10871.79
437.09	10850.72
437.28	10792.21
437.46	11056.69
437.65	10714.97
437.84	10111.11
438.02	9385.55
438.21	9540.02
438.40	9877.06
438.58	10546.45
438.77	10834.34
438.96	11150.31
439.14	11623.10
439.33	11789.28
439.52	11922.69
439.70	11602.04
439.89	11164.36
440.08	11300.11
440.26	11281.38
440.45	11733.11
440.63	12376.75
440.82	12926.78
441.01	12762.94
441.19	12381.43
441.38	12762.94
441.57	13125.72
441.75	13191.26
441.94	13460.42
442.12	13394.89
442.31	13645.32
442.50	13975.34
442.68	13537.66
442.87	13600.85
443.05	13130.41
443.24	13488.51
443.43	13437.02
443.61	13832.57
443.80	14150.88
443.98	13193.60
444.17	13336.37
444.35	14281.95
444.54	14483.24
444.73	14207.05
444.91	13224.03
445.10	12870.61
445.28	12444.63
445.47	12271.43
445.65	12205.89
445.84	12908.05
446.02	12940.82
446.21	13364.46
446.39	13151.47
446.58	13689.79
446.77	13610.22
446.95	14052.58
447.14	14391.95
447.32	14300.67
447.51	14054.92
447.69	13273.18
447.88	13359.78
448.06	13319.99
448.25	13928.53
448.43	13970.66
448.62	13453.40
448.80	13535.32
448.99	13598.51
449.17	13928.53
449.36	13930.87
449.54	14153.22
449.73	14555.79
449.91	14930.28
450.10	15234.55
450.28	15166.67
450.46	14869.42
450.65	14956.02
450.83	14764.10
451.02	14909.21
451.20	14256.20
451.39	14445.79
451.57	14246.84
451.76	14281.95
451.94	14197.69
452.13	14211.73
452.31	13200.62
452.49	12828.48
452.68	13142.11
452.86	13184.24
453.05	13586.81
453.23	14080.66
453.42	14204.71
453.60	13994.06
453.78	14324.08
453.97	14097.05
454.15	13951.93
454.34	13841.93
454.52	13898.10
454.70	13635.96
454.89	14122.79
455.07	13991.72
455.26	13916.83
455.44	14459.83
455.62	14984.11
455.81	14855.38
455.99	14630.69
456.17	14787.50
456.36	14616.65
456.54	15087.09
456.73	15138.58
456.91	15372.64
457.09	15173.69
457.28	15344.55
457.46	14885.81
457.64	15119.86
457.83	14125.13
458.01	14298.33
458.19	14810.91
458.38	14633.03
458.56	15047.30
458.74	14792.19
458.93	14747.72
459.11	14501.96
459.29	14457.49
459.48	14682.18
459.66	14326.42
459.84	14555.79
460.03	15094.11
460.21	15021.56
460.39	15374.98
460.57	15515.41
460.76	15499.03
460.94	15180.71
461.12	15499.03
461.31	15573.92
461.49	15625.42
461.67	15562.22
461.85	15955.43
462.04	15571.58
462.22	15452.22
462.40	15559.88
462.59	15255.61
462.77	15316.47
462.95	15534.14
463.13	15672.23
463.32	15257.95
463.50	15272.00
463.68	15346.89
463.86	15129.22
464.05	15066.03
464.23	14686.86
464.41	14455.15
464.59	14169.60
464.78	14998.15
464.96	14888.15
465.14	14841.34
465.32	15442.85
465.50	15742.44
465.69	15831.38
465.87	15377.32
466.05	14654.09
466.23	14377.91
466.41	14054.92
466.60	14820.27
466.78	14824.95
466.96	14565.15
467.14	15009.86
467.32	15199.44
467.51	15241.57
467.69	14281.95
467.87	14555.79
468.05	14712.61
468.23	14944.32
468.41	15033.26
468.60	15105.82
468.78	15033.26
468.96	15007.52
469.14	15309.44
469.32	15367.96
469.50	14427.06
469.69	14548.77
469.87	14443.45
470.05	14813.25
470.23	14216.41
470.41	14946.66
470.59	14750.06
470.77	14607.28
470.95	15311.78
471.14	15276.68
471.32	15414.77
471.50	16346.30
471.68	16285.45
471.86	16386.09
472.04	16259.70
472.22	15953.09
472.40	15426.47
472.58	15662.86
472.77	15461.58
472.95	15712.02
473.13	16077.14
473.31	15580.95
473.49	15534.14
473.67	16109.91
473.85	15559.88
474.03	16248.00
474.21	16219.91
474.39	16453.97
474.57	16091.18
474.75	16823.77
474.93	16711.42
475.12	16287.79
475.30	16348.64
475.48	16395.45
475.66	16641.21
475.84	16503.12
476.02	16470.35
476.20	16205.87
476.38	16395.45
476.56	16706.74
476.74	17022.72
476.92	16933.78
477.10	17451.03
477.28	18064.25
477.46	17710.83
477.64	17741.26
477.82	18122.77
478.00	17802.11
478.18	17788.07
478.36	17509.55
478.54	17319.96
478.72	17949.57
478.90	18548.75
479.08	18684.50
479.26	19049.62
479.44	18380.23
479.62	18703.22
479.80	18984.09
479.98	18628.32
480.16	19150.26
480.34	18885.78
480.52	19087.07
480.70	18890.46
480.88	19550.49
481.06	19590.28
481.24	19786.89
481.41	20290.10
481.59	20575.65
481.77	20088.82
481.95	19693.27
482.13	20027.96
482.31	19847.74
482.49	20074.77
482.67	19999.88
482.85	20020.94
483.03	20142.65
483.21	20418.83
483.39	20439.90
483.57	20423.51
483.74	20100.52
483.92	20163.72
484.10	20482.03
484.28	20889.28
484.46	20975.88
484.64	20568.63
484.82	20556.93
485.00	20411.81
485.18	19679.22
485.35	18696.20
485.53	16879.94
485.71	15679.25
485.89	16446.94
486.07	17214.64
486.25	18897.49
486.43	19421.77
486.61	19147.92
486.78	18902.17
486.96	20025.62
487.14	20680.97
487.32	21195.89
487.50	21696.77
487.68	21256.75
487.85	22651.70
488.03	22244.45
488.21	21722.51
488.39	20947.79
488.57	21453.35
488.75	21120.99
488.92	22263.18
489.10	24313.48
489.28	24577.97
489.46	25085.86
489.64	25097.56
489.81	25130.33
489.99	24159.01
490.17	24940.75
490.35	25127.99
490.53	24154.33
490.70	23995.17
490.88	24079.43
491.06	25032.03
491.24	24903.30
491.41	23515.36
491.59	22757.03
491.77	22300.62
491.95	23091.73
492.13	23770.48
492.30	24643.50
492.48	26103.99
492.66	26111.02
492.84	25750.57
493.01	25876.96
493.19	24776.91
493.37	23939.00
493.54	24430.51
493.72	25390.13
493.90	26178.89
494.08	26309.96
494.25	27161.92
494.43	27721.30
494.61	28091.11
494.79	27938.97
494.96	27351.50
495.14	26567.42
495.32	25614.82
495.49	25799.73
495.67	26054.84
495.85	28119.20
496.02	28105.15
496.20	28109.83
496.38	27536.40
496.55	27332.78
496.73	27828.97
496.91	27381.93
497.09	27976.42
497.26	28109.83
497.44	28371.97
497.62	27779.82
497.79	27447.46
497.97	26157.83
498.14	26008.03
498.32	27255.54
498.50	27545.76
498.67	28779.23
498.85	27789.18
499.03	27063.61
499.20	28091.11
499.38	27529.38
499.56	26904.46
499.73	27056.59
499.91	26654.02
500.08	26038.46
500.26	25900.37
500.44	26787.43
500.61	27346.82
500.79	26551.04
500.97	26214.00
501.14	26714.87
501.32	25895.69
501.49	26136.76
501.67	26441.03
501.84	27669.81
502.02	27206.39
502.20	27297.67
502.37	28161.33
502.55	28182.39
502.72	28053.66
502.90	29134.99
503.07	28079.41
503.25	27946.00
503.43	27138.51
503.60	26031.44
503.78	25729.51
503.95	26684.45
504.13	27466.19
504.30	28442.19
504.48	28893.91
504.65	28283.03
504.83	28229.20
505.01	28266.65
505.18	28524.11
505.36	29663.95
505.53	29593.73
505.71	30038.44
505.88	29600.76
506.06	29717.78
506.23	28666.88
506.41	28573.26
506.58	28540.49
506.76	28175.37
506.93	28533.47
507.11	27227.45
507.28	27894.50
507.46	27487.25
507.63	27871.10
507.81	26960.63
507.98	27037.87
508.16	27997.49
508.33	28481.98
508.50	28105.15
508.68	28982.85
508.85	29633.52
509.03	29507.13
509.20	28823.70
509.38	28048.98
509.55	27709.60
509.73	28245.58
509.90	29202.86
510.08	27669.81
510.25	27896.85
510.42	28025.57
510.60	28226.86
510.77	29193.50
510.95	29677.99
511.12	28940.72
511.30	29308.19
511.47	30199.93
511.64	29605.44
511.82	29263.72
511.99	28814.34
512.17	28109.83
512.34	28507.72
512.51	28044.30
512.69	27999.83
512.86	28606.03
513.04	28936.04
513.21	28554.54
513.38	28650.50
513.56	27538.74
513.73	27218.09
513.90	26281.88
514.08	27393.63
514.25	27466.19
514.43	28283.03
514.60	28041.96
514.77	28325.16
514.95	28261.97
515.12	27976.42
515.29	28636.45
515.47	28849.44
515.64	28254.95
515.81	28631.77
515.99	27969.40
516.16	26010.37
516.33	24070.07
516.51	22827.24
516.68	22244.45
516.85	21495.48
517.03	22733.62
517.20	24709.04
517.37	26749.98
517.54	27112.77
517.72	25661.63
517.89	24142.63
518.06	23250.88
518.24	24261.99
518.41	25448.64
518.58	26333.37
518.75	26569.76
518.93	26473.80
519.10	26644.66
519.27	27094.04
519.45	27395.97
519.62	28074.73
519.79	28198.77
519.96	28226.86
520.14	27508.32
520.31	26874.03
520.48	26689.13
520.65	27363.20
520.83	28053.66
521.00	27641.73
521.17	27302.35
521.34	27122.13
521.52	27510.66
521.69	28355.59
521.86	28591.98
522.03	27840.67
522.20	26434.01
522.38	25984.63
522.55	26244.43
522.72	26602.53
522.89	26312.30
523.07	26761.69
523.24	27623.00
523.41	27927.27
523.58	28180.05
523.75	27683.86
523.92	28980.51
524.10	28486.66
524.27	28540.49
524.44	28489.00
524.61	29083.50
524.78	29127.97
524.96	28079.41
525.13	28437.51
525.30	29240.31
525.47	29137.33
525.64	28510.07
525.81	27077.66
525.98	25813.77
526.16	24006.87
526.33	24556.90
526.50	24418.81
526.67	24348.59
526.84	24430.51
527.01	25493.12
527.18	26410.60
527.36	26967.65
527.53	28299.42
527.70	27578.53
527.87	26263.15
528.04	26359.11
528.21	27339.80
528.38	27999.83
528.55	28819.02
528.72	28671.56
528.89	28924.34
529.07	29032.00
529.24	27084.68
529.41	27695.56
529.58	26953.61
529.75	26836.58
529.92	27363.20
530.09	27367.88
530.26	27634.71
530.43	26794.45
530.60	28095.79
530.77	28568.58
530.94	29186.48
531.11	27964.72
531.28	27843.01
531.46	27817.27
531.63	28163.67
531.80	28341.55
531.97	27309.37
532.14	25956.54
532.31	25003.94
532.48	24084.11
532.65	24500.73
532.82	25748.23
532.99	26443.37
533.16	27810.25
533.33	28762.84
533.50	27253.20
533.67	26719.56
533.84	26852.97
534.01	26682.11
534.18	27220.43
534.35	26274.85
534.52	26604.87
534.69	27058.93
534.86	26909.14
535.03	27805.56
535.20	27697.90
535.37	28212.82
535.54	28374.31
535.71	27639.39
535.88	27255.54
536.05	26338.05
536.22	26335.71
536.38	25841.85
536.55	26237.41
536.72	26209.32
536.89	26038.46
537.06	26824.88
537.23	27065.96
537.40	26909.14
537.57	27103.40
537.74	26272.51
537.91	26106.34
538.08	27419.38
538.25	27138.51
538.42	26263.15
538.59	26939.57
538.75	26452.73
538.92	26441.03
539.09	25509.50
539.26	25053.09
539.43	24683.29
539.60	24608.39
539.77	24868.19
539.94	24187.10
540.11	23833.68
540.28	23381.95
540.44	24236.25
540.61	24400.08
540.78	24512.43
540.95	25572.69
541.12	25048.41
541.29	26155.49
541.46	25692.06
541.62	25617.16
541.79	25130.33
541.96	24765.21
542.13	25656.95
542.30	25771.64
542.47	25727.17
542.63	25163.10
542.80	24437.53
542.97	24425.83
543.14	24414.13
543.31	24786.27
543.48	25781.00
543.64	26457.42
543.81	26724.24
543.98	25502.48
544.15	25647.59
544.32	24528.81
544.48	25422.90
544.65	24575.62
544.82	25359.70
544.99	25404.17
545.16	25132.67
545.32	25844.20
545.49	25979.95
545.66	25972.92
545.83	25647.59
546.00	25301.19
546.16	24758.19
546.33	24893.94
546.50	25078.84
546.67	25252.04
546.83	25090.54
547.00	25088.20
547.17	24554.56
547.34	24613.07
547.50	24126.24
547.67	24730.10
547.84	24580.31
548.00	24805.00
548.17	24547.54
548.34	24159.01
548.51	24346.25
548.67	25380.77
548.84	25132.67
549.01	25706.10
549.18	25184.16
549.34	25614.82
549.51	25198.21
549.68	25191.19
549.84	24816.70
550.01	24617.75
550.18	23990.49
550.34	24334.55
550.51	23917.93
550.68	23655.79
550.84	23365.57
551.01	23335.14
551.18	22689.15
551.34	23168.96
551.51	23850.06
551.68	24936.07
551.84	24081.77
552.01	24140.29
552.18	23651.11
552.34	23744.73
552.51	23700.26
552.68	24444.56
552.84	23749.42
553.01	23487.28
553.18	24456.26
553.34	24402.43
553.51	23931.98
553.67	24051.34
553.84	24760.53
554.01	25088.20
554.17	23557.49
554.34	23875.80
554.51	24706.70
554.67	24587.33
554.84	23688.56
555.00	23393.65
555.17	23927.30
555.33	23564.51
555.50	24650.52
555.67	24114.54
555.83	24367.32
556.00	23810.27
556.16	23470.89
556.33	23630.05
556.50	23358.55
556.66	22642.34
556.83	22040.82
556.99	22810.86
557.16	23271.95
557.32	23541.11
557.49	22874.06
557.65	23037.89
557.82	21984.65
557.98	22668.09
558.15	23227.48
558.32	22279.56
558.48	21406.54
558.65	21443.99
558.81	21617.19
558.98	21837.20
559.14	22188.28
559.31	22494.89
559.47	21703.79
559.64	21369.09
559.80	22621.28
559.97	22256.15
560.13	22630.64
560.30	22717.24
560.46	22721.92
560.63	23047.26
560.79	23531.75
560.96	22576.81
561.12	22047.85
561.29	22249.13
561.45	21394.84
561.61	21390.16
561.78	21795.07
561.94	21701.45
562.11	21591.44
562.27	22047.85
562.44	22494.89
562.60	22525.32
562.77	22752.35
562.93	22017.42
563.10	22008.06
563.26	21905.07
563.42	21593.78
563.59	21158.44
563.75	21914.44
563.92	21860.60
564.08	21394.84
564.24	21900.39
564.41	20669.27
564.57	21284.83
564.74	20798.00
564.90	20814.38
565.07	20795.66
565.23	20320.53
565.39	20032.65
565.56	21191.21
565.72	20676.29
565.88	21366.75
566.05	20851.83
566.21	20915.03
566.38	20435.22
566.54	20680.97
566.70	20570.97
566.87	20788.64
567.03	21720.17
567.19	22258.49
567.36	20732.47
567.52	21193.55
567.68	20989.92
567.85	20713.74
568.01	20910.35
568.17	19847.74
568.34	19442.83
568.50	19669.86
568.66	19683.91
568.83	20121.59
568.99	20753.53
569.15	20514.80
569.32	20585.01
569.48	20627.14
569.64	19545.81
569.81	19103.45
569.97	19807.95
570.13	19889.87
570.30	19344.53
570.46	19215.80
570.62	18410.65
570.78	17752.96
570.95	18230.43
571.11	18960.68
571.27	18733.65
571.43	19286.01
571.60	19634.75
571.76	19847.74
571.92	20154.35
572.09	20189.46
572.25	20016.26
572.41	20486.71
572.57	20357.98
572.74	19779.87
572.90	19908.60
573.06	19751.78
573.22	19213.46
573.38	19332.82
573.55	19140.90
573.71	19372.61
573.87	19522.41
574.03	19747.10
574.20	19587.94
574.36	19494.32
574.52	19405.38
574.68	19119.84
574.84	18796.84
575.01	18977.06
575.17	19253.25
575.33	18960.68
575.49	18719.60
575.65	18972.38
575.82	18668.11
575.98	18686.84
576.14	18759.39
576.30	18801.52
576.46	18118.09
576.62	18530.02
576.79	18492.57
576.95	18143.83
577.11	17940.21
577.27	18242.14
577.43	18195.32
577.59	18356.82
577.75	18483.21
577.92	17867.65
578.08	17741.26
578.24	17619.55
578.40	18061.91
578.56	17759.98
578.72	17933.18
578.88	18593.22
579.04	18066.60
579.21	17748.28
579.37	18527.68
579.53	17895.74
579.69	17865.31
579.85	17530.61
580.01	17628.92
580.17	17664.02
580.33	17647.64
580.49	17813.82
580.65	17895.74
580.82	18045.53
580.98	17926.16
581.14	18033.83
581.30	18534.70
581.46	18160.22
581.62	18263.20
581.78	18150.85
581.94	18361.50
582.10	18225.75
582.26	17928.50
582.42	17937.87
582.58	18579.17
582.74	18466.83
582.90	17771.69
583.06	18459.81
583.22	18143.83
583.38	18164.90
583.54	18520.66
583.70	18209.37
583.86	18052.55
584.02	18207.03
584.18	17937.87
584.34	18354.48
584.50	18710.24
584.66	18513.64
584.82	17991.70
584.98	17909.78
585.14	17310.60
585.30	16863.56
585.46	16741.85
585.62	16652.91
585.78	17212.30
585.94	17022.72
586.10	17483.80
586.26	17348.05
586.42	17209.96
586.58	17036.76
586.74	16648.23
586.90	16966.54
