SpectraSuite Data File
++++++++++++++++++++++++++++++++++++
Date: Mon Oct 07 14:54:54 GMT-05:00 2013
User: price-jones
Dark Spectrum Present: No
Reference Spectrum Present: No
Number of Sampled Component Spectra: 1
Spectrometers: USB2+H05261
Integration Time (usec): 10000 (USB2+H05261)
Spectra Averaged: 1 (USB2+H05261)
Boxcar Smoothing: 0 (USB2+H05261)
Correct for Electrical Dark: No (USB2+H05261)
Strobe/Lamp Enabled: No (USB2+H05261)
Correct for Detector Non-linearity: No (USB2+H05261)
Correct for Stray Light: No (USB2+H05261)
Number of Pixels in Processed Spectrum: 2048
>>>>>Begin Processed Spectral Data<<<<<
365.73	0.00
365.92	0.00
366.12	0.00
366.32	0.00
366.52	0.00
366.72	0.00
366.91	0.00
367.11	0.00
367.31	0.00
367.51	0.00
367.70	0.00
367.90	0.00
368.10	0.00
368.30	0.00
368.49	0.00
368.69	0.00
368.89	0.00
369.09	0.00
369.28	0.00
369.48	0.00
369.68	0.00
369.87	0.00
370.07	0.00
370.27	0.00
370.47	0.00
370.66	0.00
370.86	0.00
371.06	0.00
371.25	0.00
371.45	0.00
371.65	0.00
371.84	0.00
372.04	0.00
372.24	0.00
372.44	0.00
372.63	14.04
372.83	2.34
373.03	0.00
373.22	18.72
373.42	0.00
373.62	25.75
373.81	7.02
374.01	51.49
374.21	28.09
374.40	0.00
374.60	32.77
374.79	49.15
374.99	63.19
375.19	72.56
375.38	95.96
375.58	84.26
375.78	100.64
375.97	74.90
376.17	98.30
376.37	159.16
376.56	131.07
376.76	180.22
376.95	241.08
377.15	177.88
377.35	163.84
377.54	229.37
377.74	212.99
377.93	241.08
378.13	262.14
378.33	147.45
378.52	86.60
378.72	163.84
378.91	149.79
379.11	145.11
379.31	81.92
379.50	93.62
379.70	102.98
379.89	124.05
380.09	142.77
380.28	238.73
380.48	170.86
380.68	126.39
380.87	126.39
381.07	119.37
381.26	126.39
381.46	28.09
381.65	0.00
381.85	70.22
382.04	79.58
382.24	51.49
382.43	0.00
382.63	53.83
382.83	11.70
383.02	23.41
383.22	0.00
383.41	51.49
383.61	0.00
383.80	74.90
384.00	124.05
384.19	177.88
384.39	257.46
384.58	229.37
384.78	138.09
384.97	156.82
385.17	163.84
385.36	154.48
385.56	133.41
385.75	77.24
385.95	166.18
386.14	74.90
386.34	112.35
386.53	51.49
386.72	133.41
386.92	147.45
387.11	205.97
387.31	236.39
387.50	191.92
387.70	245.76
387.89	227.03
388.09	273.84
388.28	177.88
388.48	77.24
388.67	187.24
388.86	234.05
389.06	283.20
389.25	322.99
389.45	308.95
389.64	367.46
389.84	318.31
390.03	334.70
390.22	290.23
390.42	229.37
390.61	365.12
390.81	454.06
391.00	362.78
391.19	367.46
391.39	322.99
391.58	332.36
391.78	294.91
391.97	388.53
392.16	238.73
392.36	131.07
392.55	135.75
392.75	14.04
392.94	0.00
393.13	0.00
393.33	4.68
393.52	9.36
393.71	110.01
393.91	313.63
394.10	271.50
394.29	367.46
394.49	393.21
394.68	440.02
394.88	442.36
395.07	484.49
395.26	430.66
395.46	421.30
395.65	437.68
395.84	259.80
396.04	243.42
396.23	189.58
396.42	44.47
396.62	51.49
396.81	126.39
397.00	224.69
397.19	337.04
397.39	404.91
397.58	486.83
397.77	533.64
397.97	594.50
398.16	683.44
398.35	669.39
398.55	674.07
398.74	772.38
398.93	685.78
399.12	655.35
399.32	601.52
399.51	648.33
399.70	791.10
399.90	690.46
400.09	674.07
400.28	746.63
400.47	828.55
400.67	861.32
400.86	809.83
401.05	800.46
401.24	868.34
401.44	905.79
401.63	816.85
401.82	746.63
402.01	772.38
402.21	744.29
402.40	741.95
402.59	767.70
402.78	849.61
402.97	770.04
403.17	760.67
403.36	844.93
403.55	868.34
403.74	784.08
403.93	802.80
404.13	814.51
404.32	753.65
404.51	868.34
404.70	835.57
404.89	842.59
405.09	830.89
405.28	793.44
405.47	875.36
405.66	842.59
405.85	746.63
406.05	688.12
406.24	716.20
406.43	683.44
406.62	936.21
406.81	770.04
407.00	823.87
407.20	777.06
407.39	833.23
407.58	903.45
407.77	926.85
407.96	884.72
408.15	816.85
408.34	968.98
408.54	1006.43
408.73	1076.65
408.92	964.30
409.11	980.68
409.30	870.68
409.49	842.59
409.68	760.67
409.87	739.61
410.07	765.36
410.26	851.96
410.45	933.87
410.64	1055.58
410.83	849.61
411.02	1027.50
411.21	1053.24
411.40	1001.75
411.59	1025.15
411.78	1053.24
411.98	973.66
412.17	971.32
412.36	1013.45
412.55	994.73
412.74	992.39
412.93	903.45
413.12	924.51
413.31	1121.12
413.50	1074.31
413.69	1104.73
413.88	997.07
414.07	1055.58
414.26	1050.90
414.45	1043.88
414.64	1036.86
414.83	1149.20
415.02	1095.37
415.22	1123.46
415.41	1055.58
415.60	1088.35
415.79	1219.42
415.98	1299.00
416.17	1301.34
416.36	1273.25
416.55	1177.29
416.74	1125.80
416.93	1008.77
417.12	1128.14
417.31	1020.47
417.50	1055.58
417.69	1184.31
417.88	1130.48
418.07	1107.07
418.26	1130.48
418.45	1226.44
418.64	1200.69
418.83	1238.14
419.02	1320.06
419.21	1196.01
419.39	1114.10
419.58	1104.73
419.77	1149.20
419.96	1111.75
420.15	1221.76
420.34	1299.00
420.53	1256.87
420.72	1270.91
420.91	1212.40
421.10	1212.40
421.29	1263.89
421.48	1121.12
421.67	1210.06
421.86	1334.11
422.05	1071.97
422.24	1018.13
422.43	1013.45
422.61	1100.05
422.80	1214.74
422.99	1177.29
423.18	1205.38
423.37	1205.38
423.56	1158.57
423.75	1167.93
423.94	1221.76
424.13	1240.48
424.32	1064.94
424.50	1135.16
424.69	1114.10
424.88	1109.41
425.07	1083.67
425.26	1055.58
425.45	1118.78
425.64	1200.69
425.83	1078.99
426.01	1078.99
426.20	1118.78
426.39	1226.44
426.58	1095.37
426.77	1018.13
426.96	908.13
427.15	912.81
427.33	1032.18
427.52	1231.12
427.71	1093.03
427.90	1142.18
428.09	1146.86
428.28	1039.20
428.46	983.02
428.65	1018.13
428.84	1025.15
429.03	1055.58
429.22	999.41
429.40	1032.18
429.59	858.98
429.78	755.99
429.97	720.88
430.16	774.72
430.34	627.26
430.53	737.27
430.72	770.04
430.91	873.02
431.10	1004.09
431.28	1214.74
431.47	1397.30
431.66	1434.75
431.85	1275.59
432.03	1104.73
432.22	1146.86
432.41	1069.62
432.60	1345.81
432.79	1287.29
432.97	1446.45
433.16	1394.96
433.35	1163.25
433.54	1067.28
433.72	980.68
433.91	968.98
434.10	1125.80
434.28	1233.46
434.47	1301.34
434.66	1247.51
434.85	1226.44
435.03	1207.72
435.22	1233.46
435.41	1371.55
435.59	1355.17
435.78	1392.62
435.97	1348.15
436.16	1366.87
436.34	1418.36
436.53	1413.68
436.72	1399.64
436.90	1231.12
437.09	1383.26
437.28	1188.99
437.46	1387.94
437.65	1364.53
437.84	1245.16
438.02	1156.22
438.21	1097.71
438.40	1198.35
438.58	1280.27
438.77	1413.68
438.96	1289.64
439.14	1341.13
439.33	1350.49
439.52	1418.36
439.70	1497.94
439.89	1434.75
440.08	1376.24
440.26	1343.47
440.45	1362.19
440.63	1455.81
440.82	1626.67
441.01	1652.42
441.19	1490.92
441.38	1549.43
441.57	1570.50
441.75	1640.72
441.94	1696.89
442.12	1633.69
442.31	1650.08
442.50	1736.68
442.68	1629.01
442.87	1729.66
443.05	1502.62
443.24	1659.44
443.43	1636.03
443.61	1753.06
443.80	1783.49
443.98	1547.09
444.17	1619.65
444.35	1540.07
444.54	1736.68
444.73	1739.02
444.91	1600.93
445.10	1610.29
445.28	1537.73
445.47	1516.67
445.65	1345.81
445.84	1598.59
446.02	1619.65
446.21	1664.12
446.39	1570.50
446.58	1657.10
446.77	1626.67
446.95	1603.27
447.14	1717.95
447.32	1797.53
447.51	1619.65
447.69	1673.48
447.88	1603.27
448.06	1638.38
448.25	1743.70
448.43	1689.87
448.62	1703.91
448.80	1556.46
448.99	1647.74
449.17	1678.16
449.36	1701.57
449.54	1813.92
449.73	1764.76
449.91	1877.11
450.10	1853.70
450.28	1942.64
450.46	1989.46
450.65	1956.69
450.83	1907.54
451.02	1928.60
451.20	1811.57
451.39	1774.13
451.57	1804.55
451.76	1692.21
451.94	1823.28
452.13	1689.87
452.31	1706.25
452.49	1514.33
452.68	1561.14
452.86	1542.41
453.05	1621.99
453.23	1633.69
453.42	1750.72
453.60	1703.91
453.78	1699.23
453.97	1724.97
454.15	1795.19
454.34	1610.29
454.52	1659.44
454.70	1710.93
454.89	1589.22
455.07	1633.69
455.26	1708.59
455.44	1788.17
455.62	1849.02
455.81	1930.94
455.99	1781.15
456.17	1795.19
456.36	1741.36
456.54	1919.24
456.73	1832.64
456.91	1909.88
457.09	1792.85
457.28	1856.04
457.46	1816.26
457.64	1799.87
457.83	1762.42
458.01	1631.35
458.19	1720.29
458.38	1802.21
458.56	1881.79
458.74	1771.79
458.93	1757.74
459.11	1720.29
459.29	1842.00
459.48	1865.41
459.66	1769.44
459.84	1851.36
460.03	1830.30
460.21	1844.34
460.39	1802.21
460.57	1994.14
460.76	1902.86
460.94	1949.67
461.12	1879.45
461.31	1949.67
461.49	1809.23
461.67	1935.62
461.85	1928.60
462.04	1959.03
462.22	1881.79
462.40	1947.33
462.59	1853.70
462.77	1804.55
462.95	1970.73
463.13	1872.43
463.32	1872.43
463.50	1912.22
463.68	1996.48
463.86	1942.64
464.05	1842.00
464.23	1727.32
464.41	1778.81
464.59	1724.97
464.78	1818.60
464.96	1966.05
465.14	1834.98
465.32	1825.62
465.50	1891.15
465.69	1933.28
465.87	1788.17
466.05	1846.68
466.23	1713.27
466.41	1781.15
466.60	1764.76
466.78	1851.36
466.96	1722.63
467.14	1799.87
467.32	1926.26
467.51	1912.22
467.69	1717.95
467.87	1830.30
468.05	1846.68
468.23	1820.94
468.41	1858.39
468.60	1839.66
468.78	1898.17
468.96	1781.15
469.14	1914.56
469.32	1788.17
469.50	1820.94
469.69	1715.61
469.87	1724.97
470.05	1739.02
470.23	1790.51
470.41	1825.62
470.59	1923.92
470.77	1813.92
470.95	1813.92
471.14	1834.98
471.32	1874.77
471.50	1937.96
471.68	2057.33
471.86	2010.52
472.04	2064.35
472.22	1947.33
472.40	1923.92
472.58	1858.39
472.77	1916.90
472.95	1914.56
473.13	1916.90
473.31	1888.81
473.49	1881.79
473.67	1849.02
473.85	2022.22
474.03	1996.48
474.21	2001.16
474.39	2111.16
474.57	2111.16
474.75	2029.24
474.93	2066.69
475.12	2001.16
475.30	1956.69
475.48	2090.10
475.66	2129.89
475.84	1884.13
476.02	1891.15
476.20	1994.14
476.38	2038.61
476.56	2064.35
476.74	2179.04
476.92	2003.50
477.10	2242.23
477.28	2235.21
477.46	2253.94
477.64	2284.36
477.82	2195.42
478.00	2235.21
478.18	2307.77
478.36	2113.50
478.54	2169.68
478.72	2204.78
478.90	2242.23
479.08	2230.53
479.26	2354.58
479.44	2286.70
479.62	2382.67
479.80	2282.02
479.98	2352.24
480.16	2352.24
480.34	2326.49
480.52	2296.07
480.70	2345.22
480.88	2338.20
481.06	2392.03
481.24	2394.37
481.41	2562.89
481.59	2518.42
481.77	2450.54
481.95	2487.99
482.13	2502.03
482.31	2443.52
482.49	2635.44
482.67	2473.95
482.85	2541.82
483.03	2551.18
483.21	2595.65
483.39	2703.32
483.57	2527.78
483.74	2492.67
483.92	2597.99
484.10	2565.23
484.28	2588.63
484.46	2752.47
484.64	2642.46
484.82	2600.34
485.00	2555.86
485.18	2541.82
485.35	2340.54
485.53	2104.14
485.71	1994.14
485.89	1944.99
486.07	1970.73
486.25	2305.43
486.43	2443.52
486.61	2466.92
486.78	2487.99
486.96	2532.46
487.14	2572.25
487.32	2689.28
487.50	2771.19
487.68	2717.36
487.85	2818.00
488.03	2930.35
488.21	2822.69
488.39	2869.50
488.57	2693.96
488.75	2672.89
488.92	2803.96
489.10	2979.50
489.28	3061.42
489.46	3047.38
489.64	3103.55
489.81	3105.89
489.99	3187.81
490.17	3148.02
490.35	3290.79
490.53	3119.93
490.70	3005.25
490.88	3119.93
491.06	3115.25
491.24	3180.79
491.41	3112.91
491.59	2958.44
491.77	2700.98
491.95	2878.86
492.13	2977.16
492.30	3077.80
492.48	3351.65
492.66	3283.77
492.84	3330.58
493.01	3178.45
493.19	3201.85
493.37	3208.87
493.54	3159.72
493.72	3063.76
493.90	3365.69
494.08	3407.82
494.25	3419.52
494.43	3531.87
494.61	3499.10
494.79	3543.57
494.96	3396.12
495.14	3447.61
495.32	3185.47
495.49	3321.22
495.67	3255.69
495.85	3501.44
496.02	3531.87
496.20	3559.95
496.38	3627.83
496.55	3435.91
496.73	3583.36
496.91	3559.95
497.09	3686.34
497.26	3730.81
497.44	3597.40
497.62	3545.91
497.79	3466.33
497.97	3300.16
498.14	3171.43
498.32	3471.01
498.50	3459.31
498.67	3517.83
498.85	3630.17
499.03	3588.04
499.20	3604.42
499.38	3609.11
499.56	3676.98
499.73	3510.80
499.91	3618.47
500.08	3445.27
500.26	3302.50
500.44	3346.97
500.61	3461.65
500.79	3475.70
500.97	3438.25
501.14	3311.86
501.32	3346.97
501.49	3325.90
501.67	3370.37
501.84	3468.67
502.02	3571.66
502.20	3576.34
502.37	3665.28
502.55	3557.61
502.72	3536.55
502.90	3693.37
503.07	3604.42
503.25	3503.78
503.43	3445.27
503.60	3503.78
503.78	3440.59
503.95	3269.73
504.13	3440.59
504.30	3702.73
504.48	3712.09
504.65	3552.93
504.83	3583.36
505.01	3501.44
505.18	3709.75
505.36	3932.10
505.53	3784.65
505.71	4016.36
505.88	3840.82
506.06	3824.44
506.23	3662.94
506.41	3702.73
506.58	3662.94
506.76	3660.60
506.93	3634.85
507.11	3562.30
507.28	3653.58
507.46	3641.87
507.63	3581.02
507.81	3510.80
507.98	3632.51
508.16	3604.42
508.33	3578.68
508.50	3686.34
508.68	3845.50
508.85	3999.98
509.03	3904.01
509.20	3721.45
509.38	3548.25
509.55	3527.19
509.73	3758.90
509.90	3723.79
510.08	3782.31
510.25	3693.37
510.42	3693.37
510.60	3627.83
510.77	3627.83
510.95	3885.29
511.12	3847.84
511.30	3754.22
511.47	3922.74
511.64	4030.40
511.82	3702.73
511.99	3772.94
512.17	3733.15
512.34	3672.30
512.51	3672.30
512.69	3740.18
512.86	3684.00
513.04	3723.79
513.21	3796.35
513.38	3590.38
513.56	3660.60
513.73	3592.72
513.90	3578.68
514.08	3625.49
514.25	3599.74
514.43	3777.62
514.60	3662.94
514.77	3721.45
514.95	3566.98
515.12	3763.58
515.29	3726.13
515.47	3786.99
515.64	3819.75
515.81	3777.62
515.99	3747.20
516.16	3442.93
516.33	3162.06
516.51	3014.61
516.68	2895.24
516.85	2843.75
517.03	2923.33
517.20	3199.51
517.37	3609.11
517.54	3730.81
517.72	3637.19
517.89	3222.92
518.06	2960.78
518.24	3059.08
518.41	3281.43
518.58	3548.25
518.75	3602.08
518.93	3410.16
519.10	3541.23
519.27	3550.59
519.45	3611.45
519.62	3583.36
519.79	3740.18
519.96	3679.32
520.14	3578.68
520.31	3578.68
520.48	3529.53
520.65	3496.76
520.83	3513.14
521.00	3756.56
521.17	3700.39
521.34	3686.34
521.52	3543.57
521.69	3791.67
521.86	3819.75
522.03	3684.00
522.20	3623.15
522.38	3499.10
522.55	3468.67
522.72	3531.87
522.89	3566.98
523.07	3438.25
523.24	3660.60
523.41	3545.91
523.58	3829.12
523.75	3892.31
523.92	3789.33
524.10	3922.74
524.27	3829.12
524.44	3826.78
524.61	3749.54
524.78	3763.58
524.96	3735.50
525.13	3639.53
525.30	3789.33
525.47	3735.50
525.64	3803.37
525.81	3646.55
525.98	3569.32
526.16	3276.75
526.33	3187.81
526.50	3190.15
526.67	3180.79
526.84	3213.56
527.01	3363.35
527.18	3503.78
527.36	3513.14
527.53	3777.62
527.70	3660.60
527.87	3669.96
528.04	3639.53
528.21	3669.96
528.38	3789.33
528.55	3871.25
528.72	3861.88
528.89	3887.63
529.07	3875.93
529.24	3751.88
529.41	3707.41
529.58	3660.60
529.75	3489.74
529.92	3674.64
530.09	3674.64
530.26	3772.94
530.43	3775.28
530.60	3873.59
530.77	3801.03
530.94	3929.76
531.11	3981.25
531.28	3707.41
531.46	3606.77
531.63	3803.37
531.80	3709.75
531.97	3840.82
532.14	3492.08
532.31	3435.91
532.48	3311.86
532.65	3248.66
532.82	3321.22
532.99	3613.79
533.16	3597.40
533.33	3662.94
533.50	3531.87
533.67	3531.87
533.84	3515.48
534.01	3574.00
534.18	3702.73
534.35	3686.34
534.52	3571.66
534.69	3578.68
534.86	3679.32
535.03	3691.02
535.20	3702.73
535.37	3740.18
535.54	3798.69
535.71	3847.84
535.88	3801.03
536.05	3574.00
536.22	3576.34
536.38	3485.06
536.55	3438.25
536.72	3440.59
536.89	3468.67
537.06	3555.27
537.23	3740.18
537.40	3625.49
537.57	3681.66
537.74	3637.19
537.91	3548.25
538.08	3449.95
538.25	3557.61
538.42	3695.71
538.59	3534.21
538.75	3597.40
538.92	3510.80
539.09	3428.88
539.26	3485.06
539.43	3487.40
539.60	3368.03
539.77	3492.08
539.94	3496.76
540.11	3358.67
540.28	3262.71
540.44	3239.30
540.61	3461.65
540.78	3309.52
540.95	3339.94
541.12	3508.46
541.29	3569.32
541.46	3571.66
541.62	3461.65
541.79	3597.40
541.96	3342.28
542.13	3433.57
542.30	3456.97
542.47	3513.14
542.63	3510.80
542.80	3440.59
542.97	3435.91
543.14	3419.52
543.31	3480.38
543.48	3400.80
543.64	3597.40
543.81	3585.70
543.98	3667.62
544.15	3487.40
544.32	3456.97
544.48	3482.72
544.65	3510.80
544.82	3510.80
544.99	3522.51
545.16	3449.95
545.32	3424.20
545.49	3508.46
545.66	3676.98
545.83	3550.59
546.00	3531.87
546.16	3375.05
546.33	3503.78
546.50	3351.65
546.67	3496.76
546.83	3372.71
547.00	3447.61
547.17	3302.50
547.34	3272.07
547.50	3449.95
547.67	3389.10
547.84	3461.65
548.00	3346.97
548.17	3548.25
548.34	3536.55
548.51	3478.04
548.67	3456.97
548.84	3496.76
549.01	3449.95
549.18	3510.80
549.34	3463.99
549.51	3372.71
549.68	3370.37
549.84	3185.47
550.01	3328.24
550.18	3447.61
550.34	3286.11
550.51	3356.33
550.68	3330.58
550.84	3309.52
551.01	3349.31
551.18	3337.60
551.34	3342.28
551.51	3365.69
551.68	3403.14
551.84	3480.38
552.01	3386.76
552.18	3480.38
552.34	3356.33
552.51	3192.49
552.68	3318.88
552.84	3206.53
553.01	3255.69
553.18	3239.30
553.34	3300.16
553.51	3353.99
553.67	3372.71
553.84	3276.75
554.01	3330.58
554.17	3302.50
554.34	3318.88
554.51	3316.54
554.67	3288.45
554.84	3435.91
555.00	3218.24
555.17	3281.43
555.33	3325.90
555.50	3241.64
555.67	3365.69
555.83	3351.65
556.00	3290.79
556.16	3190.15
556.33	3281.43
556.50	3164.40
556.66	3288.45
556.83	3129.30
556.99	3012.27
557.16	3129.30
557.32	3286.11
557.49	3201.85
557.65	3269.73
557.82	3164.40
557.98	3220.58
558.15	3056.74
558.32	2932.69
558.48	2906.95
558.65	2928.01
558.81	2998.23
558.98	2928.01
559.14	2993.55
559.31	3115.25
559.47	3122.27
559.64	2932.69
559.80	2993.55
559.97	3115.25
560.13	3030.99
560.30	3148.02
560.46	3232.28
560.63	3269.73
560.79	3141.00
560.96	3234.62
561.12	3033.33
561.29	2839.07
561.45	2883.54
561.61	2935.03
561.78	2967.80
561.94	3073.12
562.11	2916.31
562.27	3136.32
562.44	3047.38
562.60	3159.72
562.77	3131.64
562.93	3152.70
563.10	3227.60
563.26	3068.44
563.42	3091.85
563.59	3016.95
563.75	2906.95
563.92	2885.88
564.08	3019.29
564.24	2850.77
564.41	3045.04
564.57	3126.96
564.74	3038.02
564.90	3030.99
565.07	3005.25
565.23	2944.39
565.39	2710.34
565.56	2820.35
565.72	2892.90
565.88	2909.29
566.05	2869.50
566.21	2913.97
566.38	2974.82
566.54	2988.86
566.70	2913.97
566.87	3005.25
567.03	3040.36
567.19	2965.46
567.36	2881.20
567.52	3016.95
567.68	3042.70
567.85	2897.58
568.01	2764.17
568.17	2806.30
568.34	2745.45
568.50	2808.64
568.66	2827.37
568.83	2963.12
568.99	2832.05
569.15	2829.71
569.32	2846.09
569.48	2834.39
569.64	2850.77
569.81	2719.70
569.97	2827.37
570.13	2773.53
570.30	2696.30
570.46	2581.61
570.62	2628.42
570.78	2649.49
570.95	2609.70
571.11	2640.12
571.27	2654.17
571.43	2700.98
571.60	2649.49
571.76	2672.89
571.92	2836.73
572.09	3000.57
572.25	2803.96
572.41	2834.39
572.57	2747.79
572.74	2778.22
572.90	2860.13
573.06	2801.62
573.22	2785.24
573.38	2780.56
573.55	2759.49
573.71	2803.96
573.87	2815.66
574.03	2635.44
574.20	2715.02
574.36	2717.36
574.52	2684.59
574.68	2623.74
574.84	2623.74
575.01	2469.27
575.17	2665.87
575.33	2675.23
575.49	2703.32
575.65	2565.23
575.82	2464.58
575.98	2513.74
576.14	2560.55
576.30	2668.21
576.46	2693.96
576.62	2764.17
576.79	2726.72
576.95	2661.19
577.11	2633.10
577.27	2656.51
577.43	2658.85
577.59	2630.76
577.75	2597.99
577.92	2438.84
578.08	2476.29
578.24	2485.65
578.40	2530.12
578.56	2555.86
578.72	2546.50
578.88	2595.65
579.04	2635.44
579.21	2455.22
579.37	2483.31
579.53	2504.37
579.69	2562.89
579.85	2600.34
580.01	2628.42
580.17	2509.05
580.33	2516.08
580.49	2560.55
580.65	2619.06
580.82	2609.70
580.98	2602.68
581.14	2532.46
581.30	2684.59
581.46	2600.34
581.62	2605.02
581.78	2497.35
581.94	2588.63
582.10	2560.55
582.26	2560.55
582.42	2715.02
582.58	2689.28
582.74	2708.00
582.90	2553.52
583.06	2609.70
583.22	2520.76
583.38	2548.84
583.54	2548.84
583.70	2630.76
583.86	2609.70
584.02	2565.23
584.18	2581.61
584.34	2441.18
584.50	2539.48
584.66	2597.99
584.82	2509.05
584.98	2359.26
585.14	2473.95
585.30	2415.43
585.46	2354.58
585.62	2368.62
585.78	2361.60
585.94	2466.92
586.10	2562.89
586.26	2410.75
586.42	2511.39
586.58	2377.98
586.74	2586.29
586.90	2441.18
587.06	2415.43
587.22	2483.31
587.38	2462.24
587.54	2464.58
587.70	2356.92
587.86	2401.39
588.02	2326.49
588.18	2396.71
588.34	2296.07
588.49	2188.40
588.65	1973.07
588.81	1966.05
588.97	2022.22
589.13	1914.56
589.29	1984.77
589.45	1935.62
589.61	2080.74
589.77	2193.08
589.93	2258.62
590.08	2345.22
590.24	2291.38
590.40	2338.20
590.56	2270.32
590.72	2298.41
590.88	2298.41
591.04	2326.49
591.20	2181.38
591.35	2181.38
591.51	2160.31
591.67	2260.96
591.83	2235.21
591.99	2193.08
592.15	2289.04
592.31	2296.07
592.46	2272.66
592.62	2174.36
592.78	2162.66
592.94	2279.68
593.10	2272.66
593.26	2284.36
593.41	2265.64
593.57	2181.38
593.73	2197.76
593.89	2223.51
594.05	2251.60
594.20	2118.18
594.36	2118.18
594.52	2024.56
594.68	2160.31
594.84	2150.95
594.99	2242.23
595.15	2092.44
595.31	2242.23
595.47	2270.32
595.62	2148.61
595.78	2267.98
595.94	2230.53
596.10	2186.06
596.25	2291.38
596.41	2143.93
596.57	2115.84
596.73	2181.38
596.88	2076.06
597.04	2174.36
597.20	2104.14
597.36	2129.89
597.51	2183.72
597.67	2157.97
597.83	2153.29
597.99	2113.50
598.14	2118.18
598.30	2080.74
598.46	2136.91
598.61	2083.08
598.77	2186.06
598.93	2214.15
599.09	2169.68
599.24	2073.71
599.40	2134.57
599.56	2242.23
599.71	2108.82
