SpectraSuite Data File
++++++++++++++++++++++++++++++++++++
Date: Mon Oct 07 14:52:59 GMT-05:00 2013
User: price-jones
Dark Spectrum Present: No
Reference Spectrum Present: No
Number of Sampled Component Spectra: 1
Spectrometers: USB2+H05261
Integration Time (usec): 100000 (USB2+H05261)
Spectra Averaged: 1 (USB2+H05261)
Boxcar Smoothing: 0 (USB2+H05261)
Correct for Electrical Dark: No (USB2+H05261)
Strobe/Lamp Enabled: No (USB2+H05261)
Correct for Detector Non-linearity: No (USB2+H05261)
Correct for Stray Light: No (USB2+H05261)
Number of Pixels in Processed Spectrum: 2048
>>>>>Begin Processed Spectral Data<<<<<
365.73	0.00
365.92	0.00
366.12	0.00
366.32	0.00
366.52	0.00
366.72	0.00
366.91	0.00
367.11	0.00
367.31	0.00
367.51	0.00
367.70	0.00
367.90	0.00
368.10	0.00
368.30	0.00
368.49	0.00
368.69	0.00
368.89	0.00
369.09	0.00
369.28	0.00
369.48	0.00
369.68	0.00
369.87	0.00
370.07	0.00
370.27	0.00
370.47	526.62
370.66	2843.75
370.86	3356.33
371.06	3747.20
371.25	3817.41
371.45	3349.31
371.65	3122.27
371.84	2906.95
372.04	3009.93
372.24	3323.56
372.44	3456.97
372.63	3358.67
372.83	3124.62
373.03	2939.71
373.22	2614.38
373.42	2686.94
373.62	3176.11
373.81	3391.44
374.01	3492.08
374.21	3096.53
374.40	3009.93
374.60	2960.78
374.79	3424.20
374.99	3936.78
375.19	4208.28
375.38	3967.21
375.58	3915.72
375.78	3922.74
375.97	3953.16
376.17	4086.58
376.37	3969.55
376.56	4306.59
376.76	4421.27
376.95	4880.02
377.15	5088.32
377.35	5338.76
377.54	5404.30
377.74	5661.76
377.93	5472.17
378.13	5481.53
378.33	5172.58
378.52	4713.84
378.72	4622.56
378.91	4533.62
379.11	4243.39
379.31	4318.29
379.50	4156.79
379.70	4638.94
379.89	5167.90
380.09	5308.34
380.28	5509.62
380.48	5490.90
380.68	5460.47
380.87	5191.31
381.07	4952.57
381.26	4524.26
381.46	4149.77
381.65	4039.76
381.85	4021.04
382.04	3831.46
382.24	3506.12
382.43	3410.16
382.63	3211.22
382.83	3379.73
383.02	3316.54
383.22	3323.56
383.41	3431.23
383.61	3733.15
383.80	4138.07
384.00	4711.50
384.19	5233.44
384.39	5434.72
384.58	5472.17
384.78	5341.10
384.97	5462.81
385.17	5085.98
385.36	4709.16
385.56	4533.62
385.75	4833.21
385.95	5188.97
386.14	5685.16
386.34	5724.95
386.53	5434.72
386.72	4985.34
386.92	5254.50
387.11	5369.19
387.31	5607.92
387.50	5380.89
387.70	5268.55
387.89	5266.21
388.09	5418.34
388.28	5423.02
388.48	5451.11
388.67	5820.91
388.86	6382.64
389.06	6970.12
389.25	7466.31
389.45	7351.62
389.64	7215.87
389.84	7138.63
390.03	7033.31
390.22	7087.14
390.42	7442.90
390.61	7840.79
390.81	8273.79
391.00	8655.30
391.19	8400.18
391.39	8198.90
391.58	7555.25
391.78	7419.50
391.97	7033.31
392.16	6483.28
392.36	5870.06
392.55	4732.56
392.75	3908.69
392.94	3098.87
393.13	3068.44
393.33	3747.20
393.52	4744.27
393.71	5713.25
393.91	6469.24
394.10	7063.74
394.29	7573.97
394.49	8358.05
394.68	8849.57
394.88	8943.19
395.07	9397.25
395.26	9011.06
395.46	8798.07
395.65	8390.82
395.84	7351.62
396.04	6136.88
396.23	4961.94
396.42	4105.30
396.62	4053.81
396.81	4910.44
397.00	6099.44
397.19	7585.68
397.39	8854.25
397.58	9839.61
397.77	10721.99
397.97	11124.57
398.16	11154.99
398.35	11580.97
398.55	11964.82
398.74	12278.45
398.93	12809.75
399.12	12643.57
399.32	12046.74
399.51	12423.56
399.70	13305.95
399.90	12947.84
400.09	12922.10
400.28	12727.83
400.47	12943.16
400.67	13820.86
400.86	14127.47
401.05	14214.07
401.24	13980.02
401.44	14438.76
401.63	14438.76
401.82	14483.24
402.01	14267.91
402.21	14544.09
402.40	14473.87
402.59	14097.05
402.78	13392.55
402.97	13308.29
403.17	13879.38
403.36	14160.24
403.55	15248.59
403.74	15204.12
403.93	14427.06
404.13	13490.85
404.32	13179.56
404.51	13774.05
404.70	14857.72
404.89	14867.08
405.09	14677.50
405.28	14380.25
405.47	14267.91
405.66	14202.37
405.85	13783.41
406.05	13525.96
406.24	13781.07
406.43	14499.62
406.62	15040.28
406.81	14949.00
407.00	14455.15
407.20	14073.64
407.39	14256.20
407.58	15075.39
407.77	15169.01
407.96	16020.97
408.15	16027.99
408.34	16360.34
408.54	16800.37
408.73	17214.64
408.92	16779.30
409.11	16362.69
409.30	15192.42
409.49	14523.02
409.68	13600.85
409.87	12989.97
410.07	14171.94
410.26	15171.35
410.45	16051.39
410.64	16273.74
410.83	16940.80
411.02	17193.58
411.21	18160.22
411.40	17757.64
411.59	17912.12
411.78	18003.40
411.98	17657.00
412.17	17891.06
412.36	17762.33
412.55	17507.21
412.74	17085.91
412.93	16725.47
413.12	17109.32
413.31	18625.98
413.50	18588.53
413.69	18967.70
413.88	18265.54
414.07	17806.80
414.26	18071.28
414.45	18527.68
414.64	18696.20
414.83	18890.46
415.02	18408.31
415.22	18354.48
415.41	19009.83
415.60	19243.88
415.79	20257.34
415.98	20638.84
416.17	20741.83
416.36	20217.55
416.55	19901.58
416.74	19234.52
416.93	18586.19
417.12	18651.73
417.31	18724.29
417.50	19087.07
417.69	19840.72
417.88	20044.35
418.07	19475.60
418.26	19051.96
418.45	19030.90
418.64	20379.04
418.83	21053.12
419.02	20638.84
419.21	20152.01
419.39	19318.78
419.58	18347.46
419.77	18593.22
419.96	19484.96
420.15	20664.59
420.34	21408.88
420.53	21907.41
420.72	22078.27
420.91	22127.42
421.10	21916.78
421.29	21783.37
421.48	20879.92
421.67	22024.44
421.86	21481.44
422.05	19719.01
422.24	17710.83
422.43	17778.71
422.61	19550.49
422.80	20945.45
422.99	20889.28
423.18	20599.05
423.37	20102.86
423.56	19775.19
423.75	20641.18
423.94	20685.65
424.13	19594.96
424.32	19700.29
424.50	19889.87
424.69	19618.37
424.88	19854.76
425.07	19639.44
425.26	19599.65
425.45	19365.59
425.64	18668.11
425.83	18972.38
426.01	20493.73
426.20	20908.01
426.39	20608.42
426.58	19075.37
426.77	17525.93
426.96	16809.73
427.15	17855.95
427.33	19115.16
427.52	19889.87
427.71	19999.88
427.90	19880.51
428.09	19470.92
428.28	19487.30
428.46	18757.05
428.65	18185.96
428.84	19037.92
429.03	19190.05
429.22	17989.36
429.40	16973.56
429.59	15515.41
429.78	13933.21
429.97	13610.22
430.16	13926.19
430.34	13870.01
430.53	14083.00
430.72	14469.19
430.91	16107.57
431.10	19159.63
431.28	21928.48
431.47	23517.70
431.66	23812.61
431.85	21858.26
432.03	20137.97
432.22	18995.79
432.41	20013.92
432.60	22223.39
432.79	23063.64
432.97	23665.16
433.16	23056.62
433.35	20929.07
433.54	18904.51
433.72	17846.58
433.91	18361.50
434.10	20472.67
434.28	21825.50
434.47	23297.69
434.66	22724.26
434.85	22293.60
435.03	22003.38
435.22	22738.30
435.41	23786.86
435.59	24030.28
435.78	24472.64
435.97	25139.69
436.16	25340.98
436.34	24442.21
436.53	24095.82
436.72	24079.43
436.90	22911.50
437.09	23084.70
437.28	22801.50
437.46	23201.73
437.65	23517.70
437.84	21507.18
438.02	20044.35
438.21	19962.43
438.40	21025.03
438.58	22583.83
438.77	23349.18
438.96	23941.34
439.14	24582.65
439.33	24994.58
439.52	25441.62
439.70	24987.56
439.89	24304.12
440.08	23669.84
440.26	23693.24
440.45	24856.49
440.63	26405.92
440.82	27346.82
441.01	27239.15
441.19	26635.30
441.38	27323.41
441.57	28086.43
441.75	28673.90
441.94	28936.04
442.12	28549.85
442.31	29291.80
442.50	28835.40
442.68	28811.99
442.87	28662.20
443.05	27903.87
443.24	28641.14
443.43	28929.02
443.61	29399.47
443.80	30029.07
443.98	28362.61
444.17	27835.99
444.35	29771.61
444.54	30520.59
444.73	29888.64
444.91	28613.05
445.10	27367.88
445.28	26548.70
445.47	26230.38
445.65	25963.56
445.84	26548.70
446.02	27922.59
446.21	28425.81
446.39	28498.36
446.58	28898.59
446.77	29376.06
446.95	29427.56
447.14	30394.20
447.32	31040.18
447.51	29883.96
447.69	29495.43
447.88	28987.53
448.06	29022.64
448.25	29785.66
448.43	30029.07
448.62	29160.73
448.80	29570.33
448.99	29291.80
449.17	29848.85
449.36	30160.14
449.54	30855.28
449.73	31091.68
449.91	31901.50
450.10	32694.94
450.28	32730.05
450.46	32385.99
450.65	32470.25
450.83	32847.08
451.02	32198.75
451.20	31824.26
451.39	31634.68
451.57	31452.12
451.76	31873.42
451.94	31098.70
452.13	30415.26
452.31	29219.25
452.49	27552.79
452.68	28465.60
452.86	28371.97
453.05	28840.08
453.23	29783.32
453.42	30375.47
453.60	31262.54
453.78	31417.01
453.97	31140.83
454.15	30984.01
454.34	29954.18
454.52	30424.62
454.70	29893.32
454.89	30024.39
455.07	30176.53
455.26	31140.83
455.44	31571.49
455.62	32814.31
455.81	32559.19
455.99	32484.30
456.17	32154.28
456.36	32250.24
456.54	33193.48
456.73	32975.81
456.91	33696.69
457.09	33612.43
457.28	34260.76
457.46	32854.10
457.64	32987.51
457.83	31896.82
458.01	31253.17
458.19	31838.31
458.38	32173.00
458.56	33553.92
458.74	33050.70
458.93	32678.56
459.11	32203.43
459.29	32102.79
459.48	32596.64
459.66	32168.32
459.84	32737.07
460.03	32921.98
460.21	33179.43
460.39	33647.54
460.57	33853.51
460.76	34220.97
460.94	34455.03
461.12	33696.69
461.31	33752.87
461.49	33776.27
461.67	33668.61
461.85	35108.04
462.04	34721.85
462.22	35016.75
462.40	34817.81
462.59	34735.89
462.77	34583.76
462.95	34738.23
463.13	34384.81
463.32	34059.48
463.50	33710.74
463.68	33792.65
463.86	34239.70
464.05	33347.95
464.23	32652.81
464.41	32811.97
464.59	32369.61
464.78	34080.54
464.96	33872.23
465.14	33275.40
465.32	33640.52
465.50	34726.53
465.69	34871.64
465.87	34340.34
466.05	33881.60
466.23	31955.33
466.41	31374.88
466.60	32477.27
466.78	32636.43
466.96	32772.18
467.14	33315.19
467.32	33787.97
467.51	34066.50
467.69	32751.12
467.87	33287.10
468.05	33628.82
468.23	33551.58
468.41	33860.53
468.60	33881.60
468.78	34019.69
468.96	33663.93
469.14	34279.49
469.32	34972.28
469.50	33116.24
469.69	33350.29
469.87	32332.16
470.05	32833.04
470.23	32704.31
470.41	32914.95
470.59	33394.76
470.77	33556.26
470.95	33888.62
471.14	34700.78
471.32	34550.99
471.50	36517.04
471.68	36486.61
471.86	37060.04
472.04	37237.92
472.22	36467.89
472.40	35318.68
472.58	34773.34
472.77	34508.86
472.95	35538.69
473.13	36404.69
473.31	35096.33
473.49	35543.38
473.67	36278.30
473.85	36591.94
474.03	37589.00
474.21	37359.63
474.39	37783.27
474.57	37516.45
474.75	37848.80
474.93	37579.64
475.12	36968.76
475.30	37148.98
475.48	37130.26
475.66	37502.40
475.84	36872.80
476.02	36624.70
476.20	36257.24
476.38	36886.84
476.56	38527.56
476.74	38335.63
476.92	39000.35
477.10	39428.66
477.28	40505.31
477.46	40273.60
477.64	40772.13
477.82	41467.27
478.00	41015.55
478.18	40605.95
478.36	40224.45
478.54	40474.88
478.72	40362.54
478.90	41776.22
479.08	42494.77
479.26	43154.80
479.44	43077.56
479.62	42707.76
479.80	42490.09
479.98	43037.77
480.16	43482.47
480.34	43110.33
480.52	43435.66
480.70	43613.54
480.88	43559.71
481.06	44605.93
481.24	44823.60
481.41	45705.98
481.59	46239.62
481.77	46045.36
481.95	44898.50
482.13	44907.86
482.31	44994.46
482.49	46122.60
482.67	45813.65
482.85	46319.20
483.03	46387.08
483.21	46951.15
483.39	46948.81
483.57	46398.78
483.74	46155.36
483.92	46061.74
484.10	46583.68
484.28	47765.65
484.46	47374.78
484.64	48399.94
484.82	47274.14
485.00	46880.93
485.18	46251.33
485.35	44680.83
485.53	41242.58
485.71	37914.34
485.89	38000.94
486.07	39770.38
486.25	43175.86
486.43	45282.34
486.61	45787.90
486.78	45883.86
486.96	46433.89
487.14	47770.33
487.32	48411.64
487.50	49722.34
487.68	50593.02
487.85	50754.52
488.03	50911.33
488.21	50155.34
488.39	49799.58
488.57	48662.08
488.75	48683.14
488.92	50204.49
489.10	51973.94
489.28	53324.43
489.46	54082.76
489.64	53930.62
489.81	53872.11
489.99	53441.45
490.17	53729.34
490.35	54136.59
490.53	53883.81
490.70	53249.53
490.88	53319.74
491.06	54066.38
491.24	54014.88
491.41	53078.67
491.59	51346.67
491.77	50651.53
491.95	51978.62
492.13	52963.98
492.30	54244.26
492.48	55180.47
492.66	55515.17
492.84	55501.12
493.01	55077.49
493.19	54569.59
493.37	54440.86
493.54	54211.49
493.72	54932.37
493.90	55786.67
494.08	56409.25
494.25	57055.24
494.43	56956.94
494.61	57001.41
494.79	57525.69
494.96	57020.13
495.14	56355.42
495.32	55377.08
495.49	55049.40
495.67	56112.00
495.85	57301.00
496.02	57717.61
496.20	57497.60
496.38	57027.15
496.55	57139.50
496.73	57656.76
496.91	57572.50
497.09	58237.21
497.26	58459.56
497.44	57886.13
497.62	57226.10
497.79	56580.11
497.97	55435.59
498.14	55774.97
498.32	56762.67
498.50	57448.45
498.67	58113.16
498.85	57668.46
499.03	58248.91
499.20	58330.83
499.38	58532.12
499.56	58190.40
499.73	57593.56
499.91	57504.62
500.08	56853.95
500.26	56369.46
500.44	56722.88
500.61	57497.60
500.79	57357.17
500.97	56638.62
501.14	56886.72
501.32	56568.41
501.49	56467.76
501.67	56779.06
501.84	57343.12
502.02	57717.61
502.20	58115.50
502.37	57984.43
502.55	58017.20
502.72	58745.11
502.90	58894.90
503.07	58520.41
503.25	58337.85
503.43	57499.94
503.60	56556.70
503.78	56095.62
503.95	56945.23
504.13	57986.77
504.30	59035.33
504.48	58698.30
504.65	58241.89
504.83	58403.39
505.01	58878.52
505.18	59089.16
505.36	59868.56
505.53	59781.96
505.71	60193.90
505.88	59971.55
506.06	59538.55
506.23	58906.60
506.41	58836.39
506.58	59295.13
506.76	59016.61
506.93	58965.12
507.11	58698.30
507.28	59093.85
507.46	58569.57
507.63	57925.92
507.81	57705.91
507.98	58021.88
508.16	58663.19
508.33	58981.50
508.50	59611.10
508.68	59625.15
508.85	60285.18
509.03	60250.07
509.20	59943.46
509.38	59414.50
509.55	58415.09
509.73	58855.11
509.90	59402.80
510.08	59428.54
510.25	59496.42
510.42	59241.30
510.60	59388.75
510.77	59639.19
510.95	59908.35
511.12	60308.58
511.30	60479.44
511.47	60453.70
511.64	60547.32
511.82	60083.89
511.99	59323.22
512.17	59058.74
512.34	58632.76
512.51	58995.54
512.69	59227.26
512.86	59243.64
513.04	59730.47
513.21	59594.72
513.38	59105.55
513.56	58759.15
513.73	58110.82
513.90	58454.88
514.08	58705.32
514.25	58843.41
514.43	59114.91
514.60	59210.87
514.77	59400.46
514.95	59234.28
515.12	59143.00
515.29	59423.86
515.47	59908.35
515.64	60083.89
515.81	59667.28
515.99	58969.80
516.16	57874.43
516.33	55566.66
516.51	54387.03
516.68	53628.69
516.85	53034.20
517.03	53712.95
517.20	56332.01
517.37	58585.95
517.54	59313.86
517.72	58717.02
517.89	56170.52
518.06	54262.98
518.24	54749.81
518.41	56767.35
518.58	57954.00
518.75	58171.67
518.93	58258.27
519.10	58314.45
519.27	58773.19
519.45	59061.08
519.62	59545.57
519.79	59945.80
519.96	59718.77
520.14	59166.40
520.31	58609.35
520.48	58515.73
520.65	58906.60
520.83	59840.48
521.00	59973.89
521.17	59744.51
521.34	59234.28
521.52	59798.35
521.69	60161.13
521.86	60666.69
522.03	60308.58
522.20	59091.51
522.38	58204.44
522.55	58253.59
522.72	58864.47
522.89	58901.92
523.07	59007.25
523.24	59550.25
523.41	60392.84
523.58	60491.15
523.75	60910.10
523.92	60732.22
524.10	60776.69
524.27	60694.77
524.44	60629.24
524.61	60423.27
524.78	60264.11
524.96	60119.00
525.13	60313.26
525.30	60470.08
525.47	60910.10
525.64	60608.17
525.81	60100.28
525.98	58824.68
526.16	57347.81
526.33	56914.81
526.50	56577.77
526.67	56388.19
526.84	56884.38
527.01	57773.78
527.18	58454.88
527.36	59517.48
527.53	59992.61
527.70	60154.11
527.87	59896.65
528.04	59302.15
528.21	59791.33
528.38	60353.05
528.55	60900.74
528.72	61202.67
528.89	61434.38
529.07	61015.43
529.24	60697.11
529.41	59824.09
529.58	59267.05
529.75	59578.34
529.92	60097.94
530.09	60444.33
530.26	60706.47
530.43	60889.04
530.60	61090.32
530.77	61322.04
530.94	61219.05
531.11	60872.65
531.28	60645.62
531.46	60221.98
531.63	60678.39
531.80	60327.31
531.97	59955.16
532.14	59208.53
532.31	58412.75
532.48	57516.32
532.65	57872.09
532.82	58810.64
532.99	59543.23
533.16	60119.00
533.33	60619.88
533.50	60252.41
533.67	59707.07
533.84	59302.15
534.01	59625.15
534.18	59824.09
534.35	59683.66
534.52	59760.90
534.69	60004.31
534.86	60205.60
535.03	60437.31
535.20	61139.47
535.37	61310.33
535.54	61357.14
535.71	60903.08
535.88	60669.03
536.05	60018.36
536.22	59817.07
536.38	59491.74
536.55	59135.98
536.72	58403.39
536.89	58534.46
537.06	59309.18
537.23	60046.44
537.40	60193.90
537.57	60500.51
537.74	60226.66
537.91	59966.87
538.08	60046.44
538.25	60069.85
538.42	60219.64
538.59	60093.25
538.75	59208.53
538.92	59131.29
539.09	59054.06
539.26	58986.18
539.43	58770.85
539.60	59035.33
539.77	59292.79
539.94	58885.54
540.11	58035.92
540.28	57609.95
540.44	57998.48
540.61	57963.37
540.78	58279.34
540.95	58646.80
541.12	58990.86
541.29	59421.52
541.46	59372.37
541.62	59627.49
541.79	59599.40
541.96	58740.42
542.13	58967.46
542.30	59100.87
542.47	59440.24
542.63	59128.95
542.80	58927.67
542.97	59093.85
543.14	58859.79
543.31	58801.28
543.48	59353.65
543.64	60102.62
543.81	60519.23
543.98	60289.86
544.15	59669.62
544.32	59126.61
544.48	59192.15
544.65	59657.91
544.82	59842.82
544.99	59526.84
545.16	59285.77
545.32	58850.43
545.49	59831.11
545.66	60079.21
545.83	59456.63
546.00	59302.15
546.16	59166.40
546.33	59096.19
546.50	59084.48
546.67	59604.08
546.83	59061.08
547.00	59250.66
547.17	58478.28
547.34	58054.65
547.50	58028.90
547.67	58408.07
547.84	58497.01
548.00	59112.57
548.17	59498.76
548.34	59131.29
548.51	59234.28
548.67	59416.84
548.84	59515.14
549.01	59189.81
549.18	59262.36
549.34	59023.63
549.51	59206.19
549.68	59114.91
549.84	58831.71
550.01	58777.87
550.18	58702.98
550.34	58871.49
550.51	58742.77
550.68	58850.43
550.84	58316.79
551.01	58394.03
551.18	58501.69
551.34	58623.40
551.51	58894.90
551.68	59220.23
551.84	59304.49
552.01	59002.56
552.18	58756.81
552.34	58120.18
552.51	57855.70
552.68	57984.43
552.84	58241.89
553.01	58614.04
553.18	58429.13
553.34	58651.48
553.51	58679.57
553.67	59035.33
553.84	59105.55
554.01	58913.62
554.17	58660.85
554.34	58714.68
554.51	58995.54
554.67	59203.85
554.84	59124.27
555.00	58857.45
555.17	58759.15
555.33	58674.89
555.50	58520.41
555.67	58719.36
555.83	58195.08
556.00	58131.89
556.16	58195.08
556.33	57827.62
556.50	57628.67
556.66	57586.54
556.83	57146.52
556.99	57481.22
557.16	57827.62
557.32	57848.68
557.49	58089.76
557.65	57930.60
557.82	57928.26
557.98	57703.57
558.15	57621.65
558.32	56767.35
558.48	55774.97
558.65	56275.84
558.81	56582.45
558.98	56797.78
559.14	56860.97
559.31	56903.10
559.47	56968.64
559.64	56657.35
559.80	56250.09
559.97	56680.75
560.13	56896.08
560.30	57790.17
560.46	58115.50
560.63	58576.59
560.79	58372.96
560.96	58040.60
561.12	56886.72
561.29	56128.39
561.45	56374.14
561.61	56786.08
561.78	57183.97
561.94	56963.96
562.11	56933.53
562.27	56755.65
562.44	57223.76
562.60	57357.17
562.77	57682.50
562.93	57574.84
563.10	57258.87
563.26	56802.46
563.42	57031.83
563.59	56769.69
563.75	57003.75
563.92	56884.38
564.08	56493.51
564.24	57071.62
564.41	57200.35
564.57	57148.86
564.74	56769.69
564.90	56842.25
565.07	56582.45
565.23	56018.38
565.39	55620.49
565.56	55498.78
565.72	55288.13
565.88	55496.44
566.05	55767.94
566.21	55924.76
566.38	56079.24
566.54	56170.52
566.70	56591.81
566.87	56891.40
567.03	56718.20
567.19	57095.03
567.36	56699.48
567.52	56741.61
567.68	56109.66
567.85	55742.20
568.01	55189.83
568.17	55051.74
568.34	55072.81
568.50	54810.67
568.66	55182.81
568.83	55592.40
568.99	55524.53
569.15	55636.87
569.32	55838.16
569.48	55636.87
569.64	55430.91
569.81	55021.31
569.97	55009.61
570.13	54707.68
570.30	54475.97
570.46	54218.51
570.62	53387.62
570.78	53272.93
570.95	53909.56
571.11	54707.68
571.27	54784.92
571.43	55082.17
571.60	55327.92
571.76	55421.55
571.92	55526.87
572.09	55620.49
572.25	55533.89
572.41	55653.26
572.57	55473.04
572.74	55648.58
572.90	55161.75
573.06	55203.88
573.22	55262.39
573.38	55234.30
573.55	54897.27
573.71	55180.47
573.87	54927.69
574.03	54904.29
574.20	55072.81
574.36	54630.44
574.52	54714.70
574.68	54478.31
574.84	53806.58
575.01	53780.83
575.17	53642.74
575.33	54099.14
575.49	53979.78
575.65	54024.25
575.82	54237.23
575.98	53556.14
576.14	54082.76
576.30	54255.96
576.46	54277.02
576.62	54277.02
576.79	54581.29
576.95	54127.23
577.11	54073.40
577.27	54265.32
577.43	54148.29
577.59	53581.88
577.75	53176.97
577.92	52685.46
578.08	52336.72
578.24	52334.38
578.40	52727.59
578.56	53141.86
578.72	53237.83
578.88	53240.17
579.04	53794.87
579.21	53464.86
579.37	53640.40
579.53	53565.50
579.69	53794.87
579.85	54007.86
580.01	53722.32
580.17	53205.06
580.33	53301.02
580.49	53389.96
580.65	53399.32
580.82	53806.58
580.98	53621.67
581.14	53619.33
581.30	53673.16
581.46	53556.14
581.62	53581.88
581.78	53822.96
581.94	53923.60
582.10	54026.59
582.26	54155.32
582.42	53911.90
582.58	53808.92
582.74	53881.47
582.90	54040.63
583.06	53860.41
583.22	53350.17
583.38	53584.22
583.54	53584.22
583.70	53455.50
583.86	53434.43
584.02	53408.68
584.18	53560.82
584.34	53504.65
584.50	53099.73
584.66	53282.30
584.82	52767.38
584.98	52584.82
585.14	52247.78
585.30	51833.50
