SpectraSuite Data File
++++++++++++++++++++++++++++++++++++
Date: Mon Oct 07 14:53:08 GMT-05:00 2013
User: price-jones
Dark Spectrum Present: No
Reference Spectrum Present: No
Number of Sampled Component Spectra: 1
Spectrometers: USB2+H05261
Integration Time (usec): 100000 (USB2+H05261)
Spectra Averaged: 1 (USB2+H05261)
Boxcar Smoothing: 0 (USB2+H05261)
Correct for Electrical Dark: No (USB2+H05261)
Strobe/Lamp Enabled: No (USB2+H05261)
Correct for Detector Non-linearity: No (USB2+H05261)
Correct for Stray Light: No (USB2+H05261)
Number of Pixels in Processed Spectrum: 2048
>>>>>Begin Processed Spectral Data<<<<<
365.73	0.00
365.92	0.00
366.12	0.00
366.32	0.00
366.52	0.00
366.72	0.00
366.91	0.00
367.11	0.00
367.31	0.00
367.51	0.00
367.70	0.00
367.90	0.00
368.10	0.00
368.30	0.00
368.49	0.00
368.69	0.00
368.89	0.00
369.09	0.00
369.28	0.00
369.48	0.00
369.68	0.00
369.87	0.00
370.07	0.00
370.27	0.00
370.47	662.37
370.66	3150.36
370.86	3566.98
371.06	4159.13
371.25	4194.24
371.45	3700.39
371.65	3307.18
371.84	3260.37
372.04	3300.16
372.24	3705.07
372.44	3763.58
372.63	3810.39
372.83	3442.93
373.03	3028.65
373.22	2864.82
373.42	3094.19
373.62	3403.14
373.81	3859.54
374.01	3852.52
374.21	3468.67
374.40	3141.00
374.60	3386.76
374.79	3791.67
374.99	4297.22
375.19	4493.83
375.38	4669.37
375.58	4367.44
375.78	4308.93
375.97	4362.76
376.17	4582.77
376.37	4552.34
376.56	4699.80
376.76	4833.21
376.95	5240.46
377.15	5626.65
377.35	5771.76
377.54	5949.64
377.74	6200.08
377.93	6190.72
378.13	6036.24
378.33	5839.64
378.52	5210.03
378.72	5146.84
378.91	5104.71
379.11	4877.68
379.31	4727.88
379.50	4608.51
379.70	5128.11
379.89	5589.20
380.09	5865.38
380.28	6059.65
380.48	6129.86
380.68	5933.26
380.87	5729.63
381.07	5481.53
381.26	4940.87
381.46	4660.01
381.65	4601.49
381.85	4344.03
382.04	4250.41
382.24	3962.53
382.43	3691.02
382.63	3637.19
382.83	3658.26
383.02	3772.94
383.22	3667.62
383.41	3765.92
383.61	3990.61
383.80	4477.44
384.00	5231.10
384.19	5809.21
384.39	6111.14
384.58	5970.71
384.78	5942.62
384.97	5818.57
385.17	5605.58
385.36	5287.27
385.56	5104.71
385.75	5322.38
385.95	5659.42
386.14	6216.46
386.34	6195.40
386.53	5963.68
386.72	5605.58
386.92	5533.03
387.11	6061.99
387.31	6427.11
387.50	6134.54
387.70	5806.87
387.89	5961.34
388.09	5937.94
388.28	6061.99
388.48	6146.25
388.67	6399.02
388.86	7061.40
389.06	7683.98
389.25	8051.44
389.45	8145.06
389.64	8255.07
389.84	8063.15
390.03	7918.03
390.22	7817.39
390.42	8297.20
390.61	8690.41
390.81	9341.08
391.00	9521.30
391.19	9376.19
391.39	8940.85
391.58	8510.19
391.78	7971.86
391.97	7550.57
392.16	7236.94
392.36	6576.91
392.55	5163.22
392.75	4264.46
392.94	3356.33
393.13	3400.80
393.33	3929.76
393.52	5259.18
393.71	6445.84
393.91	7119.91
394.10	7573.97
394.29	8652.96
394.49	9188.94
394.68	9549.39
394.88	9790.46
395.07	10190.69
395.26	10167.29
395.46	9813.87
395.65	9011.06
395.84	8156.77
396.04	6925.65
396.23	5408.98
396.42	4697.46
396.62	4517.23
396.81	5380.89
397.00	6906.92
397.19	8418.91
397.39	9891.10
397.58	11262.66
397.77	11955.46
397.97	12341.64
398.16	12437.61
398.35	13095.30
398.55	13341.05
398.74	14001.08
398.93	14176.62
399.12	13799.80
399.32	13497.87
399.51	14001.08
399.70	14778.14
399.90	14527.71
400.09	14429.40
400.28	14193.01
400.47	14520.68
400.67	15349.23
400.86	15775.21
401.05	15613.71
401.24	15569.24
401.44	15852.45
401.63	16051.39
401.82	15793.94
402.01	15845.43
402.21	16168.42
402.40	16592.06
402.59	15580.95
402.78	15129.22
402.97	14700.90
403.17	15386.68
403.36	16224.59
403.55	16781.64
403.74	17186.55
403.93	16255.02
404.13	15124.54
404.32	14831.97
404.51	15396.04
404.70	16627.17
404.89	16269.06
405.09	16334.60
405.28	15707.34
405.47	15662.86
405.66	15936.71
405.85	15276.68
406.05	14923.26
406.24	15293.06
406.43	15889.90
406.62	16465.67
406.81	16622.48
407.00	15796.28
407.20	15742.44
407.39	15674.57
407.58	16327.58
407.77	17355.07
407.96	17565.72
408.15	18012.76
408.34	17961.27
408.54	19101.11
408.73	18803.86
408.92	18689.18
409.11	18036.17
409.30	16999.31
409.49	16201.19
409.68	15180.71
409.87	14679.84
410.07	15761.17
410.26	16704.40
410.45	17788.07
410.64	18092.34
410.83	18670.45
411.02	19522.41
411.21	20063.07
411.40	19723.69
411.59	19875.83
411.78	19747.10
411.98	19204.10
412.17	19868.81
412.36	19452.19
412.55	19578.58
412.74	19002.81
412.93	18890.46
413.12	19091.75
413.31	20381.38
413.50	20790.98
413.69	21582.08
413.88	20451.60
414.07	19711.99
414.26	20297.13
414.45	20964.18
414.64	20659.91
414.83	20809.70
415.02	20650.55
415.22	20362.66
415.41	21268.45
415.60	21619.53
415.79	22668.09
415.98	23204.07
416.17	23112.79
416.36	22548.72
416.55	22148.49
416.74	21380.79
416.93	20610.76
417.12	20737.15
417.31	21130.36
417.50	21032.05
417.69	21898.05
417.88	21788.05
418.07	21893.37
418.26	21331.64
418.45	21738.90
418.64	22363.82
418.83	23180.67
419.02	22977.04
419.21	23016.83
419.39	21759.96
419.58	20641.18
419.77	20875.24
419.96	21872.31
420.15	23110.45
420.34	23424.08
420.53	24510.09
420.72	25074.16
420.91	24449.24
421.10	23990.49
421.29	23828.99
421.48	23433.44
421.67	24184.76
421.86	23758.78
422.05	22429.35
422.24	20074.77
422.43	19625.39
422.61	22085.30
422.80	23798.57
422.99	23468.55
423.18	22408.29
423.37	22349.78
423.56	22398.93
423.75	22867.03
423.94	23077.68
424.13	21839.54
424.32	22263.18
424.50	22157.85
424.69	21631.23
424.88	22097.00
425.07	22174.24
425.26	21951.88
425.45	21664.00
425.64	21411.22
425.83	21453.35
426.01	22499.57
426.20	23461.53
426.39	22724.26
426.58	21542.29
426.77	19669.86
426.96	19140.90
427.15	20133.29
427.33	21600.80
427.52	22045.51
427.71	22632.98
427.90	22052.53
428.09	21895.71
428.28	21378.45
428.46	20699.70
428.65	20032.65
428.84	21209.93
429.03	21298.88
429.22	20133.29
429.40	19005.15
429.59	17334.01
429.78	15353.91
429.97	15506.05
430.16	15782.23
430.34	15623.08
430.53	15587.97
430.72	16184.80
430.91	18008.08
431.10	21046.10
431.28	24465.62
431.47	26579.12
431.66	26546.36
431.85	24266.67
432.03	22588.51
432.22	21254.40
432.41	22661.07
432.60	24748.82
432.79	25568.01
432.97	26396.56
433.16	25645.25
433.35	23363.23
433.54	21081.21
433.72	19737.74
433.91	20741.83
434.10	22979.38
434.28	24542.86
434.47	25853.56
434.66	25415.88
434.85	24786.27
435.03	24458.60
435.22	25287.15
435.41	27014.46
435.59	26986.38
435.78	27253.20
435.97	27821.95
436.16	27688.54
436.34	27475.55
436.53	26820.20
436.72	26855.31
436.90	25652.27
437.09	25593.76
437.28	25238.00
437.46	26113.36
437.65	26176.55
437.84	24257.31
438.02	22288.92
438.21	22373.18
438.40	23761.12
438.58	25383.11
438.77	26071.23
438.96	26380.18
439.14	27768.12
439.33	27669.81
439.52	28381.34
439.70	27740.03
439.89	27358.52
440.08	26352.09
440.26	26321.66
440.45	27400.65
440.63	29415.85
440.82	30696.13
441.01	29926.09
441.19	29984.60
441.38	30370.79
441.57	31323.39
441.75	31824.26
441.94	32184.71
442.12	31805.54
442.31	32467.91
442.50	32804.95
442.68	31906.18
442.87	31770.43
443.05	31484.89
443.24	31742.35
443.43	32493.66
443.61	33179.43
443.80	33113.90
443.98	31688.51
444.17	31751.71
444.35	33579.67
444.54	33928.41
444.73	33476.68
444.91	31854.69
445.10	30859.96
445.28	29769.27
445.47	29347.98
445.65	29497.77
445.84	30146.10
446.02	31257.85
446.21	31740.00
446.39	31775.11
446.58	31896.82
446.77	32582.60
446.95	32936.02
447.14	34052.45
447.32	34132.03
447.51	33729.46
447.69	32123.85
447.88	32079.38
448.06	32638.77
448.25	33078.79
448.43	33244.97
448.62	32493.66
448.80	32521.74
448.99	32921.98
449.17	33261.35
449.36	33216.88
449.54	34693.76
449.73	34693.76
449.91	35669.76
450.10	36290.01
450.28	36795.56
450.46	36315.75
450.65	36631.72
450.83	36226.81
451.02	35328.05
451.20	35290.60
451.39	35576.14
451.57	35040.16
451.76	34951.22
451.94	34822.49
452.13	34527.58
452.31	32896.23
452.49	30820.17
452.68	31620.64
452.86	31985.76
453.05	32046.62
453.23	33612.43
453.42	33940.11
453.60	34457.37
453.78	35016.75
453.97	34527.58
454.15	34859.94
454.34	33811.38
454.52	34190.55
454.70	33488.38
454.89	33766.91
455.07	33640.52
455.26	34684.40
455.44	35814.88
455.62	36273.62
455.81	36938.33
455.99	36313.41
456.17	35924.88
456.36	35618.27
456.54	36856.42
456.73	36851.73
456.91	37806.67
457.09	37673.26
457.28	38391.81
457.46	36779.18
457.64	36194.04
457.83	35571.46
458.01	35108.04
458.19	35906.16
458.38	35852.33
458.56	37123.24
458.74	36966.42
458.93	36189.36
459.11	36100.42
459.29	36177.66
459.48	36329.80
459.66	35924.88
459.84	36524.06
460.03	36854.08
460.21	36802.58
460.39	37345.59
460.57	37921.36
460.76	38389.47
460.94	38574.37
461.12	37560.92
461.31	38120.31
461.49	37539.85
461.67	37764.54
461.85	39047.16
462.04	38749.91
462.22	39152.48
462.40	39009.71
462.59	38911.41
462.77	38738.21
462.95	38511.17
463.13	38504.15
463.32	37703.69
463.50	38066.47
463.68	37914.34
463.86	38326.27
464.05	37619.43
464.23	36339.16
464.41	36535.76
464.59	35782.11
464.78	37858.17
464.96	37432.19
465.14	36828.33
465.32	37972.85
465.50	38934.81
465.69	39407.60
465.87	38651.61
466.05	37350.27
466.23	36074.68
466.41	34986.33
466.60	36608.32
466.78	36360.22
466.96	36804.92
467.14	37034.30
467.32	37806.67
467.51	38225.63
467.69	36224.47
467.87	37179.41
468.05	37565.60
468.23	37603.05
468.41	37619.43
468.60	37542.19
468.78	38068.81
468.96	37333.89
469.14	38478.41
469.32	38227.97
469.50	37050.68
469.69	37174.73
469.87	36730.03
470.05	36519.38
470.23	36383.63
470.41	36893.86
470.59	37411.12
470.77	37425.17
470.95	38223.29
471.14	38569.69
471.32	38792.04
471.50	40814.26
471.68	41092.79
471.86	40961.72
472.04	41256.62
472.22	41167.68
472.40	39466.11
472.58	39344.41
472.77	38747.57
472.95	39173.55
473.13	40416.37
473.31	39040.14
473.49	39826.56
473.67	40608.29
473.85	40767.45
474.03	41916.65
474.21	41853.46
474.39	42333.27
474.57	42351.99
474.75	42319.23
474.93	41869.84
475.12	41165.34
475.30	41368.97
475.48	41448.55
475.66	42103.90
475.84	41483.66
476.02	41296.41
476.20	40479.57
476.38	41574.94
476.56	42649.24
476.74	43199.27
476.92	43278.85
477.10	44041.86
477.28	45216.81
477.46	45125.53
477.64	45474.27
477.82	45560.87
478.00	45471.93
478.18	44870.41
478.36	44657.42
478.54	44804.88
478.72	45574.91
478.90	46188.13
479.08	47215.63
479.26	47966.94
479.44	47309.25
479.62	47133.71
479.80	47456.70
479.98	47777.36
480.16	47941.19
480.34	47402.87
480.52	47576.07
480.70	47903.74
480.88	48493.56
481.06	49003.80
481.24	49198.06
481.41	50164.70
481.59	50286.41
481.77	50288.75
481.95	49717.66
482.13	49762.13
482.31	49516.37
482.49	50003.20
482.67	49811.28
482.85	50618.77
483.03	50993.25
483.21	50913.67
483.39	51178.15
483.57	50475.99
483.74	50380.03
483.92	50717.07
484.10	50688.98
484.28	51559.66
484.46	51772.65
484.64	52224.37
484.82	51564.34
485.00	50967.51
485.18	50117.89
485.35	49368.92
485.53	46291.12
485.71	42361.36
485.89	41565.57
486.07	44121.44
486.25	47636.92
486.43	49717.66
486.61	50237.26
486.78	50141.30
486.96	50321.52
487.14	51793.71
487.32	52697.16
487.50	53497.62
487.68	54080.42
487.85	54178.72
488.03	54340.22
488.21	54223.19
488.39	53492.94
488.57	52917.17
488.75	52563.75
488.92	53696.57
489.10	55753.90
489.28	56783.74
489.46	57237.80
489.64	56856.29
489.81	57155.88
489.99	56772.03
490.17	57099.71
490.35	57198.01
490.53	56942.89
490.70	56729.90
490.88	56390.53
491.06	57399.30
491.24	57233.12
491.41	56102.64
491.59	54501.71
491.77	54522.78
491.95	55468.36
492.13	56282.86
492.30	57366.53
492.48	58258.27
492.66	58468.92
492.84	58375.30
493.01	58239.55
493.19	57588.88
493.37	57401.64
493.54	57282.27
493.72	57815.91
493.90	58497.01
494.08	59437.90
494.25	59686.00
494.43	59793.67
494.61	60287.52
494.79	60074.53
494.96	60046.44
495.14	59414.50
495.32	58590.63
495.49	58286.36
495.67	59187.47
495.85	60240.71
496.02	60554.34
496.20	60481.78
496.38	59978.57
496.55	60051.12
496.73	60535.62
496.91	60530.93
497.09	60938.19
497.26	61137.13
497.44	60720.52
497.62	60313.26
497.79	59667.28
497.97	58515.73
498.14	58735.74
498.32	59608.76
498.50	60587.11
498.67	60952.23
498.85	60844.57
499.03	61013.08
499.20	61095.00
499.38	61188.63
499.56	61181.60
499.73	60729.88
499.91	60336.67
500.08	59922.40
500.26	59143.00
500.44	59793.67
500.61	60451.36
500.79	60006.65
500.97	59817.07
501.14	59711.75
501.32	59524.50
501.49	59547.91
501.67	59824.09
501.84	60427.95
502.02	60559.02
502.20	60898.40
502.37	60814.14
502.55	60853.93
502.72	61366.51
502.90	61914.19
503.07	61441.40
503.25	61205.01
503.43	60432.63
503.60	59978.57
503.78	59154.70
503.95	59831.11
504.13	61080.96
504.30	61659.07
504.48	61483.53
504.65	61160.54
504.83	61193.31
505.01	61722.27
505.18	62017.17
505.36	62717.00
505.53	62646.78
505.71	62780.19
505.88	62871.47
506.06	62253.57
506.23	62061.64
506.41	61642.69
506.58	61869.72
506.76	61860.36
506.93	61806.53
507.11	61612.26
507.28	61818.23
507.46	61478.85
507.63	60809.46
507.81	60729.88
507.98	60905.42
508.16	61490.55
508.33	61879.08
508.50	62272.29
508.68	62578.90
508.85	63103.18
509.03	63051.69
509.20	62953.39
509.38	62108.46
509.55	61410.98
509.73	61605.24
509.90	62136.54
510.08	62529.75
510.25	62358.89
510.42	62131.86
510.60	62150.59
510.77	62255.91
510.95	62726.36
511.12	62878.49
511.30	63075.10
511.47	63351.28
511.64	63442.56
511.82	63112.55
511.99	62321.44
512.17	62129.52
512.34	61642.69
512.51	61755.03
512.69	62024.20
512.86	62092.07
513.04	62408.04
513.21	62504.01
513.38	62061.64
513.56	61776.10
513.73	61155.86
513.90	61333.74
514.08	61523.32
514.25	61750.35
514.43	61778.44
514.60	62094.41
514.77	62244.21
514.95	62351.87
515.12	62190.37
515.29	62410.38
515.47	62815.30
515.64	63044.67
515.81	62724.02
515.99	62028.88
516.16	60722.86
516.33	58731.06
516.51	57574.84
516.68	56903.10
516.85	56472.45
517.03	56933.53
517.20	59253.00
517.37	61537.36
517.54	62295.70
517.72	61698.86
517.89	59475.35
518.06	57443.77
518.24	58080.39
518.41	59728.13
518.58	61015.43
518.75	61230.75
518.93	61350.12
519.10	61008.40
519.27	61673.12
519.45	61937.60
519.62	62555.50
519.79	62834.02
519.96	62581.24
520.14	62276.97
520.31	61509.28
520.48	61551.41
520.65	61841.63
520.83	62742.74
521.00	62995.52
521.17	62693.59
521.34	62288.68
521.52	62707.63
521.69	63159.36
521.86	63274.04
522.03	63229.57
522.20	61986.75
522.38	60994.36
522.55	61310.33
522.72	61736.31
522.89	61715.25
523.07	62150.59
523.24	62342.51
523.41	63149.99
523.58	63374.69
523.75	63913.01
523.92	63597.04
524.10	63557.25
524.27	63585.33
524.44	63182.76
524.61	63332.56
524.78	63044.67
524.96	62981.48
525.13	63091.48
525.30	63435.54
525.47	63641.51
525.64	63566.61
525.81	62979.14
525.98	61626.31
526.16	60301.56
526.33	59915.37
526.50	59564.29
526.67	59238.96
526.84	59880.27
527.01	60549.66
527.18	61422.68
527.36	62218.46
527.53	62995.52
527.70	63257.66
527.87	62780.19
528.04	62232.50
528.21	62761.47
528.38	63545.54
528.55	63889.60
528.72	64193.87
528.89	64191.53
529.07	63959.82
529.24	63437.88
529.41	62691.25
529.58	62300.38
529.75	62461.88
529.92	62700.61
530.09	63257.66
530.26	63739.81
530.43	63861.52
530.60	63924.71
530.77	64121.32
530.94	64095.57
531.11	63618.10
531.28	63362.98
531.46	63217.87
531.63	63517.46
531.80	63224.89
531.97	62862.11
532.14	62394.00
532.31	61387.57
532.48	60718.18
532.65	60966.27
532.82	61682.48
532.99	62604.65
533.16	62934.66
533.33	63557.25
533.50	63126.59
533.67	62714.65
533.84	62492.30
534.01	62567.20
534.18	62532.09
534.35	62920.62
534.52	62595.29
534.69	62958.07
534.86	63182.76
535.03	63447.24
535.20	63992.59
535.37	64137.70
535.54	64072.17
535.71	63753.85
535.88	63561.93
536.05	62817.64
536.22	62803.59
536.38	62457.20
536.55	61804.19
536.72	61633.33
536.89	61450.77
537.06	62447.83
537.23	63025.95
537.40	63049.35
537.57	63173.40
537.74	62979.14
537.91	62869.13
538.08	62714.65
538.25	63007.22
538.42	63224.89
538.59	62913.60
538.75	62291.02
538.92	62176.33
539.09	62080.37
539.26	61771.42
539.43	61921.21
539.60	61944.62
539.77	62024.20
539.94	61951.64
540.11	61085.64
540.28	60788.39
540.44	60891.38
540.61	61057.56
540.78	61387.57
540.95	61677.80
541.12	62059.30
541.29	62218.46
541.46	62546.14
541.62	62588.27
541.79	62440.81
541.96	61776.10
542.13	61970.36
542.30	62253.57
542.47	62164.63
542.63	62241.87
542.80	61914.19
542.97	61968.02
543.14	61914.19
543.31	61876.74
543.48	62489.96
543.64	63007.22
543.81	63264.68
543.98	63037.65
544.15	62492.30
544.32	62003.13
544.48	62110.80
544.65	62590.61
544.82	62859.77
544.99	62471.24
545.16	62141.22
545.32	62003.13
545.49	62731.04
545.66	62979.14
545.83	62548.48
546.00	62314.42
546.16	62218.46
546.33	62042.92
546.50	62248.89
546.67	62576.56
546.83	62188.03
547.00	62216.12
547.17	61581.84
547.34	61099.68
547.50	61137.13
547.67	61474.17
547.84	61394.59
548.00	61989.09
548.17	62386.98
548.34	62223.14
548.51	62326.13
548.67	62227.82
548.84	62274.63
549.01	62211.44
549.18	62017.17
549.34	61953.98
549.51	62124.84
549.68	62042.92
549.84	62003.13
550.01	61776.10
550.18	61642.69
550.34	61771.42
550.51	61902.49
550.68	61916.53
550.84	61467.15
551.01	61291.61
551.18	61609.92
551.34	61652.05
551.51	61848.66
551.68	62333.15
551.84	62358.89
552.01	62071.01
552.18	62052.28
552.34	61167.56
552.51	60982.66
552.68	60870.31
552.84	61319.70
553.01	61537.36
553.18	61352.46
553.34	61474.17
553.51	61654.39
553.67	61923.55
553.84	61916.53
554.01	61900.15
554.17	61722.27
554.34	61780.78
554.51	62033.56
554.67	62276.97
554.84	62042.92
555.00	61843.98
555.17	61513.96
555.33	61483.53
555.50	61446.08
555.67	61549.07
555.83	61490.55
556.00	61179.26
556.16	61254.16
556.33	60711.16
556.50	60640.94
556.66	60821.16
556.83	60329.65
556.99	60694.77
557.16	60692.43
557.32	60931.17
557.49	61130.11
557.65	61015.43
557.82	61228.41
557.98	61083.30
558.15	60547.32
558.32	59791.33
558.48	59173.42
558.65	59433.22
558.81	59784.30
558.98	59781.96
559.14	60329.65
559.31	59985.59
559.47	60364.76
559.64	59875.58
559.80	59704.73
559.97	59828.77
560.13	59882.61
560.30	60837.54
560.46	61181.60
560.63	61488.21
560.79	61464.81
560.96	61034.15
561.12	60170.49
561.29	59470.67
561.45	59311.52
561.61	59941.12
561.78	60308.58
561.94	59941.12
562.11	60135.38
562.27	59920.05
562.44	60444.33
562.60	60690.09
562.77	60683.07
562.93	60547.32
563.10	60449.02
563.26	60097.94
563.42	60198.58
563.59	60058.15
563.75	60149.43
563.92	59880.27
564.08	59976.23
564.24	60175.17
564.41	60142.41
564.57	60133.04
564.74	60196.24
564.90	59896.65
565.07	59664.94
565.23	59470.67
565.39	58894.90
565.56	58646.80
565.72	58590.63
565.88	58899.58
566.05	58906.60
566.21	59267.05
566.38	59288.11
566.54	59341.94
566.70	59700.04
566.87	60093.25
567.03	59948.14
567.19	60252.41
567.36	59880.27
567.52	59704.73
567.68	59533.87
567.85	58927.67
568.01	58665.53
568.17	58234.87
568.34	58330.83
568.50	58375.30
568.66	58466.58
568.83	58754.47
568.99	58681.91
569.15	58918.31
569.32	59164.06
569.48	58724.04
569.64	58501.69
569.81	58415.09
569.97	58398.71
570.13	58136.57
570.30	57551.43
570.46	57570.16
570.62	56818.84
570.78	57095.03
570.95	57162.90
571.11	58056.99
571.27	57979.75
571.43	58293.38
571.60	58625.74
571.76	58578.93
571.92	58747.45
572.09	59047.04
572.25	58866.81
572.41	58864.47
572.57	58820.00
572.74	58857.45
572.90	58202.10
573.06	58478.28
573.22	58482.97
573.38	58637.44
573.55	58328.49
573.71	58698.30
573.87	58426.79
574.03	58244.23
574.20	58202.10
574.36	57984.43
574.52	58087.42
574.68	57731.65
574.84	57331.42
575.01	57162.90
575.17	57010.77
575.33	57315.04
575.49	57518.67
575.65	57682.50
575.82	57394.62
575.98	57186.31
576.14	57539.73
576.30	57647.39
576.46	57820.59
576.62	57813.57
576.79	57853.36
576.95	57504.62
577.11	57432.07
577.27	57429.72
577.43	57867.40
577.59	56935.87
577.75	56947.57
577.92	56346.06
578.08	56236.05
578.24	56140.09
578.40	56435.00
578.56	56741.61
578.72	56631.60
578.88	56875.02
579.04	57080.98
579.21	57139.50
579.37	57022.47
579.53	57190.99
579.69	56968.64
579.85	57223.76
580.01	57137.16
580.17	56732.25
580.33	56533.30
580.49	56837.57
580.65	56989.70
580.82	57153.54
580.98	57123.11
581.14	57165.24
581.30	57144.18
581.46	57006.09
581.62	57200.35
581.78	57181.63
581.94	57411.00
582.10	57401.64
582.26	57443.77
582.42	57378.23
582.58	57193.33
582.74	57202.69
582.90	57286.95
583.06	57329.08
583.22	57364.19
583.38	57078.64
583.54	57174.61
583.70	56917.15
583.86	57008.43
584.02	56779.06
584.18	56952.26
584.34	56750.97
584.50	56875.02
584.66	56652.67
584.82	56250.09
584.98	56278.18
585.14	56261.80
