SpectraSuite Data File
++++++++++++++++++++++++++++++++++++
Date: Mon Oct 07 14:54:54 GMT-05:00 2013
User: price-jones
Dark Spectrum Present: No
Reference Spectrum Present: No
Number of Sampled Component Spectra: 1
Spectrometers: USB2+H05261
Integration Time (usec): 10000 (USB2+H05261)
Spectra Averaged: 1 (USB2+H05261)
Boxcar Smoothing: 0 (USB2+H05261)
Correct for Electrical Dark: No (USB2+H05261)
Strobe/Lamp Enabled: No (USB2+H05261)
Correct for Detector Non-linearity: No (USB2+H05261)
Correct for Stray Light: No (USB2+H05261)
Number of Pixels in Processed Spectrum: 2048
>>>>>Begin Processed Spectral Data<<<<<
365.73	0.00
365.92	0.00
366.12	0.00
366.32	0.00
366.52	0.00
366.72	0.00
366.91	0.00
367.11	0.00
367.31	0.00
367.51	0.00
367.70	0.00
367.90	0.00
368.10	0.00
368.30	0.00
368.49	0.00
368.69	0.00
368.89	0.00
369.09	0.00
369.28	0.00
369.48	0.00
369.68	0.00
369.87	0.00
370.07	0.00
370.27	0.00
370.47	0.00
370.66	0.00
370.86	16.38
371.06	0.00
371.25	14.04
371.45	0.00
371.65	0.00
371.84	0.00
372.04	0.00
372.24	9.36
372.44	35.11
372.63	0.00
372.83	16.38
373.03	0.00
373.22	0.00
373.42	0.00
373.62	0.00
373.81	0.00
374.01	0.00
374.21	0.00
374.40	0.00
374.60	0.00
374.79	117.03
374.99	84.26
375.19	30.43
375.38	86.60
375.58	56.17
375.78	100.64
375.97	46.81
376.17	60.85
376.37	74.90
376.56	86.60
376.76	159.16
376.95	93.62
377.15	198.95
377.35	238.73
377.54	142.77
377.74	196.60
377.93	184.90
378.13	156.82
378.33	128.73
378.52	203.63
378.72	119.37
378.91	93.62
379.11	166.18
379.31	110.01
379.50	91.28
379.70	65.54
379.89	203.63
380.09	234.05
380.28	196.60
380.48	145.11
380.68	163.84
380.87	156.82
381.07	102.98
381.26	88.94
381.46	72.56
381.65	44.47
381.85	30.43
382.04	128.73
382.24	0.00
382.43	0.00
382.63	28.09
382.83	0.00
383.02	42.13
383.22	35.11
383.41	77.24
383.61	14.04
383.80	88.94
384.00	72.56
384.19	243.42
384.39	173.20
384.58	234.05
384.78	215.33
384.97	149.79
385.17	149.79
385.36	124.05
385.56	114.69
385.75	135.75
385.95	194.26
386.14	198.95
386.34	220.01
386.53	168.52
386.72	250.44
386.92	229.37
387.11	175.54
387.31	273.84
387.50	145.11
387.70	159.16
387.89	189.58
388.09	180.22
388.28	201.29
388.48	177.88
388.67	166.18
388.86	318.31
389.06	257.46
389.25	330.02
389.45	264.48
389.64	393.21
389.84	283.20
390.03	269.16
390.22	318.31
390.42	341.72
390.61	395.55
390.81	407.25
391.00	388.53
391.19	386.19
391.39	315.97
391.58	315.97
391.78	311.29
391.97	290.23
392.16	315.97
392.36	189.58
392.55	161.50
392.75	25.75
392.94	0.00
393.13	4.68
393.33	18.72
393.52	133.41
393.71	236.39
393.91	297.25
394.10	299.59
394.29	369.80
394.49	393.21
394.68	435.34
394.88	325.33
395.07	449.38
395.26	547.69
395.46	454.06
395.65	362.78
395.84	318.31
396.04	175.54
396.23	159.16
396.42	49.15
396.62	37.45
396.81	124.05
397.00	245.76
397.19	395.55
397.39	477.47
397.58	512.58
397.77	589.82
397.97	622.58
398.16	603.86
398.35	657.69
398.55	690.46
398.74	671.73
398.93	737.27
399.12	709.18
399.32	737.27
399.51	777.06
399.70	779.40
399.90	683.44
400.09	842.59
400.28	718.54
400.47	725.57
400.67	816.85
400.86	748.97
401.05	772.38
401.24	814.51
401.44	821.53
401.63	847.27
401.82	873.02
402.01	840.25
402.21	896.43
402.40	952.60
402.59	812.17
402.78	819.19
402.97	779.40
403.17	814.51
403.36	866.00
403.55	954.94
403.74	926.85
403.93	877.70
404.13	739.61
404.32	713.86
404.51	847.27
404.70	891.74
404.89	901.11
405.09	774.72
405.28	767.70
405.47	798.12
405.66	819.19
405.85	777.06
406.05	835.57
406.24	770.04
406.43	851.96
406.62	847.27
406.81	922.17
407.00	814.51
407.20	840.25
407.39	819.19
407.58	828.55
407.77	992.39
407.96	1027.50
408.15	950.26
408.34	1046.22
408.54	1025.15
408.73	931.53
408.92	983.02
409.11	919.83
409.30	805.14
409.49	730.25
409.68	727.91
409.87	683.44
410.07	788.76
410.26	919.83
410.45	933.87
410.64	952.60
410.83	980.68
411.02	990.05
411.21	1107.07
411.40	1064.94
411.59	950.26
411.78	1008.77
411.98	992.39
412.17	1076.65
412.36	1114.10
412.55	987.71
412.74	1004.09
412.93	1001.75
413.12	1076.65
413.31	1078.99
413.50	1114.10
413.69	1156.22
413.88	976.00
414.07	1036.86
414.26	1008.77
414.45	1160.91
414.64	1111.75
414.83	1043.88
415.02	1074.31
415.22	1074.31
415.41	1029.84
415.60	1217.08
415.79	1270.91
415.98	1287.29
416.17	1387.94
416.36	1198.35
416.55	1174.95
416.74	1142.18
416.93	1163.25
417.12	1111.75
417.31	1090.69
417.50	1165.59
417.69	1132.82
417.88	1160.91
418.07	1153.88
418.26	1109.41
418.45	1149.20
418.64	1181.97
418.83	1240.48
419.02	1261.55
419.21	1357.51
419.39	1228.78
419.58	1086.01
419.77	992.39
419.96	1104.73
420.15	1181.97
420.34	1224.10
420.53	1301.34
420.72	1313.04
420.91	1306.02
421.10	1299.00
421.29	1266.23
421.48	1291.98
421.67	1320.06
421.86	1228.78
422.05	1184.31
422.24	978.34
422.43	1111.75
422.61	1004.09
422.80	1273.25
422.99	1277.93
423.18	1247.51
423.37	1137.50
423.56	1153.88
423.75	1188.99
423.94	1334.11
424.13	1163.25
424.32	1214.74
424.50	1186.65
424.69	1231.12
424.88	1172.61
425.07	1125.80
425.26	1196.01
425.45	1100.05
425.64	1121.12
425.83	1146.86
426.01	1252.19
426.20	1196.01
426.39	1233.46
426.58	1053.24
426.77	1022.81
426.96	961.96
427.15	1027.50
427.33	1041.54
427.52	1200.69
427.71	1146.86
427.90	1123.46
428.09	1123.46
428.28	1050.90
428.46	1083.67
428.65	1093.03
428.84	1081.33
429.03	1165.59
429.22	978.34
429.40	983.02
429.59	868.34
429.78	667.05
429.97	695.14
430.16	793.44
430.34	805.14
430.53	709.18
430.72	793.44
430.91	812.17
431.10	1015.79
431.28	1198.35
431.47	1500.28
431.66	1465.18
431.85	1310.70
432.03	1135.16
432.22	1090.69
432.41	1186.65
432.60	1313.04
432.79	1345.81
432.97	1406.66
433.16	1341.13
433.35	1146.86
433.54	1100.05
433.72	1020.47
433.91	1121.12
434.10	1130.48
434.28	1322.40
434.47	1420.71
434.66	1254.53
434.85	1313.04
435.03	1313.04
435.22	1324.74
435.41	1380.92
435.59	1533.05
435.78	1451.13
435.97	1458.15
436.16	1476.88
436.34	1416.02
436.53	1460.49
436.72	1390.28
436.90	1320.06
437.09	1256.87
437.28	1266.23
437.46	1350.49
437.65	1380.92
437.84	1252.19
438.02	1191.33
438.21	1153.88
438.40	1179.63
438.58	1369.21
438.77	1437.09
438.96	1327.08
439.14	1364.53
439.33	1437.09
439.52	1448.79
439.70	1437.09
439.89	1362.19
440.08	1306.02
440.26	1315.38
440.45	1441.77
440.63	1535.39
440.82	1636.03
441.01	1643.06
441.19	1535.39
441.38	1657.10
441.57	1572.84
441.75	1661.78
441.94	1717.95
442.12	1612.63
442.31	1710.93
442.50	1661.78
442.68	1755.40
442.87	1610.29
443.05	1610.29
443.24	1659.44
443.43	1774.13
443.61	1839.66
443.80	1851.36
443.98	1638.38
444.17	1673.48
444.35	1706.25
444.54	1699.23
444.73	1689.87
444.91	1687.53
445.10	1633.69
445.28	1502.62
445.47	1504.96
445.65	1516.67
445.84	1455.81
446.02	1640.72
446.21	1533.05
446.39	1614.97
446.58	1692.21
446.77	1781.15
446.95	1727.32
447.14	1769.44
447.32	1774.13
447.51	1776.47
447.69	1563.48
447.88	1551.78
448.06	1673.48
448.25	1746.04
448.43	1706.25
448.62	1727.32
448.80	1668.80
448.99	1739.02
449.17	1778.81
449.36	1776.47
449.54	1930.94
449.73	1753.06
449.91	1755.40
450.10	1729.66
450.28	1947.33
450.46	1877.11
450.65	1930.94
450.83	1792.85
451.02	1923.92
451.20	1778.81
451.39	1898.17
451.57	1799.87
451.76	1942.64
451.94	1853.70
452.13	1895.83
452.31	1659.44
452.49	1549.43
452.68	1614.97
452.86	1561.14
453.05	1699.23
453.23	1797.53
453.42	1689.87
453.60	1942.64
453.78	1816.26
453.97	1792.85
454.15	1783.49
454.34	1659.44
454.52	1701.57
454.70	1661.78
454.89	1764.76
455.07	1795.19
455.26	1748.38
455.44	1736.68
455.62	1891.15
455.81	1802.21
455.99	1778.81
456.17	1781.15
456.36	1771.79
456.54	1893.49
456.73	1907.54
456.91	1820.94
457.09	2015.20
457.28	2113.50
457.46	1865.41
457.64	2052.65
457.83	1874.77
458.01	1760.08
458.19	1842.00
458.38	1781.15
458.56	1982.43
458.74	1912.22
458.93	1905.20
459.11	1778.81
459.29	1795.19
459.48	1844.34
459.66	1849.02
459.84	1879.45
460.03	1926.26
460.21	1795.19
460.39	1804.55
460.57	1856.04
460.76	1956.69
460.94	1966.05
461.12	1944.99
461.31	1909.88
461.49	1937.96
461.67	1905.20
461.85	1956.69
462.04	1898.17
462.22	2017.54
462.40	1900.52
462.59	1961.37
462.77	2064.35
462.95	1961.37
463.13	1888.81
463.32	2036.27
463.50	1881.79
463.68	1916.90
463.86	1860.73
464.05	1837.32
464.23	1825.62
464.41	1755.40
464.59	1874.77
464.78	1867.75
464.96	1832.64
465.14	1884.13
465.32	1907.54
465.50	1884.13
465.69	1914.56
465.87	1968.39
466.05	1942.64
466.23	1926.26
466.41	1736.68
466.60	1750.72
466.78	1771.79
466.96	1865.41
467.14	1856.04
467.32	1893.49
467.51	1820.94
467.69	1802.21
467.87	1949.67
468.05	1877.11
468.23	1977.75
468.41	1832.64
468.60	1961.37
468.78	1952.01
468.96	1764.76
469.14	1952.01
469.32	1916.90
469.50	1853.70
469.69	1858.39
469.87	1879.45
470.05	1746.04
470.23	1776.47
470.41	1874.77
470.59	1834.98
470.77	1825.62
470.95	1853.70
471.14	1916.90
471.32	1942.64
471.50	2064.35
471.68	2139.25
471.86	1980.09
472.04	2106.48
472.22	2040.95
472.40	1998.82
472.58	1839.66
472.77	1935.62
472.95	2001.16
473.13	2104.14
473.31	1947.33
473.49	1966.05
473.67	2043.29
473.85	1909.88
474.03	2092.44
474.21	2054.99
474.39	2071.37
474.57	2228.19
474.75	2092.44
474.93	2052.65
475.12	1998.82
475.30	2083.08
475.48	2008.18
475.66	2015.20
475.84	2040.95
476.02	2080.74
476.20	1935.62
476.38	2104.14
476.56	2129.89
476.74	2225.85
476.92	2125.21
477.10	2162.66
477.28	2310.11
477.46	2275.00
477.64	2289.04
477.82	2253.94
478.00	2366.28
478.18	2204.78
478.36	2228.19
478.54	2244.57
478.72	2263.30
478.90	2291.38
479.08	2492.67
479.26	2443.52
479.44	2443.52
479.62	2387.35
479.80	2356.92
479.98	2487.99
480.16	2495.01
480.34	2359.26
480.52	2370.96
480.70	2574.59
480.88	2434.16
481.06	2443.52
481.24	2605.02
481.41	2562.89
481.59	2509.05
481.77	2581.61
481.95	2548.84
482.13	2504.37
482.31	2630.76
482.49	2628.42
482.67	2459.90
482.85	2616.72
483.03	2635.44
483.21	2738.43
483.39	2654.17
483.57	2495.01
483.74	2499.69
483.92	2593.31
484.10	2560.55
484.28	2693.96
484.46	2553.52
484.64	2778.22
484.82	2546.50
485.00	2612.04
485.18	2647.15
485.35	2497.35
485.53	2202.44
485.71	2155.63
485.89	2059.67
486.07	2141.59
486.25	2289.04
486.43	2436.50
486.61	2600.34
486.78	2614.38
486.96	2628.42
487.14	2628.42
487.32	2761.83
487.50	2656.51
487.68	2958.44
487.85	2939.71
488.03	3009.93
488.21	2829.71
488.39	2761.83
488.57	2813.32
488.75	2710.34
488.92	2843.75
489.10	2967.80
489.28	3171.43
489.46	3206.53
489.64	3279.09
489.81	3173.77
489.99	3208.87
490.17	3251.00
490.35	3300.16
490.53	3159.72
490.70	3126.96
490.88	3087.17
491.06	3211.22
491.24	3251.00
491.41	3119.93
491.59	2942.05
491.77	2902.26
491.95	2963.12
492.13	3098.87
492.30	3248.66
492.48	3192.49
492.66	3300.16
492.84	3447.61
493.01	3211.22
493.19	3445.27
493.37	3361.01
493.54	3276.75
493.72	3215.90
493.90	3440.59
494.08	3541.23
494.25	3681.66
494.43	3440.59
494.61	3529.53
494.79	3728.47
494.96	3466.33
495.14	3585.70
495.32	3302.50
495.49	3267.39
495.67	3454.63
495.85	3590.38
496.02	3602.08
496.20	3702.73
496.38	3599.74
496.55	3520.17
496.73	3588.04
496.91	3569.32
497.09	3705.07
497.26	3833.80
497.44	3602.08
497.62	3726.13
497.79	3536.55
497.97	3321.22
498.14	3403.14
498.32	3438.25
498.50	3772.94
498.67	3831.46
498.85	3623.15
499.03	3658.26
499.20	3702.73
499.38	3861.88
499.56	3658.26
499.73	3618.47
499.91	3590.38
500.08	3459.31
500.26	3499.10
500.44	3508.46
500.61	3548.25
500.79	3630.17
500.97	3592.72
501.14	3503.78
501.32	3494.42
501.49	3358.67
501.67	3543.57
501.84	3639.53
502.02	3557.61
502.20	3709.75
502.37	3667.62
502.55	3574.00
502.72	3728.47
502.90	3824.44
503.07	3688.68
503.25	3714.43
503.43	3581.02
503.60	3435.91
503.78	3407.82
503.95	3494.42
504.13	3693.37
504.30	3934.44
504.48	3632.51
504.65	3679.32
504.83	3599.74
505.01	3693.37
505.18	3845.50
505.36	3950.82
505.53	3847.84
505.71	3936.78
505.88	3971.89
506.06	3719.11
506.23	3962.53
506.41	3801.03
506.58	3702.73
506.76	3786.99
506.93	3866.56
507.11	3822.09
507.28	3777.62
507.46	3655.92
507.63	3721.45
507.81	3623.15
507.98	3726.13
508.16	3658.26
508.33	3630.17
508.50	3765.92
508.68	3803.37
508.85	3974.23
509.03	3922.74
509.20	3929.76
509.38	3756.56
509.55	3906.35
509.73	3660.60
509.90	3597.40
510.08	3786.99
510.25	3756.56
510.42	3798.69
510.60	3782.31
510.77	3850.18
510.95	3950.82
511.12	3939.12
511.30	3990.61
511.47	4014.02
511.64	3967.21
511.82	4044.45
511.99	3843.16
512.17	3691.02
512.34	3676.98
512.51	3751.88
512.69	3723.79
512.86	3644.21
513.04	3805.71
513.21	3679.32
513.38	3721.45
513.56	3707.41
513.73	3522.51
513.90	3637.19
514.08	3714.43
514.25	3826.78
514.43	3726.13
514.60	3543.57
514.77	3786.99
514.95	3847.84
515.12	3819.75
515.29	3833.80
515.47	3829.12
515.64	3969.55
515.81	3885.29
515.99	3702.73
516.16	3456.97
516.33	3173.77
516.51	3166.74
516.68	2951.42
516.85	2850.77
517.03	3087.17
517.20	3323.56
517.37	3613.79
517.54	3686.34
517.72	3667.62
517.89	3368.03
518.06	3038.02
518.24	3080.14
518.41	3335.26
518.58	3456.97
518.75	3541.23
518.93	3538.89
519.10	3602.08
519.27	3735.50
519.45	3627.83
519.62	3702.73
519.79	3728.47
519.96	3585.70
520.14	3648.90
520.31	3592.72
520.48	3625.49
520.65	3653.58
520.83	3826.78
521.00	3779.97
521.17	3817.41
521.34	3782.31
521.52	3679.32
521.69	3925.08
521.86	3836.14
522.03	3885.29
522.20	3604.42
522.38	3555.27
522.55	3529.53
522.72	3747.20
522.89	3669.96
523.07	3578.68
523.24	3801.03
523.41	3871.25
523.58	3955.51
523.75	4058.49
523.92	3894.65
524.10	3960.19
524.27	3826.78
524.44	3941.46
524.61	3871.25
524.78	3953.16
524.96	3789.33
525.13	3815.07
525.30	3833.80
525.47	3871.25
525.64	3988.27
525.81	3866.56
525.98	3667.62
526.16	3449.95
526.33	3386.76
526.50	3339.94
526.67	3269.73
526.84	3222.92
527.01	3447.61
527.18	3534.21
527.36	3684.00
527.53	3786.99
527.70	3758.90
527.87	3698.05
528.04	3737.84
528.21	3740.18
528.38	3941.46
528.55	3915.72
528.72	3999.98
528.89	3974.23
529.07	3880.61
529.24	3925.08
529.41	3880.61
529.58	3765.92
529.75	3688.68
529.92	3803.37
530.09	3861.88
530.26	3934.44
530.43	3892.31
530.60	3911.04
530.77	3990.61
530.94	3871.25
531.11	3918.06
531.28	3733.15
531.46	3882.95
531.63	3801.03
531.80	3805.71
531.97	3859.54
532.14	3606.77
532.31	3515.48
532.48	3513.14
532.65	3447.61
532.82	3707.41
532.99	3810.39
533.16	3669.96
533.33	3812.73
533.50	3791.67
533.67	3602.08
533.84	3723.79
534.01	3627.83
534.18	3658.26
534.35	3719.11
534.52	3646.55
534.69	3744.86
534.86	3831.46
535.03	3768.26
535.20	3887.63
535.37	3953.16
535.54	3906.35
535.71	3854.86
535.88	3911.04
536.05	3763.58
536.22	3754.22
536.38	3688.68
536.55	3597.40
536.72	3515.48
536.89	3513.14
537.06	3637.19
537.23	3779.97
537.40	3660.60
537.57	3775.28
537.74	3693.37
537.91	3833.80
538.08	3705.07
538.25	3672.30
538.42	3786.99
538.59	3618.47
538.75	3620.81
538.92	3620.81
539.09	3597.40
539.26	3487.40
539.43	3515.48
539.60	3510.80
539.77	3590.38
539.94	3632.51
540.11	3435.91
540.28	3435.91
540.44	3311.86
540.61	3370.37
540.78	3335.26
540.95	3503.78
541.12	3583.36
541.29	3613.79
541.46	3716.77
541.62	3702.73
541.79	3655.92
541.96	3529.53
542.13	3494.42
542.30	3520.17
542.47	3545.91
542.63	3534.21
542.80	3520.17
542.97	3606.77
543.14	3552.93
543.31	3475.70
543.48	3585.70
543.64	3618.47
543.81	3803.37
543.98	3836.14
544.15	3531.87
544.32	3623.15
544.48	3485.06
544.65	3672.30
544.82	3763.58
544.99	3688.68
545.16	3630.17
545.32	3541.23
545.49	3499.10
545.66	3702.73
545.83	3728.47
546.00	3599.74
546.16	3637.19
546.33	3538.89
546.50	3559.95
546.67	3459.31
546.83	3503.78
547.00	3566.98
547.17	3435.91
547.34	3297.81
547.50	3494.42
547.67	3426.54
547.84	3478.04
548.00	3468.67
548.17	3674.64
548.34	3613.79
548.51	3562.30
548.67	3595.06
548.84	3543.57
549.01	3524.85
549.18	3585.70
549.34	3667.62
549.51	3620.81
549.68	3571.66
549.84	3552.93
550.01	3508.46
550.18	3382.07
550.34	3463.99
550.51	3440.59
550.68	3375.05
550.84	3503.78
551.01	3335.26
551.18	3351.65
551.34	3538.89
551.51	3475.70
551.68	3405.48
551.84	3452.29
552.01	3566.98
552.18	3524.85
552.34	3363.35
552.51	3185.47
552.68	3272.07
552.84	3391.44
553.01	3339.94
553.18	3337.60
553.34	3475.70
553.51	3396.12
553.67	3585.70
553.84	3361.01
554.01	3548.25
554.17	3426.54
554.34	3403.14
554.51	3566.98
554.67	3445.27
554.84	3419.52
555.00	3538.89
555.17	3445.27
555.33	3403.14
555.50	3438.25
555.67	3527.19
555.83	3410.16
556.00	3251.00
556.16	3290.79
556.33	3295.47
556.50	3220.58
556.66	3082.49
556.83	3248.66
556.99	3171.43
557.16	3213.56
557.32	3286.11
557.49	3265.05
557.65	3236.96
557.82	3199.51
557.98	3318.88
558.15	3274.41
558.32	3063.76
558.48	3061.42
558.65	2988.86
558.81	3157.38
558.98	3187.81
559.14	3199.51
559.31	3155.04
559.47	3152.70
559.64	3129.30
559.80	2951.42
559.97	3103.55
560.13	3000.57
560.30	3124.62
560.46	3438.25
560.63	3236.96
560.79	3349.31
560.96	3272.07
561.12	3178.45
561.29	2939.71
561.45	3061.42
561.61	3056.74
561.78	3178.45
561.94	3138.66
562.11	3012.27
562.27	3150.36
562.44	3176.11
562.60	3290.79
562.77	3279.09
562.93	3365.69
563.10	3178.45
563.26	3185.47
563.42	3021.63
563.59	3122.27
563.75	3169.09
563.92	3138.66
564.08	3131.64
564.24	3131.64
564.41	3016.95
564.57	3091.85
564.74	3063.76
564.90	3028.65
565.07	3080.14
565.23	3070.78
565.39	2974.82
565.56	2860.13
565.72	2867.16
565.88	2939.71
566.05	2928.01
566.21	2892.90
566.38	3066.10
566.54	3035.67
566.70	3063.76
566.87	3030.99
567.03	3094.19
567.19	3124.62
567.36	3059.08
567.52	3096.53
567.68	3089.51
567.85	2935.03
568.01	2906.95
568.17	2988.86
568.34	2848.43
568.50	2937.37
568.66	2794.60
568.83	2988.86
568.99	2897.58
569.15	2979.50
569.32	2911.63
569.48	2799.28
569.64	2913.97
569.81	2904.60
569.97	2860.13
570.13	2839.07
570.30	2853.11
570.46	2782.90
570.62	2663.53
570.78	2745.45
570.95	2808.64
571.11	2825.03
571.27	2677.57
571.43	2761.83
571.60	2832.05
571.76	2857.79
571.92	2757.15
572.09	2974.82
572.25	2881.20
572.41	2923.33
572.57	2981.84
572.74	2850.77
572.90	2902.26
573.06	2836.73
573.22	2843.75
573.38	2834.39
573.55	2965.46
573.71	3014.61
573.87	2846.09
574.03	2810.98
574.20	2738.43
574.36	2792.26
574.52	2939.71
574.68	2637.78
574.84	2750.13
575.01	2672.89
575.17	2761.83
575.33	2717.36
575.49	2710.34
575.65	2703.32
575.82	2726.72
575.98	2789.92
576.14	2619.06
576.30	2640.12
576.46	2818.00
576.62	2787.58
576.79	2829.71
576.95	2705.66
577.11	2686.94
577.27	2729.06
577.43	2708.00
577.59	2733.75
577.75	2623.74
577.92	2579.27
578.08	2544.16
578.24	2649.49
578.40	2593.31
578.56	2677.57
578.72	2656.51
578.88	2647.15
579.04	2715.02
579.21	2708.00
579.37	2654.17
579.53	2677.57
579.69	2597.99
579.85	2530.12
580.01	2693.96
580.17	2562.89
580.33	2719.70
580.49	2628.42
580.65	2672.89
580.82	2637.78
580.98	2768.85
581.14	2722.04
581.30	2647.15
581.46	2658.85
581.62	2572.25
581.78	2700.98
581.94	2693.96
582.10	2649.49
582.26	2642.46
582.42	2731.41
582.58	2654.17
582.74	2682.25
582.90	2668.21
583.06	2712.68
583.22	2675.23
583.38	2757.15
583.54	2600.34
583.70	2621.40
583.86	2651.83
584.02	2562.89
584.18	2635.44
584.34	2605.02
584.50	2628.42
584.66	2579.27
584.82	2640.12
584.98	2619.06
585.14	2509.05
585.30	2464.58
585.46	2487.99
585.62	2469.27
585.78	2417.77
585.94	2422.45
586.10	2588.63
586.26	2532.46
586.42	2621.40
586.58	2675.23
586.74	2546.50
586.90	2445.86
587.06	2525.44
587.22	2637.78
587.38	2490.33
587.54	2616.72
587.70	2403.73
587.86	2424.80
588.02	2499.69
588.18	2368.62
588.34	2359.26
588.49	2146.27
588.65	2069.03
588.81	2080.74
588.97	2141.59
589.13	2033.93
589.29	2069.03
589.45	2127.55
589.61	2181.38
589.77	2260.96
589.93	2195.42
590.08	2338.20
590.24	2349.90
590.40	2354.58
590.56	2370.96
590.72	2495.01
590.88	2293.72
591.04	2282.02
591.20	2230.53
591.35	2427.14
591.51	2265.64
591.67	2263.30
591.83	2333.51
591.99	2282.02
592.15	2370.96
592.31	2420.11
592.46	2363.94
592.62	2296.07
592.78	2272.66
592.94	2415.43
593.10	2317.13
593.26	2282.02
593.41	2387.35
593.57	2225.85
593.73	2239.89
593.89	2200.10
594.05	2321.81
594.20	2230.53
594.36	2167.34
594.52	2244.57
594.68	2106.48
594.84	2195.42
594.99	2204.78
595.15	2237.55
595.31	2296.07
595.47	2143.93
595.62	2321.81
595.78	2286.70
595.94	2181.38
596.10	2197.76
596.25	2242.23
596.41	2277.34
596.57	2277.34
596.73	2188.40
596.88	2225.85
597.04	2349.90
597.20	2183.72
597.36	2338.20
597.51	2251.60
597.67	2305.43
597.83	2235.21
597.99	2129.89
598.14	2253.94
598.30	2174.36
598.46	2069.03
598.61	2197.76
598.77	2267.98
598.93	2256.28
599.09	2232.87
599.24	2225.85
599.40	2218.83
599.56	2113.50
