SpectraSuite Data File
++++++++++++++++++++++++++++++++++++
Date: Mon Oct 07 14:54:02 GMT-05:00 2013
User: price-jones
Dark Spectrum Present: No
Reference Spectrum Present: No
Number of Sampled Component Spectra: 1
Spectrometers: USB2+H05261
Integration Time (usec): 100000 (USB2+H05261)
Spectra Averaged: 1 (USB2+H05261)
Boxcar Smoothing: 0 (USB2+H05261)
Correct for Electrical Dark: No (USB2+H05261)
Strobe/Lamp Enabled: No (USB2+H05261)
Correct for Detector Non-linearity: No (USB2+H05261)
Correct for Stray Light: No (USB2+H05261)
Number of Pixels in Processed Spectrum: 2048
>>>>>Begin Processed Spectral Data<<<<<
365.73	0.00
365.92	0.00
366.12	0.00
366.32	0.00
366.52	0.00
366.72	0.00
366.91	0.00
367.11	0.00
367.31	0.00
367.51	0.00
367.70	0.00
367.90	0.00
368.10	0.00
368.30	0.00
368.49	0.00
368.69	0.00
368.89	0.00
369.09	0.00
369.28	0.00
369.48	0.00
369.68	0.00
369.87	0.00
370.07	0.00
370.27	0.00
370.47	676.41
370.66	3424.20
370.86	4009.34
371.06	4294.88
371.25	4332.33
371.45	3978.91
371.65	3578.68
371.84	3335.26
372.04	3538.89
372.24	3894.65
372.44	4276.16
372.63	4063.17
372.83	3775.28
373.03	3361.01
373.22	3169.09
373.42	3185.47
373.62	3616.13
373.81	4070.19
374.01	4086.58
374.21	3726.13
374.40	3485.06
374.60	3506.12
374.79	4051.47
374.99	4507.87
375.19	5022.79
375.38	4896.40
375.58	4629.58
375.78	4610.86
375.97	4678.73
376.17	4975.98
376.37	4807.46
376.56	4990.02
376.76	5359.83
376.95	5598.56
377.15	5930.92
377.35	5961.34
377.54	6408.39
377.74	6658.82
377.93	6710.32
378.13	6438.81
378.33	6186.04
378.52	5755.38
378.72	5474.51
378.91	5252.16
379.11	5226.42
379.31	5039.17
379.50	5018.11
379.70	5277.91
379.89	5984.75
380.09	6424.77
380.28	6581.59
380.48	6438.81
380.68	6356.90
380.87	6115.82
381.07	5743.67
381.26	5188.97
381.46	4971.30
381.65	4800.44
381.85	4802.78
382.04	4500.85
382.24	4257.43
382.43	3929.76
382.63	3733.15
382.83	3896.99
383.02	3758.90
383.22	4088.92
383.41	3901.67
383.61	4243.39
383.80	4898.74
384.00	5516.64
384.19	6106.46
384.39	6436.47
384.58	6466.90
384.78	6190.72
384.97	6286.68
385.17	6061.99
385.36	5596.22
385.56	5490.90
385.75	5575.16
385.95	6061.99
386.14	6553.50
386.34	6494.99
386.53	6289.02
386.72	5977.73
386.92	6036.24
387.11	6270.30
387.31	6445.84
387.50	6289.02
387.70	6148.59
387.89	6244.55
388.09	6279.66
388.28	6207.10
388.48	6314.77
388.67	6878.83
388.86	7461.63
389.06	7911.01
389.25	8428.27
389.45	8351.03
389.64	8517.21
389.84	8578.06
390.03	8318.26
390.22	8250.39
390.42	8477.42
390.61	9245.12
390.81	9633.64
391.00	10094.73
391.19	9795.14
391.39	9549.39
391.58	9144.47
391.78	8325.29
391.97	8189.53
392.16	7496.74
392.36	6932.67
392.55	5675.80
392.75	4376.80
392.94	3604.42
393.13	3468.67
393.33	4152.11
393.52	5479.19
393.71	6679.89
393.91	7412.48
394.10	8102.93
394.29	8844.88
394.49	9404.27
394.68	10359.21
394.88	10242.18
395.07	10623.69
395.26	10581.56
395.46	10204.74
395.65	9820.89
395.84	8507.85
396.04	7019.27
396.23	5762.40
396.42	4842.57
396.62	4746.61
396.81	5394.93
397.00	6913.94
397.19	8587.43
397.39	10356.87
397.58	11700.34
397.77	12397.82
397.97	12926.78
398.16	12996.99
398.35	13563.40
398.55	13900.44
398.74	14387.27
398.93	14956.02
399.12	14572.18
399.32	13930.87
399.51	14370.89
399.70	15384.34
399.90	15232.21
400.09	15133.90
400.28	14923.26
400.47	14956.02
400.67	15569.24
400.86	16423.54
401.05	15999.90
401.24	16203.53
401.44	16449.28
401.63	16353.32
401.82	16383.75
402.01	16510.14
402.21	16699.72
402.40	16964.20
402.59	16500.78
402.78	15447.54
402.97	15293.06
403.17	15667.55
403.36	16856.54
403.55	17486.14
403.74	17799.77
403.93	16868.24
404.13	15798.62
404.32	15351.57
404.51	15999.90
404.70	17324.65
404.89	17111.66
405.09	16734.83
405.28	16486.73
405.47	16189.49
405.66	16306.51
405.85	15866.49
406.05	15562.22
406.24	15641.80
406.43	16329.92
406.62	16987.61
406.81	16774.62
407.00	16343.96
407.20	15988.20
407.39	16386.09
407.58	16723.13
407.77	17717.86
407.96	18239.79
408.15	18150.85
408.34	18487.89
408.54	19176.01
408.73	19304.74
408.92	19145.58
409.11	18750.03
409.30	17734.24
409.49	16547.59
409.68	15515.41
409.87	14843.68
410.07	15903.94
410.26	17326.99
410.45	18408.31
410.64	18754.71
410.83	19183.03
411.02	19899.23
411.21	20355.64
411.40	20154.35
411.59	20084.14
411.78	20299.47
411.98	20205.84
412.17	20292.44
412.36	19716.67
412.55	19894.55
412.74	19587.94
412.93	18810.89
413.12	19204.10
413.31	20776.94
413.50	21064.82
413.69	21788.05
413.88	20973.54
414.07	20526.50
414.26	20276.06
414.45	21116.31
414.64	21195.89
414.83	21352.71
415.02	20964.18
415.22	20940.77
415.41	21486.12
415.60	22064.23
415.79	22995.76
415.98	23419.40
416.17	23630.05
416.36	22710.22
416.55	22457.44
416.74	21401.86
416.93	20966.52
417.12	20952.48
417.31	21284.83
417.50	21827.84
417.69	22419.99
417.88	22122.74
418.07	22094.66
418.26	21736.56
418.45	21778.68
418.64	22628.30
418.83	23726.01
419.02	22951.29
419.21	23414.72
419.39	22157.85
419.58	21055.46
419.77	21214.62
419.96	21855.92
420.15	23349.18
420.34	24121.56
420.53	24601.37
420.72	25235.66
420.91	24720.74
421.10	24444.56
421.29	24577.97
421.48	23498.98
421.67	24896.28
421.86	24381.36
422.05	22464.46
422.24	20067.75
422.43	19864.13
422.61	21799.75
422.80	23960.06
422.99	23721.33
423.18	23009.81
423.37	22333.39
423.56	22593.19
423.75	22831.93
423.94	23550.47
424.13	22176.58
424.32	22150.83
424.50	22228.07
424.69	22097.00
424.88	22216.36
425.07	21949.54
425.26	22125.08
425.45	21713.15
425.64	21291.85
425.83	21467.39
426.01	22394.25
426.20	23220.45
426.39	23047.26
426.58	21804.43
426.77	19779.87
426.96	19028.56
427.15	19948.39
427.33	21448.67
427.52	22085.30
427.71	22661.07
427.90	22082.95
428.09	21905.07
428.28	21404.20
428.46	20989.92
428.65	20365.00
428.84	20975.88
429.03	21635.91
429.22	20135.63
429.40	18941.96
429.59	17233.36
429.78	15159.65
429.97	15447.54
430.16	15211.14
430.34	15510.73
430.53	15431.15
430.72	15847.77
430.91	17666.36
431.10	20610.76
431.28	24273.70
431.47	26443.37
431.66	26452.73
431.85	24444.56
432.03	22771.07
432.22	21132.70
432.41	22153.17
432.60	24767.55
432.79	25525.88
432.97	26331.03
433.16	25467.37
433.35	23428.76
433.54	21085.89
433.72	19955.41
433.91	20414.15
434.10	22941.93
434.28	24456.26
434.47	25694.40
434.66	25188.85
434.85	24507.75
435.03	24524.13
435.22	25179.48
435.41	26532.31
435.59	26796.79
435.78	26724.24
435.97	27524.70
436.16	28013.87
436.34	27749.39
436.53	26672.74
436.72	26806.16
436.90	25612.48
437.09	25357.36
437.28	25095.22
437.46	25731.85
437.65	25617.16
437.84	24231.57
438.02	22017.42
438.21	21926.14
438.40	22953.63
438.58	25003.94
438.77	25734.19
438.96	25790.36
439.14	26951.27
439.33	27653.43
439.52	28362.61
439.70	27791.52
439.89	26829.56
440.08	26085.27
440.26	26024.42
440.45	27466.19
440.63	28795.61
440.82	30295.89
441.01	29834.81
441.19	29333.93
441.38	29993.97
441.57	31154.87
441.75	31299.98
441.94	31243.81
442.12	31590.21
442.31	31807.88
442.50	31772.77
442.68	31625.32
442.87	31178.28
443.05	30539.31
443.24	31318.71
443.43	31613.62
443.61	32524.08
443.80	32755.80
443.98	30859.96
444.17	30857.62
444.35	32842.40
444.54	33109.22
444.73	33003.89
444.91	31452.12
445.10	30115.67
445.28	28978.17
445.47	28568.58
445.65	28472.62
445.84	29696.72
446.02	31115.08
446.21	31105.72
446.39	31077.63
446.58	31255.51
446.77	31969.38
446.95	32121.51
447.14	33041.34
447.32	33441.57
447.51	33043.68
447.69	31854.69
447.88	31094.02
448.06	31651.06
448.25	32318.12
448.43	32823.67
448.62	31632.34
448.80	31805.54
448.99	32439.82
449.17	32404.72
449.36	32416.42
449.54	33434.55
449.73	34361.40
449.91	34464.39
450.10	35704.87
450.28	35770.41
450.46	35564.44
450.65	35407.62
450.83	34866.96
451.02	34586.10
451.20	33937.77
451.39	34366.09
451.57	34113.31
451.76	34197.57
451.94	33823.08
452.13	33450.94
452.31	31622.98
452.49	30604.84
452.68	30878.69
452.86	31014.44
453.05	31197.00
453.23	32201.09
453.42	32636.43
453.60	33809.04
453.78	33820.74
453.97	33551.58
454.15	33221.56
454.34	32723.03
454.52	32818.99
454.70	32397.70
454.89	32814.31
455.07	33259.01
455.26	33160.71
455.44	34469.07
455.62	34916.11
455.81	35180.59
455.99	35164.21
456.17	34405.88
456.36	34686.74
456.54	35920.20
456.73	35992.76
456.91	36053.61
457.09	35938.93
457.28	37104.51
457.46	35620.61
457.64	35519.97
457.83	34270.12
458.01	33699.03
458.19	34227.99
458.38	34775.68
458.56	36130.85
458.74	35564.44
458.93	35054.20
459.11	34944.20
459.29	34649.29
459.48	34785.04
459.66	34363.75
459.84	35040.16
460.03	35367.84
460.21	35346.77
460.39	36669.17
460.57	36339.16
460.76	36800.24
460.94	36608.32
461.12	36212.77
461.31	36460.87
461.49	36404.69
461.67	36285.33
461.85	37537.51
462.04	36989.83
462.22	37902.64
462.40	37539.85
462.59	37017.91
462.77	37069.40
462.95	37584.32
463.13	36596.62
463.32	35882.75
463.50	36051.27
463.68	35777.43
463.86	36297.03
464.05	36158.94
464.23	35335.07
464.41	34747.59
464.59	33820.74
464.78	36226.81
464.96	35529.33
465.14	35622.95
465.32	36491.29
465.50	37598.37
465.69	37432.19
465.87	36861.10
466.05	35644.02
466.23	34457.37
466.41	33500.09
466.60	34197.57
466.78	34134.37
466.96	35075.27
467.14	35849.99
467.32	35831.26
467.51	36224.47
467.69	34394.17
467.87	35454.44
468.05	35756.36
468.23	35770.41
468.41	35992.76
468.60	36093.40
468.78	36142.55
468.96	35758.70
469.14	36479.59
469.32	36561.51
469.50	35440.39
469.69	35187.61
469.87	34595.46
470.05	34792.06
470.23	34759.30
470.41	34632.91
470.59	35250.81
470.77	35534.01
470.95	36245.54
471.14	36549.81
471.32	36236.17
471.50	38527.56
471.68	38834.17
471.86	39311.64
472.04	39316.32
472.22	39466.11
472.40	37401.76
472.58	37462.61
472.77	36708.96
472.95	37450.91
473.13	38466.70
473.31	37383.04
473.49	37467.30
473.67	38115.62
473.85	38249.03
474.03	39639.31
474.21	39452.07
474.39	39999.76
474.57	39739.96
474.75	39648.68
474.93	39852.30
475.12	39033.11
475.30	39192.27
475.48	39028.43
475.66	39461.43
475.84	38827.15
476.02	38796.72
476.20	38251.38
476.38	39332.70
476.56	40201.04
476.74	40849.37
476.92	41050.66
477.10	41855.80
477.28	42178.79
477.46	42808.40
477.64	42796.70
477.82	42876.27
478.00	43662.69
478.18	42485.40
478.36	42466.68
478.54	42300.50
478.72	42717.12
478.90	43803.13
479.08	44992.12
479.26	45141.91
479.44	45020.20
479.62	44863.39
479.80	44744.02
479.98	45062.33
480.16	45446.18
480.34	44561.46
480.52	45610.02
480.70	45724.71
480.88	45155.96
481.06	46270.05
481.24	46211.54
481.41	47674.37
481.59	48219.72
481.77	47751.61
481.95	47117.32
482.13	47274.14
482.31	46897.31
482.49	47922.47
482.67	47859.27
482.85	47821.83
483.03	48268.87
483.21	48636.33
483.39	49102.10
483.57	48044.18
483.74	47737.57
483.92	48051.20
484.10	48208.01
484.28	49113.80
484.46	49462.54
484.64	49977.46
484.82	48938.26
485.00	48641.01
485.18	47861.61
485.35	46625.81
485.53	43557.37
485.71	39665.06
485.89	38906.73
486.07	41083.42
486.25	44423.37
486.43	47037.75
486.61	47466.06
486.78	47271.80
486.96	47646.29
487.14	48935.92
487.32	50211.51
487.50	51049.42
487.68	51529.23
487.85	52184.58
488.03	52392.89
488.21	52105.01
488.39	51419.23
488.57	50506.42
488.75	50087.46
488.92	51239.01
489.10	53474.22
489.28	54312.13
489.46	55061.10
489.64	54899.61
489.81	55238.98
489.99	54574.27
490.17	54735.77
490.35	55348.99
490.53	54770.88
490.70	54506.40
490.88	54014.88
491.06	55215.58
491.24	55173.45
491.41	54171.70
491.59	52472.47
491.77	51664.99
491.95	53123.14
492.13	54085.10
492.30	54913.65
492.48	55945.83
492.66	56563.73
492.84	56336.69
493.01	56374.14
493.19	55821.78
493.37	55332.60
493.54	55033.02
493.72	55856.88
493.90	56919.49
494.08	57434.41
494.25	57640.37
494.43	57710.59
494.61	58190.40
494.79	58166.99
494.96	57998.48
495.14	57731.65
495.32	56474.79
495.49	55861.57
495.67	57034.17
495.85	58232.53
496.02	58489.99
496.20	58534.46
496.38	57888.47
496.55	57860.38
496.73	58412.75
496.91	58436.16
497.09	59028.31
497.26	58892.56
497.44	58698.30
497.62	58148.27
497.79	57635.69
497.97	56207.97
498.14	56245.41
498.32	57483.56
498.50	58181.04
498.67	58660.85
498.85	58794.26
499.03	58944.05
499.20	58960.44
499.38	59126.61
499.56	58754.47
499.73	58340.19
499.91	57991.45
500.08	57874.43
500.26	57090.35
500.44	57186.31
500.61	58225.51
500.79	57829.96
500.97	57553.77
501.14	57212.06
501.32	57169.93
501.49	57176.95
501.67	57378.23
501.84	58122.52
502.02	58122.52
502.20	58361.26
502.37	58635.10
502.55	58592.97
502.72	59070.44
502.90	59606.42
503.07	59341.94
503.25	58796.60
503.43	58166.99
503.60	57509.30
503.78	56886.72
503.95	57200.35
504.13	58782.55
504.30	59323.22
504.48	59189.81
504.65	58686.59
504.83	58958.09
505.01	59458.97
505.18	59735.15
505.36	60458.38
505.53	60285.18
505.71	60582.43
505.88	60587.11
506.06	59985.59
506.23	59669.62
506.41	59320.88
506.58	59620.47
506.76	59508.12
506.93	59557.27
507.11	59271.73
507.28	59311.52
507.46	58953.41
507.63	58298.06
507.81	58227.85
507.98	58410.41
508.16	59215.55
508.33	59533.87
508.50	60044.10
508.68	60252.41
508.85	60669.03
509.03	60708.82
509.20	60411.57
509.38	59796.01
509.55	59159.38
509.73	59206.19
509.90	59618.13
510.08	60067.51
510.25	59906.01
510.42	59695.36
510.60	59475.35
510.77	59936.44
510.95	60395.18
511.12	60563.70
511.30	60704.13
511.47	61017.77
511.64	60816.48
511.82	60734.56
511.99	59856.86
512.17	59451.95
512.34	59084.48
512.51	59332.58
512.69	59419.18
512.86	59620.47
513.04	59781.96
513.21	60041.76
513.38	59592.38
513.56	58979.16
513.73	58710.00
513.90	59018.95
514.08	58887.88
514.25	59201.51
514.43	59426.20
514.60	59313.86
514.77	59498.76
514.95	59639.19
515.12	59405.14
515.29	59643.87
515.47	59959.84
515.64	60432.63
515.81	60062.83
515.99	59496.42
516.16	58075.71
516.33	56072.21
516.51	54632.78
516.68	54059.35
516.85	53558.48
517.03	53691.89
517.20	56163.50
517.37	58663.19
517.54	59625.15
517.72	59135.98
517.89	57062.26
518.06	54756.83
518.24	54880.88
518.41	56959.28
518.58	58272.32
518.75	58368.28
518.93	58660.85
519.10	58536.80
519.27	58969.80
519.45	59288.11
519.62	59784.30
519.79	60074.53
519.96	60076.87
520.14	59671.96
520.31	58695.95
520.48	58515.73
520.65	59128.95
520.83	59999.63
521.00	60156.45
521.17	59945.80
521.34	59639.19
521.52	59936.44
521.69	60383.48
521.86	60851.59
522.03	60378.80
522.20	59264.70
522.38	58497.01
522.55	58277.00
522.72	59009.59
522.89	59032.99
523.07	59061.08
523.24	59571.32
523.41	60350.71
523.58	60619.88
523.75	61043.51
523.92	60739.24
524.10	60860.95
524.27	60783.71
524.44	60619.88
524.61	60313.26
524.78	60205.60
524.96	60303.90
525.13	60048.78
525.30	60491.15
525.47	60839.89
525.64	60704.13
525.81	60156.45
525.98	58756.81
526.16	57462.49
526.33	56767.35
526.50	56385.85
526.67	55985.61
526.84	56685.43
527.01	57661.44
527.18	58342.53
527.36	59175.76
527.53	60170.49
527.70	60420.93
527.87	59788.98
528.04	59465.99
528.21	59873.24
528.38	60514.55
528.55	61076.28
528.72	61179.26
528.89	61270.54
529.07	61034.15
529.24	60336.67
529.41	59856.86
529.58	59405.14
529.75	59444.93
529.92	59707.07
530.09	60119.00
530.26	60615.19
530.43	60996.70
530.60	61052.87
530.77	61137.13
530.94	61310.33
531.11	60994.36
531.28	60444.33
531.46	60331.99
531.63	60678.39
531.80	60388.16
531.97	59920.05
532.14	59285.77
532.31	58262.96
532.48	57584.20
532.65	57516.32
532.82	58429.13
532.99	59526.84
533.16	59826.43
533.33	60268.79
533.50	60245.39
533.67	59554.93
533.84	59180.45
534.01	59285.77
534.18	59524.50
534.35	59854.52
534.52	59559.61
534.69	59866.22
534.86	60273.48
535.03	60177.51
535.20	60907.76
535.37	61205.01
535.54	61279.91
535.71	61034.15
535.88	60617.53
536.05	59920.05
536.22	59597.06
536.38	59421.52
536.55	58827.02
536.72	58330.83
536.89	58129.54
537.06	59054.06
537.23	59753.88
537.40	59922.40
537.57	60135.38
537.74	59725.79
537.91	59657.91
538.08	59812.39
538.25	59718.77
538.42	60018.36
538.59	59632.17
538.75	59091.51
538.92	59047.04
539.09	58618.72
539.26	58548.50
539.43	58592.97
539.60	58607.01
539.77	58637.44
539.94	58672.55
540.11	58068.69
540.28	57422.70
540.44	57560.79
540.61	57633.35
540.78	57836.98
540.95	58209.12
541.12	58651.48
541.29	58969.80
541.46	59278.75
541.62	59473.01
541.79	59110.23
541.96	58422.11
542.13	58422.11
542.30	58714.68
542.47	59138.32
542.63	58869.15
542.80	58356.58
542.97	58684.25
543.14	58440.84
543.31	58504.03
543.48	59023.63
543.64	59564.29
543.81	60013.68
543.98	59854.52
544.15	59386.41
544.32	58693.61
544.48	58592.97
544.65	59133.63
544.82	59400.46
544.99	59180.45
545.16	58733.40
545.32	58330.83
545.49	59145.34
545.66	59639.19
545.83	59454.29
546.00	58913.62
546.16	58794.26
546.33	58794.26
546.50	58632.76
546.67	59201.51
546.83	58890.22
547.00	58761.49
547.17	58087.42
547.34	57661.44
547.50	57612.29
547.67	57909.53
547.84	58045.29
548.00	58419.77
548.17	58838.73
548.34	58712.34
548.51	58951.07
548.67	58960.44
548.84	58824.68
549.01	58885.54
549.18	58457.22
549.34	58522.76
549.51	58665.53
549.68	58555.52
549.84	58447.86
550.01	58068.69
550.18	57918.90
550.34	58227.85
550.51	58501.69
550.68	58277.00
550.84	57766.76
551.01	57961.03
551.18	58017.20
551.34	57954.00
551.51	58452.54
551.68	58834.05
551.84	58834.05
552.01	58543.82
552.18	58419.77
552.34	57570.16
552.51	57209.71
552.68	57020.13
552.84	57748.04
553.01	57874.43
553.18	57755.06
553.34	58066.35
553.51	57937.62
553.67	58230.19
553.84	58305.09
554.01	58262.96
554.17	58190.40
554.34	58117.84
554.51	58377.64
554.67	58443.18
554.84	58387.00
555.00	57914.22
555.17	57911.88
555.33	58010.18
555.50	57839.32
555.67	57586.54
555.83	57691.86
556.00	57291.63
556.16	57450.79
556.33	56912.47
556.50	56886.72
556.66	56996.73
556.83	56657.35
556.99	56816.50
557.16	56825.87
557.32	56975.66
557.49	57336.10
557.65	57111.41
557.82	57298.65
557.98	57073.96
558.15	56736.93
558.32	55894.33
558.48	55133.66
558.65	55283.45
558.81	55557.30
558.98	55786.67
559.14	56072.21
559.31	56179.88
559.47	56119.02
559.64	55929.44
559.80	55784.33
559.97	55550.27
560.13	56081.58
560.30	56886.72
560.46	57411.00
560.63	57528.03
560.79	57509.30
560.96	57242.48
561.12	56121.37
561.29	55236.64
561.45	55285.79
561.61	55899.01
561.78	56219.67
561.94	56046.47
562.11	55877.95
562.27	55856.88
562.44	56247.75
562.60	56416.27
562.77	56678.41
562.93	56575.43
563.10	56680.75
563.26	55723.47
563.42	55927.10
563.59	55545.59
563.75	55877.95
563.92	55803.05
564.08	55707.09
564.24	55847.52
564.41	56238.39
564.57	56018.38
564.74	55641.56
564.90	55849.86
565.07	55496.44
565.23	55274.09
565.39	55007.27
565.56	54255.96
565.72	54295.75
565.88	54475.97
566.05	54724.07
566.21	55161.75
566.38	54848.11
566.54	55112.59
566.70	55487.08
566.87	55517.51
567.03	55571.34
567.19	55969.23
567.36	55543.25
567.52	55833.48
567.68	55463.67
567.85	54398.73
568.01	54255.96
568.17	53911.90
568.34	53834.66
568.50	53607.63
568.66	53914.24
568.83	54520.44
568.99	54176.38
569.15	54681.94
569.32	54293.41
569.48	54138.93
569.64	54049.99
569.81	53942.33
569.97	53736.36
570.13	53614.65
570.30	53092.71
570.46	52839.93
570.62	52315.65
570.78	51992.66
570.95	52346.08
571.11	53144.20
571.27	53471.88
571.43	53373.58
571.60	53979.78
571.76	53888.49
571.92	54405.75
572.09	54211.49
572.25	54227.87
572.41	54225.53
572.57	54038.29
572.74	54211.49
572.90	53925.94
573.06	53605.29
573.22	53794.87
573.38	53848.71
573.55	53762.11
573.71	53949.35
573.87	53925.94
574.03	53584.22
574.20	53600.61
574.36	53347.83
574.52	53029.52
574.68	52931.22
574.84	52781.42
575.01	52090.96
575.17	52023.09
575.33	52388.21
575.49	52713.55
575.65	52734.61
575.82	52533.32
575.98	52114.37
576.14	52547.37
576.30	52928.87
576.46	52643.33
576.62	52961.64
576.79	52755.68
576.95	52467.79
577.11	52198.63
577.27	52325.02
577.43	52360.12
577.59	52172.88
577.75	51934.15
577.92	51250.71
578.08	50820.05
578.24	50688.98
578.40	51058.79
578.56	51543.28
578.72	51545.62
578.88	52126.07
579.04	51770.31
579.21	51959.89
579.37	51983.30
579.53	52299.27
579.69	52215.01
579.85	51978.62
580.01	52236.08
580.17	51524.55
580.33	51201.56
580.49	51725.84
580.65	51660.30
580.82	52097.98
580.98	51950.53
581.14	51880.31
581.30	52072.24
581.46	51721.16
581.62	51756.27
581.78	52175.22
581.94	52212.67
582.10	52034.79
582.26	52172.88
582.42	52191.61
582.58	52126.07
582.74	51941.17
582.90	52217.35
583.06	52184.58
583.22	51704.77
583.38	51330.29
583.54	51475.40
583.70	52107.35
583.86	51606.47
584.02	51292.84
584.18	51910.74
584.34	51543.28
584.50	51437.95
584.66	51227.31
584.82	50869.20
584.98	51136.02
585.14	50586.00
