SpectraSuite Data File
++++++++++++++++++++++++++++++++++++
Date: Mon Oct 07 14:54:56 GMT-05:00 2013
User: price-jones
Dark Spectrum Present: No
Reference Spectrum Present: No
Number of Sampled Component Spectra: 1
Spectrometers: USB2+H05261
Integration Time (usec): 10000 (USB2+H05261)
Spectra Averaged: 1 (USB2+H05261)
Boxcar Smoothing: 0 (USB2+H05261)
Correct for Electrical Dark: No (USB2+H05261)
Strobe/Lamp Enabled: No (USB2+H05261)
Correct for Detector Non-linearity: No (USB2+H05261)
Correct for Stray Light: No (USB2+H05261)
Number of Pixels in Processed Spectrum: 2048
>>>>>Begin Processed Spectral Data<<<<<
365.73	0.00
365.92	0.00
366.12	0.00
366.32	0.00
366.52	0.00
366.72	0.00
366.91	0.00
367.11	0.00
367.31	0.00
367.51	0.00
367.70	0.00
367.90	0.00
368.10	0.00
368.30	0.00
368.49	0.00
368.69	0.00
368.89	0.00
369.09	0.00
369.28	0.00
369.48	0.00
369.68	0.00
369.87	0.00
370.07	0.00
370.27	0.00
370.47	0.00
370.66	63.19
370.86	224.69
371.06	285.55
371.25	259.80
371.45	231.71
371.65	243.42
371.84	110.01
372.04	205.97
372.24	194.26
372.44	180.22
372.63	278.52
372.83	191.92
373.03	126.39
373.22	161.50
373.42	135.75
373.62	222.35
373.81	236.39
374.01	285.55
374.21	208.31
374.40	191.92
374.60	205.97
374.79	276.18
374.99	294.91
375.19	334.70
375.38	393.21
375.58	369.80
375.78	311.29
375.97	318.31
376.17	325.33
376.37	353.42
376.56	374.49
376.76	388.53
376.95	503.22
377.15	514.92
377.35	468.11
377.54	554.71
377.74	507.90
377.93	606.20
378.13	573.43
378.33	482.15
378.52	493.85
378.72	433.00
378.91	444.70
379.11	332.36
379.31	355.76
379.50	311.29
379.70	365.12
379.89	500.87
380.09	507.90
380.28	519.60
380.48	514.92
380.68	533.64
380.87	514.92
381.07	430.66
381.26	404.91
381.46	337.04
381.65	297.25
381.85	325.33
382.04	311.29
382.24	215.33
382.43	215.33
382.63	220.01
382.83	332.36
383.02	243.42
383.22	159.16
383.41	177.88
383.61	273.84
383.80	353.42
384.00	341.72
384.19	517.26
384.39	566.41
384.58	447.04
384.78	444.70
384.97	402.57
385.17	512.58
385.36	461.09
385.56	388.53
385.75	414.27
385.95	472.79
386.14	491.51
386.34	524.28
386.53	498.53
386.72	440.02
386.92	514.92
387.11	489.17
387.31	510.24
387.50	538.32
387.70	400.23
387.89	489.17
388.09	444.70
388.28	463.43
388.48	571.09
388.67	592.16
388.86	702.16
389.06	669.39
389.25	727.91
389.45	683.44
389.64	720.88
389.84	643.65
390.03	720.88
390.22	774.72
390.42	777.06
390.61	882.38
390.81	851.96
391.00	875.36
391.19	924.51
391.39	835.57
391.58	767.70
391.78	774.72
391.97	592.16
392.16	645.99
392.36	559.39
392.55	402.57
392.75	212.99
392.94	138.09
393.13	154.48
393.33	287.89
393.52	367.46
393.71	533.64
393.91	552.37
394.10	683.44
394.29	737.27
394.49	842.59
394.68	966.64
394.88	873.02
395.07	929.19
395.26	915.15
395.46	915.15
395.65	870.68
395.84	648.33
396.04	571.09
396.23	461.09
396.42	390.87
396.62	320.65
396.81	421.30
397.00	594.50
397.19	767.70
397.39	873.02
397.58	1034.52
397.77	1121.12
397.97	1104.73
398.16	1233.46
398.35	1226.44
398.55	1254.53
398.74	1273.25
398.93	1280.27
399.12	1390.28
399.32	1322.40
399.51	1266.23
399.70	1383.26
399.90	1380.92
400.09	1380.92
400.28	1401.98
400.47	1390.28
400.67	1535.39
400.86	1446.45
401.05	1418.36
401.24	1537.73
401.44	1488.58
401.63	1495.60
401.82	1612.63
402.01	1437.09
402.21	1521.35
402.40	1624.33
402.59	1488.58
402.78	1432.41
402.97	1455.81
403.17	1420.71
403.36	1589.22
403.55	1605.61
403.74	1577.52
403.93	1575.18
404.13	1488.58
404.32	1378.58
404.51	1481.56
404.70	1624.33
404.89	1591.56
405.09	1528.37
405.28	1439.43
405.47	1575.18
405.66	1497.94
405.85	1479.22
406.05	1385.60
406.24	1401.98
406.43	1582.20
406.62	1465.18
406.81	1579.86
407.00	1420.71
407.20	1455.81
407.39	1425.39
407.58	1514.33
407.77	1593.90
407.96	1673.48
408.15	1816.26
408.34	1739.02
408.54	1811.57
408.73	1818.60
408.92	1734.34
409.11	1673.48
409.30	1558.80
409.49	1523.69
409.68	1390.28
409.87	1294.32
410.07	1509.65
410.26	1631.35
410.45	1717.95
410.64	1675.82
410.83	1813.92
411.02	1825.62
411.21	1860.73
411.40	1937.96
411.59	1919.24
411.78	1949.67
411.98	1912.22
412.17	1799.87
412.36	1788.17
412.55	1844.34
412.74	1722.63
412.93	1654.76
413.12	1736.68
413.31	1956.69
413.50	1947.33
413.69	2003.50
413.88	1860.73
414.07	1884.13
414.26	1966.05
414.45	1987.11
414.64	2108.82
414.83	1977.75
415.02	2047.97
415.22	1968.39
415.41	2026.90
415.60	1923.92
415.79	2080.74
415.98	2104.14
416.17	2202.44
416.36	2143.93
416.55	2148.61
416.74	2017.54
416.93	1959.03
417.12	2026.90
417.31	2026.90
417.50	1996.48
417.69	2069.03
417.88	1919.24
418.07	2115.84
418.26	2038.61
418.45	2031.58
418.64	2120.53
418.83	2160.31
419.02	2090.10
419.21	2092.44
419.39	1959.03
419.58	1872.43
419.77	1851.36
419.96	2015.20
420.15	2169.68
420.34	2120.53
420.53	2310.11
420.72	2296.07
420.91	2277.34
421.10	2258.62
421.29	2228.19
421.48	2104.14
421.67	2289.04
421.86	2207.13
422.05	2090.10
422.24	1830.30
422.43	1858.39
422.61	1998.82
422.80	2129.89
422.99	2223.51
423.18	2176.70
423.37	2071.37
423.56	2108.82
423.75	2054.99
423.94	2195.42
424.13	2054.99
424.32	1928.60
424.50	2132.23
424.69	1970.73
424.88	2066.69
425.07	1991.80
425.26	2080.74
425.45	1926.26
425.64	1891.15
425.83	1891.15
426.01	2120.53
426.20	2129.89
426.39	2085.42
426.58	1982.43
426.77	1748.38
426.96	1799.87
427.15	1783.49
427.33	1963.71
427.52	2003.50
427.71	1963.71
427.90	1930.94
428.09	2012.86
428.28	2019.88
428.46	1942.64
428.65	1853.70
428.84	1900.52
429.03	1933.28
429.22	1795.19
429.40	1696.89
429.59	1556.46
429.78	1249.85
429.97	1268.57
430.16	1378.58
430.34	1390.28
430.53	1284.95
430.72	1399.64
430.91	1703.91
431.10	1701.57
431.28	2132.23
431.47	2420.11
431.66	2457.56
431.85	2204.78
432.03	2029.24
432.22	1813.92
432.41	1930.94
432.60	2209.47
432.79	2394.37
432.97	2429.48
433.16	2218.83
433.35	2143.93
433.54	1989.46
433.72	1708.59
433.91	1774.13
434.10	2038.61
434.28	2155.63
434.47	2267.98
434.66	2403.73
434.85	2321.81
435.03	2172.02
435.22	2267.98
435.41	2466.92
435.59	2445.86
435.78	2487.99
435.97	2537.14
436.16	2527.78
436.34	2417.77
436.53	2438.84
436.72	2516.08
436.90	2321.81
437.09	2267.98
437.28	2179.04
437.46	2368.62
437.65	2307.77
437.84	2113.50
438.02	1863.07
438.21	1947.33
438.40	2083.08
438.58	2190.74
438.77	2298.41
438.96	2368.62
439.14	2342.88
439.33	2469.27
439.52	2520.76
439.70	2431.82
439.89	2511.39
440.08	2406.07
440.26	2296.07
440.45	2368.62
440.63	2663.53
440.82	2764.17
441.01	2679.91
441.19	2726.72
441.38	2640.12
441.57	2890.56
441.75	2897.58
441.94	2778.22
442.12	2768.85
442.31	2923.33
442.50	3014.61
442.68	2796.94
442.87	2803.96
443.05	2745.45
443.24	2853.11
443.43	2780.56
443.61	2946.73
443.80	2972.48
443.98	2832.05
444.17	2839.07
444.35	2899.92
444.54	3098.87
444.73	3056.74
444.91	2801.62
445.10	2813.32
445.28	2576.93
445.47	2553.52
445.65	2546.50
445.84	2595.65
446.02	2801.62
446.21	2766.51
446.39	2883.54
446.58	2822.69
446.77	2846.09
446.95	2913.97
447.14	2881.20
447.32	2993.55
447.51	3005.25
447.69	2939.71
447.88	2846.09
448.06	2787.58
448.25	2862.48
448.43	2923.33
448.62	2871.84
448.80	2827.37
448.99	2792.26
449.17	3021.63
449.36	3016.95
449.54	2932.69
449.73	3115.25
449.91	3056.74
450.10	3368.03
450.28	3288.45
450.46	3283.77
450.65	3145.68
450.83	3225.26
451.02	3115.25
451.20	3112.91
451.39	3155.04
451.57	2995.89
451.76	3119.93
451.94	2979.50
452.13	2939.71
452.31	2787.58
452.49	2736.09
452.68	2827.37
452.86	2605.02
453.05	2782.90
453.23	2904.60
453.42	2960.78
453.60	3054.40
453.78	3054.40
453.97	3059.08
454.15	3087.17
454.34	2822.69
454.52	2860.13
454.70	2956.10
454.89	2993.55
455.07	2944.39
455.26	2939.71
455.44	3066.10
455.62	3164.40
455.81	3194.83
455.99	3272.07
456.17	3211.22
456.36	3145.68
456.54	3248.66
456.73	3056.74
456.91	3309.52
457.09	3330.58
457.28	3281.43
457.46	3087.17
457.64	3119.93
457.83	3084.83
458.01	2942.05
458.19	3162.06
458.38	3115.25
458.56	3169.09
458.74	3262.71
458.93	3061.42
459.11	3155.04
459.29	3119.93
459.48	3131.64
459.66	2979.50
459.84	3218.24
460.03	3089.51
460.21	3215.90
460.39	3183.13
460.57	3279.09
460.76	3318.88
460.94	3424.20
461.12	3297.81
461.31	3384.41
461.49	3323.56
461.67	3236.96
461.85	3279.09
462.04	3435.91
462.22	3407.82
462.40	3297.81
462.59	3173.77
462.77	3260.37
462.95	3363.35
463.13	3346.97
463.32	3281.43
463.50	3307.18
463.68	3183.13
463.86	3349.31
464.05	3272.07
464.23	3222.92
464.41	3030.99
464.59	3187.81
464.78	3204.19
464.96	3204.19
465.14	3197.17
465.32	3194.83
465.50	3288.45
465.69	3222.92
465.87	3276.75
466.05	3084.83
466.23	3061.42
466.41	3098.87
466.60	3197.17
466.78	3045.04
466.96	3094.19
467.14	3227.60
467.32	3122.27
467.51	3126.96
467.69	3101.21
467.87	3286.11
468.05	3206.53
468.23	3220.58
468.41	3236.96
468.60	3096.53
468.78	3061.42
468.96	3258.03
469.14	3253.34
469.32	3269.73
469.50	3038.02
469.69	3122.27
469.87	3087.17
470.05	3014.61
470.23	3152.70
470.41	3019.29
470.59	3164.40
470.77	3129.30
470.95	3260.37
471.14	3290.79
471.32	3208.87
471.50	3332.92
471.68	3398.46
471.86	3529.53
472.04	3611.45
472.22	3485.06
472.40	3398.46
472.58	3232.28
472.77	3368.03
472.95	3323.56
473.13	3307.18
473.31	3353.99
473.49	3412.50
473.67	3440.59
473.85	3316.54
474.03	3440.59
474.21	3403.14
474.39	3524.85
474.57	3569.32
474.75	3613.79
474.93	3566.98
475.12	3386.76
475.30	3466.33
475.48	3445.27
475.66	3403.14
475.84	3492.08
476.02	3290.79
476.20	3421.86
476.38	3297.81
476.56	3616.13
476.74	3555.27
476.92	3564.64
477.10	3611.45
477.28	3873.59
477.46	3765.92
477.64	3836.14
477.82	3943.80
478.00	3620.81
478.18	3627.83
478.36	3651.24
478.54	3859.54
478.72	3847.84
478.90	3871.25
479.08	3920.40
479.26	4056.15
479.44	3960.19
479.62	3861.88
479.80	3943.80
479.98	4058.49
480.16	3999.98
480.34	4004.66
480.52	4058.49
480.70	4088.92
480.88	4039.76
481.06	4159.13
481.24	4198.92
481.41	4365.10
481.59	4294.88
481.77	4229.35
481.95	4135.73
482.13	4327.65
482.31	4346.37
482.49	4372.12
482.67	4292.54
482.85	4344.03
483.03	4365.10
483.21	4631.92
483.39	4337.01
483.57	4379.14
483.74	4325.31
483.92	4416.59
484.10	4475.10
484.28	4327.65
484.46	4559.36
484.64	4468.08
484.82	4594.47
485.00	4468.08
485.18	4337.01
485.35	4250.41
485.53	3840.82
485.71	3679.32
485.89	3384.41
486.07	3730.81
486.25	3988.27
486.43	4280.84
486.61	4280.84
486.78	4283.18
486.96	4245.73
487.14	4496.17
487.32	4629.58
487.50	4697.46
487.68	4716.18
487.85	4821.50
488.03	4931.51
488.21	4905.76
488.39	4793.42
488.57	4709.16
488.75	4622.56
488.92	4732.56
489.10	5170.24
489.28	5268.55
489.46	5502.60
489.64	5392.59
489.81	5561.11
489.99	5313.02
490.17	5275.57
490.35	5334.08
490.53	5245.14
490.70	5313.02
490.88	5233.44
491.06	5453.45
491.24	5352.81
491.41	5287.27
491.59	5006.41
491.77	4840.23
491.95	5011.09
492.13	5163.22
492.30	5423.02
492.48	5476.85
492.66	5717.93
492.84	5572.82
493.01	5575.16
493.19	5439.40
493.37	5390.25
493.54	5383.23
493.72	5444.09
493.90	5647.71
494.08	5802.19
494.25	5959.00
494.43	5902.83
494.61	6115.82
494.79	6064.33
494.96	5963.68
495.14	5949.64
495.32	5591.54
495.49	5469.83
495.67	5774.10
495.85	5996.45
496.02	6342.85
496.20	6160.29
496.38	6083.05
496.55	5928.58
496.73	6001.13
496.91	6094.76
497.09	6193.06
497.26	6321.79
497.44	6150.93
497.62	5919.21
497.79	5710.91
497.97	5675.80
498.14	5577.50
498.32	5612.60
498.50	5949.64
498.67	6115.82
498.85	6099.44
499.03	6176.67
499.20	6298.38
499.38	6157.95
499.56	6293.70
499.73	5975.39
499.91	5874.74
500.08	5970.71
500.26	5790.49
500.44	5633.67
500.61	5858.36
500.79	6001.13
500.97	5926.24
501.14	5729.63
501.32	5802.19
501.49	5668.78
501.67	5851.34
501.84	5951.98
502.02	5977.73
502.20	6090.07
502.37	6022.20
502.55	6134.54
502.72	6368.60
502.90	6476.26
503.07	6448.18
503.25	6176.67
503.43	6054.97
503.60	5694.52
503.78	5657.07
503.95	5893.47
504.13	6284.34
504.30	6223.48
504.48	6228.17
504.65	6040.92
504.83	6169.65
505.01	6361.58
505.18	6424.77
505.36	6562.86
505.53	6604.99
505.71	6595.63
505.88	6502.01
506.06	6483.28
506.23	6443.49
506.41	6207.10
506.58	6389.66
506.76	6429.45
506.93	6345.19
507.11	6312.42
507.28	6459.88
507.46	6300.72
507.63	6139.23
507.81	6012.84
507.98	6008.16
508.16	6141.57
508.33	6300.72
508.50	6394.34
508.68	6492.65
508.85	6401.37
509.03	6607.33
509.20	6530.09
509.38	6392.00
509.55	6080.71
509.73	6050.28
509.90	6448.18
510.08	6483.28
510.25	6312.42
510.42	6382.64
510.60	6197.74
510.77	6504.35
510.95	6527.75
511.12	6497.33
511.30	6691.59
511.47	6600.31
511.64	6612.01
511.82	6675.21
511.99	6370.94
512.17	6207.10
512.34	6083.05
512.51	6284.34
512.69	6354.55
512.86	6335.83
513.04	6368.60
513.21	6492.65
513.38	6190.72
513.56	6012.84
513.73	6036.24
513.90	6064.33
514.08	6157.95
514.25	6200.08
514.43	6340.51
514.60	6237.53
514.77	6394.34
514.95	6279.66
515.12	6345.19
515.29	6424.77
515.47	6392.00
515.64	6523.07
515.81	6354.55
515.99	6188.38
516.16	5975.39
516.33	5394.93
516.51	5287.27
516.68	5088.32
516.85	4933.85
517.03	4917.47
517.20	5628.99
517.37	6094.76
517.54	6345.19
517.72	6150.93
517.89	5628.99
518.06	5170.24
518.24	5291.95
518.41	5661.76
518.58	5799.85
518.75	5987.09
518.93	6069.01
519.10	5977.73
519.27	6015.18
519.45	6054.97
519.62	6282.00
519.79	6441.15
519.96	6246.89
520.14	6284.34
520.31	6057.31
520.48	5823.25
520.65	6174.33
520.83	6324.13
521.00	6303.06
521.17	6459.88
521.34	6218.80
521.52	6300.72
521.69	6476.26
521.86	6604.99
522.03	6415.41
522.20	6143.91
522.38	6054.97
522.55	5921.56
522.72	6125.18
522.89	6052.63
523.07	6127.52
523.24	6466.90
523.41	6441.15
523.58	6583.93
523.75	6623.72
523.92	6455.20
524.10	6722.02
524.27	6518.39
524.44	6626.06
524.61	6356.90
524.78	6312.42
524.96	6513.71
525.13	6452.86
525.30	6527.75
525.47	6476.26
525.64	6434.13
525.81	6244.55
525.98	5937.94
526.16	5724.95
526.33	5334.08
526.50	5423.02
526.67	5425.36
526.84	5603.24
527.01	5664.10
527.18	5891.13
527.36	6132.20
527.53	6380.30
527.70	6382.64
527.87	6279.66
528.04	6050.28
528.21	6282.00
528.38	6541.80
528.55	6691.59
528.72	6576.91
528.89	6665.85
529.07	6602.65
529.24	6427.11
529.41	6415.41
529.58	6080.71
529.75	6118.16
529.92	6307.74
530.09	6471.58
530.26	6392.00
530.43	6768.83
530.60	6565.20
530.77	6745.42
530.94	6588.61
531.11	6581.59
531.28	6483.28
531.46	6403.71
531.63	6413.07
531.80	6377.96
531.97	6396.68
532.14	6104.12
532.31	5827.93
532.48	5715.59
532.65	5743.67
532.82	5923.90
532.99	6176.67
533.16	6328.81
533.33	6548.82
533.50	6342.85
533.67	6043.26
533.84	6277.32
534.01	6265.61
534.18	6153.27
534.35	6237.53
534.52	6326.47
534.69	6457.54
534.86	6429.45
535.03	6483.28
535.20	6483.28
535.37	6609.67
535.54	6677.55
535.71	6555.84
535.88	6338.17
536.05	6303.06
536.22	6134.54
536.38	6101.78
536.55	6101.78
536.72	6057.31
536.89	6087.73
537.06	6101.78
537.23	6293.70
537.40	6356.90
537.57	6282.00
537.74	6384.98
537.91	6415.41
538.08	6272.64
538.25	6441.15
538.42	6408.39
538.59	6235.19
538.75	6211.78
538.92	5956.66
539.09	6010.50
539.26	5858.36
539.43	5940.28
539.60	5893.47
539.77	5851.34
539.94	5921.56
540.11	5795.17
540.28	5750.70
540.44	5778.78
540.61	5834.96
540.78	5729.63
540.95	5746.02
541.12	6005.81
541.29	6169.65
541.46	6129.86
541.62	6064.33
541.79	6125.18
541.96	5802.19
542.13	5921.56
542.30	6059.65
542.47	6059.65
542.63	5851.34
542.80	5849.00
542.97	5858.36
543.14	5771.76
543.31	5879.43
543.48	6085.39
543.64	6122.84
543.81	6263.27
543.98	6078.37
544.15	6001.13
544.32	5975.39
544.48	5811.55
544.65	5930.92
544.82	6125.18
544.99	6094.76
545.16	5741.33
545.32	5757.72
545.49	6054.97
545.66	6204.76
545.83	6150.93
546.00	5984.75
546.16	6005.81
546.33	6015.18
546.50	5874.74
546.67	5916.87
546.83	5858.36
547.00	5846.66
547.17	5888.79
547.34	5781.12
547.50	5563.45
547.67	5926.24
547.84	5722.61
548.00	5858.36
548.17	5966.03
548.34	5731.97
548.51	5757.72
548.67	5844.32
548.84	5898.15
549.01	5778.78
549.18	6003.47
549.34	5701.54
549.51	6029.22
549.68	5954.32
549.84	5867.72
550.01	5980.07
550.18	5748.36
550.34	5846.66
550.51	5834.96
550.68	5762.40
550.84	5760.06
551.01	5795.17
551.18	5825.59
551.34	5795.17
551.51	5860.70
551.68	5841.98
551.84	5907.51
552.01	5771.76
552.18	5900.49
552.34	5640.69
552.51	5645.37
552.68	5495.58
552.84	5666.44
553.01	5647.71
553.18	5619.63
553.34	5535.37
553.51	5921.56
553.67	5891.13
553.84	5851.34
554.01	5809.21
554.17	5774.10
554.34	5832.62
554.51	5703.89
554.67	5699.20
554.84	5856.02
555.00	5797.51
555.17	5570.48
555.33	5757.72
555.50	5647.71
555.67	5666.44
555.83	5636.01
556.00	5523.66
556.16	5572.82
556.33	5467.49
556.50	5474.51
556.66	5439.40
556.83	5224.08
556.99	5270.89
557.16	5533.03
557.32	5612.60
557.49	5647.71
557.65	5490.90
557.82	5558.77
557.98	5465.15
558.15	5357.49
558.32	5287.27
558.48	5151.52
558.65	5144.50
558.81	5238.12
558.98	5270.89
559.14	5268.55
559.31	5214.71
559.47	5352.81
559.64	5369.19
559.80	5090.67
559.97	5203.01
560.13	5343.44
560.30	5659.42
560.46	5598.56
560.63	5727.29
560.79	5668.78
560.96	5504.94
561.12	5385.57
561.29	5179.61
561.45	5107.05
561.61	5331.74
561.78	5423.02
561.94	5322.38
562.11	5352.81
562.27	5235.78
562.44	5408.98
562.60	5308.34
562.77	5376.21
562.93	5448.77
563.10	5390.25
563.26	5247.48
563.42	5399.62
563.59	5268.55
563.75	5219.39
563.92	5329.40
564.08	5401.96
564.24	5439.40
564.41	5226.42
564.57	5392.59
564.74	5287.27
564.90	5284.93
565.07	5203.01
565.23	5025.13
565.39	5111.73
565.56	5039.17
565.72	4898.74
565.88	5001.72
566.05	4947.89
566.21	5093.01
566.38	5132.79
566.54	5116.41
566.70	5123.43
566.87	5207.69
567.03	5203.01
567.19	5252.16
567.36	5172.58
567.52	5259.18
567.68	5263.86
567.85	4868.31
568.01	4957.25
568.17	4847.25
568.34	5032.15
568.50	4910.44
568.66	4908.10
568.83	5121.09
568.99	4835.55
569.15	5095.35
569.32	5048.54
569.48	4957.25
569.64	4950.23
569.81	4912.78
569.97	4870.65
570.13	4926.83
570.30	4704.48
570.46	4753.63
570.62	4524.26
570.78	4578.09
570.95	4470.42
571.11	4732.56
571.27	4751.29
571.43	4812.14
571.60	4858.95
571.76	4961.94
571.92	5006.41
572.09	5095.35
572.25	5046.20
572.41	4975.98
572.57	4887.04
572.74	4959.60
572.90	4805.12
573.06	4929.17
573.22	4781.71
573.38	4777.03
573.55	4854.27
573.71	4847.25
573.87	4856.61
574.03	4833.21
574.20	4919.81
574.36	4854.27
574.52	4770.01
574.68	4741.93
574.84	4753.63
575.01	4608.51
575.17	4531.28
575.33	4629.58
575.49	4603.83
575.65	4655.33
575.82	4688.09
575.98	4615.54
576.14	4596.81
576.30	4657.67
576.46	4777.03
576.62	4629.58
576.79	4657.67
576.95	4662.35
577.11	4727.88
577.27	4688.09
577.43	4748.95
577.59	4645.96
577.75	4547.66
577.92	4531.28
578.08	4533.62
578.24	4203.60
578.40	4461.06
578.56	4587.45
578.72	4652.98
578.88	4594.47
579.04	4514.89
579.21	4727.88
579.37	4519.57
579.53	4514.89
579.69	4444.68
579.85	4713.84
580.01	4540.64
580.17	4491.49
580.33	4517.23
580.49	4535.96
580.65	4409.57
580.82	4470.42
580.98	4716.18
581.14	4463.40
581.30	4376.80
581.46	4477.44
581.62	4559.36
581.78	4571.07
581.94	4608.51
582.10	4512.55
582.26	4571.07
582.42	4739.58
582.58	4575.75
582.74	4615.54
582.90	4582.77
583.06	4547.66
583.22	4624.90
583.38	4610.86
583.54	4552.34
583.70	4526.60
583.86	4531.28
584.02	4486.81
584.18	4531.28
584.34	4468.08
584.50	4526.60
584.66	4400.21
584.82	4348.72
584.98	4524.26
585.14	4311.27
585.30	4299.56
585.46	4231.69
585.62	4121.68
585.78	4222.33
585.94	4306.59
586.10	4320.63
586.26	4238.71
586.42	4334.67
586.58	4379.14
586.74	4395.53
586.90	4432.97
587.06	4386.16
587.22	4297.22
587.38	4386.16
587.54	4334.67
587.70	4322.97
587.86	4285.52
588.02	4191.90
588.18	4042.11
588.34	4018.70
588.49	3805.71
588.65	3618.47
588.81	3538.89
588.97	3557.61
589.13	3543.57
589.29	3407.82
589.45	3644.21
589.61	3676.98
589.77	4025.72
589.93	4021.04
590.08	4128.70
590.24	4018.70
590.40	4081.89
590.56	4177.86
590.72	4072.53
590.88	4070.19
591.04	3967.21
591.20	3864.22
591.35	4065.51
591.51	3943.80
591.67	3899.33
591.83	3920.40
591.99	3915.72
592.15	3964.87
592.31	3908.69
592.46	4028.06
592.62	3964.87
592.78	3913.38
592.94	3946.14
593.10	4145.09
593.26	3981.25
593.41	4095.94
593.57	3955.51
593.73	3953.16
593.89	3845.50
594.05	3861.88
594.20	3861.88
594.36	3798.69
594.52	3758.90
594.68	3658.26
594.84	3812.73
594.99	3873.59
595.15	3716.77
595.31	3889.97
595.47	3901.67
595.62	3810.39
595.78	3868.91
595.94	3978.91
596.10	3983.59
596.25	3988.27
596.41	3901.67
596.57	3887.63
596.73	3920.40
596.88	3922.74
597.04	3805.71
597.20	3847.84
597.36	3871.25
597.51	3808.05
597.67	3861.88
597.83	3758.90
597.99	3735.50
