SpectraSuite Data File
++++++++++++++++++++++++++++++++++++
Date: Mon Oct 07 14:54:58 GMT-05:00 2013
User: price-jones
Dark Spectrum Present: No
Reference Spectrum Present: No
Number of Sampled Component Spectra: 1
Spectrometers: USB2+H05261
Integration Time (usec): 10000 (USB2+H05261)
Spectra Averaged: 1 (USB2+H05261)
Boxcar Smoothing: 0 (USB2+H05261)
Correct for Electrical Dark: No (USB2+H05261)
Strobe/Lamp Enabled: No (USB2+H05261)
Correct for Detector Non-linearity: No (USB2+H05261)
Correct for Stray Light: No (USB2+H05261)
Number of Pixels in Processed Spectrum: 2048
>>>>>Begin Processed Spectral Data<<<<<
365.73	0.00
365.92	0.00
366.12	0.00
366.32	0.00
366.52	0.00
366.72	0.00
366.91	0.00
367.11	0.00
367.31	0.00
367.51	0.00
367.70	0.00
367.90	0.00
368.10	0.00
368.30	0.00
368.49	0.00
368.69	0.00
368.89	0.00
369.09	0.00
369.28	0.00
369.48	0.00
369.68	0.00
369.87	0.00
370.07	0.00
370.27	0.00
370.47	156.82
370.66	1453.47
370.86	1746.04
371.06	1748.38
371.25	1802.21
371.45	1668.80
371.65	1280.27
371.84	1331.76
372.04	1607.95
372.24	1633.69
372.44	1633.69
372.63	1558.80
372.83	1516.67
373.03	1266.23
373.22	1273.25
373.42	1359.85
373.62	1511.99
373.81	1636.03
374.01	1657.10
374.21	1469.86
374.40	1362.19
374.60	1495.60
374.79	1685.19
374.99	2010.52
375.19	2146.27
375.38	2069.03
375.58	1926.26
375.78	1942.64
375.97	1844.34
376.17	1928.60
376.37	1863.07
376.56	2012.86
376.76	2207.13
376.95	2310.11
377.15	2354.58
377.35	2684.59
377.54	2775.88
377.74	2803.96
377.93	2738.43
378.13	2609.70
378.33	2427.14
378.52	2321.81
378.72	2160.31
378.91	2165.00
379.11	2209.47
379.31	2087.76
379.50	2029.24
379.70	2284.36
379.89	2502.03
380.09	2544.16
380.28	2630.76
380.48	2764.17
380.68	2621.40
380.87	2464.58
381.07	2265.64
381.26	2066.69
381.46	1937.96
381.65	1898.17
381.85	2031.58
382.04	1724.97
382.24	1675.82
382.43	1636.03
382.63	1509.65
382.83	1467.52
383.02	1626.67
383.22	1572.84
383.41	1530.71
383.61	1692.21
383.80	2033.93
384.00	2373.30
384.19	2480.97
384.39	2733.75
384.58	2672.89
384.78	2607.36
384.97	2565.23
385.17	2392.03
385.36	2366.28
385.56	2141.59
385.75	2438.84
385.95	2691.62
386.14	2717.36
386.34	2759.49
386.53	2588.63
386.72	2583.95
386.92	2630.76
387.11	2691.62
387.31	2736.09
387.50	2647.15
387.70	2616.72
387.89	2605.02
388.09	2509.05
388.28	2553.52
388.48	2757.15
388.67	2984.18
388.86	3363.35
389.06	3363.35
389.25	3627.83
389.45	3733.15
389.64	3630.17
389.84	3632.51
390.03	3611.45
390.22	3466.33
390.42	3723.79
390.61	3906.35
390.81	4210.62
391.00	4112.32
391.19	4198.92
391.39	4044.45
391.58	3716.77
391.78	3480.38
391.97	3316.54
392.16	3052.06
392.36	2642.46
392.55	2125.21
392.75	1673.48
392.94	1437.09
393.13	1460.49
393.33	1830.30
393.52	2457.56
393.71	2857.79
393.91	3323.56
394.10	3599.74
394.29	4046.79
394.49	4039.76
394.68	4402.55
394.88	4472.76
395.07	4592.13
395.26	4451.70
395.46	4250.41
395.65	3896.99
395.84	3426.54
396.04	2771.19
396.23	2200.10
396.42	1886.47
396.62	1989.46
396.81	2548.84
397.00	3283.77
397.19	3922.74
397.39	4697.46
397.58	5064.92
397.77	5394.93
397.97	5439.40
398.16	5610.26
398.35	5650.05
398.55	6080.71
398.74	6118.16
398.93	6242.21
399.12	6263.27
399.32	6047.94
399.51	6143.91
399.70	6579.25
399.90	6438.81
400.09	6415.41
400.28	6759.47
400.47	6621.38
400.67	6986.50
400.86	6991.18
401.05	6986.50
401.24	6960.75
401.44	7187.79
401.63	7192.47
401.82	7042.67
402.01	7316.51
402.21	7162.04
402.40	7075.44
402.59	6986.50
402.78	6609.67
402.97	6637.76
403.17	6899.90
403.36	7304.81
403.55	7506.10
403.74	7541.21
403.93	7169.06
404.13	6565.20
404.32	6794.58
404.51	6974.80
404.70	7309.49
404.89	7426.52
405.09	7159.70
405.28	7112.89
405.47	7241.62
405.66	7066.08
405.85	6684.57
406.05	6382.64
406.24	6827.34
406.43	7265.02
406.62	7302.47
406.81	7393.75
407.00	6951.39
407.20	6878.83
407.39	7007.56
407.58	7623.12
407.77	7868.88
407.96	7824.41
408.15	7819.73
408.34	8173.15
408.54	8379.12
408.73	8468.06
408.92	8128.68
409.11	7735.47
409.30	7606.74
409.49	7183.10
409.68	6768.83
409.87	6637.76
410.07	7211.19
410.26	7368.01
410.45	8013.99
410.64	8229.32
410.83	8332.31
411.02	8844.88
411.21	8994.68
411.40	8819.14
411.59	8826.16
411.78	8671.68
411.98	8351.03
412.17	8791.05
412.36	8739.56
412.55	8627.21
412.74	8311.24
412.93	8446.99
413.12	8695.09
413.31	9254.48
413.50	9467.47
413.69	9212.35
413.88	8741.90
414.07	8875.31
414.26	8992.34
414.45	9170.22
414.64	9240.44
414.83	9291.93
415.02	9231.07
415.22	9179.58
415.41	9383.21
415.60	9460.45
415.79	9879.40
415.98	10129.84
416.17	10174.31
416.36	9657.05
416.55	9757.69
416.74	9226.39
416.93	9174.90
417.12	9387.89
417.31	9357.46
417.50	9352.78
417.69	9415.98
417.88	9675.77
418.07	9472.15
418.26	9504.92
418.45	9774.08
418.64	10111.11
418.83	10258.57
419.02	10073.67
419.21	9792.80
419.39	9336.40
419.58	9067.24
419.77	9165.54
419.96	9666.41
420.15	10174.31
420.34	10445.81
420.53	10998.18
420.72	10932.64
420.91	10752.42
421.10	10782.85
421.29	10792.21
421.48	10340.49
421.67	10841.36
421.86	10354.53
422.05	9423.00
422.24	8755.94
422.43	8795.73
422.61	9919.19
422.80	10071.33
422.99	10040.90
423.18	9879.40
423.37	9809.19
423.56	10101.75
423.75	10038.56
423.94	10494.96
424.13	9617.26
424.32	9626.62
424.50	9774.08
424.69	9823.23
424.88	9891.10
425.07	9645.35
425.26	9783.44
425.45	9413.63
425.64	9320.01
425.83	9626.62
426.01	10108.77
426.20	10129.84
426.39	10071.33
426.58	9188.94
426.77	8484.44
426.96	8449.33
427.15	8755.94
427.33	9579.81
427.52	9753.01
427.71	9863.02
427.90	9366.82
428.09	9439.38
428.28	9280.22
428.46	9025.11
428.65	9142.13
428.84	9240.44
429.03	9041.49
429.22	8589.77
429.40	8142.72
429.59	7353.96
429.78	6738.40
429.97	6846.07
430.16	6738.40
430.34	6445.84
430.53	6658.82
430.72	7122.25
430.91	8271.45
431.10	9530.66
431.28	10705.61
431.47	11349.26
431.66	11424.15
431.85	9877.06
432.03	9387.89
432.22	9628.96
432.41	10211.76
432.60	10600.29
432.79	11206.48
432.97	11314.15
433.16	10764.12
433.35	10071.33
433.54	8894.04
433.72	8887.01
433.91	9305.97
434.10	10300.70
434.28	10782.85
434.47	11178.40
434.66	10813.28
434.85	10729.02
435.03	11049.67
435.22	11098.82
435.41	11555.22
435.59	11604.38
435.78	11758.85
435.97	11896.94
436.16	12079.50
436.34	11775.24
436.53	11786.94
436.72	11770.55
436.90	10864.77
437.09	11180.74
437.28	11052.01
437.46	11318.83
437.65	11077.76
437.84	10099.41
438.02	9750.67
438.21	10036.22
438.40	10347.51
438.58	10808.59
438.77	11288.40
438.96	11225.21
439.14	12245.68
439.33	12182.49
439.52	12212.92
439.70	11768.21
439.89	11527.14
440.08	11538.84
440.26	11459.26
440.45	12006.95
440.63	12793.37
440.82	13317.65
441.01	12894.01
441.19	12985.29
441.38	13446.38
441.57	13790.44
441.75	13455.74
441.94	13965.98
442.12	13474.46
442.31	13991.72
442.50	14071.30
442.68	13809.16
442.87	13799.80
443.05	13633.62
443.24	13984.70
443.43	13811.50
443.61	13870.01
443.80	14499.62
443.98	13420.63
444.17	13954.27
444.35	14860.06
444.54	14588.56
444.73	14443.45
444.91	13497.87
445.10	13041.46
445.28	12753.58
445.47	12465.69
445.65	12451.65
445.84	13060.19
446.02	13582.13
446.21	13745.97
446.39	13769.37
446.58	14228.12
446.77	14384.93
446.95	14242.16
447.14	14520.68
447.32	14801.55
447.51	14277.27
447.69	13809.16
447.88	13694.47
448.06	13921.51
448.25	14204.71
448.43	14295.99
448.62	14097.05
448.80	13518.93
448.99	13937.89
449.17	14253.86
449.36	14214.07
449.54	14661.12
449.73	14890.49
449.91	15023.90
450.10	15653.50
450.28	15599.67
450.46	15257.95
450.65	15140.93
450.83	15269.66
451.02	15295.40
451.20	14387.27
451.39	14728.99
451.57	14714.95
451.76	14822.61
451.94	14705.59
452.13	14469.19
452.31	13530.64
452.49	13263.82
452.68	13486.17
452.86	13554.04
453.05	13839.59
453.23	14263.22
453.42	14532.39
453.60	14714.95
453.78	14738.35
453.97	14288.97
454.15	14490.26
454.34	14111.09
454.52	14288.97
454.70	14176.62
454.89	14260.88
455.07	14024.49
455.26	14642.39
455.44	14831.97
455.62	15105.82
455.81	15374.98
455.99	15096.46
456.17	15159.65
456.36	15587.97
456.54	15548.18
456.73	15412.43
456.91	15793.94
457.09	15864.15
457.28	16173.10
457.46	15625.42
457.64	15468.60
457.83	14848.36
458.01	14614.30
458.19	15295.40
458.38	15140.93
458.56	15241.57
458.74	15407.75
458.93	15140.93
459.11	14860.06
459.29	14670.48
459.48	14834.32
459.66	14705.59
459.84	14998.15
460.03	15831.38
460.21	15295.40
460.39	15899.26
460.57	15854.79
460.76	15894.58
460.94	15901.60
461.12	15932.03
461.31	15550.52
461.49	15999.90
461.67	15967.13
461.85	16198.85
462.04	16137.99
462.22	16376.73
462.40	16198.85
462.59	15646.48
462.77	16009.26
462.95	16027.99
463.13	16224.59
463.32	15536.48
463.50	15674.57
463.68	15672.23
463.86	15812.66
464.05	15597.33
464.23	15295.40
464.41	15049.64
464.59	14925.60
464.78	15398.38
464.96	15386.68
465.14	15241.57
465.32	15847.77
465.50	16189.49
465.69	16390.77
465.87	15693.29
466.05	15253.27
466.23	14677.50
466.41	14834.32
466.60	15316.47
466.78	15328.17
466.96	14747.72
467.14	15241.57
467.32	15529.45
467.51	15611.37
467.69	15066.03
467.87	15112.84
468.05	15494.35
468.23	15431.15
468.41	15613.71
468.60	15639.46
468.78	15477.96
468.96	15592.65
469.14	16056.08
469.32	15960.11
469.50	15246.25
469.69	14993.47
469.87	14647.07
470.05	14911.55
470.23	14941.98
470.41	15386.68
470.59	15623.08
470.77	15192.42
470.95	15279.02
471.14	15819.68
471.32	15878.19
471.50	16704.40
471.68	16465.67
471.86	16652.91
472.04	16868.24
472.22	16479.71
472.40	16276.09
472.58	16482.05
472.77	15784.57
472.95	16531.20
473.13	16613.12
473.31	16198.85
473.49	16425.88
473.67	16685.68
473.85	16580.36
474.03	16690.36
474.21	16802.71
474.39	17095.27
474.57	16999.31
474.75	17256.77
474.93	17156.13
475.12	16966.54
475.30	17001.65
475.48	16615.46
475.66	17184.21
475.84	16725.47
476.02	16966.54
476.20	16552.27
476.38	17097.61
476.56	17284.86
476.74	17666.36
476.92	17862.97
477.10	18061.91
477.28	18574.49
477.46	18310.01
477.64	18267.88
477.82	18211.71
478.00	18506.62
478.18	18242.14
478.36	18541.72
478.54	17994.04
478.72	18698.54
478.90	19159.63
479.08	19424.11
479.26	19499.00
479.44	19044.94
479.62	19541.13
479.80	19936.68
479.98	19613.69
480.16	20191.80
480.34	19564.54
480.52	19520.07
480.70	19648.80
480.88	19709.65
481.06	20339.26
481.24	20552.24
481.41	21717.83
481.59	21628.89
481.77	20886.94
481.95	20318.19
482.13	21160.78
482.31	20505.43
482.49	20996.95
482.67	20608.42
482.85	20657.57
483.03	21071.84
483.21	21160.78
483.39	21336.32
483.57	21280.15
483.74	20980.56
483.92	20858.85
484.10	21802.09
484.28	21820.81
484.46	22132.11
484.64	21495.48
484.82	21497.82
485.00	21266.11
485.18	20491.39
485.35	19892.21
485.53	17514.23
485.71	16475.03
485.89	17500.19
486.07	18047.87
486.25	19400.70
486.43	20353.30
486.61	19901.58
486.78	20327.55
486.96	20695.02
487.14	21664.00
487.32	22106.36
487.50	22522.98
487.68	21996.35
487.85	23300.03
488.03	23616.01
488.21	22632.98
488.39	21895.71
488.57	22258.49
488.75	21994.01
488.92	23421.74
489.10	25179.48
489.28	25628.87
489.46	26394.22
489.64	26462.10
489.81	25820.79
489.99	25465.03
490.17	25883.98
490.35	26061.87
490.53	25647.59
490.70	25333.96
490.88	25493.12
491.06	26209.32
491.24	26211.66
491.41	24692.65
491.59	24203.48
491.77	23220.45
491.95	24095.82
492.13	24868.19
492.30	25832.49
492.48	27058.93
492.66	27414.69
492.84	26555.72
493.01	26658.70
493.19	25748.23
493.37	24709.04
493.54	25811.43
493.72	26417.63
493.90	27175.96
494.08	28034.94
494.25	29015.62
494.43	28664.54
494.61	29638.20
494.79	29315.21
494.96	29090.52
495.14	27693.22
495.32	26988.72
495.49	27063.61
495.67	27229.79
495.85	29111.58
496.02	29055.41
496.20	29888.64
496.38	29397.13
496.55	28954.77
496.73	29010.94
496.91	28477.30
497.09	29411.17
497.26	29827.79
497.44	29869.92
497.62	29235.63
497.79	28374.31
497.97	27358.52
498.14	27665.13
498.32	28549.85
498.50	28945.41
498.67	29434.58
498.85	29144.35
499.03	28528.79
499.20	29287.12
499.38	28774.55
499.56	28369.63
499.73	28662.20
499.91	28109.83
500.08	27285.97
500.26	26962.97
500.44	27623.00
500.61	28755.82
500.79	27873.44
500.97	27775.14
501.14	27386.61
501.32	27246.18
501.49	26995.74
501.67	27920.25
501.84	28552.20
502.02	29074.13
502.20	28444.53
502.37	29319.89
502.55	29928.43
502.72	30103.97
502.90	30560.37
503.07	29675.65
503.25	28954.77
503.43	28570.92
503.60	27365.54
503.78	26939.57
503.95	27955.36
504.13	28811.99
504.30	30199.93
504.48	30476.12
504.65	29570.33
504.83	29682.67
505.01	29408.83
505.18	29446.28
505.36	30838.90
505.53	30895.07
505.71	31206.36
505.88	30986.35
506.06	31189.98
506.23	30057.16
506.41	30094.61
506.58	29907.37
506.76	29443.94
506.93	30206.95
507.11	28826.04
507.28	29394.79
507.46	29205.20
507.63	28786.25
507.81	28140.26
507.98	28559.22
508.16	29305.85
508.33	30419.94
508.50	29696.72
508.68	30843.58
508.85	31248.49
509.03	30881.03
509.20	30162.48
509.38	29738.85
509.55	29345.64
509.73	30068.86
509.90	30941.88
510.08	29626.50
510.25	29575.01
510.42	29706.08
510.60	29743.53
510.77	30639.95
510.95	31133.81
511.12	30251.42
511.30	30974.65
511.47	31763.41
511.64	30937.20
511.82	31189.98
511.99	30127.38
512.17	30146.10
512.34	29806.72
512.51	29317.55
512.69	29376.06
512.86	30480.80
513.04	30644.63
513.21	30017.37
513.38	30059.50
513.56	29486.07
513.73	28290.06
513.90	28236.22
514.08	28851.78
514.25	29315.21
514.43	30068.86
514.60	29963.54
514.77	29575.01
514.95	29310.53
515.12	29605.44
515.29	30155.46
515.47	30625.91
515.64	30298.23
515.81	30431.65
515.99	29975.24
516.16	27082.34
516.33	25256.72
516.51	24044.32
516.68	23655.79
516.85	23281.31
517.03	24215.18
517.20	26270.17
517.37	28699.65
517.54	28638.80
517.72	26918.50
517.89	25631.21
518.06	24652.86
518.24	25434.60
518.41	26946.59
518.58	28105.15
518.75	27955.36
518.93	28535.81
519.10	28044.30
519.27	28144.94
519.45	29298.83
519.62	29841.83
519.79	30293.55
519.96	29972.90
520.14	28765.18
520.31	28601.35
520.48	28236.22
520.65	28673.90
520.83	29708.42
521.00	29378.40
521.17	28987.53
521.34	28446.87
521.52	28793.27
521.69	29837.15
521.86	30127.38
522.03	29385.43
522.20	28294.74
522.38	27370.22
522.55	27674.49
522.72	28137.92
522.89	27878.12
523.07	28264.31
523.24	29558.63
523.41	29642.88
523.58	29827.79
523.75	29647.57
523.92	30075.88
524.10	30665.70
524.27	30462.07
524.44	30228.02
524.61	31197.00
524.78	30780.39
524.96	30415.26
525.13	29825.45
525.30	31005.08
525.47	31363.18
525.64	31033.16
525.81	28386.02
525.98	27695.56
526.16	25883.98
526.33	25752.91
526.50	26047.82
526.67	26078.25
526.84	26298.26
527.01	27482.57
527.18	28477.30
527.36	28774.55
527.53	29900.34
527.70	29322.23
527.87	28128.56
528.04	28243.24
528.21	29083.50
528.38	29352.66
528.55	30986.35
528.72	30747.62
528.89	30679.74
529.07	31023.80
529.24	28912.64
529.41	29266.06
529.58	28922.00
529.75	28950.09
529.92	28889.23
530.09	29181.80
530.26	29394.79
530.43	28896.25
530.60	30424.62
530.77	30628.25
530.94	31440.42
531.11	30106.31
531.28	29610.12
531.46	29525.86
531.63	30349.73
531.80	30260.79
531.97	28746.46
532.14	27620.66
532.31	26501.89
532.48	26237.41
532.65	26228.04
532.82	27342.14
532.99	28315.80
533.16	29876.94
533.33	30754.64
533.50	29769.27
533.67	28711.35
533.84	28772.21
534.01	28601.35
534.18	28868.17
534.35	28425.81
534.52	28936.04
534.69	28889.23
534.86	28807.31
535.03	29247.33
535.20	30132.06
535.37	29986.94
535.54	29729.48
535.71	29460.32
535.88	29689.70
536.05	28505.38
536.22	28140.26
536.38	27754.07
536.55	28112.17
536.72	27758.75
536.89	27335.12
537.06	28622.41
537.23	28893.91
537.40	28910.30
537.57	28219.84
537.74	27964.72
537.91	27587.89
538.08	29420.53
538.25	29003.92
538.42	28386.02
538.59	28767.52
538.75	28645.82
538.92	28252.61
539.09	27763.43
539.26	26897.44
539.43	26527.63
539.60	26586.15
539.77	26871.69
539.94	26120.38
540.11	25317.57
540.28	25270.76
540.44	25605.46
540.61	26113.36
540.78	26242.09
540.95	27634.71
541.12	26764.03
541.29	27990.47
541.46	27271.92
541.62	27105.74
541.79	26803.82
541.96	26497.20
542.13	27566.83
542.30	27637.05
542.47	27426.40
542.63	26902.12
542.80	26122.72
542.97	26429.33
543.14	26148.46
543.31	25998.67
543.48	27756.41
543.64	27990.47
543.81	28746.46
543.98	27833.65
544.15	27180.64
544.32	26792.11
544.48	27648.75
544.65	26471.46
544.82	27192.34
544.99	27524.70
545.16	27194.68
545.32	27667.47
545.49	27866.42
545.66	27723.65
545.83	26986.38
546.00	27042.55
546.16	26717.22
546.33	26892.76
546.50	27505.98
546.67	27236.81
546.83	26572.10
547.00	26714.87
547.17	26604.87
547.34	26347.41
547.50	26281.88
547.67	26300.60
547.84	26473.80
548.00	26808.50
548.17	26338.05
548.34	25972.92
548.51	26260.81
548.67	27126.81
548.84	27126.81
549.01	27431.08
549.18	27398.31
549.34	28011.53
549.51	27653.43
549.68	27147.87
549.84	26607.21
550.01	26581.46
550.18	25848.88
550.34	25530.56
550.51	26118.04
550.68	25434.60
550.84	24582.65
551.01	24779.25
551.18	24372.00
551.34	24746.48
551.51	26120.38
551.68	26953.61
551.84	26096.97
552.01	26085.27
552.18	25951.86
552.34	25502.48
552.51	25439.28
552.68	26522.95
552.84	25532.90
553.01	25598.44
553.18	26869.35
553.34	26775.73
553.51	26391.88
553.67	25745.89
553.84	26721.90
554.01	26522.95
554.17	25493.12
554.34	25626.53
554.51	26576.78
554.67	26527.63
554.84	25715.47
555.00	25350.34
555.17	25453.33
555.33	25795.04
555.50	26242.09
555.67	25916.75
555.83	25621.84
556.00	25839.51
556.16	25652.27
556.33	25146.72
556.50	25053.09
556.66	24383.70
556.83	23714.31
556.99	24545.20
557.16	24992.24
557.32	24868.19
557.49	25039.05
557.65	25284.81
557.82	23812.61
557.98	24624.78
558.15	24968.84
558.32	24290.08
558.48	23658.14
558.65	23026.19
558.81	23480.25
558.98	23676.86
559.14	24226.89
559.31	24142.63
559.47	24016.24
559.64	23447.49
559.80	24301.78
559.97	23704.95
560.13	24390.72
560.30	24556.90
560.46	24807.34
560.63	25240.34
560.79	25530.56
560.96	24159.01
561.12	24084.11
561.29	23709.63
561.45	23391.31
561.61	23229.82
561.78	23449.83
561.94	23847.72
562.11	23379.61
562.27	23709.63
562.44	24292.42
562.60	23896.87
562.77	24350.93
562.93	23910.91
563.10	23660.48
563.26	23501.32
563.42	23365.57
563.59	22656.39
563.75	23662.82
563.92	23396.00
564.08	23494.30
564.24	23634.73
564.41	22419.99
564.57	22466.80
564.74	22911.50
564.90	22658.73
565.07	22331.05
565.23	21563.36
565.39	21568.04
565.56	22948.95
565.72	22635.32
565.88	23260.24
566.05	22197.64
566.21	22885.76
566.38	22097.00
566.54	22150.83
566.70	21701.45
566.87	22820.22
567.03	23566.85
567.19	24060.71
567.36	22148.49
567.52	22948.95
567.68	22398.93
567.85	22698.52
568.01	22855.33
568.17	21488.46
568.34	21160.78
568.50	21221.64
568.66	21661.66
568.83	21905.07
568.99	22178.92
569.15	22370.84
569.32	22817.88
569.48	22242.11
569.64	21296.53
569.81	21219.30
569.97	21530.59
570.13	21509.52
570.30	21355.05
570.46	20863.54
570.62	19850.08
570.78	19489.64
570.95	20137.97
571.11	20975.88
571.27	20706.72
571.43	21006.31
571.60	21406.54
571.76	21818.47
571.92	21788.05
572.09	21741.24
572.25	21736.56
572.41	21914.44
572.57	22129.77
572.74	21465.05
572.90	21795.07
573.06	21357.39
573.22	21376.11
573.38	21053.12
573.55	20695.02
573.71	20877.58
573.87	21160.78
574.03	21214.62
574.20	21240.36
574.36	20652.89
574.52	20896.30
574.68	20610.76
574.84	20170.74
575.01	20779.28
575.17	21085.89
575.33	20582.67
575.49	20280.74
575.65	20793.32
575.82	20240.95
575.98	20402.45
576.14	20669.27
576.30	20407.13
576.46	19824.34
576.62	20617.78
576.79	20180.10
576.95	19796.25
577.11	19702.63
577.27	19777.53
577.43	19730.72
577.59	19583.26
577.75	20383.73
577.92	19534.11
578.08	18876.42
578.24	19276.65
578.40	19587.94
578.56	19456.87
578.72	19733.06
578.88	20039.67
579.04	19634.75
579.21	19667.52
579.37	19941.36
579.53	19777.53
579.69	19534.11
579.85	18960.68
580.01	18881.10
580.17	19585.60
580.33	19150.26
580.49	19501.34
580.65	19323.46
580.82	19594.96
580.98	19583.26
581.14	19168.99
581.30	20170.74
581.46	19468.58
581.62	19527.09
581.78	19632.41
581.94	19798.59
582.10	19637.09
582.26	19719.01
582.42	19609.01
582.58	20538.20
582.74	20084.14
582.90	19709.65
583.06	19852.42
583.22	19751.78
583.38	19943.70
583.54	20077.12
583.70	19976.47
583.86	19716.67
584.02	20088.82
584.18	19541.13
584.34	19578.58
584.50	20318.19
584.66	19854.76
584.82	19215.80
584.98	19499.00
585.14	19250.91
585.30	18405.97
585.46	18223.41
585.62	17762.33
585.78	18256.18
585.94	18604.92
586.10	19143.24
586.26	18778.12
586.42	18757.05
586.58	18925.57
586.74	18862.38
586.90	18712.58
