SpectraSuite Data File
++++++++++++++++++++++++++++++++++++
Date: Mon Oct 07 14:55:37 GMT-05:00 2013
User: price-jones
Dark Spectrum Present: No
Reference Spectrum Present: No
Number of Sampled Component Spectra: 1
Spectrometers: USB2+H05261
Integration Time (usec): 1000000 (USB2+H05261)
Spectra Averaged: 1 (USB2+H05261)
Boxcar Smoothing: 0 (USB2+H05261)
Correct for Electrical Dark: No (USB2+H05261)
Strobe/Lamp Enabled: No (USB2+H05261)
Correct for Detector Non-linearity: No (USB2+H05261)
Correct for Stray Light: No (USB2+H05261)
Number of Pixels in Processed Spectrum: 2048
>>>>>Begin Processed Spectral Data<<<<<
365.73	0.00
365.92	0.00
366.12	0.00
366.32	0.00
366.52	0.00
366.72	168.52
366.91	0.00
367.11	189.58
367.31	74.90
367.51	159.16
367.70	287.89
367.90	465.77
368.10	205.97
368.30	320.65
368.49	0.00
368.69	311.29
368.89	102.98
369.09	0.00
369.28	95.96
369.48	0.00
369.68	67.88
369.87	201.29
370.07	86.60
370.27	564.07
370.47	2534.80
370.66	8332.31
370.86	9858.34
371.06	10757.10
371.25	11386.71
371.45	9753.01
371.65	9125.75
371.84	8198.90
372.04	8479.76
372.24	9640.67
372.44	9827.91
372.63	9954.30
372.83	9481.51
373.03	8124.00
373.22	7391.41
373.42	7906.33
373.62	9205.33
373.81	9898.13
374.01	10115.80
374.21	9067.24
374.40	8198.90
374.60	8924.46
374.79	9261.50
374.99	10871.79
375.19	11873.54
375.38	11953.12
375.58	11335.21
375.78	11066.05
375.97	11190.10
376.17	11978.86
376.37	11449.90
376.56	12105.25
376.76	12243.34
376.95	13050.83
377.15	14333.44
377.35	14728.99
377.54	15279.02
377.74	15616.05
377.93	15644.14
378.13	15295.40
378.33	14883.47
378.52	13160.83
378.72	13118.70
378.91	12987.63
379.11	12105.25
379.31	11761.19
379.50	11513.10
379.70	12830.82
379.89	14417.70
380.09	14555.79
380.28	14848.36
380.48	14988.79
380.68	14789.85
380.87	14293.65
381.07	13734.26
381.26	12739.54
381.46	11501.39
381.65	11595.01
381.85	11009.88
382.04	10839.02
382.24	10057.28
382.43	9467.47
382.63	9095.32
382.83	9404.27
383.02	9577.47
383.22	9530.66
383.41	9322.35
383.61	9905.15
383.80	11307.13
384.00	12547.61
384.19	14141.52
384.39	14546.43
384.58	14817.93
384.78	14588.56
384.97	14445.79
385.17	13685.11
385.36	12767.62
385.56	12659.96
385.75	12517.18
385.95	13745.97
386.14	15260.29
386.34	15063.69
386.53	14354.51
386.72	13364.46
386.92	13987.04
387.11	14258.54
387.31	15122.20
387.50	14626.01
387.70	14106.41
387.89	14017.47
388.09	14054.92
388.28	14178.97
388.48	14176.62
388.67	15358.60
388.86	16615.46
389.06	17977.65
389.25	18836.63
389.45	19470.92
389.64	18799.18
389.84	18970.04
390.03	18644.71
390.22	18478.53
390.42	18948.98
390.61	20081.80
390.81	21069.50
391.00	21546.97
391.19	22066.57
391.39	20931.41
391.58	19880.51
391.78	18546.40
391.97	18218.73
392.16	16741.85
392.36	15901.60
392.55	12805.07
392.75	10509.01
392.94	8332.31
393.13	8479.76
393.33	9200.65
393.52	11901.62
393.71	14920.92
393.91	16603.76
394.10	17394.86
394.29	19143.24
394.49	20739.49
394.68	22225.73
394.88	22457.44
395.07	23566.85
395.26	22778.09
395.46	22087.64
395.65	21198.23
395.84	19178.35
396.04	16760.58
396.23	13036.78
396.42	10864.77
396.62	10705.61
396.81	12238.66
397.00	15311.78
397.19	18892.80
397.39	21912.10
397.58	25507.16
397.77	26473.80
397.97	27627.68
398.16	27470.87
398.35	28566.24
398.55	29067.11
398.74	30188.23
398.93	31356.16
399.12	30794.43
399.32	29209.89
399.51	30541.65
399.70	32275.99
399.90	32032.57
400.09	31887.46
400.28	31983.42
400.47	31655.75
400.67	33425.19
400.86	34164.80
401.05	34043.09
401.24	34220.97
401.44	34625.89
401.63	34518.22
401.82	35033.14
402.01	34567.37
402.21	35550.40
402.40	35510.61
402.59	34422.26
402.78	32926.66
402.97	31740.00
403.17	33127.94
403.36	35040.16
403.55	36371.92
403.74	36718.32
403.93	35255.49
404.13	33085.81
404.32	31978.74
404.51	33408.81
404.70	36067.66
404.89	35328.05
405.09	35426.35
405.28	33956.49
405.47	34265.44
405.66	34345.02
405.85	33331.57
406.05	32191.73
406.24	32123.85
406.43	33708.40
406.62	35204.00
406.81	35793.81
407.00	34087.56
407.20	33607.75
407.39	33521.15
407.58	34745.25
407.77	35555.08
407.96	37546.87
408.15	37261.33
408.34	37956.47
408.54	39531.65
408.73	39510.58
408.92	39255.46
409.11	38232.65
409.30	36715.98
409.49	33893.30
409.68	32467.91
409.87	31475.52
410.07	32414.08
410.26	35332.73
410.45	37900.29
410.64	38089.88
410.83	39194.61
411.02	40194.02
411.21	41713.03
411.40	41333.86
411.59	40980.44
411.78	40985.12
411.98	40294.66
412.17	41158.32
412.36	39945.92
412.55	40648.08
412.74	39723.57
412.93	39042.48
413.12	38686.71
413.31	42834.14
413.50	42789.67
413.69	43405.23
413.88	42241.99
414.07	40954.69
414.26	41055.34
414.45	43129.05
414.64	43180.54
414.83	43421.62
415.02	41977.51
415.22	42153.05
415.41	43189.91
415.60	43679.08
415.79	44861.05
415.98	46639.86
416.17	46443.25
416.36	45841.73
416.55	44575.50
416.74	43871.00
416.93	42490.09
417.12	41914.31
417.31	42682.01
417.50	43166.50
417.69	44566.14
417.88	44098.03
418.07	43578.43
418.26	42897.34
418.45	43271.82
418.64	45287.03
418.83	46319.20
419.02	45811.31
419.21	45759.81
419.39	43246.08
419.58	41598.34
419.77	41890.91
419.96	43761.00
420.15	46108.55
420.34	46630.49
420.53	47627.56
420.72	48484.20
420.91	48020.77
421.10	48048.86
421.29	47325.63
421.48	45989.19
421.67	48090.99
421.86	46876.25
422.05	44573.16
422.24	40446.80
422.43	39316.32
422.61	42946.49
422.80	46251.33
422.99	46225.58
423.18	44954.67
423.37	44079.31
423.56	44467.84
423.75	44402.30
423.94	45514.06
424.13	43613.54
424.32	43157.14
424.50	44107.40
424.69	42813.08
424.88	43744.61
425.07	43290.55
425.26	43360.76
425.45	43147.78
425.64	42253.69
425.83	42279.44
426.01	44170.59
426.20	45378.31
426.39	45074.04
426.58	42146.03
426.77	38796.72
426.96	37790.29
427.15	39306.96
427.33	42167.09
427.52	43976.33
427.71	43770.36
427.90	43152.46
428.09	42925.42
428.28	41940.06
428.46	40737.02
428.65	40418.71
428.84	40495.95
429.03	42115.60
429.22	39498.88
429.40	37811.35
429.59	34403.53
429.78	30845.92
429.97	30522.93
430.16	31215.72
430.34	31243.81
430.53	30995.71
430.72	31384.24
430.91	34925.47
431.10	39981.03
431.28	46433.89
431.47	49139.55
431.66	49769.15
431.85	46068.76
432.03	43838.23
432.22	42185.82
432.41	42419.87
432.60	47250.74
432.79	47915.45
432.97	49413.39
433.16	48278.23
433.35	45067.02
433.54	41303.43
433.72	38890.34
433.91	40065.29
434.10	43718.87
434.28	46344.95
434.47	48306.32
434.66	47938.85
434.85	47035.41
435.03	47407.55
435.22	48755.70
435.41	51402.85
435.59	51311.56
435.78	50742.81
435.97	51194.54
436.16	51096.24
436.34	50749.84
436.53	50127.25
436.72	50042.99
436.90	47889.70
437.09	48065.24
437.28	46759.22
437.46	48467.81
437.65	48308.66
437.84	46012.59
438.02	42174.11
438.21	41816.01
438.40	43957.60
438.58	47423.93
438.77	48238.44
438.96	48406.96
439.14	49909.58
439.33	50780.26
439.52	51311.56
439.70	50499.40
439.89	50342.58
440.08	48608.25
440.26	48741.66
440.45	49932.99
440.63	51648.60
440.82	52968.66
441.01	53148.88
441.19	52432.68
441.38	52853.98
441.57	54024.25
441.75	54674.91
441.94	54773.22
442.12	54340.22
442.31	55042.38
442.50	54560.23
442.68	54377.67
442.87	54253.62
443.05	53848.71
443.24	53963.39
443.43	54593.00
443.61	55494.10
443.80	55330.26
443.98	53635.72
444.17	53996.16
444.35	55590.06
444.54	56067.53
444.73	55381.76
444.91	54688.96
445.10	53167.61
445.28	52090.96
445.47	51367.74
445.65	51636.90
445.84	52280.55
446.02	53081.01
446.21	53841.68
446.39	53755.08
446.58	53731.68
446.77	54646.83
446.95	54768.54
447.14	55391.12
447.32	56186.90
447.51	55388.78
447.69	54490.01
447.88	54026.59
448.06	54672.57
448.25	55185.15
448.43	55274.09
448.62	54550.87
448.80	54356.60
448.99	54445.54
449.17	54873.86
449.36	54831.73
449.54	56100.30
449.73	55772.63
449.91	56341.38
450.10	57457.81
450.28	57757.40
450.46	57588.88
450.65	57546.75
450.83	57256.53
451.02	56680.75
451.20	56374.14
451.39	56444.36
451.57	56154.13
451.76	56336.69
451.94	55884.97
452.13	54836.41
452.31	54422.14
452.49	52596.52
452.68	52963.98
452.86	53205.06
453.05	53448.47
453.23	54351.92
453.42	54670.23
453.60	55760.92
453.78	56135.41
453.97	55559.64
454.15	55690.71
454.34	54906.63
454.52	55128.98
454.70	54518.10
454.89	54923.01
455.07	54817.69
455.26	55025.99
455.44	56172.86
455.62	56605.86
455.81	57059.92
455.99	56718.20
456.17	56371.80
456.36	56444.36
456.54	57071.62
456.73	57230.78
456.91	57715.27
457.09	57855.70
457.28	58337.85
457.46	56933.53
457.64	57059.92
457.83	55863.91
458.01	55515.17
458.19	55859.23
458.38	55910.72
458.56	57272.91
458.74	56832.89
458.93	56652.67
459.11	56678.41
459.29	56219.67
459.48	56486.49
459.66	56364.78
459.84	56797.78
460.03	57448.45
460.21	56395.21
460.39	57425.04
460.57	57434.41
460.76	58019.54
460.94	57841.66
461.12	57151.20
461.31	57429.72
461.49	57366.53
461.67	57347.81
461.85	57930.60
462.04	58005.50
462.22	60383.48
462.40	57776.12
462.59	58071.03
462.77	57827.62
462.95	58080.39
463.13	57663.78
463.32	57574.84
463.50	57179.29
463.68	57293.97
463.86	57525.69
464.05	56952.26
464.23	56552.02
464.41	56236.05
464.59	55569.00
464.78	57148.86
464.96	56769.69
465.14	57006.09
465.32	57176.95
465.50	57944.64
465.69	57701.23
465.87	57663.78
466.05	57059.92
466.23	55786.67
466.41	55117.28
466.60	56016.04
466.78	55880.29
466.96	56172.86
467.14	56322.65
467.32	57268.23
467.51	57200.35
467.69	55662.62
467.87	56528.62
468.05	56835.23
468.23	57188.65
468.41	57001.41
468.60	56804.80
468.78	57265.89
468.96	56893.74
469.14	57343.12
469.32	57406.32
469.50	56013.70
469.69	56802.46
469.87	56245.41
470.05	55753.90
470.23	55999.66
470.41	56114.34
470.59	56416.27
470.77	56273.50
470.95	56718.20
471.14	57343.12
471.32	56985.02
471.50	59025.97
471.68	58911.28
471.86	58262.96
472.04	58958.09
472.22	58899.58
472.40	57719.95
472.58	57275.25
472.77	56978.00
472.95	57799.53
473.13	58548.50
473.31	57785.49
473.49	57422.70
473.67	58141.25
473.85	58611.70
474.03	59267.05
474.21	58831.71
474.39	59501.10
474.57	59709.41
474.75	59686.00
474.93	59023.63
475.12	58330.83
475.30	58262.96
475.48	58728.72
475.66	59309.18
475.84	58639.78
476.02	58365.94
476.20	58234.87
476.38	58599.99
476.56	58901.92
476.74	59437.90
476.92	60196.24
477.10	60191.56
477.28	60795.42
477.46	60821.16
477.64	60186.88
477.82	61085.64
478.00	61331.40
478.18	60652.64
478.36	60837.54
478.54	60874.99
478.72	60982.66
478.90	61174.58
479.08	62159.95
479.26	61946.96
479.44	62246.55
479.62	61811.21
479.80	62316.76
479.98	62052.28
480.16	62333.15
480.34	62288.68
480.52	62113.14
480.70	62691.25
480.88	62677.21
481.06	62831.68
481.24	63063.39
481.41	63449.58
481.59	64076.85
481.77	64032.38
481.95	63412.13
482.13	63552.57
482.31	63117.23
482.49	63903.65
482.67	63451.92
482.85	63826.41
483.03	64177.49
483.21	64626.87
483.39	64479.42
483.57	63803.00
483.74	63189.78
483.92	63894.28
484.10	63023.61
484.28	64175.15
484.46	64743.90
484.64	64928.80
484.82	64523.89
485.00	63971.52
485.18	63824.07
485.35	63032.97
485.53	61095.00
485.71	59290.45
485.89	58422.11
486.07	59870.90
486.25	61909.51
486.43	63339.58
486.61	63405.11
486.78	63351.28
486.96	63231.91
487.14	64505.16
487.32	64921.78
487.50	65535.00
487.68	65535.00
487.85	65535.00
488.03	65535.00
488.21	65535.00
488.39	65535.00
488.57	65279.88
488.75	65036.47
488.92	65535.00
489.10	65535.00
489.28	65535.00
489.46	65535.00
489.64	65535.00
489.81	65535.00
489.99	65535.00
490.17	65535.00
490.35	65535.00
490.53	65535.00
490.70	65535.00
490.88	65535.00
491.06	65535.00
491.24	65535.00
491.41	65535.00
491.59	65535.00
491.77	65535.00
491.95	65535.00
492.13	65535.00
492.30	65535.00
492.48	65535.00
492.66	65535.00
492.84	65535.00
493.01	65535.00
493.19	65535.00
493.37	65535.00
493.54	65535.00
493.72	65535.00
493.90	65535.00
494.08	65535.00
494.25	65535.00
494.43	65535.00
494.61	65535.00
494.79	65535.00
494.96	65535.00
495.14	65535.00
495.32	65535.00
495.49	65535.00
495.67	65535.00
495.85	65535.00
496.02	65535.00
496.20	65535.00
496.38	65535.00
496.55	65535.00
496.73	65535.00
496.91	65535.00
497.09	65535.00
497.26	65535.00
497.44	65535.00
497.62	65535.00
497.79	65535.00
497.97	65535.00
498.14	65535.00
498.32	65535.00
498.50	65535.00
498.67	65535.00
498.85	65535.00
499.03	65535.00
499.20	65535.00
499.38	65535.00
499.56	65535.00
499.73	65535.00
499.91	65535.00
500.08	65535.00
500.26	65535.00
500.44	65535.00
500.61	65535.00
500.79	65535.00
500.97	65535.00
501.14	65535.00
501.32	65535.00
501.49	65535.00
501.67	65535.00
501.84	65535.00
502.02	65535.00
502.20	65535.00
502.37	65535.00
502.55	65535.00
502.72	65535.00
502.90	65535.00
503.07	65535.00
503.25	65535.00
503.43	65535.00
503.60	65535.00
503.78	65535.00
503.95	65535.00
504.13	65535.00
504.30	65535.00
504.48	65535.00
504.65	65535.00
504.83	65535.00
505.01	65535.00
505.18	65535.00
505.36	65535.00
505.53	65535.00
505.71	65535.00
505.88	65535.00
506.06	65535.00
506.23	65535.00
506.41	65535.00
506.58	65535.00
506.76	65535.00
506.93	65535.00
507.11	65535.00
507.28	65535.00
507.46	65535.00
507.63	65535.00
507.81	65535.00
507.98	65535.00
508.16	65535.00
508.33	65535.00
508.50	65535.00
508.68	65535.00
508.85	65535.00
509.03	65535.00
509.20	65535.00
509.38	65535.00
509.55	65535.00
509.73	65535.00
509.90	65535.00
510.08	65535.00
510.25	65535.00
510.42	65535.00
510.60	65535.00
510.77	65535.00
510.95	65535.00
511.12	65535.00
511.30	65535.00
511.47	65535.00
511.64	65535.00
511.82	65535.00
511.99	65535.00
512.17	65535.00
512.34	65535.00
512.51	65535.00
512.69	65535.00
512.86	65535.00
513.04	65535.00
513.21	65535.00
513.38	65535.00
513.56	65535.00
513.73	65535.00
513.90	65535.00
514.08	65535.00
514.25	65535.00
514.43	65535.00
514.60	65535.00
514.77	65535.00
514.95	65535.00
515.12	65535.00
515.29	65535.00
515.47	65535.00
515.64	65535.00
515.81	65535.00
515.99	65535.00
516.16	65535.00
516.33	65535.00
516.51	65535.00
516.68	65535.00
516.85	65535.00
517.03	65535.00
517.20	65535.00
517.37	65535.00
517.54	65535.00
517.72	65535.00
517.89	65535.00
518.06	65535.00
518.24	65535.00
518.41	65535.00
518.58	65535.00
518.75	65535.00
518.93	65535.00
519.10	65535.00
519.27	65535.00
519.45	65535.00
519.62	65535.00
519.79	65535.00
519.96	65535.00
520.14	65535.00
520.31	65535.00
520.48	65535.00
520.65	65535.00
520.83	65535.00
521.00	65535.00
521.17	65535.00
521.34	65535.00
521.52	65535.00
521.69	65535.00
521.86	65535.00
522.03	65535.00
522.20	65535.00
522.38	65535.00
522.55	65535.00
522.72	65535.00
522.89	65535.00
523.07	65535.00
523.24	65535.00
523.41	65535.00
523.58	65535.00
523.75	65535.00
523.92	65535.00
524.10	65535.00
524.27	65535.00
524.44	65535.00
524.61	65535.00
524.78	65535.00
524.96	65535.00
525.13	65535.00
525.30	65535.00
525.47	65535.00
525.64	65535.00
525.81	65535.00
525.98	65535.00
526.16	65535.00
526.33	65535.00
526.50	65535.00
526.67	65535.00
526.84	65535.00
527.01	65535.00
527.18	65535.00
527.36	65535.00
527.53	65535.00
527.70	65535.00
527.87	65535.00
528.04	65535.00
528.21	65535.00
528.38	65535.00
528.55	65535.00
528.72	65535.00
528.89	65535.00
529.07	65535.00
529.24	65535.00
529.41	65535.00
529.58	65535.00
529.75	65535.00
529.92	65535.00
530.09	65535.00
530.26	65535.00
530.43	65535.00
530.60	65535.00
530.77	65535.00
530.94	65535.00
531.11	65535.00
531.28	65535.00
531.46	65535.00
531.63	65535.00
531.80	65535.00
531.97	65535.00
532.14	65535.00
532.31	65535.00
532.48	65535.00
532.65	65535.00
532.82	65535.00
532.99	65535.00
533.16	65535.00
533.33	65535.00
533.50	65535.00
533.67	65535.00
533.84	65535.00
534.01	65535.00
534.18	65535.00
534.35	65535.00
534.52	65535.00
534.69	65535.00
534.86	65535.00
535.03	65535.00
535.20	65535.00
535.37	65535.00
535.54	65535.00
535.71	65535.00
535.88	65535.00
536.05	65535.00
536.22	65535.00
536.38	65535.00
536.55	65535.00
536.72	65535.00
536.89	65535.00
537.06	65535.00
537.23	65535.00
537.40	65535.00
537.57	65535.00
537.74	65535.00
537.91	65535.00
538.08	65535.00
538.25	65535.00
538.42	65535.00
538.59	65535.00
538.75	65535.00
538.92	65535.00
539.09	65535.00
539.26	65535.00
539.43	65535.00
539.60	65535.00
539.77	65535.00
539.94	65535.00
540.11	65535.00
540.28	65535.00
540.44	65535.00
540.61	65535.00
540.78	65535.00
540.95	65535.00
541.12	65535.00
541.29	65535.00
541.46	65535.00
541.62	65535.00
541.79	65535.00
541.96	65535.00
542.13	65535.00
542.30	65535.00
542.47	65535.00
542.63	65535.00
542.80	65535.00
542.97	65535.00
543.14	65535.00
543.31	65535.00
543.48	65535.00
543.64	65535.00
543.81	65535.00
543.98	65535.00
544.15	65535.00
544.32	65535.00
544.48	65535.00
544.65	65535.00
544.82	65535.00
544.99	65535.00
545.16	65535.00
545.32	65535.00
545.49	65535.00
545.66	65535.00
545.83	65535.00
546.00	65535.00
546.16	65535.00
546.33	65535.00
546.50	65535.00
546.67	65535.00
546.83	65535.00
547.00	65535.00
547.17	65535.00
547.34	65535.00
547.50	65535.00
547.67	65535.00
547.84	65535.00
548.00	65535.00
548.17	65535.00
548.34	65535.00
548.51	65535.00
548.67	65535.00
548.84	65535.00
549.01	65535.00
549.18	65535.00
549.34	65535.00
549.51	65535.00
549.68	65535.00
549.84	65535.00
550.01	65535.00
550.18	65535.00
550.34	65535.00
550.51	65535.00
550.68	65535.00
550.84	65535.00
551.01	65535.00
551.18	65535.00
551.34	65535.00
551.51	65535.00
551.68	65535.00
551.84	65535.00
552.01	65535.00
552.18	65535.00
552.34	65535.00
552.51	65535.00
552.68	65535.00
552.84	65535.00
553.01	65535.00
553.18	65535.00
553.34	65535.00
553.51	65535.00
553.67	65535.00
553.84	65535.00
554.01	65535.00
554.17	65535.00
554.34	65535.00
554.51	65535.00
554.67	65535.00
554.84	65535.00
555.00	65535.00
555.17	65535.00
555.33	65535.00
555.50	65535.00
555.67	65535.00
555.83	65535.00
556.00	65535.00
556.16	65535.00
556.33	65535.00
556.50	65535.00
556.66	65535.00
556.83	65535.00
556.99	65535.00
557.16	65535.00
557.32	65535.00
557.49	65535.00
557.65	65535.00
557.82	65535.00
557.98	65535.00
558.15	65535.00
558.32	65535.00
558.48	65535.00
558.65	65535.00
558.81	65535.00
558.98	65535.00
559.14	65535.00
559.31	65535.00
559.47	65535.00
559.64	65535.00
559.80	65535.00
559.97	65535.00
560.13	65535.00
560.30	65535.00
560.46	65535.00
560.63	65535.00
560.79	65535.00
560.96	65535.00
561.12	65535.00
561.29	65535.00
561.45	65535.00
561.61	65535.00
561.78	65535.00
561.94	65535.00
562.11	65535.00
562.27	65535.00
562.44	65535.00
562.60	65535.00
562.77	65535.00
562.93	65535.00
563.10	65535.00
563.26	65535.00
563.42	65535.00
563.59	65535.00
563.75	65535.00
563.92	65535.00
564.08	65535.00
564.24	65535.00
564.41	65535.00
564.57	65535.00
564.74	65535.00
564.90	65535.00
565.07	65535.00
565.23	65535.00
565.39	65535.00
565.56	65535.00
565.72	65535.00
565.88	65535.00
566.05	65535.00
566.21	65535.00
566.38	65535.00
566.54	65535.00
566.70	65535.00
566.87	65535.00
567.03	65535.00
567.19	65535.00
567.36	65535.00
567.52	65535.00
567.68	65535.00
567.85	65535.00
568.01	65535.00
568.17	65535.00
568.34	65535.00
568.50	65535.00
568.66	65535.00
568.83	65535.00
568.99	65535.00
569.15	65535.00
569.32	65535.00
569.48	65535.00
569.64	65535.00
569.81	65535.00
569.97	65535.00
570.13	65535.00
570.30	65535.00
570.46	65535.00
570.62	65535.00
570.78	65535.00
570.95	65535.00
571.11	65535.00
571.27	65535.00
571.43	65535.00
571.60	65535.00
571.76	65535.00
571.92	65535.00
572.09	65535.00
572.25	65535.00
572.41	65535.00
572.57	65535.00
572.74	65535.00
572.90	65535.00
573.06	65535.00
573.22	65535.00
573.38	65535.00
573.55	65535.00
573.71	65535.00
573.87	65535.00
574.03	65535.00
574.20	65535.00
574.36	65535.00
574.52	65535.00
574.68	65535.00
574.84	65535.00
575.01	65535.00
575.17	65535.00
575.33	65535.00
575.49	65535.00
575.65	65535.00
575.82	65535.00
575.98	65535.00
576.14	65535.00
576.30	65535.00
576.46	65535.00
576.62	65535.00
576.79	65535.00
576.95	65535.00
577.11	65535.00
577.27	65535.00
577.43	65535.00
577.59	65535.00
577.75	65535.00
577.92	65172.22
578.08	64551.98
578.24	65155.83
578.40	65535.00
578.56	65535.00
578.72	65535.00
578.88	65535.00
579.04	65410.95
579.21	65535.00
579.37	65535.00
579.53	65535.00
579.69	65535.00
579.85	65535.00
580.01	65535.00
580.17	65378.18
580.33	65368.82
580.49	65535.00
580.65	65535.00
580.82	65535.00
580.98	65457.76
581.14	65535.00
581.30	65535.00
581.46	65535.00
581.62	65535.00
581.78	65535.00
581.94	65535.00
582.10	65535.00
582.26	65535.00
582.42	65535.00
582.58	65535.00
582.74	65535.00
582.90	65535.00
583.06	65535.00
583.22	65535.00
583.38	65535.00
583.54	65535.00
583.70	65535.00
583.86	65535.00
