SpectraSuite Data File
++++++++++++++++++++++++++++++++++++
Date: Mon Oct 07 14:54:59 GMT-05:00 2013
User: price-jones
Dark Spectrum Present: No
Reference Spectrum Present: No
Number of Sampled Component Spectra: 1
Spectrometers: USB2+H05261
Integration Time (usec): 10000 (USB2+H05261)
Spectra Averaged: 1 (USB2+H05261)
Boxcar Smoothing: 0 (USB2+H05261)
Correct for Electrical Dark: No (USB2+H05261)
Strobe/Lamp Enabled: No (USB2+H05261)
Correct for Detector Non-linearity: No (USB2+H05261)
Correct for Stray Light: No (USB2+H05261)
Number of Pixels in Processed Spectrum: 2048
>>>>>Begin Processed Spectral Data<<<<<
365.73	0.00
365.92	0.00
366.12	0.00
366.32	0.00
366.52	0.00
366.72	0.00
366.91	0.00
367.11	0.00
367.31	0.00
367.51	0.00
367.70	0.00
367.90	0.00
368.10	0.00
368.30	0.00
368.49	0.00
368.69	0.00
368.89	0.00
369.09	0.00
369.28	0.00
369.48	0.00
369.68	0.00
369.87	0.00
370.07	0.00
370.27	0.00
370.47	37.45
370.66	833.23
370.86	976.00
371.06	1135.16
371.25	1067.28
371.45	922.17
371.65	905.79
371.84	866.00
372.04	947.92
372.24	1116.44
372.44	1107.07
372.63	1043.88
372.83	898.77
373.03	791.10
373.22	823.87
373.42	938.55
373.62	940.90
373.81	1055.58
374.01	1029.84
374.21	889.40
374.40	854.30
374.60	1011.11
374.79	1158.57
374.99	1282.61
375.19	1355.17
375.38	1385.60
375.58	1228.78
375.78	1310.70
375.97	1334.11
376.17	1289.64
376.37	1259.21
376.56	1385.60
376.76	1514.33
376.95	1516.67
377.15	1743.70
377.35	1748.38
377.54	1837.32
377.74	1844.34
377.93	1844.34
378.13	1694.55
378.33	1659.44
378.52	1460.49
378.72	1483.90
378.91	1376.24
379.11	1448.79
379.31	1348.15
379.50	1308.36
379.70	1380.92
379.89	1645.40
380.09	1703.91
380.28	1783.49
380.48	1827.96
380.68	1717.95
380.87	1530.71
381.07	1568.16
381.26	1348.15
381.46	1280.27
381.65	1303.68
381.85	1268.57
382.04	1149.20
382.24	1093.03
382.43	1034.52
382.63	1036.86
382.83	917.49
383.02	947.92
383.22	950.26
383.41	1013.45
383.61	1107.07
383.80	1308.36
384.00	1483.90
384.19	1631.35
384.39	1867.75
384.58	1860.73
384.78	1748.38
384.97	1654.76
385.17	1537.73
385.36	1394.96
385.56	1394.96
385.75	1495.60
385.95	1619.65
386.14	1820.94
386.34	1837.32
386.53	1624.33
386.72	1603.27
386.92	1671.14
387.11	1659.44
387.31	1853.70
387.50	1715.61
387.70	1748.38
387.89	1659.44
388.09	1692.21
388.28	1713.27
388.48	1799.87
388.67	1818.60
388.86	2136.91
389.06	2176.70
389.25	2436.50
389.45	2342.88
389.64	2265.64
389.84	2349.90
390.03	2230.53
390.22	2429.48
390.42	2375.64
390.61	2537.14
390.81	2726.72
391.00	2715.02
391.19	2612.04
391.39	2553.52
391.58	2506.71
391.78	2349.90
391.97	2092.44
392.16	1982.43
392.36	1809.23
392.55	1434.75
392.75	1055.58
392.94	870.68
393.13	917.49
393.33	1174.95
393.52	1554.12
393.71	1900.52
393.91	2050.31
394.10	2338.20
394.29	2569.91
394.49	2668.21
394.68	2899.92
394.88	2890.56
395.07	2963.12
395.26	2967.80
395.46	2913.97
395.65	2572.25
395.84	2186.06
396.04	1771.79
396.23	1549.43
396.42	1238.14
396.62	1163.25
396.81	1589.22
397.00	2010.52
397.19	2614.38
397.39	2958.44
397.58	3421.86
397.77	3506.12
397.97	3679.32
398.16	3641.87
398.35	3808.05
398.55	3868.91
398.74	4095.94
398.93	4278.50
399.12	4191.90
399.32	3957.85
399.51	4095.94
399.70	4177.86
399.90	4285.52
400.09	4241.05
400.28	4121.68
400.47	4346.37
400.67	4440.00
400.86	4533.62
401.05	4695.11
401.24	4606.17
401.44	4873.00
401.63	4652.98
401.82	4592.13
402.01	4697.46
402.21	4716.18
402.40	4519.57
402.59	4528.94
402.78	4325.31
402.97	4463.40
403.17	4765.33
403.36	4645.96
403.55	4800.44
403.74	4926.83
403.93	4667.03
404.13	4147.43
404.32	4346.37
404.51	4610.86
404.70	4762.99
404.89	4793.42
405.09	4681.07
405.28	4699.80
405.47	4655.33
405.66	4568.73
405.85	4299.56
406.05	4318.29
406.24	4435.32
406.43	4662.35
406.62	4671.71
406.81	4884.70
407.00	4550.00
407.20	4477.44
407.39	4519.57
407.58	4762.99
407.77	4905.76
407.96	4952.57
408.15	4940.87
408.34	5184.29
408.54	5495.58
408.73	5226.42
408.92	5401.96
409.11	4985.34
409.30	4732.56
409.49	4402.55
409.68	4222.33
409.87	4271.48
410.07	4758.31
410.26	4795.76
410.45	5078.96
410.64	5324.72
410.83	5366.85
411.02	5528.35
411.21	5820.91
411.40	5619.63
411.59	5659.42
411.78	5804.53
411.98	5685.16
412.17	5687.50
412.36	5542.39
412.55	5703.89
412.74	5376.21
412.93	5252.16
413.12	5526.00
413.31	5870.06
413.50	6139.23
413.69	5809.21
413.88	5530.69
414.07	5694.52
414.26	5802.19
414.45	5914.53
414.64	5849.00
414.83	5846.66
415.02	5902.83
415.22	5888.79
415.41	6195.40
415.60	6223.48
415.79	6448.18
415.98	6551.16
416.17	6497.33
416.36	6209.44
416.55	6045.60
416.74	5998.79
416.93	5818.57
417.12	5762.40
417.31	6057.31
417.50	6115.82
417.69	6331.15
417.88	6513.71
418.07	6019.86
418.26	6127.52
418.45	6038.58
418.64	6413.07
418.83	6902.24
419.02	6654.14
419.21	6169.65
419.39	5914.53
419.58	5757.72
419.77	5888.79
419.96	6209.44
420.15	6410.73
420.34	6626.06
420.53	6810.96
420.72	6944.37
420.91	6864.79
421.10	6668.19
421.29	6857.77
421.48	6785.21
421.67	6686.91
421.86	6424.77
422.05	5947.30
422.24	5495.58
422.43	5659.42
422.61	6530.09
422.80	6434.13
422.99	6604.99
423.18	6392.00
423.37	6150.93
423.56	6263.27
423.75	6408.39
423.94	6457.54
424.13	6143.91
424.32	6071.35
424.50	6267.95
424.69	6181.35
424.88	6256.25
425.07	6223.48
425.26	6043.26
425.45	5888.79
425.64	5984.75
425.83	6286.68
426.01	6354.55
426.20	6527.75
426.39	6289.02
426.58	5884.11
426.77	5261.52
426.96	5313.02
427.15	5633.67
427.33	6085.39
427.52	5991.77
427.71	6092.41
427.90	5825.59
428.09	5865.38
428.28	5844.32
428.46	5586.86
428.65	5598.56
428.84	5804.53
429.03	5640.69
429.22	5502.60
429.40	5076.62
429.59	4596.81
429.78	4018.70
429.97	4091.26
430.16	4184.88
430.34	4145.09
430.53	4292.54
430.72	4475.10
430.91	5085.98
431.10	6031.56
431.28	6946.71
431.47	7236.94
431.66	7187.79
431.85	6333.49
432.03	5823.25
432.22	5949.64
432.41	6293.70
432.60	6918.62
432.79	7157.36
432.97	7199.49
433.16	6689.25
433.35	6127.52
433.54	5682.82
433.72	5394.93
433.91	5528.35
434.10	6511.37
434.28	6586.27
434.47	7140.97
434.66	6995.86
434.85	6733.72
435.03	6710.32
435.22	6874.15
435.41	7274.38
435.59	7508.44
435.78	7365.67
435.97	7658.23
436.16	7194.81
436.34	7225.23
436.53	7279.07
436.72	7150.34
436.90	6799.26
437.09	6801.60
437.28	6740.74
437.46	7028.63
437.65	6923.30
437.84	6530.09
438.02	6078.37
438.21	6090.07
438.40	6441.15
438.58	6743.08
438.77	7091.82
438.96	7061.40
439.14	7513.12
439.33	7372.69
439.52	7442.90
439.70	7335.24
439.89	7052.03
440.08	7316.51
440.26	7007.56
440.45	7386.73
440.63	7817.39
440.82	8341.67
441.01	8276.13
441.19	7983.57
441.38	8273.79
441.57	8477.42
441.75	8552.32
441.94	8641.26
442.12	8636.58
442.31	8697.43
442.50	8723.18
442.68	8524.23
442.87	8430.61
443.05	8201.24
443.24	8615.51
443.43	8844.88
443.61	8711.47
443.80	8659.98
443.98	8390.82
444.17	8533.59
444.35	8636.58
444.54	8760.63
444.73	8634.24
444.91	8166.13
445.10	8006.97
445.28	7784.62
445.47	7585.68
445.65	7655.89
445.84	7957.82
446.02	8128.68
446.21	8320.60
446.39	8395.50
446.58	8617.85
446.77	8439.97
446.95	8575.72
447.14	8842.54
447.32	9078.94
447.51	8648.28
447.69	8315.92
447.88	8369.76
448.06	8442.31
448.25	8519.55
448.43	8578.06
448.62	8596.79
448.80	8608.49
448.99	8706.79
449.17	8430.61
449.36	8695.09
449.54	8919.78
449.73	9125.75
449.91	9025.11
450.10	9228.73
450.28	9572.79
450.46	9495.55
450.65	9472.15
450.83	9057.87
451.02	9076.60
451.20	9188.94
451.39	9053.19
451.57	9294.27
451.76	8938.51
451.94	8798.07
452.13	8685.73
452.31	8472.74
452.49	8168.47
452.68	7899.31
452.86	7976.55
453.05	8386.14
453.23	8659.98
453.42	8702.11
453.60	8823.82
453.78	8805.10
453.97	8819.14
454.15	8840.20
454.34	8559.34
454.52	8601.47
454.70	8409.54
454.89	8652.96
455.07	8812.12
455.26	9165.54
455.44	9458.10
455.62	9193.62
455.81	9139.79
455.99	9102.34
456.17	9029.79
456.36	9247.46
456.54	9343.42
456.73	9207.67
456.91	9170.22
457.09	9465.13
457.28	9635.99
457.46	9240.44
457.64	9018.08
457.83	8765.31
458.01	8812.12
458.19	8830.84
458.38	8938.51
458.56	9294.27
458.74	9284.91
458.93	9177.24
459.11	9577.47
459.29	9121.07
459.48	9170.22
459.66	9057.87
459.84	9050.85
460.03	8922.12
460.21	9294.27
460.39	9507.26
460.57	9570.45
460.76	9579.81
460.94	9359.80
461.12	9324.69
461.31	9490.87
461.49	9322.35
461.67	9521.30
461.85	9795.14
462.04	9638.33
462.22	9490.87
462.40	9605.56
462.59	9432.36
462.77	9509.60
462.95	9540.02
463.13	9423.00
463.32	9137.45
463.50	9312.99
463.68	9036.81
463.86	9228.73
464.05	9088.30
464.23	8765.31
464.41	9121.07
464.59	8992.34
464.78	9275.54
464.96	9078.94
465.14	9057.87
465.32	9385.55
465.50	9673.43
465.69	9614.92
465.87	9380.87
466.05	8877.65
466.23	8847.22
466.41	8636.58
466.60	9004.04
466.78	8826.16
466.96	8917.44
467.14	9069.58
467.32	9210.01
467.51	9149.15
467.69	8699.77
467.87	8669.34
468.05	8814.46
468.23	9097.66
468.41	9226.39
468.60	8968.93
468.78	9151.49
468.96	9146.81
469.14	9284.91
469.32	9266.18
469.50	8725.52
469.69	8840.20
469.87	8788.71
470.05	8725.52
470.23	8542.96
470.41	8781.69
470.59	9116.39
470.77	9001.70
470.95	9097.66
471.14	9296.61
471.32	9397.25
471.50	9628.96
471.68	9848.97
471.86	9865.36
472.04	9675.77
472.22	10303.04
472.40	9432.36
472.58	9254.48
472.77	9221.71
472.95	9224.05
473.13	9357.46
473.31	9303.63
473.49	9233.41
473.67	9612.58
473.85	9767.06
474.03	10022.17
474.21	9603.22
474.39	9783.44
474.57	9930.89
474.75	9905.15
474.93	9914.51
475.12	9460.45
475.30	9504.92
475.48	9884.08
475.66	9727.27
475.84	9458.10
476.02	9364.48
476.20	9650.03
476.38	9722.59
476.56	10033.88
476.74	10347.51
476.92	10003.45
477.10	10232.82
477.28	10668.16
477.46	10595.61
477.64	10630.71
477.82	10485.60
478.00	10682.20
478.18	10399.00
478.36	10277.29
478.54	10349.85
478.72	10717.31
478.90	10736.04
479.08	11014.56
479.26	11059.03
479.44	11187.76
479.62	11077.76
479.80	10979.45
479.98	11021.58
480.16	11066.05
480.34	10775.83
480.52	11229.89
480.70	11208.83
480.88	11162.01
481.06	11660.55
481.24	11456.92
481.41	11791.62
481.59	11845.45
481.77	11714.38
481.95	11522.46
482.13	11880.56
482.31	11637.14
482.49	11836.09
482.67	11590.33
482.85	11885.24
483.03	12121.63
483.21	12002.27
483.39	12016.31
483.57	11836.09
483.74	11756.51
483.92	12109.93
484.10	11875.88
484.28	12042.06
484.46	12131.00
484.64	12229.30
484.82	11754.17
485.00	11585.65
485.18	11513.10
485.35	10984.13
485.53	10038.56
485.71	9479.17
485.89	9591.52
486.07	10174.31
486.25	10937.32
486.43	11538.84
486.61	11578.63
486.78	11559.91
486.96	11595.01
487.14	11950.78
487.32	12315.90
487.50	12772.30
487.68	13064.87
487.85	13064.87
488.03	12910.40
488.21	13130.41
488.39	12674.00
488.57	12566.34
488.75	12505.48
488.92	13020.40
489.10	13912.14
489.28	14134.50
489.46	14389.61
489.64	14188.33
489.81	14349.82
489.99	14097.05
490.17	14024.49
490.35	14443.45
490.53	13895.76
490.70	13870.01
490.88	13958.96
491.06	14628.35
491.24	14185.99
491.41	13701.50
491.59	13193.60
491.77	12929.12
491.95	13380.84
492.13	13584.47
492.30	14150.88
492.48	14672.82
492.66	14899.85
492.84	15140.93
493.01	14705.59
493.19	14359.19
493.37	14626.01
493.54	13987.04
493.72	14614.30
493.90	15110.50
494.08	15229.87
494.25	15257.95
494.43	15569.24
494.61	16084.16
494.79	15676.91
494.96	15901.60
495.14	15009.86
495.32	14806.23
495.49	14691.54
495.67	15321.15
495.85	15922.66
496.02	16147.36
496.20	15861.81
496.38	15534.14
496.55	15318.81
496.73	15559.88
496.91	16107.57
497.09	16212.89
497.26	16318.22
497.44	15950.75
497.62	15758.83
497.79	14977.09
497.97	14644.73
498.14	14918.57
498.32	15377.32
498.50	15630.10
498.67	16306.51
498.85	16283.11
499.03	16156.72
499.20	16126.29
499.38	16020.97
499.56	16353.32
499.73	15782.23
499.91	15602.01
500.08	15290.72
500.26	14857.72
500.44	15330.51
500.61	15410.09
500.79	15398.38
500.97	14904.53
501.14	14927.94
501.32	15180.71
501.49	15758.83
501.67	15637.12
501.84	15482.64
502.02	15644.14
502.20	15337.53
502.37	15662.86
502.55	15779.89
502.72	16252.68
502.90	16681.00
503.07	15873.51
503.25	15707.34
503.43	15108.16
503.60	14546.43
503.78	14546.43
503.95	14682.18
504.13	15477.96
504.30	16058.42
504.48	15878.19
504.65	15644.14
504.83	15651.16
505.01	16334.60
505.18	16720.79
505.36	16940.80
505.53	16809.73
505.71	16879.94
505.88	16561.63
506.06	16322.90
506.23	16386.09
506.41	15971.82
506.58	15953.09
506.76	15791.59
506.93	16191.83
507.11	15784.57
507.28	15805.64
507.46	15719.04
507.63	15166.67
507.81	15272.00
507.98	15606.69
508.16	15653.50
508.33	15892.24
508.50	16542.91
508.68	16578.01
508.85	16919.73
509.03	16624.83
509.20	16475.03
509.38	15854.79
509.55	15541.16
509.73	15459.24
509.90	15431.15
510.08	15854.79
510.25	15646.48
510.42	15442.85
510.60	16006.92
510.77	16042.03
510.95	16400.13
511.12	15999.90
511.30	16290.13
511.47	16439.92
511.64	16650.57
511.82	16215.23
511.99	15527.11
512.17	15227.53
512.34	15728.40
512.51	15634.78
512.69	15400.72
512.86	15419.45
513.04	15936.71
513.21	15419.45
513.38	15594.99
513.56	15377.32
513.73	15122.20
513.90	15131.56
514.08	15012.20
514.25	15061.35
514.43	15400.72
514.60	15822.02
514.77	15428.81
514.95	15786.91
515.12	15646.48
515.29	15288.38
515.47	15627.76
515.64	16116.93
515.81	16456.31
515.99	15737.76
516.16	14647.07
516.33	13518.93
516.51	12685.70
516.68	12233.98
516.85	12067.80
517.03	12271.43
517.20	13547.02
517.37	14977.09
517.54	15323.49
517.72	14471.53
517.89	12952.52
518.06	12444.63
518.24	12830.82
518.41	14033.85
518.58	14574.52
518.75	14588.56
518.93	14937.30
519.10	14857.72
519.27	15257.95
519.45	15140.93
519.62	14979.43
519.79	15269.66
519.96	15552.86
520.14	15019.22
520.31	14661.12
520.48	14661.12
520.65	14684.52
520.83	15501.37
521.00	15686.27
521.17	15435.83
521.34	15229.87
521.52	15618.39
521.69	15719.04
521.86	15714.36
522.03	15477.96
522.20	14944.32
522.38	14724.31
522.55	14548.77
522.72	14239.82
522.89	14675.16
523.07	15208.80
523.24	15587.97
523.41	15351.57
523.58	15667.55
523.75	15442.85
523.92	15840.75
524.10	16187.14
524.27	15606.69
524.44	15482.64
524.61	15360.94
524.78	15304.76
524.96	15185.40
525.13	15283.70
525.30	15421.79
525.47	16056.08
525.64	15531.80
525.81	14824.95
525.98	13715.54
526.16	13413.61
526.33	13097.64
526.50	13116.36
526.67	13090.62
526.84	13593.83
527.01	14410.68
527.18	14284.29
527.36	15077.73
527.53	15119.86
527.70	15178.37
527.87	14736.01
528.04	14803.89
528.21	14785.16
528.38	15353.91
528.55	15784.57
528.72	15580.95
528.89	15616.05
529.07	15590.31
529.24	15201.78
529.41	14597.92
529.58	14717.29
529.75	14647.07
529.92	15026.24
530.09	15246.25
530.26	15103.48
530.43	14998.15
530.60	15421.79
530.77	15845.43
530.94	14974.75
531.11	15178.37
531.28	14871.76
531.46	14518.34
531.63	14881.13
531.80	14951.34
531.97	14597.92
532.14	14071.30
532.31	13778.73
532.48	13507.23
532.65	13947.25
532.82	14094.71
532.99	14810.91
533.16	14644.73
533.33	15061.35
533.50	14693.88
533.67	14139.18
533.84	14382.59
534.01	14398.98
534.18	14326.42
534.35	14328.76
534.52	14380.25
534.69	14787.50
534.86	14869.42
535.03	15138.58
535.20	14998.15
535.37	14958.36
535.54	15112.84
535.71	15023.90
535.88	15115.18
536.05	14714.95
536.22	14574.52
536.38	14118.11
536.55	14047.90
536.72	13980.02
536.89	14059.60
537.06	13912.14
537.23	14092.37
537.40	14661.12
537.57	14827.29
537.74	14197.69
537.91	14237.48
538.08	14190.67
538.25	14090.02
538.42	14181.31
538.59	14059.60
538.75	14024.49
538.92	13834.91
539.09	13642.98
539.26	13174.88
539.43	13252.11
539.60	12959.55
539.77	13221.69
539.94	13238.07
540.11	12952.52
540.28	12781.67
540.44	12634.21
540.61	13102.32
540.78	13205.30
540.95	13874.70
541.12	13657.03
541.29	13549.36
541.46	13617.24
541.62	13568.09
541.79	13284.88
541.96	13163.17
542.13	13453.40
542.30	13853.63
542.47	13427.65
542.63	13174.88
542.80	13170.19
542.97	13355.10
543.14	13146.79
543.31	12908.05
543.48	13275.52
543.64	13907.46
543.81	13752.99
543.98	13682.77
544.15	13500.21
544.32	13111.68
544.48	13298.92
544.65	13727.24
544.82	13509.57
544.99	13284.88
545.16	13348.08
545.32	13142.11
545.49	13535.32
545.66	13802.14
545.83	13689.79
546.00	13406.59
546.16	13242.75
546.33	13514.25
546.50	13495.53
546.67	13827.88
546.83	13673.41
547.00	13462.76
547.17	13310.63
547.34	13067.21
547.50	12856.56
547.67	13128.06
547.84	12884.65
548.00	13387.86
548.17	13191.26
548.34	13036.78
548.51	12877.63
548.67	13390.20
548.84	13544.68
549.01	13563.40
549.18	13263.82
549.34	13282.54
549.51	12868.27
549.68	13324.67
549.84	13076.57
550.01	13240.41
550.18	12999.34
550.34	12847.20
550.51	12505.48
550.68	12751.24
550.84	12624.85
551.01	12510.16
551.18	12540.59
551.34	12634.21
551.51	12688.04
551.68	13092.96
551.84	13217.01
552.01	12854.22
552.18	12666.98
552.34	12327.60
552.51	12236.32
552.68	12524.21
552.84	12203.55
553.01	12554.63
553.18	12945.50
553.34	12886.99
553.51	12390.80
553.67	12393.14
553.84	12514.84
554.01	12746.56
554.17	12725.49
554.34	12657.62
554.51	12678.68
554.67	12985.29
554.84	12638.89
555.00	12620.17
555.17	12908.05
555.33	12896.35
555.50	12957.21
555.67	12793.37
555.83	12496.12
556.00	12233.98
556.16	12011.63
556.33	11777.58
556.50	12273.77
556.66	11775.24
556.83	11449.90
556.99	12133.34
557.16	11988.22
557.32	12077.16
557.49	12372.07
557.65	12243.34
557.82	11927.37
557.98	12088.87
558.15	11967.16
558.32	11433.52
558.48	11295.43
558.65	11470.97
558.81	11311.81
558.98	11485.01
559.14	11620.76
559.31	11733.11
559.47	11665.23
559.64	11449.90
559.80	11351.60
559.97	11449.90
560.13	11845.45
560.30	12039.72
560.46	12510.16
560.63	12475.06
560.79	12416.54
560.96	11999.93
561.12	11852.47
561.29	11253.30
561.45	11274.36
561.61	11265.00
561.78	11396.07
561.94	11660.55
562.11	11501.39
562.27	11506.07
562.44	11815.02
562.60	11646.51
562.77	11864.18
562.93	11845.45
563.10	11796.30
563.26	11466.28
563.42	11246.27
563.59	11325.85
563.75	11265.00
563.92	11611.40
564.08	11382.03
564.24	11344.58
564.41	10977.11
564.57	11339.90
564.74	11267.34
564.90	11012.22
565.07	11073.07
565.23	11098.82
565.39	10789.87
565.56	10949.03
565.72	10633.05
565.88	10993.50
566.05	10963.07
566.21	10918.60
566.38	10911.58
566.54	11052.01
566.70	10974.77
566.87	11115.20
567.03	11358.62
567.19	11248.61
567.36	10712.63
567.52	11012.22
567.68	10867.11
567.85	10560.50
568.01	10333.47
568.17	10300.70
568.34	10501.98
568.50	10242.18
568.66	10551.14
568.83	10616.67
568.99	10607.31
569.15	10296.02
569.32	10384.96
569.48	10806.25
569.64	10595.61
569.81	10300.70
569.97	10417.72
570.13	10342.83
570.30	10106.43
570.46	9914.51
570.62	9654.71
570.78	9743.65
570.95	9898.13
571.11	10078.35
571.27	10504.32
571.43	10478.58
571.60	10403.68
571.76	10399.00
571.92	10368.57
572.09	10434.11
572.25	10328.78
572.41	10693.91
572.57	10509.01
572.74	10359.21
572.90	10284.31
573.06	10328.78
573.22	10375.59
573.38	10499.64
573.55	10399.00
573.71	10211.76
573.87	10202.40
574.03	10293.68
574.20	10207.08
574.36	10057.28
574.52	9886.42
574.68	9998.77
574.84	9717.90
575.01	9490.87
575.17	9497.89
575.33	9617.26
575.49	9516.62
575.65	9750.67
575.82	9687.48
575.98	9673.43
576.14	9554.07
576.30	9797.48
576.46	9720.24
576.62	9657.05
576.79	9769.40
576.95	9806.84
577.11	9666.41
577.27	9846.63
577.43	9696.84
577.59	9703.86
577.75	9650.03
577.92	9664.07
578.08	9518.96
578.24	9343.42
578.40	9394.91
578.56	9282.56
578.72	9074.26
578.88	9266.18
579.04	9317.67
579.21	9455.76
579.37	9455.76
579.53	9394.91
579.69	9415.98
579.85	9116.39
580.01	9146.81
580.17	9114.05
580.33	9460.45
580.49	9511.94
580.65	9284.91
580.82	9327.03
580.98	9320.01
581.14	9252.14
581.30	9432.36
581.46	9680.46
581.62	9659.39
581.78	9720.24
581.94	9820.89
582.10	9537.68
582.26	9329.38
582.42	9460.45
582.58	9467.47
582.74	9558.75
582.90	9535.34
583.06	9781.10
583.22	9774.08
583.38	9432.36
583.54	9327.03
583.70	9495.55
583.86	9308.31
584.02	9462.79
584.18	9310.65
584.34	9577.47
584.50	9490.87
584.66	9643.01
584.82	9434.70
584.98	9308.31
585.14	8929.14
585.30	8608.49
585.46	8767.65
585.62	8856.59
585.78	9004.04
585.94	8762.97
586.10	8879.99
586.26	9100.00
586.42	9291.93
586.58	9104.68
586.74	8688.07
586.90	8954.89
587.06	8830.84
587.22	8652.96
587.38	8468.06
587.54	8437.63
587.70	8430.61
587.86	8608.49
588.02	8615.51
588.18	8147.40
588.34	7770.58
588.49	7616.10
588.65	7332.90
588.81	7194.81
588.97	7370.35
589.13	7384.39
589.29	7555.25
589.45	7782.28
589.61	7929.74
589.77	8042.08
589.93	8039.74
590.08	8224.64
590.24	8613.17
590.40	8278.47
590.56	8456.36
590.72	8215.28
