SpectraSuite Data File
++++++++++++++++++++++++++++++++++++
Date: Mon Oct 07 14:53:24 GMT-05:00 2013
User: price-jones
Dark Spectrum Present: No
Reference Spectrum Present: No
Number of Sampled Component Spectra: 1
Spectrometers: USB2+H05261
Integration Time (usec): 100000 (USB2+H05261)
Spectra Averaged: 1 (USB2+H05261)
Boxcar Smoothing: 0 (USB2+H05261)
Correct for Electrical Dark: No (USB2+H05261)
Strobe/Lamp Enabled: No (USB2+H05261)
Correct for Detector Non-linearity: No (USB2+H05261)
Correct for Stray Light: No (USB2+H05261)
Number of Pixels in Processed Spectrum: 2048
>>>>>Begin Processed Spectral Data<<<<<
365.73	0.00
365.92	0.00
366.12	0.00
366.32	0.00
366.52	0.00
366.72	0.00
366.91	0.00
367.11	0.00
367.31	0.00
367.51	0.00
367.70	0.00
367.90	0.00
368.10	0.00
368.30	0.00
368.49	0.00
368.69	0.00
368.89	0.00
369.09	0.00
369.28	0.00
369.48	0.00
369.68	0.00
369.87	0.00
370.07	0.00
370.27	0.00
370.47	550.03
370.66	2787.58
370.86	3400.80
371.06	3667.62
371.25	3639.53
371.45	3258.03
371.65	3075.46
371.84	2803.96
372.04	2871.84
372.24	3274.41
372.44	3527.19
372.63	3288.45
372.83	3215.90
373.03	2923.33
373.22	2562.89
373.42	2768.85
373.62	3075.46
373.81	3456.97
374.01	3297.81
374.21	3063.76
374.40	2888.22
374.60	2850.77
374.79	3337.60
374.99	3810.39
375.19	4184.88
375.38	4168.49
375.58	4025.72
375.78	3873.59
375.97	3915.72
376.17	4156.79
376.37	4028.06
376.56	4322.97
376.76	4435.32
376.95	4664.69
377.15	5100.03
377.35	5313.02
377.54	5479.19
377.74	5640.69
377.93	5565.79
378.13	5413.66
378.33	5203.01
378.52	4657.67
378.72	4615.54
378.91	4596.81
379.11	4484.47
379.31	4297.22
379.50	4287.86
379.70	4582.77
379.89	4952.57
380.09	5376.21
380.28	5408.98
380.48	5416.00
380.68	5352.81
380.87	5366.85
381.07	4849.59
381.26	4479.79
381.46	4145.09
381.65	3915.72
381.85	3896.99
382.04	3852.52
382.24	3588.04
382.43	3283.77
382.63	3286.11
382.83	3295.47
383.02	3213.56
383.22	3300.16
383.41	3368.03
383.61	3531.87
383.80	4065.51
384.00	4795.76
384.19	5090.67
384.39	5657.07
384.58	5383.23
384.78	5462.81
384.97	5418.34
385.17	5111.73
385.36	4849.59
385.56	4547.66
385.75	4795.76
385.95	5032.15
386.14	5696.86
386.34	5540.05
386.53	5420.68
386.72	5055.56
386.92	5039.17
387.11	5160.88
387.31	5593.88
387.50	5479.19
387.70	5313.02
387.89	5261.52
388.09	5331.74
388.28	5298.97
388.48	5425.36
388.67	5935.60
388.86	6303.06
389.06	6911.60
389.25	7080.12
389.45	7234.60
389.64	7356.30
389.84	7126.93
390.03	7138.63
390.22	7180.76
390.42	7190.13
390.61	7866.54
390.81	8421.25
391.00	8470.40
391.19	8486.78
391.39	8046.76
391.58	7700.36
391.78	7173.74
391.97	7028.63
392.16	6441.15
392.36	5954.32
392.55	4755.97
392.75	3985.93
392.94	3087.17
393.13	2946.73
393.33	3496.76
393.52	4550.00
393.71	5631.33
393.91	6305.40
394.10	6876.49
394.29	7583.34
394.49	8145.06
394.68	8840.20
394.88	8971.27
395.07	8807.44
395.26	8910.42
395.46	8788.71
395.65	8409.54
395.84	7447.58
396.04	6160.29
396.23	5067.26
396.42	4170.83
396.62	4046.79
396.81	4542.98
397.00	6031.56
397.19	7435.88
397.39	8837.86
397.58	10115.80
397.77	10724.33
397.97	10930.30
398.16	11075.42
398.35	11452.24
398.55	11955.46
398.74	12430.59
398.93	12662.30
399.12	12423.56
399.32	11747.15
399.51	12210.57
399.70	13050.83
399.90	12645.91
400.09	13022.74
400.28	12847.20
400.47	12954.87
400.67	13640.64
400.86	14155.56
401.05	13778.73
401.24	14036.19
401.44	14288.97
401.63	14047.90
401.82	14104.07
402.01	14569.83
402.21	14675.16
402.40	14771.12
402.59	14178.97
402.78	13469.78
402.97	13195.94
403.17	13572.77
403.36	14052.58
403.55	14974.75
403.74	15084.75
403.93	14516.00
404.13	13502.55
404.32	13116.36
404.51	13715.54
404.70	14656.43
404.89	14932.62
405.09	14588.56
405.28	14097.05
405.47	14338.12
405.66	13977.68
405.85	13879.38
406.05	13418.29
406.24	13624.26
406.43	13853.63
406.62	14925.60
406.81	14628.35
407.00	14150.88
407.20	13980.02
407.39	13935.55
407.58	14532.39
407.77	15295.40
407.96	15873.51
408.15	15953.09
408.34	16042.03
408.54	16451.63
408.73	16730.15
408.92	16491.41
409.11	15981.18
409.30	15241.57
409.49	14342.80
409.68	13303.60
409.87	12912.74
410.07	13820.86
410.26	14972.41
410.45	15903.94
410.64	16278.43
410.83	16936.12
411.02	16954.84
411.21	17806.80
411.40	17422.95
411.59	17633.60
411.78	17422.95
411.98	17322.30
412.17	17755.30
412.36	17200.60
412.55	17547.00
412.74	17406.56
412.93	16631.85
413.12	16915.05
413.31	18569.81
413.50	18405.97
413.69	18911.53
413.88	17909.78
414.07	17460.40
414.26	17949.57
414.45	18368.52
414.64	18333.42
414.83	18567.47
415.02	18097.02
415.22	18120.43
415.41	18501.93
415.60	19379.64
415.79	20056.05
415.98	20173.08
416.17	20369.68
416.36	19499.00
416.55	19618.37
416.74	19030.90
416.93	18167.24
417.12	18300.65
417.31	18604.92
417.50	18792.16
417.69	19391.34
417.88	19524.75
418.07	19403.04
418.26	19239.20
418.45	19456.87
418.64	20217.55
418.83	20507.77
419.02	19988.18
419.21	20135.63
419.39	19365.59
419.58	18499.59
419.77	18249.16
419.96	19377.30
420.15	20243.29
420.34	20900.98
420.53	21546.97
420.72	21671.02
420.91	21507.18
421.10	21546.97
421.29	21118.65
421.48	20655.23
421.67	21598.46
421.86	21102.27
422.05	19693.27
422.24	17605.51
422.43	17509.55
422.61	19054.30
422.80	21041.42
422.99	20615.44
423.18	19903.92
423.37	19623.05
423.56	19805.61
423.75	20304.15
423.94	20365.00
424.13	19501.34
424.32	19351.55
424.50	19777.53
424.69	19314.10
424.88	19545.81
425.07	19379.64
425.26	19358.57
425.45	19197.07
425.64	19021.53
425.83	18829.61
426.01	20210.53
426.20	20311.17
426.39	20126.27
426.58	18801.52
426.77	17451.03
426.96	16472.69
427.15	17493.16
427.33	19152.60
427.52	19520.07
427.71	19508.37
427.90	19461.55
428.09	19293.04
428.28	18733.65
428.46	18412.99
428.65	17926.16
428.84	18349.80
429.03	18684.50
429.22	17476.78
429.40	16549.93
429.59	15178.37
429.78	13327.01
429.97	13757.67
430.16	13600.85
430.34	13631.28
430.53	13413.61
430.72	14169.60
430.91	15552.86
431.10	18291.29
431.28	21453.35
431.47	23063.64
431.66	23623.03
431.85	21448.67
432.03	19812.63
432.22	18700.88
432.41	19594.96
432.60	21439.31
432.79	22417.65
432.97	23194.71
433.16	22644.68
433.35	20683.31
433.54	18707.90
433.72	17273.15
433.91	17956.59
434.10	20493.73
434.28	22052.53
434.47	22689.15
434.66	22167.21
434.85	21771.66
435.03	21720.17
435.22	22195.30
435.41	23683.88
435.59	23187.69
435.78	23796.23
435.97	24568.60
436.16	24907.98
436.34	23924.96
436.53	23644.09
436.72	23576.22
436.90	22698.52
437.09	22314.67
437.28	22001.04
437.46	22848.31
437.65	23016.83
437.84	21125.68
438.02	19286.01
438.21	19365.59
438.40	20353.30
438.58	22106.36
438.77	22703.20
438.96	23063.64
439.14	24231.57
439.33	24271.36
439.52	25017.99
439.70	24379.02
439.89	23634.73
440.08	23190.03
440.26	23058.96
440.45	23960.06
440.63	25350.34
440.82	26906.80
441.01	26845.94
441.19	26389.54
441.38	26466.78
441.57	27690.88
441.75	27941.32
441.94	27997.49
442.12	27786.84
442.31	28479.64
442.50	28301.76
442.68	28184.73
442.87	27819.61
443.05	27295.33
443.24	27590.24
443.43	28362.61
443.61	28788.59
443.80	29034.35
443.98	27566.83
444.17	27618.32
444.35	29172.44
444.54	29553.94
444.73	29399.47
444.91	28046.64
445.10	26813.18
445.28	25855.90
445.47	25221.61
445.65	25640.57
445.84	26408.26
446.02	27105.74
446.21	27363.20
446.39	27868.76
446.58	28058.34
446.77	28287.71
446.95	28687.95
447.14	29535.22
447.32	30288.87
447.51	29472.03
447.69	28343.89
447.88	27915.57
448.06	27976.42
448.25	29373.72
448.43	29336.27
448.62	28577.94
448.80	28547.51
448.99	28769.86
449.17	28882.21
449.36	28783.91
449.54	29839.49
449.73	30382.49
449.91	30654.00
450.10	31449.78
450.28	32198.75
450.46	31786.82
450.65	32091.09
450.83	31508.29
451.02	31110.40
451.20	30845.92
451.39	30993.37
451.57	30686.76
451.76	30305.26
451.94	30562.72
452.13	29912.05
452.31	28343.89
452.49	27096.38
452.68	27644.07
452.86	27552.79
453.05	28210.48
453.23	28856.46
453.42	29095.20
453.60	30272.49
453.78	30363.77
453.97	30164.82
454.15	29867.58
454.34	29886.30
454.52	29483.73
454.70	28669.22
454.89	29228.61
455.07	29668.63
455.26	29888.64
455.44	31007.42
455.62	31489.57
455.81	31681.49
455.99	31239.13
456.17	31512.97
456.36	31529.36
456.54	32535.79
456.73	32353.23
456.91	32802.61
457.09	32505.36
457.28	33280.08
457.46	32105.13
457.64	31641.70
457.83	30927.84
458.01	30494.84
458.19	30775.70
458.38	31035.50
458.56	32329.82
458.74	32196.41
458.93	31428.71
459.11	31309.35
459.29	31250.83
459.48	31819.58
459.66	30979.33
459.84	31660.43
460.03	31931.93
460.21	31775.11
460.39	32617.71
460.57	32739.41
460.76	33336.25
460.94	33392.42
461.12	32416.42
461.31	32889.21
461.49	32432.80
461.67	32685.58
461.85	33549.24
462.04	33560.94
462.22	34611.84
462.40	33474.34
462.59	33795.00
462.77	33937.77
462.95	33504.77
463.13	33298.80
463.32	32844.74
463.50	32774.52
463.68	32554.51
463.86	33024.96
464.05	32486.64
464.23	31985.76
464.41	31576.17
464.59	31051.89
464.78	32369.61
464.96	32266.63
465.14	31922.57
465.32	32917.29
465.50	33298.80
465.69	33759.89
465.87	33259.01
466.05	32374.29
466.23	30984.01
466.41	30199.93
466.60	31475.52
466.78	31517.65
466.96	31744.69
467.14	32079.38
467.32	32650.47
467.51	32662.18
467.69	31054.23
467.87	31695.53
468.05	32381.31
468.23	32266.63
468.41	32435.14
468.60	32446.85
468.78	32966.45
468.96	32318.12
469.14	32716.01
469.32	33102.20
469.50	31969.38
469.69	32280.67
469.87	31695.53
470.05	31288.28
470.23	31718.94
470.41	31800.86
470.59	32350.88
470.77	32306.41
470.95	33008.58
471.14	33455.62
471.32	33081.13
471.50	34820.15
471.68	35084.63
471.86	35737.64
472.04	35545.72
472.22	35604.23
472.40	34054.79
472.58	33900.32
472.77	33635.84
472.95	34293.53
473.13	34857.60
473.31	34230.33
473.49	34490.13
473.67	35061.22
473.85	35068.25
474.03	36140.21
474.21	35742.32
474.39	36495.97
474.57	36624.70
474.75	36121.49
474.93	36275.96
475.12	35365.49
475.30	35477.84
475.48	35683.81
475.66	35976.37
475.84	35849.99
476.02	35463.80
476.20	35058.88
476.38	35864.03
476.56	36865.78
476.74	37287.07
476.92	37088.13
477.10	37942.42
477.28	39175.89
477.46	38660.97
477.64	39210.99
477.82	39515.26
478.00	39941.24
478.18	39133.76
478.36	38780.34
478.54	38976.94
478.72	39126.74
478.90	40016.14
479.08	41544.51
479.26	41825.37
479.44	41476.63
479.62	41106.83
479.80	41446.21
479.98	41694.30
480.16	41598.34
480.34	41177.04
480.52	41799.63
480.70	42188.16
480.88	42068.79
481.06	43093.94
481.24	43115.01
481.41	43894.41
481.59	44123.78
481.77	44184.63
481.95	43459.07
482.13	43543.33
482.31	43910.79
482.49	44641.04
482.67	43990.37
482.85	44341.45
483.03	44804.88
483.21	45378.31
483.39	45425.12
483.57	44336.77
483.74	44030.16
483.92	44676.15
484.10	44472.52
484.28	45787.90
484.46	45806.62
484.64	46848.16
484.82	45612.36
485.00	44879.77
485.18	44271.23
485.35	43180.54
485.53	40116.78
485.71	36334.48
485.89	35864.03
486.07	37792.63
486.25	40638.72
486.43	43313.95
486.61	43952.92
486.78	44121.44
486.96	44156.55
487.14	45717.68
487.32	46822.42
487.50	47285.84
487.68	48828.26
487.85	49123.16
488.03	49408.71
488.21	48889.11
488.39	48198.65
488.57	47217.97
488.75	47026.04
488.92	48128.44
489.10	50487.70
489.28	51777.33
489.46	52638.65
489.64	52474.81
489.81	52743.97
489.99	52156.50
490.17	52196.29
490.35	52797.80
490.53	52055.85
490.70	51772.65
490.88	51393.48
491.06	52577.79
491.24	52453.75
491.41	51646.26
491.59	49652.12
491.77	49015.50
491.95	50387.05
492.13	51669.67
492.30	52589.50
492.48	53890.83
492.66	53998.50
492.84	54068.72
493.01	53818.28
493.19	53261.23
493.37	52760.36
493.54	52650.35
493.72	53167.61
493.90	54188.08
494.08	55128.98
494.25	55185.15
494.43	55494.10
494.61	56280.52
494.79	55973.91
494.96	55800.71
495.14	55250.69
495.32	54108.50
495.49	53860.41
495.67	54511.08
495.85	56055.83
496.02	56444.36
496.20	56537.98
496.38	55714.11
496.55	55576.02
496.73	56081.58
496.91	56259.46
497.09	56739.27
497.26	57134.82
497.44	56491.17
497.62	55987.95
497.79	55042.38
497.97	54103.82
498.14	54188.08
498.32	55260.05
498.50	56257.12
498.67	56746.29
498.85	56554.36
499.03	56793.10
499.20	57003.75
499.38	56807.14
499.56	56748.63
499.73	56292.22
499.91	56081.58
500.08	55353.67
500.26	55023.65
500.44	55035.36
500.61	55896.67
500.79	55842.84
500.97	55348.99
501.14	55213.24
501.32	55143.02
501.49	55283.45
501.67	55370.05
501.84	55980.93
502.02	56240.73
502.20	56388.19
502.37	56757.99
502.55	56629.26
502.72	57291.63
502.90	57790.17
503.07	57331.42
503.25	57127.80
503.43	56128.39
503.60	55236.64
503.78	54789.60
503.95	55096.21
504.13	56736.93
504.30	57441.43
504.48	57354.83
504.65	56928.85
504.83	56919.49
505.01	57457.81
505.18	57909.53
505.36	58489.99
505.53	58504.03
505.71	58777.87
505.88	58635.10
506.06	58003.16
506.23	57776.12
506.41	57361.85
506.58	57841.66
506.76	57752.72
506.93	57553.77
507.11	57343.12
507.28	57511.64
507.46	56898.42
507.63	56348.40
507.81	56530.96
507.98	56479.47
508.16	57186.31
508.33	57748.04
508.50	58269.98
508.68	58375.30
508.85	58745.11
509.03	58726.38
509.20	58915.96
509.38	58166.99
509.55	57331.42
509.73	57359.51
509.90	57832.30
510.08	58071.03
510.25	57923.58
510.42	57797.19
510.60	57811.23
510.77	58131.89
510.95	58775.53
511.12	58688.93
511.30	59014.27
511.47	59068.10
511.64	59098.53
511.82	58906.60
511.99	58026.56
512.17	57893.15
512.34	57329.08
512.51	57565.48
512.69	57673.14
512.86	57577.18
513.04	58220.83
513.21	58007.84
513.38	58028.90
513.56	57336.10
513.73	56839.91
513.90	56903.10
514.08	57202.69
514.25	57352.49
514.43	57616.97
514.60	57605.26
514.77	57822.93
514.95	57968.05
515.12	57778.46
515.29	57979.75
515.47	58590.63
515.64	58754.47
515.81	58295.72
515.99	57755.06
516.16	56512.23
516.33	54213.83
516.51	52463.11
516.68	51943.51
516.85	50843.46
517.03	51648.60
517.20	54569.59
517.37	57003.75
517.54	57972.73
517.72	57317.38
517.89	54976.84
518.06	52559.07
518.24	52727.59
518.41	55199.19
518.58	56392.87
518.75	56795.44
518.93	56924.17
519.10	56573.09
519.27	57261.21
519.45	57399.30
519.62	58103.80
519.79	58417.43
519.96	58190.40
520.14	57911.88
520.31	57034.17
520.48	56779.06
520.65	57277.59
520.83	58218.49
521.00	58553.18
521.17	58354.24
521.34	57792.51
521.52	58262.96
521.69	58621.06
521.86	59070.44
522.03	58852.77
522.20	57528.03
522.38	56690.12
522.55	56582.45
522.72	57038.86
522.89	57633.35
523.07	57593.56
523.24	57930.60
523.41	58808.30
523.58	59107.89
523.75	59482.37
523.92	59304.49
524.10	59047.04
524.27	59229.60
524.44	59161.72
524.61	58958.09
524.78	58691.27
524.96	58618.72
525.13	58747.45
525.30	58801.28
525.47	59194.49
525.64	59227.26
525.81	58714.68
525.98	57200.35
526.16	55866.25
526.33	54859.82
526.50	54787.26
526.67	54499.37
526.84	55131.32
527.01	55765.60
527.18	56870.34
527.36	57729.31
527.53	58637.44
527.70	58820.00
527.87	58190.40
528.04	57701.23
528.21	58129.54
528.38	58958.09
528.55	59543.23
528.72	59753.88
528.89	59779.62
529.07	59517.48
529.24	58901.92
529.41	58265.30
529.58	57780.81
529.75	57801.87
529.92	58351.90
530.09	58775.53
530.26	59243.64
530.43	59370.03
530.60	59414.50
530.77	59709.41
530.94	59833.46
531.11	59487.06
531.28	58974.48
531.46	58770.85
531.63	59089.16
531.80	58719.36
531.97	58508.71
532.14	57570.16
532.31	56748.63
532.48	56025.40
532.65	55913.06
532.82	57041.20
532.99	58014.86
533.16	58501.69
533.33	58965.12
533.50	58543.82
533.67	57996.13
533.84	57663.78
534.01	58096.78
534.18	58174.02
534.35	58372.96
534.52	58340.19
534.69	58286.36
534.86	58726.38
535.03	58983.84
535.20	59412.16
535.37	59540.89
535.54	59711.75
535.71	59461.31
535.88	59037.67
536.05	58471.26
536.22	58361.26
536.38	57656.76
536.55	57553.77
536.72	56783.74
536.89	56589.47
537.06	57600.58
537.23	58731.06
537.40	58578.93
537.57	58663.19
537.74	58520.41
537.91	58412.75
538.08	58450.20
538.25	58337.85
538.42	58567.23
538.59	58298.06
538.75	57654.42
538.92	57509.30
539.09	57141.84
539.26	57303.34
539.43	57017.79
539.60	56956.94
539.77	57275.25
539.94	57059.92
540.11	56360.10
540.28	55810.07
540.44	56177.54
540.61	56205.62
540.78	56537.98
540.95	56872.68
541.12	57308.02
541.29	57490.58
541.46	57832.30
541.62	58012.52
541.79	58014.86
541.96	57064.60
542.13	57209.71
542.30	57502.28
542.47	57755.06
542.63	57418.02
542.80	57193.33
542.97	57357.17
543.14	57064.60
543.31	57095.03
543.48	57631.01
543.64	58375.30
543.81	58745.11
543.98	58747.45
544.15	57741.02
544.32	57057.58
544.48	57476.54
544.65	57797.19
544.82	58272.32
544.99	57961.03
545.16	57546.75
545.32	57333.76
545.49	58174.02
545.66	58513.39
545.83	57991.45
546.00	57825.28
546.16	57427.38
546.33	57317.38
546.50	57448.45
546.67	57839.32
546.83	57172.27
547.00	57254.18
547.17	56797.78
547.34	56165.84
547.50	56172.86
547.67	56542.66
547.84	56755.65
548.00	56961.62
548.17	57509.30
548.34	57319.72
548.51	57418.02
548.67	57605.26
548.84	57591.22
549.01	57439.09
549.18	57308.02
549.34	57219.08
549.51	57354.83
549.68	57167.58
549.84	56921.83
550.01	56828.21
550.18	56779.06
550.34	56734.59
550.51	56980.34
550.68	57024.81
550.84	56559.05
551.01	56685.43
551.18	56573.09
551.34	56900.76
551.51	57378.23
551.68	57558.45
551.84	57556.11
552.01	57293.97
552.18	57111.41
552.34	56282.86
552.51	56041.79
552.68	55711.77
552.84	56554.36
553.01	56765.01
553.18	56514.58
553.34	56788.42
553.51	56708.84
553.67	56875.02
553.84	57097.37
554.01	57078.64
554.17	56821.19
554.34	56844.59
554.51	57109.07
554.67	57455.47
554.84	57139.50
555.00	56802.46
555.17	56364.78
555.33	56402.23
555.50	56589.47
555.67	56664.37
555.83	56395.21
556.00	56079.24
556.16	56189.24
556.33	55648.58
556.50	55554.96
556.66	55561.98
556.83	55384.10
556.99	55543.25
557.16	55540.91
557.32	56104.98
557.49	56210.31
557.65	55938.80
557.82	56149.45
557.98	55751.56
558.15	55360.69
558.32	54536.82
558.48	53773.81
558.65	53982.12
558.81	54185.74
558.98	54527.46
559.14	55000.25
559.31	54864.50
559.47	54972.16
559.64	54459.58
559.80	54274.68
559.97	54419.80
560.13	54742.79
560.30	55763.26
560.46	56308.61
560.63	56451.38
560.79	56240.73
560.96	55861.57
561.12	54773.22
561.29	54080.42
561.45	54021.90
561.61	54581.29
561.78	55018.97
561.94	55084.51
562.11	54944.08
562.27	54574.27
562.44	55072.81
562.60	55206.22
562.77	55632.19
562.93	55358.35
563.10	55072.81
563.26	54651.51
563.42	54939.39
563.59	54387.03
563.75	54761.51
563.92	54623.42
564.08	54487.67
564.24	55079.83
564.41	54871.52
564.57	54824.71
564.74	54590.66
564.90	54646.83
565.07	54225.53
565.23	53902.54
565.39	53413.37
565.56	53230.80
565.72	53113.78
565.88	53333.79
566.05	53235.48
566.21	53645.08
566.38	53893.18
566.54	53860.41
566.70	54405.75
566.87	54590.66
567.03	54637.47
567.19	54794.28
567.36	54639.81
567.52	54389.37
567.68	54171.70
567.85	53165.27
568.01	53127.82
568.17	52484.17
568.34	52591.84
568.50	52755.68
568.66	52530.98
568.83	53041.22
568.99	53045.90
569.15	53418.05
569.32	53443.79
569.48	53165.27
569.64	52877.38
569.81	52832.91
569.97	52779.08
570.13	52341.40
570.30	51917.76
570.46	51608.81
570.62	50815.37
570.78	50878.57
570.95	51196.88
571.11	51934.15
571.27	52090.96
571.43	52477.15
571.60	52622.26
571.76	52601.20
571.92	52853.98
572.09	53298.68
572.25	53258.89
572.41	53336.13
572.57	52999.09
572.74	52940.58
572.90	52317.99
573.06	52659.71
573.22	52711.20
573.38	52655.03
573.55	52540.35
573.71	52928.87
573.87	52809.51
574.03	52051.17
574.20	52409.28
574.36	52133.09
574.52	51983.30
574.68	51861.59
574.84	51145.39
575.01	51098.58
575.17	51016.66
575.33	51192.20
575.49	51409.87
575.65	51840.53
575.82	51440.29
575.98	51182.84
576.14	51185.18
576.30	51641.58
576.46	51732.86
576.62	51566.68
576.79	51660.30
576.95	51239.01
577.11	51175.81
577.27	51428.59
577.43	51573.70
577.59	51063.47
577.75	50808.35
577.92	49886.18
578.08	49460.20
578.24	49965.76
578.40	50045.33
578.56	50223.22
578.72	50295.77
578.88	50525.14
579.04	50827.07
579.21	50773.24
579.37	51028.36
579.53	51040.06
579.69	50845.80
579.85	51096.24
580.01	51213.26
580.17	50700.68
580.33	50398.76
580.49	50153.00
580.65	50637.49
580.82	51042.40
580.98	50878.57
581.14	50637.49
581.30	50490.04
581.46	50529.83
581.62	50951.12
581.78	50944.10
581.94	51386.46
582.10	51236.67
582.26	50763.88
582.42	50913.67
582.58	51398.16
582.74	50855.16
582.90	51063.47
583.06	51009.64
583.22	51145.39
583.38	50766.22
583.54	50569.61
583.70	50288.75
583.86	50569.61
584.02	50782.60
584.18	51004.95
584.34	50354.29
584.50	50270.03
584.66	50291.09
584.82	49799.58
584.98	49722.34
585.14	49469.56
585.30	48540.37
