SpectraSuite Data File
++++++++++++++++++++++++++++++++++++
Date: Mon Oct 07 14:52:56 GMT-05:00 2013
User: price-jones
Dark Spectrum Present: No
Reference Spectrum Present: No
Number of Sampled Component Spectra: 1
Spectrometers: USB2+H05261
Integration Time (usec): 100000 (USB2+H05261)
Spectra Averaged: 1 (USB2+H05261)
Boxcar Smoothing: 0 (USB2+H05261)
Correct for Electrical Dark: No (USB2+H05261)
Strobe/Lamp Enabled: No (USB2+H05261)
Correct for Detector Non-linearity: No (USB2+H05261)
Correct for Stray Light: No (USB2+H05261)
Number of Pixels in Processed Spectrum: 2048
>>>>>Begin Processed Spectral Data<<<<<
365.73	0.00
365.92	0.00
366.12	0.00
366.32	0.00
366.52	0.00
366.72	0.00
366.91	0.00
367.11	0.00
367.31	0.00
367.51	0.00
367.70	0.00
367.90	0.00
368.10	0.00
368.30	0.00
368.49	0.00
368.69	0.00
368.89	0.00
369.09	0.00
369.28	0.00
369.48	0.00
369.68	0.00
369.87	0.00
370.07	0.00
370.27	0.00
370.47	463.43
370.66	2476.29
370.86	2775.88
371.06	3124.62
371.25	3155.04
371.45	2733.75
371.65	2483.31
371.84	2410.75
372.04	2532.46
372.24	2794.60
372.44	2899.92
372.63	2906.95
372.83	2782.90
373.03	2284.36
373.22	2148.61
373.42	2183.72
373.62	2534.80
373.81	2883.54
374.01	2906.95
374.21	2506.71
374.40	2399.05
374.60	2619.06
374.79	2743.11
374.99	3372.71
375.19	3499.10
375.38	3517.83
375.58	3279.09
375.78	3309.52
375.97	3236.96
376.17	3400.80
376.37	3478.04
376.56	3524.85
376.76	3693.37
376.95	3997.64
377.15	4271.48
377.35	4463.40
377.54	4695.11
377.74	4784.06
377.93	4608.51
378.13	4629.58
378.33	4510.21
378.52	3988.27
378.72	3824.44
378.91	3662.94
379.11	3606.77
379.31	3651.24
379.50	3499.10
379.70	3904.01
379.89	4248.07
380.09	4540.64
380.28	4641.28
380.48	4671.71
380.68	4547.66
380.87	4451.70
381.07	4077.21
381.26	3723.79
381.46	3688.68
381.65	3543.57
381.85	3358.67
382.04	3136.32
382.24	2942.05
382.43	2766.51
382.63	2736.09
382.83	2686.94
383.02	2745.45
383.22	2803.96
383.41	2935.03
383.61	2937.37
383.80	3503.78
384.00	4084.23
384.19	4365.10
384.39	4634.26
384.58	4592.13
384.78	4550.00
384.97	4491.49
385.17	4217.65
385.36	3976.57
385.56	3794.01
385.75	4007.00
385.95	4255.09
386.14	4629.58
386.34	4678.73
386.53	4580.43
386.72	4231.69
386.92	4322.97
387.11	4526.60
387.31	4737.24
387.50	4732.56
387.70	4454.04
387.89	4475.10
388.09	4491.49
388.28	4517.23
388.48	4589.79
388.67	5085.98
388.86	5378.55
389.06	5827.93
389.25	6099.44
389.45	6258.59
389.64	6260.93
389.84	6080.71
390.03	6008.16
390.22	6122.84
390.42	6434.13
390.61	6532.44
390.81	6979.48
391.00	7178.42
391.19	7370.35
391.39	6700.95
391.58	6427.11
391.78	5975.39
391.97	5841.98
392.16	5397.28
392.36	4915.12
392.55	3918.06
392.75	3136.32
392.94	2609.70
393.13	2565.23
393.33	3150.36
393.52	3901.67
393.71	4882.36
393.91	5465.15
394.10	5914.53
394.29	6483.28
394.49	7190.13
394.68	7595.04
394.88	7485.03
395.07	7861.86
395.26	7803.35
395.46	7576.31
395.65	6977.14
395.84	6204.76
396.04	5181.95
396.23	4105.30
396.42	3440.59
396.62	3452.29
396.81	4124.02
397.00	5210.03
397.19	6448.18
397.39	7847.82
397.58	8528.91
397.77	9006.38
397.97	9425.34
398.16	9729.61
398.35	10136.86
398.55	9823.23
398.74	10590.92
398.93	10743.06
399.12	10476.24
399.32	10396.66
399.51	10576.88
399.70	11089.46
399.90	10822.64
400.09	11178.40
400.28	10918.60
400.47	11040.31
400.67	11763.53
400.86	11831.41
401.05	11784.60
401.24	11885.24
401.44	12266.75
401.63	12215.26
401.82	12355.69
402.01	12182.49
402.21	12655.28
402.40	12257.39
402.59	12180.15
402.78	11330.53
402.97	11204.14
403.17	11749.49
403.36	12297.17
403.55	12821.45
403.74	12882.31
403.93	12393.14
404.13	11468.62
404.32	11234.57
404.51	11925.03
404.70	12800.39
404.89	12442.29
405.09	12456.33
405.28	12297.17
405.47	12170.79
405.66	12119.29
405.85	11908.65
406.05	11597.35
406.24	11896.94
406.43	12184.83
406.62	12657.62
406.81	12842.52
407.00	12250.36
407.20	12154.40
407.39	12105.25
407.58	12748.90
407.77	12933.80
407.96	13341.05
408.15	13551.70
408.34	13762.35
408.54	14384.93
408.73	14579.20
408.92	14291.31
409.11	13706.18
409.30	13163.17
409.49	12430.59
409.68	11583.31
409.87	11428.84
410.07	11857.15
410.26	12924.44
410.45	13584.47
410.64	13933.21
410.83	14363.87
411.02	14778.14
411.21	15459.24
411.40	15115.18
411.59	15147.95
411.78	14972.41
411.98	14766.44
412.17	15220.50
412.36	14883.47
412.55	14909.21
412.74	14558.13
412.93	14242.16
413.12	14417.70
413.31	15786.91
413.50	15840.75
413.69	16362.69
413.88	15735.42
414.07	15185.40
414.26	15524.77
414.45	15800.96
414.64	15854.79
414.83	15920.32
415.02	16039.69
415.22	15878.19
415.41	15772.87
415.60	16617.80
415.79	17324.65
415.98	17694.45
416.17	17881.69
416.36	17252.09
416.55	17139.74
416.74	16479.71
416.93	15868.83
417.12	15630.10
417.31	16184.80
417.50	16570.99
417.69	16772.28
417.88	16947.82
418.07	16503.12
418.26	16388.43
418.45	16575.67
418.64	17132.72
418.83	17898.08
419.02	17701.47
419.21	17621.89
419.39	16613.12
419.58	15782.23
419.77	15854.79
419.96	16552.27
420.15	17528.27
420.34	17975.31
420.53	18595.56
420.72	18993.45
420.91	18965.36
421.10	18623.64
421.29	18572.15
421.48	18054.89
421.67	18593.22
421.86	18232.77
422.05	17034.42
422.24	15295.40
422.43	15239.23
422.61	16704.40
422.80	18253.84
422.99	18216.39
423.18	17359.75
423.37	16947.82
423.56	17069.53
423.75	17547.00
423.94	17598.49
424.13	17071.87
424.32	17003.99
424.50	17060.16
424.69	17001.65
424.88	16805.05
425.07	17006.33
425.26	16783.98
425.45	16313.53
425.64	16484.39
425.83	16512.48
426.01	17591.47
426.20	17640.62
426.39	17745.94
426.58	16325.24
426.77	15131.56
426.96	14567.49
427.15	15307.10
427.33	16425.88
427.52	17348.05
427.71	17130.38
427.90	17034.42
428.09	16379.07
428.28	16271.40
428.46	15896.92
428.65	15674.57
428.84	15894.58
429.03	16315.87
429.22	15520.09
429.40	14478.55
429.59	13184.24
429.78	11845.45
429.97	11815.02
430.16	12042.06
430.34	12102.91
430.53	11852.47
430.72	12269.09
430.91	13631.28
431.10	16065.44
431.28	18635.35
431.47	20121.59
431.66	20425.86
431.85	18562.79
432.03	16819.09
432.22	16386.09
432.41	17493.16
432.60	18991.11
432.79	19990.52
432.97	20402.45
433.16	19791.57
433.35	17991.70
433.54	16180.12
433.72	15161.99
433.91	15826.70
434.10	17558.70
434.28	19012.17
434.47	19683.91
434.66	19604.33
434.85	19112.81
435.03	19002.81
435.22	19580.92
435.41	20580.33
435.59	20659.91
435.78	20826.09
435.97	21355.05
436.16	21586.76
436.34	21291.85
436.53	20666.93
436.72	21039.08
436.90	19583.26
437.09	19681.56
437.28	19091.75
437.46	19981.15
437.65	20034.99
437.84	18960.68
438.02	17228.68
438.21	16954.84
438.40	17961.27
438.58	19770.51
438.77	20196.48
438.96	20006.90
439.14	21179.51
439.33	21659.32
439.52	21788.05
439.70	21259.09
439.89	21184.19
440.08	20287.76
440.26	20355.64
440.45	21443.99
440.63	22288.92
440.82	23730.69
441.01	23424.08
441.19	23213.43
441.38	23599.62
441.57	24308.80
441.75	24666.91
441.94	24465.62
442.12	24634.14
442.31	25132.67
442.50	24926.71
442.68	24603.71
442.87	24407.11
443.05	23941.34
443.24	24299.44
443.43	24870.53
443.61	25755.26
443.80	25940.16
443.98	24341.57
444.17	24538.18
444.35	25958.88
444.54	26544.02
444.73	25935.48
444.91	24512.43
445.10	23583.24
445.28	22874.06
445.47	22562.76
445.65	22459.78
445.84	23459.19
446.02	24236.25
446.21	24285.40
446.39	24404.77
446.58	25064.80
446.77	25474.39
446.95	25439.28
447.14	26164.85
447.32	26658.70
447.51	26174.21
447.69	24833.08
447.88	24514.77
448.06	25039.05
448.25	25502.48
448.43	25673.34
448.62	25488.43
448.80	24872.87
448.99	25380.77
449.17	25933.14
449.36	25762.28
449.54	26738.28
449.73	26895.10
449.91	27126.81
450.10	28091.11
450.28	28591.98
450.46	28175.37
450.65	27885.14
450.83	27964.72
451.02	27487.25
451.20	27243.84
451.39	27562.15
451.57	26895.10
451.76	27012.12
451.94	26684.45
452.13	26441.03
452.31	24907.98
452.49	24304.12
452.68	24451.58
452.86	24451.58
453.05	24744.14
453.23	26052.50
453.42	26061.87
453.60	26572.10
453.78	27103.40
453.97	26508.91
454.15	26522.95
454.34	25975.27
454.52	26192.94
454.70	25926.11
454.89	26225.70
455.07	26335.71
455.26	26782.75
455.44	27503.64
455.62	27915.57
455.81	28374.31
455.99	27983.44
456.17	27414.69
456.36	27620.66
456.54	28519.43
456.73	28435.17
456.91	29230.95
457.09	29209.89
457.28	29832.47
457.46	28821.36
457.64	28198.77
457.83	27309.37
458.01	26845.94
458.19	27627.68
458.38	27978.76
458.56	28601.35
458.74	28699.65
458.93	28105.15
459.11	28271.33
459.29	27854.72
459.48	28191.75
459.66	27864.08
459.84	28486.66
460.03	28648.16
460.21	28561.56
460.39	29315.21
460.57	29614.80
460.76	29549.26
460.94	29535.22
461.12	29158.39
461.31	29596.07
461.49	29244.99
461.67	29113.92
461.85	30036.09
462.04	29965.88
462.22	30632.93
462.40	30057.16
462.59	29965.88
462.77	29802.04
462.95	29867.58
463.13	29434.58
463.32	29689.70
463.50	28985.19
463.68	29539.90
463.86	29099.88
464.05	28882.21
464.23	28240.90
464.41	28140.26
464.59	27765.78
464.78	29252.02
464.96	29282.44
465.14	28802.63
465.32	29867.58
465.50	30228.02
465.69	30562.72
465.87	29546.92
466.05	28835.40
466.23	27936.63
466.41	27016.80
466.60	27814.93
466.78	28065.36
466.96	28474.96
467.14	28772.21
467.32	29621.82
467.51	29270.74
467.69	28091.11
467.87	28748.80
468.05	28929.02
468.23	29385.43
468.41	29364.36
468.60	29102.22
468.78	29715.44
468.96	29092.86
469.14	29635.86
469.32	29909.71
469.50	28341.55
469.69	28727.74
469.87	28491.34
470.05	27955.36
470.23	28250.27
470.41	28542.83
470.59	28863.49
470.77	29088.18
470.95	29598.41
471.14	29876.94
471.32	29940.13
471.50	31468.50
471.68	31683.83
471.86	32074.70
472.04	31941.29
472.22	32161.30
472.40	30382.49
472.58	30305.26
472.77	30071.20
472.95	30256.11
473.13	31021.46
473.31	30799.11
473.49	30874.01
473.67	31204.02
473.85	31314.03
474.03	32355.57
474.21	32528.77
474.39	32699.62
474.57	33362.00
474.75	32760.48
474.93	32821.33
475.12	32243.22
475.30	32112.15
475.48	31988.10
475.66	32364.93
475.84	32126.19
476.02	32217.47
476.20	31342.11
476.38	31831.29
476.56	33266.03
476.74	33312.84
476.92	33701.37
477.10	34258.42
477.28	34916.11
477.46	35243.79
477.64	35281.24
477.82	35847.64
478.00	36002.12
478.18	35421.67
478.36	35065.91
478.54	35271.87
478.72	35578.48
478.90	36374.27
479.08	37392.40
479.26	37376.01
479.44	37366.65
479.62	37022.59
479.80	36973.44
479.98	37591.34
480.16	37794.97
480.34	37434.53
480.52	37799.65
480.70	38141.37
480.88	38368.40
481.06	38806.08
481.24	39199.29
481.41	39805.49
481.59	40524.04
481.77	40254.87
481.95	39365.47
482.13	39110.35
482.31	39363.13
482.49	40397.65
482.67	40130.83
482.85	40086.36
483.03	41036.61
483.21	41338.54
483.39	41027.25
483.57	40334.45
483.74	40397.65
483.92	40498.29
484.10	40832.99
484.28	41617.07
484.46	41888.57
484.64	42686.69
484.82	41881.55
485.00	41291.73
485.18	40280.62
485.35	39381.85
485.53	35777.43
485.71	32751.12
485.89	32591.96
486.07	34848.24
486.25	37322.18
486.43	39557.39
486.61	40126.14
486.78	39737.62
486.96	40706.60
487.14	41813.67
487.32	42909.04
487.50	44144.84
487.68	44753.38
487.85	45497.67
488.03	45698.96
488.21	44727.64
488.39	44144.84
488.57	43475.45
488.75	42904.36
488.92	44582.52
489.10	46883.27
489.28	48313.34
489.46	49090.40
489.64	48870.39
489.81	49148.91
489.99	48566.12
490.17	48666.76
490.35	49212.10
490.53	48388.24
490.70	48313.34
490.88	48030.13
491.06	49698.94
491.24	48987.41
491.41	47828.85
491.59	45659.17
491.77	45139.57
491.95	46277.07
492.13	48095.67
492.30	49422.75
492.48	50529.83
492.66	51056.45
492.84	50997.93
493.01	51112.62
493.19	50487.70
493.37	49855.75
493.54	48994.43
493.72	50167.04
493.90	51351.35
494.08	52088.62
494.25	52463.11
494.43	52835.25
494.61	53303.36
494.79	53141.86
494.96	53043.56
495.14	52252.46
495.32	51468.38
495.49	50569.61
495.67	51976.28
495.85	53277.61
496.02	53640.40
496.20	53525.71
496.38	53219.10
496.55	53085.69
496.73	53560.82
496.91	53506.99
497.09	54358.94
497.26	54246.60
497.44	53872.11
497.62	53359.53
497.79	52179.90
497.97	51037.72
498.14	50981.55
498.32	52119.05
498.50	53497.62
498.67	54293.41
498.85	53764.45
499.03	54129.57
499.20	54323.83
499.38	54220.85
499.56	54365.96
499.73	53375.92
499.91	53258.89
500.08	52626.95
500.26	51814.78
500.44	52699.50
500.61	53172.29
500.79	53160.59
500.97	52479.49
501.14	52453.75
501.32	52252.46
501.49	52500.56
501.67	52591.84
501.84	53448.47
502.02	53474.22
502.20	53834.66
502.37	53888.49
502.55	54218.51
502.72	54747.47
502.90	55000.25
503.07	54700.66
503.25	54270.00
503.43	53294.00
503.60	52542.69
503.78	52004.36
503.95	52657.37
504.13	54426.82
504.30	54946.42
504.48	54698.32
504.65	54335.54
504.83	54749.81
505.01	55295.16
505.18	55496.44
505.36	56163.50
505.53	55948.17
505.71	56229.03
505.88	56542.66
506.06	55763.26
506.23	55447.29
506.41	54787.26
506.58	55377.08
506.76	54990.89
506.93	55117.28
507.11	54864.50
507.28	54960.46
507.46	54403.41
507.63	53855.73
507.81	53921.26
507.98	54040.63
508.16	54838.75
508.33	55557.30
508.50	55779.65
508.68	56053.49
508.85	56430.32
509.03	56324.99
509.20	56481.81
509.38	55316.22
509.55	54932.37
509.73	54937.05
509.90	55648.58
510.08	55552.62
510.25	55580.70
510.42	55522.19
510.60	55458.99
510.77	55650.92
510.95	56420.95
511.12	56404.57
511.30	56753.31
511.47	56924.17
511.64	56807.14
511.82	56275.84
511.99	55557.30
512.17	55402.82
512.34	55007.27
512.51	55241.32
512.69	55047.06
512.86	55309.20
513.04	55552.62
513.21	55716.45
513.38	55543.25
513.56	55068.12
513.73	54253.62
513.90	54724.07
514.08	54726.41
514.25	54899.61
514.43	55189.83
514.60	55168.77
514.77	55458.99
514.95	55606.45
515.12	55517.51
515.29	55695.39
515.47	56149.45
515.64	56245.41
515.81	55889.65
515.99	55236.64
516.16	53797.21
516.33	51208.58
516.51	49727.02
516.68	48968.69
516.85	48168.22
517.03	48907.83
517.20	51739.88
517.37	54653.85
517.54	55522.19
517.72	54986.21
517.89	52025.43
518.06	49514.03
518.24	50403.44
518.41	52566.09
518.58	54211.49
518.75	54394.05
518.93	54574.27
519.10	54571.93
519.27	54843.43
519.45	55353.67
519.62	55812.41
519.79	55955.19
519.96	55580.70
520.14	55435.59
520.31	54424.48
520.48	54637.47
520.65	55292.82
520.83	56100.30
521.00	56446.70
521.17	55955.19
521.34	55688.37
521.52	55945.83
521.69	56659.69
521.86	57123.11
522.03	56542.66
522.20	55412.18
522.38	54415.11
522.55	54457.24
522.72	55126.64
522.89	55234.30
523.07	55288.13
523.24	55636.87
523.41	56746.29
523.58	56814.16
523.75	57312.70
523.92	57195.67
524.10	57240.14
524.27	57200.35
524.44	57015.45
524.61	56879.70
524.78	56652.67
524.96	56460.74
525.13	56605.86
525.30	56783.74
525.47	57155.88
525.64	57024.81
525.81	56119.02
525.98	54522.78
526.16	53265.91
526.33	52481.83
526.50	52095.64
526.67	51990.32
526.84	52615.24
527.01	53584.22
527.18	54417.46
527.36	55601.77
527.53	56397.55
527.70	56711.18
527.87	55786.67
528.04	55428.57
528.21	56079.24
528.38	56879.70
528.55	57392.28
528.72	57560.79
528.89	57726.97
529.07	57471.85
529.24	56856.29
529.41	56322.65
529.58	55395.80
529.75	55880.29
529.92	56135.41
530.09	56678.41
530.26	57059.92
530.43	57380.57
530.60	57270.57
530.77	57689.52
530.94	57722.29
531.11	57535.05
531.28	56900.76
531.46	56629.26
531.63	56736.93
531.80	56647.99
531.97	56128.39
532.14	55632.19
532.31	54487.67
532.48	53722.32
532.65	53890.83
532.82	54813.01
532.99	55903.70
533.16	56191.58
533.33	56781.40
533.50	56505.21
533.67	56086.26
533.84	55519.85
534.01	55870.93
534.18	56184.56
534.35	56128.39
534.52	55770.28
534.69	56278.18
534.86	56601.18
535.03	56853.95
535.20	57188.65
535.37	57455.47
535.54	57710.59
535.71	57202.69
535.88	56917.15
536.05	56112.00
536.22	55870.93
536.38	55852.20
536.55	55100.89
536.72	54670.23
536.89	54810.67
537.06	55777.31
537.23	56699.48
537.40	56575.43
537.57	56631.60
537.74	56332.01
537.91	56268.82
538.08	56341.38
538.25	56446.70
538.42	56547.34
538.59	56322.65
538.75	55426.23
538.92	55437.93
539.09	55330.26
539.26	55311.54
539.43	55011.95
539.60	55133.66
539.77	55257.71
539.94	55007.27
540.11	53968.07
540.28	53712.95
540.44	54054.67
540.61	54073.40
540.78	54368.30
540.95	54628.10
541.12	55253.03
541.29	55447.29
541.46	55999.66
541.62	55910.72
541.79	55519.85
541.96	54869.18
542.13	55044.72
542.30	55594.74
542.47	55571.34
542.63	55271.75
542.80	55030.68
542.97	55040.04
543.14	55044.72
543.31	55194.51
543.48	55540.91
543.64	56680.75
543.81	56933.53
543.98	56657.35
544.15	55695.39
544.32	55348.99
544.48	55386.44
544.65	55992.64
544.82	56144.77
544.99	55756.24
545.16	55608.79
545.32	55217.92
545.49	55861.57
545.66	56530.96
545.83	55812.41
546.00	55569.00
546.16	55423.89
546.33	55524.53
546.50	55269.41
546.67	55681.34
546.83	55255.37
547.00	55407.50
547.17	54731.09
547.34	54110.85
547.50	54237.23
547.67	54574.27
547.84	54440.86
548.00	55215.58
548.17	55398.14
548.34	55686.03
548.51	55250.69
548.67	55461.33
548.84	55449.63
549.01	55215.58
549.18	55260.05
549.34	55152.38
549.51	55391.12
549.68	55124.30
549.84	54808.32
550.01	54864.50
550.18	54642.15
550.34	54761.51
550.51	54717.04
550.68	54953.44
550.84	54361.28
551.01	54377.67
551.18	54726.41
551.34	54639.81
551.51	54934.71
551.68	55597.09
551.84	55210.90
552.01	55222.60
552.18	54798.96
552.34	54078.08
552.51	53972.75
552.68	54129.57
552.84	54410.43
553.01	54574.27
553.18	54574.27
553.34	54691.30
553.51	54789.60
553.67	55063.44
553.84	55444.95
554.01	55330.26
554.17	54946.42
554.34	54768.54
554.51	55210.90
554.67	55468.36
554.84	55021.31
555.00	54440.86
555.17	54611.72
555.33	54511.08
555.50	54543.84
555.67	54429.16
555.83	53944.67
556.00	53776.15
556.16	54295.75
556.33	53506.99
556.50	53616.99
556.66	53687.21
556.83	53282.30
556.99	53347.83
557.16	53544.44
557.32	53846.36
557.49	54312.13
557.65	53865.09
557.82	53827.64
557.98	53984.46
558.15	53235.48
558.32	52523.96
558.48	51412.21
558.65	51749.24
558.81	52002.02
558.98	52636.31
559.14	52921.85
559.31	52645.67
559.47	52987.39
559.64	52465.45
559.80	52081.60
559.97	52275.87
560.13	52451.41
560.30	53572.52
560.46	54202.13
560.63	54541.50
560.79	54415.11
560.96	54066.38
561.12	53048.24
561.29	51646.26
561.45	51491.79
561.61	52514.60
561.78	53158.25
561.94	52837.59
562.11	52643.33
562.27	52615.24
562.44	52914.83
562.60	53254.21
562.77	53558.48
562.93	53333.79
563.10	53499.97
563.26	52465.45
563.42	52540.35
563.59	52563.75
563.75	52479.49
563.92	52797.80
564.08	52760.36
564.24	52739.29
564.41	52938.24
564.57	52863.34
564.74	52655.03
564.90	52685.46
565.07	52313.31
565.23	51737.54
565.39	51061.13
565.56	50674.94
565.72	50766.22
565.88	50908.99
566.05	51250.71
566.21	51601.79
566.38	51435.61
566.54	51889.68
566.70	52081.60
566.87	52530.98
567.03	52301.61
567.19	52769.72
567.36	52046.49
567.52	52233.74
567.68	51601.79
567.85	51042.40
568.01	50602.38
568.17	50026.61
568.34	50312.16
568.50	50443.23
568.66	50553.23
568.83	50670.26
568.99	50829.41
569.15	51648.60
569.32	51058.79
569.48	50813.03
569.64	50319.18
569.81	50321.52
569.97	49996.18
570.13	50337.90
570.30	49261.26
570.46	48968.69
570.62	48516.96
570.78	48514.62
570.95	48636.33
571.11	49504.67
571.27	49691.91
571.43	50181.09
571.60	50581.32
571.76	50494.72
571.92	51040.06
572.09	51433.27
572.25	51276.46
572.41	50920.70
572.57	50815.37
572.74	50775.58
572.90	50361.31
573.06	50185.77
573.22	50314.50
573.38	50075.76
573.55	50614.08
573.71	50483.01
573.87	50188.11
574.03	50150.66
574.20	49881.50
574.36	49879.16
574.52	49874.48
574.68	49521.05
574.84	48846.98
575.01	48388.24
575.17	48151.84
575.33	49137.21
575.49	49162.95
575.65	49322.11
575.82	48933.58
575.98	48828.26
576.14	48900.81
576.30	49450.84
576.46	49422.75
576.62	49457.86
576.79	49483.61
576.95	48877.41
577.11	48741.66
577.27	49013.16
577.43	49027.20
577.59	48533.35
577.75	47913.11
577.92	47618.20
578.08	47103.28
578.24	47178.18
578.40	47721.18
578.56	47957.58
578.72	47767.99
578.88	48306.32
579.04	48116.73
579.21	48837.62
579.37	48519.31
579.53	49233.17
579.69	48767.40
579.85	48673.78
580.01	48376.53
580.17	48222.06
580.33	48287.59
580.49	48133.12
580.65	48626.97
580.82	48706.55
580.98	48512.28
581.14	48102.69
581.30	48947.62
581.46	48472.49
581.62	48577.82
581.78	48542.71
581.94	48460.79
582.10	49193.38
582.26	48713.57
582.42	48797.83
582.58	48872.73
582.74	48818.89
582.90	48973.37
583.06	48914.86
583.22	48266.53
583.38	48657.40
583.54	48055.88
583.70	48383.55
583.86	48589.52
584.02	48081.63
584.18	48636.33
584.34	48315.68
584.50	48002.05
584.66	47372.44
584.82	47503.51
584.98	47447.34
585.14	46845.82
585.30	45813.65
