SpectraSuite Data File
++++++++++++++++++++++++++++++++++++
Date: Mon Oct 07 14:53:09 GMT-05:00 2013
User: price-jones
Dark Spectrum Present: No
Reference Spectrum Present: No
Number of Sampled Component Spectra: 1
Spectrometers: USB2+H05261
Integration Time (usec): 100000 (USB2+H05261)
Spectra Averaged: 1 (USB2+H05261)
Boxcar Smoothing: 0 (USB2+H05261)
Correct for Electrical Dark: No (USB2+H05261)
Strobe/Lamp Enabled: No (USB2+H05261)
Correct for Detector Non-linearity: No (USB2+H05261)
Correct for Stray Light: No (USB2+H05261)
Number of Pixels in Processed Spectrum: 2048
>>>>>Begin Processed Spectral Data<<<<<
365.73	0.00
365.92	0.00
366.12	0.00
366.32	0.00
366.52	0.00
366.72	0.00
366.91	0.00
367.11	0.00
367.31	0.00
367.51	0.00
367.70	0.00
367.90	0.00
368.10	0.00
368.30	0.00
368.49	0.00
368.69	0.00
368.89	0.00
369.09	0.00
369.28	0.00
369.48	0.00
369.68	0.00
369.87	0.00
370.07	0.00
370.27	0.00
370.47	641.31
370.66	3522.51
370.86	4086.58
371.06	4521.92
371.25	4573.41
371.45	4046.79
371.65	3742.52
371.84	3356.33
372.04	3705.07
372.24	4016.36
372.44	4285.52
372.63	4234.03
372.83	3908.69
373.03	3330.58
373.22	3166.74
373.42	3328.24
373.62	3873.59
373.81	4250.41
374.01	4189.56
374.21	3648.90
374.40	3583.36
374.60	3616.13
374.79	4156.79
374.99	4711.50
375.19	5193.65
375.38	5069.60
375.58	4865.97
375.78	4741.93
375.97	4751.29
376.17	4961.94
376.37	5055.56
376.56	5170.24
376.76	5549.41
376.95	5846.66
377.15	6099.44
377.35	6387.32
377.54	6649.46
377.74	6942.03
377.93	6782.87
378.13	6668.19
378.33	6326.47
378.52	5933.26
378.72	5556.43
378.91	5540.05
379.11	5341.10
379.31	5097.69
379.50	5097.69
379.70	5617.29
379.89	6176.67
380.09	6497.33
380.28	6745.42
380.48	6761.81
380.68	6525.41
380.87	6506.69
381.07	6047.94
381.26	5385.57
381.46	5128.11
381.65	5020.45
381.85	4882.36
382.04	4606.17
382.24	4440.00
382.43	3974.23
382.63	3985.93
382.83	3911.04
383.02	4109.98
383.22	4049.13
383.41	4133.39
383.61	4290.20
383.80	5111.73
384.00	5659.42
384.19	6347.53
384.39	6736.06
384.58	6506.69
384.78	6544.14
384.97	6480.94
385.17	6080.71
385.36	5921.56
385.56	5603.24
385.75	5764.74
385.95	6305.40
386.14	6803.94
386.34	6827.34
386.53	6565.20
386.72	6125.18
386.92	6134.54
387.11	6654.14
387.31	6747.76
387.50	6832.02
387.70	6485.62
387.89	6335.83
388.09	6492.65
388.28	6424.77
388.48	6560.52
388.67	7112.89
388.86	7918.03
389.06	8182.51
389.25	8629.56
389.45	8868.29
389.64	8690.41
389.84	8533.59
390.03	8582.74
390.22	8573.38
390.42	9060.21
390.61	9525.98
390.81	10019.83
391.00	10401.34
391.19	10064.30
391.39	10012.81
391.58	9343.42
391.78	8454.02
391.97	8517.21
392.16	7911.01
392.36	7054.37
392.55	5708.57
392.75	4688.09
392.94	3735.50
393.13	3672.30
393.33	4332.33
393.52	5666.44
393.71	6890.54
393.91	7756.54
394.10	8273.79
394.29	9341.08
394.49	10242.18
394.68	10782.85
394.88	10663.48
395.07	11098.82
395.26	11005.20
395.46	10747.74
395.65	10150.90
395.84	8910.42
396.04	7545.89
396.23	6113.48
396.42	5055.56
396.62	4830.87
396.81	5811.55
397.00	7316.51
397.19	9088.30
397.39	10878.81
397.58	12496.12
397.77	13025.08
397.97	13420.63
398.16	13659.37
398.35	14155.56
398.55	14530.05
398.74	15047.30
398.93	15260.29
399.12	15082.41
399.32	14469.19
399.51	14972.41
399.70	16154.38
399.90	15342.21
400.09	15976.50
400.28	15410.09
400.47	15866.49
400.67	16650.57
400.86	17224.00
401.05	16617.80
401.24	16905.69
401.44	17483.80
401.63	17102.29
401.82	17392.52
402.01	17579.76
402.21	17467.42
402.40	17696.79
402.59	16992.29
402.78	16470.35
402.97	15974.16
403.17	16643.55
403.36	17881.69
403.55	18291.29
403.74	18534.70
403.93	17472.10
404.13	16182.46
404.32	15971.82
404.51	16556.95
404.70	18164.90
404.89	17982.34
405.09	17708.49
405.28	17336.35
405.47	17191.23
405.66	17228.68
405.85	16575.67
406.05	16425.88
406.24	16496.10
406.43	17362.09
406.62	17722.54
406.81	18235.11
407.00	17242.73
407.20	16875.26
407.39	17106.98
407.58	18085.32
407.77	18527.68
407.96	19051.96
408.15	19278.99
408.34	19379.64
408.54	20404.79
408.73	20247.97
408.92	20154.35
409.11	19660.50
409.30	18118.09
409.49	17427.63
409.68	16374.39
409.87	15974.16
410.07	16959.52
410.26	18569.81
410.45	19632.41
410.64	19784.55
410.83	20329.89
411.02	21001.63
411.21	21645.27
411.40	21813.79
411.59	21401.86
411.78	21455.69
411.98	21378.45
412.17	22066.57
412.36	20933.75
412.55	20900.98
412.74	20912.69
412.93	20245.63
413.12	20636.50
413.31	22382.54
413.50	22317.01
413.69	22890.44
413.88	22146.15
414.07	21451.01
414.26	21881.67
414.45	22672.77
414.64	22394.25
414.83	22752.35
415.02	22455.10
415.22	22450.42
415.41	22815.54
415.60	23606.64
415.79	24463.28
415.98	25057.78
416.17	25022.67
416.36	24381.36
416.55	24060.71
416.74	22960.66
416.93	22178.92
417.12	22419.99
417.31	23030.87
417.50	23073.00
417.69	24180.07
417.88	24027.94
418.07	23854.74
418.26	23070.66
418.45	23564.51
418.64	24327.53
418.83	25511.84
419.02	24694.99
419.21	24816.70
419.39	23337.48
419.58	22567.45
419.77	22396.59
419.96	23414.72
420.15	24751.17
420.34	25577.37
420.53	26410.60
420.72	26679.77
420.91	26923.18
421.10	26368.48
421.29	26155.49
421.48	25216.93
421.67	26445.71
421.86	25532.90
422.05	23845.38
422.24	21455.69
422.43	21352.71
422.61	23749.42
422.80	25537.59
422.99	25626.53
423.18	24961.81
423.37	24442.21
423.56	24304.12
423.75	24662.22
423.94	25003.94
424.13	23805.59
424.32	23758.78
424.50	24325.19
424.69	24140.29
424.88	24093.47
425.07	23817.29
425.26	23878.15
425.45	23344.50
425.64	23211.09
425.83	23250.88
426.01	24587.33
426.20	25062.46
426.39	25017.99
426.58	22848.31
426.77	20950.14
426.96	20683.31
427.15	21270.79
427.33	23302.37
427.52	24226.89
427.71	24496.05
427.90	23953.04
428.09	23810.27
428.28	23405.36
428.46	22183.60
428.65	21771.66
428.84	22778.09
429.03	23103.43
429.22	21680.38
429.40	20786.30
429.59	18352.14
429.78	16599.08
429.97	16400.13
430.16	17022.72
430.34	17029.74
430.53	17036.76
430.72	17338.69
430.91	19480.28
431.10	22724.26
431.28	26558.06
431.47	28704.33
431.66	28790.93
431.85	26045.48
432.03	24039.64
432.22	23136.20
432.41	24020.92
432.60	26934.88
432.79	27711.94
432.97	28833.06
433.16	27585.55
433.35	25486.09
433.54	22855.33
433.72	21659.32
433.91	22155.51
434.10	25039.05
434.28	26902.12
434.47	27875.78
434.66	27395.97
434.85	27058.93
435.03	26712.53
435.22	27262.56
435.41	29144.35
435.59	28730.08
435.78	29198.18
435.97	30235.04
436.16	30295.89
436.34	29813.74
436.53	29074.13
436.72	29692.04
436.90	27646.41
437.09	27676.83
437.28	27297.67
437.46	28229.20
437.65	27882.80
437.84	26279.54
438.02	23850.06
438.21	23875.80
438.40	25649.93
438.58	27374.91
438.77	28128.56
438.96	28425.81
439.14	29919.07
439.33	29937.79
439.52	30464.41
439.70	30096.95
439.89	29989.28
440.08	28121.54
440.26	28648.16
440.45	29961.20
440.63	31611.28
440.82	33373.70
441.01	32488.98
441.19	32402.38
441.38	33067.09
441.57	34134.37
441.75	34361.40
441.94	34881.00
442.12	34213.95
442.31	34820.15
442.50	34590.78
442.68	34775.68
442.87	34110.97
443.05	33750.52
443.24	34616.52
443.43	34555.67
443.61	35550.40
443.80	36060.63
443.98	33942.45
444.17	33743.50
444.35	35983.40
444.54	36266.60
444.73	35899.14
444.91	34586.10
445.10	33415.83
445.28	32074.70
445.47	31424.03
445.65	31810.22
445.84	32533.45
446.02	33628.82
446.21	34295.87
446.39	34700.78
446.58	35145.48
446.77	35264.85
446.95	35524.65
447.14	36844.71
447.32	36975.78
447.51	36135.53
447.69	34522.90
447.88	34380.13
448.06	34710.14
448.25	36025.53
448.43	35936.59
448.62	34831.85
448.80	35096.33
448.99	35021.44
449.17	35639.34
449.36	35922.54
449.54	37029.62
449.73	37546.87
449.91	38115.62
450.10	39601.86
450.28	39606.55
450.46	39414.62
450.65	39402.92
450.83	39012.05
451.02	38293.50
451.20	37972.85
451.39	38014.98
451.57	37638.15
451.76	38190.52
451.94	37450.91
452.13	36687.90
452.31	35328.05
452.49	33539.88
452.68	33909.68
452.86	34029.05
453.05	34817.81
453.23	35777.43
453.42	36362.56
453.60	37273.03
453.78	37289.42
453.97	37179.41
454.15	37434.53
454.34	36144.89
454.52	36713.64
454.70	35819.56
454.89	36144.89
455.07	36430.44
455.26	37486.02
455.44	38815.44
455.62	38660.97
455.81	39313.98
455.99	38691.40
456.17	38862.26
456.36	38485.43
456.54	39999.76
456.73	39817.19
456.91	39938.90
457.09	40711.28
457.28	41368.97
457.46	39456.75
457.64	39323.34
457.83	38148.39
458.01	37771.57
458.19	38541.60
458.38	38763.95
458.56	40067.63
458.74	39894.43
458.93	38829.49
459.11	39016.73
459.29	38677.35
459.48	39000.35
459.66	38754.59
459.84	39154.82
460.03	39597.18
460.21	39498.88
460.39	40638.72
460.57	40385.94
460.76	41186.41
460.94	41067.04
461.12	40268.92
461.31	40737.02
461.49	40634.04
461.67	40460.84
461.85	42298.16
462.04	41471.95
462.22	42230.29
462.40	41762.18
462.59	41729.41
462.77	41518.76
462.95	41780.90
463.13	41088.10
463.32	40940.65
463.50	40421.05
463.68	40727.66
463.86	40603.61
464.05	40093.38
464.23	38976.94
464.41	38803.74
464.59	38740.55
464.78	40772.13
464.96	40048.91
465.14	39709.53
465.32	40800.22
465.50	41741.11
465.69	42047.72
465.87	41258.96
466.05	40259.55
466.23	38892.68
466.41	37544.53
466.60	38590.75
466.78	38883.32
466.96	39393.56
467.14	40105.08
467.32	40521.69
467.51	40849.37
467.69	38934.81
467.87	39702.51
468.05	40554.46
468.23	40362.54
468.41	40215.08
468.60	40802.56
468.78	40744.05
468.96	40451.48
469.14	40755.75
469.32	41326.84
469.50	39536.33
469.69	39622.93
469.87	39606.55
470.05	39143.12
470.23	39489.52
470.41	39580.80
470.59	39770.38
470.77	40215.08
470.95	41062.36
471.14	41635.79
471.32	40891.50
471.50	43267.14
471.68	44009.09
471.86	44048.88
472.04	44210.38
472.22	43873.34
472.40	42082.83
472.58	42160.07
472.77	41495.36
472.95	42387.10
473.13	43269.48
473.31	42024.32
473.49	42686.69
473.67	43187.56
473.85	43433.32
474.03	44889.13
474.21	44758.06
474.39	45010.84
474.57	45345.54
474.75	45048.29
474.93	44655.08
475.12	43885.04
475.30	44266.55
475.48	44044.20
475.66	44900.84
475.84	44367.20
476.02	44074.63
476.20	43732.91
476.38	44208.04
476.56	45244.90
476.74	46024.29
476.92	46082.81
477.10	46780.29
477.28	47725.86
477.46	47463.72
477.64	48259.51
477.82	48477.18
478.00	48357.81
478.18	47910.77
478.36	47826.51
478.54	47601.82
478.72	47969.28
478.90	49134.87
479.08	50047.68
479.26	50789.62
479.44	50059.38
479.62	50122.57
479.80	50087.46
479.98	50265.34
480.16	50738.13
480.34	50138.96
480.52	50274.71
480.70	50569.61
480.88	50913.67
481.06	51892.02
481.24	51753.93
481.41	52495.88
481.59	53172.29
481.77	52708.86
481.95	52013.73
482.13	51833.50
482.31	52350.76
482.49	52776.74
482.67	52587.16
482.85	52811.85
483.03	53343.15
483.21	53640.40
483.39	53301.02
483.57	53013.13
483.74	52598.86
483.92	52772.06
484.10	53090.37
484.28	54092.12
484.46	53968.07
484.64	54590.66
484.82	53577.20
485.00	53347.83
485.18	52399.91
485.35	51503.49
485.53	48966.35
485.71	45095.10
485.89	44683.17
486.07	46632.83
486.25	50251.30
486.43	51906.06
486.61	52360.12
486.78	52622.26
486.96	52538.01
487.14	53984.46
487.32	54754.49
487.50	55444.95
487.68	56114.34
487.85	56355.42
488.03	56575.43
488.21	56252.44
488.39	55765.60
488.57	55016.63
488.75	54918.33
488.92	55896.67
489.10	57521.01
489.28	58506.37
489.46	59131.29
489.64	58773.19
489.81	58810.64
489.99	58747.45
490.17	58796.60
490.35	59110.23
490.53	58688.93
490.70	58365.94
490.88	58450.20
491.06	59203.85
491.24	59030.65
491.41	58169.33
491.59	56989.70
491.77	56582.45
491.95	57457.81
492.13	58148.27
492.30	59194.49
492.48	59826.43
492.66	60353.05
492.84	60261.77
493.01	60158.79
493.19	59501.10
493.37	59353.65
493.54	59086.82
493.72	59784.30
493.90	60647.96
494.08	61195.65
494.25	61628.65
494.43	61464.81
494.61	61874.40
494.79	61937.60
494.96	61808.87
495.14	61207.35
495.32	60432.63
495.49	60025.38
495.67	61151.18
495.85	62164.63
496.02	62372.94
496.20	62155.27
496.38	61771.42
496.55	61776.10
496.73	62269.95
496.91	62244.21
497.09	62614.01
497.26	62859.77
497.44	62396.34
497.62	61843.98
497.79	61357.14
497.97	60301.56
498.14	60537.96
498.32	61399.27
498.50	62173.99
498.67	62705.29
498.85	62454.86
499.03	62702.95
499.20	62808.28
499.38	62801.25
499.56	62857.43
499.73	62358.89
499.91	62106.12
500.08	61677.80
500.26	61078.62
500.44	61565.45
500.61	62045.26
500.79	61769.08
500.97	61415.66
501.14	61361.82
501.32	61279.91
501.49	61270.54
501.67	61544.39
501.84	61907.17
502.02	62108.46
502.20	62431.45
502.37	62513.37
502.55	62623.37
502.72	63110.20
502.90	63433.20
503.07	63182.76
503.25	62798.91
503.43	62204.42
503.60	61446.08
503.78	60816.48
503.95	61520.98
504.13	62670.18
504.30	63428.52
504.48	63145.31
504.65	63175.74
504.83	62824.66
505.01	63671.93
505.18	63632.14
505.36	64367.07
505.53	64299.20
505.71	64540.27
505.88	64554.32
506.06	63795.98
506.23	63730.45
506.41	63559.59
506.58	63753.85
506.76	63611.08
506.93	63578.31
507.11	63365.32
507.28	63540.86
507.46	63037.65
507.63	62438.47
507.81	62494.64
507.98	62721.68
508.16	63157.02
508.33	63744.49
508.50	63943.44
508.68	64231.32
508.85	64619.85
509.03	64683.04
509.20	64413.88
509.38	63791.30
509.55	63362.98
509.73	63362.98
509.90	63852.15
510.08	64128.34
510.25	63957.48
510.42	63814.71
510.60	63667.25
510.77	64081.53
510.95	64505.16
511.12	64636.23
511.30	64858.59
511.47	65017.74
511.64	65008.38
511.82	64779.01
511.99	63917.69
512.17	63662.57
512.34	63398.09
512.51	63604.06
512.69	63805.34
512.86	63704.70
513.04	64128.34
513.21	64156.42
513.38	63728.11
513.56	63168.72
513.73	62885.51
513.90	63077.44
514.08	63100.84
514.25	63440.22
514.43	63599.38
514.60	63725.77
514.77	63767.90
514.95	63898.97
515.12	63594.70
515.29	63983.22
515.47	64353.03
515.64	64676.02
515.81	64306.22
515.99	63910.67
516.16	62431.45
516.33	60364.76
516.51	59430.88
516.68	58784.90
516.85	58639.78
517.03	58770.85
517.20	61031.81
517.37	63135.95
517.54	64053.44
517.72	63271.70
517.89	61221.39
518.06	59250.66
518.24	59786.64
518.41	61708.22
518.58	62656.14
518.75	62653.80
518.93	63072.76
519.10	62899.56
519.27	63201.49
519.45	63660.23
519.62	63994.93
519.79	64418.56
519.96	64383.46
520.14	63924.71
520.31	63014.24
520.48	63133.61
520.65	63643.85
520.83	64353.03
521.00	64430.27
521.17	64182.17
521.34	63980.88
521.52	64371.75
521.69	64891.35
521.86	65036.47
522.03	64769.64
522.20	63772.58
522.38	62834.02
522.55	62850.41
522.72	63318.51
522.89	63512.78
523.07	63763.21
523.24	64020.67
523.41	64741.56
523.58	65050.51
523.75	65427.34
523.92	65284.56
524.10	65265.84
524.27	65169.88
524.44	65099.66
524.61	64835.18
524.78	64673.68
524.96	64619.85
525.13	64928.80
525.30	64947.53
525.47	65350.10
525.64	65268.18
525.81	64439.63
525.98	63201.49
526.16	61970.36
526.33	61546.73
526.50	61162.88
526.67	60935.85
526.84	61771.42
527.01	62365.91
527.18	63140.63
527.36	64046.42
527.53	64760.28
527.70	64643.26
527.87	64453.67
528.04	63828.75
528.21	64317.92
528.38	64959.23
528.55	65455.42
528.72	65535.00
528.89	65535.00
529.07	65535.00
529.24	64989.66
529.41	64280.47
529.58	63856.84
529.75	64228.98
529.92	64533.25
530.09	64828.16
530.26	65247.11
530.43	65499.89
530.60	65441.38
530.77	65535.00
530.94	65535.00
531.11	65485.85
531.28	65062.21
531.46	64945.18
531.63	64931.14
531.80	64654.96
531.97	64615.17
532.14	63877.90
532.31	62831.68
532.48	62412.73
532.65	62539.11
532.82	63355.96
532.99	64289.84
533.16	64306.22
533.33	64963.91
533.50	64858.59
533.67	64193.87
533.84	63969.18
534.01	64011.31
534.18	64228.98
534.35	64329.62
534.52	64243.02
534.69	64596.45
534.86	64898.37
535.03	65106.68
535.20	65462.44
535.37	65535.00
535.54	65535.00
535.71	65532.66
535.88	65247.11
536.05	64589.42
536.22	64252.39
536.38	64037.06
536.55	63456.60
536.72	63032.97
536.89	63072.76
537.06	63924.71
537.23	64704.11
537.40	64776.67
537.57	64804.75
537.74	64596.45
537.91	64467.72
538.08	64505.16
538.25	64427.93
538.42	64739.22
538.59	64495.80
538.75	64109.61
538.92	63870.88
539.09	63728.11
539.26	63440.22
539.43	63278.72
539.60	63477.67
539.77	63620.44
539.94	63430.86
540.11	62773.17
540.28	62386.98
540.44	62489.96
540.61	62695.93
540.78	62901.90
540.95	63274.04
541.12	63529.16
541.29	63950.46
541.46	64196.21
541.62	64275.79
541.79	64025.35
541.96	63398.09
542.13	63608.74
542.30	63891.94
542.47	63814.71
542.63	63868.54
542.80	63622.78
542.97	63458.94
543.14	63683.64
543.31	63650.87
543.48	64046.42
543.64	64669.00
543.81	64924.12
543.98	64921.78
544.15	64175.15
544.32	63690.66
544.48	63599.38
544.65	64228.98
544.82	64505.16
544.99	64046.42
545.16	63716.40
545.32	63777.26
545.49	64402.18
545.66	64647.94
545.83	64212.60
546.00	63877.90
546.16	63646.19
546.33	63866.20
546.50	64008.97
546.67	64261.75
546.83	63842.79
547.00	63807.68
547.17	63323.19
547.34	62869.13
547.50	62735.72
547.67	63119.57
547.84	63323.19
548.00	63795.98
548.17	64008.97
548.34	63950.46
548.51	63819.39
548.67	63997.27
548.84	63847.47
549.01	63959.82
549.18	63671.93
549.34	63681.30
549.51	63807.68
549.68	63777.26
549.84	63208.51
550.01	63381.71
550.18	63203.83
550.34	63337.24
550.51	63454.26
550.68	63571.29
550.84	63278.72
551.01	63206.17
551.18	63117.23
551.34	63435.54
551.51	63693.00
551.68	63884.92
551.84	63931.73
552.01	63634.48
552.18	63515.12
552.34	62827.00
552.51	62571.88
552.68	62714.65
552.84	63004.88
553.01	63077.44
553.18	63032.97
553.34	63318.51
553.51	63224.89
553.67	63487.03
553.84	63592.36
554.01	63440.22
554.17	63599.38
554.34	63470.65
554.51	63608.74
554.67	63819.39
554.84	63725.77
555.00	63386.39
555.17	63194.46
555.33	63274.04
555.50	63196.80
555.67	63075.10
555.83	62960.41
556.00	62934.66
556.16	62777.85
556.33	62553.16
556.50	62489.96
556.66	62415.07
556.83	62124.84
556.99	62258.25
557.16	62246.55
557.32	62775.51
557.49	63082.12
557.65	62672.52
557.82	62829.34
557.98	62576.56
558.15	62085.05
558.32	61322.04
558.48	60837.54
558.65	60968.61
558.81	61549.07
558.98	61570.13
559.14	61731.63
559.31	61890.79
559.47	61939.94
559.64	61520.98
559.80	61197.99
559.97	61506.94
560.13	61839.29
560.30	62583.58
560.46	63086.80
560.63	63070.42
560.79	63119.57
560.96	62808.28
561.12	61689.50
561.29	60994.36
561.45	61200.33
561.61	61712.91
561.78	61986.75
561.94	61820.57
562.11	61654.39
562.27	61806.53
562.44	62066.33
562.60	62267.61
562.77	62335.49
562.93	62436.13
563.10	62408.04
563.26	61834.61
563.42	61848.66
563.59	61663.75
563.75	61710.56
563.92	61694.18
564.08	61586.52
564.24	61886.10
564.41	61928.23
564.57	61715.25
564.74	61621.62
564.90	61462.47
565.07	61378.21
565.23	61050.53
565.39	60640.94
565.56	60390.50
565.72	60320.29
565.88	60495.83
566.05	60636.26
566.21	61020.11
566.38	60975.64
566.54	61076.28
566.70	61420.34
566.87	61682.48
567.03	61434.38
567.19	61869.72
567.36	61506.94
567.52	61319.70
567.68	61364.17
567.85	60552.00
568.01	60491.15
568.17	60041.76
568.34	60126.02
568.50	60133.04
568.66	60203.26
568.83	60416.25
568.99	60582.43
569.15	60622.22
569.32	60690.09
569.48	60521.57
569.64	60390.50
569.81	60322.63
569.97	59941.12
570.13	59962.18
570.30	59529.19
570.46	59175.76
570.62	58857.45
570.78	58679.57
570.95	59065.76
571.11	59592.38
571.27	59660.26
571.43	60039.42
571.60	60044.10
571.76	60341.35
571.92	60554.34
572.09	60774.35
572.25	60526.25
572.41	60526.25
572.57	60601.15
572.74	60456.04
572.90	60229.01
573.06	60175.17
573.22	60074.53
573.38	60100.28
573.55	60142.41
573.71	60111.98
573.87	60231.35
574.03	60062.83
574.20	60182.19
574.36	59901.33
574.52	59737.49
574.68	59531.53
574.84	59089.16
575.01	58742.77
575.17	58688.93
575.33	59047.04
575.49	59255.34
575.65	59360.67
575.82	59175.76
575.98	58894.90
576.14	59135.98
576.30	59358.33
576.46	59613.44
576.62	59430.88
576.79	59501.10
576.95	59178.10
577.11	59150.02
577.27	59061.08
577.43	59447.27
577.59	58901.92
577.75	58548.50
577.92	57975.07
578.08	57951.66
578.24	58164.65
578.40	58286.36
578.56	58436.16
578.72	58555.52
578.88	58630.42
579.04	58934.69
579.21	59009.59
579.37	58763.83
579.53	58908.94
579.69	58887.88
579.85	59119.59
580.01	58871.49
580.17	58515.73
580.33	58199.76
580.49	58274.66
580.65	58686.59
580.82	58958.09
580.98	58878.52
581.14	58796.60
581.30	59028.31
581.46	58808.30
581.62	59025.97
581.78	59089.16
581.94	59288.11
582.10	59147.68
582.26	59100.87
582.42	59049.38
582.58	59016.61
582.74	58894.90
582.90	59260.02
583.06	59030.65
583.22	58908.94
583.38	58848.09
583.54	58880.86
583.70	58717.02
583.86	58742.77
584.02	58625.74
584.18	58798.94
584.34	58721.70
584.50	58534.46
584.66	58377.64
584.82	58159.97
584.98	58017.20
585.14	57513.98
