SpectraSuite Data File
++++++++++++++++++++++++++++++++++++
Date: Mon Oct 07 14:53:55 GMT-05:00 2013
User: price-jones
Dark Spectrum Present: No
Reference Spectrum Present: No
Number of Sampled Component Spectra: 1
Spectrometers: USB2+H05261
Integration Time (usec): 100000 (USB2+H05261)
Spectra Averaged: 1 (USB2+H05261)
Boxcar Smoothing: 0 (USB2+H05261)
Correct for Electrical Dark: No (USB2+H05261)
Strobe/Lamp Enabled: No (USB2+H05261)
Correct for Detector Non-linearity: No (USB2+H05261)
Correct for Stray Light: No (USB2+H05261)
Number of Pixels in Processed Spectrum: 2048
>>>>>Begin Processed Spectral Data<<<<<
365.73	0.00
365.92	0.00
366.12	0.00
366.32	0.00
366.52	0.00
366.72	0.00
366.91	0.00
367.11	0.00
367.31	0.00
367.51	0.00
367.70	0.00
367.90	0.00
368.10	0.00
368.30	0.00
368.49	0.00
368.69	0.00
368.89	0.00
369.09	0.00
369.28	0.00
369.48	0.00
369.68	0.00
369.87	0.00
370.07	0.00
370.27	0.00
370.47	543.00
370.66	2752.47
370.86	3185.47
371.06	3503.78
371.25	3625.49
371.45	3094.19
371.65	2846.09
371.84	2684.59
372.04	2775.88
372.24	3150.36
372.44	3283.77
372.63	3258.03
372.83	3122.27
373.03	2633.10
373.22	2530.12
373.42	2511.39
373.62	2935.03
373.81	3251.00
374.01	3311.86
374.21	2928.01
374.40	2771.19
374.60	2876.52
374.79	3129.30
374.99	3669.96
375.19	3962.53
375.38	4016.36
375.58	3854.86
375.78	3641.87
375.97	3880.61
376.17	3971.89
376.37	3997.64
376.56	3948.48
376.76	4205.94
376.95	4477.44
377.15	4779.37
377.35	5062.58
377.54	5153.86
377.74	5235.78
377.93	5516.64
378.13	5130.45
378.33	4889.38
378.52	4566.39
378.72	4311.27
378.91	4367.44
379.11	4208.28
379.31	4095.94
379.50	3992.95
379.70	4430.63
379.89	4732.56
380.09	4985.34
380.28	5219.39
380.48	5139.82
380.68	5139.82
380.87	5198.33
381.07	4603.83
381.26	4313.61
381.46	3988.27
381.65	4014.02
381.85	3772.94
382.04	3651.24
382.24	3433.57
382.43	3253.34
382.63	3124.62
382.83	3176.11
383.02	3206.53
383.22	3141.00
383.41	3178.45
383.61	3459.31
383.80	3756.56
384.00	4540.64
384.19	5041.51
384.39	5270.89
384.58	5193.65
384.78	5006.41
384.97	5170.24
385.17	4671.71
385.36	4589.79
385.56	4540.64
385.75	4491.49
385.95	5046.20
386.14	5254.50
386.34	5308.34
386.53	4985.34
386.72	4887.04
386.92	4884.70
387.11	5172.58
387.31	5404.30
387.50	5266.21
387.70	5048.54
387.89	5081.30
388.09	5259.18
388.28	5158.54
388.48	5195.99
388.67	5476.85
388.86	5940.28
389.06	6471.58
389.25	6761.81
389.45	6895.22
389.64	6981.82
389.84	6806.28
390.03	6881.18
390.22	6513.71
390.42	6918.62
390.61	7424.18
390.81	7836.11
391.00	8070.17
391.19	7960.16
391.39	7740.15
391.58	7206.51
391.78	6647.12
391.97	6525.41
392.16	6263.27
392.36	5757.72
392.55	4603.83
392.75	3522.51
392.94	2911.63
393.13	2972.48
393.33	3456.97
393.52	4418.93
393.71	5444.09
393.91	6012.84
394.10	6448.18
394.29	7225.23
394.49	7854.84
394.68	8383.80
394.88	8580.40
395.07	8800.41
395.26	8695.09
395.46	8311.24
395.65	7997.61
395.84	7056.72
396.04	5900.49
396.23	4669.37
396.42	4058.49
396.62	3641.87
396.81	4234.03
397.00	5628.99
397.19	7199.49
397.39	8606.15
397.58	9638.33
397.77	10218.78
397.97	10506.66
398.16	10644.76
398.35	11068.39
398.55	11342.24
398.74	11590.33
398.93	12133.34
399.12	11892.26
399.32	11267.34
399.51	11728.42
399.70	12636.55
399.90	12409.52
400.09	12332.28
400.28	12416.54
400.47	12325.26
400.67	12961.89
400.86	13579.79
401.05	13188.92
401.24	13144.45
401.44	13598.51
401.63	13579.79
401.82	13350.42
402.01	13647.66
402.21	13710.86
402.40	14019.81
402.59	13455.74
402.78	12938.48
402.97	12386.12
403.17	12849.54
403.36	13851.29
403.55	14368.55
403.74	14525.36
403.93	13694.47
404.13	12709.11
404.32	12589.74
404.51	13006.36
404.70	14083.00
404.89	13902.78
405.09	13720.22
405.28	13198.28
405.47	13434.68
405.66	13319.99
405.85	12940.82
406.05	12702.09
406.24	12755.92
406.43	13434.68
406.62	14019.81
406.81	14115.77
407.00	13621.92
407.20	13085.94
407.39	13107.00
407.58	13982.36
407.77	14328.76
407.96	14902.19
408.15	15185.40
408.34	15103.48
408.54	15580.95
408.73	15803.30
408.92	15714.36
409.11	15173.69
409.30	14298.33
409.49	13586.81
409.68	12655.28
409.87	12306.54
410.07	12975.93
410.26	14099.39
410.45	14920.92
410.64	15473.28
410.83	15885.22
411.02	16311.19
411.21	16746.53
411.40	16585.04
411.59	16828.45
411.78	16538.23
411.98	16521.84
412.17	16786.32
412.36	16505.46
412.55	16585.04
412.74	16252.68
412.93	15543.50
413.12	15950.75
413.31	17289.54
413.50	17263.79
413.69	17727.22
413.88	17053.14
414.07	16666.95
414.26	16774.62
414.45	17385.50
414.64	17558.70
414.83	17532.95
415.02	17242.73
415.22	17277.83
415.41	17586.79
415.60	18125.11
415.79	18824.93
415.98	18965.36
416.17	19349.21
416.36	18705.56
416.55	18616.62
416.74	17874.67
416.93	17322.30
417.12	17504.87
417.31	17444.01
417.50	18005.74
417.69	18572.15
417.88	18565.13
418.07	18153.20
418.26	18197.67
418.45	18195.32
418.64	18712.58
418.83	19356.23
419.02	19112.81
419.21	18960.68
419.39	17963.61
419.58	17233.36
419.77	17465.08
419.96	18026.81
420.15	19133.88
420.34	19419.42
420.53	20336.91
420.72	20957.16
420.91	20341.60
421.10	20369.68
421.29	19953.07
421.48	19435.81
421.67	20144.99
421.86	20004.56
422.05	18576.83
422.24	16688.02
422.43	16318.22
422.61	18302.99
422.80	19454.53
422.99	19796.25
423.18	18937.27
423.37	18487.89
423.56	18670.45
423.75	19056.64
423.94	19204.10
424.13	18045.53
424.32	18415.34
424.50	18544.06
424.69	18029.15
424.88	18473.85
425.07	18295.97
425.26	18391.93
425.45	17998.72
425.64	17479.12
425.83	17844.24
426.01	18799.18
426.20	19379.64
426.39	19183.03
426.58	17767.01
426.77	16259.70
426.96	15784.57
427.15	16409.50
427.33	17734.24
427.52	18523.00
427.71	18429.38
427.90	18317.03
428.09	18188.30
428.28	17575.08
428.46	17001.65
428.65	16730.15
428.84	16919.73
429.03	17413.59
429.22	16524.18
429.40	15798.62
429.59	14141.52
429.78	12784.01
429.97	12578.04
430.16	12875.29
430.34	12936.14
430.53	12870.61
430.72	13198.28
430.91	14328.76
431.10	16959.52
431.28	19906.26
431.47	21858.26
431.66	22122.74
431.85	20538.20
432.03	18534.70
432.22	17767.01
432.41	18438.74
432.60	20210.53
432.79	21280.15
432.97	21687.40
433.16	21383.13
433.35	19351.55
433.54	17245.07
433.72	16376.73
433.91	16835.47
434.10	18794.50
434.28	20273.72
434.47	20982.90
434.66	20922.05
434.85	20514.80
435.03	20086.48
435.22	20662.25
435.41	21940.18
435.59	22125.08
435.78	22574.47
435.97	22558.08
436.16	23030.87
436.34	22773.41
436.53	22228.07
436.72	22478.50
436.90	20776.94
437.09	21027.37
437.28	20547.56
437.46	21397.18
437.65	21149.08
437.84	20070.09
438.02	18258.52
438.21	18132.13
438.40	19091.75
438.58	21088.23
438.77	21341.00
438.96	21504.84
439.14	22181.26
439.33	22927.89
439.52	23285.99
439.70	22953.63
439.89	22024.44
440.08	21823.16
440.26	21338.66
440.45	22141.47
440.63	23819.63
440.82	24980.54
441.01	24912.66
441.19	24336.89
441.38	25132.67
441.57	25993.99
441.75	26043.14
441.94	26377.84
442.12	25867.60
442.31	26546.36
442.50	26206.98
442.68	25989.31
442.87	25708.44
443.05	25383.11
443.24	25640.57
443.43	26455.08
443.61	26419.97
443.80	27035.53
443.98	25277.79
444.17	25600.78
444.35	27124.47
444.54	27346.82
444.73	27143.19
444.91	26211.66
445.10	24865.85
445.28	23953.04
445.47	23246.20
445.65	23854.74
445.84	24751.17
446.02	25507.16
446.21	25516.52
446.39	25781.00
446.58	26127.40
446.77	26302.94
446.95	26597.85
447.14	27400.65
447.32	27744.71
447.51	27431.08
447.69	26288.90
447.88	25942.50
448.06	25954.20
448.25	26789.77
448.43	27178.30
448.62	26349.75
448.80	26478.48
448.99	26499.55
449.17	26738.28
449.36	26834.24
449.54	27318.73
449.73	28268.99
449.91	28362.61
450.10	29652.25
450.28	29654.59
450.46	29827.79
450.65	29589.05
450.83	29036.69
451.02	28514.75
451.20	28987.53
451.39	28676.24
451.57	28315.80
451.76	28716.03
451.94	28250.27
452.13	27817.27
452.31	26387.20
452.49	25172.46
452.68	25483.75
452.86	25282.47
453.05	25745.89
453.23	26927.86
453.42	27400.65
453.60	28098.13
453.78	28334.53
453.97	28013.87
454.15	27910.89
454.34	27395.97
454.52	27534.06
454.70	26572.10
454.89	27445.12
455.07	27531.72
455.26	27854.72
455.44	28945.41
455.62	29322.23
455.81	29570.33
455.99	29088.18
456.17	28573.26
456.36	28968.81
456.54	29764.59
456.73	29406.49
456.91	30162.48
457.09	30609.53
457.28	31058.91
457.46	29823.11
457.64	29331.59
457.83	28741.78
458.01	27969.40
458.19	28704.33
458.38	29120.95
458.56	29834.81
458.74	29640.54
458.93	29177.12
459.11	29017.96
459.29	28744.12
459.48	28811.99
459.66	28751.14
459.84	29472.03
460.03	29645.23
460.21	29240.31
460.39	30183.55
460.57	30178.87
460.76	30543.99
460.94	30864.64
461.12	30221.00
461.31	30209.29
461.49	30462.07
461.67	30110.99
461.85	31257.85
462.04	31042.53
462.22	31622.98
462.40	30529.95
462.59	31051.89
462.77	31124.44
462.95	31213.38
463.13	30689.10
463.32	30300.58
463.50	29947.15
463.68	29998.65
463.86	30555.69
464.05	29998.65
464.23	29123.29
464.41	29200.52
464.59	28823.70
464.78	30232.70
464.96	30047.80
465.14	29659.27
465.32	30279.51
465.50	31126.78
465.69	31019.12
465.87	30984.01
466.05	30075.88
466.23	28795.61
466.41	27740.03
466.60	28772.21
466.78	28973.49
466.96	29532.88
467.14	29883.96
467.32	30108.65
467.51	30391.86
467.69	28559.22
467.87	29755.23
468.05	29504.79
468.23	29708.42
468.41	30164.82
468.60	29977.58
468.78	30597.82
468.96	29909.71
469.14	30300.58
469.32	30637.61
469.50	29188.82
469.69	29139.67
469.87	29020.30
470.05	29046.05
470.23	29111.58
470.41	28884.55
470.59	29589.05
470.77	29509.47
470.95	30466.75
471.14	30134.40
471.32	30513.56
471.50	32142.58
471.68	32318.12
471.86	32545.15
472.04	32865.80
472.22	32816.65
472.40	31374.88
472.58	31304.67
472.77	30808.47
472.95	31409.99
473.13	32325.14
473.31	30909.11
473.49	31475.52
473.67	32435.14
473.85	32362.59
474.03	32896.23
474.21	33118.58
474.39	33326.89
474.57	33333.91
474.75	33762.23
474.93	33289.44
475.12	32458.55
475.30	32538.13
475.48	32421.10
475.66	33528.17
475.84	32753.46
476.02	32655.15
476.20	31882.78
476.38	32659.84
476.56	33867.55
476.74	33970.54
476.92	34148.42
477.10	34953.56
477.28	36009.14
477.46	35775.09
477.64	36126.17
477.82	36264.26
478.00	36322.77
478.18	35716.58
478.36	35732.96
478.54	35817.22
478.72	35847.64
478.90	36594.28
479.08	37757.52
479.26	38675.01
479.44	38204.56
479.62	37776.25
479.80	38246.69
479.98	38375.42
480.16	38450.32
480.34	37926.04
480.52	38431.60
480.70	38286.48
480.88	38497.13
481.06	39288.23
481.24	39569.10
481.41	40430.41
481.59	40821.28
481.77	40847.03
481.95	40072.31
482.13	39796.13
482.31	39737.62
482.49	41186.41
482.67	40268.92
482.85	40830.65
483.03	41600.68
483.21	41956.44
483.39	41418.12
483.57	41148.96
483.74	40650.42
483.92	40573.19
484.10	41163.00
484.28	42134.32
484.46	42588.39
484.64	42902.02
484.82	42473.70
485.00	41785.58
485.18	40776.81
485.35	39192.27
485.53	36198.73
485.71	33675.63
485.89	32540.47
486.07	34230.33
486.25	37378.36
486.43	40156.57
486.61	40531.06
486.78	40329.77
486.96	40734.68
487.14	42335.61
487.32	43145.44
487.50	44636.36
487.68	44807.22
487.85	45689.60
488.03	46096.85
488.21	45565.55
488.39	44722.96
488.57	43859.30
488.75	43175.86
488.92	44612.95
489.10	46902.00
489.28	48666.76
489.46	49523.40
489.64	49020.18
489.81	49195.72
489.99	48781.45
490.17	48671.44
490.35	49750.43
490.53	49078.69
490.70	48598.88
490.88	48451.43
491.06	49492.97
491.24	49322.11
491.41	48418.66
491.59	46375.37
491.77	45162.98
491.95	46277.07
492.13	48058.22
492.30	49556.16
492.48	50663.24
492.66	51178.15
492.84	51157.09
493.01	50658.56
493.19	50155.34
493.37	49965.76
493.54	49397.01
493.72	50033.63
493.90	51648.60
494.08	52205.65
494.25	52603.54
494.43	52720.57
494.61	53118.46
494.79	53106.76
494.96	52825.89
495.14	52287.57
495.32	51447.32
495.49	50171.72
495.67	51728.18
495.85	53207.40
496.02	53666.14
496.20	53492.94
496.38	52907.81
496.55	53034.20
496.73	53371.24
496.91	53616.99
497.09	54270.00
497.26	54550.87
497.44	53755.08
497.62	53375.92
497.79	52465.45
497.97	50667.92
498.14	51166.45
498.32	52165.86
498.50	53322.08
498.67	53925.94
498.85	53694.23
499.03	53986.80
499.20	54499.37
499.38	54241.92
499.56	54071.06
499.73	53624.01
499.91	53097.39
500.08	52509.92
500.26	51714.14
500.44	52416.30
500.61	53158.25
500.79	52802.49
500.97	52327.36
501.14	52360.12
501.32	52151.82
501.49	52182.24
501.67	52200.97
501.84	53125.48
502.02	53439.11
502.20	53563.16
502.37	53858.07
502.55	53808.92
502.72	54490.01
502.90	54815.35
503.07	54461.93
503.25	54087.44
503.43	53301.02
503.60	52395.23
503.78	51805.42
503.95	52065.22
504.13	53698.91
504.30	54749.81
504.48	54614.06
504.65	54209.15
504.83	54068.72
505.01	54859.82
505.18	55297.50
505.36	55856.88
505.53	55966.89
505.71	55980.93
505.88	56217.33
506.06	55693.05
506.23	54967.48
506.41	54731.09
506.58	55093.87
506.76	55009.61
506.93	54901.95
507.11	54630.44
507.28	54710.02
507.46	54314.47
507.63	53565.50
507.81	53556.14
507.98	54045.31
508.16	54497.03
508.33	55072.81
508.50	55412.18
508.68	55707.09
508.85	56097.96
509.03	56076.90
509.20	56137.75
509.38	55260.05
509.55	54452.56
509.73	54464.27
509.90	55121.96
510.08	55721.13
510.25	55426.23
510.42	55178.13
510.60	55138.34
510.77	55295.16
510.95	55969.23
511.12	55894.33
511.30	56247.75
511.47	56559.05
511.64	56502.87
511.82	56222.01
511.99	55309.20
512.17	54756.83
512.34	54506.40
512.51	54752.15
512.69	54932.37
512.86	55056.42
513.04	55304.52
513.21	55288.13
513.38	55157.06
513.56	54459.58
513.73	53890.83
513.90	54052.33
514.08	54244.26
514.25	54543.84
514.43	54946.42
514.60	54649.17
514.77	54831.73
514.95	55253.03
515.12	54663.21
515.29	55299.84
515.47	55711.77
515.64	56083.92
515.81	55524.53
515.99	54869.18
516.16	53560.82
516.33	50597.70
516.51	48856.34
516.68	47980.98
516.85	47260.10
517.03	47709.48
517.20	50932.40
517.37	54082.76
517.54	55222.60
517.72	54635.13
517.89	51882.66
518.06	48994.43
518.24	49050.61
518.41	51889.68
518.58	53357.19
518.75	53727.00
518.93	54078.08
519.10	53759.76
519.27	54302.77
519.45	54408.09
519.62	55468.36
519.79	55622.83
519.96	55505.80
520.14	55079.83
520.31	54017.22
520.48	53799.55
520.65	54403.41
520.83	55405.16
521.00	55653.26
521.17	55435.59
521.34	54820.03
521.52	55519.85
521.69	55779.65
521.86	56477.13
522.03	56137.75
522.20	54780.24
522.38	53558.48
522.55	53605.29
522.72	54424.48
522.89	54438.52
523.07	54595.34
523.24	55103.23
523.41	55847.52
523.58	56236.05
523.75	56573.09
523.92	56556.70
524.10	56519.26
524.27	56657.35
524.44	56294.56
524.61	55903.70
524.78	55889.65
524.96	55639.22
525.13	55814.76
525.30	56060.51
525.47	56657.35
525.64	56207.97
525.81	55711.77
525.98	54267.66
526.16	52699.50
526.33	51737.54
526.50	51409.87
526.67	50817.71
526.84	51489.45
527.01	52912.49
527.18	53797.21
527.36	54653.85
527.53	55592.40
527.70	55770.28
527.87	55185.15
528.04	54915.99
528.21	55243.66
528.38	56320.31
528.55	56725.22
528.72	56830.55
528.89	56980.34
529.07	56949.92
529.24	55908.38
529.41	55257.71
529.58	54721.72
529.75	54923.01
529.92	55290.48
530.09	55695.39
530.26	56385.85
530.43	56516.92
530.60	56542.66
530.77	56893.74
530.94	57052.90
531.11	56367.12
531.28	56247.75
531.46	55976.25
531.63	55910.72
531.80	56203.28
531.97	55269.41
532.14	54534.48
532.31	53516.35
532.48	52989.73
532.65	52645.67
532.82	53806.58
532.99	54969.82
533.16	55320.90
533.33	55994.98
533.50	55707.09
533.67	54965.14
533.84	54656.19
534.01	54822.37
534.18	55103.23
534.35	55365.37
534.52	55187.49
534.69	55482.40
534.86	55824.12
535.03	55870.93
535.20	56486.49
535.37	56994.39
535.54	56879.70
535.71	56568.41
535.88	56086.26
536.05	55402.82
536.22	55098.55
536.38	54679.60
536.55	54199.79
536.72	53577.20
536.89	53769.13
537.06	54738.11
537.23	55466.02
537.40	55480.06
537.57	55711.77
537.74	55454.31
537.91	55297.50
538.08	55327.92
538.25	55199.19
538.42	55781.99
538.59	55227.28
538.75	54726.41
538.92	54241.92
539.09	54195.10
539.26	54157.66
539.43	53853.39
539.60	53710.61
539.77	54234.89
539.94	54061.69
540.11	53240.17
540.28	52669.08
540.44	52720.57
540.61	52879.72
540.78	53254.21
540.95	53750.40
541.12	54197.44
541.29	54375.33
541.46	54773.22
541.62	54710.02
541.79	54672.57
541.96	53883.81
542.13	54003.18
542.30	54260.64
542.47	54387.03
542.63	54071.06
542.80	53904.88
542.97	54110.85
543.14	53771.47
543.31	53804.24
543.48	54429.16
543.64	55414.52
543.81	55466.02
543.98	55330.26
544.15	54717.04
544.32	53797.21
544.48	54064.03
544.65	54686.62
544.82	55150.04
544.99	54616.40
545.16	54160.00
545.32	54110.85
545.49	54901.95
545.66	55297.50
545.83	55117.28
546.00	54571.93
546.16	54064.03
546.33	54096.80
546.50	54328.52
546.67	54490.01
546.83	54092.12
547.00	54197.44
547.17	53588.91
547.34	52825.89
547.50	52690.14
547.67	53350.17
547.84	53294.00
548.00	53755.08
548.17	54372.99
548.34	53963.39
548.51	53979.78
548.67	54010.20
548.84	54092.12
549.01	54131.91
549.18	54094.46
549.34	53958.71
549.51	54141.27
549.68	53947.01
549.84	53675.51
550.01	53645.08
550.18	53436.77
550.34	53347.83
550.51	53537.41
550.68	53874.45
550.84	53102.07
551.01	53195.70
551.18	53198.04
551.34	53268.25
551.51	53811.26
551.68	54068.72
551.84	53874.45
552.01	54195.10
552.18	53811.26
552.34	52804.83
552.51	52446.72
552.68	52252.46
552.84	53050.58
553.01	53404.00
553.18	52683.12
553.34	53380.60
553.51	53375.92
553.67	53778.49
553.84	53745.72
554.01	53687.21
554.17	53256.55
554.34	53294.00
554.51	53602.95
554.67	54169.36
554.84	53914.24
555.00	53591.25
555.17	53329.11
555.33	53090.37
555.50	53207.40
555.67	53045.90
555.83	52992.07
556.00	52456.09
556.16	52706.52
556.33	51952.87
556.50	51831.16
556.66	51952.87
556.83	51896.70
556.99	51679.03
557.16	51814.78
557.32	52334.38
557.49	52516.94
557.65	52608.22
557.82	52453.75
557.98	52341.40
558.15	51723.50
558.32	50873.88
558.48	49495.31
558.65	50127.25
558.81	50499.40
558.98	50281.73
559.14	51112.62
559.31	50901.97
559.47	50974.53
559.64	50717.07
559.80	50412.80
559.97	50354.29
560.13	50939.42
560.30	51945.85
560.46	52261.82
560.63	52718.23
560.79	52900.79
560.96	52261.82
561.12	51126.66
561.29	49780.85
561.45	49923.63
561.61	51000.27
561.78	51129.00
561.94	51213.26
562.11	51091.55
562.27	50756.86
562.44	51381.78
562.60	51449.66
562.77	51564.34
562.93	51732.86
563.10	51297.52
563.26	50827.07
563.42	50763.88
563.59	50677.28
563.75	50518.12
563.92	50703.03
564.08	50777.92
564.24	51023.68
564.41	51000.27
564.57	50934.74
564.74	50904.31
564.90	51021.34
565.07	50375.35
565.23	49822.98
565.39	49172.31
565.56	49074.01
565.72	48809.53
565.88	48786.13
566.05	49193.38
566.21	49876.82
566.38	49595.95
566.54	49975.12
566.70	50321.52
566.87	50401.10
567.03	50663.24
567.19	50906.65
567.36	50298.11
567.52	50326.20
567.68	50019.59
567.85	49071.67
568.01	48893.79
568.17	48053.54
568.34	48545.05
568.50	48158.86
568.66	48430.36
568.83	48905.49
568.99	48868.05
569.15	49347.86
569.32	49254.23
569.48	48446.75
569.64	48594.20
569.81	48334.40
569.97	47854.59
570.13	48334.40
570.30	47229.67
570.46	46972.21
570.62	46396.44
570.78	45944.72
570.95	46553.26
571.11	47475.43
571.27	47552.66
571.43	48020.77
571.60	48212.70
571.76	48374.19
571.92	48381.21
572.09	48802.51
572.25	48966.35
572.41	48797.83
572.57	48751.02
572.74	48828.26
572.90	48140.14
573.06	48500.58
573.22	48240.78
573.38	48039.50
573.55	48147.16
573.71	48308.66
573.87	48329.72
574.03	47936.51
574.20	47746.93
574.36	47807.78
574.52	47089.24
574.68	47386.49
574.84	46705.39
575.01	46319.20
575.17	45951.74
575.33	46415.16
575.49	46761.56
575.65	47086.90
575.82	46728.80
575.98	46373.03
576.14	46639.86
576.30	47356.06
576.46	47084.56
576.62	47126.69
576.79	47152.43
576.95	46375.37
577.11	46358.99
577.27	46700.71
577.43	46681.98
577.59	46387.08
577.75	46038.34
577.92	44971.05
578.08	45031.91
578.24	44655.08
578.40	45574.91
578.56	45787.90
578.72	45525.76
578.88	45827.69
579.04	46019.61
579.21	46138.98
579.37	46101.53
579.53	46092.17
579.69	46632.83
579.85	46232.60
580.01	46265.37
580.17	45457.88
580.33	45420.44
580.49	45378.31
580.65	45958.76
580.82	46286.43
580.98	46344.95
581.14	45937.69
581.30	46169.41
581.46	45621.72
581.62	46639.86
581.78	46024.29
581.94	46003.23
582.10	46138.98
582.26	46080.47
582.42	46005.57
582.58	46389.42
582.74	46419.84
582.90	46337.93
583.06	46223.24
583.22	45963.44
583.38	45916.63
583.54	46108.55
583.70	45897.91
583.86	45736.41
584.02	45371.28
584.18	46272.39
584.34	45626.40
584.50	45340.86
584.66	44821.26
584.82	44851.69
584.98	44816.58
585.14	44226.76
585.30	43473.11
