SpectraSuite Data File
++++++++++++++++++++++++++++++++++++
Date: Mon Oct 07 14:53:48 GMT-05:00 2013
User: price-jones
Dark Spectrum Present: No
Reference Spectrum Present: No
Number of Sampled Component Spectra: 1
Spectrometers: USB2+H05261
Integration Time (usec): 100000 (USB2+H05261)
Spectra Averaged: 1 (USB2+H05261)
Boxcar Smoothing: 0 (USB2+H05261)
Correct for Electrical Dark: No (USB2+H05261)
Strobe/Lamp Enabled: No (USB2+H05261)
Correct for Detector Non-linearity: No (USB2+H05261)
Correct for Stray Light: No (USB2+H05261)
Number of Pixels in Processed Spectrum: 2048
>>>>>Begin Processed Spectral Data<<<<<
365.73	0.00
365.92	0.00
366.12	0.00
366.32	0.00
366.52	0.00
366.72	0.00
366.91	0.00
367.11	0.00
367.31	0.00
367.51	0.00
367.70	0.00
367.90	0.00
368.10	0.00
368.30	0.00
368.49	0.00
368.69	0.00
368.89	0.00
369.09	0.00
369.28	0.00
369.48	0.00
369.68	0.00
369.87	0.00
370.07	0.00
370.27	0.00
370.47	587.47
370.66	2827.37
370.86	3417.18
371.06	3775.28
371.25	3850.18
371.45	3426.54
371.65	2991.20
371.84	2841.41
372.04	3019.29
372.24	3438.25
372.44	3428.88
372.63	3487.40
372.83	3262.71
373.03	2822.69
373.22	2588.63
373.42	2796.94
373.62	3169.09
373.81	3492.08
374.01	3548.25
374.21	3063.76
374.40	2789.92
374.60	3133.98
374.79	3447.61
374.99	3983.59
375.19	4418.93
375.38	4428.29
375.58	4124.02
375.78	4086.58
375.97	3995.29
376.17	4077.21
376.37	4095.94
376.56	4245.73
376.76	4505.53
376.95	4856.61
377.15	5291.95
377.35	5401.96
377.54	5600.90
377.74	5790.49
377.93	5701.54
378.13	5628.99
378.33	5137.48
378.52	4933.85
378.72	4571.07
378.91	4540.64
379.11	4489.15
379.31	4259.78
379.50	4140.41
379.70	4652.98
379.89	5064.92
380.09	5493.24
380.28	5467.49
380.48	5624.31
380.68	5448.77
380.87	5359.83
381.07	5088.32
381.26	4608.51
381.46	4297.22
381.65	4166.15
381.85	4109.98
382.04	3791.67
382.24	3702.73
382.43	3449.95
382.63	3403.14
382.83	3382.07
383.02	3454.63
383.22	3482.72
383.41	3349.31
383.61	3571.66
383.80	4180.20
384.00	4571.07
384.19	5472.17
384.39	5551.75
384.58	5500.26
384.78	5404.30
384.97	5483.88
385.17	5167.90
385.36	4814.48
385.56	4500.85
385.75	4840.23
385.95	5268.55
386.14	5682.82
386.34	5741.33
386.53	5682.82
386.72	5114.07
386.92	5001.72
387.11	5406.64
387.31	5746.02
387.50	5570.48
387.70	5465.15
387.89	5303.65
388.09	5458.13
388.28	5394.93
388.48	5441.75
388.67	5933.26
388.86	6649.46
389.06	6995.86
389.25	7227.57
389.45	7440.56
389.64	7396.09
389.84	7318.86
390.03	7272.04
390.22	7283.75
390.42	7691.00
390.61	8002.29
390.81	8674.03
391.00	8589.77
391.19	8444.65
391.39	8231.66
391.58	7826.75
391.78	7325.88
391.97	7155.02
392.16	6722.02
392.36	6061.99
392.55	4870.65
392.75	3843.16
392.94	3171.43
393.13	3089.51
393.33	3721.45
393.52	4727.88
393.71	5856.02
393.91	6616.69
394.10	6927.99
394.29	7775.26
394.49	8372.10
394.68	8933.82
394.88	9041.49
395.07	9509.60
395.26	9453.42
395.46	8931.48
395.65	8517.21
395.84	7555.25
396.04	6122.84
396.23	5167.90
396.42	4297.22
396.62	4107.64
396.81	4664.69
397.00	6073.69
397.19	7623.12
397.39	9289.59
397.58	10363.89
397.77	10719.65
397.97	11265.00
398.16	11400.75
398.35	11658.21
398.55	11950.78
398.74	12622.51
398.93	13039.12
399.12	12692.73
399.32	12266.75
399.51	12622.51
399.70	13472.12
399.90	13130.41
400.09	13303.60
400.28	13064.87
400.47	13422.97
400.67	14141.52
400.86	14068.96
401.05	14256.20
401.24	14476.21
401.44	14441.11
401.63	14501.96
401.82	14586.22
402.01	14677.50
402.21	14670.48
402.40	14857.72
402.59	14174.28
402.78	13776.39
402.97	13425.31
403.17	13678.09
403.36	14724.31
403.55	15253.27
403.74	15779.89
403.93	14920.92
404.13	13848.95
404.32	13193.60
404.51	14106.41
404.70	15180.71
404.89	15023.90
405.09	14970.07
405.28	14588.56
405.47	14380.25
405.66	14401.32
405.85	14003.43
406.05	13696.82
406.24	14036.19
406.43	14562.81
406.62	14853.04
406.81	14923.26
407.00	14190.67
407.20	14310.04
407.39	14176.62
407.58	15154.97
407.77	15494.35
407.96	16079.48
408.15	16379.07
408.34	16496.10
408.54	17095.27
408.73	17231.02
408.92	16985.27
409.11	16259.70
409.30	15709.68
409.49	14871.76
409.68	13799.80
409.87	13170.19
410.07	14181.31
410.26	15157.31
410.45	16315.87
410.64	16634.19
410.83	17102.29
411.02	17458.06
411.21	18097.02
411.40	18265.54
411.59	18225.75
411.78	17881.69
411.98	17769.35
412.17	18366.18
412.36	17671.04
412.55	18153.20
412.74	17301.24
412.93	16915.05
413.12	17036.76
413.31	18759.39
413.50	18815.57
413.69	19325.80
413.88	18312.35
414.07	17881.69
414.26	18366.18
414.45	18934.93
414.64	19005.15
414.83	18822.59
415.02	19218.14
415.22	18398.95
415.41	19117.50
415.60	19676.88
415.79	20322.87
415.98	20950.14
416.17	20563.95
416.36	20224.57
416.55	19829.02
416.74	19522.41
416.93	18682.16
417.12	18700.88
417.31	19616.03
417.50	19379.64
417.69	19999.88
417.88	19697.95
418.07	19899.23
418.26	19335.17
418.45	19566.88
418.64	20238.61
418.83	20919.71
419.02	20961.84
419.21	20783.96
419.39	19812.63
419.58	18588.53
419.77	18885.78
419.96	19302.40
420.15	20662.25
420.34	21170.15
420.53	22389.56
420.72	22492.55
420.91	22054.87
421.10	22223.39
421.29	21919.12
421.48	21102.27
421.67	22256.15
421.86	21312.92
422.05	20016.26
422.24	18302.99
422.43	17867.65
422.61	19520.07
422.80	21362.07
422.99	21275.47
423.18	20676.29
423.37	19985.83
423.56	20123.93
423.75	20760.55
423.94	20896.30
424.13	19721.35
424.32	20238.61
424.50	20126.27
424.69	19742.42
424.88	19796.25
425.07	20053.71
425.26	20034.99
425.45	19475.60
425.64	19260.27
425.83	19161.97
426.01	20276.06
426.20	21076.52
426.39	20688.00
426.58	19101.11
426.77	17776.37
426.96	17315.28
427.15	17865.31
427.33	19255.59
427.52	20100.52
427.71	20243.29
427.90	19791.57
428.09	19779.87
428.28	19330.48
428.46	19056.64
428.65	18216.39
428.84	18813.23
429.03	19360.91
429.22	18136.81
429.40	17193.58
429.59	15903.94
429.78	13544.68
429.97	13748.31
430.16	14134.50
430.34	13956.61
430.53	14125.13
430.72	14389.61
430.91	15810.32
431.10	18621.30
431.28	21998.70
431.47	23667.50
431.66	23730.69
431.85	21965.93
432.03	20245.63
432.22	19054.30
432.41	20107.54
432.60	22286.58
432.79	23129.17
432.97	23655.79
433.16	23377.27
433.35	21165.46
433.54	18869.40
433.72	18022.12
433.91	18164.90
434.10	20519.48
434.28	22281.90
434.47	23541.11
434.66	22944.27
434.85	22242.11
435.03	22043.17
435.22	23042.57
435.41	24116.88
435.59	24114.54
435.78	24451.58
435.97	24938.41
436.16	25507.16
436.34	24671.59
436.53	24386.04
436.72	24133.26
436.90	22897.46
437.09	23054.28
437.28	22499.57
437.46	23513.02
437.65	23557.49
437.84	21696.77
438.02	19829.02
438.21	19520.07
438.40	21113.97
438.58	22314.67
438.77	23157.26
438.96	23417.06
439.14	24374.34
439.33	24999.26
439.52	25752.91
439.70	25032.03
439.89	24435.19
440.08	23864.10
440.26	23679.20
440.45	24313.48
440.63	25635.89
440.82	27452.14
441.01	27185.32
441.19	27133.83
441.38	27220.43
441.57	27983.44
441.75	28692.63
441.94	29102.22
442.12	28432.83
442.31	28973.49
442.50	28851.78
442.68	28467.94
442.87	28800.29
443.05	28161.33
443.24	28486.66
443.43	28547.51
443.61	29261.38
443.80	29956.52
443.98	28002.17
444.17	27854.72
444.35	29720.12
444.54	30066.52
444.73	30146.10
444.91	28587.30
445.10	27400.65
445.28	26438.69
445.47	26129.74
445.65	26092.29
445.84	27084.68
446.02	27882.80
446.21	27978.76
446.39	28283.03
446.58	28882.21
446.77	28985.19
446.95	29308.19
447.14	30150.78
447.32	30581.44
447.51	30155.46
447.69	29153.71
447.88	28201.11
448.06	29249.67
448.25	29509.47
448.43	30059.50
448.62	29027.32
448.80	28659.86
448.99	29092.86
449.17	29874.60
449.36	29830.13
449.54	30539.31
449.73	30635.27
449.91	31601.91
450.10	32467.91
450.28	32589.62
450.46	32547.49
450.65	32292.37
450.83	32144.92
451.02	31288.28
451.20	31531.70
451.39	31344.45
451.57	31082.31
451.76	31328.07
451.94	30778.04
452.13	30499.52
452.31	29324.57
452.49	27456.82
452.68	28320.48
452.86	28210.48
453.05	28224.52
453.23	29479.05
453.42	30148.44
453.60	31131.47
453.78	31213.38
453.97	30298.23
454.15	30424.62
454.34	30228.02
454.52	30054.82
454.70	29577.35
454.89	30068.86
455.07	30188.23
455.26	30279.51
455.44	31646.38
455.62	32201.09
455.81	32645.79
455.99	32554.51
456.17	31913.20
456.36	31978.74
456.54	32744.09
456.73	32760.48
456.91	33085.81
457.09	33448.60
457.28	33837.12
457.46	32484.30
457.64	32575.58
457.83	31559.78
458.01	30747.62
458.19	31393.61
458.38	32105.13
458.56	33099.86
458.74	32498.34
458.93	32149.60
459.11	32105.13
459.29	31571.49
459.48	31630.00
459.66	31847.67
459.84	32266.63
460.03	32491.32
460.21	32610.68
460.39	33720.10
460.57	33420.51
460.76	33820.74
460.94	34117.99
461.12	33687.33
461.31	33359.66
461.49	33696.69
461.67	33387.74
461.85	34389.49
462.04	34242.04
462.22	34682.06
462.40	34127.35
462.59	34309.91
462.77	34455.03
462.95	33752.87
463.13	33769.25
463.32	33813.72
463.50	33469.66
463.68	33247.31
463.86	33436.89
464.05	32826.01
464.23	32196.41
464.41	32168.32
464.59	31620.64
464.78	33696.69
464.96	32800.27
465.14	32952.40
465.32	33223.90
465.50	34134.37
465.69	34525.24
465.87	33905.00
466.05	33443.91
466.23	31592.55
466.41	30843.58
466.60	31873.42
466.78	31864.05
466.96	32488.98
467.14	33064.75
467.32	33574.98
467.51	33876.91
467.69	31662.77
467.87	32563.87
468.05	33289.44
468.23	33507.11
468.41	33282.42
468.60	33020.28
468.78	33558.60
468.96	33092.83
469.14	33802.02
469.32	34085.22
469.50	32472.59
469.69	32559.19
469.87	31850.01
470.05	32025.55
470.23	32058.32
470.41	32369.61
470.59	32746.44
470.77	33015.60
470.95	33394.76
471.14	33834.78
471.32	33984.58
471.50	35702.53
471.68	36013.82
471.86	36072.34
472.04	36170.64
472.22	36313.41
472.40	34691.42
472.58	34326.30
472.77	33780.95
472.95	34581.42
473.13	35693.17
473.31	34555.67
473.49	34529.92
473.67	35314.00
473.85	36142.55
474.03	36732.37
474.21	36383.63
474.39	37202.82
474.57	37120.90
474.75	37031.96
474.93	37137.28
475.12	35835.94
475.30	36224.47
475.48	36224.47
475.66	37062.38
475.84	36392.99
476.02	36290.01
476.20	35601.89
476.38	36280.64
476.56	36989.83
476.74	37928.38
476.92	38199.88
477.10	38855.23
477.28	39604.20
477.46	39625.27
477.64	39889.75
477.82	40041.88
478.00	40627.02
478.18	39707.19
478.36	39779.74
478.54	39454.41
478.72	39653.36
478.90	41165.34
479.08	41769.20
479.26	42513.49
479.44	42398.80
479.62	41911.97
479.80	41823.03
479.98	42340.29
480.16	42843.51
480.34	42532.22
480.52	42639.88
480.70	42590.73
480.88	42843.51
481.06	43257.78
481.24	44046.54
481.41	44594.23
481.59	45242.56
481.77	44982.76
481.95	44601.25
482.13	44416.35
482.31	44463.16
482.49	45027.23
482.67	44713.59
482.85	45659.17
483.03	45705.98
483.21	46120.26
483.39	46153.02
483.57	45329.16
483.74	44772.11
483.92	45432.14
484.10	45453.20
484.28	46754.54
484.46	46955.83
484.64	47269.46
484.82	46541.55
485.00	46061.74
485.18	44919.56
485.35	43384.17
485.53	40753.41
485.71	37036.64
485.89	36903.23
486.07	38302.87
486.25	41897.93
486.43	44292.30
486.61	44872.75
486.78	44327.41
486.96	44811.90
487.14	46745.18
487.32	47276.48
487.50	48385.89
487.68	49457.86
487.85	50361.31
488.03	49958.73
488.21	49443.82
488.39	48631.65
488.57	48198.65
488.75	47819.49
488.92	48802.51
489.10	51035.38
489.28	52484.17
489.46	53158.25
489.64	52832.91
489.81	52952.28
489.99	52669.08
490.17	52903.13
490.35	53176.97
490.53	52533.32
490.70	52233.74
490.88	51679.03
491.06	53226.12
491.24	53064.63
491.41	52189.27
491.59	50583.66
491.77	49364.24
491.95	50768.56
492.13	51903.72
492.30	53319.74
492.48	54080.42
492.66	54681.94
492.84	54405.75
493.01	54560.23
493.19	53872.11
493.37	53642.74
493.54	53073.99
493.72	53858.07
493.90	55042.38
494.08	55449.63
494.25	55868.59
494.43	55859.23
494.61	56371.80
494.79	56633.94
494.96	56147.11
495.14	55583.04
495.32	54906.63
495.49	53984.46
495.67	54859.82
495.85	56741.61
496.02	56919.49
496.20	56970.98
496.38	56493.51
496.55	56205.62
496.73	56811.82
496.91	56877.36
497.09	57315.04
497.26	57556.11
497.44	57202.69
497.62	56406.91
497.79	55831.14
497.97	54705.34
498.14	54679.60
498.32	55700.07
498.50	56608.20
498.67	57289.29
498.85	57090.35
499.03	57120.77
499.20	57272.91
499.38	57689.52
499.56	57137.16
499.73	56645.65
499.91	56435.00
500.08	55896.67
500.26	55231.96
500.44	55817.10
500.61	56362.44
500.79	56383.51
500.97	56102.64
501.14	55721.13
501.32	55571.34
501.49	55660.28
501.67	55826.46
501.84	56254.78
502.02	56619.90
502.20	56914.81
502.37	57237.80
502.55	57073.96
502.72	57556.11
502.90	58216.14
503.07	57904.85
503.25	57502.28
503.43	56383.51
503.60	56025.40
503.78	55152.38
503.95	55356.01
504.13	56975.66
504.30	58040.60
504.48	57446.11
504.65	57326.74
504.83	57469.51
505.01	57762.08
505.18	58396.37
505.36	58780.21
505.53	58812.98
505.71	59292.79
505.88	59096.19
506.06	58637.44
506.23	58436.16
506.41	57846.34
506.58	58099.12
506.76	58223.17
506.93	57996.13
507.11	57844.00
507.28	57886.13
507.46	57623.99
507.63	57200.35
507.81	56678.41
507.98	57076.30
508.16	57778.46
508.33	58110.82
508.50	58389.34
508.68	58754.47
508.85	59400.46
509.03	59379.39
509.20	59112.57
509.38	58555.52
509.55	57729.31
509.73	57986.77
509.90	58443.18
510.08	58817.66
510.25	58335.51
510.42	58333.17
510.60	58347.21
510.77	58258.27
510.95	59068.10
511.12	59325.56
511.30	59400.46
511.47	59597.06
511.64	59611.10
511.82	59274.07
511.99	58618.72
512.17	58073.37
512.34	57616.97
512.51	57858.04
512.69	58078.05
512.86	58145.93
513.04	58532.12
513.21	58567.23
513.38	58178.70
513.56	57705.91
513.73	57268.23
513.90	57443.77
514.08	57516.32
514.25	57659.10
514.43	57928.26
514.60	58040.60
514.77	58185.72
514.95	58211.46
515.12	58073.37
515.29	58316.79
515.47	58805.96
515.64	59243.64
515.81	58726.38
515.99	58166.99
516.16	56886.72
516.33	54536.82
516.51	52963.98
516.68	52149.48
516.85	51655.62
517.03	52062.88
517.20	54852.80
517.37	57387.60
517.54	58260.62
517.72	57844.00
517.89	55512.83
518.06	53209.74
518.24	53385.28
518.41	55468.36
518.58	56601.18
518.75	57153.54
518.93	57340.78
519.10	57069.28
519.27	57766.76
519.45	57764.42
519.62	58695.95
519.79	58930.01
519.96	58590.63
520.14	58377.64
520.31	57464.83
520.48	57279.93
520.65	57783.15
520.83	58742.77
521.00	59119.59
521.17	58686.59
521.34	58255.93
521.52	58370.62
521.69	59135.98
521.86	59524.50
522.03	59220.23
522.20	58155.29
522.38	56910.13
522.55	56956.94
522.72	57457.81
522.89	57801.87
523.07	58010.18
523.24	58361.26
523.41	59281.09
523.58	59126.61
523.75	59737.49
523.92	59714.09
524.10	59604.08
524.27	59517.48
524.44	59428.54
524.61	59409.82
524.78	59208.53
524.96	58988.52
525.13	59058.74
525.30	59131.29
525.47	59728.13
525.64	59491.74
525.81	58890.22
525.98	57556.11
526.16	56104.98
526.33	55594.74
526.50	55107.91
526.67	54787.26
526.84	55323.24
527.01	56317.97
527.18	57134.82
527.36	58066.35
527.53	58775.53
527.70	59161.72
527.87	58541.48
528.04	58113.16
528.21	58693.61
528.38	59306.83
528.55	59828.77
528.72	60151.77
528.89	60369.44
529.07	59828.77
529.24	59351.30
529.41	58607.01
529.58	58122.52
529.75	58209.12
529.92	58630.42
530.09	59011.93
530.26	59667.28
530.43	59735.15
530.60	59803.03
530.77	59898.99
530.94	60238.37
531.11	59791.33
531.28	59173.42
531.46	59182.79
531.63	59391.09
531.80	59100.87
531.97	58721.70
532.14	58094.44
532.31	57050.56
532.48	56573.09
532.65	56343.72
532.82	57247.16
532.99	58564.88
533.16	58805.96
533.33	59576.00
533.50	59091.51
533.67	58527.44
533.84	58178.70
534.01	58220.83
534.18	58288.70
534.35	58651.48
534.52	58291.04
534.69	58515.73
534.86	59018.95
535.03	59206.19
535.20	59718.77
535.37	60060.49
535.54	60165.81
535.71	59786.64
535.88	59449.61
536.05	58810.64
536.22	58529.78
536.38	58340.19
536.55	57862.72
536.72	57139.50
536.89	56809.48
537.06	57867.40
537.23	58944.05
537.40	58904.26
537.57	58925.33
537.74	58775.53
537.91	58782.55
538.08	58497.01
538.25	58834.05
538.42	59075.12
538.59	58979.16
538.75	58101.46
538.92	57996.13
539.09	57623.99
539.26	57691.86
539.43	57226.10
539.60	57563.14
539.77	57745.70
539.94	57691.86
540.11	56917.15
540.28	56165.84
540.44	56460.74
540.61	56636.28
540.78	56788.42
540.95	57216.74
541.12	57567.82
541.29	58038.26
541.46	58101.46
541.62	58468.92
541.79	58087.42
541.96	57261.21
542.13	57415.68
542.30	57729.31
542.47	57881.45
542.63	57649.74
542.80	57422.70
542.97	57640.37
543.14	57228.44
543.31	57640.37
543.48	58019.54
543.64	58791.92
543.81	59140.66
543.98	58700.64
544.15	58120.18
544.32	57654.42
544.48	57523.35
544.65	58185.72
544.82	58487.65
544.99	58143.59
545.16	58045.29
545.32	57528.03
545.49	58293.38
545.66	58705.32
545.83	58553.18
546.00	57923.58
546.16	57733.99
546.33	57792.51
546.50	57776.12
546.67	58387.00
546.83	57616.97
547.00	57949.32
547.17	57233.12
547.34	56566.07
547.50	56554.36
547.67	57118.43
547.84	57125.46
548.00	57373.55
548.17	57792.51
548.34	57574.84
548.51	57764.42
548.67	57715.27
548.84	57530.37
549.01	57808.89
549.18	57858.04
549.34	57684.84
549.51	57542.07
549.68	57535.05
549.84	57511.64
550.01	57340.78
550.18	57195.67
550.34	57167.58
550.51	57464.83
550.68	57221.42
550.84	56865.66
551.01	56816.50
551.18	57174.61
551.34	57069.28
551.51	57511.64
551.68	57886.13
551.84	57925.92
552.01	57631.01
552.18	57530.37
552.34	56575.43
552.51	56332.01
552.68	56381.16
552.84	56743.95
553.01	56804.80
553.18	57008.43
553.34	56910.13
553.51	57193.33
553.67	57343.12
553.84	57668.46
554.01	57212.06
554.17	57361.85
554.34	57373.55
554.51	57303.34
554.67	57607.61
554.84	57558.45
555.00	57326.74
555.17	56959.28
555.33	56928.85
555.50	57041.20
555.67	56905.44
555.83	56685.43
556.00	56563.73
556.16	56388.19
556.33	56046.47
556.50	56018.38
556.66	56243.07
556.83	55772.63
556.99	55487.08
557.16	55889.65
557.32	56357.76
557.49	56350.74
557.65	56383.51
557.82	56303.93
557.98	56210.31
558.15	55749.22
558.32	55042.38
558.48	54040.63
558.65	54176.38
558.81	54553.21
558.98	55117.28
559.14	55227.28
559.31	55257.71
559.47	55409.84
559.64	55100.89
559.80	54784.92
559.97	54714.70
560.13	55061.10
560.30	55629.85
560.46	56341.38
560.63	56748.63
560.79	56783.74
560.96	56154.13
561.12	55229.62
561.29	54384.69
561.45	54225.53
561.61	55009.61
561.78	55515.17
561.94	55037.70
562.11	55278.77
562.27	55161.75
562.44	55367.71
562.60	55861.57
562.77	55760.92
562.93	55700.07
563.10	55774.97
563.26	54749.81
563.42	54965.14
563.59	54775.56
563.75	55358.35
563.92	55196.85
564.08	54836.41
564.24	55143.02
564.41	55133.66
564.57	55253.03
564.74	54918.33
564.90	55136.00
565.07	54712.36
565.23	54342.56
565.39	53773.81
565.56	53448.47
565.72	53193.36
565.88	53715.29
566.05	53673.16
566.21	54108.50
566.38	54255.96
566.54	54197.44
566.70	54569.59
566.87	54937.05
567.03	54672.57
567.19	55033.02
567.36	54794.28
567.52	54761.51
567.68	54621.08
567.85	53724.66
568.01	53284.64
568.17	52783.76
568.34	53010.79
568.50	53066.97
568.66	53169.95
568.83	53343.15
568.99	53499.97
569.15	53897.86
569.32	53738.70
569.48	53572.52
569.64	53319.74
569.81	53006.11
569.97	53088.03
570.13	52903.13
570.30	52058.20
570.46	52023.09
570.62	51613.49
570.78	51339.65
570.95	51138.36
571.11	52535.66
571.27	52708.86
571.43	52664.39
571.60	53069.31
571.76	53359.53
571.92	53560.82
572.09	53467.20
572.25	53497.62
572.41	53584.22
572.57	53315.06
572.74	53600.61
572.90	52952.28
573.06	52748.65
573.22	53214.42
573.38	52762.70
573.55	53081.01
573.71	52968.66
573.87	53361.87
574.03	52713.55
574.20	52865.68
574.36	52554.39
574.52	52474.81
574.68	52200.97
574.84	51723.50
575.01	51215.60
575.17	51164.11
575.33	51430.93
575.49	51770.31
575.65	52002.02
575.82	51672.01
575.98	51405.19
576.14	51533.92
576.30	52217.35
576.46	52432.68
576.62	51995.00
576.79	52285.23
576.95	51576.04
577.11	51578.39
577.27	51711.80
577.43	51714.14
577.59	51133.68
577.75	50810.69
577.92	50618.77
578.08	50248.96
578.24	49776.17
578.40	50354.29
578.56	50635.15
578.72	50782.60
578.88	50862.18
579.04	51126.66
579.21	51143.05
579.37	51327.95
579.53	51421.57
579.69	51248.37
579.85	51824.14
580.01	51529.23
580.17	50986.23
580.33	50864.52
580.49	50653.87
580.65	51222.62
580.82	51409.87
580.98	51107.94
581.14	51166.45
581.30	51187.52
581.46	50990.91
581.62	51260.07
581.78	51318.59
581.94	51358.38
582.10	51508.17
582.26	51508.17
582.42	51337.31
582.58	51545.62
582.74	51377.10
582.90	51491.79
583.06	51419.23
583.22	51028.36
583.38	51248.37
583.54	51112.62
583.70	51313.90
583.86	51199.22
584.02	50878.57
584.18	51037.72
584.34	50798.99
584.50	50848.14
584.66	50609.40
584.82	50169.38
584.98	50466.63
585.14	49904.90
585.30	49301.04
