SpectraSuite Data File
++++++++++++++++++++++++++++++++++++
Date: Mon Oct 07 14:54:58 GMT-05:00 2013
User: price-jones
Dark Spectrum Present: No
Reference Spectrum Present: No
Number of Sampled Component Spectra: 1
Spectrometers: USB2+H05261
Integration Time (usec): 10000 (USB2+H05261)
Spectra Averaged: 1 (USB2+H05261)
Boxcar Smoothing: 0 (USB2+H05261)
Correct for Electrical Dark: No (USB2+H05261)
Strobe/Lamp Enabled: No (USB2+H05261)
Correct for Detector Non-linearity: No (USB2+H05261)
Correct for Stray Light: No (USB2+H05261)
Number of Pixels in Processed Spectrum: 2048
>>>>>Begin Processed Spectral Data<<<<<
365.73	0.00
365.92	0.00
366.12	0.00
366.32	0.00
366.52	0.00
366.72	0.00
366.91	0.00
367.11	0.00
367.31	0.00
367.51	0.00
367.70	0.00
367.90	0.00
368.10	0.00
368.30	0.00
368.49	0.00
368.69	0.00
368.89	0.00
369.09	0.00
369.28	0.00
369.48	0.00
369.68	0.00
369.87	0.00
370.07	0.00
370.27	0.00
370.47	91.28
370.66	1308.36
370.86	1401.98
371.06	1509.65
371.25	1385.60
371.45	1387.94
371.65	1205.38
371.84	1224.10
372.04	1303.68
372.24	1596.25
372.44	1465.18
372.63	1357.51
372.83	1221.76
373.03	1114.10
373.22	1116.44
373.42	1284.95
373.62	1392.62
373.81	1483.90
374.01	1486.24
374.21	1238.14
374.40	1193.67
374.60	1303.68
374.79	1624.33
374.99	1820.94
375.19	1916.90
375.38	1799.87
375.58	1839.66
375.78	1666.46
375.97	1736.68
376.17	1820.94
376.37	1736.68
376.56	1891.15
376.76	2026.90
376.95	1984.77
377.15	2209.47
377.35	2387.35
377.54	2394.37
377.74	2553.52
377.93	2443.52
378.13	2392.03
378.33	2239.89
378.52	2045.63
378.72	2087.76
378.91	1947.33
379.11	1825.62
379.31	1769.44
379.50	1980.09
379.70	1984.77
379.89	2174.36
380.09	2319.47
380.28	2443.52
380.48	2532.46
380.68	2382.67
380.87	2169.68
381.07	2031.58
381.26	1804.55
381.46	1837.32
381.65	1792.85
381.85	1650.08
382.04	1528.37
382.24	1472.20
382.43	1404.32
382.63	1423.05
382.83	1308.36
383.02	1409.00
383.22	1397.30
383.41	1416.02
383.61	1614.97
383.80	1874.77
384.00	2211.81
384.19	2303.09
384.39	2469.27
384.58	2317.13
384.78	2417.77
384.97	2165.00
385.17	2073.71
385.36	2092.44
385.56	1973.07
385.75	2134.57
385.95	2310.11
386.14	2483.31
386.34	2565.23
386.53	2394.37
386.72	2223.51
386.92	2300.75
387.11	2520.76
387.31	2375.64
387.50	2401.39
387.70	2455.22
387.89	2314.79
388.09	2352.24
388.28	2478.63
388.48	2361.60
388.67	2658.85
388.86	2932.69
389.06	3023.97
389.25	3297.81
389.45	3274.41
389.64	3204.19
389.84	3265.05
390.03	3197.17
390.22	3124.62
390.42	3346.97
390.61	3541.23
390.81	3808.05
391.00	3721.45
391.19	3658.26
391.39	3471.01
391.58	3283.77
391.78	3159.72
391.97	3063.76
392.16	2796.94
392.36	2392.03
392.55	1760.08
392.75	1490.92
392.94	1315.38
393.13	1357.51
393.33	1708.59
393.52	2118.18
393.71	2609.70
393.91	2867.16
394.10	3260.37
394.29	3583.36
394.49	3857.20
394.68	3948.48
394.88	3904.01
395.07	4072.53
395.26	4182.54
395.46	3939.12
395.65	3571.66
395.84	3030.99
396.04	2530.12
396.23	1872.43
396.42	1666.46
396.62	1813.92
396.81	2216.49
397.00	2810.98
397.19	3583.36
397.39	4100.62
397.58	4568.73
397.77	4765.33
397.97	4973.64
398.16	5032.15
398.35	5156.20
398.55	5390.25
398.74	5490.90
398.93	5713.25
399.12	5561.11
399.32	5427.70
399.51	5736.65
399.70	5977.73
399.90	5603.24
400.09	5617.29
400.28	5720.27
400.47	5809.21
400.67	6141.57
400.86	6459.88
401.05	6239.87
401.24	6356.90
401.44	6375.62
401.63	6345.19
401.82	6387.32
402.01	6494.99
402.21	6703.29
402.40	6546.48
402.59	6188.38
402.78	6040.92
402.97	5966.03
403.17	6263.27
403.36	6494.99
403.55	6572.22
403.74	6775.85
403.93	6384.98
404.13	5888.79
404.32	5959.00
404.51	6335.83
404.70	6586.27
404.89	6607.33
405.09	6387.32
405.28	6333.49
405.47	6260.93
405.66	6310.08
405.85	6207.10
406.05	5860.70
406.24	6265.61
406.43	6324.13
406.62	6612.01
406.81	6450.52
407.00	6289.02
407.20	6134.54
407.39	6305.40
407.58	6820.32
407.77	6782.87
407.96	7094.16
408.15	7190.13
408.34	7302.47
408.54	7417.16
408.73	7452.27
408.92	7213.53
409.11	6878.83
409.30	6722.02
409.49	6157.95
409.68	6010.50
409.87	6162.63
410.07	6429.45
410.26	6712.66
410.45	7143.32
410.64	7410.14
410.83	7620.78
411.02	7616.10
411.21	7983.57
411.40	7712.07
411.59	7918.03
411.78	7946.12
411.98	7660.57
412.17	7882.92
412.36	7779.94
412.55	7609.08
412.74	7400.77
412.93	7297.79
413.12	7581.00
413.31	8028.04
413.50	8404.86
413.69	8201.24
413.88	7714.41
414.07	7887.61
414.26	8131.02
414.45	8116.98
414.64	8175.49
414.83	8311.24
415.02	8245.71
415.22	8257.41
415.41	8219.96
415.60	8524.23
415.79	8966.59
415.98	8833.18
416.17	8931.48
416.36	8828.50
416.55	8571.04
416.74	8072.51
416.93	8079.53
417.12	8201.24
417.31	8243.37
417.50	8437.63
417.69	8571.04
417.88	8667.00
418.07	8355.71
418.26	8465.72
418.45	8765.31
418.64	8879.99
418.83	9282.56
419.02	8788.71
419.21	8659.98
419.39	8414.23
419.58	8056.12
419.77	8226.98
419.96	8557.00
420.15	8992.34
420.34	9338.74
420.53	9591.52
420.72	9832.59
420.91	9617.26
421.10	9277.88
421.29	9521.30
421.48	9116.39
421.67	9373.85
421.86	9034.47
422.05	8358.05
422.24	7667.60
422.43	7784.62
422.61	8856.59
422.80	9107.02
422.99	9034.47
423.18	8788.71
423.37	8643.60
423.56	8978.30
423.75	8966.59
423.94	9170.22
424.13	8772.33
424.32	8374.44
424.50	8545.30
424.69	8688.07
424.88	8645.94
425.07	8514.87
425.26	8500.83
425.45	8224.64
425.64	8521.89
425.83	8374.44
426.01	8905.74
426.20	8978.30
426.39	8798.07
426.58	8044.42
426.77	7550.57
426.96	7552.91
427.15	7826.75
427.33	8505.51
427.52	8709.13
427.71	8716.16
427.90	8496.14
428.09	8224.64
428.28	8035.06
428.46	8112.30
428.65	8032.72
428.84	8222.30
429.03	8081.87
429.22	7555.25
429.40	7133.95
429.59	6478.60
429.78	5877.09
429.97	5886.45
430.16	5872.40
430.34	5926.24
430.53	5989.43
430.72	6232.85
430.91	6932.67
431.10	8234.00
431.28	9462.79
431.47	10024.51
431.66	10083.03
431.85	9210.01
432.03	8386.14
432.22	8500.83
432.41	8758.28
432.60	9593.86
432.79	9750.67
432.97	10127.50
433.16	9696.84
433.35	8741.90
433.54	7875.90
433.72	7803.35
433.91	8131.02
434.10	8922.12
434.28	9359.80
434.47	9813.87
434.66	9523.64
434.85	9518.96
435.03	9556.41
435.22	9668.75
435.41	10209.42
435.59	10420.06
435.78	10389.64
435.97	10539.43
436.16	10553.48
436.34	10534.75
436.53	10298.36
436.72	10253.89
436.90	9521.30
437.09	9591.52
437.28	9762.37
437.46	10176.65
437.65	9537.68
437.84	8938.51
438.02	8538.27
438.21	8704.45
438.40	9343.42
438.58	9872.38
438.77	9886.42
438.96	9989.41
439.14	10534.75
439.33	10532.41
439.52	10691.57
439.70	10621.35
439.89	10054.94
440.08	9860.68
440.26	10462.19
440.45	10438.79
440.63	11342.24
440.82	11761.19
441.01	11407.77
441.19	11346.92
441.38	11770.55
441.57	11672.25
441.75	11836.09
441.94	12126.32
442.12	11850.13
442.31	12114.61
442.50	12346.33
442.68	12133.34
442.87	12060.78
443.05	11784.60
443.24	12353.35
443.43	12030.35
443.61	12521.87
443.80	12655.28
443.98	11812.68
444.17	12257.39
444.35	12601.44
444.54	12879.97
444.73	12681.02
444.91	11910.99
445.10	11084.78
445.28	10953.71
445.47	11033.29
445.65	10923.28
445.84	11330.53
446.02	11655.87
446.21	11906.31
446.39	12028.01
446.58	12428.24
446.77	12386.12
446.95	12437.61
447.14	12608.47
447.32	12807.41
447.51	12437.61
447.69	12070.14
447.88	11676.93
448.06	12058.44
448.25	12496.12
448.43	12461.01
448.62	12416.54
448.80	12128.66
448.99	12479.74
449.17	12381.43
449.36	12229.30
449.54	12889.33
449.73	13217.01
449.91	13167.85
450.10	13640.64
450.28	13689.79
450.46	13053.17
450.65	13121.04
450.83	13284.88
451.02	13214.66
451.20	13041.46
451.39	12924.44
451.57	12753.58
451.76	12821.45
451.94	12610.81
452.13	12512.50
452.31	12119.29
452.49	11241.59
452.68	11833.75
452.86	11789.28
453.05	11910.99
453.23	12713.79
453.42	12830.82
453.60	12823.80
453.78	12854.22
453.97	12805.07
454.15	12442.29
454.34	12318.24
454.52	12662.30
454.70	12346.33
454.89	12327.60
455.07	12264.41
455.26	12643.57
455.44	12975.93
455.62	13338.71
455.81	13481.49
455.99	12961.89
456.17	13123.38
456.36	13076.57
456.54	13535.32
456.73	13357.44
456.91	13530.64
457.09	13799.80
457.28	14005.77
457.46	13610.22
457.64	13720.22
457.83	12905.71
458.01	12706.77
458.19	13123.38
458.38	12973.59
458.56	13497.87
458.74	13544.68
458.93	13172.54
459.11	13212.32
459.29	13135.09
459.48	13121.04
459.66	12849.54
459.84	12968.91
460.03	13018.06
460.21	13408.93
460.39	13813.84
460.57	13827.88
460.76	13965.98
460.94	13661.71
461.12	13603.19
461.31	13816.18
461.49	14150.88
461.67	13631.28
461.85	14328.76
462.04	13865.33
462.22	14073.64
462.40	13884.06
462.59	13886.40
462.77	13792.78
462.95	14141.52
463.13	14139.18
463.32	13497.87
463.50	13544.68
463.68	13633.62
463.86	13736.60
464.05	13540.00
464.23	13327.01
464.41	13263.82
464.59	12971.25
464.78	13151.47
464.96	13317.65
465.14	13434.68
465.32	13720.22
465.50	13811.50
465.69	13937.89
465.87	13551.70
466.05	13081.25
466.23	12973.59
466.41	13029.76
466.60	13425.31
466.78	13331.69
466.96	13116.36
467.14	13099.98
467.32	13547.02
467.51	13373.82
467.69	13160.83
467.87	12856.56
468.05	13521.27
468.23	13514.25
468.41	13298.92
468.60	13219.35
468.78	13303.60
468.96	13289.56
469.14	13748.31
469.32	14012.79
469.50	13088.28
469.69	13088.28
469.87	12758.26
470.05	12910.40
470.23	12856.56
470.41	13027.42
470.59	13261.48
470.77	13186.58
470.95	13397.23
471.14	13497.87
471.32	13806.82
471.50	14527.71
471.68	14539.41
471.86	14618.99
472.04	14499.62
472.22	14490.26
472.40	13951.93
472.58	14256.20
472.77	13687.45
472.95	13996.40
473.13	14146.20
473.31	14164.92
473.49	14097.05
473.67	14295.99
473.85	13830.23
474.03	14373.23
474.21	14553.45
474.39	14700.90
474.57	14642.39
474.75	14626.01
474.93	14843.68
475.12	14438.76
475.30	15037.94
475.48	14934.96
475.66	14609.62
475.84	14366.21
476.02	14396.64
476.20	14108.75
476.38	14494.94
476.56	14663.46
476.74	15232.21
476.92	15286.04
477.10	15597.33
477.28	15761.17
477.46	15873.51
477.64	16145.02
477.82	16177.78
478.00	16173.10
478.18	15946.07
478.36	15597.33
478.54	15681.59
478.72	16039.69
478.90	16547.59
479.08	16678.66
479.26	16744.19
479.44	16339.28
479.62	16791.00
479.80	16751.21
479.98	17020.38
480.16	16992.29
480.34	16858.88
480.52	16819.09
480.70	16704.40
480.88	16940.80
481.06	17661.68
481.24	17568.06
481.41	18045.53
481.59	18405.97
481.77	17453.37
481.95	18052.55
482.13	18001.06
482.31	17657.00
482.49	18153.20
482.67	17547.00
482.85	18080.64
483.03	18125.11
483.21	18508.96
483.39	18391.93
483.57	17895.74
483.74	17619.55
483.92	17907.44
484.10	18284.26
484.28	18499.59
484.46	18508.96
484.64	18216.39
484.82	18431.72
485.00	18499.59
485.18	17757.64
485.35	16772.28
485.53	15220.50
485.71	13951.93
485.89	14551.11
486.07	15527.11
486.25	16849.52
486.43	17542.32
486.61	16795.68
486.78	17291.88
486.96	17722.54
487.14	18366.18
487.32	19157.28
487.50	19307.08
487.68	19012.17
487.85	19763.48
488.03	19351.55
488.21	18965.36
488.39	18918.55
488.57	19096.43
488.75	19002.81
488.92	19941.36
489.10	21549.31
489.28	21446.33
489.46	21799.75
489.64	22003.38
489.81	22127.42
489.99	21301.22
490.17	21905.07
490.35	22548.72
490.53	21628.89
490.70	21542.29
490.88	21628.89
491.06	22317.01
491.24	22108.70
491.41	20840.13
491.59	20533.52
491.77	19901.58
491.95	20720.76
492.13	21092.91
492.30	21909.75
492.48	22803.84
492.66	23185.35
492.84	22574.47
493.01	22562.76
493.19	21834.86
493.37	21577.40
493.54	21528.25
493.72	22441.06
493.90	23058.96
494.08	23587.92
494.25	24109.86
494.43	24510.09
494.61	24793.29
494.79	24320.51
494.96	24168.37
495.14	23325.78
495.32	22595.53
495.49	22462.12
495.67	23660.48
495.85	24844.79
496.02	24592.01
496.20	24767.55
496.38	24673.93
496.55	24119.22
496.73	24184.76
496.91	24266.67
497.09	25001.60
497.26	24404.77
497.44	24797.98
497.62	24442.21
497.79	23812.61
497.97	22527.66
498.14	22960.66
498.32	24081.77
498.50	24350.93
498.67	25069.48
498.85	24528.81
499.03	24189.44
499.20	25193.53
499.38	24629.46
499.56	23669.84
499.73	24072.41
499.91	23335.14
500.08	23019.17
500.26	22998.10
500.44	23578.56
500.61	24163.69
500.79	23850.06
500.97	23197.05
501.14	23098.75
501.32	22869.37
501.49	22700.86
501.67	23267.27
501.84	24095.82
502.02	24229.23
502.20	24208.16
502.37	24477.32
502.55	24723.08
502.72	25322.26
502.90	25720.15
503.07	25003.94
503.25	24725.42
503.43	23864.10
503.60	23199.39
503.78	22808.52
503.95	23566.85
504.13	23967.09
504.30	24943.09
504.48	25259.06
504.65	24931.39
504.83	24678.61
505.01	24919.68
505.18	25191.19
505.36	25935.48
505.53	25785.68
505.71	26171.87
505.88	26312.30
506.06	26061.87
506.23	25326.94
506.41	25329.28
506.58	25317.57
506.76	24952.45
506.93	25214.59
507.11	23604.30
507.28	24833.08
507.46	24175.39
507.63	24006.87
507.81	23433.44
507.98	24114.54
508.16	24734.78
508.33	24814.36
508.50	24458.60
508.68	25558.65
508.85	26436.35
509.03	25993.99
509.20	25046.07
509.38	24807.34
509.55	24528.81
509.73	25202.89
509.90	25500.14
510.08	24599.03
510.25	24484.34
510.42	24460.94
510.60	24889.26
510.77	25809.09
510.95	26190.59
511.12	25673.34
511.30	26324.01
511.47	26916.16
511.64	26129.74
511.82	26094.63
511.99	25324.60
512.17	24961.81
512.34	24762.87
512.51	24273.70
512.69	24849.47
512.86	24524.13
513.04	25212.25
513.21	24826.06
513.38	24840.11
513.56	24065.39
513.73	23487.28
513.90	23267.27
514.08	23578.56
514.25	24320.51
514.43	24694.99
514.60	25055.43
514.77	24718.40
514.95	24711.38
515.12	24800.32
515.29	25090.54
515.47	25200.55
515.64	24758.19
515.81	25553.97
515.99	24875.21
516.16	22881.08
516.33	21060.14
516.51	20304.15
516.68	19318.78
516.85	19058.98
517.03	20053.71
517.20	21649.96
517.37	23468.55
517.54	23728.35
517.72	22623.62
517.89	20870.56
518.06	20552.24
518.24	21050.78
518.41	22780.43
518.58	23094.07
518.75	23269.61
518.93	23651.11
519.10	22867.03
519.27	23522.38
519.45	23814.95
519.62	24549.88
519.79	24629.46
519.96	24830.74
520.14	23967.09
520.31	23740.05
520.48	23278.97
520.65	23931.98
520.83	24479.66
521.00	24666.91
521.17	24208.16
521.34	23777.50
521.52	23922.62
521.69	24659.88
521.86	25102.25
522.03	24184.76
522.20	23129.17
522.38	22630.64
522.55	22625.96
522.72	23379.61
522.89	23248.54
523.07	23655.79
523.24	24465.62
523.41	24482.00
523.58	24629.46
523.75	24245.61
523.92	25317.57
524.10	25020.33
524.27	25149.06
524.44	25137.35
524.61	25333.96
524.78	24975.86
524.96	24372.00
525.13	24575.62
525.30	25247.36
525.47	25439.28
525.64	25020.33
525.81	23784.52
525.98	22354.46
526.16	21673.36
526.33	20854.17
526.50	21436.97
526.67	21231.00
526.84	21179.51
527.01	22588.51
527.18	23630.05
527.36	23564.51
527.53	24781.59
527.70	24411.79
527.87	23267.27
528.04	23229.82
528.21	23857.08
528.38	24367.32
528.55	25151.40
528.72	24978.20
528.89	25074.16
529.07	25050.75
529.24	23812.61
529.41	23892.19
529.58	23807.93
529.75	23445.15
529.92	23836.02
530.09	23831.33
530.26	24093.47
530.43	23484.94
530.60	24989.90
530.77	25125.65
530.94	25282.47
531.11	24238.59
531.28	24023.26
531.46	23873.46
531.63	24091.13
531.80	24587.33
531.97	23576.22
532.14	22572.13
532.31	21893.37
532.48	21172.49
532.65	21429.94
532.82	22162.53
532.99	22827.24
533.16	23892.19
533.33	25013.31
533.50	24004.53
533.67	23129.17
533.84	22852.99
534.01	23353.87
534.18	23833.68
534.35	23496.64
534.52	23562.17
534.69	23506.00
534.86	23431.10
535.03	24292.42
535.20	23943.68
535.37	24439.87
535.54	24364.98
535.71	23747.08
535.88	23871.12
536.05	23187.69
536.22	22911.50
536.38	22265.52
536.55	22607.23
536.72	22281.90
536.89	22534.68
537.06	23229.82
537.23	22848.31
537.40	23452.17
537.57	23126.83
537.74	22368.50
537.91	22813.20
538.08	23566.85
538.25	23681.54
538.42	23208.75
538.59	23112.79
538.75	23323.44
538.92	23007.47
539.09	22490.21
539.26	21757.62
539.43	21242.70
539.60	21277.81
539.77	21507.18
539.94	20704.38
540.11	20662.25
540.28	20250.32
540.44	20695.02
540.61	21378.45
540.78	21177.17
540.95	22419.99
541.12	21881.67
541.29	22155.51
541.46	22115.72
541.62	22054.87
541.79	21975.29
541.96	21158.44
542.13	22146.15
542.30	22265.52
542.47	22036.14
542.63	21741.24
542.80	21170.15
542.97	21427.60
543.14	21390.16
543.31	21378.45
543.48	22225.73
543.64	22588.51
543.81	23056.62
543.98	22352.12
544.15	21872.31
544.32	21378.45
544.48	22197.64
544.65	21397.18
544.82	21685.06
544.99	21951.88
545.16	21371.43
545.32	22015.08
545.49	22225.73
545.66	22324.03
545.83	22499.57
546.00	21766.98
546.16	21954.22
546.33	21586.76
546.50	21858.26
546.67	21841.88
546.83	21827.84
547.00	21399.52
547.17	20798.00
547.34	21392.50
547.50	21268.45
547.67	21254.40
547.84	21158.44
548.00	21568.04
548.17	20847.15
548.34	21013.33
548.51	21366.75
548.67	22445.74
548.84	22026.78
549.01	21834.86
549.18	21965.93
549.34	22064.23
549.51	22317.01
549.68	21759.96
549.84	21268.45
550.01	21387.82
550.18	20844.81
550.34	20814.38
550.51	20989.92
550.68	20624.80
550.84	20039.67
551.01	20060.73
551.18	19875.83
551.34	20362.66
551.51	20692.68
551.68	21465.05
551.84	20826.09
552.01	21443.99
552.18	20762.89
552.34	20423.51
552.51	20088.82
552.68	20821.41
552.84	20173.08
553.01	20720.76
553.18	21053.12
553.34	20886.94
553.51	20996.95
553.67	20397.77
553.84	21312.92
554.01	21488.46
554.17	20374.36
554.34	20732.47
554.51	21404.20
554.67	21261.43
554.84	20500.75
555.00	20306.49
555.17	21006.31
555.33	20357.98
555.50	21263.77
555.67	20950.14
555.83	20585.01
556.00	20697.36
556.16	20772.25
556.33	20285.42
556.50	20365.00
556.66	19641.78
556.83	19253.25
556.99	19445.17
557.16	19810.29
557.32	19878.17
557.49	20180.10
557.65	19985.83
557.82	18871.74
557.98	19545.81
558.15	20149.67
558.32	19496.66
558.48	18892.80
558.65	18787.48
558.81	18721.95
558.98	19119.84
559.14	19021.53
559.31	19206.44
559.47	18946.64
559.64	18817.91
559.80	19267.29
559.97	19344.53
560.13	19597.31
560.30	19405.38
560.46	19854.76
560.63	20091.16
560.79	20451.60
560.96	19576.24
561.12	19377.30
561.29	18993.45
561.45	18656.41
561.61	18600.24
561.78	18705.56
561.94	18726.63
562.11	18663.43
562.27	18874.08
562.44	19655.82
562.60	19248.57
562.77	19683.91
562.93	19115.16
563.10	18803.86
563.26	18831.95
563.42	18288.95
563.59	18431.72
563.75	18834.29
563.92	19028.56
564.08	18801.52
564.24	18895.14
564.41	17809.14
564.57	18478.53
564.74	18221.07
564.90	18141.49
565.07	17951.91
565.23	17198.26
565.39	17352.73
565.56	18132.13
565.72	17806.80
565.88	18508.96
566.05	17930.84
566.21	17764.67
566.38	17612.53
566.54	17699.13
566.70	17528.27
566.87	18249.16
567.03	19096.43
567.19	18995.79
567.36	17795.09
567.52	18565.13
567.68	17933.18
567.85	17926.16
568.01	17839.56
568.17	17116.34
568.34	16875.26
568.50	17158.47
568.66	17188.89
568.83	17811.48
568.99	17565.72
569.15	17514.23
569.32	18181.28
569.48	17722.54
569.64	17179.53
569.81	16673.98
569.97	16760.58
570.13	17357.41
570.30	17034.42
570.46	16540.57
570.62	15810.32
570.78	15449.88
570.95	15644.14
571.11	16266.72
571.27	16524.18
571.43	16563.97
571.60	16896.33
571.76	17123.36
571.92	17116.34
572.09	17074.21
572.25	17135.06
572.41	17404.22
572.57	17060.16
572.74	17116.34
572.90	16929.09
573.06	17090.59
573.22	16798.02
573.38	16795.68
573.55	16362.69
573.71	16659.93
573.87	16882.28
574.03	16922.07
574.20	16786.32
574.36	16634.19
574.52	16486.73
574.68	16245.66
574.84	15990.54
575.01	16067.78
575.17	16683.34
575.33	16217.57
575.49	16044.37
575.65	16444.60
575.82	15861.81
575.98	15798.62
576.14	16266.72
576.30	16042.03
576.46	15845.43
576.62	15985.86
576.79	15999.90
576.95	15850.11
577.11	15501.37
577.27	15639.46
577.43	16011.60
577.59	15754.15
577.75	15864.15
577.92	15772.87
578.08	15435.83
578.24	15353.91
578.40	15391.36
578.56	15307.10
578.72	15346.89
578.88	15765.85
579.04	15494.35
579.21	15522.43
579.37	15653.50
579.53	15405.41
579.69	15073.05
579.85	14958.36
580.01	14916.23
580.17	15241.57
580.33	15337.53
580.49	15159.65
580.65	15538.82
580.82	15651.16
580.98	15393.70
581.14	15232.21
581.30	15953.09
581.46	15606.69
581.62	15583.29
581.78	15950.75
581.94	16011.60
582.10	15768.19
582.26	15669.89
582.42	15651.16
582.58	16365.03
582.74	15585.63
582.90	15585.63
583.06	15929.69
583.22	15800.96
583.38	15721.38
583.54	15859.47
583.70	15475.62
583.86	15482.64
584.02	15681.59
584.18	15403.07
584.34	15786.91
584.50	16049.05
584.66	15712.02
584.82	15501.37
584.98	15218.16
585.14	14689.20
585.30	14363.87
585.46	14335.78
585.62	14155.56
585.78	14913.89
585.94	14670.48
586.10	14719.63
586.26	14831.97
586.42	14642.39
586.58	15063.69
586.74	14483.24
586.90	14438.76
587.06	14768.78
587.22	14441.11
587.38	14380.25
