SpectraSuite Data File
++++++++++++++++++++++++++++++++++++
Date: Mon Oct 07 14:55:00 GMT-05:00 2013
User: price-jones
Dark Spectrum Present: No
Reference Spectrum Present: No
Number of Sampled Component Spectra: 1
Spectrometers: USB2+H05261
Integration Time (usec): 10000 (USB2+H05261)
Spectra Averaged: 1 (USB2+H05261)
Boxcar Smoothing: 0 (USB2+H05261)
Correct for Electrical Dark: No (USB2+H05261)
Strobe/Lamp Enabled: No (USB2+H05261)
Correct for Detector Non-linearity: No (USB2+H05261)
Correct for Stray Light: No (USB2+H05261)
Number of Pixels in Processed Spectrum: 2048
>>>>>Begin Processed Spectral Data<<<<<
365.73	0.00
365.92	0.00
366.12	0.00
366.32	0.00
366.52	0.00
366.72	0.00
366.91	0.00
367.11	0.00
367.31	0.00
367.51	0.00
367.70	0.00
367.90	0.00
368.10	0.00
368.30	0.00
368.49	0.00
368.69	0.00
368.89	0.00
369.09	0.00
369.28	0.00
369.48	0.00
369.68	0.00
369.87	0.00
370.07	0.00
370.27	0.00
370.47	400.23
370.66	2249.25
370.86	2670.55
371.06	2733.75
371.25	2651.83
371.45	2342.88
371.65	2052.65
371.84	2066.69
372.04	2335.85
372.24	2593.31
372.44	2583.95
372.63	2356.92
372.83	2373.30
373.03	2045.63
373.22	1851.36
373.42	2106.48
373.62	2377.98
373.81	2609.70
374.01	2492.67
374.21	2263.30
374.40	2090.10
374.60	2176.70
374.79	2677.57
374.99	3190.15
375.19	3176.11
375.38	3192.49
375.58	2904.60
375.78	2967.80
375.97	3052.06
376.17	3038.02
376.37	3208.87
376.56	3304.84
376.76	3419.52
376.95	3728.47
377.15	3843.16
377.35	4023.38
377.54	4219.99
377.74	4255.09
377.93	4196.58
378.13	4065.51
378.33	3880.61
378.52	3550.59
378.72	3604.42
378.91	3506.12
379.11	3435.91
379.31	3173.77
379.50	3253.34
379.70	3574.00
379.89	3911.04
380.09	4198.92
380.28	4325.31
380.48	4294.88
380.68	4173.18
380.87	4032.74
381.07	3691.02
381.26	3321.22
381.46	3054.40
381.65	3131.64
381.85	3112.91
382.04	2738.43
382.24	2623.74
382.43	2539.48
382.63	2417.77
382.83	2567.57
383.02	2495.01
383.22	2483.31
383.41	2647.15
383.61	2916.31
383.80	3426.54
384.00	3637.19
384.19	4018.70
384.39	4245.73
384.58	4353.40
384.78	4109.98
384.97	4074.87
385.17	3840.82
385.36	3735.50
385.56	3564.64
385.75	3864.22
385.95	4128.70
386.14	4297.22
386.34	4344.03
386.53	4161.47
386.72	3878.27
386.92	4107.64
387.11	4283.18
387.31	4369.78
387.50	4093.60
387.70	4229.35
387.89	4107.64
388.09	4154.45
388.28	4227.01
388.48	4365.10
388.67	4631.92
388.86	5203.01
389.06	5336.42
389.25	5619.63
389.45	5856.02
389.64	5486.22
389.84	5638.35
390.03	5453.45
390.22	5713.25
390.42	5937.94
390.61	6361.58
390.81	6649.46
391.00	6698.61
391.19	6476.26
391.39	6296.04
391.58	5806.87
391.78	5554.09
391.97	5490.90
392.16	5041.51
392.36	4311.27
392.55	3578.68
392.75	2747.79
392.94	2319.47
393.13	2436.50
393.33	3016.95
393.52	3871.25
393.71	4477.44
393.91	5214.71
394.10	5628.99
394.29	6469.24
394.49	6640.10
394.68	7096.50
394.88	7201.83
395.07	7531.84
395.26	7103.53
395.46	6827.34
395.65	6532.44
395.84	5327.06
396.04	4514.89
396.23	3709.75
396.42	3162.06
396.62	3328.24
396.81	4016.36
397.00	5121.09
397.19	6300.72
397.39	7632.49
397.58	8367.42
397.77	8767.65
397.97	9022.77
398.16	9366.82
398.35	9469.81
398.55	9664.07
398.74	10253.89
398.93	10403.68
399.12	10312.40
399.32	9827.91
399.51	10120.48
399.70	10485.60
399.90	10436.45
400.09	10356.87
400.28	10588.58
400.47	10532.41
400.67	10951.37
400.86	11070.73
401.05	11513.10
401.24	11323.51
401.44	11658.21
401.63	11585.65
401.82	11592.67
402.01	11599.70
402.21	11719.06
402.40	11768.21
402.59	11227.55
402.78	10988.82
402.97	11002.86
403.17	11339.90
403.36	11782.26
403.55	12255.04
403.74	12257.39
403.93	11604.38
404.13	10850.72
404.32	10738.38
404.51	11442.88
404.70	11887.58
404.89	11892.26
405.09	11641.82
405.28	11569.27
405.47	11913.33
405.66	11606.72
405.85	11007.54
406.05	11098.82
406.24	11480.33
406.43	12013.97
406.62	11918.01
406.81	11967.16
407.00	11632.46
407.20	11307.13
407.39	11520.12
407.58	12023.33
407.77	12671.66
407.96	12856.56
408.15	13046.15
408.34	13383.18
408.54	13795.12
408.73	13722.56
408.92	13369.14
409.11	12912.74
409.30	12659.96
409.49	11641.82
409.68	10785.19
409.87	10977.11
410.07	11903.96
410.26	12484.42
410.45	13111.68
410.64	13476.80
410.83	14207.05
411.02	14707.93
411.21	14700.90
411.40	14408.34
411.59	14654.09
411.78	14572.18
411.98	14403.66
412.17	14480.89
412.36	14258.54
412.55	14375.57
412.74	14118.11
412.93	14129.81
413.12	14106.41
413.31	15594.99
413.50	15433.49
413.69	15339.87
413.88	14995.81
414.07	14586.22
414.26	15042.62
414.45	15391.36
414.64	15426.47
414.83	15344.55
415.02	15103.48
415.22	15119.86
415.41	15960.11
415.60	16276.09
415.79	16893.99
415.98	17195.92
416.17	17329.33
416.36	16594.40
416.55	16545.25
416.74	16030.33
416.93	15463.92
417.12	15503.71
417.31	15506.05
417.50	15772.87
417.69	16414.18
417.88	16439.92
418.07	16224.59
418.26	15887.56
418.45	16301.83
418.64	17006.33
418.83	17628.92
419.02	17324.65
419.21	16741.85
419.39	15915.64
419.58	15562.22
419.77	15637.12
419.96	16917.39
420.15	17568.06
420.34	17816.16
420.53	18527.68
420.72	18473.85
420.91	18169.58
421.10	17614.87
421.29	17570.40
421.48	17525.93
421.67	18466.83
421.86	17406.56
422.05	16205.87
422.24	14890.49
422.43	15314.13
422.61	17116.34
422.80	17607.85
422.99	17579.76
423.18	17074.21
423.37	16936.12
423.56	17078.89
423.75	17455.72
423.94	17649.98
424.13	16524.18
424.32	16540.57
424.50	16666.95
424.69	16835.47
424.88	16798.02
425.07	16765.26
425.26	17092.93
425.45	16393.11
425.64	16107.57
425.83	16336.94
426.01	17294.22
426.20	17170.17
426.39	17467.42
426.58	15896.92
426.77	14689.20
426.96	14848.36
427.15	15426.47
427.33	16767.60
427.52	17085.91
427.71	16947.82
427.90	16760.58
428.09	16390.77
428.28	15992.88
428.46	15243.91
428.65	15557.54
428.84	16126.29
429.03	15700.31
429.22	14960.70
429.40	13729.58
429.59	12891.67
429.78	11545.86
429.97	11812.68
430.16	11800.98
430.34	11742.47
430.53	11981.20
430.72	12662.30
430.91	13980.02
431.10	16570.99
431.28	19042.60
431.47	20276.06
431.66	19927.32
431.85	17881.69
432.03	16737.17
432.22	16589.72
432.41	17724.88
432.60	19101.11
432.79	19826.68
432.97	19873.49
433.16	18939.62
433.35	17212.30
433.54	15389.02
433.72	15239.23
433.91	16147.36
434.10	17881.69
434.28	18923.23
434.47	19618.37
434.66	18794.50
434.85	18803.86
435.03	19122.18
435.22	19426.45
435.41	20262.02
435.59	20603.74
435.78	20882.26
435.97	21458.03
436.16	21502.50
436.34	21429.94
436.53	20519.48
436.72	20760.55
436.90	19585.60
437.09	19454.53
437.28	19236.86
437.46	20107.54
437.65	19545.81
437.84	17769.35
438.02	17050.80
438.21	17385.50
438.40	18052.55
438.58	19491.98
438.77	19936.68
438.96	20575.65
439.14	21348.03
439.33	21743.58
439.52	21277.81
439.70	21046.10
439.89	20475.01
440.08	20533.52
440.26	20533.52
440.45	21076.52
440.63	22808.52
440.82	23438.12
441.01	22581.49
441.19	22757.03
441.38	23744.73
441.57	24147.31
441.75	24524.13
441.94	24430.51
442.12	24397.74
442.31	25017.99
442.50	24690.31
442.68	24716.06
442.87	24404.77
443.05	23878.15
443.24	24889.26
443.43	25488.43
443.61	25109.27
443.80	25427.58
443.98	24446.90
444.17	24568.60
444.35	25736.53
444.54	25956.54
444.73	25575.03
444.91	23969.43
445.10	23590.26
445.28	22913.84
445.47	22651.70
445.65	22567.45
445.84	23269.61
446.02	23936.66
446.21	24053.69
446.39	24517.11
446.58	24748.82
446.77	25387.79
446.95	25633.55
447.14	26600.19
447.32	27173.62
447.51	26038.46
447.69	24851.81
447.88	24856.49
448.06	25909.73
448.25	25956.54
448.43	25233.32
448.62	25401.83
448.80	25516.52
448.99	25619.50
449.17	25149.06
449.36	25806.75
449.54	27021.48
449.73	27084.68
449.91	27672.15
450.10	28130.90
450.28	28313.46
450.46	28329.84
450.65	28563.90
450.83	28095.79
451.02	27496.61
451.20	27164.26
451.39	27669.81
451.57	27140.85
451.76	27864.08
451.94	27302.35
452.13	26382.52
452.31	25120.97
452.49	23735.37
452.68	24694.99
452.86	24510.09
453.05	24779.25
453.23	26066.55
453.42	26464.44
453.60	27185.32
453.78	27061.27
453.97	26806.16
454.15	26850.63
454.34	25991.65
454.52	25844.20
454.70	26143.78
454.89	25984.63
455.07	26506.57
455.26	27136.17
455.44	27728.33
455.62	28102.81
455.81	28002.17
455.99	28018.55
456.17	27505.98
456.36	28041.96
456.54	28533.47
456.73	27976.42
456.91	29039.03
457.09	28774.55
457.28	30050.14
457.46	28046.64
457.64	27988.13
457.83	27269.58
458.01	26986.38
458.19	27697.90
458.38	28496.02
458.56	29090.52
458.74	28573.26
458.93	27709.60
459.11	27690.88
459.29	27784.50
459.48	28027.92
459.66	27852.38
459.84	28086.43
460.03	28758.16
460.21	28837.74
460.39	29680.33
460.57	29649.91
460.76	29504.79
460.94	29509.47
461.12	29539.90
461.31	29488.41
461.49	29710.76
461.67	29722.46
461.85	30972.31
462.04	30003.33
462.22	30040.78
462.40	30132.06
462.59	29923.75
462.77	30331.00
462.95	30323.98
463.13	30211.64
463.32	28891.57
463.50	29659.27
463.68	29773.95
463.86	29359.68
464.05	29010.94
464.23	28369.63
464.41	28095.79
464.59	27768.12
464.78	29516.50
464.96	28844.76
465.14	28027.92
465.32	29902.68
465.50	30522.93
465.69	31019.12
465.87	29968.22
466.05	29170.10
466.23	28142.60
466.41	27634.71
466.60	28130.90
466.78	27690.88
466.96	28191.75
467.14	28648.16
467.32	29043.71
467.51	29834.81
467.69	28051.32
467.87	29053.07
468.05	29535.22
468.23	29811.40
468.41	29511.81
468.60	29865.24
468.78	29362.02
468.96	30316.96
469.14	30497.18
469.32	29687.36
469.50	28641.14
469.69	29109.24
469.87	28783.91
470.05	28414.10
470.23	28648.16
470.41	28746.46
470.59	29301.17
470.77	28987.53
470.95	29535.22
471.14	30249.08
471.32	30309.94
471.50	31639.36
471.68	31555.10
471.86	31950.65
472.04	32463.23
472.22	32177.68
472.40	30415.26
472.58	30213.98
472.77	30623.57
472.95	30494.84
473.13	31498.93
473.31	30492.50
473.49	31700.22
473.67	31850.01
473.85	32657.49
474.03	33141.99
474.21	33200.50
474.39	33502.43
474.57	33085.81
474.75	33371.36
474.93	32751.12
475.12	31995.12
475.30	32603.66
475.48	32247.90
475.66	33008.58
475.84	31754.05
476.02	32393.01
476.20	31744.69
476.38	32102.79
476.56	33528.17
476.74	34043.09
476.92	34569.71
477.10	34490.13
477.28	35117.40
477.46	35466.14
477.64	36217.45
477.82	35690.83
478.00	35756.36
478.18	35393.58
478.36	35077.61
478.54	35669.76
478.72	35906.16
478.90	37336.23
479.08	37778.59
479.26	37846.46
479.44	38256.06
479.62	38073.49
479.80	37895.61
479.98	37944.76
480.16	38305.21
480.34	37329.20
480.52	38485.43
480.70	37572.62
480.88	37764.54
481.06	38969.92
481.24	39384.19
481.41	40554.46
481.59	41319.82
481.77	39667.40
481.95	39913.16
482.13	40016.14
482.31	40076.99
482.49	40669.15
482.67	40573.19
482.85	40823.62
483.03	40980.44
483.21	41916.65
483.39	41848.78
483.57	41785.58
483.74	40636.38
483.92	40594.25
484.10	40926.61
484.28	41883.89
484.46	42178.79
484.64	42859.89
484.82	41907.29
485.00	41890.91
485.18	40842.35
485.35	38675.01
485.53	34536.94
485.71	32355.57
485.89	32676.22
486.07	35424.01
486.25	37633.47
486.43	39735.27
486.61	40442.12
486.78	40268.92
486.96	41881.55
487.14	42787.33
487.32	43636.95
487.50	44540.39
487.68	45572.57
487.85	45565.55
488.03	45923.65
488.21	44769.77
488.39	44472.52
488.57	42368.38
488.75	43447.36
488.92	44978.07
489.10	47374.78
489.28	47929.49
489.46	49205.08
489.64	48034.81
489.81	49052.95
489.99	49006.14
490.17	48982.73
490.35	49853.41
490.53	48816.55
490.70	48910.17
490.88	48580.16
491.06	49888.52
491.24	49904.90
491.41	48318.02
491.59	46583.68
491.77	46024.29
491.95	47445.00
492.13	49298.70
492.30	50351.94
492.48	51182.84
492.66	51227.31
492.84	50286.41
493.01	50213.85
493.19	50527.48
493.37	50281.73
493.54	50307.47
493.72	51360.72
493.90	51948.19
494.08	52589.50
494.25	53219.10
494.43	53333.79
494.61	53766.79
494.79	53427.41
494.96	53294.00
495.14	52980.37
495.32	51384.12
495.49	51360.72
495.67	52437.36
495.85	53731.68
496.02	54171.70
496.20	53415.71
496.38	53275.27
496.55	53052.92
496.73	53972.75
496.91	54361.28
497.09	54466.61
497.26	55573.68
497.44	54288.73
497.62	53237.83
497.79	52975.69
497.97	51885.00
498.14	52142.45
498.32	53144.20
498.50	53748.06
498.67	54031.27
498.85	53724.66
499.03	54438.52
499.20	54536.82
499.38	53834.66
499.56	53062.29
499.73	53485.92
499.91	53481.24
500.08	52631.63
500.26	52516.94
500.44	52865.68
500.61	53773.81
500.79	53151.23
500.97	52800.15
501.14	52577.79
501.32	51952.87
501.49	52317.99
501.67	52980.37
501.84	53446.13
502.02	53743.38
502.20	53832.32
502.37	54035.95
502.55	54445.54
502.72	55388.78
502.90	55767.94
503.07	54899.61
503.25	53764.45
503.43	53141.86
503.60	52617.58
503.78	52662.05
503.95	53446.13
504.13	54761.51
504.30	55524.53
504.48	55065.78
504.65	55002.59
504.83	54862.16
505.01	55400.48
505.18	55730.50
505.36	56413.93
505.53	56280.52
505.71	56140.09
505.88	56493.51
506.06	56289.88
506.23	55559.64
506.41	55290.48
506.58	55482.40
506.76	55784.33
506.93	55325.58
507.11	55454.31
507.28	55014.29
507.46	54344.90
507.63	54768.54
507.81	53937.65
507.98	54312.13
508.16	55379.42
508.33	56128.39
508.50	56086.26
508.68	56523.94
508.85	56568.41
509.03	57062.26
509.20	56566.07
509.38	56247.75
509.55	55852.20
509.73	55524.53
509.90	55756.24
510.08	56114.34
510.25	55451.97
510.42	55011.95
510.60	55456.65
510.77	56317.97
510.95	56563.73
511.12	56659.69
511.30	57364.19
511.47	57434.41
511.64	57261.21
511.82	57097.37
511.99	55908.38
512.17	55882.63
512.34	55421.55
512.51	55894.33
512.69	55980.93
512.86	55402.82
513.04	55992.64
513.21	55564.32
513.38	54976.84
513.56	54585.97
513.73	53792.53
513.90	55356.01
514.08	54911.31
514.25	55007.27
514.43	55557.30
514.60	55262.39
514.77	55744.54
514.95	56416.27
515.12	55866.25
515.29	56357.76
515.47	56931.19
515.64	56746.29
515.81	56147.11
515.99	54944.08
516.16	53132.50
516.33	50272.37
516.51	50333.22
516.68	48921.88
516.85	47512.88
517.03	48725.27
517.20	52126.07
517.37	55229.62
517.54	56170.52
517.72	54972.16
517.89	51702.43
518.06	49514.03
518.24	50817.71
518.41	53258.89
518.58	54796.62
518.75	54583.63
518.93	54431.50
519.10	54176.38
519.27	55168.77
519.45	55576.02
519.62	56427.98
519.79	56381.16
519.96	55929.44
520.14	55681.34
520.31	55147.70
520.48	54691.30
520.65	55461.33
520.83	56418.61
521.00	55779.65
521.17	55578.36
521.34	56016.04
521.52	56963.96
521.69	56891.40
521.86	57495.26
522.03	56591.81
522.20	54972.16
522.38	53970.41
522.55	54160.00
522.72	54653.85
522.89	54923.01
523.07	55594.74
523.24	56322.65
523.41	56559.05
523.58	57223.76
523.75	57179.29
523.92	57621.65
524.10	57158.22
524.27	56624.58
524.44	56222.01
524.61	55807.73
524.78	56200.94
524.96	56357.76
525.13	56694.80
525.30	57453.13
525.47	57499.94
525.64	57336.10
525.81	55655.60
525.98	54188.08
526.16	52594.18
526.33	52589.50
526.50	52317.99
526.67	52500.56
526.84	53195.70
527.01	54333.20
527.18	54862.16
527.36	55711.77
527.53	56542.66
527.70	56236.05
527.87	55004.93
528.04	55208.56
528.21	56074.55
528.38	56765.01
528.55	57869.75
528.72	57888.47
528.89	57200.35
529.07	57359.51
529.24	56046.47
529.41	55693.05
529.58	56114.34
529.75	56275.84
529.92	57193.33
530.09	57048.22
530.26	57333.76
530.43	57827.62
530.60	57691.86
530.77	57930.60
530.94	57733.99
531.11	57069.28
531.28	56652.67
531.46	56933.53
531.63	56970.98
531.80	56219.67
531.97	56322.65
532.14	56086.26
532.31	54396.39
532.48	54061.69
532.65	54351.92
532.82	54712.36
532.99	56945.23
533.16	56856.29
533.33	57205.03
533.50	57022.47
533.67	56067.53
533.84	56229.03
534.01	56498.19
534.18	56268.82
534.35	56568.41
534.52	55875.61
534.69	56259.46
534.86	56711.18
535.03	57265.89
535.20	57682.50
535.37	58291.04
535.54	58155.29
535.71	57406.32
535.88	57020.13
536.05	56530.96
536.22	55566.66
536.38	55653.26
536.55	55330.26
536.72	54763.85
536.89	55323.24
537.06	55821.78
537.23	56301.59
537.40	55924.76
537.57	56226.69
537.74	55929.44
537.91	56189.24
538.08	55852.20
538.25	56568.41
538.42	56566.07
538.59	56624.58
538.75	55884.97
538.92	54759.17
539.09	55213.24
539.26	55112.59
539.43	55126.64
539.60	54574.27
539.77	55856.88
539.94	55030.68
540.11	54494.69
540.28	54253.62
540.44	54239.57
540.61	54066.38
540.78	54691.30
540.95	54775.56
541.12	54770.88
541.29	55810.07
541.46	54955.78
541.62	56044.13
541.79	54646.83
541.96	54237.23
542.13	55206.22
542.30	55150.04
542.47	55356.01
542.63	55196.85
542.80	54695.98
542.97	54092.12
543.14	54585.97
543.31	55461.33
543.48	55732.84
543.64	56446.70
543.81	56430.32
543.98	56577.77
544.15	55899.01
544.32	55884.97
544.48	56114.34
544.65	55292.82
544.82	56172.86
544.99	54955.78
545.16	54915.99
545.32	55220.26
545.49	55781.99
545.66	56432.66
545.83	55807.73
546.00	55941.14
546.16	55220.26
546.33	54745.13
546.50	54827.05
546.67	55763.26
546.83	55636.87
547.00	55576.02
547.17	54031.27
547.34	53514.01
547.50	53717.64
547.67	54047.65
547.84	54817.69
548.00	55793.69
548.17	55292.82
548.34	55742.20
548.51	55512.83
548.67	54864.50
548.84	55110.25
549.01	55449.63
549.18	55147.70
549.34	54955.78
549.51	55421.55
549.68	55987.95
549.84	54904.29
550.01	54417.46
550.18	54925.35
550.34	54607.04
550.51	54365.96
550.68	54845.77
550.84	55524.53
551.01	54705.34
551.18	54541.50
551.34	55028.34
551.51	55077.49
551.68	55316.22
551.84	56245.41
552.01	55222.60
552.18	54810.67
552.34	54014.88
552.51	53429.75
552.68	53366.55
552.84	54562.57
553.01	54621.08
553.18	53811.26
553.34	54108.50
553.51	54621.08
553.67	54878.54
553.84	55084.51
554.01	55512.83
554.17	54908.97
554.34	54583.63
554.51	54468.95
554.67	54171.70
554.84	54487.67
555.00	53640.40
555.17	54080.42
555.33	54054.67
555.50	53614.65
555.67	54277.02
555.83	53839.34
556.00	53373.58
556.16	53506.99
556.33	53530.39
556.50	53993.82
556.66	53640.40
556.83	52879.72
556.99	53146.54
557.16	53439.11
557.32	53347.83
557.49	54288.73
557.65	53631.04
557.82	54293.41
557.98	54232.55
558.15	52996.75
558.32	52247.78
558.48	51461.36
558.65	51194.54
558.81	51838.18
558.98	52561.41
559.14	51987.98
559.31	52910.15
559.47	52523.96
559.64	52418.64
559.80	51374.76
559.97	51709.46
560.13	52736.95
560.30	53689.55
560.46	54396.39
560.63	54571.93
560.79	54724.07
560.96	53586.57
561.12	52739.29
561.29	53036.54
561.45	52844.62
561.61	53586.57
561.78	52573.11
561.94	52395.23
562.11	52100.32
562.27	51494.13
562.44	53113.78
562.60	53408.68
562.77	52956.96
562.93	52793.12
563.10	53441.45
563.26	52835.25
563.42	53034.20
563.59	52900.79
563.75	52191.61
563.92	52484.17
564.08	52741.63
564.24	53918.92
564.41	52079.26
564.57	53200.38
564.74	52945.26
564.90	52418.64
565.07	51564.34
565.23	51246.03
565.39	50220.87
565.56	50265.34
565.72	51384.12
565.88	51136.02
566.05	52463.11
566.21	51538.60
566.38	52275.87
566.54	53312.72
566.70	53441.45
566.87	52839.93
567.03	53492.94
567.19	53829.98
567.36	53771.47
567.52	52229.05
567.68	51842.87
567.85	50766.22
568.01	51372.42
568.17	51133.68
568.34	51154.75
568.50	50660.90
568.66	50085.12
568.83	50382.37
568.99	50038.31
569.15	50459.61
569.32	50377.69
569.48	50459.61
569.64	50869.20
569.81	50890.27
569.97	50672.60
570.13	49593.61
570.30	48587.18
570.46	48612.93
570.62	48575.48
570.78	49095.08
570.95	48678.46
571.11	49139.55
571.27	48891.45
571.43	50436.20
571.60	50555.57
571.76	50223.22
571.92	50319.18
572.09	50501.74
572.25	50398.76
572.41	49652.12
572.57	51016.66
572.74	51414.55
572.90	51337.31
573.06	52109.69
573.22	51971.60
573.38	51765.63
573.55	52388.21
573.71	51295.18
573.87	50726.43
574.03	50836.44
574.20	49574.89
574.36	49394.67
574.52	49626.38
574.68	49301.04
574.84	48395.26
575.01	48006.73
575.17	48507.60
575.33	49165.29
575.49	49544.46
575.65	48655.06
575.82	48327.38
575.98	49801.92
576.14	50099.17
576.30	50726.43
576.46	49373.60
576.62	48442.07
576.79	48861.02
576.95	49989.16
577.11	49844.05
577.27	48823.58
577.43	49062.31
577.59	49223.81
577.75	48528.67
577.92	47978.64
578.08	47784.38
578.24	47009.66
578.40	47854.59
578.56	46763.90
578.72	47538.62
578.88	48137.80
579.04	48519.31
579.21	47880.34
579.37	47709.48
579.53	48086.31
579.69	47508.19
579.85	47505.85
580.01	47847.57
580.17	47470.75
580.33	48451.43
580.49	48498.24
580.65	48219.72
580.82	48577.82
580.98	48430.36
581.14	47468.40
581.30	46965.19
581.46	47192.22
581.62	47971.62
581.78	48999.12
581.94	48715.91
582.10	48968.69
582.26	48350.79
582.42	49057.63
582.58	48018.43
582.74	47952.90
582.90	47894.38
583.06	49427.43
583.22	48154.18
583.38	48362.49
583.54	48470.15
583.70	48046.52
583.86	48257.17
584.02	47147.75
584.18	47697.78
584.34	47047.11
584.50	46894.97
584.66	47004.98
584.82	46499.42
584.98	47337.33
585.14	46045.36
585.30	45680.24
