SpectraSuite Data File
++++++++++++++++++++++++++++++++++++
Date: Mon Oct 07 14:55:00 GMT-05:00 2013
User: price-jones
Dark Spectrum Present: No
Reference Spectrum Present: No
Number of Sampled Component Spectra: 1
Spectrometers: USB2+H05261
Integration Time (usec): 10000 (USB2+H05261)
Spectra Averaged: 1 (USB2+H05261)
Boxcar Smoothing: 0 (USB2+H05261)
Correct for Electrical Dark: No (USB2+H05261)
Strobe/Lamp Enabled: No (USB2+H05261)
Correct for Detector Non-linearity: No (USB2+H05261)
Correct for Stray Light: No (USB2+H05261)
Number of Pixels in Processed Spectrum: 2048
>>>>>Begin Processed Spectral Data<<<<<
365.73	0.00
365.92	0.00
366.12	0.00
366.32	0.00
366.52	0.00
366.72	0.00
366.91	0.00
367.11	0.00
367.31	0.00
367.51	0.00
367.70	0.00
367.90	0.00
368.10	0.00
368.30	0.00
368.49	0.00
368.69	0.00
368.89	0.00
369.09	0.00
369.28	0.00
369.48	0.00
369.68	0.00
369.87	0.00
370.07	0.00
370.27	0.00
370.47	269.16
370.66	2267.98
370.86	2574.59
371.06	2672.89
371.25	2780.56
371.45	2396.71
371.65	2223.51
371.84	2099.46
372.04	2326.49
372.24	2457.56
372.44	2558.21
372.63	2605.02
372.83	2375.64
373.03	2045.63
373.22	1937.96
373.42	2040.95
373.62	2392.03
373.81	2480.97
374.01	2581.61
374.21	2129.89
374.40	2045.63
374.60	2340.54
374.79	2602.68
374.99	3047.38
375.19	3150.36
375.38	3229.94
375.58	2925.67
375.78	2899.92
375.97	3047.38
376.17	2974.82
376.37	3112.91
376.56	3232.28
376.76	3447.61
376.95	3700.39
377.15	3894.65
377.35	4091.26
377.54	4205.94
377.74	4362.76
377.93	4362.76
378.13	4180.20
378.33	3962.53
378.52	3669.96
378.72	3513.14
378.91	3480.38
379.11	3417.18
379.31	3164.40
379.50	3316.54
379.70	3510.80
379.89	3967.21
380.09	4182.54
380.28	4381.48
380.48	4234.03
380.68	4109.98
380.87	3904.01
381.07	3496.76
381.26	3276.75
381.46	3187.81
381.65	3101.21
381.85	3185.47
382.04	2920.99
382.24	2595.65
382.43	2602.68
382.63	2530.12
382.83	2504.37
383.02	2476.29
383.22	2457.56
383.41	2506.71
383.61	2703.32
383.80	3323.56
384.00	3667.62
384.19	4023.38
384.39	4145.09
384.58	4227.01
384.78	4107.64
384.97	4088.92
385.17	3768.26
385.36	3609.11
385.56	3515.48
385.75	3772.94
385.95	4056.15
386.14	4440.00
386.34	4409.57
386.53	3953.16
386.72	3906.35
386.92	4119.34
387.11	4133.39
387.31	4264.46
387.50	4224.67
387.70	4053.81
387.89	4049.13
388.09	4067.85
388.28	4142.75
388.48	4425.95
388.67	4573.41
388.86	5071.94
389.06	5179.61
389.25	5621.97
389.45	5638.35
389.64	5619.63
389.84	5530.69
390.03	5357.49
390.22	5715.59
390.42	5877.09
390.61	6403.71
390.81	6532.44
391.00	6670.53
391.19	6548.82
391.39	6157.95
391.58	5863.04
391.78	5526.00
391.97	5476.85
392.16	5128.11
392.36	4322.97
392.55	3358.67
392.75	2733.75
392.94	2286.70
393.13	2317.13
393.33	2920.99
393.52	3808.05
393.71	4643.62
393.91	5160.88
394.10	5689.84
394.29	6141.57
394.49	6794.58
394.68	7140.97
394.88	6963.09
395.07	7246.30
395.26	7295.45
395.46	6885.86
395.65	6548.82
395.84	5568.13
396.04	4484.47
396.23	3637.19
396.42	3148.02
396.62	3318.88
396.81	3859.54
397.00	5233.44
397.19	6258.59
397.39	7470.99
397.58	8088.89
397.77	8444.65
397.97	9004.04
398.16	9123.41
398.35	9352.78
398.55	9561.09
398.74	9944.94
398.93	10076.01
399.12	10083.03
399.32	9912.17
399.51	9867.70
399.70	10530.07
399.90	10090.05
400.09	10104.09
400.28	10363.89
400.47	10480.92
400.67	10902.22
400.86	10991.16
401.05	11176.06
401.24	11283.72
401.44	11662.89
401.63	11356.28
401.82	11501.39
402.01	11566.93
402.21	11808.00
402.40	11527.14
402.59	11077.76
402.78	10747.74
402.97	10754.76
403.17	11267.34
403.36	12147.38
403.55	11992.90
403.74	12262.07
403.93	11250.96
404.13	10406.02
404.32	10740.72
404.51	11485.01
404.70	12112.27
404.89	11936.73
405.09	11592.67
405.28	11431.18
405.47	11623.10
405.66	11435.86
405.85	11098.82
406.05	10864.77
406.24	11084.78
406.43	11714.38
406.62	11995.25
406.81	11831.41
407.00	11763.53
407.20	11152.65
407.39	11222.87
407.58	11969.50
407.77	12706.77
407.96	12917.42
408.15	13109.34
408.34	13207.64
408.54	13696.82
408.73	13514.25
408.92	13200.62
409.11	12788.69
409.30	12435.27
409.49	11534.16
409.68	10878.81
409.87	10738.38
410.07	11417.13
410.26	12318.24
410.45	13177.22
410.64	13406.59
410.83	13991.72
411.02	14394.29
411.21	14537.07
411.40	13951.93
411.59	14609.62
411.78	14363.87
411.98	14281.95
412.17	14480.89
412.36	14080.66
412.55	14237.48
412.74	13907.46
412.93	13689.79
413.12	14104.07
413.31	15384.34
413.50	15328.17
413.69	15477.96
413.88	14869.42
414.07	14803.89
414.26	14984.11
414.45	15389.02
414.64	14813.25
414.83	15094.11
415.02	14775.80
415.22	15108.16
415.41	15639.46
415.60	16027.99
415.79	16863.56
415.98	16678.66
416.17	16886.97
416.36	16617.80
416.55	16217.57
416.74	15552.86
416.93	15374.98
417.12	15604.35
417.31	15405.41
417.50	15777.55
417.69	16102.89
417.88	16128.63
418.07	16226.93
418.26	15805.64
418.45	16035.01
418.64	16685.68
418.83	17315.28
419.02	16985.27
419.21	16809.73
419.39	15920.32
419.58	15496.69
419.77	15571.58
419.96	16393.11
420.15	17216.98
420.34	17649.98
420.53	17909.78
420.72	18174.26
420.91	17989.36
421.10	17785.73
421.29	17720.20
421.48	17303.58
421.67	18181.28
421.86	17444.01
422.05	16030.33
422.24	14576.86
422.43	14960.70
422.61	16826.11
422.80	17509.55
422.99	17064.85
423.18	16781.64
423.37	16765.26
423.56	17006.33
423.75	17099.95
423.94	17584.44
424.13	16468.01
424.32	16030.33
424.50	16688.02
424.69	16645.89
424.88	16737.17
425.07	16809.73
425.26	16699.72
425.45	16049.05
425.64	15934.37
425.83	16044.37
426.01	17170.17
426.20	17259.11
426.39	17254.43
426.58	15520.09
426.77	14675.16
426.96	14567.49
427.15	15344.55
427.33	16563.97
427.52	16863.56
427.71	16840.15
427.90	16716.11
428.09	16629.51
428.28	15726.06
428.46	15295.40
428.65	15274.34
428.84	15866.49
429.03	15819.68
429.22	14878.79
429.40	13612.56
429.59	12320.58
429.78	11267.34
429.97	11658.21
430.16	11599.70
430.34	11667.57
430.53	11714.38
430.72	12442.29
430.91	13799.80
431.10	16372.05
431.28	18808.54
431.47	20058.39
431.66	19864.13
431.85	17556.36
432.03	16629.51
432.22	16563.97
432.41	17668.70
432.60	19066.00
432.79	19557.52
432.97	19517.73
433.16	18892.80
433.35	17460.40
433.54	15264.97
433.72	15112.84
433.91	15859.47
434.10	17600.83
434.28	18616.62
434.47	19089.41
434.66	18974.72
434.85	18583.85
435.03	18679.82
435.22	19199.41
435.41	20180.10
435.59	20662.25
435.78	20671.61
435.97	21146.74
436.16	21252.06
436.34	20849.49
436.53	20311.17
436.72	20580.33
436.90	19520.07
437.09	19517.73
437.28	19349.21
437.46	19908.60
437.65	19166.65
437.84	17797.43
438.02	17118.68
438.21	17111.66
438.40	17989.36
438.58	19000.47
438.77	19742.42
438.96	20161.37
439.14	21411.22
439.33	21561.02
439.52	21273.13
439.70	20699.70
439.89	20362.66
440.08	20027.96
440.26	20212.87
440.45	20748.85
440.63	22518.29
440.82	23260.24
441.01	22396.59
441.19	22979.38
441.38	23318.76
441.57	24060.71
441.75	24137.94
441.94	24580.31
442.12	23964.75
442.31	24898.62
442.50	24570.94
442.68	24112.20
442.87	23939.00
443.05	23531.75
443.24	24528.81
443.43	25003.94
443.61	25020.33
443.80	25406.52
443.98	24194.12
444.17	24126.24
444.35	25762.28
444.54	25865.26
444.73	25263.74
444.91	23875.80
445.10	23644.09
445.28	22661.07
445.47	22326.37
445.65	22242.11
445.84	22778.09
446.02	23798.57
446.21	23798.57
446.39	23908.57
446.58	24446.90
446.77	25034.37
446.95	25174.80
447.14	26333.37
447.32	26586.15
447.51	25565.67
447.69	24575.62
447.88	24690.31
448.06	25614.82
448.25	25788.02
448.43	25092.88
448.62	25125.65
448.80	25453.33
448.99	25221.61
449.17	25137.35
449.36	25371.41
449.54	26675.09
449.73	26888.07
449.91	27307.03
450.10	27835.99
450.28	27852.38
450.46	28137.92
450.65	27943.66
450.83	27754.07
451.02	26953.61
451.20	27157.24
451.39	27510.66
451.57	27037.87
451.76	27625.34
451.94	26733.60
452.13	25923.77
452.31	24910.32
452.49	23786.86
452.68	24589.67
452.86	24353.27
453.05	24332.21
453.23	25837.17
453.42	26211.66
453.60	26757.00
453.78	26820.20
453.97	26511.25
454.15	26319.32
454.34	25846.54
454.52	25717.81
454.70	25523.54
454.89	26108.68
455.07	26092.29
455.26	26845.94
455.44	27765.78
455.62	28074.73
455.81	27768.12
455.99	27859.40
456.17	27342.14
456.36	27735.35
456.54	28240.90
456.73	28105.15
456.91	28336.87
457.09	28826.04
457.28	30008.01
457.46	27744.71
457.64	27520.02
457.83	26684.45
458.01	26782.75
458.19	27236.81
458.38	28311.12
458.56	28409.42
458.74	28744.12
458.93	27580.87
459.11	27522.36
459.29	27569.17
459.48	27566.83
459.66	27819.61
459.84	27683.86
460.03	28666.88
460.21	27826.63
460.39	29167.76
460.57	29184.14
460.76	29036.69
460.94	29207.55
461.12	29312.87
461.31	29708.42
461.49	29486.07
461.67	29256.70
461.85	29654.59
462.04	29879.28
462.22	29692.04
462.40	30110.99
462.59	29619.48
462.77	30078.22
462.95	29954.18
463.13	29560.97
463.32	29099.88
463.50	29401.81
463.68	29439.26
463.86	29685.01
464.05	28648.16
464.23	28114.52
464.41	27901.53
464.59	27538.74
464.78	29317.55
464.96	28318.14
465.14	28025.57
465.32	29212.23
465.50	30340.36
465.69	30937.20
465.87	29422.87
466.05	28617.73
466.23	27985.79
466.41	27096.38
466.60	27859.40
466.78	27545.76
466.96	27906.21
467.14	28095.79
467.32	28732.42
467.51	29385.43
467.69	27665.13
467.87	28596.67
468.05	29277.76
468.23	29677.99
468.41	29528.20
468.60	29565.65
468.78	29439.26
468.96	29577.35
469.14	30209.29
469.32	29380.74
469.50	28362.61
469.69	28545.17
469.87	28336.87
470.05	27707.26
470.23	28292.40
470.41	28306.44
470.59	29291.80
470.77	28746.46
470.95	29504.79
471.14	29813.74
471.32	30473.78
471.50	32004.49
471.68	31632.34
471.86	31990.44
472.04	31728.30
472.22	31927.25
472.40	29762.25
472.58	30106.31
472.77	29942.47
472.95	30134.40
473.13	31309.35
473.31	30370.79
473.49	30960.61
473.67	31639.36
473.85	31821.92
474.03	32926.66
474.21	32577.92
474.39	33266.03
474.57	32755.80
474.75	33149.01
474.93	32315.78
475.12	31747.03
475.30	32144.92
475.48	31866.39
475.66	32610.68
475.84	31606.59
476.02	31707.24
476.20	31393.61
476.38	32252.58
476.56	33488.38
476.74	33577.33
476.92	34113.31
477.10	34122.67
477.28	35424.01
477.46	35171.23
477.64	35821.90
477.82	35470.82
478.00	35426.35
478.18	34911.43
478.36	34979.31
478.54	35196.98
478.72	35604.23
478.90	36142.55
479.08	37745.82
479.26	36882.16
479.44	37984.55
479.62	37579.64
479.80	37436.87
479.98	37064.72
480.16	37846.46
480.34	37226.22
480.52	37830.08
480.70	36919.61
480.88	38132.01
481.06	38335.63
481.24	38345.00
481.41	39997.41
481.59	40575.53
481.77	39426.32
481.95	39360.79
482.13	39842.94
482.31	40055.93
482.49	39854.64
482.67	39945.92
482.85	39716.55
483.03	40549.78
483.21	41385.35
483.39	41816.01
483.57	40790.86
483.74	40177.64
483.92	40737.02
484.10	40020.82
484.28	41471.95
484.46	41762.18
484.64	42398.80
484.82	41364.29
485.00	41434.50
485.18	40299.34
485.35	38101.58
485.53	34518.22
485.71	31878.10
485.89	32336.84
486.07	35143.14
486.25	37661.56
486.43	39438.03
486.61	39854.64
486.78	39927.20
486.96	41429.82
487.14	42169.43
487.32	43681.42
487.50	44191.65
487.68	44233.78
487.85	45125.53
488.03	44800.19
488.21	44182.29
488.39	44215.06
488.57	42656.26
488.75	43370.13
488.92	44645.72
489.10	47175.84
489.28	47620.54
489.46	48484.20
489.64	48013.75
489.81	49027.20
489.99	48863.36
490.17	48648.03
490.35	48942.94
490.53	48655.06
490.70	48329.72
490.88	48186.95
491.06	49497.65
491.24	49771.49
491.41	47349.04
491.59	46452.61
491.77	45125.53
491.95	47030.72
492.13	48982.73
492.30	49696.59
492.48	50993.25
492.66	51192.20
492.84	49886.18
493.01	49794.90
493.19	50272.37
493.37	49745.75
493.54	49748.09
493.72	50775.58
493.90	51686.05
494.08	52439.70
494.25	52713.55
494.43	52835.25
494.61	53106.76
494.79	52774.40
494.96	52608.22
495.14	52816.53
495.32	50913.67
495.49	51035.38
495.67	51997.34
495.85	52839.93
496.02	53827.64
496.20	53303.36
496.38	52956.96
496.55	52540.35
496.73	53521.03
496.91	53773.81
497.09	54277.02
497.26	55091.53
497.44	54246.60
497.62	53083.35
497.79	52552.05
497.97	51150.07
498.14	52020.75
498.32	52809.51
498.50	53373.58
498.67	53801.89
498.85	53408.68
499.03	54040.63
499.20	54499.37
499.38	53968.07
499.56	53223.78
499.73	52996.75
499.91	53301.02
500.08	52498.22
500.26	52364.81
500.44	52395.23
500.61	53787.85
500.79	52495.88
500.97	52844.62
501.14	52339.06
501.32	51690.73
501.49	51999.68
501.67	52992.07
501.84	53373.58
502.02	53265.91
502.20	53371.24
502.37	53474.22
502.55	53862.75
502.72	54768.54
502.90	55433.25
503.07	54443.20
503.25	53462.52
503.43	52446.72
503.60	52217.35
503.78	52191.61
503.95	52739.29
504.13	54607.04
504.30	55435.59
504.48	55040.04
504.65	54630.44
504.83	54621.08
505.01	55040.04
505.18	55264.73
505.36	56240.73
505.53	56114.34
505.71	55980.93
505.88	56252.44
506.06	55906.04
506.23	55372.39
506.41	54892.58
506.58	55260.05
506.76	55501.12
506.93	55271.75
507.11	54817.69
507.28	54492.35
507.46	53944.67
507.63	54536.82
507.81	53666.14
507.98	53808.92
508.16	55077.49
508.33	55622.83
508.50	55650.92
508.68	55756.24
508.85	56198.60
509.03	57226.10
509.20	56676.07
509.38	56009.02
509.55	55386.44
509.73	54843.43
509.90	55168.77
510.08	55650.92
510.25	55065.78
510.42	54724.07
510.60	54915.99
510.77	55922.42
510.95	56612.88
511.12	56561.39
511.30	57118.43
511.47	57048.22
511.64	56835.23
511.82	56839.91
511.99	55444.95
512.17	55309.20
512.34	54728.75
512.51	55405.16
512.69	55774.97
512.86	55133.66
513.04	55604.11
513.21	55468.36
513.38	54693.64
513.56	54148.29
513.73	53176.97
513.90	54986.21
514.08	54543.84
514.25	54660.87
514.43	55061.10
514.60	55089.19
514.77	55580.70
514.95	55955.19
515.12	55519.85
515.29	56119.02
515.47	56559.05
515.64	56547.34
515.81	55845.18
515.99	54569.59
516.16	52697.16
516.33	50230.24
516.51	49897.88
516.68	48732.29
516.85	46944.12
517.03	48863.36
517.20	51997.34
517.37	54712.36
517.54	55686.03
517.72	54600.02
517.89	51241.35
518.06	49418.07
518.24	50527.48
518.41	53158.25
518.58	54494.69
518.75	53855.73
518.93	53677.85
519.10	53609.97
519.27	54782.58
519.45	54937.05
519.62	55941.14
519.79	56147.11
519.96	55145.36
520.14	55419.20
520.31	54805.98
520.48	54480.65
520.65	55178.13
520.83	55915.40
521.00	55451.97
521.17	55093.87
521.34	55409.84
521.52	56828.21
521.69	56533.30
521.86	57439.09
522.03	56507.55
522.20	55063.44
522.38	53570.18
522.55	53984.46
522.72	54031.27
522.89	54543.84
523.07	55021.31
523.24	56109.66
523.41	56390.53
523.58	56786.08
523.75	56875.02
523.92	57521.01
524.10	56596.49
524.27	56322.65
524.44	55980.93
524.61	55662.62
524.78	56027.74
524.96	55990.30
525.13	56343.72
525.30	57158.22
525.47	57303.34
525.64	56870.34
525.81	55311.54
525.98	54223.19
526.16	52463.11
526.33	52282.89
526.50	52034.79
526.67	52266.50
526.84	53083.35
527.01	53485.92
527.18	54656.19
527.36	55468.36
527.53	56069.87
527.70	55896.67
527.87	54941.74
528.04	54803.64
528.21	55793.69
528.38	56360.10
528.55	57439.09
528.72	57638.03
528.89	56933.53
529.07	56687.78
529.24	56053.49
529.41	55365.37
529.58	55807.73
529.75	55906.04
529.92	57052.90
530.09	56940.55
530.26	56615.22
530.43	57422.70
530.60	57542.07
530.77	57312.70
530.94	57469.51
531.11	56676.07
531.28	56189.24
531.46	56484.15
531.63	56655.01
531.80	56095.62
531.97	55667.30
532.14	55405.16
532.31	54136.59
532.48	53951.69
532.65	54073.40
532.82	54330.86
532.99	56589.47
533.16	56673.73
533.33	56835.23
533.50	56832.89
533.67	55372.39
533.84	55746.88
534.01	56275.84
534.18	55838.16
534.35	56406.91
534.52	56023.06
534.69	55737.52
534.86	56350.74
535.03	56797.78
535.20	57343.12
535.37	57766.76
535.54	58066.35
535.71	56938.21
535.88	56605.86
536.05	55896.67
536.22	55049.40
536.38	55510.49
536.55	55274.09
536.72	54742.79
536.89	54948.76
537.06	55707.09
537.23	56299.25
537.40	55615.81
537.57	56367.12
537.74	55828.80
537.91	55992.64
538.08	55648.58
538.25	56233.71
538.42	56301.59
538.59	56334.35
538.75	55627.51
538.92	54365.96
539.09	54855.14
539.26	54873.86
539.43	55030.68
539.60	54703.00
539.77	55112.59
539.94	54777.90
540.11	53806.58
540.28	53874.45
540.44	54169.36
540.61	53902.54
540.78	54396.39
540.95	54438.52
541.12	54209.15
541.29	55161.75
541.46	55075.15
541.62	55084.51
541.79	54578.95
541.96	53853.39
542.13	54585.97
542.30	54850.45
542.47	54665.55
542.63	54768.54
542.80	54499.37
542.97	53607.63
543.14	54518.10
543.31	54923.01
543.48	55554.96
543.64	56259.46
543.81	56353.08
543.98	56097.96
544.15	55318.56
544.32	55608.79
544.48	56161.15
544.65	55311.54
544.82	55842.84
544.99	54798.96
545.16	54656.19
545.32	55089.19
545.49	55414.52
545.66	56212.65
545.83	55384.10
546.00	55639.22
546.16	55325.58
546.33	54466.61
546.50	54429.16
546.67	55487.08
546.83	55444.95
547.00	55257.71
547.17	53673.16
547.34	53289.32
547.50	53724.66
547.67	54099.14
547.84	54431.50
548.00	55416.86
548.17	55363.03
548.34	55208.56
548.51	55449.63
548.67	54672.57
548.84	54995.57
549.01	55168.77
549.18	54906.63
549.34	54202.13
549.51	55007.27
549.68	55625.17
549.84	54581.29
550.01	53918.92
550.18	54735.77
550.34	54609.38
550.51	54333.20
550.68	54466.61
550.84	54698.32
551.01	54145.95
551.18	54494.69
551.34	54681.94
551.51	54777.90
551.68	54742.79
551.84	55952.85
552.01	54908.97
552.18	54728.75
552.34	53883.81
552.51	53612.31
552.68	53261.23
552.84	54382.35
553.01	54052.33
553.18	53521.03
553.34	53778.49
553.51	54321.49
553.67	54501.71
553.84	54784.92
554.01	55028.34
554.17	54915.99
554.34	54351.92
554.51	54382.35
554.67	53963.39
554.84	54155.32
555.00	53834.66
555.17	53984.46
555.33	53883.81
555.50	53350.17
555.67	53916.58
555.83	53668.48
556.00	52865.68
556.16	52886.74
556.33	53448.47
556.50	54262.98
556.66	53455.50
556.83	52975.69
556.99	52528.64
557.16	53200.38
557.32	53457.84
557.49	53874.45
557.65	53216.76
557.82	53773.81
557.98	53890.83
558.15	52626.95
558.32	52271.18
558.48	51180.49
558.65	50845.80
558.81	51271.78
558.98	52079.26
559.14	51524.55
559.31	52261.82
559.47	52416.30
559.64	51753.93
559.80	51182.84
559.97	51009.64
560.13	52397.57
560.30	52891.43
560.46	53911.90
560.63	54120.21
560.79	54405.75
560.96	53315.06
561.12	52402.25
561.29	52800.15
561.45	52568.43
561.61	53411.02
561.78	52100.32
561.94	52332.04
562.11	51842.87
562.27	51391.14
562.44	52306.29
562.60	52538.01
562.77	52640.99
562.93	52392.89
563.10	53237.83
563.26	52530.98
563.42	52818.87
563.59	52851.64
563.75	51831.16
563.92	52044.15
564.08	52825.89
564.24	53291.66
564.41	51742.22
564.57	52879.72
564.74	52514.60
564.90	51730.52
565.07	50707.71
565.23	50937.08
565.39	49717.66
565.56	50075.76
565.72	50586.00
565.88	50838.78
566.05	52507.58
566.21	51000.27
566.38	51973.94
566.54	53036.54
566.70	52650.35
566.87	52353.10
567.03	52968.66
567.19	53359.53
567.36	52917.17
567.52	52207.99
567.68	51501.15
567.85	50733.45
568.01	51196.88
568.17	50429.18
568.34	50333.22
568.50	50319.18
568.66	49780.85
568.83	50141.30
568.99	50101.51
569.15	50752.18
569.32	50475.99
569.48	50321.52
569.64	50691.32
569.81	50663.24
569.97	50131.93
570.13	49331.47
570.30	48006.73
570.46	48793.15
570.62	48067.58
570.78	48659.74
570.95	48172.91
571.11	48671.44
571.27	48687.82
571.43	49881.50
571.60	50508.76
571.76	50206.83
571.92	50164.70
572.09	50019.59
572.25	49586.59
572.41	49579.57
572.57	50801.33
572.74	51524.55
572.90	50534.51
573.06	51711.80
573.22	51519.87
573.38	51309.22
573.55	51627.54
573.71	51019.00
573.87	50703.03
574.03	50377.69
574.20	49099.76
574.36	48949.96
574.52	49574.89
574.68	49134.87
574.84	48123.75
575.01	48149.50
575.17	48795.49
575.33	48914.86
575.49	49235.51
575.65	48968.69
575.82	48334.40
575.98	49366.58
576.14	49532.76
576.30	50071.08
576.46	49563.18
576.62	48547.39
576.79	48383.55
576.95	49572.55
577.11	49350.20
577.27	48863.36
577.43	48390.58
577.59	49071.67
577.75	48491.22
577.92	47608.84
578.08	47447.34
578.24	47058.81
578.40	47007.32
578.56	46473.68
578.72	46930.08
578.88	48006.73
579.04	48090.99
579.21	47531.60
579.37	47363.08
579.53	47461.38
579.69	46653.90
579.85	46836.46
580.01	48004.39
580.17	46974.55
580.33	48299.30
580.49	47948.21
580.65	47828.85
580.82	48371.85
580.98	48076.94
581.14	46923.06
581.30	46857.52
581.46	46780.29
581.62	47522.24
581.78	48346.11
581.94	48287.59
582.10	48182.27
582.26	48081.63
582.42	48645.69
582.58	47842.89
582.74	47526.92
582.90	46745.18
583.06	49006.14
583.22	47985.66
583.38	48357.81
583.54	47819.49
583.70	47583.09
583.86	47821.83
584.02	47072.85
584.18	47639.26
584.34	46663.26
584.50	46520.49
584.66	46836.46
584.82	46148.34
584.98	47154.77
585.14	45387.67
585.30	44975.73
