SpectraSuite Data File
++++++++++++++++++++++++++++++++++++
Date: Mon Oct 07 14:53:48 GMT-05:00 2013
User: price-jones
Dark Spectrum Present: No
Reference Spectrum Present: No
Number of Sampled Component Spectra: 1
Spectrometers: USB2+H05261
Integration Time (usec): 100000 (USB2+H05261)
Spectra Averaged: 1 (USB2+H05261)
Boxcar Smoothing: 0 (USB2+H05261)
Correct for Electrical Dark: No (USB2+H05261)
Strobe/Lamp Enabled: No (USB2+H05261)
Correct for Detector Non-linearity: No (USB2+H05261)
Correct for Stray Light: No (USB2+H05261)
Number of Pixels in Processed Spectrum: 2048
>>>>>Begin Processed Spectral Data<<<<<
365.73	0.00
365.92	0.00
366.12	0.00
366.32	0.00
366.52	0.00
366.72	0.00
366.91	0.00
367.11	0.00
367.31	0.00
367.51	0.00
367.70	0.00
367.90	0.00
368.10	0.00
368.30	0.00
368.49	0.00
368.69	0.00
368.89	0.00
369.09	0.00
369.28	0.00
369.48	0.00
369.68	0.00
369.87	0.00
370.07	0.00
370.27	0.00
370.47	578.11
370.66	2895.24
370.86	3375.05
371.06	3632.51
371.25	3665.28
371.45	3346.97
371.65	3119.93
371.84	2810.98
372.04	2995.89
372.24	3365.69
372.44	3412.50
372.63	3431.23
372.83	3152.70
373.03	2829.71
373.22	2612.04
373.42	2747.79
373.62	3197.17
373.81	3342.28
374.01	3531.87
374.21	3002.91
374.40	2796.94
374.60	2899.92
374.79	3417.18
374.99	3852.52
375.19	4175.52
375.38	4173.18
375.58	4063.17
375.78	3913.38
375.97	4060.83
376.17	4065.51
376.37	4093.60
376.56	4285.52
376.76	4491.49
376.95	4933.85
377.15	5128.11
377.35	5160.88
377.54	5488.56
377.74	5640.69
377.93	5626.65
378.13	5526.00
378.33	5181.95
378.52	4819.16
378.72	4601.49
378.91	4613.20
379.11	4332.33
379.31	4203.60
379.50	4152.11
379.70	4503.19
379.89	5057.90
380.09	5289.61
380.28	5598.56
380.48	5533.03
380.68	5359.83
380.87	5432.38
381.07	4992.36
381.26	4592.13
381.46	4238.71
381.65	4060.83
381.85	3955.51
382.04	3735.50
382.24	3529.53
382.43	3463.99
382.63	3302.50
382.83	3229.94
383.02	3274.41
383.22	3440.59
383.41	3344.63
383.61	3557.61
383.80	4138.07
384.00	4685.75
384.19	5247.48
384.39	5530.69
384.58	5437.06
384.78	5357.49
384.97	5362.17
385.17	5214.71
385.36	4887.04
385.56	4479.79
385.75	4568.73
385.95	5287.27
386.14	5638.35
386.34	5542.39
386.53	5490.90
386.72	5057.90
386.92	5156.20
387.11	5294.29
387.31	5624.31
387.50	5589.20
387.70	5383.23
387.89	5289.61
388.09	5245.14
388.28	5390.25
388.48	5544.73
388.67	5942.62
388.86	6230.51
389.06	6778.19
389.25	7438.22
389.45	7304.81
389.64	7260.34
389.84	7293.11
390.03	7000.54
390.22	7138.63
390.42	7435.88
390.61	7854.84
390.81	8388.48
391.00	8449.33
391.19	8484.44
391.39	8212.94
391.58	7798.66
391.78	7311.83
391.97	7028.63
392.16	6537.12
392.36	6108.80
392.55	4800.44
392.75	3796.35
392.94	3187.81
393.13	2988.86
393.33	3508.46
393.52	4643.62
393.71	5724.95
393.91	6443.49
394.10	6806.28
394.29	7597.38
394.49	8224.64
394.68	8901.06
394.88	9015.74
395.07	9242.78
395.26	9247.46
395.46	8828.50
395.65	8390.82
395.84	7410.14
396.04	6237.53
396.23	5036.83
396.42	4334.67
396.62	4219.99
396.81	4697.46
397.00	5867.72
397.19	7344.60
397.39	8858.93
397.58	10204.74
397.77	10834.34
397.97	11119.89
398.16	11300.11
398.35	11562.25
398.55	11871.20
398.74	12430.59
398.93	12879.97
399.12	12568.68
399.32	11922.69
399.51	12189.51
399.70	13247.43
399.90	12959.55
400.09	13139.77
400.28	12889.33
400.47	13055.51
400.67	13898.10
400.86	14036.19
401.05	13881.72
401.24	13949.59
401.44	14162.58
401.63	14537.07
401.82	14534.73
402.01	14274.93
402.21	14611.96
402.40	14647.07
402.59	14455.15
402.78	13371.48
402.97	13310.63
403.17	13530.64
403.36	14356.85
403.55	14937.30
403.74	15243.91
403.93	14553.45
404.13	13476.80
404.32	13294.24
404.51	13525.96
404.70	15087.09
404.89	14946.66
405.09	14623.67
405.28	14267.91
405.47	13998.74
405.66	14223.44
405.85	14012.79
406.05	13486.17
406.24	13544.68
406.43	14167.26
406.62	14750.06
406.81	15187.74
407.00	14197.69
407.20	13928.53
407.39	14394.29
407.58	14548.77
407.77	15325.83
407.96	15707.34
408.15	15885.22
408.34	15913.30
408.54	17015.69
408.73	16872.92
408.92	16830.79
409.11	15971.82
409.30	15307.10
409.49	14511.32
409.68	13408.93
409.87	13004.02
410.07	14047.90
410.26	15211.14
410.45	15878.19
410.64	16648.23
410.83	16872.92
411.02	17483.80
411.21	18054.89
411.40	17537.63
411.59	17942.55
411.78	17706.15
411.98	17561.04
412.17	17701.47
412.36	17343.37
412.55	17607.85
412.74	17043.78
412.93	16678.66
413.12	16856.54
413.31	18544.06
413.50	18225.75
413.69	18899.83
413.88	18340.44
414.07	17790.41
414.26	17741.26
414.45	18602.58
414.64	18604.92
414.83	18555.77
415.02	17977.65
415.22	18104.04
415.41	19087.07
415.60	19452.19
415.79	20250.32
415.98	20320.53
416.17	20407.13
416.36	20231.59
416.55	19908.60
416.74	19197.07
416.93	18335.76
417.12	18682.16
417.31	18991.11
417.50	18752.37
417.69	19686.25
417.88	19784.55
418.07	19721.35
418.26	19206.44
418.45	19260.27
418.64	19955.41
418.83	20943.11
419.02	20697.36
419.21	20201.16
419.39	19655.82
419.58	18373.21
419.77	18544.06
419.96	19335.17
420.15	20276.06
420.34	20924.39
420.53	21776.34
420.72	22174.24
420.91	21996.35
421.10	21926.14
421.29	21708.47
421.48	20737.15
421.67	21905.07
421.86	21181.85
422.05	20100.52
422.24	17909.78
422.43	17617.21
422.61	19194.73
422.80	21123.33
422.99	21022.69
423.18	20350.96
423.37	19665.18
423.56	19850.08
423.75	20100.52
423.94	20835.45
424.13	19316.44
424.32	19822.00
424.50	20112.22
424.69	19583.26
424.88	19800.93
425.07	19707.31
425.26	19927.32
425.45	19384.32
425.64	18583.85
425.83	18939.62
426.01	19887.53
426.20	20821.41
426.39	20341.60
426.58	19176.01
426.77	17542.32
426.96	16994.63
427.15	17163.15
427.33	18876.42
427.52	19871.15
427.71	19812.63
427.90	19627.73
428.09	19206.44
428.28	19159.63
428.46	18333.42
428.65	18022.12
428.84	18515.98
429.03	18824.93
429.22	17853.61
429.40	17081.23
429.59	15403.07
429.78	13530.64
429.97	13355.10
430.16	13823.20
430.34	13916.83
430.53	13657.03
430.72	14099.39
430.91	15447.54
431.10	18490.23
431.28	21319.94
431.47	23452.17
431.66	23709.63
431.85	21600.80
432.03	20116.90
432.22	18689.18
432.41	19613.69
432.60	22012.74
432.79	22614.26
432.97	23548.13
433.16	22801.50
433.35	20814.38
433.54	18717.26
433.72	17755.30
433.91	17919.14
434.10	20030.30
434.28	21605.49
434.47	22899.80
434.66	22579.15
434.85	21766.98
435.03	21783.37
435.22	22132.11
435.41	23946.02
435.59	23910.91
435.78	23953.04
435.97	24744.14
436.16	24994.58
436.34	24596.69
436.53	24060.71
436.72	23655.79
436.90	22555.74
437.09	22862.35
437.28	22307.65
437.46	23061.30
437.65	23002.78
437.84	21462.71
438.02	19548.15
438.21	19744.76
438.40	20313.51
438.58	22106.36
438.77	23014.49
438.96	23190.03
439.14	24381.36
439.33	24973.52
439.52	25146.72
439.70	24917.34
439.89	24102.84
440.08	23632.39
440.26	23580.90
440.45	24126.24
440.63	25804.41
440.82	26850.63
441.01	26604.87
441.19	26513.59
441.38	26803.82
441.57	27906.21
441.75	28086.43
441.94	27924.93
442.12	27988.13
442.31	28746.46
442.50	28449.21
442.68	27950.68
442.87	27538.74
443.05	27070.64
443.24	27763.43
443.43	28219.84
443.61	29294.14
443.80	29418.19
443.98	27812.59
444.17	27756.41
444.35	29500.11
444.54	29881.62
444.73	29502.45
444.91	28149.62
445.10	27452.14
445.28	26024.42
445.47	25544.61
445.65	25809.09
445.84	26251.45
446.02	27658.11
446.21	27543.42
446.39	28027.92
446.58	28268.99
446.77	28451.55
446.95	28936.04
447.14	29582.03
447.32	30281.85
447.51	29418.19
447.69	28446.87
447.88	28046.64
448.06	28442.19
448.25	29333.93
448.43	29563.31
448.62	28474.96
448.80	28706.67
448.99	28603.69
449.17	29244.99
449.36	28835.40
449.54	30295.89
449.73	30808.47
449.91	31150.19
450.10	31885.12
450.28	32538.13
450.46	31880.44
450.65	31779.79
450.83	31875.76
451.02	30998.06
451.20	30747.62
451.39	30909.11
451.57	30670.38
451.76	30635.27
451.94	30471.43
452.13	30082.91
452.31	28507.72
452.49	27391.29
452.68	27372.57
452.86	27791.52
453.05	28233.88
453.23	29216.91
453.42	29390.11
453.60	30483.14
453.78	30866.98
453.97	29865.24
454.15	30216.32
454.34	29441.60
454.52	29928.43
454.70	29181.80
454.89	29804.38
455.07	29916.73
455.26	30272.49
455.44	31250.83
455.62	31562.12
455.81	31983.42
455.99	31910.86
456.17	31370.20
456.36	31119.76
456.54	31964.70
456.73	32416.42
456.91	32762.82
457.09	32795.59
457.28	33687.33
457.46	32552.17
457.64	32140.24
457.83	30995.71
458.01	30778.04
458.19	31061.25
458.38	31592.55
458.56	32081.72
458.74	32259.60
458.93	31747.03
459.11	31646.38
459.29	31365.52
459.48	31599.57
459.66	31356.16
459.84	31952.99
460.03	32020.87
460.21	32280.67
460.39	32818.99
460.57	32886.87
460.76	33214.54
460.94	33457.96
461.12	32781.54
461.31	32762.82
461.49	32886.87
461.67	32662.18
461.85	33961.17
462.04	33680.31
462.22	33942.45
462.40	33865.21
462.59	33450.94
462.77	33780.95
462.95	34080.54
463.13	33392.42
463.32	33104.54
463.50	32865.80
463.68	33043.68
463.86	32931.34
464.05	32678.56
464.23	31749.37
464.41	31779.79
464.59	31058.91
464.78	32772.18
464.96	32603.66
465.14	32519.40
465.32	33048.36
465.50	33586.69
465.69	34071.18
465.87	33134.96
466.05	32491.32
466.23	31075.29
466.41	30497.18
466.60	31168.91
466.78	31108.06
466.96	31845.33
467.14	32847.08
467.32	33036.66
467.51	33294.12
467.69	31344.45
467.87	32011.51
468.05	32496.00
468.23	32603.66
468.41	32507.70
468.60	33083.47
468.78	32957.08
468.96	32650.47
469.14	33514.13
469.32	33160.71
469.50	32016.19
469.69	31882.78
469.87	31700.22
470.05	31789.16
470.23	31379.56
470.41	31615.96
470.59	32102.79
470.77	32306.41
470.95	32914.95
471.14	33209.86
471.32	33542.22
471.50	34932.50
471.68	35400.60
471.86	35379.54
472.04	35913.18
472.22	35866.37
472.40	34146.08
472.58	34211.61
472.77	33453.28
472.95	34478.43
473.13	35168.89
473.31	33888.62
473.49	34539.29
473.67	34675.04
473.85	35204.00
474.03	36334.48
474.21	36086.38
474.39	36484.27
474.57	36833.01
474.75	37125.58
474.93	36481.93
475.12	35772.75
475.30	35894.46
475.48	35842.96
475.66	36662.15
475.84	35625.29
476.02	35309.32
476.20	34822.49
476.38	35798.49
476.56	36744.07
476.74	37167.71
476.92	37453.25
477.10	37933.06
477.28	39136.10
477.46	39475.48
477.64	39629.95
477.82	39531.65
478.00	39693.15
478.18	39103.33
478.36	39154.82
478.54	39173.55
478.72	39234.40
478.90	40133.17
479.08	41443.87
479.26	41886.23
479.44	41212.15
479.62	40975.76
479.80	41895.59
479.98	42017.30
480.16	41883.89
480.34	41144.28
480.52	41823.03
480.70	42265.39
480.88	42007.94
481.06	42885.64
481.24	42777.97
481.41	44168.25
481.59	44507.63
481.77	44542.74
481.95	43377.15
482.13	43646.31
482.31	43405.23
482.49	44851.69
482.67	44165.91
482.85	44697.21
483.03	44519.33
483.21	45581.93
483.39	45052.97
483.57	44243.15
483.74	44093.35
483.92	44451.45
484.10	44996.80
484.28	45970.46
484.46	46003.23
484.64	46216.22
484.82	45254.26
485.00	45380.65
485.18	44339.11
485.35	43072.88
485.53	40018.48
485.71	36713.64
485.89	35857.01
486.07	37481.34
486.25	41041.29
486.43	43468.43
486.61	43999.73
486.78	43878.02
486.96	44219.74
487.14	45895.56
487.32	46754.54
487.50	48226.74
487.68	48729.95
487.85	49275.30
488.03	49188.70
488.21	49078.69
488.39	48140.14
488.57	47756.29
488.75	47192.22
488.92	48086.31
489.10	50721.75
489.28	51838.18
489.46	52753.33
489.64	52168.20
489.81	52491.19
489.99	52353.10
490.17	52329.70
490.35	52779.08
490.53	52053.51
490.70	51777.33
490.88	51510.51
491.06	52446.72
491.24	52734.61
491.41	51531.57
491.59	49689.57
491.77	48931.24
491.95	50103.85
492.13	51587.75
492.30	52685.46
492.48	53577.20
492.66	54038.29
492.84	54288.73
493.01	53811.26
493.19	53396.98
493.37	53111.44
493.54	52498.22
493.72	53277.61
493.90	54387.03
494.08	55283.45
494.25	55393.46
494.43	55482.40
494.61	55978.59
494.79	56104.98
494.96	55756.24
495.14	55105.57
495.32	54248.94
495.49	53357.19
495.67	54473.63
495.85	55901.36
496.02	56339.04
496.20	56334.35
496.38	55894.33
496.55	55653.26
496.73	56231.37
496.91	56252.44
497.09	56896.08
497.26	56980.34
497.44	56474.79
497.62	56123.71
497.79	55519.85
497.97	53759.76
498.14	54302.77
498.32	55304.52
498.50	56161.15
498.67	56844.59
498.85	56678.41
499.03	56858.63
499.20	56905.44
499.38	56868.00
499.56	56884.38
499.73	56652.67
499.91	55915.40
500.08	55533.89
500.26	54630.44
500.44	55051.74
500.61	56004.34
500.79	55927.10
500.97	55451.97
501.14	55323.24
501.32	54974.50
501.49	55173.45
501.67	55140.68
501.84	55859.23
502.02	56203.28
502.20	56521.60
502.37	56465.42
502.55	56523.94
502.72	57209.71
502.90	57415.68
503.07	57354.83
503.25	56970.98
503.43	56205.62
503.60	55400.48
503.78	54763.85
503.95	55227.28
504.13	56369.46
504.30	57317.38
504.48	57258.87
504.65	56814.16
504.83	56924.17
505.01	57319.72
505.18	57762.08
505.36	58288.70
505.53	58489.99
505.71	58585.95
505.88	58724.04
506.06	58281.68
506.23	57689.52
506.41	57521.01
506.58	57577.18
506.76	57834.64
506.93	57570.16
507.11	57462.49
507.28	57626.33
507.46	56942.89
507.63	56360.10
507.81	56278.18
507.98	56280.52
508.16	57272.91
508.33	57748.04
508.50	58223.17
508.68	58635.10
508.85	58824.68
509.03	58784.90
509.20	58670.21
509.38	57907.19
509.55	57258.87
509.73	57497.60
509.90	58014.86
510.08	58220.83
510.25	58255.93
510.42	57799.53
510.60	57886.13
510.77	58281.68
510.95	58527.44
511.12	58646.80
511.30	58845.75
511.47	59271.73
511.64	59145.34
511.82	59018.95
511.99	57965.71
512.17	57909.53
512.34	57317.38
512.51	57453.13
512.69	57677.82
512.86	57595.90
513.04	57888.47
513.21	58059.33
513.38	57956.35
513.56	57139.50
513.73	56786.08
513.90	56910.13
514.08	56921.83
514.25	57518.67
514.43	57560.79
514.60	57710.59
514.77	57766.76
514.95	57921.24
515.12	57684.84
515.29	57736.34
515.47	58394.03
515.64	58684.25
515.81	58113.16
515.99	57836.98
516.16	56537.98
516.33	54115.53
516.51	52488.85
516.68	51508.17
516.85	50993.25
517.03	51435.61
517.20	54642.15
517.37	56722.88
517.54	58127.20
517.72	57476.54
517.89	55250.69
518.06	52439.70
518.24	52610.56
518.41	54717.04
518.58	56507.55
518.75	56561.39
518.93	56734.59
519.10	56493.51
519.27	57109.07
519.45	57181.63
519.62	58087.42
519.79	58417.43
519.96	57932.94
520.14	57668.46
520.31	56781.40
520.48	56924.17
520.65	57057.58
520.83	58082.73
521.00	58630.42
521.17	58195.08
521.34	57949.32
521.52	58143.59
521.69	58649.14
521.86	59257.68
522.03	58855.11
522.20	57546.75
522.38	56666.71
522.55	56647.99
522.72	57099.71
522.89	57387.60
523.07	57549.09
523.24	57631.01
523.41	58726.38
523.58	58878.52
523.75	59437.90
523.92	59269.39
524.10	59086.82
524.27	59096.19
524.44	58897.24
524.61	58934.69
524.78	58700.64
524.96	58527.44
525.13	58663.19
525.30	58775.53
525.47	59344.28
525.64	59021.29
525.81	58504.03
525.98	57127.80
526.16	55810.07
526.33	54951.10
526.50	54319.15
526.67	54216.17
526.84	54717.04
527.01	56107.32
527.18	56626.92
527.36	57565.48
527.53	58529.78
527.70	58787.24
527.87	58085.07
528.04	57499.94
528.21	58265.30
528.38	58965.12
528.55	59505.78
528.72	59482.37
528.89	59884.95
529.07	59487.06
529.24	58852.77
529.41	58569.57
529.58	57645.05
529.75	57808.89
529.92	58141.25
530.09	58529.78
530.26	59119.59
530.43	59540.89
530.60	59346.62
530.77	59709.41
530.94	59641.53
531.11	59299.81
531.28	58838.73
531.46	58740.42
531.63	58768.51
531.80	58831.71
531.97	58232.53
532.14	57635.69
532.31	56640.96
532.48	55994.98
532.65	56023.06
532.82	56816.50
532.99	58157.63
533.16	58253.59
533.33	58946.39
533.50	58782.55
533.67	58054.65
533.84	57762.08
534.01	57848.68
534.18	58019.54
534.35	58061.67
534.52	58253.59
534.69	58436.16
534.86	58513.39
535.03	58571.91
535.20	59222.58
535.37	59601.74
535.54	59561.95
535.71	59299.81
535.88	59091.51
536.05	58319.13
536.22	58092.10
536.38	57820.59
536.55	57315.04
536.72	56978.00
536.89	56720.54
537.06	57549.09
537.23	58370.62
537.40	58466.58
537.57	58464.24
537.74	58410.41
537.91	58251.25
538.08	58202.10
538.25	58258.27
538.42	58639.78
538.59	58262.96
538.75	57696.55
538.92	57488.24
539.09	57293.97
539.26	57125.46
539.43	56727.56
539.60	56900.76
539.77	57013.11
539.94	57153.54
540.11	56470.11
540.28	55643.90
540.44	55730.50
540.61	56039.45
540.78	56388.19
540.95	56835.23
541.12	57179.29
541.29	57336.10
541.46	57694.21
541.62	57902.51
541.79	57621.65
541.96	57088.01
542.13	57015.45
542.30	57293.97
542.47	57291.63
542.63	57268.23
542.80	57174.61
542.97	57001.41
543.14	57013.11
543.31	56994.39
543.48	57631.01
543.64	58424.45
543.81	58522.76
543.98	58445.52
544.15	57616.97
544.32	57144.18
544.48	57258.87
544.65	57759.74
544.82	58108.48
544.99	57773.78
545.16	57502.28
545.32	57050.56
545.49	58005.50
545.66	58426.79
545.83	57813.57
546.00	57198.01
546.16	57172.27
546.33	57209.71
546.50	57305.68
546.67	57673.14
546.83	57272.91
547.00	57443.77
547.17	56715.86
547.34	56161.15
547.50	56203.28
547.67	56528.62
547.84	56746.29
548.00	56786.08
548.17	57450.79
548.34	57064.60
548.51	57179.29
548.67	57233.12
548.84	57315.04
549.01	57249.50
549.18	57303.34
549.34	57308.02
549.51	57183.97
549.68	57155.88
549.84	56928.85
550.01	56842.25
550.18	56638.62
550.34	56608.20
550.51	56673.73
550.68	56898.42
550.84	56381.16
551.01	56479.47
551.18	56683.09
551.34	56849.27
551.51	57095.03
551.68	57284.61
551.84	57439.09
552.01	57282.27
552.18	56933.53
552.34	56006.68
552.51	55758.58
552.68	55917.74
552.84	56327.33
553.01	56481.81
553.18	56112.00
553.34	56575.43
553.51	56765.01
553.67	56865.66
553.84	57041.20
554.01	56865.66
554.17	56552.02
554.34	56828.21
554.51	56795.44
554.67	57181.63
554.84	56954.60
555.00	56734.59
555.17	56502.87
555.33	56570.75
555.50	56545.00
555.67	56381.16
555.83	56161.15
556.00	55845.18
556.16	56126.05
556.33	55480.06
556.50	55540.91
556.66	55444.95
556.83	55285.79
556.99	55246.00
557.16	55283.45
557.32	55994.98
557.49	55997.32
557.65	55934.12
557.82	55929.44
557.98	55863.91
558.15	55178.13
558.32	54436.18
558.48	53357.19
558.65	53848.71
558.81	54115.53
558.98	54459.58
559.14	54447.88
559.31	54693.64
559.47	54944.08
559.64	54335.54
559.80	54101.48
559.97	54274.68
560.13	54461.93
560.30	55400.48
560.46	55955.19
560.63	56306.27
560.79	56390.53
560.96	55838.16
561.12	54389.37
561.29	53951.69
561.45	53787.85
561.61	54541.50
561.78	54597.68
561.94	54820.03
562.11	54646.83
562.27	54124.89
562.44	54878.54
562.60	55105.57
562.77	55058.76
562.93	55217.92
563.10	55288.13
563.26	54415.11
563.42	54569.59
563.59	54174.04
563.75	54520.44
563.92	54710.02
564.08	54717.04
564.24	54508.74
564.41	54820.03
564.57	54333.20
564.74	54473.63
564.90	54401.07
565.07	54171.70
565.23	53923.60
565.39	53207.40
565.56	52896.11
565.72	52549.71
565.88	52966.32
566.05	52877.38
566.21	53584.22
566.38	53598.27
566.54	53724.66
566.70	53846.36
566.87	54417.46
567.03	54319.15
567.19	54405.75
567.36	54401.07
567.52	54057.01
567.68	53979.78
567.85	53375.92
568.01	52804.83
568.17	52392.89
568.34	52512.26
568.50	52219.69
568.66	52669.08
568.83	53109.10
568.99	52678.44
569.15	53104.41
569.32	53214.42
569.48	52772.06
569.64	52570.77
569.81	52765.04
569.97	52470.13
570.13	52238.42
570.30	51672.01
570.46	51231.99
570.62	50674.94
570.78	50618.77
570.95	50920.70
571.11	51662.64
571.27	52196.29
571.43	51906.06
571.60	52528.64
571.76	52463.11
571.92	53088.03
572.09	53050.58
572.25	53144.20
572.41	52573.11
572.57	52821.21
572.74	52823.55
572.90	52163.52
573.06	52575.45
573.22	52498.22
573.38	52261.82
573.55	52411.62
573.71	52708.86
573.87	52442.04
574.03	52399.91
574.20	52257.14
574.36	51854.57
574.52	51828.82
574.68	51571.36
574.84	51079.85
575.01	50679.62
575.17	50586.00
575.33	50981.55
575.49	51482.42
575.65	51276.46
575.82	50808.35
575.98	50890.27
576.14	51257.73
576.30	51519.87
576.46	51386.46
576.62	51562.00
576.79	51625.20
576.95	51185.18
577.11	50817.71
577.27	51093.89
577.43	51194.54
577.59	50632.81
577.75	50361.31
577.92	49993.84
578.08	49598.29
578.24	49429.77
578.40	49844.05
578.56	49909.58
578.72	50155.34
578.88	50663.24
579.04	50464.29
579.21	50642.17
579.37	50445.57
579.53	51030.70
579.69	50946.44
579.85	50731.11
580.01	50798.99
580.17	50108.53
580.33	50417.48
580.49	50127.25
580.65	50637.49
580.82	50637.49
580.98	50630.47
581.14	50387.05
581.30	50866.86
581.46	50429.18
581.62	50562.59
581.78	50443.23
581.94	50913.67
582.10	50852.82
582.26	50962.82
582.42	50710.05
582.58	51037.72
582.74	50621.11
582.90	50796.65
583.06	50621.11
583.22	50384.71
583.38	50836.44
583.54	50370.67
583.70	50354.29
583.86	50284.07
584.02	50270.03
584.18	50431.52
584.34	50052.36
584.50	50260.66
584.66	49911.92
584.82	49654.47
584.98	49570.21
585.14	49050.61
585.30	48083.97
