SpectraSuite Data File
++++++++++++++++++++++++++++++++++++
Date: Mon Oct 07 14:53:32 GMT-05:00 2013
User: price-jones
Dark Spectrum Present: No
Reference Spectrum Present: No
Number of Sampled Component Spectra: 1
Spectrometers: USB2+H05261
Integration Time (usec): 100000 (USB2+H05261)
Spectra Averaged: 1 (USB2+H05261)
Boxcar Smoothing: 0 (USB2+H05261)
Correct for Electrical Dark: No (USB2+H05261)
Strobe/Lamp Enabled: No (USB2+H05261)
Correct for Detector Non-linearity: No (USB2+H05261)
Correct for Stray Light: No (USB2+H05261)
Number of Pixels in Processed Spectrum: 2048
>>>>>Begin Processed Spectral Data<<<<<
365.73	0.00
365.92	0.00
366.12	0.00
366.32	0.00
366.52	0.00
366.72	0.00
366.91	0.00
367.11	0.00
367.31	0.00
367.51	0.00
367.70	0.00
367.90	0.00
368.10	0.00
368.30	0.00
368.49	0.00
368.69	0.00
368.89	0.00
369.09	0.00
369.28	0.00
369.48	0.00
369.68	0.00
369.87	0.00
370.07	0.00
370.27	0.00
370.47	557.05
370.66	2775.88
370.86	3496.76
371.06	3801.03
371.25	3925.08
371.45	3531.87
371.65	3115.25
371.84	2932.69
372.04	2942.05
372.24	3419.52
372.44	3602.08
372.63	3412.50
372.83	3265.05
373.03	2871.84
373.22	2661.19
373.42	2754.81
373.62	3318.88
373.81	3485.06
374.01	3461.65
374.21	3272.07
374.40	2937.37
374.60	3129.30
374.79	3529.53
374.99	3999.98
375.19	4362.76
375.38	4322.97
375.58	4042.11
375.78	3925.08
375.97	4014.02
376.17	4271.48
376.37	4182.54
376.56	4463.40
376.76	4512.55
376.95	4835.55
377.15	5170.24
377.35	5296.63
377.54	5621.97
377.74	5781.12
377.93	5846.66
378.13	5570.48
378.33	5369.19
378.52	4924.49
378.72	4809.80
378.91	4685.75
379.11	4568.73
379.31	4435.32
379.50	4411.91
379.70	4791.08
379.89	5284.93
380.09	5369.19
380.28	5785.80
380.48	5582.18
380.68	5720.27
380.87	5554.09
381.07	5174.92
381.26	4720.86
381.46	4264.46
381.65	4308.93
381.85	4273.82
382.04	4014.02
382.24	3686.34
382.43	3667.62
382.63	3412.50
382.83	3517.83
383.02	3421.86
383.22	3454.63
383.41	3466.33
383.61	3669.96
383.80	4297.22
384.00	4823.84
384.19	5336.42
384.39	5654.73
384.58	5774.10
384.78	5427.70
384.97	5371.53
385.17	5221.74
385.36	4924.49
385.56	4828.53
385.75	4931.51
385.95	5327.06
386.14	5928.58
386.34	5699.20
386.53	5589.20
386.72	5345.78
386.92	5256.84
387.11	5462.81
387.31	5994.11
387.50	5621.97
387.70	5624.31
387.89	5355.15
388.09	5593.88
388.28	5551.75
388.48	5596.22
388.67	6139.23
388.86	6668.19
389.06	7091.82
389.25	7585.68
389.45	7719.09
389.64	7796.32
389.84	7578.65
390.03	7274.38
390.22	7360.98
390.42	7639.51
390.61	8196.56
390.81	8676.37
391.00	8931.48
391.19	8713.81
391.39	8423.59
391.58	7782.28
391.78	7482.69
391.97	7246.30
392.16	6841.39
392.36	6289.02
392.55	5067.26
392.75	3936.78
392.94	3243.98
393.13	3227.60
393.33	3826.78
393.52	4788.74
393.71	5900.49
393.91	6707.98
394.10	7241.62
394.29	7878.24
394.49	8479.76
394.68	9343.42
394.88	9081.28
395.07	9638.33
395.26	9423.00
395.46	9378.53
395.65	8718.50
395.84	7730.79
396.04	6422.43
396.23	5238.12
396.42	4564.04
396.62	4217.65
396.81	5001.72
397.00	6363.92
397.19	7758.88
397.39	9233.41
397.58	10321.76
397.77	11232.23
397.97	11571.61
398.16	11676.93
398.35	12215.26
398.55	12566.34
398.74	12851.88
398.93	13193.60
399.12	12922.10
399.32	12451.65
399.51	12901.03
399.70	13401.91
399.90	13427.65
400.09	13675.75
400.28	13193.60
400.47	13397.23
400.67	14312.38
400.86	14672.82
401.05	14602.60
401.24	14834.32
401.44	14647.07
401.63	14747.72
401.82	15101.14
402.01	14946.66
402.21	15166.67
402.40	15080.07
402.59	14466.85
402.78	14052.58
402.97	13631.28
403.17	14394.29
403.36	15101.14
403.55	15669.89
403.74	15955.43
403.93	15190.08
404.13	14150.88
404.32	13820.86
404.51	14291.31
404.70	15557.54
404.89	15494.35
405.09	15337.53
405.28	14668.14
405.47	14782.82
405.66	14698.56
405.85	14513.66
406.05	13975.34
406.24	14242.16
406.43	14904.53
406.62	15473.28
406.81	15365.62
407.00	14775.80
407.20	14487.92
407.39	14527.71
407.58	15398.38
407.77	15857.13
407.96	16208.21
408.15	16912.71
408.34	16699.72
408.54	17366.78
408.73	17628.92
408.92	17245.07
409.11	16835.47
409.30	16091.18
409.49	15044.96
409.68	14054.92
409.87	13682.77
410.07	14628.35
410.26	15517.75
410.45	16552.27
410.64	17057.82
410.83	17364.43
411.02	17872.33
411.21	18501.93
411.40	18267.88
411.59	18497.25
411.78	18361.50
411.98	18111.07
412.17	18710.24
412.36	17820.84
412.55	18405.97
412.74	17902.76
412.93	17357.41
413.12	17589.13
413.31	19040.26
413.50	19440.49
413.69	19681.56
413.88	19332.82
414.07	18518.32
414.26	18831.95
414.45	19311.76
414.64	19470.92
414.83	19555.18
415.02	18953.66
415.22	19063.66
415.41	19616.03
415.60	20133.29
415.79	20819.07
415.98	21228.66
416.17	21427.60
416.36	21060.14
416.55	20533.52
416.74	19934.34
416.93	19246.23
417.12	19309.42
417.31	19360.91
417.50	19564.54
417.69	20554.58
417.88	20599.05
418.07	20369.68
418.26	19627.73
418.45	20091.16
418.64	20615.44
418.83	21607.83
419.02	21397.18
419.21	21364.41
419.39	20091.16
419.58	19365.59
419.77	19183.03
419.96	20053.71
420.15	21156.10
420.34	22143.81
420.53	22991.08
420.72	23239.18
420.91	23021.51
421.10	22511.27
421.29	22188.28
421.48	21291.85
421.67	22611.92
421.86	21961.25
422.05	20580.33
422.24	18579.17
422.43	18312.35
422.61	20039.67
422.80	21954.22
422.99	22017.42
423.18	21081.21
423.37	20711.40
423.56	20725.44
423.75	21245.04
423.94	21511.86
424.13	20397.77
424.32	20613.10
424.50	20690.34
424.69	20133.29
424.88	20636.50
425.07	20203.50
425.26	20341.60
425.45	20025.62
425.64	19768.16
425.83	19555.18
426.01	21003.97
426.20	21247.38
426.39	21369.09
426.58	19700.29
426.77	18389.59
426.96	17603.17
427.15	18120.43
427.33	19875.83
427.52	20561.61
427.71	20446.92
427.90	20540.54
428.09	20315.85
428.28	19903.92
428.46	19281.33
428.65	18857.70
428.84	19466.24
429.03	19569.22
429.22	18551.09
429.40	17692.11
429.59	15939.05
429.78	14214.07
429.97	14214.07
430.16	14277.27
430.34	14518.34
430.53	14370.89
430.72	14630.69
430.91	16233.96
431.10	19066.00
431.28	22370.84
431.47	24376.68
431.66	24657.54
431.85	22471.48
432.03	21013.33
432.22	19667.52
432.41	20325.21
432.60	22721.92
432.79	23536.43
432.97	24364.98
433.16	23740.05
433.35	21654.64
433.54	19632.41
433.72	18305.33
433.91	18904.51
434.10	21160.78
434.28	22324.03
434.47	23644.09
434.66	23564.51
434.85	22583.83
435.03	22544.04
435.22	23227.48
435.41	24907.98
435.59	24383.70
435.78	25200.55
435.97	25865.26
436.16	25905.05
436.34	25479.07
436.53	25046.07
436.72	24980.54
436.90	23721.33
437.09	23721.33
437.28	23049.60
437.46	24159.01
437.65	23953.04
437.84	22422.33
438.02	20725.44
438.21	20416.49
438.40	21579.74
438.58	23541.11
438.77	23718.99
438.96	24292.42
439.14	25326.94
439.33	26017.40
439.52	26324.01
439.70	25268.42
439.89	24971.18
440.08	24067.73
440.26	24154.33
440.45	25179.48
440.63	26417.63
440.82	28353.25
441.01	27873.44
441.19	27302.35
441.38	28088.77
441.57	29151.37
441.75	29682.67
441.94	29364.36
442.12	29146.69
442.31	29830.13
442.50	29907.37
442.68	29490.75
442.87	29219.25
443.05	28388.36
443.24	29256.70
443.43	29584.37
443.61	30242.06
443.80	30635.27
443.98	29039.03
444.17	28980.51
444.35	30588.46
444.54	31028.48
444.73	30714.85
444.91	29123.29
445.10	28151.96
445.28	26986.38
445.47	26707.85
445.65	27325.75
445.84	27580.87
446.02	28561.56
446.21	29003.92
446.39	28980.51
446.58	29500.11
446.77	30115.67
446.95	30148.44
447.14	31047.21
447.32	31779.79
447.51	30799.11
447.69	30019.71
447.88	29270.74
448.06	29647.57
448.25	30679.74
448.43	30384.83
448.62	30010.35
448.80	29675.65
448.99	30054.82
449.17	30235.04
449.36	29979.92
449.54	31426.37
449.73	31945.97
449.91	32552.17
450.10	33366.68
450.28	33640.52
450.46	33223.90
450.65	33259.01
450.83	33254.33
451.02	32243.22
451.20	32608.34
451.39	32339.18
451.57	32011.51
451.76	32189.39
451.94	31819.58
452.13	31180.62
452.31	30092.27
452.49	28638.80
452.68	28603.69
452.86	29057.75
453.05	29465.00
453.23	30424.62
453.42	30827.20
453.60	32004.49
453.78	32063.00
453.97	31693.19
454.15	31641.70
454.34	30855.28
454.52	31288.28
454.70	30728.89
454.89	30953.58
455.07	31096.36
455.26	31185.30
455.44	32327.48
455.62	33085.81
455.81	33188.80
455.99	33015.60
456.17	32521.74
456.36	32694.94
456.54	33378.38
456.73	33769.25
456.91	34176.50
457.09	34258.42
457.28	34866.96
457.46	34167.14
457.64	33612.43
457.83	32561.53
458.01	31772.77
458.19	32294.71
458.38	33008.58
458.56	33876.91
458.74	33347.95
458.93	33394.76
459.11	33064.75
459.29	32858.78
459.48	32950.06
459.66	32521.74
459.84	33134.96
460.03	33048.36
460.21	33764.57
460.39	34073.52
460.57	34419.92
460.76	34387.15
460.94	34738.23
461.12	34492.47
461.31	34356.72
461.49	34656.31
461.67	34574.39
461.85	35810.20
462.04	35290.60
462.22	35737.64
462.40	35433.37
462.59	34696.10
462.77	35391.24
462.95	35370.18
463.13	34866.96
463.32	34918.45
463.50	34581.42
463.68	34363.75
463.86	34197.57
464.05	33741.16
464.23	32994.53
464.41	33317.53
464.59	32418.76
464.78	34330.98
464.96	33996.28
465.14	33738.82
465.32	34553.33
465.50	35470.82
465.69	35435.71
465.87	34955.90
466.05	34024.37
466.23	32369.61
466.41	31730.64
466.60	32512.38
466.78	32741.75
466.96	33039.00
467.14	33813.72
467.32	34405.88
467.51	34712.49
467.69	32783.88
467.87	33188.80
468.05	33923.72
468.23	34096.92
468.41	34216.29
468.60	34466.73
468.78	34342.68
468.96	34096.92
469.14	34642.27
469.32	35005.05
469.50	33778.61
469.69	33734.14
469.87	33202.84
470.05	33202.84
470.23	33268.37
470.41	33200.50
470.59	33530.51
470.77	33769.25
470.95	34698.44
471.14	34815.47
471.32	34848.24
471.50	36659.81
471.68	37352.61
471.86	37450.91
472.04	36935.99
472.22	37589.00
472.40	35934.24
472.58	35873.39
472.77	34876.32
472.95	36086.38
473.13	36779.18
473.31	35545.72
473.49	35686.15
473.67	36882.16
473.85	37191.11
474.03	38178.82
474.21	37867.53
474.39	38335.63
474.57	38436.28
474.75	38401.17
474.93	37890.93
475.12	37467.30
475.30	37371.33
475.48	37200.47
475.66	37809.01
475.84	37598.37
476.02	37195.79
476.20	36456.18
476.38	36999.19
476.56	38363.72
476.74	39098.65
476.92	39435.69
477.10	39838.26
477.28	41163.00
477.46	40844.69
477.64	41429.82
477.82	41230.88
478.00	41900.27
478.18	40931.29
478.36	40655.11
478.54	40910.22
478.72	40715.96
478.90	41797.29
479.08	43227.35
479.26	43592.48
479.44	43185.22
479.62	43241.40
479.80	43250.76
479.98	43693.12
480.16	43714.19
480.34	43276.51
480.52	43756.32
480.70	44236.12
480.88	44236.12
481.06	44863.39
481.24	45359.58
481.41	45942.38
481.59	46639.86
481.77	46632.83
481.95	45476.61
482.13	45322.13
482.31	45832.37
482.49	46466.66
482.67	46017.27
482.85	46808.37
483.03	46836.46
483.21	47531.60
483.39	46841.14
483.57	46483.04
483.74	46190.47
483.92	46564.96
484.10	46527.51
484.28	47538.62
484.46	48062.90
484.64	48413.98
484.82	47587.77
485.00	46784.97
485.18	46389.42
485.35	45282.34
485.53	41698.98
485.71	38934.81
485.89	37970.51
486.07	39475.48
486.25	43145.44
486.43	45296.39
486.61	46106.21
486.78	46213.88
486.96	45961.10
487.14	48170.57
487.32	48399.94
487.50	49696.59
487.68	50665.58
487.85	50857.50
488.03	51042.40
488.21	50604.72
488.39	49724.68
488.57	49214.44
488.75	48893.79
488.92	50031.29
489.10	52161.18
489.28	53659.12
489.46	54145.95
489.64	53778.49
489.81	54035.95
489.99	53815.94
490.17	53708.27
490.35	54115.53
490.53	53815.94
490.70	53279.96
490.88	52994.41
491.06	54302.77
491.24	54218.51
491.41	53153.57
491.59	51749.24
491.77	50845.80
491.95	51920.10
492.13	53081.01
492.30	54206.81
492.48	54948.76
492.66	55578.36
492.84	55826.46
493.01	55306.86
493.19	54658.53
493.37	54511.08
493.54	54375.33
493.72	54726.41
493.90	55674.32
494.08	56374.14
494.25	56793.10
494.43	56832.89
494.61	57326.74
494.79	57600.58
494.96	57261.21
495.14	56687.78
495.32	55760.92
495.49	55302.18
495.67	55980.93
495.85	57254.18
496.02	57825.28
496.20	57733.99
496.38	57134.82
496.55	57050.56
496.73	57530.37
496.91	57600.58
497.09	58204.44
497.26	58358.92
497.44	57839.32
497.62	57659.10
497.79	56816.50
497.97	55379.42
498.14	55679.00
498.32	56765.01
498.50	57591.22
498.67	58068.69
498.85	58007.84
499.03	57949.32
499.20	58286.36
499.38	58253.59
499.56	58082.73
499.73	57584.20
499.91	57495.26
500.08	57059.92
500.26	56182.22
500.44	56570.75
500.61	57366.53
500.79	57144.18
500.97	56907.79
501.14	56624.58
501.32	56528.62
501.49	56224.35
501.67	56584.79
501.84	57127.80
502.02	57462.49
502.20	57935.28
502.37	57951.66
502.55	57921.24
502.72	58499.35
502.90	58824.68
503.07	58630.42
503.25	58368.28
503.43	57495.26
503.60	56753.31
503.78	56163.50
503.95	56619.90
504.13	58080.39
504.30	58719.36
504.48	58656.17
504.65	58459.56
504.83	58174.02
505.01	58974.48
505.18	59297.47
505.36	59742.17
505.53	59599.40
505.71	59786.64
505.88	60107.30
506.06	59325.56
506.23	58967.46
506.41	58791.92
506.58	58798.94
506.76	59168.74
506.93	59161.72
507.11	58653.82
507.28	58901.92
507.46	58419.77
507.63	57839.32
507.81	57752.72
507.98	57904.85
508.16	58693.61
508.33	59075.12
508.50	59545.57
508.68	59700.04
508.85	60137.72
509.03	60088.57
509.20	59999.63
509.38	59374.71
509.55	58553.18
509.73	58585.95
509.90	59187.47
510.08	59536.21
510.25	59271.73
510.42	59084.48
510.60	59131.29
510.77	59503.44
510.95	59821.75
511.12	59943.46
511.30	60355.39
511.47	60481.78
511.64	60446.68
511.82	60065.17
511.99	59456.63
512.17	59056.40
512.34	58782.55
512.51	58848.09
512.69	58946.39
512.86	59007.25
513.04	59503.44
513.21	59391.09
513.38	59121.93
513.56	58742.77
513.73	57996.13
513.90	58567.23
514.08	58438.50
514.25	58649.14
514.43	58843.41
514.60	59112.57
514.77	59049.38
514.95	59206.19
515.12	59185.13
515.29	59290.45
515.47	59756.22
515.64	59779.62
515.81	59803.03
515.99	58993.20
516.16	57867.40
516.33	55573.68
516.51	54319.15
516.68	53506.99
516.85	52720.57
517.03	53607.63
517.20	55934.12
517.37	58333.17
517.54	59199.17
517.72	58848.09
517.89	56374.14
518.06	54057.01
518.24	54363.62
518.41	56446.70
518.58	57748.04
518.75	58138.91
518.93	58108.48
519.10	58033.58
519.27	58368.28
519.45	58632.76
519.62	59337.26
519.79	59941.12
519.96	59496.42
520.14	59253.00
520.31	58457.22
520.48	58351.90
520.65	58665.53
520.83	59465.99
521.00	59920.05
521.17	59613.44
521.34	59016.61
521.52	59339.60
521.69	59941.12
521.86	60341.35
522.03	60196.24
522.20	59040.01
522.38	58122.52
522.55	57797.19
522.72	58459.56
522.89	58777.87
523.07	58904.26
523.24	58946.39
523.41	60095.60
523.58	60163.47
523.75	60865.63
523.92	60437.31
524.10	60486.46
524.27	60549.66
524.44	60306.24
524.61	59973.89
524.78	59807.71
524.96	59891.97
525.13	60126.02
525.30	60041.76
525.47	60706.47
525.64	60498.17
525.81	59884.95
525.98	58485.31
526.16	57261.21
526.33	56535.64
526.50	56322.65
526.67	55828.80
526.84	56292.22
527.01	57209.71
527.18	58113.16
527.36	58955.75
527.53	59920.05
527.70	59983.25
527.87	59405.14
528.04	59103.21
528.21	59587.70
528.38	60151.77
528.55	60694.77
528.72	60961.59
528.89	61015.43
529.07	60963.93
529.24	60376.46
529.41	59730.47
529.58	59056.40
529.75	59182.79
529.92	59433.22
530.09	59941.12
530.26	60430.29
530.43	60783.71
530.60	60786.05
530.77	60963.93
530.94	60933.51
531.11	60605.83
531.28	60200.92
531.46	59929.42
531.63	59990.27
531.80	60109.64
531.97	59690.68
532.14	59014.27
532.31	57977.41
532.48	57382.91
532.65	57764.42
532.82	58094.44
532.99	59440.24
533.16	59545.57
533.33	60126.02
533.50	59941.12
533.67	59463.65
533.84	58866.81
534.01	59051.72
534.18	59306.83
534.35	59671.96
534.52	59341.94
534.69	59877.93
534.86	59859.20
535.03	60334.33
535.20	60662.00
535.37	60947.55
535.54	61069.26
535.71	60701.79
535.88	60430.29
536.05	59849.84
536.22	59400.46
536.38	59178.10
536.55	58749.79
536.72	58246.57
536.89	57972.73
537.06	58979.16
537.23	59709.41
537.40	59873.24
537.57	59990.27
537.74	59721.11
537.91	59636.85
538.08	59777.28
538.25	59805.37
538.42	59866.22
538.59	59868.56
538.75	59021.29
538.92	59121.93
539.09	58845.75
539.26	58733.40
539.43	58492.33
539.60	58314.45
539.77	58735.74
539.94	58672.55
540.11	57724.63
540.28	57308.02
540.44	57497.60
540.61	57703.57
540.78	57626.33
540.95	58365.94
541.12	58614.04
541.29	58695.95
541.46	59227.26
541.62	59147.68
541.79	59241.30
541.96	58391.68
542.13	58637.44
542.30	58726.38
542.47	58969.80
542.63	58810.64
542.80	58717.02
542.97	58707.66
543.14	58541.48
543.31	58389.34
543.48	59000.22
543.64	59784.30
543.81	60058.15
543.98	59810.05
544.15	59154.70
544.32	58656.17
544.48	58782.55
544.65	59210.87
544.82	59683.66
544.99	59159.38
545.16	58986.18
545.32	58632.76
545.49	59248.32
545.66	59683.66
545.83	59496.42
546.00	58890.22
546.16	58623.40
546.33	58635.10
546.50	58677.23
546.67	59288.11
546.83	58508.71
547.00	58688.93
547.17	58157.63
547.34	57687.18
547.50	57602.92
547.67	57935.28
547.84	58075.71
548.00	58504.03
548.17	59021.29
548.34	58885.54
548.51	58855.11
548.67	58642.12
548.84	58887.88
549.01	58897.24
549.18	58686.59
549.34	58810.64
549.51	58674.89
549.68	58681.91
549.84	58370.62
550.01	58202.10
550.18	58302.74
550.34	58204.44
550.51	58372.96
550.68	58504.03
550.84	57900.17
551.01	57932.94
551.18	58017.20
551.34	58288.70
551.51	58494.67
551.68	58838.73
551.84	58988.52
552.01	58599.99
552.18	58670.21
552.34	57577.18
552.51	57368.87
552.68	57317.38
552.84	57827.62
553.01	57989.11
553.18	58049.97
553.34	58183.38
553.51	58227.85
553.67	58351.90
553.84	58415.09
554.01	58293.38
554.17	58127.20
554.34	58253.59
554.51	58539.14
554.67	58686.59
554.84	58546.16
555.00	58087.42
555.17	57909.53
555.33	58113.16
555.50	57876.77
555.67	58113.16
555.83	57661.44
556.00	57628.67
556.16	57542.07
556.33	57038.86
556.50	57048.22
556.66	57169.93
556.83	56903.10
556.99	57036.51
557.16	56935.87
557.32	57418.02
557.49	57556.11
557.65	57228.44
557.82	57448.45
557.98	57324.40
558.15	56788.42
558.32	56130.73
558.48	55407.50
558.65	55456.65
558.81	55835.82
558.98	56186.90
559.14	56135.41
559.31	56339.04
559.47	56413.93
559.64	56067.53
559.80	55805.39
559.97	55924.76
560.13	56210.31
560.30	57088.01
560.46	57502.28
560.63	57907.19
560.79	57701.23
560.96	57359.51
561.12	56350.74
561.29	55561.98
561.45	55686.03
561.61	55962.21
561.78	56285.20
561.94	56200.94
562.11	56575.43
562.27	56149.45
562.44	56601.18
562.60	56769.69
562.77	57120.77
562.93	56856.29
563.10	56956.94
563.26	56142.43
563.42	56409.25
563.59	55810.07
563.75	56229.03
563.92	56067.53
564.08	56207.97
564.24	56226.69
564.41	56200.94
564.57	56236.05
564.74	56095.62
564.90	56252.44
565.07	55948.17
565.23	55444.95
565.39	54976.84
565.56	54759.17
565.72	54450.22
565.88	55035.36
566.05	54887.90
566.21	55372.39
566.38	55440.27
566.54	55461.33
566.70	55742.20
566.87	56013.70
567.03	55852.20
567.19	56261.80
567.36	55938.80
567.52	55842.84
567.68	55566.66
567.85	54923.01
568.01	54670.23
568.17	54499.37
568.34	54518.10
568.50	54131.91
568.66	54300.43
568.83	54665.55
568.99	54824.71
569.15	55072.81
569.32	54883.22
569.48	54623.42
569.64	54642.15
569.81	53984.46
569.97	53881.47
570.13	54415.11
570.30	53577.20
570.46	53109.10
570.62	52451.41
570.78	52559.07
570.95	52849.30
571.11	53759.76
571.27	53649.76
571.43	54026.59
571.60	54241.92
571.76	54429.16
571.92	54740.45
572.09	54925.35
572.25	55234.30
572.41	54789.60
572.57	54658.53
572.74	54892.58
572.90	54295.75
573.06	54010.20
573.22	54351.92
573.38	54192.76
573.55	54209.15
573.71	54138.93
573.87	54403.41
574.03	54122.55
574.20	53888.49
574.36	53635.72
574.52	53609.97
574.68	53521.03
574.84	53052.92
575.01	52540.35
575.17	52643.33
575.33	52811.85
575.49	53172.29
575.65	53574.86
575.82	52889.09
575.98	52823.55
576.14	53066.97
576.30	53443.79
576.46	53460.18
576.62	53331.45
576.79	53558.48
576.95	52809.51
577.11	52776.74
577.27	53132.50
577.43	53207.40
577.59	52809.51
577.75	52310.97
577.92	51519.87
578.08	51480.08
578.24	51398.16
578.40	52119.05
578.56	52198.63
578.72	52147.14
578.88	52561.41
579.04	52435.02
579.21	52708.86
579.37	52928.87
579.53	52736.95
579.69	52802.49
579.85	53031.86
580.01	52622.26
580.17	52215.01
580.33	52074.58
580.49	52158.84
580.65	52570.77
580.82	52861.00
580.98	52767.38
581.14	52559.07
581.30	52704.18
581.46	52552.05
581.62	52671.42
581.78	52622.26
581.94	52987.39
582.10	52814.19
582.26	52884.40
582.42	52938.24
582.58	52790.78
582.74	53027.18
582.90	52912.49
583.06	52828.23
583.22	52736.95
583.38	52636.31
583.54	52240.76
583.70	52409.28
583.86	52388.21
584.02	52392.89
584.18	52582.48
584.34	52296.93
584.50	52037.13
584.66	51927.13
584.82	51367.74
584.98	51683.71
585.14	51454.34
585.30	50677.28
