SpectraSuite Data File
++++++++++++++++++++++++++++++++++++
Date: Mon Oct 07 14:55:00 GMT-05:00 2013
User: price-jones
Dark Spectrum Present: No
Reference Spectrum Present: No
Number of Sampled Component Spectra: 1
Spectrometers: USB2+H05261
Integration Time (usec): 10000 (USB2+H05261)
Spectra Averaged: 1 (USB2+H05261)
Boxcar Smoothing: 0 (USB2+H05261)
Correct for Electrical Dark: No (USB2+H05261)
Strobe/Lamp Enabled: No (USB2+H05261)
Correct for Detector Non-linearity: No (USB2+H05261)
Correct for Stray Light: No (USB2+H05261)
Number of Pixels in Processed Spectrum: 2048
>>>>>Begin Processed Spectral Data<<<<<
365.73	0.00
365.92	0.00
366.12	0.00
366.32	0.00
366.52	0.00
366.72	0.00
366.91	0.00
367.11	0.00
367.31	0.00
367.51	0.00
367.70	0.00
367.90	0.00
368.10	0.00
368.30	0.00
368.49	0.00
368.69	0.00
368.89	0.00
369.09	0.00
369.28	0.00
369.48	0.00
369.68	0.00
369.87	0.00
370.07	0.00
370.27	0.00
370.47	381.51
370.66	2235.21
370.86	2656.51
371.06	2876.52
371.25	2850.77
371.45	2525.44
371.65	2211.81
371.84	2223.51
372.04	2413.09
372.24	2633.10
372.44	2766.51
372.63	2626.08
372.83	2354.58
373.03	2036.27
373.22	2008.18
373.42	2202.44
373.62	2600.34
373.81	2693.96
374.01	2672.89
374.21	2335.85
374.40	2125.21
374.60	2307.77
374.79	2698.64
374.99	3178.45
375.19	3353.99
375.38	3243.98
375.58	3178.45
375.78	3141.00
375.97	2988.86
376.17	3304.84
376.37	3300.16
376.56	3463.99
376.76	3646.55
376.95	3878.27
377.15	4098.28
377.35	4217.65
377.54	4381.48
377.74	4402.55
377.93	4629.58
378.13	4348.72
378.33	3997.64
378.52	3669.96
378.72	3667.62
378.91	3574.00
379.11	3471.01
379.31	3426.54
379.50	3426.54
379.70	3644.21
379.89	4227.01
380.09	4318.29
380.28	4545.32
380.48	4416.59
380.68	4318.29
380.87	4276.16
381.07	3880.61
381.26	3520.17
381.46	3363.35
381.65	3283.77
381.85	3332.92
382.04	2928.01
382.24	2717.36
382.43	2656.51
382.63	2628.42
382.83	2656.51
383.02	2616.72
383.22	2663.53
383.41	2825.03
383.61	2974.82
383.80	3461.65
384.00	3948.48
384.19	4322.97
384.39	4395.53
384.58	4334.67
384.78	4266.80
384.97	4355.74
385.17	4168.49
385.36	3779.97
385.56	3716.77
385.75	3920.40
385.95	4432.97
386.14	4526.60
386.34	4564.04
386.53	4402.55
386.72	4250.41
386.92	4299.56
387.11	4362.76
387.31	4489.15
387.50	4596.81
387.70	4327.65
387.89	4435.32
388.09	4475.10
388.28	4423.61
388.48	4367.44
388.67	4858.95
388.86	5369.19
389.06	5584.52
389.25	5909.85
389.45	6010.50
389.64	6069.01
389.84	5832.62
390.03	5949.64
390.22	6008.16
390.42	6310.08
390.61	6642.44
390.81	7119.91
391.00	7183.10
391.19	7129.27
391.39	6775.85
391.58	6176.67
391.78	5916.87
391.97	5909.85
392.16	5483.88
392.36	4732.56
392.55	3705.07
392.75	2928.01
392.94	2424.80
393.13	2647.15
393.33	3218.24
393.52	4091.26
393.71	4898.74
393.91	5469.83
394.10	6040.92
394.29	6677.55
394.49	7119.91
394.68	7597.38
394.88	7403.11
395.07	7768.24
395.26	7627.81
395.46	7414.82
395.65	6843.73
395.84	5949.64
396.04	4847.25
396.23	3962.53
396.42	3363.35
396.62	3438.25
396.81	4248.07
397.00	5542.39
397.19	6719.68
397.39	7805.69
397.58	8812.12
397.77	9179.58
397.97	9741.31
398.16	9633.64
398.35	10005.79
398.55	10335.81
398.74	10532.41
398.93	10700.93
399.12	10553.48
399.32	10431.77
399.51	10717.31
399.70	11470.97
399.90	10925.62
400.09	11124.57
400.28	11044.99
400.47	11171.38
400.67	11749.49
400.86	12177.81
401.05	11817.36
401.24	11948.43
401.44	12049.08
401.63	12535.91
401.82	12264.41
402.01	12264.41
402.21	12573.36
402.40	12320.58
402.59	11882.90
402.78	11595.01
402.97	11475.65
403.17	12013.97
403.36	12657.62
403.55	12861.24
403.74	13209.98
403.93	12292.49
404.13	11470.97
404.32	11522.46
404.51	12262.07
404.70	13132.75
404.89	12837.84
405.09	12613.15
405.28	12098.23
405.47	12500.80
405.66	12325.26
405.85	11817.36
406.05	11571.61
406.24	11810.34
406.43	12226.96
406.62	12954.87
406.81	12954.87
407.00	12519.53
407.20	12133.34
407.39	12107.59
407.58	13074.23
407.77	13497.87
407.96	13942.57
408.15	13994.06
408.34	14043.21
408.54	14796.87
408.73	14352.16
408.92	14185.99
409.11	13930.87
409.30	12940.82
409.49	12271.43
409.68	11492.03
409.87	11714.38
410.07	12587.40
410.26	13282.54
410.45	13905.12
410.64	14415.36
410.83	14773.46
411.02	15094.11
411.21	15690.95
411.40	15391.36
411.59	15915.64
411.78	15594.99
411.98	15260.29
412.17	15719.04
412.36	15279.02
412.55	15126.88
412.74	14883.47
412.93	14827.29
413.12	15051.99
413.31	16641.21
413.50	16655.25
413.69	16610.78
413.88	15644.14
414.07	15660.52
414.26	16147.36
414.45	16542.91
414.64	16554.61
414.83	16212.89
415.02	16042.03
415.22	16095.86
415.41	16739.51
415.60	17160.81
415.79	17806.80
415.98	18370.86
416.17	18090.00
416.36	17806.80
416.55	17678.07
416.74	16854.20
416.93	16334.60
417.12	16446.94
417.31	17006.33
417.50	16889.31
417.69	17619.55
417.88	17617.21
418.07	17652.32
418.26	17071.87
418.45	17233.36
418.64	17664.02
418.83	18485.55
419.02	18279.58
419.21	17895.74
419.39	17025.06
419.58	16510.14
419.77	16533.54
419.96	17736.58
420.15	18663.43
420.34	18890.46
420.53	19655.82
420.72	19573.90
420.91	19660.50
421.10	19091.75
421.29	19131.54
421.48	18441.08
421.67	19740.08
421.86	19070.68
422.05	17289.54
422.24	15543.50
422.43	16042.03
422.61	17657.00
422.80	18972.38
422.99	18752.37
423.18	17764.67
423.37	17802.11
423.56	18132.13
423.75	18310.01
423.94	18719.60
424.13	17823.18
424.32	17685.09
424.50	18178.94
424.69	18202.35
424.88	17668.70
425.07	17664.02
425.26	17607.85
425.45	17216.98
425.64	17209.96
425.83	17420.61
426.01	18176.60
426.20	18909.19
426.39	18181.28
426.58	16699.72
426.77	15903.94
426.96	15679.25
427.15	16292.47
427.33	17738.92
427.52	17790.41
427.71	18181.28
427.90	18050.21
428.09	17720.20
428.28	17277.83
428.46	16453.97
428.65	16615.46
428.84	17188.89
429.03	16762.92
429.22	16039.69
429.40	14979.43
429.59	13483.83
429.78	12070.14
429.97	12606.13
430.16	12369.73
430.34	12430.59
430.53	12734.85
430.72	13394.89
430.91	15082.41
431.10	18113.41
431.28	20266.70
431.47	21664.00
431.66	21186.53
431.85	19049.62
432.03	17874.67
432.22	17338.69
432.41	19044.94
432.60	20697.36
432.79	21132.70
432.97	21137.38
433.16	20552.24
433.35	18604.92
433.54	16910.37
433.72	16032.67
433.91	16910.37
434.10	19527.09
434.28	20339.26
434.47	21055.46
434.66	20652.89
434.85	20079.46
435.03	20369.68
435.22	21071.84
435.41	22008.06
435.59	21902.73
435.78	22286.58
435.97	22843.63
436.16	22787.46
436.34	22654.05
436.53	21865.28
436.72	21954.22
436.90	21123.33
437.09	21036.74
437.28	20695.02
437.46	21621.87
437.65	21212.28
437.84	19328.14
438.02	18181.28
438.21	18469.17
438.40	19311.76
438.58	20580.33
438.77	21099.93
438.96	21832.52
439.14	22661.07
439.33	23239.18
439.52	23522.38
439.70	22363.82
439.89	22267.86
440.08	21619.53
440.26	22045.51
440.45	22429.35
440.63	24685.63
440.82	25514.18
441.01	24776.91
441.19	24500.73
441.38	25116.29
441.57	25996.33
441.75	26026.76
441.94	26941.91
442.12	26263.15
442.31	27370.22
442.50	27414.69
442.68	26691.47
442.87	26127.40
443.05	25898.03
443.24	26742.96
443.43	26314.64
443.61	26923.18
443.80	26820.20
443.98	26532.31
444.17	26185.91
444.35	27491.93
444.54	28278.35
444.73	27648.75
444.91	26419.97
445.10	25743.55
445.28	24521.79
445.47	24102.84
445.65	24430.51
445.84	25502.48
446.02	26192.94
446.21	26342.73
446.39	26108.68
446.58	26480.82
446.77	27854.72
446.95	27662.79
447.14	28404.74
447.32	29474.37
447.51	27906.21
447.69	27075.32
447.88	27199.37
448.06	27899.19
448.25	28229.20
448.43	27831.31
448.62	27653.43
448.80	27384.27
448.99	27456.82
449.17	28121.54
449.36	28203.46
449.54	28804.97
449.73	29163.08
449.91	29795.02
450.10	30623.57
450.28	30756.98
450.46	30579.10
450.65	30483.14
450.83	30143.76
451.02	29799.70
451.20	29638.20
451.39	29401.81
451.57	29479.05
451.76	29301.17
451.94	28718.37
452.13	27955.36
452.31	26246.77
452.49	25408.86
452.68	26593.17
452.86	26066.55
453.05	26808.50
453.23	28032.60
453.42	28711.35
453.60	29308.19
453.78	29579.69
453.97	29177.12
454.15	28985.19
454.34	28409.42
454.52	28114.52
454.70	27599.60
454.89	27955.36
455.07	28570.92
455.26	28851.78
455.44	30204.61
455.62	30576.76
455.81	30522.93
455.99	29830.13
456.17	30267.81
456.36	30396.54
456.54	31091.68
456.73	30988.69
456.91	31395.95
457.09	31747.03
457.28	33041.34
457.46	30890.39
457.64	30398.88
457.83	29457.98
458.01	29032.00
458.19	30340.36
458.38	30356.75
458.56	31101.04
458.74	31323.39
458.93	30211.64
459.11	30331.00
459.29	30078.22
459.48	30239.72
459.66	30010.35
459.84	30590.80
460.03	31241.47
460.21	31094.02
460.39	31950.65
460.57	31793.84
460.76	31868.73
460.94	31978.74
461.12	32044.27
461.31	31786.82
461.49	31854.69
461.67	32606.00
461.85	32730.05
462.04	32568.55
462.22	32828.35
462.40	32900.91
462.59	32261.94
462.77	32924.32
462.95	32697.28
463.13	32290.03
463.32	32222.16
463.50	32236.20
463.68	32018.53
463.86	31931.93
464.05	32032.57
464.23	30771.02
464.41	30679.74
464.59	30827.20
464.78	32222.16
464.96	31917.89
465.14	31119.76
465.32	32245.56
465.50	33221.56
465.69	33315.19
465.87	32198.75
466.05	31388.92
466.23	29493.09
466.41	29448.62
466.60	30333.34
466.78	30302.92
466.96	30789.75
467.14	31508.29
467.32	32077.04
467.51	32355.57
467.69	30710.17
467.87	31665.11
468.05	31990.44
468.23	31936.61
468.41	31749.37
468.60	31461.48
468.78	32582.60
468.96	31742.35
469.14	32683.24
469.32	32549.83
469.50	30890.39
469.69	31885.12
469.87	30979.33
470.05	31208.70
470.23	31227.43
470.41	31150.19
470.59	32044.27
470.77	31475.52
470.95	32486.64
471.14	32627.07
471.32	33251.99
471.50	34899.73
471.68	33869.89
471.86	34569.71
472.04	35016.75
472.22	34817.81
472.40	33151.35
472.58	32755.80
472.77	33212.20
472.95	33539.88
473.13	33654.56
473.31	33493.07
473.49	33944.79
473.67	34778.02
473.85	34878.66
474.03	35063.57
474.21	36086.38
474.39	36023.19
474.57	35737.64
474.75	35964.67
474.93	34925.47
475.12	34649.29
475.30	35639.34
475.48	36128.51
475.66	35908.50
475.84	35718.92
476.02	35557.42
476.20	34728.87
476.38	36119.15
476.56	37031.96
476.74	37055.36
476.92	37294.10
477.10	37708.37
477.28	38504.15
477.46	38022.00
477.64	38892.68
477.82	38548.62
478.00	38593.09
478.18	37715.39
478.36	38249.03
478.54	37958.81
478.72	38026.68
478.90	40032.52
479.08	41099.81
479.26	40498.29
479.44	40790.86
479.62	40624.68
479.80	41460.25
479.98	40832.99
480.16	40999.16
480.34	40753.41
480.52	42403.49
480.70	42017.30
480.88	41722.39
481.06	41991.55
481.24	41954.10
481.41	43213.31
481.59	43924.83
481.77	43592.48
481.95	43126.71
482.13	43290.55
482.31	43229.69
482.49	44514.65
482.67	44205.70
482.85	43618.22
483.03	43995.05
483.21	45443.84
483.39	45022.54
483.57	44266.55
483.74	43966.96
483.92	44568.48
484.10	44964.03
484.28	45099.78
484.46	45572.57
484.64	46745.18
484.82	45815.99
485.00	45074.04
485.18	43856.96
485.35	41462.59
485.53	38033.71
485.71	35487.20
485.89	35728.28
486.07	37951.79
486.25	41172.36
486.43	43730.57
486.61	44458.48
486.78	44432.73
486.96	45141.91
487.14	46309.84
487.32	47508.19
487.50	48289.93
487.68	48849.32
487.85	49338.49
488.03	48751.02
488.21	48168.22
488.39	48048.86
488.57	46773.27
488.75	47517.56
488.92	48161.20
489.10	51330.29
489.28	50728.77
489.46	51730.52
489.64	52039.47
489.81	52589.50
489.99	52547.37
490.17	52570.77
490.35	51700.09
490.53	51943.51
490.70	51908.40
490.88	52161.18
491.06	53649.76
491.24	52872.70
491.41	50960.48
491.59	49942.35
491.77	49806.60
491.95	51248.37
492.13	52018.41
492.30	52615.24
492.48	54082.76
492.66	54482.99
492.84	53411.02
493.01	53785.51
493.19	53474.22
493.37	53097.39
493.54	52818.87
493.72	53661.46
493.90	54457.24
494.08	55480.06
494.25	56219.67
494.43	55985.61
494.61	56076.90
494.79	55943.48
494.96	55669.64
495.14	55522.19
495.32	53839.34
495.49	54284.04
495.67	55028.34
495.85	55915.40
496.02	56584.79
496.20	56961.62
496.38	56577.77
496.55	56294.56
496.73	56793.10
496.91	56271.16
497.09	56662.03
497.26	57132.48
497.44	56886.72
497.62	55725.81
497.79	55082.17
497.97	54024.25
498.14	55096.21
498.32	56535.64
498.50	56516.92
498.67	56949.92
498.85	56788.42
499.03	57186.31
499.20	57932.94
499.38	57120.77
499.56	56739.27
499.73	56495.85
499.91	56151.79
500.08	55660.28
500.26	55805.39
500.44	56257.12
500.61	55987.95
500.79	56182.22
500.97	56060.51
501.14	55583.04
501.32	54955.78
501.49	55325.58
501.67	55791.35
501.84	55920.08
502.02	56762.67
502.20	56779.06
502.37	57013.11
502.55	57343.12
502.72	57895.49
502.90	58234.87
503.07	57490.58
503.25	56659.69
503.43	55664.96
503.60	55784.33
503.78	55332.60
503.95	56079.24
504.13	57523.35
504.30	57939.96
504.48	56989.70
504.65	57450.79
504.83	57558.45
505.01	58000.82
505.18	58162.31
505.36	58773.19
505.53	58934.69
505.71	59306.83
505.88	59161.72
506.06	58843.41
506.23	58267.64
506.41	57425.04
506.58	57551.43
506.76	58134.23
506.93	57942.30
507.11	57741.02
507.28	57684.84
507.46	56910.13
507.63	57052.90
507.81	57296.31
507.98	57492.92
508.16	57467.17
508.33	57851.02
508.50	58871.49
508.68	59037.67
508.85	59915.37
509.03	59859.20
509.20	59290.45
509.38	58454.88
509.55	57705.91
509.73	57705.91
509.90	58567.23
510.08	58859.79
510.25	58487.65
510.42	57745.70
510.60	57572.50
510.77	58094.44
510.95	59192.15
511.12	58887.88
511.30	59304.49
511.47	59840.48
511.64	59805.37
511.82	59810.05
511.99	58777.87
512.17	58251.25
512.34	57867.40
512.51	58267.64
512.69	57954.00
512.86	57829.96
513.04	58688.93
513.21	58068.69
513.38	57389.94
513.56	56830.55
513.73	56697.14
513.90	56926.51
514.08	57364.19
514.25	57755.06
514.43	57860.38
514.60	57743.36
514.77	58064.01
514.95	59363.01
515.12	59089.16
515.29	59180.45
515.47	59245.98
515.64	59269.39
515.81	58824.68
515.99	57729.31
516.16	55688.37
516.33	54059.35
516.51	53415.71
516.68	51543.28
516.85	50925.38
517.03	52615.24
517.20	55428.57
517.37	57811.23
517.54	58569.57
517.72	57736.34
517.89	54494.69
518.06	53352.51
518.24	54684.28
518.41	56673.73
518.58	57621.65
518.75	56842.25
518.93	57017.79
519.10	57010.77
519.27	57556.11
519.45	57893.15
519.62	58726.38
519.79	58719.36
519.96	57855.70
520.14	58433.81
520.31	57738.68
520.48	57588.88
520.65	57455.47
520.83	58258.27
521.00	58314.45
521.17	57673.14
521.34	58520.41
521.52	59185.13
521.69	59199.17
521.86	60149.43
522.03	59540.89
522.20	57511.64
522.38	56608.20
522.55	57083.33
522.72	57366.53
522.89	57839.32
523.07	58120.18
523.24	58197.42
523.41	59021.29
523.58	59845.16
523.75	59950.48
523.92	59557.27
524.10	59833.46
524.27	60004.31
524.44	58871.49
524.61	59100.87
524.78	59318.54
524.96	59260.02
525.13	59641.53
525.30	60271.14
525.47	60603.49
525.64	60126.02
525.81	59028.31
525.98	57844.00
526.16	55945.83
526.33	55770.28
526.50	54979.18
526.67	55477.72
526.84	56013.70
527.01	56659.69
527.18	57308.02
527.36	58190.40
527.53	59185.13
527.70	59217.89
527.87	58277.00
528.04	58316.79
528.21	59180.45
528.38	59620.47
528.55	60261.77
528.72	60413.91
528.89	60430.29
529.07	60287.52
529.24	59110.23
529.41	58745.11
529.58	58958.09
529.75	58995.54
529.92	59662.60
530.09	59529.19
530.26	59140.66
530.43	59545.57
530.60	60184.54
530.77	59805.37
530.94	59526.84
531.11	59365.35
531.28	59103.21
531.46	59552.59
531.63	59901.33
531.80	58869.15
531.97	58515.73
532.14	57792.51
532.31	56687.78
532.48	56376.48
532.65	56970.98
532.82	57537.39
532.99	59274.07
533.16	59501.10
533.33	59494.08
533.50	59662.60
533.67	58522.76
533.84	58431.47
534.01	58824.68
534.18	58625.74
534.35	58728.72
534.52	58562.54
534.69	59056.40
534.86	59093.85
535.03	59662.60
535.20	59718.77
535.37	60460.72
535.54	60807.12
535.71	60062.83
535.88	59620.47
536.05	58953.41
536.22	58291.04
536.38	58583.61
536.55	58258.27
536.72	57762.08
536.89	57860.38
537.06	58604.67
537.23	59316.20
537.40	59384.07
537.57	60039.42
537.74	59756.22
537.91	59489.40
538.08	59426.20
538.25	59758.56
538.42	59175.76
538.59	58993.20
538.75	58323.81
538.92	58127.20
539.09	58061.67
539.26	58300.40
539.43	58305.09
539.60	57984.43
539.77	58424.45
539.94	57626.33
540.11	57052.90
540.28	56587.13
540.44	56835.23
540.61	57694.21
540.78	57659.10
540.95	57712.93
541.12	57148.86
541.29	58417.43
541.46	58248.91
541.62	58939.37
541.79	57638.03
541.96	57242.48
542.13	57841.66
542.30	58475.94
542.47	58211.46
542.63	58122.52
542.80	57881.45
542.97	58143.59
543.14	57844.00
543.31	58138.91
543.48	58885.54
543.64	59093.85
543.81	59597.06
543.98	59700.04
544.15	58529.78
544.32	58218.49
544.48	58873.84
544.65	59100.87
544.82	59236.62
544.99	58412.75
545.16	58351.90
545.32	58141.25
545.49	58953.41
545.66	59215.55
545.83	58962.78
546.00	58901.92
546.16	58852.77
546.33	58787.24
546.50	57605.26
546.67	58642.12
546.83	58960.44
547.00	58820.00
547.17	56996.73
547.34	56790.76
547.50	56884.38
547.67	57595.90
547.84	57546.75
548.00	58770.85
548.17	58328.49
548.34	58733.40
548.51	58866.81
548.67	58129.54
548.84	58555.52
549.01	58169.33
549.18	58110.82
549.34	57633.35
549.51	58171.67
549.68	57574.84
549.84	57464.83
550.01	56818.84
550.18	57162.90
550.34	57593.56
550.51	58150.61
550.68	57619.31
550.84	57773.78
551.01	58330.83
551.18	57806.55
551.34	57680.16
551.51	58197.42
551.68	57783.15
551.84	58225.51
552.01	58122.52
552.18	57345.47
552.34	56720.54
552.51	56949.92
552.68	57172.27
552.84	57368.87
553.01	57759.74
553.18	56605.86
553.34	57279.93
553.51	57659.10
553.67	57389.94
553.84	57439.09
554.01	58066.35
554.17	57223.76
554.34	57226.10
554.51	57766.76
554.67	57403.98
554.84	57366.53
555.00	57137.16
555.17	57235.46
555.33	57504.62
555.50	57464.83
555.67	58005.50
555.83	57673.14
556.00	56921.83
556.16	56589.47
556.33	56793.10
556.50	57172.27
556.66	57092.69
556.83	56872.68
556.99	56914.81
557.16	56980.34
557.32	57174.61
557.49	57120.77
557.65	56570.75
557.82	57506.96
557.98	57202.69
558.15	56488.83
558.32	55398.14
558.48	54981.52
558.65	54834.07
558.81	55367.71
558.98	55054.08
559.14	54705.34
559.31	55737.52
559.47	55971.57
559.64	54951.10
559.80	54665.55
559.97	55164.09
560.13	56130.73
560.30	56708.84
560.46	57811.23
560.63	57797.19
560.79	58548.50
560.96	56910.13
561.12	56198.60
561.29	55868.59
561.45	55643.90
561.61	56844.59
561.78	56371.80
561.94	56130.73
562.11	55344.31
562.27	54990.89
562.44	55716.45
562.60	55760.92
562.77	56605.86
562.93	55859.23
563.10	56542.66
563.26	56334.35
563.42	56467.76
563.59	55969.23
563.75	55423.89
563.92	55917.74
564.08	56353.08
564.24	56212.65
564.41	55416.86
564.57	56261.80
564.74	55337.29
564.90	55618.15
565.07	54976.84
565.23	54731.09
565.39	54031.27
565.56	54300.43
565.72	54321.49
565.88	54513.42
566.05	55622.83
566.21	54796.62
566.38	55079.83
566.54	55543.25
566.70	55377.08
566.87	55561.98
567.03	56095.62
567.19	56170.52
567.36	55803.05
567.52	55246.00
567.68	55337.29
567.85	55054.08
568.01	54543.84
568.17	54609.38
568.34	54431.50
568.50	54267.66
568.66	53638.06
568.83	53591.25
568.99	53645.08
569.15	54213.83
569.32	54876.20
569.48	54270.00
569.64	54101.48
569.81	54499.37
569.97	54436.18
570.13	53137.18
570.30	53020.16
570.46	53013.13
570.62	52200.97
570.78	52921.85
570.95	53315.06
571.11	53560.82
571.27	53375.92
571.43	53837.00
571.60	54450.22
571.76	53956.37
571.92	54571.93
572.09	54134.25
572.25	53991.48
572.41	54625.76
572.57	54813.01
572.74	55325.58
572.90	53598.27
573.06	54630.44
573.22	54899.61
573.38	54712.36
573.55	54887.90
573.71	54794.28
573.87	54494.69
574.03	54316.81
574.20	54075.74
574.36	53244.85
574.52	53434.43
574.68	52598.86
574.84	52659.71
575.01	52542.69
575.17	53296.34
575.33	53212.08
575.49	53897.86
575.65	54145.95
575.82	52985.05
575.98	52830.57
576.14	53595.93
576.30	53918.92
576.46	53701.25
576.62	53006.11
576.79	52610.56
576.95	53043.56
577.11	52767.38
577.27	52739.29
577.43	52271.18
577.59	52971.00
577.75	53326.77
577.92	52229.05
578.08	51447.32
578.24	51590.09
578.40	51688.39
578.56	51262.41
578.72	52514.60
578.88	52542.69
579.04	52814.19
579.21	52285.23
579.37	52109.69
579.53	51814.78
579.69	51789.03
579.85	52329.70
580.01	51674.35
580.17	51634.56
580.33	53148.88
580.49	52849.30
580.65	53282.30
580.82	52568.43
580.98	52535.66
581.14	51845.21
581.30	51922.44
581.46	51899.04
581.62	52051.17
581.78	52715.89
581.94	52535.66
582.10	52210.33
582.26	51856.91
582.42	52151.82
582.58	53104.41
582.74	52570.77
582.90	51870.95
583.06	53750.40
583.22	52509.92
583.38	52603.54
583.54	52687.80
583.70	52261.82
583.86	51955.21
584.02	52013.73
584.18	52353.10
584.34	52023.09
584.50	51887.34
584.66	52011.38
584.82	51288.16
584.98	51838.18
585.14	51044.74
585.30	50843.46
