SpectraSuite Data File
++++++++++++++++++++++++++++++++++++
Date: Mon Oct 07 14:54:58 GMT-05:00 2013
User: price-jones
Dark Spectrum Present: No
Reference Spectrum Present: No
Number of Sampled Component Spectra: 1
Spectrometers: USB2+H05261
Integration Time (usec): 10000 (USB2+H05261)
Spectra Averaged: 1 (USB2+H05261)
Boxcar Smoothing: 0 (USB2+H05261)
Correct for Electrical Dark: No (USB2+H05261)
Strobe/Lamp Enabled: No (USB2+H05261)
Correct for Detector Non-linearity: No (USB2+H05261)
Correct for Stray Light: No (USB2+H05261)
Number of Pixels in Processed Spectrum: 2048
>>>>>Begin Processed Spectral Data<<<<<
365.73	0.00
365.92	0.00
366.12	0.00
366.32	0.00
366.52	0.00
366.72	0.00
366.91	0.00
367.11	0.00
367.31	0.00
367.51	0.00
367.70	0.00
367.90	0.00
368.10	0.00
368.30	0.00
368.49	0.00
368.69	0.00
368.89	0.00
369.09	0.00
369.28	0.00
369.48	0.00
369.68	0.00
369.87	0.00
370.07	0.00
370.27	0.00
370.47	93.62
370.66	1313.04
370.86	1600.93
371.06	1727.32
371.25	1724.97
371.45	1416.02
371.65	1252.19
371.84	1336.45
372.04	1502.62
372.24	1619.65
372.44	1591.56
372.63	1561.14
372.83	1481.56
373.03	1231.12
373.22	1249.85
373.42	1387.94
373.62	1528.37
373.81	1774.13
374.01	1673.48
374.21	1430.07
374.40	1401.98
374.60	1554.12
374.79	1713.27
374.99	1895.83
375.19	1823.28
375.38	2003.50
375.58	1874.77
375.78	1746.04
375.97	1900.52
376.17	1837.32
376.37	1898.17
376.56	2148.61
376.76	2186.06
376.95	2300.75
377.15	2317.13
377.35	2487.99
377.54	2752.47
377.74	2850.77
377.93	2775.88
378.13	2583.95
378.33	2359.26
378.52	2354.58
378.72	2207.13
378.91	2218.83
379.11	2043.29
379.31	2003.50
379.50	2148.61
379.70	2314.79
379.89	2436.50
380.09	2647.15
380.28	2708.00
380.48	2623.74
380.68	2626.08
380.87	2595.65
381.07	2303.09
381.26	2155.63
381.46	2008.18
381.65	1916.90
381.85	1905.20
382.04	1743.70
382.24	1577.52
382.43	1528.37
382.63	1563.48
382.83	1549.43
383.02	1511.99
383.22	1533.05
383.41	1666.46
383.61	1680.50
383.80	1991.80
384.00	2277.34
384.19	2445.86
384.39	2733.75
384.58	2719.70
384.78	2623.74
384.97	2576.93
385.17	2342.88
385.36	2223.51
385.56	2193.08
385.75	2260.96
385.95	2520.76
386.14	2663.53
386.34	2581.61
386.53	2537.14
386.72	2441.18
386.92	2487.99
387.11	2691.62
387.31	2750.13
387.50	2586.29
387.70	2665.87
387.89	2476.29
388.09	2530.12
388.28	2534.80
388.48	2677.57
388.67	2860.13
388.86	3239.30
389.06	3496.76
389.25	3480.38
389.45	3616.13
389.64	3471.01
389.84	3358.67
390.03	3400.80
390.22	3590.38
390.42	3676.98
390.61	3960.19
390.81	4072.53
391.00	4280.84
391.19	4086.58
391.39	3737.84
391.58	3630.17
391.78	3382.07
391.97	3286.11
392.16	3049.72
392.36	2633.10
392.55	2001.16
392.75	1561.14
392.94	1392.62
393.13	1479.22
393.33	1713.27
393.52	2305.43
393.71	2874.18
393.91	3274.41
394.10	3564.64
394.29	3756.56
394.49	4112.32
394.68	4229.35
394.88	4334.67
395.07	4475.10
395.26	4383.82
395.46	4170.83
395.65	3913.38
395.84	3414.84
396.04	2750.13
396.23	2263.30
396.42	1884.13
396.62	1980.09
396.81	2275.00
397.00	3236.96
397.19	3878.27
397.39	4393.19
397.58	4884.70
397.77	5275.57
397.97	5291.95
398.16	5507.28
398.35	5692.18
398.55	5914.53
398.74	5973.05
398.93	6202.42
399.12	6066.67
399.32	5987.09
399.51	6197.74
399.70	6340.51
399.90	6181.35
400.09	6389.66
400.28	6389.66
400.47	6345.19
400.67	6654.14
400.86	6792.23
401.05	6750.10
401.24	6864.79
401.44	7056.72
401.63	6782.87
401.82	6986.50
402.01	7197.15
402.21	7171.40
402.40	7101.19
402.59	6970.12
402.78	6509.03
402.97	6494.99
403.17	6785.21
403.36	7073.10
403.55	7190.13
403.74	7101.19
403.93	6916.28
404.13	6361.58
404.32	6764.15
404.51	7059.06
404.70	7180.76
404.89	7290.77
405.09	7068.42
405.28	6794.58
405.47	6930.33
405.66	7016.93
405.85	6609.67
406.05	6588.61
406.24	6785.21
406.43	6829.68
406.62	7176.08
406.81	7267.36
407.00	6822.66
407.20	6759.47
407.39	6750.10
407.58	7426.52
407.77	7297.79
407.96	7405.46
408.15	7658.23
408.34	7751.85
408.54	8170.81
408.73	8032.72
408.92	8046.76
409.11	7531.84
409.30	7389.07
409.49	6736.06
409.68	6537.12
409.87	6642.44
410.07	6899.90
410.26	7323.54
410.45	7777.60
410.64	7777.60
410.83	8065.49
411.02	8547.64
411.21	8664.66
411.40	8753.60
411.59	8652.96
411.78	8535.93
411.98	8594.45
412.17	8477.42
412.36	8280.82
412.55	8219.96
412.74	8201.24
412.93	8166.13
413.12	8538.27
413.31	8816.80
413.50	9011.06
413.69	8950.21
413.88	8716.16
414.07	8669.34
414.26	8762.97
414.45	9139.79
414.64	8966.59
414.83	8879.99
415.02	8791.05
415.22	8833.18
415.41	9018.08
415.60	9221.71
415.79	9570.45
415.98	9785.78
416.17	9577.47
416.36	9589.17
416.55	9231.07
416.74	8954.89
416.93	8896.38
417.12	8861.27
417.31	8966.59
417.50	9256.82
417.69	9366.82
417.88	9521.30
418.07	8994.68
418.26	9111.71
418.45	9591.52
418.64	10050.26
418.83	9977.70
419.02	9764.72
419.21	9525.98
419.39	9275.54
419.58	8802.75
419.77	8819.14
419.96	9350.44
420.15	9923.87
420.34	10087.71
420.53	10640.08
420.72	10677.52
420.91	10438.79
421.10	10099.41
421.29	10214.10
421.48	9905.15
421.67	10209.42
421.86	9790.46
422.05	9125.75
422.24	8348.69
422.43	8692.75
422.61	9551.73
422.80	10059.62
422.99	9689.82
423.18	9753.01
423.37	9483.85
423.56	9614.92
423.75	9706.20
423.94	10164.95
424.13	9432.36
424.32	9198.31
424.50	9184.26
424.69	9582.15
424.88	9497.89
425.07	9383.21
425.26	9076.60
425.45	8975.95
425.64	9221.71
425.83	9296.61
426.01	9872.38
426.20	9825.57
426.39	9369.16
426.58	8765.31
426.77	8184.85
426.96	8051.44
427.15	8667.00
427.33	9320.01
427.52	9217.03
427.71	9415.98
427.90	8943.19
428.09	8891.70
428.28	9167.88
428.46	8765.31
428.65	8622.53
428.84	8858.93
429.03	8868.29
429.22	8290.18
429.40	7786.96
429.59	7150.34
429.78	6525.41
429.97	6462.22
430.16	6513.71
430.34	6466.90
430.53	6464.56
430.72	7021.61
430.91	7791.64
431.10	9191.28
431.28	10399.00
431.47	11009.88
431.66	10913.92
431.85	9968.34
432.03	8954.89
432.22	9259.16
432.41	9675.77
432.60	10450.49
432.79	10710.29
432.97	11150.31
433.16	10305.38
433.35	9563.43
433.54	8514.87
433.72	8695.09
433.91	8994.68
434.10	9813.87
434.28	10356.87
434.47	10729.02
434.66	10380.28
434.85	10352.19
435.03	10635.39
435.22	10775.83
435.41	11384.37
435.59	11162.01
435.78	11360.96
435.97	11653.53
436.16	11571.61
436.34	11566.93
436.53	11307.13
436.72	11332.87
436.90	10511.35
437.09	10525.39
437.28	10518.37
437.46	10958.39
437.65	10623.69
437.84	9713.22
438.02	9256.82
438.21	9514.28
438.40	10031.54
438.58	10558.16
438.77	10876.47
438.96	10951.37
439.14	11597.35
439.33	11433.52
439.52	11927.37
439.70	11583.31
439.89	10846.04
440.08	11005.20
440.26	11115.20
440.45	11480.33
440.63	12304.20
440.82	12816.77
441.01	12215.26
441.19	12386.12
441.38	12746.56
441.57	12816.77
441.75	13132.75
441.94	13298.92
442.12	13071.89
442.31	13635.96
442.50	13413.61
442.68	13261.48
442.87	13139.77
443.05	12894.01
443.24	13411.27
443.43	13308.29
443.61	13488.51
443.80	13760.01
443.98	12919.76
444.17	13198.28
444.35	14099.39
444.54	14185.99
444.73	14068.96
444.91	13273.18
445.10	12505.48
445.28	12451.65
445.47	12051.42
445.65	12156.74
445.84	12575.70
446.02	13041.46
446.21	13233.39
446.39	13221.69
446.58	13404.25
446.77	13647.66
446.95	13776.39
447.14	13748.31
447.32	14075.98
447.51	13963.64
447.69	13249.77
447.88	13057.85
448.06	13114.02
448.25	13628.94
448.43	13664.05
448.62	13350.42
448.80	13380.84
448.99	13600.85
449.17	13406.59
449.36	13741.29
449.54	13975.34
449.73	14530.05
449.91	14471.53
450.10	14848.36
450.28	14761.76
450.46	14525.36
450.65	14466.85
450.83	14588.56
451.02	14291.31
451.20	14401.32
451.39	14370.89
451.57	14291.31
451.76	13919.17
451.94	14066.62
452.13	13980.02
452.31	13308.29
452.49	12861.24
452.68	13036.78
452.86	13004.02
453.05	13069.55
453.23	13879.38
453.42	13989.38
453.60	13928.53
453.78	14125.13
453.97	13837.25
454.15	13748.31
454.34	13596.17
454.52	13453.40
454.70	13617.24
454.89	13486.17
455.07	13816.18
455.26	13886.40
455.44	14003.43
455.62	14445.79
455.81	14743.03
455.99	14380.25
456.17	14576.86
456.36	14476.21
456.54	14970.07
456.73	14665.80
456.91	15232.21
457.09	15276.68
457.28	15440.51
457.46	15094.11
457.64	14724.31
457.83	14164.92
458.01	13870.01
458.19	14429.40
458.38	14169.60
458.56	15000.49
458.74	14860.06
458.93	14487.92
459.11	14209.39
459.29	14157.90
459.48	14473.87
459.66	14141.52
459.84	14223.44
460.03	14698.56
460.21	14803.89
460.39	15014.54
460.57	14822.61
460.76	15084.75
460.94	15232.21
461.12	15016.88
461.31	15138.58
461.49	15073.05
461.67	15257.95
461.85	15683.93
462.04	15529.45
462.22	15117.52
462.40	15307.10
462.59	15030.92
462.77	14871.76
462.95	15173.69
463.13	15623.08
463.32	15005.17
463.50	14637.71
463.68	14803.89
463.86	15117.52
464.05	14867.08
464.23	14223.44
464.41	14324.08
464.59	14256.20
464.78	14878.79
464.96	14464.51
465.14	14672.82
465.32	14972.41
465.50	15257.95
465.69	15264.97
465.87	14836.66
466.05	14324.08
466.23	14193.01
466.41	14050.24
466.60	14530.05
466.78	14569.83
466.96	14153.22
467.14	14417.70
467.32	15103.48
467.51	14728.99
467.69	13870.01
467.87	14160.24
468.05	14551.11
468.23	14572.18
468.41	14586.22
468.60	14501.96
468.78	14789.85
468.96	14656.43
469.14	15293.06
469.32	15173.69
469.50	14148.54
469.69	14218.75
469.87	13933.21
470.05	14092.37
470.23	13872.36
470.41	14768.78
470.59	14654.09
470.77	14703.25
470.95	14637.71
471.14	14972.41
471.32	14965.39
471.50	15917.98
471.68	16339.28
471.86	16123.95
472.04	15894.58
472.22	15803.30
472.40	15028.58
472.58	15419.45
472.77	15063.69
472.95	15414.77
473.13	15583.29
473.31	15492.01
473.49	15323.49
473.67	15431.15
473.85	15538.82
474.03	15789.25
474.21	16016.29
474.39	15957.77
474.57	15805.64
474.75	16325.24
474.93	16095.86
475.12	15875.85
475.30	16142.67
475.48	16020.97
475.66	16060.76
475.84	15765.85
476.02	16009.26
476.20	15599.67
476.38	15983.52
476.56	16325.24
476.74	16456.31
476.92	16681.00
477.10	16655.25
477.28	17462.74
477.46	17081.23
477.64	17460.40
477.82	17511.89
478.00	17418.27
478.18	17151.45
478.36	17153.79
478.54	16842.50
478.72	17724.88
478.90	18176.60
479.08	17998.72
479.26	18412.99
479.44	17664.02
479.62	18312.35
479.80	18225.75
479.98	18310.01
480.16	18628.32
480.34	18387.25
480.52	18457.46
480.70	18448.10
480.88	18705.56
481.06	19222.82
481.24	19379.64
481.41	19948.39
481.59	20250.32
481.77	19655.82
481.95	19585.60
482.13	20042.01
482.31	19133.88
482.49	20247.97
482.67	19342.19
482.85	19534.11
483.03	19496.66
483.21	20058.39
483.39	19976.47
483.57	19882.85
483.74	19719.01
483.92	19723.69
484.10	19871.15
484.28	20697.36
484.46	20528.84
484.64	19915.62
484.82	20407.13
485.00	20311.17
485.18	19236.86
485.35	18403.63
485.53	16563.97
485.71	15068.37
485.89	15917.98
486.07	16985.27
486.25	18281.92
486.43	19117.50
486.61	18487.89
486.78	18995.79
486.96	19875.83
487.14	20411.81
487.32	20868.22
487.50	20903.32
487.68	20432.88
487.85	21884.01
488.03	21401.86
488.21	21135.04
488.39	20643.52
488.57	20589.69
488.75	21202.91
488.92	21965.93
489.10	23550.47
489.28	23585.58
489.46	24269.01
489.64	24720.74
489.81	24266.67
489.99	23363.23
490.17	23936.66
490.35	24584.99
490.53	23831.33
490.70	23494.30
490.88	23541.11
491.06	24217.52
491.24	24182.42
491.41	23009.81
491.59	22431.69
491.77	21582.08
491.95	22742.99
492.13	23398.34
492.30	23974.11
492.48	25198.21
492.66	25380.77
492.84	24931.39
493.01	24666.91
493.19	24030.28
493.37	23250.88
493.54	23798.57
493.72	24449.24
493.90	25502.48
494.08	25874.62
494.25	26338.05
494.43	26810.84
494.61	27613.64
494.79	27094.04
494.96	26670.40
495.14	25912.07
495.32	24872.87
495.49	25097.56
495.67	25467.37
495.85	27288.31
496.02	27374.91
496.20	27112.77
496.38	26768.71
496.55	26967.65
496.73	26726.58
496.91	26726.58
497.09	26742.96
497.26	26934.88
497.44	27379.59
497.62	27030.85
497.79	26225.70
497.97	25053.09
498.14	25198.21
498.32	26380.18
498.50	26771.05
498.67	27445.12
498.85	26918.50
499.03	26265.49
499.20	27590.24
499.38	27129.15
499.56	26380.18
499.73	26277.19
499.91	25989.31
500.08	25270.76
500.26	25228.63
500.44	25914.41
500.61	26829.56
500.79	25626.53
500.97	25668.66
501.14	25865.26
501.32	24753.51
501.49	24919.68
501.67	25773.98
501.84	26443.37
502.02	26448.05
502.20	26064.21
502.37	27002.76
502.55	27229.79
502.72	27800.88
502.90	28011.53
503.07	27180.64
503.25	26969.99
503.43	26291.24
503.60	25472.05
503.78	25046.07
503.95	25811.43
504.13	26529.97
504.30	27393.63
504.48	27754.07
504.65	27288.31
504.83	27206.39
505.01	27349.16
505.18	27433.42
505.36	28556.88
505.53	28428.15
505.71	28933.70
505.88	28746.46
506.06	28552.20
506.23	27838.33
506.41	27655.77
506.58	27527.04
506.76	26995.74
506.93	27821.95
507.11	26698.49
507.28	27194.68
507.46	26740.62
507.63	26349.75
507.81	26204.64
507.98	26197.62
508.16	27253.20
508.33	27740.03
508.50	27091.70
508.68	28240.90
508.85	28725.39
509.03	28720.71
509.20	27292.99
509.38	26913.82
509.55	26899.78
509.73	27618.32
509.90	28245.58
510.08	27016.80
510.25	27197.02
510.42	27339.80
510.60	27285.97
510.77	28180.05
510.95	28430.49
511.12	28224.52
511.30	28437.51
511.47	29188.82
511.64	28552.20
511.82	28149.62
511.99	27751.73
512.17	27374.91
512.34	27215.75
512.51	26539.33
512.69	26724.24
512.86	27517.68
513.04	27541.08
513.21	27365.54
513.38	27358.52
513.56	26590.83
513.73	25797.38
513.90	25783.34
514.08	26038.46
514.25	26291.24
514.43	27178.30
514.60	27639.39
514.77	27538.74
514.95	27508.32
515.12	27030.85
515.29	27704.92
515.47	27702.58
515.64	27461.51
515.81	27915.57
515.99	27056.59
516.16	24896.28
516.33	23658.14
516.51	22017.42
516.68	21699.11
516.85	21039.08
517.03	21724.85
517.20	23885.17
517.37	25675.68
517.54	26010.37
517.72	24767.55
517.89	23171.30
518.06	22604.89
518.24	22803.84
518.41	24568.60
518.58	25256.72
518.75	25472.05
518.93	25467.37
519.10	25589.08
519.27	25898.03
519.45	26499.55
519.62	26911.48
519.79	27412.35
519.96	27192.34
520.14	26611.89
520.31	25998.67
520.48	25621.84
520.65	26232.72
520.83	26953.61
521.00	26647.00
521.17	26324.01
521.34	26103.99
521.52	26478.48
521.69	27264.90
521.86	27508.32
522.03	26670.40
522.20	25661.63
522.38	24041.98
522.55	24931.39
522.72	25731.85
522.89	25277.79
523.07	25834.83
523.24	26583.80
523.41	26927.86
523.58	27281.28
523.75	26422.31
523.92	27718.96
524.10	27545.76
524.27	27782.16
524.44	27197.02
524.61	27791.52
524.78	27534.06
524.96	27082.34
525.13	27206.39
525.30	28070.04
525.47	28477.30
525.64	27843.01
525.81	26195.28
525.98	24505.41
526.16	23309.40
526.33	22948.95
526.50	23648.77
526.67	23466.21
526.84	23480.25
527.01	24643.50
527.18	25532.90
527.36	25979.95
527.53	27208.73
527.70	26593.17
527.87	25336.30
528.04	25727.17
528.21	26298.26
528.38	26761.69
528.55	27953.02
528.72	27367.88
528.89	27782.16
529.07	27442.78
529.24	25937.82
529.41	26808.50
529.58	25820.79
529.75	25764.62
529.92	26092.29
530.09	26052.50
530.26	26506.57
530.43	25766.96
530.60	26581.46
530.77	27585.55
530.94	28002.17
531.11	27007.44
531.28	26728.92
531.46	26544.02
531.63	27150.21
531.80	27222.77
531.97	26061.87
532.14	24683.29
532.31	23601.96
532.48	23328.12
532.65	23351.52
532.82	24257.31
532.99	24994.58
533.16	26146.12
533.33	27124.47
533.50	26714.87
533.67	25818.45
533.84	25671.00
534.01	25383.11
534.18	25853.56
534.35	25439.28
534.52	25797.38
534.69	25888.67
534.86	25823.13
535.03	25914.41
535.20	26888.07
535.37	26738.28
535.54	26780.41
535.71	25961.22
535.88	26061.87
536.05	25324.60
536.22	25090.54
536.38	24369.66
536.55	24912.66
536.72	24702.01
536.89	24884.58
537.06	25612.48
537.23	25752.91
537.40	25385.45
537.57	25560.99
537.74	24978.20
537.91	24795.64
538.08	25954.20
538.25	25883.98
538.42	25076.50
538.59	25654.61
538.75	25600.78
538.92	25301.19
539.09	24311.14
539.26	24058.37
539.43	23386.63
539.60	23592.60
539.77	23988.15
539.94	22904.48
540.11	22752.35
540.28	22450.42
540.44	22843.63
540.61	23379.61
540.78	23508.34
540.95	24678.61
541.12	23756.44
541.29	24650.52
541.46	24271.36
541.62	24582.65
541.79	24290.08
541.96	23639.41
542.13	24592.01
542.30	24961.81
542.47	24428.17
542.63	24386.04
542.80	23260.24
542.97	23407.70
543.14	23576.22
543.31	23597.28
543.48	24404.77
543.64	24816.70
543.81	25282.47
543.98	24507.75
544.15	24362.64
544.32	23637.07
544.48	24276.04
544.65	23536.43
544.82	24086.45
544.99	24177.73
545.16	24411.79
545.32	24559.24
545.49	24854.15
545.66	24437.53
545.83	24547.54
546.00	24446.90
546.16	23707.29
546.33	23929.64
546.50	24184.76
546.67	24414.13
546.83	23730.69
547.00	23501.32
547.17	23152.58
547.34	23452.17
547.50	23063.64
547.67	23222.80
547.84	23058.96
548.00	23641.75
548.17	23367.91
548.34	23171.30
548.51	23665.16
548.67	24741.80
548.84	24182.42
549.01	24166.03
549.18	23901.55
549.34	24470.30
549.51	24044.32
549.68	23714.31
549.84	23131.51
550.01	23730.69
550.18	22916.19
550.34	22827.24
550.51	22934.91
550.68	22663.41
550.84	21862.94
551.01	22211.68
551.18	22024.44
551.34	21757.62
551.51	22785.12
551.68	23711.97
551.84	22810.86
552.01	23309.40
552.18	23084.70
552.34	22754.69
552.51	22324.03
552.68	23197.05
552.84	22370.84
553.01	22389.56
553.18	23695.58
553.34	23260.24
553.51	22860.01
553.67	22890.44
553.84	23761.12
554.01	23831.33
554.17	22293.60
554.34	23419.40
554.51	23564.51
554.67	23475.57
554.84	22642.34
555.00	22979.38
555.17	22733.62
555.33	22710.22
555.50	23075.34
555.67	23012.15
555.83	23056.62
556.00	22644.68
556.16	22925.55
556.33	22345.09
556.50	22499.57
556.66	21212.28
556.83	21481.44
556.99	21654.64
557.16	21886.35
557.32	22047.85
557.49	21954.22
557.65	22017.42
557.82	21097.59
557.98	21441.65
558.15	22026.78
558.32	20978.22
558.48	20765.23
558.65	20353.30
558.81	20460.96
558.98	20783.96
559.14	21156.10
559.31	21476.76
559.47	20439.90
559.64	20409.47
559.80	21029.71
559.97	20996.95
560.13	21235.68
560.30	21757.62
560.46	21699.11
560.63	22167.21
560.79	22513.61
560.96	21394.84
561.12	21053.12
561.29	20781.62
561.45	20496.07
561.61	20423.51
561.78	20397.77
561.94	20875.24
562.11	20577.99
562.27	20861.19
562.44	21558.67
562.60	21177.17
562.77	21741.24
562.93	21228.66
563.10	20929.07
563.26	20556.93
563.42	20355.64
563.59	20032.65
563.75	20903.32
563.92	20395.43
564.08	20807.36
564.24	20641.18
564.41	19740.08
564.57	20187.12
564.74	19742.42
564.90	19868.81
565.07	19613.69
565.23	19136.22
565.39	19293.04
565.56	19606.67
565.72	19779.87
565.88	20056.05
566.05	19812.63
566.21	19901.58
566.38	19538.79
566.54	19218.14
566.70	19325.80
566.87	19990.52
567.03	20805.02
567.19	21200.57
567.36	19527.09
567.52	20051.37
567.68	19627.73
567.85	19693.27
568.01	20025.62
568.17	18913.87
568.34	18527.68
568.50	18604.92
568.66	18918.55
568.83	18855.36
568.99	19236.86
569.15	19531.77
569.32	19707.31
569.48	19445.17
569.64	19171.33
569.81	18518.32
569.97	18728.97
570.13	18967.70
570.30	18672.79
570.46	18438.74
570.62	17481.46
570.78	17076.55
570.95	17476.78
571.11	18141.49
571.27	18359.16
571.43	18228.09
571.60	18728.97
571.76	18941.96
571.92	18885.78
572.09	19264.95
572.25	18850.67
572.41	19295.38
572.57	19372.61
572.74	18544.06
572.90	18796.84
573.06	18750.03
573.22	18396.61
573.38	18277.24
573.55	18015.10
573.71	18164.90
573.87	18356.82
574.03	18558.11
574.20	18368.52
574.36	18141.49
574.52	18244.48
574.68	17649.98
574.84	18017.44
575.01	17734.24
575.17	18176.60
575.33	17919.14
575.49	17820.84
575.65	18031.49
575.82	17818.50
575.98	17544.66
576.14	17848.93
576.30	17591.47
576.46	17254.43
576.62	17628.92
576.79	17736.58
576.95	17291.88
577.11	17221.66
577.27	17191.23
577.43	17149.11
577.59	17090.59
577.75	17785.73
577.92	16987.61
578.08	16912.71
578.24	16975.91
578.40	16978.25
578.56	17048.46
578.72	16730.15
578.88	17514.23
579.04	17385.50
579.21	17205.28
579.37	17561.04
579.53	16929.09
579.69	16886.97
579.85	16386.09
580.01	16669.30
580.17	17018.04
580.33	16762.92
580.49	17018.04
580.65	17188.89
580.82	16711.42
580.98	17018.04
581.14	17013.35
581.30	17781.05
581.46	16868.24
581.62	17179.53
581.78	17343.37
581.94	17645.30
582.10	17146.76
582.26	17137.40
582.42	16971.22
582.58	17661.68
582.74	17509.55
582.90	17252.09
583.06	17289.54
583.22	17116.34
583.38	17153.79
583.54	17565.72
583.70	17392.52
583.86	17216.98
584.02	17020.38
584.18	16985.27
584.34	17305.92
584.50	17547.00
584.66	17348.05
584.82	16791.00
584.98	17020.38
585.14	16631.85
585.30	16060.76
585.46	16109.91
585.62	15695.63
585.78	16233.96
585.94	15999.90
586.10	16358.00
586.26	16358.00
586.42	16549.93
586.58	16414.18
586.74	15882.88
586.90	16154.38
587.06	16458.65
