SpectraSuite Data File
++++++++++++++++++++++++++++++++++++
Date: Mon Oct 07 14:53:28 GMT-05:00 2013
User: price-jones
Dark Spectrum Present: No
Reference Spectrum Present: No
Number of Sampled Component Spectra: 1
Spectrometers: USB2+H05261
Integration Time (usec): 100000 (USB2+H05261)
Spectra Averaged: 1 (USB2+H05261)
Boxcar Smoothing: 0 (USB2+H05261)
Correct for Electrical Dark: No (USB2+H05261)
Strobe/Lamp Enabled: No (USB2+H05261)
Correct for Detector Non-linearity: No (USB2+H05261)
Correct for Stray Light: No (USB2+H05261)
Number of Pixels in Processed Spectrum: 2048
>>>>>Begin Processed Spectral Data<<<<<
365.73	0.00
365.92	0.00
366.12	0.00
366.32	0.00
366.52	0.00
366.72	0.00
366.91	0.00
367.11	0.00
367.31	0.00
367.51	0.00
367.70	0.00
367.90	0.00
368.10	0.00
368.30	0.00
368.49	0.00
368.69	0.00
368.89	0.00
369.09	0.00
369.28	0.00
369.48	0.00
369.68	0.00
369.87	0.00
370.07	0.00
370.27	0.00
370.47	650.67
370.66	3269.73
370.86	3655.92
371.06	4308.93
371.25	4315.95
371.45	3808.05
371.65	3487.40
371.84	3183.13
372.04	3262.71
372.24	3794.01
372.44	4009.34
372.63	3859.54
372.83	3548.25
373.03	3183.13
373.22	2881.20
373.42	3197.17
373.62	3508.46
373.81	3817.41
374.01	3969.55
374.21	3531.87
374.40	3101.21
374.60	3412.50
374.79	3847.84
374.99	4374.46
375.19	4807.46
375.38	4793.42
375.58	4507.87
375.78	4262.12
375.97	4564.04
376.17	4692.77
376.37	4706.82
376.56	4870.65
376.76	5050.88
376.95	5348.12
377.15	5884.11
377.35	6127.52
377.54	6017.52
377.74	6415.41
377.93	6459.88
378.13	6139.23
378.33	5949.64
378.52	5502.60
378.72	5139.82
378.91	5238.12
379.11	5078.96
379.31	4936.19
379.50	4833.21
379.70	5046.20
379.89	5605.58
380.09	5832.62
380.28	6253.91
380.48	6249.23
380.68	6094.76
380.87	6038.58
381.07	5495.58
381.26	5083.64
381.46	4887.04
381.65	4535.96
381.85	4435.32
382.04	4308.93
382.24	4030.40
382.43	3831.46
382.63	3705.07
382.83	3709.75
383.02	3749.54
383.22	3744.86
383.41	3838.48
383.61	3932.10
383.80	4678.73
384.00	5284.93
384.19	5919.21
384.39	6069.01
384.58	6242.21
384.78	6106.46
384.97	6001.13
385.17	5778.78
385.36	5331.74
385.56	5046.20
385.75	5205.35
385.95	5935.60
386.14	6333.49
386.34	6401.37
386.53	6188.38
386.72	5778.78
386.92	5675.80
387.11	5987.09
387.31	6256.25
387.50	6239.87
387.70	6054.97
387.89	6064.33
388.09	5996.45
388.28	6036.24
388.48	6160.29
388.67	6609.67
388.86	7323.54
389.06	7634.83
389.25	8112.30
389.45	8325.29
389.64	8056.12
389.84	7946.12
390.03	7990.59
390.22	7981.23
390.42	8301.88
390.61	8887.01
390.81	9280.22
391.00	9556.41
391.19	9420.66
391.39	9228.73
391.58	8613.17
391.78	8241.03
391.97	7997.61
392.16	7449.93
392.36	6733.72
392.55	5406.64
392.75	4180.20
392.94	3503.78
393.13	3531.87
393.33	4219.99
393.52	5198.33
393.71	6651.80
393.91	7250.98
394.10	7871.22
394.29	8528.91
394.49	9366.82
394.68	10054.94
394.88	9895.78
395.07	10263.25
395.26	10363.89
395.46	10263.25
395.65	9465.13
395.84	8269.11
396.04	6984.16
396.23	5729.63
396.42	4678.73
396.62	4479.79
396.81	5371.53
397.00	6661.16
397.19	8505.51
397.39	10085.37
397.58	11302.45
397.77	12116.95
397.97	12828.48
398.16	12636.55
398.35	12863.58
398.55	13315.31
398.74	14174.28
398.93	14527.71
399.12	14087.68
399.32	13425.31
399.51	13827.88
399.70	14672.82
399.90	14607.28
400.09	14728.99
400.28	14469.19
400.47	14696.22
400.67	15281.36
400.86	15587.97
401.05	15908.62
401.24	15815.00
401.44	16166.08
401.63	16135.65
401.82	16428.22
402.01	16325.24
402.21	16397.79
402.40	16395.45
402.59	15943.73
402.78	15611.37
402.97	15101.14
403.17	15161.99
403.36	16664.61
403.55	17106.98
403.74	17411.25
403.93	16362.69
404.13	15218.16
404.32	14654.09
404.51	15506.05
404.70	17003.99
404.89	17001.65
405.09	16449.28
405.28	16098.20
405.47	15990.54
405.66	15999.90
405.85	15454.56
406.05	15236.89
406.24	15403.07
406.43	16093.52
406.62	16751.21
406.81	16683.34
407.00	16018.63
407.20	15812.66
407.39	15878.19
407.58	16659.93
407.77	17245.07
407.96	17855.95
408.15	17877.01
408.34	17942.55
408.54	19150.26
408.73	19122.18
408.92	18705.56
409.11	17935.53
409.30	17331.67
409.49	16428.22
409.68	15304.76
409.87	14782.82
410.07	15683.93
410.26	17085.91
410.45	17944.89
410.64	18595.56
410.83	18778.12
411.02	19580.92
411.21	20622.46
411.40	19854.76
411.59	20058.39
411.78	20063.07
411.98	19597.31
412.17	19967.11
412.36	19735.40
412.55	19564.54
412.74	19243.88
412.93	18698.54
413.12	19110.47
413.31	20795.66
413.50	21078.86
413.69	21186.53
413.88	20629.48
414.07	19737.74
414.26	20144.99
414.45	20882.26
414.64	20980.56
414.83	21153.76
415.02	20587.35
415.22	20432.88
415.41	20840.13
415.60	21783.37
415.79	22827.24
415.98	23225.14
416.17	23014.49
416.36	22429.35
416.55	22176.58
416.74	21483.78
416.93	20809.70
417.12	20610.76
417.31	21392.50
417.50	21394.84
417.69	22214.02
417.88	22389.56
418.07	21757.62
418.26	21443.99
418.45	21933.16
418.64	22747.67
418.83	23211.09
419.02	23019.17
419.21	22869.37
419.39	21565.70
419.58	20636.50
419.77	20870.56
419.96	21968.27
420.15	23220.45
420.34	23697.92
420.53	24271.36
420.72	25095.22
420.91	24741.80
421.10	24507.75
421.29	24409.45
421.48	22860.01
421.67	24741.80
421.86	23836.02
422.05	22260.84
422.24	19896.89
422.43	19658.16
422.61	21816.13
422.80	23433.44
422.99	23730.69
423.18	22796.82
423.37	22312.33
423.56	22398.93
423.75	22274.88
423.94	23391.31
424.13	21902.73
424.32	22298.28
424.50	22600.21
424.69	21783.37
424.88	22286.58
425.07	21867.63
425.26	21919.12
425.45	21839.54
425.64	21518.89
425.83	21357.39
426.01	22394.25
426.20	23372.59
426.39	22698.52
426.58	21425.26
426.77	19548.15
426.96	18974.72
427.15	19445.17
427.33	21731.87
427.52	22242.11
427.71	22298.28
427.90	22092.32
428.09	21930.82
428.28	21207.59
428.46	20919.71
428.65	20430.54
428.84	21018.01
429.03	21275.47
429.22	20009.24
429.40	19112.81
429.59	17383.16
429.78	15318.81
429.97	15442.85
430.16	15316.47
430.34	15749.46
430.53	15775.21
430.72	15887.56
430.91	17647.64
431.10	20596.71
431.28	24486.68
431.47	26331.03
431.66	26499.55
431.85	24388.38
432.03	22340.41
432.22	21263.77
432.41	22174.24
432.60	24840.11
432.79	25511.84
432.97	26375.50
433.16	25453.33
433.35	23381.95
433.54	21216.96
433.72	19510.71
433.91	20341.60
434.10	22890.44
434.28	24346.25
434.47	25212.25
434.66	25242.68
434.85	24732.44
435.03	24594.35
435.22	25207.57
435.41	27000.42
435.59	26799.13
435.78	26560.40
435.97	28037.28
436.16	27835.99
436.34	27548.11
436.53	27239.15
436.72	27054.25
436.90	25720.15
437.09	25619.50
437.28	24966.49
437.46	25788.02
437.65	26450.39
437.84	24503.07
438.02	22359.14
438.21	21944.86
438.40	23035.55
438.58	25308.21
438.77	26146.12
438.96	25947.18
439.14	27112.77
439.33	27695.56
439.52	28421.13
439.70	27683.86
439.89	26944.25
440.08	26354.43
440.26	26134.42
440.45	27108.08
440.63	28910.30
440.82	30543.99
441.01	30274.83
441.19	29493.09
441.38	29827.79
441.57	31604.25
441.75	31754.05
441.94	31810.22
442.12	31967.04
442.31	32554.51
442.50	32238.54
442.68	31725.96
442.87	31503.61
443.05	30986.35
443.24	31417.01
443.43	31943.63
443.61	33193.48
443.80	33294.12
443.98	31096.36
444.17	31157.21
444.35	32929.00
444.54	33385.40
444.73	33071.77
444.91	31618.30
445.10	30450.37
445.28	29312.87
445.47	28854.12
445.65	28968.81
445.84	29811.40
446.02	30998.06
446.21	31033.16
446.39	31440.42
446.58	32006.83
446.77	32432.80
446.95	32470.25
447.14	33743.50
447.32	33837.12
447.51	33254.33
447.69	32245.56
447.88	31866.39
448.06	31934.27
448.25	32514.72
448.43	33186.46
448.62	32130.87
448.80	32079.38
448.99	32802.61
449.17	32788.56
449.36	32701.96
449.54	33706.05
449.73	34375.45
449.91	34565.03
450.10	35552.74
450.28	36196.38
450.46	35725.94
450.65	36102.76
450.83	35501.25
451.02	34686.74
451.20	34485.45
451.39	34885.68
451.57	34569.71
451.76	34836.53
451.94	34642.27
452.13	34017.35
452.31	32577.92
452.49	31117.42
452.68	31606.59
452.86	31309.35
453.05	31527.02
453.23	32418.76
453.42	33394.76
453.60	33993.94
453.78	34579.07
453.97	33755.21
454.15	34122.67
454.34	33254.33
454.52	33088.15
454.70	33134.96
454.89	33415.83
455.07	33474.34
455.26	34183.52
455.44	35325.71
455.62	36196.38
455.81	36346.18
455.99	35653.38
456.17	34831.85
456.36	35409.96
456.54	36287.67
456.73	36477.25
456.91	37139.62
457.09	37069.40
457.28	37530.49
457.46	36594.28
457.64	36060.63
457.83	35278.89
458.01	34293.53
458.19	34785.04
458.38	35445.07
458.56	36687.90
458.74	36268.94
458.93	36156.60
459.11	35442.73
459.29	35424.01
459.48	35681.47
459.66	34909.09
459.84	36067.66
460.03	36439.80
460.21	36229.15
460.39	37450.91
460.57	37167.71
460.76	37586.66
460.94	37897.95
461.12	37137.28
461.31	36945.36
461.49	36744.07
461.67	37022.59
461.85	38059.45
462.04	37750.50
462.22	38794.38
462.40	38319.25
462.59	37640.50
462.77	38089.88
462.95	38099.24
463.13	37418.14
463.32	37109.19
463.50	37219.20
463.68	36800.24
463.86	37500.06
464.05	36528.74
464.23	35597.21
464.41	35819.56
464.59	35171.23
464.78	37078.77
464.96	36580.23
465.14	36376.61
465.32	37570.28
465.50	38000.94
465.69	38609.48
465.87	37970.51
466.05	36786.20
466.23	35599.55
466.41	34333.32
466.60	35508.27
466.78	35257.83
466.96	36058.29
467.14	36594.28
467.32	37258.99
467.51	37099.83
467.69	35360.81
467.87	36217.45
468.05	36411.71
468.23	36664.49
468.41	36940.68
468.60	36636.41
468.78	37546.87
468.96	36828.33
469.14	37546.87
469.32	37467.30
469.50	36023.19
469.69	36601.30
469.87	36053.61
470.05	35892.12
470.23	35931.90
470.41	36072.34
470.59	36154.26
470.77	36758.11
470.95	37177.07
471.14	37989.24
471.32	37631.13
471.50	39805.49
471.68	39349.09
471.86	40109.76
472.04	40421.05
472.22	40514.67
472.40	38412.87
472.58	38209.25
472.77	37869.87
472.95	38429.26
473.13	39739.96
473.31	38520.54
473.49	38775.66
473.67	39461.43
473.85	39915.50
474.03	40467.86
474.21	40835.33
474.39	41354.93
474.57	41429.82
474.75	41275.35
474.93	41034.27
475.12	40025.50
475.30	40065.29
475.48	40493.61
475.66	41223.86
475.84	40587.23
476.02	40268.92
476.20	39243.76
476.38	40556.80
476.56	41507.06
476.74	42286.46
476.92	42059.43
477.10	43304.59
477.28	44346.13
477.46	43758.66
477.64	44355.49
477.82	44329.75
478.00	44580.18
478.18	43990.37
478.36	44296.98
478.54	43861.64
478.72	44533.37
478.90	45167.66
479.08	46033.66
479.26	46635.17
479.44	46925.40
479.62	46225.58
479.80	46300.48
479.98	46822.42
480.16	46859.87
480.34	46501.76
480.52	46813.05
480.70	47227.33
480.88	46876.25
481.06	47997.37
481.24	47962.26
481.41	49158.27
481.59	49284.66
481.77	49031.88
481.95	48692.50
482.13	48526.33
482.31	48428.02
482.49	49457.86
482.67	48975.71
482.85	49261.26
483.03	49844.05
483.21	50157.68
483.39	50211.51
483.57	49535.10
483.74	49404.03
483.92	49872.14
484.10	49865.11
484.28	50574.30
484.46	51084.53
484.64	51217.94
484.82	50557.91
485.00	49965.76
485.18	49614.68
485.35	47803.10
485.53	45052.97
485.71	41579.62
485.89	40353.18
486.07	42628.18
486.25	46157.70
486.43	48446.75
486.61	48903.15
486.78	48952.30
486.96	49085.72
487.14	50665.58
487.32	51435.61
487.50	52161.18
487.68	53113.78
487.85	53514.01
488.03	53464.86
488.21	53144.20
488.39	52463.11
488.57	52357.78
488.75	51700.09
488.92	52659.71
489.10	54693.64
489.28	55643.90
489.46	56385.85
489.64	56053.49
489.81	56406.91
489.99	56074.55
490.17	55931.78
490.35	56261.80
490.53	55894.33
490.70	55772.63
490.88	55519.85
491.06	56399.89
491.24	56486.49
491.41	55564.32
491.59	54005.52
491.77	53165.27
491.95	54033.61
492.13	55386.44
492.30	56425.64
492.48	57448.45
492.66	57722.29
492.84	57684.84
493.01	57176.95
493.19	56849.27
493.37	56811.82
493.54	56280.52
493.72	57130.14
493.90	57935.28
494.08	58520.41
494.25	58801.28
494.43	58857.45
494.61	59178.10
494.79	59395.77
494.96	59224.92
495.14	58824.68
495.32	57865.06
495.49	57125.46
495.67	58417.43
495.85	59309.18
496.02	59817.07
496.20	59620.47
496.38	59091.51
496.55	58944.05
496.73	59330.24
496.91	59657.91
497.09	60289.86
497.26	60453.70
497.44	59812.39
497.62	59496.42
497.79	58632.76
497.97	57364.19
498.14	57771.44
498.32	58801.28
498.50	59384.07
498.67	60121.34
498.85	59969.21
499.03	60217.30
499.20	60292.20
499.38	60357.74
499.56	60264.11
499.73	59934.10
499.91	59248.32
500.08	58838.73
500.26	58450.20
500.44	58585.95
500.61	59433.22
500.79	59217.89
500.97	58695.95
501.14	58824.68
501.32	58541.48
501.49	58286.36
501.67	58747.45
501.84	59189.81
502.02	59245.98
502.20	59772.60
502.37	59994.95
502.55	59941.12
502.72	60343.69
502.90	60807.12
503.07	60561.36
503.25	60121.34
503.43	59522.16
503.60	58876.18
503.78	58241.89
503.95	58829.37
504.13	59938.78
504.30	60725.20
504.48	60514.55
504.65	60156.45
504.83	60289.86
505.01	60889.04
505.18	61179.26
505.36	61577.15
505.53	61626.31
505.71	61703.54
505.88	62054.62
506.06	61357.14
506.23	61104.37
506.41	60729.88
506.58	61020.11
506.76	60856.27
506.93	60858.61
507.11	60715.84
507.28	60809.46
507.46	60479.44
507.63	59746.86
507.81	59580.68
507.98	59831.11
508.16	60423.27
508.33	60992.02
508.50	61305.65
508.68	61520.98
508.85	62014.83
509.03	61989.09
509.20	61715.25
509.38	61354.80
509.55	60591.79
509.73	60692.43
509.90	61106.71
510.08	61350.12
510.25	61322.04
510.42	61099.68
510.60	60968.61
510.77	61481.19
510.95	61626.31
511.12	61858.02
511.30	62321.44
511.47	62475.92
511.64	62461.88
511.82	62026.54
511.99	61352.46
512.17	60935.85
512.34	60676.05
512.51	60732.22
512.69	61031.81
512.86	60928.83
513.04	61352.46
513.21	61406.30
513.38	61118.41
513.56	60505.19
513.73	60046.44
513.90	60378.80
514.08	60296.88
514.25	60697.11
514.43	60680.73
514.60	61043.51
514.77	60860.95
514.95	61214.37
515.12	60781.37
515.29	61144.16
515.47	61605.24
515.64	61872.06
515.81	61630.99
515.99	60977.98
516.16	59561.95
516.33	57570.16
516.51	56444.36
516.68	55487.08
516.85	55402.82
517.03	55730.50
517.20	57928.26
517.37	60135.38
517.54	61106.71
517.72	60769.67
517.89	58569.57
518.06	56332.01
518.24	56732.25
518.41	58775.53
518.58	59945.80
518.75	59971.55
518.93	60229.01
519.10	59964.52
519.27	60521.57
519.45	60732.22
519.62	61179.26
519.79	61731.63
519.96	61595.88
520.14	61219.05
520.31	60130.70
520.48	60374.12
520.65	60629.24
520.83	61476.51
521.00	61654.39
521.17	61380.55
521.34	61190.97
521.52	61450.77
521.69	61963.34
521.86	62267.61
522.03	62087.39
522.20	60910.10
522.38	60128.36
522.55	60088.57
522.72	60460.72
522.89	60601.15
523.07	60706.47
523.24	61244.80
523.41	62082.71
523.58	62162.29
523.75	62651.46
523.92	62394.00
524.10	62438.47
524.27	62417.41
524.44	62225.48
524.61	62028.88
524.78	61867.38
524.96	61729.29
525.13	61939.94
525.30	62045.26
525.47	62562.52
525.64	62281.66
525.81	61764.40
525.98	60439.65
526.16	59173.42
526.33	58590.63
526.50	58183.38
526.67	57935.28
526.84	58497.01
527.01	59393.43
527.18	60046.44
527.36	60977.98
527.53	61628.65
527.70	62068.67
527.87	61415.66
528.04	60956.91
528.21	61441.40
528.38	62103.77
528.55	62532.09
528.72	62934.66
528.89	62960.41
529.07	62630.40
529.24	62120.16
529.41	61539.71
529.58	61062.24
529.75	60940.53
529.92	61649.71
530.09	61925.89
530.26	62279.31
530.43	62745.08
530.60	62637.42
530.77	62843.38
530.94	62880.83
531.11	62506.35
531.28	62302.72
531.46	62054.62
531.63	62232.50
531.80	62005.47
531.97	61712.91
532.14	61043.51
532.31	60243.05
532.48	59451.95
532.65	59465.99
532.82	60261.77
532.99	61476.51
533.16	61565.45
533.33	62192.72
533.50	61858.02
533.67	61357.14
533.84	61076.28
534.01	61289.27
534.18	61352.46
534.35	61740.99
534.52	61406.30
534.69	61717.59
534.86	61785.46
535.03	62173.99
535.20	62614.01
535.37	62953.39
535.54	63103.18
535.71	62705.29
535.88	62361.23
536.05	61642.69
536.22	61354.80
536.38	61127.77
536.55	60739.24
536.72	60193.90
536.89	60121.34
537.06	60921.80
537.23	61748.01
537.40	61733.97
537.57	61923.55
537.74	61762.06
537.91	61600.56
538.08	61591.20
538.25	61719.93
538.42	62026.54
538.59	61612.26
538.75	61169.90
538.92	60863.29
539.09	60849.25
539.26	60631.58
539.43	60341.35
539.60	60348.37
539.77	60640.94
539.94	60549.66
540.11	59842.82
540.28	59248.32
540.44	59613.44
540.61	59730.47
540.78	60006.65
540.95	60221.98
541.12	60718.18
541.29	60898.40
541.46	61123.09
541.62	61261.18
541.79	60945.21
541.96	60441.99
542.13	60580.09
542.30	60910.10
542.47	60870.31
542.63	60706.47
542.80	60509.87
542.97	60617.53
543.14	60591.79
543.31	60615.19
543.48	60938.19
543.64	61691.84
543.81	61958.66
543.98	61883.76
544.15	61195.65
544.32	60493.49
544.48	60626.90
544.65	61071.60
544.82	61586.52
544.99	61209.69
545.16	60837.54
545.32	60549.66
545.49	61366.51
545.66	61539.71
545.83	61293.95
546.00	60954.57
546.16	60926.49
546.33	60704.13
546.50	60926.49
546.67	61095.00
546.83	60814.14
547.00	60846.91
547.17	60196.24
547.34	59561.95
547.50	59793.67
547.67	60046.44
547.84	60114.32
548.00	60568.38
548.17	60764.99
548.34	60697.11
548.51	60711.16
548.67	60856.27
548.84	60790.73
549.01	60942.87
549.18	60650.30
549.34	60666.69
549.51	60757.97
549.68	60615.19
549.84	60317.95
550.01	60336.67
550.18	60126.02
550.34	60322.63
550.51	60449.02
550.68	60479.44
550.84	59920.05
551.01	60186.88
551.18	59901.33
551.34	60266.45
551.51	60402.21
551.68	60753.29
551.84	60903.08
552.01	60650.30
552.18	60484.12
552.34	59936.44
552.51	59475.35
552.68	59285.77
552.84	60030.06
553.01	60200.92
553.18	60037.08
553.34	60032.40
553.51	60142.41
553.67	60636.26
553.84	60867.97
554.01	60411.57
554.17	60278.16
554.34	60301.56
554.51	60441.99
554.67	60444.33
554.84	60645.62
555.00	60285.18
555.17	59941.12
555.33	59929.42
555.50	59920.05
555.67	60046.44
555.83	59915.37
556.00	59678.98
556.16	59681.32
556.33	59384.07
556.50	59117.25
556.66	59318.54
556.83	58993.20
556.99	59192.15
557.16	59072.78
557.32	59512.80
557.49	59559.61
557.65	59447.27
557.82	59571.32
557.98	59304.49
558.15	59068.10
558.32	58293.38
558.48	57317.38
558.65	57521.01
558.81	58087.42
558.98	58115.50
559.14	58543.82
559.31	58693.61
559.47	58541.48
559.64	58265.30
559.80	58073.37
559.97	57944.64
560.13	58391.68
560.30	59002.56
560.46	59657.91
560.63	59845.16
560.79	59950.48
560.96	59433.22
561.12	58480.63
561.29	57762.08
561.45	57794.85
561.61	58246.57
561.78	58677.23
561.94	58511.05
562.11	58726.38
562.27	58206.78
562.44	58632.76
562.60	59077.46
562.77	58930.01
562.93	58990.86
563.10	58948.73
563.26	58520.41
563.42	58454.88
563.59	58337.85
563.75	58375.30
563.92	58272.32
564.08	58176.36
564.24	58403.39
564.41	58464.24
564.57	58489.99
564.74	58379.98
564.90	58248.91
565.07	57886.13
565.23	57593.56
565.39	57258.87
565.56	57233.12
565.72	56849.27
565.88	57144.18
566.05	57195.67
566.21	57513.98
566.38	57668.46
566.54	57621.65
566.70	57897.83
566.87	58155.29
567.03	58274.66
567.19	58480.63
567.36	57984.43
567.52	57944.64
567.68	57745.70
567.85	57233.12
568.01	56921.83
568.17	56491.17
568.34	56647.99
568.50	56425.64
568.66	56594.15
568.83	57095.03
568.99	57020.13
569.15	57345.47
569.32	57345.47
569.48	56996.73
569.64	56554.36
569.81	56420.95
569.97	56409.25
570.13	56147.11
570.30	56004.34
570.46	55604.11
570.62	55231.96
570.78	55126.64
570.95	55316.22
571.11	56046.47
571.27	56119.02
571.43	56624.58
571.60	56741.61
571.76	56626.92
571.92	56996.73
572.09	57301.00
572.25	57085.67
572.41	57296.31
572.57	56811.82
572.74	56926.51
572.90	56577.77
573.06	56542.66
573.22	56615.22
573.38	56669.05
573.55	56493.51
573.71	56891.40
573.87	56678.41
574.03	56481.81
574.20	56657.35
574.36	56144.77
574.52	55950.51
574.68	55676.66
574.84	55416.86
575.01	55269.41
575.17	54990.89
575.33	55370.05
575.49	55533.89
575.65	55781.99
575.82	55456.65
575.98	55133.66
576.14	55435.59
576.30	55810.07
576.46	55891.99
576.62	55814.76
576.79	55868.59
576.95	55583.04
577.11	55348.99
577.27	55681.34
577.43	55540.91
577.59	55194.51
577.75	54995.57
577.92	54293.41
578.08	54129.57
578.24	54176.38
578.40	54583.63
578.56	54803.64
578.72	54663.21
578.88	54674.91
579.04	55119.62
579.21	55002.59
579.37	55241.32
579.53	55295.16
579.69	55374.73
579.85	55473.04
580.01	55370.05
580.17	54653.85
580.33	54717.04
580.49	54726.41
580.65	54997.91
580.82	55138.34
580.98	55164.09
581.14	55084.51
581.30	55316.22
581.46	55061.10
581.62	55157.06
581.78	55323.24
581.94	55292.82
582.10	55444.95
582.26	55547.93
582.42	55269.41
582.58	55437.93
582.74	55227.28
582.90	55433.25
583.06	55119.62
583.22	54981.52
583.38	54923.01
583.54	54995.57
583.70	54885.56
583.86	55124.30
584.02	54836.41
584.18	55042.38
584.34	54691.30
584.50	54707.68
584.66	54525.12
584.82	54188.08
584.98	54277.02
585.14	53755.08
