SpectraSuite Data File
++++++++++++++++++++++++++++++++++++
Date: Mon Oct 07 14:53:48 GMT-05:00 2013
User: price-jones
Dark Spectrum Present: No
Reference Spectrum Present: No
Number of Sampled Component Spectra: 1
Spectrometers: USB2+H05261
Integration Time (usec): 100000 (USB2+H05261)
Spectra Averaged: 1 (USB2+H05261)
Boxcar Smoothing: 0 (USB2+H05261)
Correct for Electrical Dark: No (USB2+H05261)
Strobe/Lamp Enabled: No (USB2+H05261)
Correct for Detector Non-linearity: No (USB2+H05261)
Correct for Stray Light: No (USB2+H05261)
Number of Pixels in Processed Spectrum: 2048
>>>>>Begin Processed Spectral Data<<<<<
365.73	0.00
365.92	0.00
366.12	0.00
366.32	0.00
366.52	0.00
366.72	0.00
366.91	0.00
367.11	0.00
367.31	0.00
367.51	0.00
367.70	0.00
367.90	0.00
368.10	0.00
368.30	0.00
368.49	0.00
368.69	0.00
368.89	0.00
369.09	0.00
369.28	0.00
369.48	0.00
369.68	0.00
369.87	0.00
370.07	0.00
370.27	0.00
370.47	608.54
370.66	3033.33
370.86	3625.49
371.06	3934.44
371.25	3882.95
371.45	3569.32
371.65	3253.34
371.84	2960.78
372.04	2841.41
372.24	3454.63
372.44	3618.47
372.63	3620.81
372.83	3372.71
373.03	2991.20
373.22	2658.85
373.42	2832.05
373.62	3269.73
373.81	3499.10
374.01	3543.57
374.21	3232.28
374.40	2897.58
374.60	3108.23
374.79	3599.74
374.99	4091.26
375.19	4428.29
375.38	4400.21
375.58	4105.30
375.78	4049.13
375.97	4098.28
376.17	4250.41
376.37	4318.29
376.56	4358.08
376.76	4660.01
376.95	5118.75
377.15	5334.08
377.35	5418.34
377.54	5823.25
377.74	5898.15
377.93	5856.02
378.13	5746.02
378.33	5418.34
378.52	5041.51
378.72	4809.80
378.91	4908.10
379.11	4685.75
379.31	4456.38
379.50	4535.96
379.70	4772.35
379.89	5287.27
380.09	5710.91
380.28	5881.77
380.48	5671.12
380.68	5818.57
380.87	5486.22
381.07	5158.54
381.26	4641.28
381.46	4353.40
381.65	4238.71
381.85	4203.60
382.04	3950.82
382.24	3859.54
382.43	3637.19
382.63	3550.59
382.83	3379.73
383.02	3492.08
383.22	3494.42
383.41	3543.57
383.61	3627.83
383.80	4381.48
384.00	4826.18
384.19	5460.47
384.39	5736.65
384.58	5621.97
384.78	5568.13
384.97	5551.75
385.17	5291.95
385.36	5111.73
385.56	4770.01
385.75	4926.83
385.95	5540.05
386.14	5809.21
386.34	5865.38
386.53	5462.81
386.72	5263.86
386.92	5350.46
387.11	5628.99
387.31	5832.62
387.50	5731.97
387.70	5507.28
387.89	5586.86
388.09	5685.16
388.28	5631.33
388.48	5809.21
388.67	6040.92
388.86	6738.40
389.06	7143.32
389.25	7632.49
389.45	7683.98
389.64	7714.41
389.84	7438.22
390.03	7616.10
390.22	7344.60
390.42	7695.68
390.61	8351.03
390.81	8779.35
391.00	8842.54
391.19	8868.29
391.39	8615.51
391.58	8006.97
391.78	7588.02
391.97	7309.49
392.16	6899.90
392.36	6242.21
392.55	4933.85
392.75	4067.85
392.94	3269.73
393.13	3208.87
393.33	3679.32
393.52	4798.10
393.71	5785.80
393.91	6839.05
394.10	7286.09
394.29	8035.06
394.49	8468.06
394.68	9504.92
394.88	9088.30
395.07	9671.09
395.26	9774.08
395.46	9291.93
395.65	8940.85
395.84	7681.64
396.04	6457.54
396.23	5289.61
396.42	4390.84
396.62	4114.66
396.81	4903.42
397.00	6251.57
397.19	8035.06
397.39	9359.80
397.58	10759.44
397.77	11178.40
397.97	11545.86
398.16	11585.65
398.35	12135.68
398.55	12538.25
398.74	13069.55
398.93	13160.83
399.12	13266.16
399.32	12409.52
399.51	12950.18
399.70	13984.70
399.90	13642.98
400.09	13568.09
400.28	13282.54
400.47	13965.98
400.67	14696.22
400.86	14331.10
401.05	14714.95
401.24	14923.26
401.44	14932.62
401.63	14918.57
401.82	14944.32
402.01	14878.79
402.21	15190.08
402.40	15386.68
402.59	14808.57
402.78	14178.97
402.97	13781.07
403.17	14324.08
403.36	15047.30
403.55	15775.21
403.74	16245.66
403.93	15325.83
404.13	14160.24
404.32	13809.16
404.51	14476.21
404.70	15449.88
404.89	15454.56
405.09	15382.00
405.28	14677.50
405.47	14981.77
405.66	14822.61
405.85	14476.21
406.05	13809.16
406.24	14115.77
406.43	15037.94
406.62	15382.00
406.81	15442.85
407.00	14977.09
407.20	14721.97
407.39	14960.70
407.58	15234.55
407.77	16044.37
407.96	16762.92
408.15	16886.97
408.34	16690.36
408.54	17338.69
408.73	17734.24
408.92	17270.81
409.11	16842.50
409.30	16194.17
409.49	14925.60
409.68	14232.80
409.87	13930.87
410.07	14750.06
410.26	15609.03
410.45	16943.14
410.64	17177.19
410.83	17774.03
411.02	18174.26
411.21	18593.22
411.40	18623.64
411.59	18600.24
411.78	18223.41
411.98	18288.95
412.17	18628.32
412.36	18071.28
412.55	18178.94
412.74	17853.61
412.93	17266.13
413.12	17586.79
413.31	19220.48
413.50	19438.15
413.69	20133.29
413.88	19201.76
414.07	18328.74
414.26	18768.76
414.45	19360.91
414.64	19529.43
414.83	19571.56
415.02	19278.99
415.22	19403.04
415.41	19445.17
415.60	20198.82
415.79	21149.08
415.98	21577.40
416.17	21530.59
416.36	20788.64
416.55	20786.30
416.74	20051.37
416.93	19559.86
417.12	19435.81
417.31	19728.38
417.50	20070.09
417.69	20634.16
417.88	20755.87
418.07	20400.11
418.26	20140.31
418.45	20252.66
418.64	21015.67
418.83	21783.37
419.02	21287.17
419.21	21357.39
419.39	20091.16
419.58	19211.12
419.77	19601.99
419.96	20339.26
420.15	21242.70
420.34	22260.84
420.53	22731.28
420.72	23105.77
420.91	22775.75
421.10	22691.49
421.29	22583.83
421.48	21493.14
421.67	22808.52
421.86	22017.42
422.05	20879.92
422.24	18721.95
422.43	18272.56
422.61	20348.62
422.80	22087.64
422.99	22134.45
423.18	21003.97
423.37	20821.41
423.56	20802.68
423.75	21228.66
423.94	21647.61
424.13	20231.59
424.32	20713.74
424.50	20467.98
424.69	20266.70
424.88	20540.54
425.07	20428.20
425.26	20414.15
425.45	20203.50
425.64	19910.94
425.83	19761.14
426.01	21039.08
426.20	21614.85
426.39	21666.34
426.58	19737.74
426.77	18480.87
426.96	17584.44
427.15	18490.23
427.33	19690.93
427.52	20720.76
427.71	20933.75
427.90	20540.54
428.09	20400.11
428.28	20032.65
428.46	19590.28
428.65	18885.78
428.84	19482.62
429.03	19868.81
429.22	18752.37
429.40	17762.33
429.59	16549.93
429.78	14246.84
429.97	14225.78
430.16	14548.77
430.34	14455.15
430.53	14237.48
430.72	14611.96
430.91	16542.91
431.10	19026.21
431.28	22532.34
431.47	24552.22
431.66	24917.34
431.85	22771.07
432.03	20940.77
432.22	19740.08
432.41	20652.89
432.60	22623.62
432.79	23627.71
432.97	24662.22
433.16	24149.65
433.35	21916.78
433.54	19789.23
433.72	18438.74
433.91	18958.34
434.10	21149.08
434.28	22712.56
434.47	23821.97
434.66	23828.99
434.85	23035.55
435.03	22911.50
435.22	23454.51
435.41	24730.10
435.59	25034.37
435.78	25219.27
435.97	25752.91
436.16	26085.27
436.34	25933.14
436.53	24989.90
436.72	25067.14
436.90	23534.09
437.09	23906.23
437.28	23126.83
437.46	24077.09
437.65	24072.41
437.84	22852.99
438.02	20713.74
438.21	20524.16
438.40	21535.27
438.58	23133.86
438.77	23936.66
438.96	24734.78
439.14	25240.34
439.33	25663.97
439.52	26604.87
439.70	25708.44
439.89	25053.09
440.08	24444.56
440.26	24418.81
440.45	25291.83
440.63	26485.50
440.82	28505.38
441.01	27641.73
441.19	27527.04
441.38	28268.99
441.57	29085.84
441.75	29605.44
441.94	29654.59
442.12	29420.53
442.31	30129.72
442.50	29640.54
442.68	29764.59
442.87	29064.77
443.05	28807.31
443.24	29427.56
443.43	29790.34
443.61	30796.77
443.80	31000.40
443.98	29024.98
444.17	28793.27
444.35	30822.51
444.54	31442.76
444.73	31012.10
444.91	29605.44
445.10	28608.37
445.28	27208.73
445.47	26979.36
445.65	26843.60
445.84	27494.27
446.02	28753.48
446.21	28891.57
446.39	29366.70
446.58	29792.68
446.77	30143.76
446.95	30237.38
447.14	30967.63
447.32	31585.53
447.51	31187.64
447.69	29734.17
447.88	29631.18
448.06	29593.73
448.25	30396.54
448.43	31040.18
448.62	30218.66
448.80	30139.08
448.99	30036.09
449.17	30462.07
449.36	30728.89
449.54	31173.60
449.73	32191.73
449.91	32535.79
450.10	33251.99
450.28	33968.19
450.46	33432.21
450.65	33226.24
450.83	33715.42
451.02	32011.51
451.20	32453.87
451.39	32631.75
451.57	32577.92
451.76	31934.27
451.94	31761.07
452.13	31449.78
452.31	29862.90
452.49	28615.39
452.68	29057.75
452.86	29057.75
453.05	29329.25
453.23	30436.33
453.42	30745.28
453.60	31587.87
453.78	31854.69
453.97	31791.50
454.15	31770.43
454.34	30925.50
454.52	30906.77
454.70	30230.36
454.89	31072.95
455.07	30998.06
455.26	31161.89
455.44	32421.10
455.62	33504.77
455.81	33502.43
455.99	33462.64
456.17	32840.06
456.36	33221.56
456.54	33797.34
456.73	33907.34
456.91	34340.34
457.09	34686.74
457.28	35133.78
457.46	33511.79
457.64	33837.12
457.83	32713.67
458.01	32259.60
458.19	32807.29
458.38	33039.00
458.56	34115.65
458.74	33479.02
458.93	33139.65
459.11	33570.30
459.29	32982.83
459.48	33027.30
459.66	32769.84
459.84	33289.44
460.03	34064.16
460.21	33750.52
460.39	34672.70
460.57	34522.90
460.76	34864.62
460.94	35108.04
461.12	34604.82
461.31	34387.15
461.49	34349.70
461.67	34373.11
461.85	35529.33
462.04	35264.85
462.22	35325.71
462.40	35632.32
462.59	35234.42
462.77	35426.35
462.95	35707.21
463.13	35077.61
463.32	34328.64
463.50	34480.77
463.68	34232.68
463.86	34246.72
464.05	34010.32
464.23	33343.27
464.41	33338.59
464.59	32685.58
464.78	34134.37
464.96	34239.70
465.14	33670.95
465.32	34848.24
465.50	35541.03
465.69	36266.60
465.87	35248.47
466.05	34005.64
466.23	32353.23
466.41	32109.81
466.60	32896.23
466.78	32865.80
466.96	33179.43
467.14	33905.00
467.32	34644.61
467.51	34029.05
467.69	32706.65
467.87	33670.95
468.05	34340.34
468.23	34108.63
468.41	33986.92
468.60	34419.92
468.78	34513.54
468.96	33975.22
469.14	34927.81
469.32	35182.93
469.50	33844.15
469.69	33619.46
469.87	33298.80
470.05	33324.55
470.23	33102.20
470.41	33120.92
470.59	33579.67
470.77	34178.84
470.95	34536.94
471.14	35360.81
471.32	35164.21
471.50	36989.83
471.68	37209.84
471.86	37291.76
472.04	37275.37
472.22	37598.37
472.40	35475.50
472.58	35356.13
472.77	35168.89
472.95	35821.90
473.13	36706.62
473.31	35730.62
473.49	35896.80
473.67	36556.83
473.85	36680.88
474.03	37635.81
474.21	38007.96
474.39	38061.79
474.57	39028.43
474.75	38487.77
474.93	38082.86
475.12	37013.23
475.30	37368.99
475.48	37537.51
475.66	38167.12
475.84	37479.00
476.02	37268.35
476.20	36973.44
476.38	37345.59
476.56	38366.06
476.74	39414.62
476.92	38958.22
477.10	39938.90
477.28	41071.72
477.46	40467.86
477.64	41418.12
477.82	40971.08
478.00	41574.94
478.18	40769.79
478.36	40631.70
478.54	41244.92
478.72	41202.79
478.90	41975.17
479.08	43440.34
479.26	43503.54
479.44	43505.88
479.62	43222.67
479.80	42916.06
479.98	43515.24
480.16	43700.14
480.34	43299.91
480.52	43381.83
480.70	43983.35
480.88	43723.55
481.06	45153.62
481.24	45137.23
481.41	46337.93
481.59	46515.81
481.77	46143.66
481.95	45535.12
482.13	45191.06
482.31	45305.75
482.49	46522.83
482.67	46239.62
482.85	46609.43
483.03	47136.05
483.21	47536.28
483.39	47545.64
483.57	46461.97
483.74	46134.30
483.92	46796.67
484.10	46635.17
484.28	47842.89
484.46	48177.59
484.64	48437.39
484.82	47763.31
485.00	47014.34
485.18	46263.03
485.35	45404.05
485.53	41907.29
485.71	38438.62
485.89	37439.21
486.07	39643.99
486.25	43335.02
486.43	45647.47
486.61	45935.35
486.78	45727.05
486.96	46045.36
487.14	47969.28
487.32	48671.44
487.50	49731.70
487.68	50621.11
487.85	51145.39
488.03	51117.30
488.21	50499.40
488.39	49977.46
488.57	49371.26
488.75	49191.04
488.92	49717.66
489.10	51997.34
489.28	53514.01
489.46	54068.72
489.64	54171.70
489.81	54307.45
489.99	53588.91
490.17	53546.78
490.35	54045.31
490.53	53439.11
490.70	53453.15
490.88	53406.34
491.06	54253.62
491.24	53972.75
491.41	53102.07
491.59	51248.37
491.77	50653.87
491.95	51798.40
492.13	52973.34
492.30	53886.15
492.48	54820.03
492.66	55473.04
492.84	55547.93
493.01	55276.43
493.19	54770.88
493.37	54459.58
493.54	54295.75
493.72	54855.14
493.90	55767.94
494.08	56240.73
494.25	56732.25
494.43	56589.47
494.61	57235.46
494.79	57418.02
494.96	57050.56
495.14	56603.52
495.32	55622.83
495.49	54897.27
495.67	55840.50
495.85	57530.37
496.02	57731.65
496.20	57506.96
496.38	56879.70
496.55	57111.41
496.73	57357.17
496.91	57537.39
497.09	58056.99
497.26	58255.93
497.44	57881.45
497.62	57322.06
497.79	56708.84
497.97	55283.45
498.14	55583.04
498.32	56594.15
498.50	57289.29
498.67	58136.57
498.85	57939.96
499.03	57972.73
499.20	58312.11
499.38	58391.68
499.56	58005.50
499.73	57731.65
499.91	57315.04
500.08	56666.71
500.26	56053.49
500.44	56315.63
500.61	57277.59
500.79	57038.86
500.97	56741.61
501.14	56563.73
501.32	56390.53
501.49	56425.64
501.67	56647.99
501.84	57043.54
502.02	57228.44
502.20	57710.59
502.37	57932.94
502.55	58007.84
502.72	58398.71
502.90	59016.61
503.07	58518.07
503.25	58157.63
503.43	57542.07
503.60	56846.93
503.78	56135.41
503.95	56596.49
504.13	57764.42
504.30	58639.78
504.48	58698.30
504.65	58031.24
504.83	58204.44
505.01	58876.18
505.18	59040.01
505.36	59648.55
505.53	59756.22
505.71	60058.15
505.88	60018.36
506.06	59430.88
506.23	59243.64
506.41	58560.20
506.58	58922.99
506.76	58962.78
506.93	59035.33
507.11	58562.54
507.28	58796.60
507.46	58419.77
507.63	57874.43
507.81	57684.84
507.98	57874.43
508.16	58492.33
508.33	59161.72
508.50	59393.43
508.68	59505.78
508.85	60065.17
509.03	60041.76
509.20	59927.08
509.38	59215.55
509.55	58590.63
509.73	58728.72
509.90	59187.47
510.08	59370.03
510.25	59114.91
510.42	59159.38
510.60	58983.84
510.77	59304.49
510.95	59629.83
511.12	59863.88
511.30	60111.98
511.47	60451.36
511.64	60453.70
511.82	60184.54
511.99	59393.43
512.17	58890.22
512.34	58555.52
512.51	58663.19
512.69	59044.69
512.86	59327.90
513.04	59512.80
513.21	59348.96
513.38	58960.44
513.56	58614.04
513.73	58197.42
513.90	58253.59
514.08	58305.09
514.25	58522.76
514.43	58859.79
514.60	58993.20
514.77	59140.66
514.95	59093.85
515.12	59072.78
515.29	59278.75
515.47	59657.91
515.64	59913.03
515.81	59608.76
515.99	58986.18
516.16	57663.78
516.33	55426.23
516.51	54160.00
516.68	53450.81
516.85	52989.73
517.03	53183.99
517.20	55676.66
517.37	58204.44
517.54	59145.34
517.72	58529.78
517.89	56491.17
518.06	53888.49
518.24	54174.04
518.41	56484.15
518.58	57652.08
518.75	58129.54
518.93	58166.99
519.10	57888.47
519.27	58518.07
519.45	58628.08
519.62	59325.56
519.79	59700.04
519.96	59550.25
520.14	59016.61
520.31	58223.17
520.48	58288.70
520.65	58457.22
520.83	59615.79
521.00	59854.52
521.17	59463.65
521.34	59217.89
521.52	59536.21
521.69	60069.85
521.86	60451.36
522.03	60027.72
522.20	58918.31
522.38	57750.38
522.55	57935.28
522.72	58302.74
522.89	58824.68
523.07	58707.66
523.24	59051.72
523.41	59910.69
523.58	60200.92
523.75	60793.07
523.92	60463.06
524.10	60355.39
524.27	60360.08
524.44	60292.20
524.61	59936.44
524.78	60037.08
524.96	59859.20
525.13	59767.92
525.30	59994.95
525.47	60575.40
525.64	60395.18
525.81	59781.96
525.98	58445.52
526.16	57031.83
526.33	56329.67
526.50	56156.47
526.67	55707.09
526.84	56280.52
527.01	57183.97
527.18	57890.81
527.36	58651.48
527.53	59723.45
527.70	59985.59
527.87	59576.00
528.04	58948.73
528.21	59386.41
528.38	60111.98
528.55	60631.58
528.72	60814.14
528.89	60987.34
529.07	60736.90
529.24	60130.70
529.41	59543.23
529.58	58944.05
529.75	59051.72
529.92	59611.10
530.09	60130.70
530.26	60371.78
530.43	60622.22
530.60	60535.62
530.77	60811.80
530.94	60956.91
531.11	60596.47
531.28	60193.90
531.46	60088.57
531.63	60065.17
531.80	60121.34
531.97	59533.87
532.14	58927.67
532.31	57808.89
532.48	57031.83
532.65	57270.57
532.82	58321.47
532.99	59185.13
533.16	59604.08
533.33	60065.17
533.50	59877.93
533.67	59405.14
533.84	58941.71
534.01	59032.99
534.18	59215.55
534.35	59384.07
534.52	59330.24
534.69	59428.54
534.86	59910.69
535.03	59889.63
535.20	60582.43
535.37	60779.03
535.54	60952.23
535.71	60729.88
535.88	60250.07
536.05	59667.28
536.22	59164.06
536.38	59042.35
536.55	58663.19
536.72	58115.50
536.89	57876.77
537.06	58700.64
537.23	59625.15
537.40	59749.20
537.57	59859.20
537.74	59636.85
537.91	59568.97
538.08	59341.94
538.25	59627.49
538.42	59671.96
538.59	59451.95
538.75	59014.27
538.92	58698.30
539.09	58621.06
539.26	58621.06
539.43	58305.09
539.60	58213.80
539.77	58475.94
539.94	58433.81
540.11	57715.27
540.28	57172.27
540.44	57193.33
540.61	57623.99
540.78	57600.58
540.95	58314.45
541.12	58515.73
541.29	58710.00
541.46	58983.84
541.62	59075.12
541.79	58873.84
541.96	58567.23
542.13	58253.59
542.30	58408.07
542.47	58773.19
542.63	58623.40
542.80	58202.10
542.97	58553.18
543.14	58295.72
543.31	58349.56
543.48	58953.41
543.64	59608.76
543.81	59849.84
543.98	59824.09
544.15	58892.56
544.32	58487.65
544.48	58567.23
544.65	59021.29
544.82	59386.41
544.99	58918.31
545.16	58459.56
545.32	58508.71
545.49	59367.69
545.66	59538.55
545.83	58955.75
546.00	58808.30
546.16	58564.88
546.33	58787.24
546.50	58604.67
546.67	58859.79
546.83	58777.87
547.00	58972.14
547.17	57972.73
547.34	57535.05
547.50	57282.27
547.67	57825.28
547.84	57982.09
548.00	58337.85
548.17	58787.24
548.34	58686.59
548.51	58574.25
548.67	58674.89
548.84	58782.55
549.01	58546.16
549.18	58417.43
549.34	58550.84
549.51	58487.65
549.68	58321.47
549.84	58155.29
550.01	58073.37
550.18	58064.01
550.34	57883.79
550.51	58181.04
550.68	58251.25
550.84	57801.87
551.01	57717.61
551.18	57525.69
551.34	57954.00
551.51	58372.96
551.68	58595.31
551.84	58532.12
552.01	58562.54
552.18	58443.18
552.34	57656.76
552.51	57216.74
552.68	57013.11
552.84	57640.37
553.01	57925.92
553.18	57724.63
553.34	57719.95
553.51	57956.35
553.67	58202.10
553.84	58295.72
554.01	58312.11
554.17	58054.65
554.34	58096.78
554.51	58134.23
554.67	58501.69
554.84	58387.00
555.00	58024.22
555.17	57869.75
555.33	57846.34
555.50	57801.87
555.67	57635.69
555.83	57268.23
556.00	57513.98
556.16	57345.47
556.33	56912.47
556.50	57073.96
556.66	57034.17
556.83	56645.65
556.99	56905.44
557.16	56914.81
557.32	57092.69
557.49	57183.97
557.65	57380.57
557.82	57139.50
557.98	57059.92
558.15	56594.15
558.32	55887.31
558.48	55047.06
558.65	55412.18
558.81	55597.09
558.98	55840.50
559.14	55997.32
559.31	56112.00
559.47	56189.24
559.64	55646.24
559.80	55679.00
559.97	55545.59
560.13	55941.14
560.30	57062.26
560.46	57481.22
560.63	57771.44
560.79	57715.27
560.96	57223.76
561.12	56168.18
561.29	55138.34
561.45	55339.63
561.61	55934.12
561.78	56371.80
561.94	56177.54
562.11	56112.00
562.27	55906.04
562.44	56397.55
562.60	56369.46
562.77	56807.14
562.93	56350.74
563.10	56449.04
563.26	55716.45
563.42	55880.29
563.59	55793.69
563.75	55987.95
563.92	56175.20
564.08	55693.05
564.24	56282.86
564.41	56086.26
564.57	56086.26
564.74	55758.58
564.90	55899.01
565.07	55412.18
565.23	55451.97
565.39	54852.80
565.56	54604.70
565.72	54293.41
565.88	54621.08
566.05	54761.51
566.21	55072.81
566.38	55264.73
566.54	55370.05
566.70	55629.85
566.87	56076.90
567.03	55697.73
567.19	56067.53
567.36	55798.37
567.52	55739.86
567.68	55458.99
567.85	54632.78
568.01	54262.98
568.17	53954.03
568.34	53907.22
568.50	53939.99
568.66	54096.80
568.83	54433.84
568.99	54475.97
569.15	54705.34
569.32	54789.60
569.48	54380.01
569.64	54246.60
569.81	54017.22
569.97	53757.42
570.13	53811.26
570.30	53401.66
570.46	52823.55
570.62	52580.13
570.78	52130.75
570.95	52552.05
571.11	52907.81
571.27	53446.13
571.43	53591.25
571.60	54092.12
571.76	54202.13
571.92	54342.56
572.09	54684.28
572.25	54663.21
572.41	54520.44
572.57	54178.72
572.74	54115.53
572.90	53862.75
573.06	54225.53
573.22	53972.75
573.38	53965.73
573.55	54110.85
573.71	54089.78
573.87	53778.49
574.03	53876.79
574.20	53719.98
574.36	53439.11
574.52	53155.91
574.68	53385.28
574.84	52781.42
575.01	52275.87
575.17	52446.72
575.33	52748.65
575.49	52783.76
575.65	53130.16
575.82	52961.64
575.98	52662.05
576.14	52750.99
576.30	53226.12
576.46	53373.58
576.62	53198.04
576.79	53001.43
576.95	52828.23
577.11	52912.49
577.27	52889.09
577.43	52961.64
577.59	52364.81
577.75	52147.14
577.92	51276.46
578.08	50958.14
578.24	51370.08
578.40	51372.42
578.56	51978.62
578.72	52060.54
578.88	52301.61
579.04	52165.86
579.21	52259.48
579.37	52219.69
579.53	52385.87
579.69	52521.62
579.85	52439.70
580.01	52552.05
580.17	52121.39
580.33	51852.23
580.49	51971.60
580.65	52046.49
580.82	52191.61
580.98	52648.01
581.14	52161.18
581.30	52233.74
581.46	52336.72
581.62	52479.49
581.78	52435.02
581.94	52945.26
582.10	52348.42
582.26	52500.56
582.42	52533.32
582.58	52872.70
582.74	52470.13
582.90	52449.06
583.06	52250.12
583.22	52032.45
583.38	52041.81
583.54	51957.55
583.70	52217.35
583.86	52023.09
584.02	52027.77
584.18	52144.80
584.34	52027.77
584.50	51686.05
584.66	51849.89
584.82	51501.15
584.98	51639.24
585.14	50532.17
585.30	50241.94
