SpectraSuite Data File
++++++++++++++++++++++++++++++++++++
Date: Mon Oct 07 14:53:50 GMT-05:00 2013
User: price-jones
Dark Spectrum Present: No
Reference Spectrum Present: No
Number of Sampled Component Spectra: 1
Spectrometers: USB2+H05261
Integration Time (usec): 100000 (USB2+H05261)
Spectra Averaged: 1 (USB2+H05261)
Boxcar Smoothing: 0 (USB2+H05261)
Correct for Electrical Dark: No (USB2+H05261)
Strobe/Lamp Enabled: No (USB2+H05261)
Correct for Detector Non-linearity: No (USB2+H05261)
Correct for Stray Light: No (USB2+H05261)
Number of Pixels in Processed Spectrum: 2048
>>>>>Begin Processed Spectral Data<<<<<
365.73	0.00
365.92	0.00
366.12	0.00
366.32	0.00
366.52	0.00
366.72	0.00
366.91	0.00
367.11	0.00
367.31	0.00
367.51	0.00
367.70	0.00
367.90	0.00
368.10	0.00
368.30	0.00
368.49	0.00
368.69	0.00
368.89	0.00
369.09	0.00
369.28	0.00
369.48	0.00
369.68	0.00
369.87	0.00
370.07	0.00
370.27	0.00
370.47	589.82
370.66	2949.08
370.86	3541.23
371.06	4014.02
371.25	3943.80
371.45	3592.72
371.65	3232.28
371.84	2988.86
372.04	3258.03
372.24	3545.91
372.44	3705.07
372.63	3616.13
372.83	3321.22
373.03	2981.84
373.22	2733.75
373.42	2878.86
373.62	3309.52
373.81	3611.45
374.01	3658.26
374.21	3192.49
374.40	2993.55
374.60	3066.10
374.79	3534.21
374.99	4194.24
375.19	4587.45
375.38	4561.70
375.58	4107.64
375.78	4074.87
375.97	4112.32
376.17	4409.57
376.37	4327.65
376.56	4528.94
376.76	4777.03
376.95	5020.45
377.15	5600.90
377.35	5694.52
377.54	5785.80
377.74	6033.90
377.93	6008.16
378.13	5858.36
378.33	5504.94
378.52	4940.87
378.72	4865.97
378.91	4830.87
379.11	4561.70
379.31	4528.94
379.50	4294.88
379.70	5064.92
379.89	5493.24
380.09	5624.31
380.28	5919.21
380.48	5799.85
380.68	5783.46
380.87	5636.01
381.07	5341.10
381.26	4819.16
381.46	4674.05
381.65	4432.97
381.85	4318.29
382.04	4011.68
382.24	3735.50
382.43	3602.08
382.63	3461.65
382.83	3473.36
383.02	3595.06
383.22	3503.78
383.41	3543.57
383.61	3880.61
383.80	4451.70
384.00	4959.60
384.19	5664.10
384.39	5919.21
384.58	5809.21
384.78	5762.40
384.97	5554.09
385.17	5406.64
385.36	5081.30
385.56	4891.72
385.75	5006.41
385.95	5416.00
386.14	5905.17
386.34	6134.54
386.53	5769.42
386.72	5186.63
386.92	5420.68
387.11	5607.92
387.31	5994.11
387.50	5834.96
387.70	5586.86
387.89	5708.57
388.09	5767.08
388.28	5820.91
388.48	5619.63
388.67	6310.08
388.86	6913.94
389.06	7164.38
389.25	7646.53
389.45	7911.01
389.64	7662.91
389.84	7789.30
390.03	7613.76
390.22	7557.59
390.42	7634.83
390.61	8334.65
390.81	8968.93
391.00	9137.45
391.19	8849.57
391.39	8748.92
391.58	8196.56
391.78	7623.12
391.97	7283.75
392.16	6827.34
392.36	6321.79
392.55	5163.22
392.75	4135.73
392.94	3440.59
393.13	3342.28
393.33	3845.50
393.52	4894.06
393.71	6033.90
393.91	7002.88
394.10	7389.07
394.29	7915.69
394.49	8676.37
394.68	9378.53
394.88	9495.55
395.07	9905.15
395.26	9673.43
395.46	9432.36
395.65	8879.99
395.84	7801.01
396.04	6630.74
396.23	5158.54
396.42	4463.40
396.62	4369.78
396.81	4952.57
397.00	6424.77
397.19	7784.62
397.39	9495.55
397.58	10483.26
397.77	11318.83
397.97	11964.82
398.16	11971.84
398.35	12458.67
398.55	12706.77
398.74	13345.73
398.93	13355.10
399.12	13027.42
399.32	12652.94
399.51	12931.46
399.70	13909.80
399.90	13696.82
400.09	13788.10
400.28	13900.44
400.47	13659.37
400.67	14237.48
400.86	14672.82
401.05	14778.14
401.24	14824.95
401.44	15084.75
401.63	15187.74
401.82	15066.03
402.01	15133.90
402.21	15283.70
402.40	15349.23
402.59	14932.62
402.78	14207.05
402.97	13900.44
403.17	14518.34
403.36	15304.76
403.55	15999.90
403.74	16156.72
403.93	15145.61
404.13	14382.59
404.32	13832.57
404.51	14307.69
404.70	15648.82
404.89	15669.89
405.09	15571.58
405.28	15012.20
405.47	14839.00
405.66	14801.55
405.85	14698.56
406.05	14218.75
406.24	14410.68
406.43	14862.40
406.62	15667.55
406.81	15702.65
407.00	14981.77
407.20	14930.28
407.39	14846.02
407.58	15594.99
407.77	16140.33
407.96	16676.32
408.15	17085.91
408.34	16896.33
408.54	17764.67
408.73	17701.47
408.92	17343.37
409.11	17153.79
409.30	16285.45
409.49	15377.32
409.68	14466.85
409.87	13860.65
410.07	14728.99
410.26	15735.42
410.45	17102.29
410.64	17003.99
410.83	17696.79
411.02	18377.89
411.21	19037.92
411.40	18754.71
411.59	18946.64
411.78	18403.63
411.98	18686.84
412.17	18600.24
412.36	18277.24
412.55	18544.06
412.74	18134.47
412.93	17451.03
413.12	17598.49
413.31	19611.35
413.50	19515.39
413.69	19389.00
413.88	19506.02
414.07	18420.02
414.26	19138.56
414.45	19730.72
414.64	19758.80
414.83	19747.10
415.02	19271.97
415.22	19091.75
415.41	19997.54
415.60	20142.65
415.79	20802.68
415.98	21523.57
416.17	21783.37
416.36	21261.43
416.55	20662.25
416.74	20189.46
416.93	19513.05
417.12	19487.30
417.31	19641.78
417.50	20231.59
417.69	20294.79
417.88	20194.14
418.07	20477.35
418.26	20152.01
418.45	20163.72
418.64	20936.09
418.83	21738.90
419.02	21352.71
419.21	21488.46
419.39	20493.73
419.58	19417.08
419.77	19257.93
419.96	20374.36
420.15	21298.88
420.34	22026.78
420.53	22597.87
420.72	23330.46
420.91	22927.89
421.10	22581.49
421.29	22567.45
421.48	21745.92
421.67	23009.81
421.86	22260.84
422.05	20940.77
422.24	18492.57
422.43	18333.42
422.61	20044.35
422.80	21944.86
422.99	22448.08
423.18	21493.14
423.37	20779.28
423.56	20795.66
423.75	21296.53
423.94	21460.37
424.13	20582.67
424.32	20772.25
424.50	21128.02
424.69	20238.61
424.88	20561.61
425.07	20800.34
425.26	20669.27
425.45	20367.34
425.64	20081.80
425.83	19964.77
426.01	21116.31
426.20	21834.86
426.39	21708.47
426.58	20044.35
426.77	18352.14
426.96	17720.20
427.15	18396.61
427.33	20093.50
427.52	20620.12
427.71	20758.21
427.90	20608.42
428.09	20472.67
428.28	20208.19
428.46	19152.60
428.65	19080.05
428.84	19426.45
429.03	19850.08
429.22	18567.47
429.40	17717.86
429.59	15936.71
429.78	14083.00
429.97	14492.60
430.16	14623.67
430.34	14693.88
430.53	14565.15
430.72	14911.55
430.91	16601.42
431.10	19290.70
431.28	22934.91
431.47	24276.04
431.66	25008.62
431.85	22511.27
432.03	21071.84
432.22	19786.89
432.41	20800.34
432.60	22948.95
432.79	23733.03
432.97	24723.08
433.16	24203.48
433.35	22003.38
433.54	19609.01
433.72	18288.95
433.91	19073.03
434.10	21177.17
434.28	22731.28
434.47	23934.32
434.66	23501.32
434.85	23222.80
435.03	22920.87
435.22	23400.68
435.41	24816.70
435.59	24886.92
435.78	25392.47
435.97	25820.79
436.16	26260.81
436.34	25509.50
436.53	25003.94
436.72	25308.21
436.90	23749.42
437.09	23887.51
437.28	23147.90
437.46	23997.51
437.65	24191.78
437.84	22359.14
438.02	20842.47
438.21	20315.85
438.40	21357.39
438.58	23583.24
438.77	24023.26
438.96	23946.02
439.14	25156.08
439.33	25638.23
439.52	26232.72
439.70	25654.61
439.89	24992.24
440.08	24109.86
440.26	24325.19
440.45	25071.82
440.63	26761.69
440.82	28098.13
441.01	27566.83
441.19	27496.61
441.38	28018.55
441.57	28877.53
441.75	29181.80
441.94	29495.43
442.12	29666.29
442.31	30026.73
442.50	29947.15
442.68	29244.99
442.87	29053.07
443.05	28599.01
443.24	28985.19
443.43	29617.14
443.61	30059.50
443.80	30562.72
443.98	28933.70
444.17	29074.13
444.35	30749.96
444.54	31206.36
444.73	30801.45
444.91	29537.56
445.10	28271.33
445.28	27524.70
445.47	26441.03
445.65	26621.25
445.84	28016.21
446.02	28503.04
446.21	29020.30
446.39	29088.18
446.58	29467.34
446.77	29710.76
446.95	30127.38
447.14	31033.16
447.32	31522.34
447.51	30899.75
447.69	29823.11
447.88	29280.10
448.06	29834.81
448.25	30366.11
448.43	30923.16
448.62	29888.64
448.80	29806.72
448.99	30150.78
449.17	30323.98
449.36	30150.78
449.54	31697.88
449.73	32203.43
449.91	32156.62
450.10	33464.98
450.28	33479.02
450.46	33282.42
450.65	33141.99
450.83	33123.26
451.02	32470.25
451.20	32472.59
451.39	32376.63
451.57	31964.70
451.76	32301.73
451.94	32093.43
452.13	31419.35
452.31	30244.40
452.49	28575.60
452.68	28940.72
452.86	29191.16
453.05	29460.32
453.23	30148.44
453.42	31166.57
453.60	31456.80
453.78	31637.02
453.97	31667.45
454.15	31292.96
454.34	30803.79
454.52	30895.07
454.70	30382.49
454.89	30543.99
455.07	30754.64
455.26	31482.55
455.44	32257.26
455.62	32985.17
455.81	33006.23
455.99	33076.45
456.17	32563.87
456.36	32613.02
456.54	33422.85
456.73	33528.17
456.91	34054.79
457.09	34410.56
457.28	34700.78
457.46	33677.97
457.64	33366.68
457.83	32360.25
458.01	31683.83
458.19	32692.60
458.38	32708.99
458.56	33362.00
458.74	33322.21
458.93	33008.58
459.11	32582.60
459.29	32479.61
459.48	32706.65
459.66	32952.40
459.84	32931.34
460.03	33439.23
460.21	33378.38
460.39	34251.40
460.57	34366.09
460.76	34604.82
460.94	34553.33
461.12	33989.26
461.31	34110.97
461.49	34405.88
461.67	34452.69
461.85	35487.20
462.04	35278.89
462.22	35211.02
462.40	35363.15
462.59	35019.10
462.77	34974.63
462.95	35281.24
463.13	34719.51
463.32	34038.41
463.50	34040.75
463.68	34160.12
463.86	34192.89
464.05	33816.06
464.23	33413.49
464.41	33156.03
464.59	32205.77
464.78	34616.52
464.96	33834.78
465.14	33680.31
465.32	34651.63
465.50	34965.26
465.69	35545.72
465.87	34710.14
466.05	33727.12
466.23	32781.54
466.41	32065.34
466.60	32236.20
466.78	32804.95
466.96	33184.12
467.14	34146.08
467.32	34078.20
467.51	34330.98
467.69	32521.74
467.87	33305.82
468.05	33579.67
468.23	34022.03
468.41	33731.80
468.60	34293.53
468.78	34424.60
468.96	33553.92
469.14	34618.86
469.32	35009.73
469.50	33340.93
469.69	33436.89
469.87	33205.18
470.05	33200.50
470.23	33055.39
470.41	33221.56
470.59	33787.97
470.77	33940.11
470.95	34291.19
471.14	34820.15
471.32	34998.03
471.50	36891.52
471.68	36732.37
471.86	37357.29
472.04	37247.29
472.22	36985.15
472.40	35133.78
472.58	35215.70
472.77	34417.58
472.95	35442.73
473.13	36687.90
473.31	35225.06
473.49	35466.14
473.67	36732.37
473.85	36493.63
474.03	37577.30
474.21	38038.39
474.39	37881.57
474.57	38134.35
474.75	38185.84
474.93	37975.19
475.12	36730.03
475.30	36898.55
475.48	37296.44
475.66	37942.42
475.84	37247.29
476.02	36732.37
476.20	36772.16
476.38	37303.46
476.56	37914.34
476.74	38731.18
476.92	38642.24
477.10	39473.13
477.28	40383.60
477.46	40596.59
477.64	41507.06
477.82	41071.72
478.00	41205.13
478.18	40418.71
478.36	40332.11
478.54	40587.23
478.72	40832.99
478.90	41638.13
479.08	42831.80
479.26	43262.46
479.44	43440.34
479.62	42829.46
479.80	42986.28
479.98	43360.76
480.16	43548.01
480.34	42904.36
480.52	43318.64
480.70	43730.57
480.88	43709.50
481.06	44446.77
481.24	44369.54
481.41	45467.25
481.59	45982.16
481.77	45607.68
481.95	45460.23
482.13	44980.42
482.31	45228.51
482.49	46036.00
482.67	45935.35
482.85	46117.92
483.03	46773.27
483.21	46752.20
483.39	46630.49
483.57	46295.80
483.74	45968.12
483.92	46490.06
484.10	46440.91
484.28	47313.93
484.46	47632.24
484.64	48458.45
484.82	47147.75
485.00	46534.53
485.18	46136.64
485.35	44650.40
485.53	41607.70
485.71	37743.48
485.89	37343.25
486.07	39082.27
486.25	42356.67
486.43	44957.01
486.61	45808.96
486.78	45338.52
486.96	45860.46
487.14	47526.92
487.32	48058.22
487.50	49579.57
487.68	50246.62
487.85	50459.61
488.03	50686.64
488.21	50054.70
488.39	49382.96
488.57	48788.47
488.75	48428.02
488.92	49249.55
489.10	51498.81
489.28	53006.11
489.46	53879.13
489.64	53422.73
489.81	53848.71
489.99	53315.06
490.17	53560.82
490.35	53750.40
490.53	53336.13
490.70	52914.83
490.88	52924.19
491.06	53750.40
491.24	54049.99
491.41	52884.40
491.59	51224.96
491.77	50103.85
491.95	51217.94
492.13	52729.93
492.30	53769.13
492.48	54920.67
492.66	55271.75
492.84	55117.28
493.01	54967.48
493.19	54136.59
493.37	54106.16
493.54	53736.36
493.72	54672.57
493.90	55093.87
494.08	56224.35
494.25	56289.88
494.43	56645.65
494.61	57043.54
494.79	56961.62
494.96	56863.32
495.14	56357.76
495.32	55255.37
495.49	54637.47
495.67	55758.58
495.85	57027.15
496.02	57366.53
496.20	57394.62
496.38	56748.63
496.55	56790.76
496.73	57095.03
496.91	57366.53
497.09	57895.49
497.26	57961.03
497.44	57616.97
497.62	56865.66
497.79	56437.34
497.97	55049.40
498.14	55199.19
498.32	56184.56
498.50	57205.03
498.67	57705.91
498.85	57661.44
499.03	57839.32
499.20	58092.10
499.38	58064.01
499.56	57930.60
499.73	57293.97
499.91	57052.90
500.08	56647.99
500.26	55702.41
500.44	56100.30
500.61	56903.10
500.79	56800.12
500.97	56268.82
501.14	56346.06
501.32	56069.87
501.49	55959.87
501.67	56238.39
501.84	56849.27
502.02	56992.04
502.20	57464.83
502.37	57535.05
502.55	57457.81
502.72	58042.95
502.90	58459.56
503.07	58220.83
503.25	58007.84
503.43	56994.39
503.60	56622.24
503.78	55810.07
503.95	56252.44
504.13	57563.14
504.30	58370.62
504.48	58103.80
504.65	57844.00
504.83	57895.49
505.01	58494.67
505.18	58749.79
505.36	59264.70
505.53	59341.94
505.71	59576.00
505.88	59592.38
506.06	59014.27
506.23	58773.19
506.41	58166.99
506.58	58656.17
506.76	58560.20
506.93	58653.82
507.11	58361.26
507.28	58363.60
507.46	58078.05
507.63	57340.78
507.81	57205.03
507.98	57385.25
508.16	58307.43
508.33	58759.15
508.50	58810.64
508.68	59370.03
508.85	59868.56
509.03	59627.49
509.20	59524.50
509.38	58592.97
509.55	58117.84
509.73	58286.36
509.90	58691.27
510.08	58939.37
510.25	58997.88
510.42	58766.17
510.60	58707.66
510.77	58922.99
510.95	59363.01
511.12	59538.55
511.30	59845.16
511.47	60252.41
511.64	60060.49
511.82	59791.33
511.99	59025.97
512.17	58642.12
512.34	58141.25
512.51	58351.90
512.69	58354.24
512.86	58649.14
513.04	59089.16
513.21	59007.25
513.38	58738.08
513.56	58272.32
513.73	57638.03
513.90	57825.28
514.08	57799.53
514.25	58138.91
514.43	58272.32
514.60	58401.05
514.77	58623.40
514.95	58702.98
515.12	58801.28
515.29	58934.69
515.47	59320.88
515.64	59414.50
515.81	59262.36
515.99	58506.37
516.16	57366.53
516.33	54749.81
516.51	53794.87
516.68	52594.18
516.85	52371.83
517.03	52743.97
517.20	55201.53
517.37	57663.78
517.54	58674.89
517.72	58131.89
517.89	55994.98
518.06	53923.60
518.24	53574.86
518.41	56016.04
518.58	57401.64
518.75	57497.60
518.93	57521.01
519.10	57422.70
519.27	58026.56
519.45	58403.39
519.62	58908.94
519.79	59241.30
519.96	58871.49
520.14	58482.97
520.31	57748.04
520.48	57694.21
520.65	58164.65
520.83	59042.35
521.00	59477.69
521.17	59040.01
521.34	58651.48
521.52	58810.64
521.69	59531.53
521.86	59856.86
522.03	59568.97
522.20	58440.84
522.38	57326.74
522.55	57275.25
522.72	58181.04
522.89	58279.34
523.07	58532.12
523.24	58754.47
523.41	59447.27
523.58	59636.85
523.75	60090.91
523.92	60058.15
524.10	59997.29
524.27	59863.88
524.44	59760.90
524.61	59573.66
524.78	59458.97
524.96	59119.59
525.13	59536.21
525.30	59585.36
525.47	60039.42
525.64	60039.42
525.81	59238.96
525.98	58056.99
526.16	56596.49
526.33	55913.06
526.50	55594.74
526.67	54794.28
526.84	55657.94
527.01	56619.90
527.18	57368.87
527.36	58185.72
527.53	59370.03
527.70	59372.37
527.87	59103.21
528.04	58497.01
528.21	59133.63
528.38	59538.55
528.55	60191.56
528.72	60247.73
528.89	60409.23
529.07	60537.96
529.24	59714.09
529.41	59098.53
529.58	58532.12
529.75	58660.85
529.92	59199.17
530.09	59133.63
530.26	59863.88
530.43	60175.17
530.60	60051.12
530.77	60320.29
530.94	60594.13
531.11	60058.15
531.28	59807.71
531.46	59498.76
531.63	59639.19
531.80	59480.03
531.97	59114.91
532.14	58464.24
532.31	57385.25
532.48	56858.63
532.65	56884.38
532.82	57574.84
532.99	58885.54
533.16	59126.61
533.33	59693.02
533.50	59552.59
533.67	58937.03
533.84	58358.92
534.01	58686.59
534.18	58908.94
534.35	58976.82
534.52	58611.70
534.69	59072.78
534.86	59341.94
535.03	59646.21
535.20	59894.31
535.37	60353.05
535.54	60439.65
535.71	60254.75
535.88	59805.37
536.05	59084.48
536.22	58710.00
536.38	58731.06
536.55	58246.57
536.72	57598.24
536.89	57448.45
537.06	58429.13
537.23	59217.89
537.40	59227.26
537.57	59341.94
537.74	59180.45
537.91	59065.76
538.08	59086.82
538.25	59110.23
538.42	59203.85
538.59	59166.40
538.75	58501.69
538.92	58227.85
539.09	57839.32
539.26	57834.64
539.43	57827.62
539.60	57993.79
539.77	58183.38
539.94	57956.35
540.11	57406.32
540.28	56662.03
540.44	56704.16
540.61	56823.53
540.78	57202.69
540.95	57769.10
541.12	57897.83
541.29	58195.08
541.46	58728.72
541.62	58497.01
541.79	58511.05
541.96	57872.09
542.13	57869.75
542.30	57888.47
542.47	58337.85
542.63	57970.39
542.80	57689.52
542.97	57900.17
543.14	57834.64
543.31	57897.83
543.48	58525.10
543.64	58983.84
543.81	59571.32
543.98	59222.58
544.15	58625.74
544.32	57872.09
544.48	58099.12
544.65	58698.30
544.82	58937.03
544.99	58695.95
545.16	58024.22
545.32	57794.85
545.49	58719.36
545.66	58918.31
545.83	58710.00
546.00	58379.98
546.16	57909.53
546.33	58010.18
546.50	58206.78
546.67	58644.46
546.83	58148.27
547.00	58061.67
547.17	57495.26
547.34	56868.00
547.50	57008.43
547.67	57326.74
547.84	57525.69
548.00	57668.46
548.17	58323.81
548.34	58113.16
548.51	58003.16
548.67	58073.37
548.84	58230.19
549.01	58073.37
549.18	58003.16
549.34	58071.03
549.51	57916.56
549.68	57939.96
549.84	57712.93
550.01	57626.33
550.18	57476.54
550.34	57305.68
550.51	57684.84
550.68	57881.45
550.84	57139.50
551.01	57109.07
551.18	57385.25
551.34	57551.43
551.51	57954.00
551.68	57975.07
551.84	58096.78
552.01	57893.15
552.18	57794.85
552.34	56713.52
552.51	56650.33
552.68	56566.07
552.84	56942.89
553.01	57317.38
553.18	57279.93
553.34	57265.89
553.51	57312.70
553.67	57439.09
553.84	57893.15
554.01	57818.25
554.17	57382.91
554.34	57701.23
554.51	57696.55
554.67	57808.89
554.84	57815.91
555.00	57600.58
555.17	57027.15
555.33	57116.09
555.50	57380.57
555.67	57066.94
555.83	57148.86
556.00	56718.20
556.16	56732.25
556.33	56306.27
556.50	56245.41
556.66	56289.88
556.83	56002.00
556.99	56107.32
557.16	56020.72
557.32	56545.00
557.49	56903.10
557.65	56856.29
557.82	56708.84
557.98	56435.00
558.15	55948.17
558.32	55250.69
558.48	54471.29
558.65	54742.79
558.81	54939.39
558.98	55388.78
559.14	55327.92
559.31	55543.25
559.47	55451.97
559.64	55243.66
559.80	54948.76
559.97	54986.21
560.13	55330.26
560.30	56463.08
560.46	56903.10
560.63	57038.86
560.79	57118.43
560.96	56502.87
561.12	55423.89
561.29	54782.58
561.45	54616.40
561.61	55402.82
561.78	55554.96
561.94	55353.67
562.11	55561.98
562.27	55257.71
562.44	55554.96
562.60	55821.78
562.77	56081.58
562.93	55915.40
563.10	55704.75
563.26	55199.19
563.42	55393.46
563.59	55084.51
563.75	55021.31
563.92	55449.63
564.08	55231.96
564.24	55627.51
564.41	55388.78
564.57	55501.12
564.74	55103.23
564.90	55070.46
565.07	54934.71
565.23	54361.28
565.39	54204.47
565.56	53757.42
565.72	53516.35
565.88	54145.95
566.05	53932.96
566.21	54082.76
566.38	54459.58
566.54	54855.14
566.70	54948.76
566.87	54990.89
567.03	55096.21
567.19	55365.37
567.36	55159.41
567.52	54960.46
567.68	54752.15
567.85	53928.28
568.01	53544.44
568.17	53286.98
568.34	53525.71
568.50	53488.26
568.66	53574.86
568.83	53801.89
568.99	53773.81
569.15	54195.10
569.32	54143.61
569.48	53691.89
569.64	53656.78
569.81	53116.12
569.97	53024.84
570.13	53123.14
570.30	52664.39
570.46	51995.00
570.62	51576.04
570.78	51613.49
570.95	52041.81
571.11	52458.43
571.27	52795.46
571.43	52928.87
571.60	53226.12
571.76	53333.79
571.92	53638.06
572.09	53930.62
572.25	53839.34
572.41	53851.05
572.57	53694.23
572.74	53764.45
572.90	53200.38
573.06	53223.78
573.22	53205.06
573.38	53312.72
573.55	53268.25
573.71	53200.38
573.87	53389.96
574.03	53078.67
574.20	53226.12
574.36	52725.25
574.52	52580.13
574.68	52420.98
574.84	52175.22
575.01	51543.28
575.17	51676.69
575.33	51922.44
575.49	52126.07
575.65	52137.77
575.82	52083.94
575.98	51889.68
576.14	51929.47
576.30	52053.51
576.46	52449.06
576.62	52451.41
576.79	52425.66
576.95	51854.57
577.11	51800.74
577.27	52121.39
577.43	51875.63
577.59	51756.27
577.75	51166.45
577.92	50515.78
578.08	50588.34
578.24	50148.32
578.40	51023.68
578.56	51077.51
578.72	51065.81
578.88	51119.64
579.04	51437.95
579.21	51615.83
579.37	51423.91
579.53	51498.81
579.69	51449.66
579.85	51934.15
580.01	51627.54
580.17	51159.43
580.33	50988.57
580.49	50920.70
580.65	51409.87
580.82	51173.47
580.98	51938.83
581.14	51299.86
581.30	51531.57
581.46	51351.35
581.62	51934.15
581.78	51173.47
581.94	51562.00
582.10	51847.55
582.26	51892.02
582.42	51480.08
582.58	51826.48
582.74	51810.10
582.90	51554.98
583.06	51454.34
583.22	51292.84
583.38	51271.78
583.54	51484.76
583.70	51281.14
583.86	51395.82
584.02	50958.14
584.18	51175.81
584.34	51136.02
584.50	51313.90
584.66	51077.51
584.82	50574.30
584.98	50319.18
585.14	49989.16
585.30	48952.30
