SpectraSuite Data File
++++++++++++++++++++++++++++++++++++
Date: Mon Oct 07 14:53:46 GMT-05:00 2013
User: price-jones
Dark Spectrum Present: No
Reference Spectrum Present: No
Number of Sampled Component Spectra: 1
Spectrometers: USB2+H05261
Integration Time (usec): 100000 (USB2+H05261)
Spectra Averaged: 1 (USB2+H05261)
Boxcar Smoothing: 0 (USB2+H05261)
Correct for Electrical Dark: No (USB2+H05261)
Strobe/Lamp Enabled: No (USB2+H05261)
Correct for Detector Non-linearity: No (USB2+H05261)
Correct for Stray Light: No (USB2+H05261)
Number of Pixels in Processed Spectrum: 2048
>>>>>Begin Processed Spectral Data<<<<<
365.73	0.00
365.92	0.00
366.12	0.00
366.32	0.00
366.52	0.00
366.72	0.00
366.91	0.00
367.11	0.00
367.31	0.00
367.51	0.00
367.70	0.00
367.90	0.00
368.10	0.00
368.30	0.00
368.49	0.00
368.69	0.00
368.89	0.00
369.09	0.00
369.28	0.00
369.48	0.00
369.68	0.00
369.87	0.00
370.07	0.00
370.27	0.00
370.47	573.43
370.66	2960.78
370.86	3520.17
371.06	4093.60
371.25	4032.74
371.45	3503.78
371.65	3269.73
371.84	2998.23
372.04	3204.19
372.24	3419.52
372.44	3733.15
372.63	3595.06
372.83	3473.36
373.03	2935.03
373.22	2672.89
373.42	3038.02
373.62	3253.34
373.81	3765.92
374.01	3524.85
374.21	3131.64
374.40	2916.31
374.60	3112.91
374.79	3588.04
374.99	4011.68
375.19	4423.61
375.38	4526.60
375.58	4290.20
375.78	4098.28
375.97	4271.48
376.17	4395.53
376.37	4353.40
376.56	4344.03
376.76	4671.71
376.95	4952.57
377.15	5476.85
377.35	5612.60
377.54	5872.40
377.74	5951.98
377.93	6015.18
378.13	6045.60
378.33	5603.24
378.52	5093.01
378.72	4732.56
378.91	4842.57
379.11	4770.01
379.31	4547.66
379.50	4470.42
379.70	4992.36
379.89	5294.29
380.09	5778.78
380.28	5865.38
380.48	5839.64
380.68	5607.92
380.87	5734.31
381.07	5401.96
381.26	4695.11
381.46	4482.13
381.65	4341.69
381.85	4290.20
382.04	4250.41
382.24	3936.78
382.43	3655.92
382.63	3473.36
382.83	3459.31
383.02	3534.21
383.22	3606.77
383.41	3595.06
383.61	3985.93
383.80	4416.59
384.00	4924.49
384.19	5699.20
384.39	5813.89
384.58	5912.19
384.78	5657.07
384.97	5643.03
385.17	5413.66
385.36	5111.73
385.56	4980.66
385.75	5074.28
385.95	5488.56
386.14	6085.39
386.34	6012.84
386.53	5874.74
386.72	5341.10
386.92	5390.25
387.11	5659.42
387.31	6083.05
387.50	5830.27
387.70	5806.87
387.89	5827.93
388.09	5884.11
388.28	5724.95
388.48	5762.40
388.67	6373.28
388.86	6885.86
389.06	7461.63
389.25	7801.01
389.45	7763.56
389.64	7604.40
389.84	7688.66
390.03	7609.08
390.22	7576.31
390.42	7955.48
390.61	8236.35
390.81	8798.07
391.00	9102.34
391.19	9015.74
391.39	8648.28
391.58	8248.05
391.78	7712.07
391.97	7503.76
392.16	7091.82
392.36	6417.75
392.55	5139.82
392.75	4166.15
392.94	3375.05
393.13	3232.28
393.33	3847.84
393.52	4971.30
393.71	6061.99
393.91	6834.36
394.10	7412.48
394.29	8161.45
394.49	8791.05
394.68	9380.87
394.88	9633.64
395.07	10122.82
395.26	9982.38
395.46	9437.04
395.65	9013.40
395.84	7981.23
396.04	6771.17
396.23	5401.96
396.42	4578.09
396.62	4264.46
396.81	4975.98
397.00	6368.60
397.19	7892.29
397.39	9565.77
397.58	10710.29
397.77	11468.62
397.97	11932.05
398.16	12091.21
398.35	12435.27
398.55	12807.41
398.74	12940.82
398.93	13654.69
399.12	13289.56
399.32	12755.92
399.51	13209.98
399.70	14068.96
399.90	13834.91
400.09	13806.82
400.28	13708.52
400.47	13870.01
400.67	14600.26
400.86	14923.26
401.05	14736.01
401.24	15019.22
401.44	15494.35
401.63	15330.51
401.82	15555.20
402.01	15552.86
402.21	15616.05
402.40	15555.20
402.59	15241.57
402.78	14651.75
402.97	14050.24
403.17	14757.08
403.36	15641.80
403.55	16273.74
403.74	16383.75
403.93	15473.28
404.13	14361.53
404.32	13692.13
404.51	14801.55
404.70	15747.12
404.89	16016.29
405.09	15740.10
405.28	15117.52
405.47	15243.91
405.66	15190.08
405.85	14860.06
406.05	14303.01
406.24	14513.66
406.43	15304.76
406.62	15885.22
406.81	16100.55
407.00	15035.60
407.20	14888.15
407.39	15000.49
407.58	15775.21
407.77	16154.38
407.96	16837.81
408.15	16987.61
408.34	17282.52
408.54	17968.29
408.73	18061.91
408.92	17752.96
409.11	17188.89
409.30	16343.96
409.49	15683.93
409.68	14406.00
409.87	13930.87
410.07	14930.28
410.26	16011.60
410.45	17256.77
410.64	17472.10
410.83	18176.60
411.02	18490.23
411.21	19323.46
411.40	19040.26
411.59	19328.14
411.78	18958.34
411.98	18768.76
412.17	19147.92
412.36	18670.45
412.55	18871.74
412.74	18246.82
412.93	17989.36
413.12	17905.10
413.31	19690.93
413.50	19744.76
413.69	20503.09
413.88	19632.41
414.07	18925.57
414.26	19030.90
414.45	19934.34
414.64	19997.54
414.83	20156.69
415.02	19524.75
415.22	19768.16
415.41	20266.70
415.60	20589.69
415.79	21624.21
415.98	21958.91
416.17	22202.32
416.36	21422.92
416.55	21128.02
416.74	20421.17
416.93	20049.03
417.12	19765.82
417.31	20381.38
417.50	20510.11
417.69	21139.72
417.88	21106.95
418.07	20542.88
418.26	20556.93
418.45	20610.76
418.64	21401.86
418.83	22230.41
419.02	21937.84
419.21	22113.38
419.39	20727.78
419.58	19747.10
419.77	19667.52
419.96	20601.40
420.15	21984.65
420.34	22522.98
420.53	23028.53
420.72	23901.55
420.91	23721.33
421.10	23119.81
421.29	22946.61
421.48	21898.05
421.67	23171.30
421.86	22944.27
422.05	21329.30
422.24	18960.68
422.43	18586.19
422.61	20435.22
422.80	22501.91
422.99	22621.28
423.18	21539.95
423.37	21298.88
423.56	21163.12
423.75	21617.19
423.94	22132.11
424.13	20931.41
424.32	20999.29
424.50	21041.42
424.69	20959.50
424.88	21163.12
425.07	20896.30
425.26	21092.91
425.45	20739.49
425.64	20292.44
425.83	20290.10
426.01	21708.47
426.20	21916.78
426.39	22064.23
426.58	20376.70
426.77	19021.53
426.96	17909.78
427.15	18625.98
427.33	20418.83
427.52	21233.34
427.71	21553.99
427.90	21039.08
428.09	20837.79
428.28	20636.50
428.46	19555.18
428.65	19145.58
428.84	19779.87
429.03	20346.28
429.22	19044.94
429.40	18235.11
429.59	16472.69
429.78	14511.32
429.97	14520.68
430.16	14712.61
430.34	14848.36
430.53	14778.14
430.72	15077.73
430.91	16725.47
431.10	19550.49
431.28	23257.90
431.47	24893.94
431.66	25675.68
431.85	23236.84
432.03	21441.65
432.22	20301.81
432.41	20978.22
432.60	23527.06
432.79	24444.56
432.97	25139.69
433.16	24624.78
433.35	22478.50
433.54	19983.49
433.72	18934.93
433.91	19286.01
434.10	21778.68
434.28	23290.67
434.47	24542.86
434.66	23957.72
434.85	23363.23
435.03	23321.10
435.22	23896.87
435.41	25355.02
435.59	25298.85
435.78	25907.39
435.97	26485.50
436.16	26782.75
436.34	26331.03
436.53	25628.87
436.72	25912.07
436.90	24058.37
437.09	24170.71
437.28	23924.96
437.46	24741.80
437.65	24699.67
437.84	22913.84
438.02	21355.05
438.21	20812.04
438.40	22010.40
438.58	23791.55
438.77	24535.84
438.96	24805.00
439.14	25886.32
439.33	26501.89
439.52	26939.57
439.70	26546.36
439.89	26127.40
440.08	24943.09
440.26	25294.17
440.45	26092.29
440.63	27632.36
440.82	29060.09
441.01	28290.06
441.19	28081.75
441.38	28533.47
441.57	29883.96
441.75	30160.14
441.94	30195.25
442.12	30438.67
442.31	30794.43
442.50	30698.47
442.68	30525.27
442.87	29930.77
443.05	29717.78
443.24	29879.28
443.43	30483.14
443.61	30871.67
443.80	31552.76
443.98	30204.61
444.17	29839.49
444.35	31342.11
444.54	31992.78
444.73	31388.92
444.91	30354.41
445.10	29106.90
445.28	27857.06
445.47	27084.68
445.65	27721.30
445.84	28554.54
446.02	29603.10
446.21	30008.01
446.39	29954.18
446.58	30480.80
446.77	30852.94
446.95	30918.48
447.14	32034.91
447.32	32137.90
447.51	31648.72
447.69	30632.93
447.88	29926.09
448.06	30415.26
448.25	31199.34
448.43	31463.82
448.62	31094.02
448.80	30787.41
448.99	31152.53
449.17	31515.31
449.36	31372.54
449.54	32203.43
449.73	33017.94
449.91	33291.78
450.10	34298.21
450.28	35077.61
450.46	34445.66
450.65	34445.66
450.83	34213.95
451.02	33631.16
451.20	33373.70
451.39	33062.41
451.57	32755.80
451.76	33500.09
451.94	32587.28
452.13	32283.01
452.31	30827.20
452.49	29113.92
452.68	29631.18
452.86	29816.08
453.05	30115.67
453.23	30998.06
453.42	31868.73
453.60	32666.86
453.78	32952.40
453.97	32608.34
454.15	32341.52
454.34	31606.59
454.52	31899.16
454.70	31253.17
454.89	31913.20
455.07	31861.71
455.26	32776.86
455.44	33486.04
455.62	33942.45
455.81	34555.67
455.99	33799.68
456.17	33434.55
456.36	33626.48
456.54	34920.79
456.73	34803.77
456.91	35009.73
457.09	35353.79
457.28	36055.95
457.46	34529.92
457.64	34550.99
457.83	33582.01
458.01	32760.48
458.19	33266.03
458.38	33804.36
458.56	35063.57
458.74	34548.65
458.93	33993.94
459.11	33802.02
459.29	33397.10
459.48	33991.60
459.66	33296.46
459.84	34061.82
460.03	34700.78
460.21	34572.05
460.39	35255.49
460.57	35311.66
460.76	35557.42
460.94	35849.99
461.12	35187.61
461.31	35379.54
461.49	35529.33
461.67	35335.07
461.85	36582.57
462.04	36378.95
462.22	36451.50
462.40	36236.17
462.59	36226.81
462.77	36273.62
462.95	36116.81
463.13	35983.40
463.32	35634.66
463.50	35276.55
463.68	35475.50
463.86	35435.71
464.05	34951.22
464.23	34419.92
464.41	34345.02
464.59	33544.56
464.78	35339.75
464.96	35143.14
465.14	34440.98
465.32	35737.64
465.50	36491.29
465.69	37172.39
465.87	35997.44
466.05	35358.47
466.23	33659.24
466.41	33046.02
466.60	34183.52
466.78	33598.39
466.96	34270.12
467.14	34572.05
467.32	34965.26
467.51	35185.27
467.69	33933.09
467.87	34653.97
468.05	35147.82
468.23	35072.93
468.41	35267.19
468.60	35524.65
468.78	35672.10
468.96	34913.77
469.14	35634.66
469.32	36514.70
469.50	34522.90
469.69	34649.29
469.87	34265.44
470.05	33991.60
470.23	34359.06
470.41	34300.55
470.59	34644.61
470.77	34515.88
470.95	35927.22
471.14	36009.14
471.32	36079.36
471.50	38162.43
471.68	38115.62
471.86	38410.53
472.04	38349.68
472.22	38766.29
472.40	36542.78
472.58	36701.94
472.77	35604.23
472.95	36631.72
473.13	38038.39
473.31	36940.68
473.49	37406.44
473.67	37530.49
473.85	37647.52
474.03	38471.39
474.21	38824.81
474.39	39510.58
474.57	39484.84
474.75	39765.70
474.93	39182.91
475.12	38827.15
475.30	38590.75
475.48	38656.29
475.66	38768.63
475.84	38637.56
476.02	38520.54
476.20	37645.18
476.38	38892.68
476.56	39622.93
476.74	40374.24
476.92	40348.50
477.10	41254.28
477.28	42080.49
477.46	41923.68
477.64	42471.36
477.82	42841.17
478.00	43089.26
478.18	42115.60
478.36	41890.91
478.54	41464.93
478.72	42682.01
478.90	43414.60
479.08	44203.36
479.26	44856.37
479.44	44816.58
479.62	44439.75
479.80	44573.16
479.98	44664.44
480.16	44753.38
480.34	44446.77
480.52	44788.49
480.70	44617.63
480.88	45216.81
481.06	45537.46
481.24	46087.49
481.41	46993.28
481.59	47468.40
481.77	46997.96
481.95	47089.24
482.13	46064.08
482.31	46394.10
482.49	47437.98
482.67	47056.47
482.85	47393.51
483.03	48107.37
483.21	48264.19
483.39	48355.47
483.57	47643.94
483.74	47388.83
483.92	47786.72
484.10	48025.45
484.28	48797.83
484.46	49078.69
484.64	49324.45
484.82	48741.66
485.00	48339.08
485.18	47384.15
485.35	46169.41
485.53	43442.68
485.71	39629.95
485.89	39105.67
486.07	40790.86
486.25	44238.47
486.43	46384.74
486.61	47068.17
486.78	47515.22
486.96	46918.38
487.14	49071.67
487.32	49937.67
487.50	50658.56
487.68	51606.47
487.85	52109.69
488.03	52074.58
488.21	51379.44
488.39	50817.71
488.57	50174.06
488.75	50075.76
488.92	51138.36
489.10	53125.48
489.28	54372.99
489.46	54808.32
489.64	54848.11
489.81	55028.34
489.99	54911.31
490.17	54728.75
490.35	55250.69
490.53	54372.99
490.70	54160.00
490.88	54033.61
491.06	55147.70
491.24	55061.10
491.41	54028.93
491.59	52659.71
491.77	51657.96
491.95	52900.79
492.13	53872.11
492.30	54857.48
492.48	55774.97
492.66	56292.22
492.84	56315.63
493.01	56198.60
493.19	55779.65
493.37	55451.97
493.54	55196.85
493.72	55746.88
493.90	56797.78
494.08	57216.74
494.25	57567.82
494.43	57764.42
494.61	57937.62
494.79	58066.35
494.96	57942.30
495.14	57251.84
495.32	56507.55
495.49	55969.23
495.67	57080.98
495.85	58344.87
496.02	58604.67
496.20	58391.68
496.38	58052.31
496.55	57794.85
496.73	58267.64
496.91	58274.66
497.09	59093.85
497.26	59096.19
497.44	58607.01
497.62	58096.78
497.79	57537.39
497.97	56339.04
498.14	56184.56
498.32	57572.50
498.50	58101.46
498.67	58768.51
498.85	58710.00
499.03	58721.70
499.20	59100.87
499.38	58983.84
499.56	58845.75
499.73	58443.18
499.91	57900.17
500.08	57677.82
500.26	56961.62
500.44	57277.59
500.61	58185.72
500.79	58092.10
500.97	57586.54
501.14	57366.53
501.32	57214.40
501.49	57186.31
501.67	57242.48
501.84	58106.14
502.02	58335.51
502.20	58487.65
502.37	58583.61
502.55	58691.27
502.72	59311.52
502.90	59554.93
503.07	59391.09
503.25	59253.00
503.43	58159.97
503.60	57619.31
503.78	56945.23
503.95	57322.06
504.13	58707.66
504.30	59400.46
504.48	59318.54
504.65	58967.46
504.83	58932.35
505.01	59590.04
505.18	59700.04
505.36	60395.18
505.53	60573.06
505.71	60879.67
505.88	60879.67
506.06	60184.54
506.23	59868.56
506.41	59487.06
506.58	59753.88
506.76	59662.60
506.93	59580.68
507.11	59227.26
507.28	59618.13
507.46	59159.38
507.63	58583.61
507.81	58478.28
507.98	58614.04
508.16	59353.65
508.33	59870.90
508.50	60137.72
508.68	60322.63
508.85	60879.67
509.03	60727.54
509.20	60776.69
509.38	60053.47
509.55	59145.34
509.73	59590.04
509.90	59812.39
510.08	60154.11
510.25	60048.78
510.42	59910.69
510.60	59882.61
510.77	59987.93
510.95	60704.13
511.12	60795.42
511.30	61066.92
511.47	61418.00
511.64	61228.41
511.82	60975.64
511.99	60210.28
512.17	59852.18
512.34	59456.63
512.51	59433.22
512.69	59660.26
512.86	59695.36
513.04	60259.43
513.21	59994.95
513.38	59952.82
513.56	59421.52
513.73	58829.37
513.90	58969.80
514.08	59171.08
514.25	59363.01
514.43	59536.21
514.60	59505.78
514.77	59831.11
514.95	59903.67
515.12	59744.51
515.29	60088.57
515.47	60484.12
515.64	60601.15
515.81	60229.01
515.99	59739.83
516.16	58585.95
516.33	56388.19
516.51	54885.56
516.68	54288.73
516.85	53766.79
517.03	54075.74
517.20	56584.79
517.37	59030.65
517.54	59997.29
517.72	59515.14
517.89	57293.97
518.06	54693.64
518.24	55033.02
518.41	57240.14
518.58	58440.84
518.75	58775.53
518.93	58990.86
519.10	58632.76
519.27	59283.43
519.45	59470.67
519.62	60243.05
519.79	60327.31
519.96	60238.37
520.14	59884.95
520.31	58988.52
520.48	59056.40
520.65	59257.68
520.83	60158.79
521.00	60650.30
521.17	60266.45
521.34	60041.76
521.52	60165.81
521.69	60664.35
521.86	61172.24
522.03	60643.28
522.20	59695.36
522.38	58616.38
522.55	58614.04
522.72	59334.92
522.89	59519.82
523.07	59437.90
523.24	59997.29
523.41	60610.51
523.58	60985.00
523.75	61403.95
523.92	60989.68
524.10	61205.01
524.27	61216.71
524.44	60928.83
524.61	60903.08
524.78	60816.48
524.96	60514.55
525.13	60601.15
525.30	60683.07
525.47	61286.93
525.64	61219.05
525.81	60601.15
525.98	59358.33
526.16	57778.46
526.33	57366.53
526.50	56978.00
526.67	56671.39
526.84	57216.74
527.01	58085.07
527.18	58859.79
527.36	59655.57
527.53	60432.63
527.70	60680.73
527.87	60364.76
528.04	59819.41
528.21	60250.07
528.38	60825.84
528.55	61572.47
528.72	61513.96
528.89	61743.33
529.07	61340.76
529.24	61008.40
529.41	60392.84
529.58	59751.54
529.75	59753.88
529.92	60360.08
530.09	60575.40
530.26	61286.93
530.43	61418.00
530.60	61347.78
530.77	61673.12
530.94	61771.42
531.11	61254.16
531.28	60977.98
531.46	60905.42
531.63	60982.66
531.80	60846.91
531.97	60203.26
532.14	59573.66
532.31	58808.30
532.48	58012.52
532.65	58164.65
532.82	58798.94
532.99	60065.17
533.16	60371.78
533.33	60870.31
533.50	60720.52
533.67	59929.42
533.84	59634.51
534.01	59805.37
534.18	60236.03
534.35	60390.50
534.52	60079.21
534.69	60434.97
534.86	60617.53
535.03	60732.22
535.20	61291.61
535.37	61642.69
535.54	61869.72
535.71	61378.21
535.88	61066.92
536.05	60680.73
536.22	60214.96
536.38	60086.23
536.55	59288.11
536.72	58997.88
536.89	58871.49
537.06	59639.19
537.23	60441.99
537.40	60760.31
537.57	60746.26
537.74	60383.48
537.91	60456.04
538.08	59987.93
538.25	60516.89
538.42	60568.38
538.59	60355.39
538.75	59709.41
538.92	59515.14
539.09	59505.78
539.26	59157.04
539.43	59042.35
539.60	59070.44
539.77	59536.21
539.94	59407.48
540.11	58527.44
540.28	57759.74
540.44	58087.42
540.61	58277.00
540.78	58574.25
540.95	58759.15
541.12	59353.65
541.29	59641.53
541.46	59788.98
541.62	59856.86
541.79	59868.56
541.96	59358.33
542.13	59004.91
542.30	59536.21
542.47	59655.57
542.63	59388.75
542.80	59086.82
542.97	59250.66
543.14	59128.95
543.31	59182.79
543.48	59751.54
543.64	60509.87
543.81	60746.26
543.98	60736.90
544.15	59948.14
544.32	59238.96
544.48	59496.42
544.65	59856.86
544.82	60081.55
544.99	59852.18
545.16	59428.54
545.32	59229.60
545.49	60058.15
545.66	60395.18
545.83	60065.17
546.00	59781.96
546.16	59196.83
546.33	59449.61
546.50	59601.74
546.67	60083.89
546.83	59615.79
547.00	59526.84
547.17	59011.93
547.34	58321.47
547.50	58492.33
547.67	58698.30
547.84	58794.26
548.00	59210.87
548.17	59592.38
548.34	59477.69
548.51	59590.04
548.67	59468.33
548.84	59533.87
549.01	59561.95
549.18	59498.76
549.34	59295.13
549.51	59278.75
549.68	59428.54
549.84	59112.57
550.01	59091.51
550.18	58836.39
550.34	59058.74
550.51	59086.82
550.68	59250.66
550.84	58560.20
551.01	58707.66
551.18	58796.60
551.34	58969.80
551.51	59068.10
551.68	59393.43
551.84	59512.80
552.01	59374.71
552.18	59196.83
552.34	58501.69
552.51	58017.20
552.68	57811.23
552.84	58724.04
553.01	58862.13
553.18	58426.79
553.34	58796.60
553.51	58656.17
553.67	59175.76
553.84	59231.94
554.01	58904.26
554.17	58777.87
554.34	58911.28
554.51	59084.48
554.67	59386.41
554.84	59159.38
555.00	59100.87
555.17	58677.23
555.33	58672.55
555.50	58539.14
555.67	58607.01
555.83	58473.60
556.00	58155.29
556.16	58052.31
556.33	57853.36
556.50	57961.03
556.66	57932.94
556.83	57310.36
556.99	57799.53
557.16	57860.38
557.32	58094.44
557.49	58328.49
557.65	58262.96
557.82	58129.54
557.98	57923.58
558.15	57670.80
558.32	56743.95
558.48	56009.02
558.65	56144.77
558.81	56666.71
558.98	57003.75
559.14	56985.02
559.31	57099.71
559.47	57205.03
559.64	56947.57
559.80	56577.77
559.97	56437.34
560.13	56938.21
560.30	57855.70
560.46	58323.81
560.63	58489.99
560.79	58564.88
560.96	57972.73
561.12	57219.08
561.29	56067.53
561.45	56222.01
561.61	56664.37
561.78	57221.42
561.94	56963.96
562.11	56910.13
562.27	56966.30
562.44	57031.83
562.60	57513.98
562.77	57640.37
562.93	57640.37
563.10	57389.94
563.26	56851.61
563.42	56921.83
563.59	56498.19
563.75	56631.60
563.92	57029.49
564.08	56704.16
564.24	57017.79
564.41	57066.94
564.57	57209.71
564.74	56828.21
564.90	56629.26
565.07	56425.64
565.23	56259.46
565.39	55786.67
565.56	55327.92
565.72	55229.62
565.88	55611.13
566.05	55882.63
566.21	55894.33
566.38	56030.08
566.54	56324.99
566.70	56435.00
566.87	56868.00
567.03	56807.14
567.19	57214.40
567.36	56687.78
567.52	56477.13
567.68	56385.85
567.85	55835.82
568.01	55168.77
568.17	55058.76
568.34	55011.95
568.50	54726.41
568.66	55276.43
568.83	55564.32
568.99	55583.04
569.15	55992.64
569.32	55636.87
569.48	55615.81
569.64	55351.33
569.81	54862.16
569.97	54782.58
570.13	55117.28
570.30	54597.68
570.46	54335.54
570.62	53616.99
570.78	53506.99
570.95	53869.77
571.11	54459.58
571.27	54653.85
571.43	54794.28
571.60	55136.00
571.76	55281.11
571.92	55295.16
572.09	55833.48
572.25	55517.51
572.41	55510.49
572.57	55374.73
572.74	55325.58
572.90	54747.47
573.06	54901.95
573.22	54993.23
573.38	54986.21
573.55	54801.30
573.71	55093.87
573.87	55217.92
574.03	54948.76
574.20	54770.88
574.36	54691.30
574.52	54389.37
574.68	54223.19
574.84	54138.93
575.01	53448.47
575.17	53221.44
575.33	53645.08
575.49	53904.88
575.65	54232.55
575.82	53640.40
575.98	53722.32
576.14	54042.97
576.30	54096.80
576.46	54155.32
576.62	54419.80
576.79	54202.13
576.95	53911.90
577.11	53867.43
577.27	53694.23
577.43	53951.69
577.59	53677.85
577.75	52924.19
577.92	52446.72
578.08	52474.81
578.24	52430.34
578.40	52779.08
578.56	52884.40
578.72	53265.91
578.88	53064.63
579.04	53549.12
579.21	53443.79
579.37	53514.01
579.53	53453.15
579.69	53542.10
579.85	53780.83
580.01	53523.37
580.17	53031.86
580.33	52996.75
580.49	52870.36
580.65	53174.63
580.82	53556.14
580.98	53242.51
581.14	53418.05
581.30	53492.94
581.46	53371.24
581.62	53680.19
581.78	53624.01
581.94	53752.74
582.10	53745.72
582.26	53769.13
582.42	53687.21
582.58	53694.23
582.74	53464.86
582.90	53914.24
583.06	53413.37
583.22	53511.67
583.38	53516.35
583.54	53375.92
583.70	53127.82
583.86	53364.21
584.02	53165.27
584.18	53237.83
584.34	53233.14
584.50	53139.52
584.66	52750.99
584.82	52631.63
584.98	52519.28
585.14	52383.53
