SpectraSuite Data File
++++++++++++++++++++++++++++++++++++
Date: Mon Oct 07 14:53:51 GMT-05:00 2013
User: price-jones
Dark Spectrum Present: No
Reference Spectrum Present: No
Number of Sampled Component Spectra: 1
Spectrometers: USB2+H05261
Integration Time (usec): 100000 (USB2+H05261)
Spectra Averaged: 1 (USB2+H05261)
Boxcar Smoothing: 0 (USB2+H05261)
Correct for Electrical Dark: No (USB2+H05261)
Strobe/Lamp Enabled: No (USB2+H05261)
Correct for Detector Non-linearity: No (USB2+H05261)
Correct for Stray Light: No (USB2+H05261)
Number of Pixels in Processed Spectrum: 2048
>>>>>Begin Processed Spectral Data<<<<<
365.73	0.00
365.92	0.00
366.12	0.00
366.32	0.00
366.52	0.00
366.72	0.00
366.91	0.00
367.11	0.00
367.31	0.00
367.51	0.00
367.70	0.00
367.90	0.00
368.10	0.00
368.30	0.00
368.49	0.00
368.69	0.00
368.89	0.00
369.09	0.00
369.28	0.00
369.48	0.00
369.68	0.00
369.87	0.00
370.07	0.00
370.27	0.00
370.47	613.22
370.66	2932.69
370.86	3524.85
371.06	3913.38
371.25	3728.47
371.45	3548.25
371.65	3164.40
371.84	3000.57
372.04	2991.20
372.24	3541.23
372.44	3702.73
372.63	3517.83
372.83	3337.60
373.03	3033.33
373.22	2605.02
373.42	2764.17
373.62	3185.47
373.81	3541.23
374.01	3480.38
374.21	3368.03
374.40	2874.18
374.60	3162.06
374.79	3503.78
374.99	4049.13
375.19	4435.32
375.38	4353.40
375.58	4079.55
375.78	3983.59
375.97	4175.52
376.17	4210.62
376.37	4245.73
376.56	4325.31
376.76	4472.76
376.95	4854.27
377.15	5172.58
377.35	5462.81
377.54	5582.18
377.74	5891.13
377.93	5860.70
378.13	5696.86
378.33	5495.58
378.52	4952.57
378.72	4884.70
378.91	4685.75
379.11	4301.90
379.31	4299.56
379.50	4201.26
379.70	4711.50
379.89	5177.26
380.09	5460.47
380.28	5668.78
380.48	5696.86
380.68	5612.60
380.87	5399.62
381.07	5032.15
381.26	4704.48
381.46	4379.14
381.65	4187.22
381.85	4252.75
382.04	3981.25
382.24	3660.60
382.43	3616.13
382.63	3456.97
382.83	3461.65
383.02	3468.67
383.22	3459.31
383.41	3492.08
383.61	3707.41
383.80	4348.72
384.00	4725.54
384.19	5320.04
384.39	5675.80
384.58	5743.67
384.78	5614.95
384.97	5406.64
385.17	5163.22
385.36	4842.57
385.56	4725.54
385.75	4840.23
385.95	5210.03
386.14	5837.30
386.34	5982.41
386.53	5710.91
386.72	5210.03
386.92	5404.30
387.11	5589.20
387.31	5813.89
387.50	5844.32
387.70	5636.01
387.89	5533.03
388.09	5472.17
388.28	5476.85
388.48	5657.07
388.67	5937.94
388.86	6560.52
389.06	6911.60
389.25	7412.48
389.45	7536.52
389.64	7435.88
389.84	7297.79
390.03	7353.96
390.22	7351.62
390.42	7541.21
390.61	8016.33
390.81	8547.64
391.00	8875.31
391.19	8571.04
391.39	8411.89
391.58	8011.65
391.78	7527.16
391.97	7133.95
392.16	6820.32
392.36	6069.01
392.55	4931.51
392.75	3899.33
392.94	3180.79
393.13	3124.62
393.33	3574.00
393.52	4751.29
393.71	5790.49
393.91	6665.85
394.10	7028.63
394.29	7730.79
394.49	8278.47
394.68	8978.30
394.88	9029.79
395.07	9640.67
395.26	9462.79
395.46	9331.72
395.65	8608.49
395.84	7590.36
396.04	6516.05
396.23	5142.16
396.42	4372.12
396.62	4117.00
396.81	4870.65
397.00	6324.13
397.19	7588.02
397.39	9158.52
397.58	10377.94
397.77	10780.51
397.97	11419.47
398.16	11669.91
398.35	12063.12
398.55	12046.74
398.74	12552.29
398.93	12837.84
399.12	12695.07
399.32	12322.92
399.51	12737.20
399.70	13493.19
399.90	13329.35
400.09	13334.03
400.28	13181.90
400.47	13439.36
400.67	13870.01
400.86	14415.36
401.05	14532.39
401.24	14441.11
401.44	14841.34
401.63	14738.35
401.82	14768.78
402.01	14822.61
402.21	14888.15
402.40	14888.15
402.59	14438.76
402.78	13790.44
402.97	13408.93
403.17	14038.53
403.36	14941.98
403.55	15529.45
403.74	16030.33
403.93	15037.94
404.13	13785.76
404.32	13497.87
404.51	14221.10
404.70	15351.57
404.89	15021.56
405.09	15037.94
405.28	14654.09
405.47	14436.42
405.66	14588.56
405.85	14171.94
406.05	13743.63
406.24	13991.72
406.43	14689.20
406.62	15194.76
406.81	15316.47
407.00	14501.96
407.20	14246.84
407.39	14321.74
407.58	15094.11
407.77	15611.37
407.96	16049.05
408.15	16231.62
408.34	16645.89
408.54	17334.01
408.73	17245.07
408.92	16704.40
409.11	16666.95
409.30	15758.83
409.49	14785.16
409.68	13844.27
409.87	13394.89
410.07	14424.72
410.26	15417.11
410.45	16325.24
410.64	16840.15
410.83	17256.77
411.02	17661.68
411.21	18494.91
411.40	18305.33
411.59	18333.42
411.78	18108.72
411.98	17834.88
412.17	18361.50
412.36	17666.36
412.55	17603.17
412.74	17334.01
412.93	16931.44
413.12	17497.84
413.31	18721.95
413.50	19094.09
413.69	19445.17
413.88	18768.76
414.07	17954.25
414.26	18118.09
414.45	19016.85
414.64	19410.06
414.83	19033.24
415.02	18525.34
415.22	19023.87
415.41	19370.27
415.60	19695.61
415.79	20540.54
415.98	20980.56
416.17	21385.47
416.36	20688.00
416.55	19941.36
416.74	19695.61
416.93	18731.31
417.12	18843.65
417.31	19391.34
417.50	19543.47
417.69	20439.90
417.88	19826.68
418.07	20044.35
418.26	19737.74
418.45	19950.73
418.64	20428.20
418.83	21088.23
419.02	20936.09
419.21	20664.59
419.39	19803.27
419.58	18841.31
419.77	18845.99
419.96	19339.85
420.15	21041.42
420.34	21404.20
420.53	22225.73
420.72	22349.78
420.91	22321.69
421.10	22253.81
421.29	21879.33
421.48	21226.32
421.67	22419.99
421.86	21619.53
422.05	20292.44
422.24	18230.43
422.43	17736.58
422.61	19709.65
422.80	21275.47
422.99	21652.30
423.18	20425.86
423.37	20372.02
423.56	20222.23
423.75	20453.94
423.94	21020.35
424.13	19819.66
424.32	20198.82
424.50	20072.43
424.69	19852.42
424.88	20123.93
425.07	20023.28
425.26	19915.62
425.45	19438.15
425.64	19384.32
425.83	19461.55
426.01	20395.43
426.20	20924.39
426.39	20861.19
426.58	19438.15
426.77	17657.00
426.96	17252.09
427.15	17563.38
427.33	19314.10
427.52	20123.93
427.71	19955.41
427.90	20079.46
428.09	19880.51
428.28	19173.67
428.46	18810.89
428.65	18616.62
428.84	19002.81
429.03	19459.21
429.22	18295.97
429.40	17394.86
429.59	15704.99
429.78	13937.89
429.97	13760.01
430.16	13989.38
430.34	14171.94
430.53	14029.17
430.72	14349.82
430.91	15791.59
431.10	18675.13
431.28	21991.67
431.47	23718.99
431.66	23920.28
431.85	22005.72
432.03	20231.59
432.22	19290.70
432.41	19871.15
432.60	22263.18
432.79	23019.17
432.97	23889.85
433.16	22904.48
433.35	21071.84
433.54	18771.10
433.72	17774.03
433.91	18150.85
434.10	20519.48
434.28	22136.79
434.47	23290.67
434.66	23248.54
434.85	21914.44
435.03	22057.21
435.22	22675.11
435.41	23836.02
435.59	24163.69
435.78	24379.02
435.97	24882.24
436.16	25504.82
436.34	25085.86
436.53	24538.18
436.72	24631.80
436.90	23030.87
437.09	22984.06
437.28	22040.82
437.46	23517.70
437.65	23531.75
437.84	21792.73
438.02	20046.69
438.21	20126.27
438.40	20844.81
438.58	22789.80
438.77	23358.55
438.96	23351.52
439.14	24631.80
439.33	24978.20
439.52	25631.21
439.70	24907.98
439.89	24390.72
440.08	23688.56
440.26	23545.79
440.45	24442.21
440.63	25895.69
440.82	27290.65
441.01	26977.01
441.19	26974.67
441.38	27234.47
441.57	28175.37
441.75	28556.88
441.94	28730.08
442.12	28402.40
442.31	29137.33
442.50	29010.94
442.68	28746.46
442.87	28215.16
443.05	27737.69
443.24	28364.95
443.43	28966.47
443.61	29460.32
443.80	29717.78
443.98	27751.73
444.17	28004.51
444.35	29532.88
444.54	29832.47
444.73	30080.56
444.91	28826.04
445.10	27367.88
445.28	26331.03
445.47	25993.99
445.65	25809.09
445.84	26810.84
446.02	27864.08
446.21	28397.72
446.39	28266.65
446.58	28858.81
446.77	29193.50
446.95	29172.44
447.14	29968.22
447.32	30581.44
447.51	29839.49
447.69	28737.10
447.88	28067.70
448.06	28999.24
448.25	29755.23
448.43	29844.17
448.62	29233.29
448.80	29184.14
448.99	29132.65
449.17	29413.51
449.36	29315.21
449.54	30731.23
449.73	30920.82
449.91	31072.95
450.10	32222.16
450.28	32615.37
450.46	32634.09
450.65	32243.22
450.83	32510.04
451.02	31618.30
451.20	31409.99
451.39	30951.24
451.57	31082.31
451.76	31161.89
451.94	30892.73
452.13	30499.52
452.31	29149.03
452.49	27557.47
452.68	27725.99
452.86	28219.84
453.05	28500.70
453.23	29102.22
453.42	29799.70
453.60	30548.67
453.78	30876.35
453.97	30654.00
454.15	30326.32
454.34	29898.00
454.52	30085.25
454.70	29624.16
454.89	30015.03
455.07	29855.87
455.26	30338.02
455.44	31550.42
455.62	31962.36
455.81	32322.80
455.99	32048.96
456.17	31473.18
456.36	31903.84
456.54	32774.52
456.73	32514.72
456.91	32900.91
457.09	33406.47
457.28	33977.56
457.46	32355.57
457.64	32020.87
457.83	31241.47
458.01	30574.42
458.19	31215.72
458.38	31651.06
458.56	33062.41
458.74	32968.79
458.93	31786.82
459.11	31690.85
459.29	31536.38
459.48	32044.27
459.66	31527.02
459.84	31985.76
460.03	32364.93
460.21	32210.45
460.39	33256.67
460.57	33336.25
460.76	33574.98
460.94	33769.25
461.12	33329.23
461.31	33146.67
461.49	33109.22
461.67	33160.71
461.85	34635.25
462.04	34323.96
462.22	34040.75
462.40	34106.29
462.59	34099.26
462.77	33928.41
462.95	33813.72
463.13	33628.82
463.32	33455.62
463.50	33123.26
463.68	33233.27
463.86	33146.67
464.05	32713.67
464.23	31751.71
464.41	32077.04
464.59	31323.39
464.78	33298.80
464.96	32985.17
465.14	32226.84
465.32	33240.29
465.50	34178.84
465.69	34469.07
465.87	33659.24
466.05	32891.55
466.23	31426.37
466.41	30848.26
466.60	31798.52
466.78	31690.85
466.96	31913.20
467.14	32690.26
467.32	33373.70
467.51	32999.21
467.69	31917.89
467.87	32156.62
468.05	32760.48
468.23	33024.96
468.41	32870.48
468.60	33064.75
468.78	33455.62
468.96	33046.02
469.14	33558.60
469.32	33722.44
469.50	32409.40
469.69	32528.77
469.87	31709.58
470.05	32156.62
470.23	31683.83
470.41	31934.27
470.59	32292.37
470.77	32788.56
470.95	33106.88
471.14	33635.84
471.32	33429.87
471.50	35592.53
471.68	35456.78
471.86	35910.84
472.04	35864.03
472.22	36172.98
472.40	34227.99
472.58	33727.12
472.77	33488.38
472.95	34251.40
473.13	35644.02
473.31	34267.78
473.49	34630.57
473.67	34902.07
473.85	35526.99
474.03	36727.69
474.21	36114.47
474.39	36858.76
474.57	37181.75
474.75	37008.55
474.93	36304.05
475.12	35849.99
475.30	35967.01
475.48	35775.09
475.66	36098.08
475.84	36215.11
476.02	35875.73
476.20	34958.24
476.38	35831.26
476.56	36732.37
476.74	37598.37
476.92	37738.80
477.10	38387.13
477.28	39215.68
477.46	39496.54
477.64	39662.72
477.82	39672.08
478.00	39803.15
478.18	39271.85
478.36	39248.44
478.54	38990.98
478.72	39730.59
478.90	40444.46
479.08	41848.78
479.26	41666.22
479.44	41818.35
479.62	41530.47
479.80	41462.59
479.98	41476.63
480.16	41970.49
480.34	41888.57
480.52	42050.06
480.70	42139.00
480.88	42113.26
481.06	43021.39
481.24	43606.52
481.41	44399.96
481.59	45022.54
481.77	44339.11
481.95	44252.51
482.13	43936.54
482.31	43690.78
482.49	44243.15
482.67	44231.44
482.85	44786.15
483.03	45221.49
483.21	45764.49
483.39	45521.08
483.57	44584.86
483.74	44456.14
483.92	44629.34
484.10	45207.45
484.28	46213.88
484.46	46124.94
484.64	46653.90
484.82	46087.49
485.00	45446.18
485.18	44641.04
485.35	43318.64
485.53	40641.06
485.71	36521.72
485.89	35955.31
486.07	37907.32
486.25	41205.13
486.43	43878.02
486.61	44596.57
486.78	44287.62
486.96	44573.16
487.14	45764.49
487.32	47173.50
487.50	48212.70
487.68	49074.01
487.85	49600.63
488.03	49656.81
488.21	49242.53
488.39	48011.41
488.57	47468.40
488.75	47276.48
488.92	48219.72
489.10	50911.33
489.28	52196.29
489.46	52875.04
489.64	52381.19
489.81	52538.01
489.99	52198.63
490.17	52163.52
490.35	52769.72
490.53	52669.08
490.70	51805.42
490.88	51749.24
491.06	52926.53
491.24	52879.72
491.41	51800.74
491.59	49801.92
491.77	49130.19
491.95	50024.27
492.13	51742.22
492.30	52645.67
492.48	53904.88
492.66	54202.13
492.84	54375.33
493.01	53827.64
493.19	53439.11
493.37	52980.37
493.54	52795.46
493.72	53333.79
493.90	54412.77
494.08	55398.14
494.25	55451.97
494.43	55613.47
494.61	56133.07
494.79	55964.55
494.96	55573.68
495.14	55253.03
495.32	54581.29
495.49	53638.06
495.67	54946.42
495.85	56018.38
496.02	56596.49
496.20	56495.85
496.38	56048.81
496.55	55781.99
496.73	56465.42
496.91	56371.80
497.09	56940.55
497.26	57169.93
497.44	56521.60
497.62	56037.11
497.79	55208.56
497.97	54054.67
498.14	54227.87
498.32	55304.52
498.50	56388.19
498.67	56868.00
498.85	56633.94
499.03	56830.55
499.20	56963.96
499.38	57120.77
499.56	56828.21
499.73	56390.53
499.91	55999.66
500.08	55664.96
500.26	54784.92
500.44	55346.65
500.61	56032.42
500.79	55828.80
500.97	55444.95
501.14	55278.77
501.32	55334.95
501.49	55121.96
501.67	55140.68
501.84	55880.29
502.02	56163.50
502.20	56528.62
502.37	56720.54
502.55	56598.83
502.72	56868.00
502.90	57525.69
503.07	57336.10
503.25	56666.71
503.43	56182.22
503.60	55426.23
503.78	54770.88
503.95	55372.39
504.13	56769.69
504.30	57291.63
504.48	56891.40
504.65	56825.87
504.83	57008.43
505.01	57432.07
505.18	58042.95
505.36	58457.22
505.53	58356.58
505.71	58635.10
505.88	58815.32
506.06	58124.86
506.23	57865.06
506.41	57385.25
506.58	57663.78
506.76	57705.91
506.93	57462.49
507.11	57425.04
507.28	57525.69
507.46	57104.39
507.63	56456.06
507.81	56460.74
507.98	56528.62
508.16	57240.14
508.33	57759.74
508.50	58262.96
508.68	58447.86
508.85	58782.55
509.03	58939.37
509.20	58817.66
509.38	57911.88
509.55	56942.89
509.73	57272.91
509.90	57815.91
510.08	58124.86
510.25	58054.65
510.42	57949.32
510.60	57638.03
510.77	58115.50
510.95	58372.96
511.12	58726.38
511.30	59030.65
511.47	59283.43
511.64	59135.98
511.82	58808.30
511.99	58061.67
512.17	57743.36
512.34	57345.47
512.51	57457.81
512.69	57675.48
512.86	57708.25
513.04	58150.61
513.21	58204.44
513.38	57958.69
513.56	57378.23
513.73	56556.70
513.90	56839.91
514.08	56903.10
514.25	57249.50
514.43	57567.82
514.60	57537.39
514.77	57729.31
514.95	57705.91
515.12	57652.08
515.29	57907.19
515.47	58485.31
515.64	58691.27
515.81	58351.90
515.99	57698.89
516.16	56385.85
516.33	54160.00
516.51	52547.37
516.68	51365.40
516.85	50908.99
517.03	51388.80
517.20	54073.40
517.37	56992.04
517.54	57991.45
517.72	57293.97
517.89	54880.88
518.06	52423.32
518.24	52718.23
518.41	54944.08
518.58	56418.61
518.75	56804.80
518.93	56781.40
519.10	56701.82
519.27	57221.42
519.45	57441.43
519.62	57879.11
519.79	58464.24
519.96	58223.17
520.14	57680.16
520.31	57010.77
520.48	56765.01
520.65	57183.97
520.83	57989.11
521.00	58504.03
521.17	58171.67
521.34	57776.12
521.52	58064.01
521.69	58475.94
521.86	59121.93
522.03	58873.84
522.20	57598.24
522.38	56446.70
522.55	56488.83
522.72	57080.98
522.89	57179.29
523.07	57591.22
523.24	57813.57
523.41	58541.48
523.58	59114.91
523.75	59311.52
523.92	58976.82
524.10	59114.91
524.27	59264.70
524.44	58930.01
524.61	58532.12
524.78	58592.97
524.96	58590.63
525.13	58635.10
525.30	58901.92
525.47	59061.08
525.64	59049.38
525.81	58337.85
525.98	57066.94
526.16	55512.83
526.33	55023.65
526.50	54616.40
526.67	54138.93
526.84	54810.67
527.01	55828.80
527.18	56647.99
527.36	57436.75
527.53	58274.66
527.70	58513.39
527.87	58031.24
528.04	57778.46
528.21	58143.59
528.38	58859.79
528.55	59161.72
528.72	59568.97
528.89	59845.16
529.07	59409.82
529.24	58869.15
529.41	57944.64
529.58	57542.07
529.75	57696.55
529.92	58108.48
530.09	58475.94
530.26	58997.88
530.43	59274.07
530.60	59119.59
530.77	59606.42
530.94	59561.95
531.11	59154.70
531.28	58801.28
531.46	58702.98
531.63	58770.85
531.80	58529.78
531.97	58078.05
532.14	57703.57
532.31	56512.23
532.48	55852.20
532.65	55770.28
532.82	56741.61
532.99	57733.99
533.16	58239.55
533.33	58780.21
533.50	58618.72
533.67	58017.20
533.84	57277.59
534.01	57621.65
534.18	57652.08
534.35	58218.49
534.52	57965.71
534.69	58145.93
534.86	58237.21
535.03	58681.91
535.20	59351.30
535.37	59576.00
535.54	59435.56
535.71	59323.22
535.88	58820.00
536.05	58089.76
536.22	57764.42
536.38	57598.24
536.55	57146.52
536.72	56664.37
536.89	56486.49
537.06	57460.15
537.23	58064.01
537.40	58403.39
537.57	58389.34
537.74	58174.02
537.91	58145.93
538.08	58045.29
538.25	58085.07
538.42	58293.38
538.59	58106.14
538.75	57516.32
538.92	57235.46
539.09	57120.77
539.26	56896.08
539.43	56484.15
539.60	56935.87
539.77	57076.30
539.94	56860.97
540.11	56170.52
540.28	55725.81
540.44	55695.39
540.61	55915.40
540.78	56233.71
540.95	56545.00
541.12	57059.92
541.29	57244.82
541.46	57467.17
541.62	57872.09
541.79	57464.83
541.96	56828.21
542.13	56760.33
542.30	57200.35
542.47	57324.40
542.63	57090.35
542.80	56776.72
542.97	56961.62
543.14	56949.92
543.31	56968.64
543.48	57542.07
543.64	58096.78
543.81	58501.69
543.98	58279.34
544.15	57462.49
544.32	57233.12
544.48	56893.74
544.65	57614.63
544.82	57862.72
544.99	57450.79
545.16	57284.61
545.32	57088.01
545.49	57883.79
545.66	58094.44
545.83	57918.90
546.00	57380.57
546.16	57055.24
546.33	56963.96
546.50	57190.99
546.67	57666.12
546.83	57080.98
547.00	56928.85
547.17	56516.92
547.34	56016.04
547.50	55863.91
547.67	56165.84
547.84	56449.04
548.00	56853.95
548.17	57190.99
548.34	56858.63
548.51	57155.88
548.67	57020.13
548.84	57382.91
549.01	57230.78
549.18	57102.05
549.34	56942.89
549.51	57064.60
549.68	56879.70
549.84	56594.15
550.01	56317.97
550.18	56533.30
550.34	56456.06
550.51	56573.09
550.68	56683.09
550.84	56320.31
551.01	56121.37
551.18	56236.05
551.34	56481.81
551.51	56757.99
551.68	57050.56
551.84	57153.54
552.01	56903.10
552.18	56662.03
552.34	55854.54
552.51	55632.19
552.68	55594.74
552.84	56055.83
553.01	56481.81
553.18	56116.68
553.34	56287.54
553.51	56505.21
553.67	56877.36
553.84	56725.22
554.01	56587.13
554.17	56530.96
554.34	56477.13
554.51	56662.03
554.67	56835.23
554.84	56762.67
555.00	56512.23
555.17	56100.30
555.33	55877.95
555.50	56126.05
555.67	56296.91
555.83	55941.14
556.00	55798.37
556.16	55648.58
556.33	55283.45
556.50	55133.66
556.66	55047.06
556.83	54887.90
556.99	55271.75
557.16	55049.40
557.32	55700.07
557.49	55662.62
557.65	55697.73
557.82	55484.74
557.98	55416.86
558.15	55150.04
558.32	54197.44
558.48	53120.80
558.65	53591.25
558.81	53975.09
558.98	54150.63
559.14	54405.75
559.31	54625.76
559.47	54478.31
559.64	54078.08
559.80	53804.24
559.97	54012.54
560.13	54239.57
560.30	55117.28
560.46	55756.24
560.63	56072.21
560.79	56053.49
560.96	55395.80
561.12	54506.40
561.29	53357.19
561.45	53521.03
561.61	54150.63
561.78	54506.40
561.94	54473.63
562.11	54630.44
562.27	54176.38
562.44	54597.68
562.60	54913.65
562.77	55002.59
562.93	55021.31
563.10	54920.67
563.26	54333.20
563.42	54099.14
563.59	54012.54
563.75	54178.72
563.92	54068.72
564.08	54085.10
564.24	54487.67
564.41	54394.05
564.57	54248.94
564.74	54199.79
564.90	53918.92
565.07	54127.23
565.23	53422.73
565.39	53272.93
565.56	52715.89
565.72	52467.79
565.88	53020.16
566.05	53008.45
566.21	53357.19
566.38	53488.26
566.54	53268.25
566.70	53673.16
566.87	54061.69
567.03	54092.12
567.19	54148.29
567.36	53954.03
567.52	53727.00
567.68	53616.99
567.85	52877.38
568.01	52638.65
568.17	52154.16
568.34	52189.27
568.50	51980.96
568.66	52027.77
568.83	52793.12
568.99	52633.97
569.15	52907.81
569.32	52814.19
569.48	52477.15
569.64	52264.16
569.81	52306.29
569.97	51938.83
570.13	51880.31
570.30	51208.58
570.46	50988.57
570.62	50642.17
570.78	50204.49
570.95	50422.16
571.11	51164.11
571.27	51510.51
571.43	51650.94
571.60	52252.46
571.76	52346.08
571.92	52664.39
572.09	52814.19
572.25	52673.76
572.41	52629.29
572.57	52420.98
572.74	52357.78
572.90	52046.49
573.06	52231.40
573.22	51669.67
573.38	51920.10
573.55	51650.94
573.71	52163.52
573.87	51987.98
574.03	51505.83
574.20	51929.47
574.36	51407.53
574.52	51386.46
574.68	51007.29
574.84	50953.46
575.01	50131.93
575.17	49890.86
575.33	50218.53
575.49	50679.62
575.65	50906.65
575.82	50908.99
575.98	50255.98
576.14	50838.78
576.30	50962.82
576.46	51419.23
576.62	50988.57
576.79	50688.98
576.95	50511.10
577.11	50707.71
577.27	50733.45
577.43	51035.38
577.59	50122.57
577.75	50012.57
577.92	48985.07
578.08	48935.92
578.24	48839.96
578.40	49263.60
578.56	49471.90
578.72	49441.48
578.88	49628.72
579.04	49986.82
579.21	50052.36
579.37	49872.14
579.53	50522.80
579.69	49937.67
579.85	50251.30
580.01	50375.35
580.17	50005.55
580.33	49591.27
580.49	49811.28
580.65	50026.61
580.82	49874.48
580.98	50398.76
581.14	49907.24
581.30	50101.51
581.46	50010.23
581.62	50267.69
581.78	50047.68
581.94	50494.72
582.10	50082.78
582.26	50181.09
582.42	50529.83
582.58	50461.95
582.74	50363.65
582.90	50298.11
583.06	50499.40
583.22	49904.90
583.38	50007.89
583.54	50120.23
583.70	49918.95
583.86	50071.08
584.02	49949.37
584.18	49940.01
584.34	49565.52
584.50	49535.10
584.66	49467.22
584.82	49191.04
584.98	48912.52
585.14	48102.69
585.30	47775.02
