SpectraSuite Data File
++++++++++++++++++++++++++++++++++++
Date: Mon Oct 07 14:53:45 GMT-05:00 2013
User: price-jones
Dark Spectrum Present: No
Reference Spectrum Present: No
Number of Sampled Component Spectra: 1
Spectrometers: USB2+H05261
Integration Time (usec): 100000 (USB2+H05261)
Spectra Averaged: 1 (USB2+H05261)
Boxcar Smoothing: 0 (USB2+H05261)
Correct for Electrical Dark: No (USB2+H05261)
Strobe/Lamp Enabled: No (USB2+H05261)
Correct for Detector Non-linearity: No (USB2+H05261)
Correct for Stray Light: No (USB2+H05261)
Number of Pixels in Processed Spectrum: 2048
>>>>>Begin Processed Spectral Data<<<<<
365.73	0.00
365.92	0.00
366.12	0.00
366.32	0.00
366.52	0.00
366.72	0.00
366.91	0.00
367.11	0.00
367.31	0.00
367.51	0.00
367.70	0.00
367.90	0.00
368.10	0.00
368.30	0.00
368.49	0.00
368.69	0.00
368.89	0.00
369.09	0.00
369.28	0.00
369.48	0.00
369.68	0.00
369.87	0.00
370.07	0.00
370.27	0.00
370.47	596.84
370.66	2951.42
370.86	3679.32
371.06	3988.27
371.25	4014.02
371.45	3737.84
371.65	3225.26
371.84	3030.99
372.04	3136.32
372.24	3412.50
372.44	3810.39
372.63	3747.20
372.83	3456.97
373.03	3002.91
373.22	2813.32
373.42	2892.90
373.62	3398.46
373.81	3737.84
374.01	3791.67
374.21	3349.31
374.40	3183.13
374.60	3185.47
374.79	3478.04
374.99	4180.20
375.19	4610.86
375.38	4638.94
375.58	4189.56
375.78	4322.97
375.97	4222.33
376.17	4400.21
376.37	4416.59
376.56	4615.54
376.76	4826.18
376.95	5078.96
377.15	5467.49
377.35	5804.53
377.54	5914.53
377.74	6059.65
377.93	6197.74
378.13	5820.91
378.33	5657.07
378.52	5224.08
378.72	5071.94
378.91	5067.26
379.11	4856.61
379.31	4528.94
379.50	4535.96
379.70	4971.30
379.89	5664.10
380.09	5694.52
380.28	6008.16
380.48	6090.07
380.68	5741.33
380.87	5923.90
381.07	5540.05
381.26	4931.51
381.46	4617.88
381.65	4564.04
381.85	4461.06
382.04	4133.39
382.24	3901.67
382.43	3630.17
382.63	3665.28
382.83	3709.75
383.02	3524.85
383.22	3740.18
383.41	3662.94
383.61	3875.93
383.80	4386.16
384.00	5067.26
384.19	5769.42
384.39	5928.58
384.58	5998.79
384.78	5694.52
384.97	5886.45
385.17	5514.30
385.36	5214.71
385.56	5004.07
385.75	4975.98
385.95	5582.18
386.14	6104.12
386.34	6195.40
386.53	5844.32
386.72	5638.35
386.92	5640.69
387.11	5858.36
387.31	6181.35
387.50	5959.00
387.70	5788.14
387.89	5781.12
388.09	5720.27
388.28	5942.62
388.48	6001.13
388.67	6300.72
388.86	7070.76
389.06	7583.34
389.25	7899.31
389.45	7896.97
389.64	7999.95
389.84	7796.32
390.03	7730.79
390.22	7765.90
390.42	7962.50
390.61	8409.54
390.81	9114.05
391.00	9235.75
391.19	9291.93
391.39	8933.82
391.58	8320.60
391.78	7918.03
391.97	7632.49
392.16	7220.55
392.36	6509.03
392.55	5355.15
392.75	4313.61
392.94	3370.37
393.13	3349.31
393.33	3911.04
393.52	5095.35
393.71	6338.17
393.91	6967.77
394.10	7634.83
394.29	8166.13
394.49	8709.13
394.68	9745.99
394.88	9745.99
395.07	10328.78
395.26	9961.32
395.46	9710.88
395.65	9156.18
395.84	8037.40
396.04	6942.03
396.23	5605.58
396.42	4648.30
396.62	4404.89
396.81	5043.85
397.00	6560.52
397.19	8299.54
397.39	9755.35
397.58	11293.08
397.77	11672.25
397.97	12121.63
398.16	12086.53
398.35	12725.49
398.55	13207.64
398.74	13727.24
398.93	13848.95
399.12	13540.00
399.32	13139.77
399.51	13413.61
399.70	14396.64
399.90	14274.93
400.09	14066.62
400.28	14108.75
400.47	14228.12
400.67	14862.40
400.86	15246.25
401.05	15218.16
401.24	15695.63
401.44	15466.26
401.63	15510.73
401.82	15878.19
402.01	15800.96
402.21	15775.21
402.40	15822.02
402.59	15496.69
402.78	14888.15
402.97	14377.91
403.17	14906.87
403.36	15775.21
403.55	16379.07
403.74	16718.45
403.93	16161.40
404.13	14846.02
404.32	14340.46
404.51	15066.03
404.70	16339.28
404.89	16358.00
405.09	16044.37
405.28	15499.03
405.47	15618.39
405.66	15634.78
405.85	15206.46
406.05	14726.65
406.24	14714.95
406.43	15487.32
406.62	16032.67
406.81	16215.23
407.00	15751.81
407.20	15243.91
407.39	15508.39
407.58	16020.97
407.77	16755.90
407.96	17429.97
408.15	17441.67
408.34	17385.50
408.54	18497.25
408.73	18562.79
408.92	18050.21
409.11	17872.33
409.30	16788.66
409.49	15798.62
409.68	15061.35
409.87	14146.20
410.07	15028.58
410.26	16449.28
410.45	17432.31
410.64	18040.85
410.83	18394.27
411.02	18579.17
411.21	19665.18
411.40	19133.88
411.59	19573.90
411.78	19103.45
411.98	19164.31
412.17	19477.94
412.36	19133.88
412.55	19316.44
412.74	18911.53
412.93	18225.75
413.12	18630.66
413.31	20163.72
413.50	20301.81
413.69	20893.96
413.88	19995.20
414.07	19433.47
414.26	19665.18
414.45	20343.94
414.64	20484.37
414.83	20418.83
415.02	19807.95
415.22	20006.90
415.41	20779.28
415.60	21385.47
415.79	21986.99
415.98	22199.98
416.17	22525.32
416.36	21972.95
416.55	21799.75
416.74	20861.19
416.93	20341.60
417.12	20285.42
417.31	20709.06
417.50	20795.66
417.69	21326.96
417.88	21666.34
418.07	20910.35
418.26	21027.37
418.45	21064.82
418.64	21961.25
418.83	22593.19
419.02	22326.37
419.21	22249.13
419.39	21018.01
419.58	20402.45
419.77	20514.80
419.96	21039.08
420.15	22293.60
420.34	23084.70
420.53	23711.97
420.72	24151.99
420.91	23793.89
421.10	23410.04
421.29	23325.78
421.48	22726.60
421.67	23964.75
421.86	23447.49
422.05	21806.77
422.24	19770.51
422.43	19283.67
422.61	20917.37
422.80	22764.05
422.99	23021.51
423.18	22197.64
423.37	21600.80
423.56	21834.86
423.75	21958.91
423.94	22731.28
424.13	21312.92
424.32	21664.00
424.50	21884.01
424.69	21106.95
424.88	21142.06
425.07	21647.61
425.26	21329.30
425.45	21235.68
425.64	20702.04
425.83	20688.00
426.01	21951.88
426.20	22771.07
426.39	22281.90
426.58	20912.69
426.77	19215.80
426.96	18553.43
427.15	19339.85
427.33	20423.51
427.52	21778.68
427.71	21729.53
427.90	21507.18
428.09	21202.91
428.28	20889.28
428.46	20418.83
428.65	19777.53
428.84	20060.73
429.03	20833.11
429.22	19733.06
429.40	18874.08
429.59	16966.54
429.78	14703.25
429.97	15035.60
430.16	15066.03
430.34	15470.94
430.53	14839.00
430.72	15428.81
430.91	16978.25
431.10	20135.63
431.28	23695.58
431.47	25778.66
431.66	25956.54
431.85	23859.42
432.03	22108.70
432.22	20861.19
432.41	21586.76
432.60	23866.44
432.79	25085.86
432.97	25186.50
433.16	25167.78
433.35	23056.62
433.54	20547.56
433.72	19349.21
433.91	19765.82
434.10	22214.02
434.28	23948.36
434.47	24947.77
434.66	24959.47
434.85	24219.86
435.03	23931.98
435.22	24732.44
435.41	25855.90
435.59	26228.04
435.78	26656.36
435.97	27190.00
436.16	27257.88
436.34	27157.24
436.53	26274.85
436.72	26469.12
436.90	24711.38
437.09	24767.55
437.28	24514.77
437.46	25399.49
437.65	25256.72
437.84	23477.91
438.02	21853.58
438.21	21455.69
438.40	22850.65
438.58	24596.69
438.77	25329.28
438.96	25553.97
439.14	26726.58
439.33	27159.58
439.52	27655.77
439.70	26831.90
439.89	26644.66
440.08	25511.84
440.26	25745.89
440.45	26204.64
440.63	28306.44
440.82	29689.70
441.01	29401.81
441.19	29362.02
441.38	29401.81
441.57	30806.13
441.75	31239.13
441.94	30944.22
442.12	30738.26
442.31	31550.42
442.50	31227.43
442.68	31185.30
442.87	30717.19
443.05	30150.78
443.24	30583.78
443.43	31417.01
443.61	32313.44
443.80	32332.16
443.98	30251.42
444.17	30508.88
444.35	31992.78
444.54	32699.62
444.73	32442.17
444.91	31288.28
445.10	29874.60
445.28	28240.90
445.47	28350.91
445.65	28222.18
445.84	28971.15
446.02	30366.11
446.21	30373.13
446.39	31028.48
446.58	31103.38
446.77	31484.89
446.95	31934.27
447.14	32797.93
447.32	33111.56
447.51	32650.47
447.69	31676.81
447.88	30972.31
448.06	31370.20
448.25	32098.11
448.43	32584.94
448.62	31409.99
448.80	31417.01
448.99	31768.09
449.17	31777.45
449.36	32112.15
449.54	33134.96
449.73	33773.93
449.91	34176.50
450.10	35260.17
450.28	35599.55
450.46	35211.02
450.65	34948.88
450.83	35030.80
451.02	34239.70
451.20	34052.45
451.39	34227.99
451.57	34024.37
451.76	34019.69
451.94	33371.36
452.13	33060.07
452.31	31995.12
452.49	29713.10
452.68	30265.47
452.86	31077.63
453.05	31061.25
453.23	32044.27
453.42	32507.70
453.60	33656.90
453.78	34213.95
453.97	33256.67
454.15	33127.94
454.34	32730.05
454.52	32786.22
454.70	32158.96
454.89	32224.50
455.07	32650.47
455.26	32975.81
455.44	34401.19
455.62	35096.33
455.81	35225.06
455.99	34920.79
456.17	34815.47
456.36	34665.67
456.54	35508.27
456.73	35232.08
456.91	36189.36
457.09	36140.21
457.28	36903.23
457.46	35168.89
457.64	35143.14
457.83	34548.65
458.01	33483.70
458.19	34693.76
458.38	34724.19
458.56	35606.57
458.74	35651.04
458.93	35112.72
459.11	34749.93
459.29	34590.78
459.48	35028.46
459.66	34419.92
459.84	35136.12
460.03	35468.48
460.21	35491.88
460.39	36285.33
460.57	36442.14
460.76	36631.72
460.94	36648.11
461.12	35945.95
461.31	36575.55
461.49	36577.89
461.67	36271.28
461.85	37479.00
462.04	36769.82
462.22	37483.68
462.40	37631.13
462.59	37326.86
462.77	37228.56
462.95	37443.89
463.13	36425.76
463.32	36170.64
463.50	36430.44
463.68	35798.49
463.86	36236.17
464.05	36100.42
464.23	35145.48
464.41	35175.91
464.59	34190.55
464.78	36161.28
464.96	35749.34
465.14	35466.14
465.32	36477.25
465.50	37266.01
465.69	37553.90
465.87	36634.06
466.05	36072.34
466.23	34607.16
466.41	33738.82
466.60	34415.24
466.78	34588.44
466.96	35606.57
467.14	36030.21
467.32	36435.12
467.51	36402.35
467.69	34429.28
467.87	35220.38
468.05	36032.55
468.23	35784.45
468.41	36481.93
468.60	35976.37
468.78	36041.91
468.96	35800.83
469.14	36730.03
469.32	36456.18
469.50	35002.71
469.69	35648.70
469.87	34937.18
470.05	34918.45
470.23	35131.44
470.41	35206.34
470.59	35508.27
470.77	35608.91
470.95	36430.44
471.14	37090.47
471.32	36804.92
471.50	38850.55
471.68	39152.48
471.86	39126.74
472.04	39321.00
472.22	39622.93
472.40	37982.21
472.58	37893.27
472.77	37043.66
472.95	37628.79
473.13	38820.13
473.31	37579.64
473.49	38101.58
473.67	38258.40
473.85	38939.49
474.03	39831.24
474.21	39709.53
474.39	40182.32
474.57	40596.59
474.75	40402.33
474.93	40357.86
475.12	38820.13
475.30	39262.49
475.48	39646.33
475.66	40030.18
475.84	39590.16
476.02	39342.06
476.20	38878.64
476.38	39253.12
476.56	40631.70
476.74	40907.88
476.92	41439.18
477.10	41551.53
477.28	42990.96
477.46	42988.62
477.64	43606.52
477.82	43650.99
478.00	43969.30
478.18	42841.17
478.36	43388.85
478.54	42906.70
478.72	43442.68
478.90	43934.20
479.08	45256.60
479.26	45640.45
479.44	46054.72
479.62	45752.79
479.80	45537.46
479.98	45361.92
480.16	45867.48
480.34	45560.87
480.52	46216.22
480.70	45724.71
480.88	46583.68
481.06	46656.24
481.24	47334.99
481.41	48428.02
481.59	49214.44
481.77	48425.68
481.95	47821.83
482.13	47707.14
482.31	47887.36
482.49	48570.80
482.67	48226.74
482.85	48633.99
483.03	49109.12
483.21	49514.03
483.39	49478.92
483.57	48736.98
483.74	48687.82
483.92	48945.28
484.10	48949.96
484.28	49432.11
484.46	50234.92
484.64	50459.61
484.82	49645.10
485.00	49450.84
485.18	48374.19
485.35	47107.96
485.53	44514.65
485.71	40844.69
485.89	39835.92
486.07	41422.80
486.25	45125.53
486.43	47147.75
486.61	48273.55
486.78	48294.61
486.96	48502.92
487.14	49947.03
487.32	50401.10
487.50	51648.60
487.68	52186.92
487.85	52523.96
488.03	52963.98
488.21	52615.24
488.39	51826.48
488.57	51161.77
488.75	50843.46
488.92	51980.96
489.10	54134.25
489.28	55096.21
489.46	55547.93
489.64	55398.14
489.81	55451.97
489.99	55510.49
490.17	55306.86
490.35	55863.91
490.53	55311.54
490.70	55056.42
490.88	54784.92
491.06	55770.28
491.24	55819.44
491.41	54848.11
491.59	53516.35
491.77	52484.17
491.95	53558.48
492.13	54646.83
492.30	55669.64
492.48	56619.90
492.66	57013.11
492.84	57116.09
493.01	56610.54
493.19	56488.83
493.37	56025.40
493.54	55786.67
493.72	56472.45
493.90	57415.68
494.08	57890.81
494.25	58272.32
494.43	58489.99
494.61	58494.67
494.79	58698.30
494.96	58522.76
495.14	57996.13
495.32	57230.78
495.49	56559.05
495.67	57619.31
495.85	58782.55
496.02	58965.12
496.20	59040.01
496.38	58770.85
496.55	58585.95
496.73	58845.75
496.91	58962.78
497.09	59723.45
497.26	59910.69
497.44	59217.89
497.62	59021.29
497.79	58127.20
497.97	56952.26
498.14	57315.04
498.32	58054.65
498.50	58906.60
498.67	59512.80
498.85	59320.88
499.03	59643.87
499.20	59639.19
499.38	59824.09
499.56	59592.38
499.73	59395.77
499.91	58836.39
500.08	58370.62
500.26	57640.37
500.44	57986.77
500.61	58644.46
500.79	58609.35
500.97	58078.05
501.14	58108.48
501.32	58031.24
501.49	58024.22
501.67	58204.44
501.84	58576.59
502.02	58915.96
502.20	59173.42
502.37	59470.67
502.55	59402.80
502.72	59758.56
502.90	60217.30
503.07	60086.23
503.25	59770.26
503.43	58728.72
503.60	58410.41
503.78	57614.63
503.95	58049.97
504.13	59498.76
504.30	60177.51
504.48	59999.63
504.65	59650.89
504.83	59648.55
505.01	60123.68
505.18	60570.72
505.36	61244.80
505.53	61165.22
505.71	61270.54
505.88	61513.96
506.06	60891.38
506.23	60446.68
506.41	60247.73
506.58	60402.21
506.76	60381.14
506.93	60350.71
507.11	60193.90
507.28	60044.10
507.46	59803.03
507.63	59391.09
507.81	59063.42
507.98	59437.90
508.16	59980.91
508.33	60559.02
508.50	60940.53
508.68	60963.93
508.85	61392.25
509.03	61361.82
509.20	61279.91
509.38	60725.20
509.55	60046.44
509.73	60046.44
509.90	60643.28
510.08	60905.42
510.25	60713.50
510.42	60470.08
510.60	60486.46
510.77	60860.95
510.95	61270.54
511.12	61305.65
511.30	61792.48
511.47	62094.41
511.64	62035.90
511.82	61530.34
511.99	60940.53
512.17	60418.59
512.34	60076.87
512.51	60289.86
512.69	60383.48
512.86	60498.17
513.04	60882.02
513.21	60804.78
513.38	60753.29
513.56	60020.70
513.73	59650.89
513.90	59590.04
514.08	59800.69
514.25	60027.72
514.43	60109.64
514.60	60331.99
514.77	60402.21
514.95	60411.57
515.12	60491.15
515.29	60687.75
515.47	61181.60
515.64	61418.00
515.81	60907.76
515.99	60505.19
516.16	59152.36
516.33	57160.56
516.51	55749.22
516.68	55082.17
516.85	54681.94
517.03	55033.02
517.20	57249.50
517.37	59543.23
517.54	60690.09
517.72	60271.14
517.89	58106.14
518.06	55569.00
518.24	55854.54
518.41	58059.33
518.58	59334.92
518.75	59660.26
518.93	59810.05
519.10	59543.23
519.27	60055.81
519.45	59943.46
519.62	60860.95
519.79	61195.65
519.96	61099.68
520.14	60652.64
520.31	59760.90
520.48	59868.56
520.65	60317.95
520.83	60935.85
521.00	61439.06
521.17	60722.86
521.34	60498.17
521.52	61043.51
521.69	61265.86
521.86	61888.45
522.03	61546.73
522.20	60458.38
522.38	59363.01
522.55	59278.75
522.72	59971.55
522.89	60275.82
523.07	60341.35
523.24	60474.76
523.41	61481.19
523.58	61691.84
523.75	62010.15
523.92	61890.79
524.10	61729.29
524.27	61815.89
524.44	61750.35
524.61	61539.71
524.78	61371.19
524.96	61237.78
525.13	61310.33
525.30	61499.92
525.47	61946.96
525.64	61965.68
525.81	61197.99
525.98	59969.21
526.16	58754.47
526.33	57932.94
526.50	57790.17
526.67	57593.56
526.84	57846.34
527.01	58939.37
527.18	59788.98
527.36	60390.50
527.53	61162.88
527.70	61642.69
527.87	61169.90
528.04	60650.30
528.21	60896.06
528.38	61696.52
528.55	62213.78
528.72	62382.30
528.89	62471.24
529.07	62192.72
529.24	61740.99
529.41	60982.66
529.58	60341.35
529.75	60542.64
529.92	61045.85
530.09	61298.63
530.26	61846.32
530.43	62078.03
530.60	62148.24
530.77	62330.81
530.94	62176.33
531.11	61888.45
531.28	61794.82
531.46	61537.36
531.63	61509.28
531.80	61539.71
531.97	60987.34
532.14	60488.80
532.31	59718.77
532.48	59112.57
532.65	58752.13
532.82	59725.79
532.99	60570.72
533.16	61080.96
533.33	61549.07
533.50	61272.88
533.67	60818.82
533.84	60423.27
534.01	60495.83
534.18	60926.49
534.35	61022.45
534.52	60786.05
534.69	61130.11
534.86	61298.63
535.03	61640.35
535.20	61963.34
535.37	62351.87
535.54	62330.81
535.71	62141.22
535.88	61886.10
536.05	61181.60
536.22	60842.23
536.38	60598.81
536.55	60126.02
536.72	59538.55
536.89	59428.54
537.06	60254.75
537.23	61300.97
537.40	61286.93
537.57	61312.67
537.74	61036.49
537.91	61265.86
538.08	60926.49
538.25	61116.07
538.42	61265.86
538.59	61076.28
538.75	60589.45
538.92	60200.92
539.09	60240.71
539.26	59894.31
539.43	59861.54
539.60	59973.89
539.77	60184.54
539.94	59917.71
540.11	59260.02
540.28	58908.94
540.44	58810.64
540.61	59049.38
540.78	59320.88
540.95	59852.18
541.12	60086.23
541.29	60320.29
541.46	60772.01
541.62	60727.54
541.79	60626.90
541.96	59718.77
542.13	59854.52
542.30	60259.43
542.47	60296.88
542.63	60060.49
542.80	59978.57
542.97	59891.97
543.14	60079.21
543.31	59910.69
543.48	60523.91
543.64	61214.37
543.81	61483.53
543.98	61183.94
544.15	60781.37
544.32	59906.01
544.48	60182.19
544.65	60449.02
544.82	60898.40
544.99	60453.70
545.16	60271.14
545.32	59859.20
545.49	60636.26
545.66	61029.47
545.83	60540.30
546.00	60402.21
546.16	60109.64
546.33	60219.64
546.50	60268.79
546.67	60575.40
546.83	60343.69
547.00	60465.40
547.17	59662.60
547.34	58995.54
547.50	59072.78
547.67	59587.70
547.84	59503.44
548.00	59796.01
548.17	60322.63
548.34	60086.23
548.51	60030.06
548.67	60170.49
548.84	60397.52
549.01	60360.08
549.18	60151.77
549.34	60179.85
549.51	60170.49
549.68	59934.10
549.84	60046.44
550.01	59625.15
550.18	59501.10
550.34	59760.90
550.51	59774.94
550.68	59894.31
550.84	59377.05
551.01	59400.46
551.18	59468.33
551.34	59564.29
551.51	59891.97
551.68	60273.48
551.84	60406.89
552.01	60074.53
552.18	60184.54
552.34	59168.74
552.51	59030.65
552.68	58688.93
552.84	59250.66
553.01	59533.87
553.18	59461.31
553.34	59458.97
553.51	59756.22
553.67	59875.58
553.84	59891.97
554.01	59774.94
554.17	59693.02
554.34	59896.65
554.51	59636.85
554.67	60039.42
554.84	59894.31
555.00	59662.60
555.17	59505.78
555.33	59285.77
555.50	59627.49
555.67	59437.90
555.83	59159.38
556.00	59154.70
556.16	59061.08
556.33	58616.38
556.50	58443.18
556.66	58464.24
556.83	58166.99
556.99	58480.63
557.16	58504.03
557.32	58768.51
557.49	59042.35
557.65	59082.14
557.82	58979.16
557.98	58824.68
558.15	58459.56
558.32	57647.39
558.48	56933.53
558.65	57095.03
558.81	57350.15
558.98	57614.63
559.14	58010.18
559.31	57921.24
559.47	57930.60
559.64	57680.16
559.80	57324.40
559.97	57186.31
560.13	57661.44
560.30	58518.07
560.46	59222.58
560.63	59341.94
560.79	59143.00
560.96	58880.86
561.12	57961.03
561.29	56959.28
561.45	57134.82
561.61	57647.39
561.78	57970.39
561.94	57930.60
562.11	57975.07
562.27	57666.12
562.44	57939.96
562.60	58255.93
562.77	58642.12
562.93	58190.40
563.10	58171.67
563.26	57825.28
563.42	57698.89
563.59	57352.49
563.75	57771.44
563.92	57790.17
564.08	57645.05
564.24	58021.88
564.41	57846.34
564.57	57668.46
564.74	57567.82
564.90	57726.97
565.07	57324.40
565.23	57078.64
565.39	56577.77
565.56	56327.33
565.72	55978.59
565.88	56446.70
566.05	56732.25
566.21	56900.76
566.38	56891.40
566.54	57050.56
566.70	57478.88
566.87	57663.78
567.03	57579.52
567.19	57853.36
567.36	57436.75
567.52	57308.02
567.68	57209.71
567.85	56666.71
568.01	56095.62
568.17	56081.58
568.34	55950.51
568.50	55917.74
568.66	56086.26
568.83	56369.46
568.99	56566.07
569.15	56545.00
569.32	56516.92
569.48	56214.99
569.64	56067.53
569.81	55828.80
569.97	55662.62
570.13	55714.11
570.30	55592.40
570.46	55117.28
570.62	54419.80
570.78	54248.94
570.95	54391.71
571.11	55187.49
571.27	55561.98
571.43	55611.13
571.60	55931.78
571.76	55957.53
571.92	56289.88
572.09	56547.34
572.25	56542.66
572.41	56458.40
572.57	55922.42
572.74	56299.25
572.90	55899.01
573.06	56023.06
573.22	55772.63
573.38	56002.00
573.55	55924.76
573.71	56137.75
573.87	55873.27
574.03	55632.19
574.20	55845.18
574.36	55604.11
574.52	55414.52
574.68	55093.87
574.84	55030.68
575.01	54733.43
575.17	54302.77
575.33	54616.40
575.49	54770.88
575.65	55103.23
575.82	54831.73
575.98	54361.28
576.14	54724.07
576.30	55136.00
576.46	55281.11
576.62	55271.75
576.79	55000.25
576.95	55018.97
577.11	54749.81
577.27	54855.14
577.43	54862.16
577.59	54578.95
577.75	54328.52
577.92	53612.31
578.08	53256.55
578.24	53364.21
578.40	53757.42
578.56	53947.01
578.72	54178.72
578.88	54049.99
579.04	54436.18
579.21	54555.55
579.37	54426.82
579.53	54380.01
579.69	54553.21
579.85	54822.37
580.01	54431.50
580.17	54157.66
580.33	54019.56
580.49	54143.61
580.65	54391.71
580.82	54454.90
580.98	54298.09
581.14	54426.82
581.30	54408.09
581.46	54204.47
581.62	54511.08
581.78	54529.80
581.94	54972.16
582.10	54637.47
582.26	54915.99
582.42	54674.91
582.58	54805.98
582.74	54529.80
582.90	54630.44
583.06	54557.89
583.22	54365.96
583.38	54438.52
583.54	54270.00
583.70	54354.26
583.86	54307.45
584.02	54124.89
584.18	54171.70
584.34	54026.59
584.50	54038.29
584.66	53947.01
584.82	53560.82
584.98	53518.69
585.14	53382.94
