SpectraSuite Data File
++++++++++++++++++++++++++++++++++++
Date: Mon Oct 07 14:54:57 GMT-05:00 2013
User: price-jones
Dark Spectrum Present: No
Reference Spectrum Present: No
Number of Sampled Component Spectra: 1
Spectrometers: USB2+H05261
Integration Time (usec): 10000 (USB2+H05261)
Spectra Averaged: 1 (USB2+H05261)
Boxcar Smoothing: 0 (USB2+H05261)
Correct for Electrical Dark: No (USB2+H05261)
Strobe/Lamp Enabled: No (USB2+H05261)
Correct for Detector Non-linearity: No (USB2+H05261)
Correct for Stray Light: No (USB2+H05261)
Number of Pixels in Processed Spectrum: 2048
>>>>>Begin Processed Spectral Data<<<<<
365.73	0.00
365.92	0.00
366.12	0.00
366.32	0.00
366.52	0.00
366.72	0.00
366.91	0.00
367.11	0.00
367.31	0.00
367.51	0.00
367.70	0.00
367.90	0.00
368.10	0.00
368.30	0.00
368.49	0.00
368.69	0.00
368.89	0.00
369.09	0.00
369.28	0.00
369.48	0.00
369.68	0.00
369.87	0.00
370.07	0.00
370.27	0.00
370.47	39.79
370.66	1177.29
370.86	1430.07
371.06	1542.41
371.25	1624.33
371.45	1364.53
371.65	1315.38
371.84	1224.10
372.04	1238.14
372.24	1399.64
372.44	1479.22
372.63	1404.32
372.83	1273.25
373.03	1132.82
373.22	1071.97
373.42	1249.85
373.62	1355.17
373.81	1441.77
374.01	1458.15
374.21	1277.93
374.40	1083.67
374.60	1301.34
374.79	1568.16
374.99	1783.49
375.19	1860.73
375.38	1837.32
375.58	1724.97
375.78	1753.06
375.97	1701.57
376.17	1795.19
376.37	1799.87
376.56	1961.37
376.76	2113.50
376.95	2136.91
377.15	2354.58
377.35	2312.45
377.54	2485.65
377.74	2579.27
377.93	2581.61
378.13	2441.18
378.33	2235.21
378.52	2139.25
378.72	1994.14
378.91	1893.49
379.11	1886.47
379.31	1825.62
379.50	1870.09
379.70	2050.31
379.89	2200.10
380.09	2314.79
380.28	2480.97
380.48	2476.29
380.68	2399.05
380.87	2443.52
381.07	2169.68
381.26	1982.43
381.46	1753.06
381.65	1724.97
381.85	1739.02
382.04	1633.69
382.24	1413.68
382.43	1376.24
382.63	1416.02
382.83	1383.26
383.02	1446.45
383.22	1420.71
383.41	1416.02
383.61	1500.28
383.80	1886.47
384.00	2136.91
384.19	2347.56
384.39	2298.41
384.58	2282.02
384.78	2368.62
384.97	2328.83
385.17	2132.23
385.36	2111.16
385.56	2017.54
385.75	2134.57
385.95	2251.60
386.14	2431.82
386.34	2413.09
386.53	2286.70
386.72	2176.70
386.92	2232.87
387.11	2415.43
387.31	2576.93
387.50	2345.22
387.70	2275.00
387.89	2303.09
388.09	2286.70
388.28	2389.69
388.48	2473.95
388.67	2696.30
388.86	2850.77
389.06	3007.59
389.25	3178.45
389.45	3279.09
389.64	3176.11
389.84	3208.87
390.03	3201.85
390.22	3145.68
390.42	3398.46
390.61	3492.08
390.81	3749.54
391.00	3693.37
391.19	3698.05
391.39	3517.83
391.58	3185.47
391.78	3180.79
391.97	3045.04
392.16	2834.39
392.36	2567.57
392.55	1963.71
392.75	1474.54
392.94	1177.29
393.13	1369.21
393.33	1706.25
393.52	2127.55
393.71	2513.74
393.91	2878.86
394.10	3190.15
394.29	3562.30
394.49	3808.05
394.68	4004.66
394.88	3887.63
395.07	4056.15
395.26	4025.72
395.46	3730.81
395.65	3625.49
395.84	3016.95
396.04	2567.57
396.23	2012.86
396.42	1746.04
396.62	1760.08
396.81	2352.24
397.00	2834.39
397.19	3550.59
397.39	4131.05
397.58	4676.39
397.77	4973.64
397.97	5050.88
398.16	5109.39
398.35	5177.26
398.55	5334.08
398.74	5483.88
398.93	5886.45
399.12	5813.89
399.32	5614.95
399.51	5785.80
399.70	6040.92
399.90	5973.05
400.09	5853.68
400.28	5895.81
400.47	6057.31
400.67	6225.82
400.86	6366.26
401.05	6370.94
401.24	6333.49
401.44	6441.15
401.63	6450.52
401.82	6567.54
402.01	6438.81
402.21	6583.93
402.40	6569.88
402.59	6448.18
402.78	5919.21
402.97	6008.16
403.17	6328.81
403.36	6579.25
403.55	6747.76
403.74	6516.05
403.93	6298.38
404.13	6019.86
404.32	5940.28
404.51	6438.81
404.70	6815.64
404.89	6740.74
405.09	6516.05
405.28	6356.90
405.47	6291.36
405.66	6380.30
405.85	6134.54
406.05	5928.58
406.24	6071.35
406.43	6420.09
406.62	6541.80
406.81	6464.56
407.00	6239.87
407.20	6239.87
407.39	6485.62
407.58	6864.79
407.77	6927.99
407.96	7023.95
408.15	7279.07
408.34	7133.95
408.54	7581.00
408.73	7391.41
408.92	7433.54
409.11	6913.94
409.30	6712.66
409.49	6380.30
409.68	5984.75
409.87	5844.32
410.07	6403.71
410.26	6841.39
410.45	7012.24
410.64	7344.60
410.83	7630.15
411.02	7758.88
411.21	7955.48
411.40	7817.39
411.59	8028.04
411.78	8166.13
411.98	7941.44
412.17	8030.38
412.36	7843.14
412.55	7744.83
412.74	7424.18
412.93	7531.84
413.12	7793.98
413.31	8257.41
413.50	8365.07
413.69	8271.45
413.88	7983.57
414.07	8051.44
414.26	8173.15
414.45	8397.84
414.64	8112.30
414.83	8252.73
415.02	8278.47
415.22	8358.05
415.41	8381.46
415.60	8791.05
415.79	9102.34
415.98	9273.20
416.17	9170.22
416.36	8908.08
416.55	8971.27
416.74	8294.86
416.93	8070.17
417.12	8098.25
417.31	8379.12
417.50	8358.05
417.69	8748.92
417.88	8690.41
418.07	8411.89
418.26	8348.69
418.45	8788.71
418.64	9050.85
418.83	9188.94
419.02	9111.71
419.21	8816.80
419.39	8397.84
419.58	7840.79
419.77	8205.92
419.96	8723.18
420.15	9186.60
420.34	9469.81
420.53	9804.50
420.72	9729.61
420.91	9568.11
421.10	9699.18
421.29	9633.64
421.48	9371.50
421.67	9891.10
421.86	9268.52
422.05	8650.62
422.24	7824.41
422.43	8257.41
422.61	9177.24
422.80	9174.90
422.99	9153.84
423.18	8912.76
423.37	8706.79
423.56	9004.04
423.75	9153.84
423.94	9415.98
424.13	8753.60
424.32	8578.06
424.50	8854.25
424.69	8854.25
424.88	8870.63
425.07	8865.95
425.26	8580.40
425.45	8547.64
425.64	8564.02
425.83	8606.15
426.01	9275.54
426.20	9102.34
426.39	8992.34
426.58	8353.37
426.77	7915.69
426.96	7772.92
427.15	8105.28
427.33	8678.71
427.52	8734.88
427.71	8872.97
427.90	8669.34
428.09	8641.26
428.28	8329.97
428.46	8241.03
428.65	8226.98
428.84	8135.70
429.03	8418.91
429.22	7824.41
429.40	7475.67
429.59	6775.85
429.78	6033.90
429.97	6310.08
430.16	6284.34
430.34	6202.42
430.53	6225.82
430.72	6502.01
430.91	7398.43
431.10	8734.88
431.28	10068.98
431.47	10824.98
431.66	10532.41
431.85	9294.27
432.03	8585.08
432.22	8554.66
432.41	9291.93
432.60	9818.55
432.79	10106.43
432.97	10291.34
433.16	9668.75
433.35	8950.21
433.54	8116.98
433.72	8023.36
433.91	8173.15
434.10	9167.88
434.28	9734.29
434.47	10115.80
434.66	9881.74
434.85	9607.90
435.03	9776.42
435.22	10106.43
435.41	10438.79
435.59	10609.65
435.78	10778.17
435.97	11192.44
436.16	10932.64
436.34	10813.28
436.53	10480.92
436.72	10464.54
436.90	9872.38
437.09	10122.82
437.28	9940.26
437.46	10090.05
437.65	9888.76
437.84	9245.12
438.02	8774.67
438.21	8702.11
438.40	9128.09
438.58	10066.64
438.77	10197.71
438.96	10506.66
439.14	11054.35
439.33	10759.44
439.52	10864.77
439.70	10801.57
439.89	10466.88
440.08	10377.94
440.26	10572.20
440.45	11019.24
440.63	11569.27
440.82	11700.34
441.01	11604.38
441.19	11730.76
441.38	12138.02
441.57	12362.71
441.75	12510.16
441.94	12681.02
442.12	12549.95
442.31	12681.02
442.50	12526.55
442.68	12484.42
442.87	12226.96
443.05	12198.87
443.24	12793.37
443.43	12975.93
443.61	12950.18
443.80	12996.99
443.98	12395.48
444.17	12489.10
444.35	12978.27
444.54	13156.15
444.73	13139.77
444.91	12114.61
445.10	11777.58
445.28	11597.35
445.47	11325.85
445.65	11066.05
445.84	12006.95
446.02	12224.62
446.21	12379.09
446.39	12290.15
446.58	12589.74
446.77	12711.45
446.95	12638.89
447.14	13390.20
447.32	13408.93
447.51	13151.47
447.69	12264.41
447.88	12360.37
448.06	12477.40
448.25	12744.22
448.43	12819.11
448.62	12762.94
448.80	12629.53
448.99	12744.22
449.17	12472.71
449.36	13006.36
449.54	13090.62
449.73	13437.02
449.91	13795.12
450.10	13884.06
450.28	14326.42
450.46	13881.72
450.65	14015.13
450.83	13767.03
451.02	13687.45
451.20	13916.83
451.39	13820.86
451.57	13462.76
451.76	13439.36
451.94	13298.92
452.13	13085.94
452.31	12791.03
452.49	12105.25
452.68	12257.39
452.86	12404.84
453.05	12627.19
453.23	13334.03
453.42	13324.67
453.60	13420.63
453.78	13282.54
453.97	13167.85
454.15	13247.43
454.34	12755.92
454.52	13013.38
454.70	12561.66
454.89	12933.80
455.07	13156.15
455.26	13415.95
455.44	13806.82
455.62	13987.04
455.81	13748.31
455.99	13727.24
456.17	13671.07
456.36	13919.17
456.54	14106.41
456.73	14251.52
456.91	14445.79
457.09	14618.99
457.28	14387.27
457.46	13898.10
457.64	13767.03
457.83	13322.33
458.01	13317.65
458.19	13708.52
458.38	13926.19
458.56	14209.39
458.74	14068.96
458.93	14326.42
459.11	13685.11
459.29	13514.25
459.48	13666.39
459.66	13579.79
459.84	13776.39
460.03	13776.39
460.21	13956.61
460.39	14459.83
460.57	14303.01
460.76	14333.44
460.94	14691.54
461.12	14235.14
461.31	14485.58
461.49	14511.32
461.67	14434.08
461.85	14953.68
462.04	14710.27
462.22	14796.87
462.40	14714.95
462.59	14293.65
462.77	14548.77
462.95	14897.51
463.13	14569.83
463.32	14413.02
463.50	14270.25
463.68	14408.34
463.86	14377.91
464.05	14094.71
464.23	13743.63
464.41	13916.83
464.59	13760.01
464.78	14169.60
464.96	14108.75
465.14	14094.71
465.32	14431.74
465.50	15028.58
465.69	14712.61
465.87	14450.47
466.05	13874.70
466.23	13099.98
466.41	12994.65
466.60	13589.15
466.78	14010.45
466.96	13722.56
467.14	14197.69
467.32	14431.74
467.51	13996.40
467.69	13680.43
467.87	13748.31
468.05	14167.26
468.23	14338.12
468.41	13973.00
468.60	14078.32
468.78	14097.05
468.96	13940.23
469.14	14150.88
469.32	14635.37
469.50	13825.54
469.69	13497.87
469.87	13364.46
470.05	13659.37
470.23	13715.54
470.41	13633.62
470.59	14150.88
470.77	14118.11
470.95	14223.44
471.14	14480.89
471.32	14303.01
471.50	14960.70
471.68	15129.22
471.86	15398.38
472.04	15105.82
472.22	15641.80
472.40	14511.32
472.58	14417.70
472.77	14263.22
472.95	14499.62
473.13	15133.90
473.31	14864.74
473.49	14930.28
473.67	15094.11
473.85	14860.06
474.03	15187.74
474.21	15449.88
474.39	15463.92
474.57	15803.30
474.75	16009.26
474.93	15782.23
475.12	15669.89
475.30	15543.50
475.48	15566.90
475.66	15943.73
475.84	15234.55
476.02	15246.25
476.20	14995.81
476.38	15208.80
476.56	15740.10
476.74	16070.12
476.92	16070.12
477.10	16512.48
477.28	16886.97
477.46	16957.18
477.64	17235.70
477.82	17240.39
478.00	17280.18
478.18	16847.18
478.36	16947.82
478.54	16737.17
478.72	17219.32
478.90	17497.84
479.08	17982.34
479.26	17949.57
479.44	17497.84
479.62	17621.89
479.80	17135.06
479.98	17582.10
480.16	17668.70
480.34	17703.81
480.52	17958.93
480.70	17951.91
480.88	18104.04
481.06	19351.55
481.24	18600.24
481.41	18869.40
481.59	19262.61
481.77	18874.08
481.95	18848.33
482.13	18822.59
482.31	19026.21
482.49	19157.28
482.67	18794.50
482.85	18871.74
483.03	19578.58
483.21	19702.63
483.39	19344.53
483.57	19131.54
483.74	18986.43
483.92	19154.94
484.10	19440.49
484.28	19527.09
484.46	19981.15
484.64	19894.55
484.82	19419.42
485.00	19337.51
485.18	18698.54
485.35	18057.23
485.53	16224.59
485.71	14995.81
485.89	15665.21
486.07	16559.29
486.25	17783.39
486.43	18431.72
486.61	18492.57
486.78	18602.58
486.96	19442.83
487.14	20416.49
487.32	20475.01
487.50	21053.12
487.68	20954.82
487.85	20945.45
488.03	21399.52
488.21	20961.84
488.39	20374.36
488.57	20318.19
488.75	20617.78
488.92	22001.04
489.10	23403.02
489.28	22984.06
489.46	23342.16
489.64	23190.03
489.81	23744.73
489.99	23288.33
490.17	23239.18
490.35	24177.73
490.53	23669.84
490.70	23431.10
490.88	23419.40
491.06	24247.95
491.24	23197.05
491.41	22160.19
491.59	21048.44
491.77	21041.42
491.95	22085.30
492.13	22728.94
492.30	23672.18
492.48	24519.45
492.66	25053.09
492.84	24903.30
493.01	24147.31
493.19	23843.04
493.37	23910.91
493.54	23372.59
493.72	24526.47
493.90	25174.80
494.08	26129.74
494.25	26202.30
494.43	26218.68
494.61	26981.70
494.79	26544.02
494.96	26775.73
495.14	25324.60
495.32	24662.22
495.49	24863.51
495.67	25556.31
495.85	26761.69
496.02	26663.38
496.20	26424.65
496.38	25668.66
496.55	25303.53
496.73	26448.05
496.91	27351.50
497.09	27220.43
497.26	26820.20
497.44	26939.57
497.62	26148.46
497.79	25366.73
497.97	23899.21
498.14	24542.86
498.32	25738.87
498.50	26412.95
498.67	27576.19
498.85	26565.08
499.03	26579.12
499.20	27480.23
499.38	27166.60
499.56	27140.85
499.73	26546.36
499.91	26139.10
500.08	25846.54
500.26	25336.30
500.44	26504.23
500.61	26565.08
500.79	25310.55
500.97	24608.39
501.14	25219.27
501.32	25326.94
501.49	25900.37
501.67	25120.97
501.84	26469.12
502.02	26415.29
502.20	26595.51
502.37	26361.45
502.55	26445.71
502.72	27182.98
502.90	27765.78
503.07	27417.04
503.25	27197.02
503.43	26010.37
503.60	24720.74
503.78	25041.39
503.95	25717.81
504.13	26614.23
504.30	27342.14
504.48	27344.48
504.65	27157.24
504.83	26998.08
505.01	27346.82
505.18	28030.26
505.36	29305.85
505.53	28456.23
505.71	28861.15
505.88	28879.87
506.06	28416.44
506.23	28350.91
506.41	28056.00
506.58	28205.80
506.76	27426.40
506.93	28173.03
507.11	27145.53
507.28	26855.31
507.46	26529.97
507.63	25970.58
507.81	26071.23
507.98	26396.56
508.16	27655.77
508.33	27529.38
508.50	28355.59
508.68	28102.81
508.85	29050.73
509.03	28332.18
509.20	27667.47
509.38	27089.36
509.55	26422.31
509.73	26951.27
509.90	27201.71
510.08	27913.23
510.25	27213.41
510.42	27388.95
510.60	28268.99
510.77	27784.50
510.95	28755.82
511.12	28215.16
511.30	28561.56
511.47	29198.18
511.64	28996.90
511.82	28699.65
511.99	26960.63
512.17	26843.60
512.34	26991.06
512.51	27473.21
512.69	26581.46
512.86	27405.33
513.04	28245.58
513.21	27353.84
513.38	26979.36
513.56	26471.46
513.73	26494.86
513.90	26195.28
514.08	26338.05
514.25	27150.21
514.43	27026.17
514.60	27866.42
514.77	27028.51
514.95	27468.53
515.12	27229.79
515.29	27505.98
515.47	27831.31
515.64	28093.45
515.81	28006.85
515.99	26778.07
516.16	25481.41
516.33	23700.26
516.51	22515.95
516.68	21380.79
516.85	20938.43
517.03	21935.50
517.20	24039.64
517.37	26274.85
517.54	26314.64
517.72	24737.12
517.89	23229.82
518.06	22078.27
518.24	23337.48
518.41	25263.74
518.58	25790.36
518.75	26099.31
518.93	26029.10
519.10	26274.85
519.27	26927.86
519.45	26904.46
519.62	27035.53
519.79	27611.30
519.96	27119.79
520.14	26513.59
520.31	25635.89
520.48	25376.09
520.65	25898.03
520.83	27190.00
521.00	28079.41
521.17	27381.93
521.34	26941.91
521.52	27576.19
521.69	27833.65
521.86	27236.81
522.03	27304.69
522.20	25668.66
522.38	25125.65
522.55	25483.75
522.72	26689.13
522.89	26096.97
523.07	26801.47
523.24	27199.37
523.41	27552.79
523.58	28306.44
523.75	27597.26
523.92	28271.33
524.10	28416.44
524.27	28505.38
524.44	28290.06
524.61	28268.99
524.78	27784.50
524.96	27669.81
525.13	27608.96
525.30	27728.33
525.47	28236.22
525.64	28442.19
525.81	26745.30
525.98	25149.06
526.16	23606.64
526.33	23524.72
526.50	23716.65
526.67	23623.03
526.84	23658.14
527.01	24978.20
527.18	26232.72
527.36	26462.10
527.53	27730.67
527.70	26948.93
527.87	25614.82
528.04	26398.90
528.21	27166.60
528.38	28023.23
528.55	28711.35
528.72	28231.54
528.89	28404.74
529.07	27601.94
529.24	27278.94
529.41	26920.84
529.58	26778.07
529.75	26469.12
529.92	27218.09
530.09	27342.14
530.26	27061.27
530.43	26918.50
530.60	27173.62
530.77	27974.08
530.94	27868.76
531.11	28004.51
531.28	27225.11
531.46	26508.91
531.63	27248.52
531.80	27332.78
531.97	26375.50
532.14	25476.73
532.31	24168.37
532.48	23770.48
532.65	24776.91
532.82	25563.33
532.99	26312.30
533.16	25965.90
533.33	27194.68
533.50	26204.64
533.67	25977.61
533.84	26050.16
534.01	26040.80
534.18	26845.94
534.35	26448.05
534.52	25937.82
534.69	26352.09
534.86	26768.71
535.03	27599.60
535.20	27089.36
535.37	26948.93
535.54	27552.79
535.71	26824.88
535.88	26792.11
536.05	26176.55
536.22	26153.15
536.38	25460.35
536.55	25106.93
536.72	25259.06
536.89	25596.10
537.06	25032.03
537.23	25413.54
537.40	26157.83
537.57	26504.23
537.74	25706.10
537.91	25979.95
538.08	25970.58
538.25	26396.56
538.42	26408.26
538.59	26611.89
538.75	26061.87
538.92	25837.17
539.09	25191.19
539.26	24318.17
539.43	24568.60
539.60	24135.60
539.77	24072.41
539.94	23957.72
540.11	23756.44
540.28	23449.83
540.44	23953.04
540.61	24004.53
540.78	24196.46
540.95	25507.16
541.12	25282.47
541.29	25678.02
541.46	25193.53
541.62	24980.54
541.79	24568.60
541.96	24510.09
542.13	25163.10
542.30	25357.36
542.47	25275.45
542.63	24631.80
542.80	23747.08
542.97	24065.39
543.14	23754.10
543.31	24030.28
543.48	24973.52
543.64	25701.42
543.81	25546.95
543.98	25022.67
544.15	24680.95
544.32	23896.87
544.48	25385.45
544.65	24613.07
544.82	24842.45
544.99	24542.86
545.16	24697.33
545.32	24643.50
545.49	25560.99
545.66	25961.22
545.83	25855.90
546.00	24952.45
546.16	24304.12
546.33	24797.98
546.50	24938.41
546.67	25504.82
546.83	24903.30
547.00	24147.31
547.17	23599.62
547.34	24091.13
547.50	23859.42
547.67	24056.03
547.84	24259.65
548.00	24769.89
548.17	24327.53
548.34	24252.63
548.51	24383.70
548.67	25015.65
548.84	24863.51
549.01	26136.76
549.18	24805.00
549.34	25345.66
549.51	24563.92
549.68	24498.39
549.84	24545.20
550.01	24673.93
550.18	24592.01
550.34	24013.90
550.51	23953.04
550.68	23690.90
550.84	22963.00
551.01	23740.05
551.18	24105.18
551.34	23800.91
551.51	24149.65
551.68	24123.90
551.84	24060.71
552.01	24393.06
552.18	23620.69
552.34	23578.56
552.51	23419.40
552.68	23784.52
552.84	23171.30
553.01	23599.62
553.18	24212.84
553.34	24013.90
553.51	23728.35
553.67	23641.75
553.84	24826.06
554.01	24596.69
554.17	24587.33
554.34	24409.45
554.51	24711.38
554.67	24364.98
554.84	23740.05
555.00	23637.07
555.17	23487.28
555.33	23845.38
555.50	24847.13
555.67	24306.46
555.83	24257.31
556.00	23250.88
556.16	22895.12
556.33	22937.25
556.50	23171.30
556.66	22492.55
556.83	22251.47
556.99	22485.53
557.16	22806.18
557.32	22974.70
557.49	23087.04
557.65	22998.10
557.82	21804.43
557.98	22546.38
558.15	22590.85
558.32	21837.20
558.48	21774.00
558.65	21032.05
558.81	21270.79
558.98	21561.02
559.14	21905.07
559.31	22508.93
559.47	21502.50
559.64	21238.02
559.80	21804.43
559.97	21680.38
560.13	22576.81
560.30	22766.39
560.46	23405.36
560.63	23957.72
560.79	23723.67
560.96	22696.17
561.12	21788.05
561.29	21308.24
561.45	21516.54
561.61	21734.21
561.78	21537.61
561.94	21701.45
562.11	22132.11
562.27	22532.34
562.44	22899.80
562.60	22228.07
562.77	22632.98
562.93	21790.39
563.10	21776.34
563.26	21582.08
563.42	21387.82
563.59	21551.65
563.75	22080.61
563.92	22008.06
564.08	21825.50
564.24	21064.82
564.41	20161.37
564.57	21158.44
564.74	20828.43
564.90	20973.54
565.07	21144.40
565.23	19985.83
565.39	20329.89
565.56	20439.90
565.72	20100.52
565.88	20943.11
566.05	21095.25
566.21	20592.03
566.38	20688.00
566.54	20606.08
566.70	20381.38
566.87	20837.79
567.03	21806.77
567.19	22160.19
567.36	20702.04
567.52	21301.22
567.68	20767.57
567.85	20109.88
568.01	19625.39
568.17	19136.22
568.34	19115.16
568.50	19985.83
568.66	19826.68
568.83	20329.89
568.99	19740.08
569.15	19246.23
569.32	20084.14
569.48	20514.80
569.64	20365.00
569.81	19791.57
569.97	19520.07
570.13	20133.29
570.30	19714.33
570.46	19236.86
570.62	18714.92
570.78	18356.82
570.95	18572.15
571.11	19822.00
571.27	19384.32
571.43	19126.86
571.60	19896.89
571.76	19269.63
571.92	19454.53
572.09	20149.67
572.25	20620.12
572.41	20439.90
572.57	20114.56
572.74	19728.38
572.90	19475.60
573.06	19613.69
573.22	19360.91
573.38	20037.33
573.55	19262.61
573.71	19733.06
573.87	19648.80
574.03	19791.57
574.20	19569.22
574.36	19250.91
574.52	19971.79
574.68	19499.00
574.84	18703.22
575.01	18785.14
575.17	18827.27
575.33	18721.95
575.49	18579.17
575.65	18782.80
575.82	18298.31
575.98	18111.07
576.14	18640.03
576.30	18780.46
576.46	18445.76
576.62	18731.31
576.79	18824.93
576.95	18616.62
577.11	18398.95
577.27	18579.17
577.43	18448.10
577.59	18593.22
577.75	18349.80
577.92	17958.93
578.08	17879.35
578.24	17692.11
578.40	18202.35
578.56	17631.26
578.72	18080.64
578.88	18389.59
579.04	18551.09
579.21	18712.58
579.37	18391.93
579.53	18284.26
579.69	17877.01
579.85	17654.66
580.01	17661.68
580.17	17404.22
580.33	18094.68
580.49	18185.96
580.65	17790.41
580.82	17958.93
580.98	17628.92
581.14	17530.61
581.30	18401.29
581.46	18705.56
581.62	18228.09
581.78	18398.95
581.94	18689.18
582.10	18104.04
582.26	18174.26
582.42	18141.49
582.58	18501.93
582.74	18532.36
582.90	18492.57
583.06	18862.38
583.22	18918.55
583.38	18740.67
583.54	18272.56
583.70	18200.01
583.86	18354.48
584.02	18293.63
584.18	18597.90
584.34	18415.34
584.50	19325.80
584.66	18490.23
584.82	18026.81
584.98	17612.53
585.14	17202.94
585.30	17125.70
585.46	17057.82
585.62	16545.25
585.78	17451.03
585.94	16917.39
586.10	17373.80
586.26	17722.54
586.42	17504.87
586.58	17411.25
586.74	17111.66
586.90	16772.28
587.06	17270.81
587.22	16709.08
