SpectraSuite Data File
++++++++++++++++++++++++++++++++++++
Date: Mon Oct 07 14:53:24 GMT-05:00 2013
User: price-jones
Dark Spectrum Present: No
Reference Spectrum Present: No
Number of Sampled Component Spectra: 1
Spectrometers: USB2+H05261
Integration Time (usec): 100000 (USB2+H05261)
Spectra Averaged: 1 (USB2+H05261)
Boxcar Smoothing: 0 (USB2+H05261)
Correct for Electrical Dark: No (USB2+H05261)
Strobe/Lamp Enabled: No (USB2+H05261)
Correct for Detector Non-linearity: No (USB2+H05261)
Correct for Stray Light: No (USB2+H05261)
Number of Pixels in Processed Spectrum: 2048
>>>>>Begin Processed Spectral Data<<<<<
365.73	0.00
365.92	0.00
366.12	0.00
366.32	0.00
366.52	0.00
366.72	0.00
366.91	0.00
367.11	0.00
367.31	0.00
367.51	0.00
367.70	0.00
367.90	0.00
368.10	0.00
368.30	0.00
368.49	0.00
368.69	0.00
368.89	0.00
369.09	0.00
369.28	0.00
369.48	0.00
369.68	0.00
369.87	0.00
370.07	0.00
370.27	0.00
370.47	566.41
370.66	2813.32
370.86	3288.45
371.06	3620.81
371.25	3541.23
371.45	3365.69
371.65	3082.49
371.84	2820.35
372.04	2918.65
372.24	3328.24
372.44	3389.10
372.63	3363.35
372.83	3251.00
373.03	2881.20
373.22	2551.18
373.42	2696.30
373.62	3077.80
373.81	3281.43
374.01	3421.86
374.21	3070.78
374.40	2796.94
374.60	3075.46
374.79	3372.71
374.99	3838.48
375.19	4161.47
375.38	4163.81
375.58	3817.41
375.78	3786.99
375.97	3939.12
376.17	4063.17
376.37	4009.34
376.56	4362.76
376.76	4332.33
376.95	4634.26
377.15	5069.60
377.35	5387.91
377.54	5413.66
377.74	5547.07
377.93	5554.09
378.13	5509.62
378.33	5200.67
378.52	4781.71
378.72	4442.34
378.91	4463.40
379.11	4332.33
379.31	4170.83
379.50	4236.37
379.70	4411.91
379.89	5102.37
380.09	5198.33
380.28	5479.19
380.48	5458.13
380.68	5341.10
380.87	5228.76
381.07	4819.16
381.26	4440.00
381.46	4067.85
381.65	4074.87
381.85	4035.08
382.04	3772.94
382.24	3709.75
382.43	3311.86
382.63	3073.12
382.83	3262.71
383.02	3377.39
383.22	3456.97
383.41	3265.05
383.61	3616.13
383.80	4025.72
384.00	4557.02
384.19	5181.95
384.39	5460.47
384.58	5350.46
384.78	5430.04
384.97	5214.71
385.17	5011.09
385.36	4683.41
385.56	4545.32
385.75	4610.86
385.95	5179.61
386.14	5568.13
386.34	5626.65
386.53	5249.82
386.72	4975.98
386.92	5076.62
387.11	5427.70
387.31	5598.56
387.50	5598.56
387.70	5186.63
387.89	5238.12
388.09	5298.97
388.28	5331.74
388.48	5451.11
388.67	5699.20
388.86	6413.07
389.06	6743.08
389.25	7197.15
389.45	7211.19
389.64	7232.26
389.84	7293.11
390.03	7047.35
390.22	7084.80
390.42	7302.47
390.61	7829.09
390.81	8177.83
391.00	8250.39
391.19	8259.75
391.39	8166.13
391.58	7700.36
391.78	7091.82
391.97	6946.71
392.16	6387.32
392.36	5881.77
392.55	4622.56
392.75	3801.03
392.94	3049.72
393.13	3023.97
393.33	3541.23
393.52	4507.87
393.71	5570.48
393.91	6359.24
394.10	6815.64
394.29	7478.01
394.49	8060.80
394.68	8528.91
394.88	8889.35
395.07	9320.01
395.26	8978.30
395.46	8884.67
395.65	8308.90
395.84	7145.66
396.04	6221.14
396.23	4973.64
396.42	4077.21
396.62	3950.82
396.81	4788.74
397.00	5987.09
397.19	7454.61
397.39	8952.55
397.58	10054.94
397.77	10775.83
397.97	10806.25
398.16	11094.14
398.35	11620.76
398.55	11772.89
398.74	12306.54
398.93	12711.45
399.12	12390.80
399.32	11604.38
399.51	12133.34
399.70	13036.78
399.90	12765.28
400.09	13078.91
400.28	12631.87
400.47	12716.13
400.67	13357.44
400.86	14080.66
401.05	13621.92
401.24	14071.30
401.44	14181.31
401.63	13919.17
401.82	14310.04
402.01	14204.71
402.21	14338.12
402.40	14429.40
402.59	13855.97
402.78	13195.94
402.97	12952.52
403.17	13551.70
403.36	14298.33
403.55	14733.67
403.74	15267.31
403.93	14485.58
404.13	13420.63
404.32	13085.94
404.51	13535.32
404.70	14864.74
404.89	14684.52
405.09	14590.90
405.28	14207.05
405.47	13956.61
405.66	14019.81
405.85	13657.03
406.05	13467.44
406.24	13429.99
406.43	13774.05
406.62	14775.80
406.81	14597.92
407.00	14333.44
407.20	13802.14
407.39	13881.72
407.58	14553.45
407.77	15173.69
407.96	15740.10
408.15	15559.88
408.34	15658.18
408.54	16475.03
408.73	16720.79
408.92	16617.80
409.11	16105.23
409.30	15112.84
409.49	14462.17
409.68	13476.80
409.87	12856.56
410.07	13841.93
410.26	14705.59
410.45	15971.82
410.64	16269.06
410.83	16746.53
411.02	17135.06
411.21	17722.54
411.40	17579.76
411.59	17776.37
411.78	17238.05
411.98	17207.62
412.17	17647.64
412.36	17160.81
412.55	17160.81
412.74	17191.23
412.93	16573.33
413.12	16774.62
413.31	18263.20
413.50	18211.71
413.69	18518.32
413.88	18054.89
414.07	17451.03
414.26	17649.98
414.45	18310.01
414.64	18382.57
414.83	18553.43
415.02	17853.61
415.22	18120.43
415.41	18483.21
415.60	19143.24
415.79	19667.52
415.98	20341.60
416.17	20369.68
416.36	20027.96
416.55	19576.24
416.74	19129.20
416.93	18391.93
417.12	18331.08
417.31	18527.68
417.50	18530.02
417.69	19484.96
417.88	19400.70
418.07	19194.73
418.26	19112.81
418.45	19040.26
418.64	19700.29
418.83	20201.16
419.02	20243.29
419.21	20173.08
419.39	19033.24
419.58	18464.49
419.77	18448.10
419.96	19026.21
420.15	19880.51
420.34	20783.96
420.53	21305.90
420.72	21998.70
420.91	21291.85
421.10	21687.40
421.29	21369.09
421.48	20322.87
421.67	21689.74
421.86	21010.99
422.05	19417.08
422.24	17626.57
422.43	17331.67
422.61	19000.47
422.80	20776.94
422.99	20982.90
423.18	20299.47
423.37	19468.58
423.56	19597.31
423.75	20161.37
423.94	20414.15
424.13	19309.42
424.32	19316.44
424.50	19417.08
424.69	19047.28
424.88	19400.70
425.07	19288.35
425.26	19522.41
425.45	19084.73
425.64	18663.43
425.83	18455.12
426.01	20081.80
426.20	20549.90
426.39	20072.43
426.58	18473.85
426.77	17151.45
426.96	16746.53
427.15	17507.21
427.33	18787.48
427.52	19538.79
427.71	19623.05
427.90	19309.42
428.09	19147.92
428.28	18443.42
428.46	18085.32
428.65	17685.09
428.84	18398.95
429.03	18593.22
429.22	17231.02
429.40	16971.22
429.59	15349.23
429.78	13322.33
429.97	13413.61
430.16	13671.07
430.34	13844.27
430.53	13479.15
430.72	14059.60
430.91	15412.43
431.10	18054.89
431.28	21448.67
431.47	23129.17
431.66	23285.99
431.85	21326.96
432.03	19702.63
432.22	18705.56
432.41	19131.54
432.60	21596.12
432.79	22218.71
432.97	23073.00
433.16	22513.61
433.35	20542.88
433.54	18810.89
433.72	17397.20
433.91	18001.06
434.10	20184.78
434.28	21539.95
434.47	22630.64
434.66	22328.71
434.85	21521.23
435.03	21476.76
435.22	22272.54
435.41	23274.29
435.59	23529.41
435.78	23508.34
435.97	24376.68
436.16	24318.17
436.34	24261.99
436.53	23473.23
436.72	23679.20
436.90	22223.39
437.09	22480.85
437.28	21769.32
437.46	22848.31
437.65	22525.32
437.84	21308.24
438.02	19473.26
438.21	19232.18
438.40	20407.13
438.58	22122.74
438.77	23054.28
438.96	22642.34
439.14	23606.64
439.33	24273.70
439.52	24891.60
439.70	24297.10
439.89	23363.23
440.08	23068.32
440.26	23168.96
440.45	23716.65
440.63	25280.13
440.82	26801.47
441.01	26426.99
441.19	26260.81
441.38	26340.39
441.57	27381.93
441.75	27789.18
441.94	28285.37
442.12	27747.05
442.31	28041.96
442.50	28311.12
442.68	27632.36
442.87	27819.61
443.05	27037.87
443.24	27761.09
443.43	27974.08
443.61	28432.83
443.80	29069.45
443.98	27440.44
444.17	27307.03
444.35	29078.82
444.54	29467.34
444.73	28828.38
444.91	28041.96
445.10	26815.52
445.28	25855.90
445.47	25238.00
445.65	25579.71
445.84	25993.99
446.02	27131.49
446.21	27655.77
446.39	27721.30
446.58	28084.09
446.77	28041.96
446.95	28697.31
447.14	29156.05
447.32	29610.12
447.51	29420.53
447.69	27913.23
447.88	27688.54
448.06	27920.25
448.25	28819.02
448.43	29184.14
448.62	28170.69
448.80	27960.04
448.99	28208.14
449.17	28811.99
449.36	28507.72
449.54	29811.40
449.73	30066.52
449.91	30916.14
450.10	31103.38
450.28	31943.63
450.46	31725.96
450.65	31924.91
450.83	31283.60
451.02	30745.28
451.20	30644.63
451.39	30888.05
451.57	30132.06
451.76	30457.39
451.94	30316.96
452.13	29881.62
452.31	28233.88
452.49	27285.97
452.68	27608.96
452.86	27662.79
453.05	27583.21
453.23	28793.27
453.42	29322.23
453.60	29916.73
453.78	29968.22
453.97	29848.85
454.15	29780.98
454.34	29090.52
454.52	29347.98
454.70	29146.69
454.89	29017.96
455.07	29170.10
455.26	29851.19
455.44	30625.91
455.62	31473.18
455.81	31718.94
455.99	31180.62
456.17	30923.16
456.36	31040.18
456.54	31817.24
456.73	31777.45
456.91	31709.58
457.09	32563.87
457.28	33277.74
457.46	31793.84
457.64	31779.79
457.83	30890.39
458.01	29919.07
458.19	30799.11
458.38	30820.17
458.56	32018.53
458.74	31646.38
458.93	31082.31
459.11	31309.35
459.29	31264.88
459.48	31297.64
459.66	31101.04
459.84	31503.61
460.03	31948.31
460.21	31974.06
460.39	32355.57
460.57	32479.61
460.76	32788.56
460.94	33039.00
461.12	32437.48
461.31	32343.86
461.49	32606.00
461.67	31976.40
461.85	33558.60
462.04	33408.81
462.22	33855.85
462.40	33579.67
462.59	33654.56
462.77	33574.98
462.95	33638.18
463.13	33064.75
463.32	32987.51
463.50	32493.66
463.68	32685.58
463.86	32547.49
464.05	32404.72
464.23	31744.69
464.41	31262.54
464.59	30904.43
464.78	32404.72
464.96	32383.65
465.14	31683.83
465.32	32718.35
465.50	33549.24
465.69	33834.78
465.87	33193.48
466.05	32243.22
466.23	30803.79
466.41	30146.10
466.60	30876.35
466.78	30955.93
466.96	31580.85
467.14	31646.38
467.32	32521.74
467.51	32533.45
467.69	31328.07
467.87	31948.31
468.05	32774.52
468.23	32266.63
468.41	32833.04
468.60	32435.14
468.78	33020.28
468.96	32063.00
469.14	32828.35
469.32	33486.04
469.50	31892.14
469.69	31821.92
469.87	31482.55
470.05	31622.98
470.23	31400.63
470.41	31395.95
470.59	31931.93
470.77	31805.54
470.95	32720.69
471.14	32929.00
471.32	33001.55
471.50	35136.12
471.68	35035.48
471.86	35311.66
472.04	35468.48
472.22	35620.61
472.40	34071.18
472.58	33310.50
472.77	33097.52
472.95	34078.20
473.13	34471.41
473.31	33558.60
473.49	33827.76
473.67	34235.02
473.85	34909.09
474.03	36065.31
474.21	36030.21
474.39	36664.49
474.57	36481.93
474.75	36622.36
474.93	36100.42
475.12	35400.60
475.30	35351.45
475.48	35407.62
475.66	35791.47
475.84	35798.49
476.02	35056.54
476.20	34265.44
476.38	35328.05
476.56	36439.80
476.74	37127.92
476.92	37130.26
477.10	37521.13
477.28	38534.58
477.46	38789.70
477.64	39594.84
477.82	39283.55
478.00	39526.97
478.18	38696.08
478.36	38576.71
478.54	38436.28
478.72	38504.15
478.90	40062.95
479.08	41205.13
479.26	41261.30
479.44	41146.62
479.62	41118.53
479.80	40900.86
479.98	41474.29
480.16	41490.68
480.34	40982.78
480.52	41500.04
480.70	42169.43
480.88	41759.84
481.06	42300.50
481.24	43026.07
481.41	43817.17
481.59	44196.34
481.77	43852.28
481.95	43407.58
482.13	43526.94
482.31	42848.19
482.49	44004.41
482.67	43744.61
482.85	43732.91
483.03	44760.40
483.21	45277.66
483.39	45476.61
483.57	44465.50
483.74	44238.47
483.92	44575.50
484.10	44430.39
484.28	45511.72
484.46	45724.71
484.64	46710.07
484.82	45359.58
485.00	45123.19
485.18	44161.23
485.35	42824.78
485.53	39342.06
485.71	36615.34
485.89	35978.72
486.07	37385.38
486.25	40875.12
486.43	43115.01
486.61	44236.12
486.78	43477.79
486.96	44142.50
487.14	45610.02
487.32	46506.44
487.50	47779.70
487.68	48498.24
487.85	48783.79
488.03	49167.63
488.21	48594.20
488.39	47985.66
488.57	46988.60
488.75	46824.76
488.92	47941.19
489.10	50255.98
489.28	51669.67
489.46	52240.76
489.64	52308.63
489.81	52048.83
489.99	51938.83
490.17	51812.44
490.35	52329.70
490.53	52088.62
490.70	51653.28
490.88	51201.56
491.06	52357.78
491.24	52451.41
491.41	51126.66
491.59	49757.45
491.77	48498.24
491.95	50150.66
492.13	51269.43
492.30	52425.66
492.48	53441.45
492.66	54031.27
492.84	54094.46
493.01	53755.08
493.19	53193.36
493.37	52739.29
493.54	52505.24
493.72	53055.26
493.90	53986.80
494.08	54894.92
494.25	55194.51
494.43	55386.44
494.61	55894.33
494.79	55760.92
494.96	55657.94
495.14	55182.81
495.32	54183.40
495.49	53432.09
495.67	54595.34
495.85	55702.41
496.02	56259.46
496.20	56062.85
496.38	55753.90
496.55	55646.24
496.73	55840.50
496.91	56025.40
497.09	56662.03
497.26	56821.19
497.44	56310.95
497.62	55796.03
497.79	55236.64
497.97	53794.87
498.14	54157.66
498.32	55058.76
498.50	55868.59
498.67	56556.70
498.85	56479.47
499.03	56500.53
499.20	56739.27
499.38	56839.91
499.56	56701.82
499.73	56210.31
499.91	55772.63
500.08	55185.15
500.26	55009.61
500.44	55121.96
500.61	55826.46
500.79	55482.40
500.97	55028.34
501.14	54990.89
501.32	54871.52
501.49	54993.23
501.67	55208.56
501.84	55590.06
502.02	55929.44
502.20	56320.31
502.37	56392.87
502.55	56509.89
502.72	56987.36
502.90	57621.65
503.07	56968.64
503.25	56713.52
503.43	55943.48
503.60	55260.05
503.78	54667.89
503.95	54983.86
504.13	56526.28
504.30	57237.80
504.48	57162.90
504.65	56669.05
504.83	56989.70
505.01	57317.38
505.18	57944.64
505.36	58305.09
505.53	58438.50
505.71	58480.63
505.88	58494.67
506.06	58143.59
506.23	57698.89
506.41	57354.83
506.58	57546.75
506.76	57492.92
506.93	57403.98
507.11	57228.44
507.28	57385.25
507.46	56865.66
507.63	56294.56
507.81	56135.41
507.98	56411.59
508.16	56872.68
508.33	57579.52
508.50	57951.66
508.68	58171.67
508.85	58674.89
509.03	58815.32
509.20	58674.89
509.38	57741.02
509.55	57099.71
509.73	57202.69
509.90	57724.63
510.08	57958.69
510.25	57975.07
510.42	57813.57
510.60	57623.99
510.77	57792.51
510.95	58333.17
511.12	58621.06
511.30	58782.55
511.47	59086.82
511.64	59171.08
511.82	58820.00
511.99	57771.44
512.17	57418.02
512.34	57120.77
512.51	57476.54
512.69	57207.37
512.86	57584.20
513.04	58000.82
513.21	58101.46
513.38	57705.91
513.56	57073.96
513.73	56493.51
513.90	56903.10
514.08	57022.47
514.25	57099.71
514.43	57607.61
514.60	57492.92
514.77	57649.74
514.95	57792.51
515.12	57647.39
515.29	57909.53
515.47	58384.66
515.64	58681.91
515.81	58335.51
515.99	57446.11
516.16	56236.05
516.33	53888.49
516.51	52399.91
516.68	51641.58
516.85	50969.85
517.03	51554.98
517.20	54145.95
517.37	56631.60
517.54	57745.70
517.72	57148.86
517.89	54934.71
518.06	52385.87
518.24	52856.32
518.41	54920.67
518.58	56320.31
518.75	56463.08
518.93	56765.01
519.10	56603.52
519.27	56989.70
519.45	57392.28
519.62	58087.42
519.79	58307.43
519.96	58028.90
520.14	57755.06
520.31	56631.60
520.48	56809.48
520.65	57022.47
520.83	58040.60
521.00	58365.94
521.17	58024.22
521.34	57645.05
521.52	58078.05
521.69	58590.63
521.86	58986.18
522.03	58581.27
522.20	57389.94
522.38	56406.91
522.55	56584.79
522.72	57006.09
522.89	57160.56
523.07	57518.67
523.24	57729.31
523.41	58543.82
523.58	59077.46
523.75	59175.76
523.92	59171.08
524.10	59203.85
524.27	59339.60
524.44	58850.43
524.61	58812.98
524.78	58506.37
524.96	58398.71
525.13	58525.10
525.30	58740.42
525.47	59075.12
525.64	59147.68
525.81	58473.60
525.98	57102.05
526.16	55496.44
526.33	54972.16
526.50	54578.95
526.67	54433.84
526.84	55112.59
527.01	55751.56
527.18	56729.90
527.36	57715.27
527.53	58492.33
527.70	58487.65
527.87	57862.72
528.04	57619.31
528.21	57935.28
528.38	58827.02
528.55	59370.03
528.72	59615.79
528.89	59650.89
529.07	59379.39
529.24	58808.30
529.41	58117.84
529.58	57633.35
529.75	57668.46
529.92	57982.09
530.09	58607.01
530.26	59047.04
530.43	59058.74
530.60	59358.33
530.77	59611.10
530.94	59671.96
531.11	59255.34
531.28	58857.45
531.46	58628.08
531.63	58766.17
531.80	58597.65
531.97	58211.46
532.14	57528.03
532.31	56526.28
532.48	56072.21
532.65	55894.33
532.82	56673.73
532.99	58019.54
533.16	58134.23
533.33	58862.13
533.50	58618.72
533.67	57818.25
533.84	57485.90
534.01	57799.53
534.18	58115.50
534.35	58141.25
534.52	57984.43
534.69	58356.58
534.86	58408.07
535.03	58679.57
535.20	58941.71
535.37	59503.44
535.54	59751.54
535.71	59346.62
535.88	58976.82
536.05	58454.88
536.22	57865.06
536.38	57684.84
536.55	57116.09
536.72	56809.48
536.89	56423.29
537.06	57535.05
537.23	58412.75
537.40	58555.52
537.57	58513.39
537.74	58464.24
537.91	58185.72
538.08	57998.48
538.25	58258.27
538.42	58314.45
538.59	58363.60
538.75	57778.46
538.92	57301.00
539.09	57212.06
539.26	56954.60
539.43	56891.40
539.60	57031.83
539.77	57083.33
539.94	56963.96
540.11	56292.22
540.28	55711.77
540.44	55842.84
540.61	56119.02
540.78	56364.78
540.95	56718.20
541.12	57104.39
541.29	57284.61
541.46	57762.08
541.62	57773.78
541.79	57645.05
541.96	56889.06
542.13	56884.38
542.30	57296.31
542.47	57504.62
542.63	57301.00
542.80	57036.51
542.97	57183.97
543.14	56910.13
543.31	57258.87
543.48	57649.74
543.64	58389.34
543.81	58501.69
543.98	58148.27
544.15	57645.05
544.32	57155.88
544.48	57235.46
544.65	57553.77
544.82	58302.74
544.99	57631.01
545.16	57436.75
545.32	57006.09
545.49	58085.07
545.66	58108.48
545.83	58017.20
546.00	57635.69
546.16	57268.23
546.33	57202.69
546.50	57174.61
546.67	57752.72
546.83	57258.87
547.00	57387.60
547.17	56680.75
547.34	56151.79
547.50	56165.84
547.67	56484.15
547.84	56488.83
548.00	56982.68
548.17	57375.89
548.34	57464.83
548.51	57097.37
548.67	57052.90
548.84	57336.10
549.01	57483.56
549.18	57134.82
549.34	57219.08
549.51	57240.14
549.68	57015.45
549.84	56683.09
550.01	56776.72
550.18	56781.40
550.34	56477.13
550.51	56669.05
550.68	57141.84
550.84	56460.74
551.01	56617.56
551.18	56502.87
551.34	56839.91
551.51	56910.13
551.68	57265.89
551.84	57378.23
552.01	57062.26
552.18	56919.49
552.34	56395.21
552.51	55796.03
552.68	55859.23
552.84	55962.21
553.01	56479.47
553.18	56264.14
553.34	56704.16
553.51	56547.34
553.67	56832.89
553.84	56994.39
554.01	56875.02
554.17	56631.60
554.34	56636.28
554.51	56788.42
554.67	57181.63
554.84	56973.32
555.00	56470.11
555.17	56357.76
555.33	56523.94
555.50	56418.61
555.67	56280.52
555.83	56348.40
556.00	56060.51
556.16	56004.34
556.33	55662.62
556.50	55674.32
556.66	55552.62
556.83	55157.06
556.99	55423.89
557.16	55262.39
557.32	55657.94
557.49	56069.87
557.65	55709.43
557.82	55812.41
557.98	55671.98
558.15	55253.03
558.32	54569.59
558.48	53546.78
558.65	53769.13
558.81	54178.72
558.98	54656.19
559.14	54885.56
559.31	54557.89
559.47	54585.97
559.64	54403.41
559.80	54110.85
559.97	54408.09
560.13	54611.72
560.30	55531.55
560.46	56093.28
560.63	56327.33
560.79	56266.48
560.96	55590.06
561.12	54773.22
561.29	53858.07
561.45	53928.28
561.61	54361.28
561.78	54993.23
561.94	54656.19
562.11	54813.01
562.27	54356.60
562.44	54871.52
562.60	55021.31
562.77	55302.18
562.93	55023.65
563.10	55054.08
563.26	54557.89
563.42	54681.94
563.59	54663.21
563.75	54667.89
563.92	54377.67
564.08	54431.50
564.24	54419.80
564.41	54714.70
564.57	54536.82
564.74	54560.23
564.90	54286.39
565.07	54167.02
565.23	53680.19
565.39	53081.01
565.56	52961.64
565.72	52671.42
565.88	53202.72
566.05	53242.51
566.21	53579.54
566.38	53916.58
566.54	53879.13
566.70	54293.41
566.87	54372.99
567.03	54340.22
567.19	54546.18
567.36	54358.94
567.52	54396.39
567.68	54113.19
567.85	53102.07
568.01	52776.74
568.17	52666.73
568.34	52643.33
568.50	52301.61
568.66	52594.18
568.83	52893.77
568.99	52870.36
569.15	53200.38
569.32	53322.08
569.48	52900.79
569.64	52666.73
569.81	52177.56
569.97	52467.79
570.13	52495.88
570.30	51824.14
570.46	51217.94
570.62	50990.91
570.78	50328.54
570.95	50901.97
571.11	51798.40
571.27	52018.41
571.43	51985.64
571.60	52449.06
571.76	52575.45
571.92	52886.74
572.09	53279.96
572.25	53059.94
572.41	52711.20
572.57	52924.19
572.74	52875.04
572.90	52449.06
573.06	52296.93
573.22	52652.69
573.38	52610.56
573.55	52231.40
573.71	52935.90
573.87	52697.16
574.03	52238.42
574.20	52203.31
574.36	51945.85
574.52	51826.48
574.68	51349.01
574.84	51166.45
575.01	50775.58
575.17	50557.91
575.33	51159.43
575.49	51114.96
575.65	51503.49
575.82	51201.56
575.98	50705.37
576.14	51157.09
576.30	51398.16
576.46	51873.29
576.62	51437.95
576.79	51365.40
576.95	51068.15
577.11	50752.18
577.27	50761.54
577.43	51070.49
577.59	50806.01
577.75	50389.39
577.92	49542.12
578.08	49509.35
578.24	49387.64
578.40	49729.36
578.56	50312.16
578.72	50225.56
578.88	50494.72
579.04	50578.98
579.21	50733.45
579.37	50869.20
579.53	50897.29
579.69	50848.14
579.85	51054.11
580.01	50752.18
580.17	50417.48
580.33	50295.77
580.49	49977.46
580.65	50632.81
580.82	50806.01
580.98	50621.11
581.14	50230.24
581.30	50670.26
581.46	50588.34
581.62	50703.03
581.78	50698.34
581.94	50894.95
582.10	50798.99
582.26	51014.32
582.42	50885.59
582.58	51117.30
582.74	50899.63
582.90	50855.16
583.06	50866.86
583.22	50459.61
583.38	50621.11
583.54	50541.53
583.70	50693.66
583.86	50478.33
584.02	50042.99
584.18	50445.57
584.34	50178.75
584.50	50164.70
584.66	49890.86
584.82	49799.58
584.98	49467.22
585.14	49071.67
585.30	48418.66
