SpectraSuite Data File
++++++++++++++++++++++++++++++++++++
Date: Mon Oct 07 14:52:56 GMT-05:00 2013
User: price-jones
Dark Spectrum Present: No
Reference Spectrum Present: No
Number of Sampled Component Spectra: 1
Spectrometers: USB2+H05261
Integration Time (usec): 100000 (USB2+H05261)
Spectra Averaged: 1 (USB2+H05261)
Boxcar Smoothing: 0 (USB2+H05261)
Correct for Electrical Dark: No (USB2+H05261)
Strobe/Lamp Enabled: No (USB2+H05261)
Correct for Detector Non-linearity: No (USB2+H05261)
Correct for Stray Light: No (USB2+H05261)
Number of Pixels in Processed Spectrum: 2048
>>>>>Begin Processed Spectral Data<<<<<
365.73	0.00
365.92	0.00
366.12	0.00
366.32	0.00
366.52	0.00
366.72	0.00
366.91	0.00
367.11	0.00
367.31	0.00
367.51	0.00
367.70	0.00
367.90	0.00
368.10	0.00
368.30	0.00
368.49	0.00
368.69	0.00
368.89	0.00
369.09	0.00
369.28	0.00
369.48	0.00
369.68	0.00
369.87	0.00
370.07	0.00
370.27	0.00
370.47	383.85
370.66	2450.54
370.86	2834.39
371.06	3133.98
371.25	3164.40
371.45	2780.56
371.65	2476.29
371.84	2284.36
372.04	2502.03
372.24	2801.62
372.44	2949.08
372.63	2913.97
372.83	2675.23
373.03	2319.47
373.22	2188.40
373.42	2331.17
373.62	2717.36
373.81	2829.71
374.01	2803.96
374.21	2600.34
374.40	2392.03
374.60	2495.01
374.79	2860.13
374.99	3307.18
375.19	3702.73
375.38	3597.40
375.58	3419.52
375.78	3290.79
375.97	3234.62
376.17	3494.42
376.37	3328.24
376.56	3566.98
376.76	3548.25
376.95	4025.72
377.15	4374.46
377.35	4442.34
377.54	4507.87
377.74	4664.69
377.93	4664.69
378.13	4702.14
378.33	4362.76
378.52	3833.80
378.72	3885.29
378.91	3894.65
379.11	3719.11
379.31	3515.48
379.50	3492.08
379.70	3880.61
379.89	4182.54
380.09	4447.02
380.28	4592.13
380.48	4538.30
380.68	4566.39
380.87	4486.81
381.07	4051.47
381.26	3754.22
381.46	3517.83
381.65	3534.21
381.85	3344.63
382.04	3119.93
382.24	2771.19
382.43	2850.77
382.63	2768.85
382.83	2780.56
383.02	2846.09
383.22	2860.13
383.41	2906.95
383.61	2904.60
383.80	3597.40
384.00	3976.57
384.19	4299.56
384.39	4699.80
384.58	4610.86
384.78	4454.04
384.97	4535.96
385.17	4318.29
385.36	4198.92
385.56	3723.79
385.75	4028.06
385.95	4454.04
386.14	4884.70
386.34	4730.22
386.53	4538.30
386.72	4367.44
386.92	4269.14
387.11	4575.75
387.31	4688.09
387.50	4521.92
387.70	4643.62
387.89	4329.99
388.09	4592.13
388.28	4498.51
388.48	4533.62
388.67	4945.55
388.86	5331.74
389.06	5774.10
389.25	6066.67
389.45	6111.14
389.64	6090.07
389.84	6071.35
390.03	6125.18
390.22	6207.10
390.42	6214.12
390.61	6576.91
390.81	7243.96
391.00	7133.95
391.19	7178.42
391.39	6885.86
391.58	6473.92
391.78	5933.26
391.97	5750.70
392.16	5575.16
392.36	4943.21
392.55	3964.87
392.75	3176.11
392.94	2567.57
393.13	2733.75
393.33	3176.11
393.52	3922.74
393.71	4924.49
393.91	5380.89
394.10	5909.85
394.29	6380.30
394.49	6895.22
394.68	7468.65
394.88	7482.69
395.07	7683.98
395.26	7571.63
395.46	7478.01
395.65	6918.62
395.84	6225.82
396.04	5371.53
396.23	4219.99
396.42	3529.53
396.62	3466.33
396.81	4072.53
397.00	5252.16
397.19	6502.01
397.39	7569.29
397.58	8568.70
397.77	9118.73
397.97	9280.22
398.16	9469.81
398.35	9748.33
398.55	9832.59
398.74	10422.41
398.93	10794.55
399.12	10448.15
399.32	10120.48
399.51	10466.88
399.70	11082.44
399.90	10958.39
400.09	11103.50
400.28	10820.30
400.47	11094.14
400.67	11552.88
400.86	11616.08
401.05	11686.29
401.24	11840.77
401.44	12187.17
401.63	12201.21
401.82	12166.10
402.01	12315.90
402.21	12219.94
402.40	12332.28
402.59	12140.36
402.78	11630.12
402.97	11138.61
403.17	11686.29
403.36	12276.11
403.55	12762.94
403.74	12947.84
403.93	12339.30
404.13	11435.86
404.32	11255.64
404.51	11920.35
404.70	12676.34
404.89	12645.91
405.09	12554.63
405.28	12002.27
405.47	12011.63
405.66	11833.75
405.85	11950.78
406.05	11576.29
406.24	11417.13
406.43	12088.87
406.62	12676.34
406.81	12552.29
407.00	12311.22
407.20	11754.17
407.39	11887.58
407.58	12507.82
407.77	13102.32
407.96	13439.36
408.15	13511.91
408.34	13851.29
408.54	14272.59
408.73	14279.61
408.92	14057.26
409.11	13689.79
409.30	13111.68
409.49	12215.26
409.68	11403.09
409.87	11204.14
410.07	12049.08
410.26	12788.69
410.45	13673.41
410.64	13947.25
410.83	14277.27
411.02	14724.31
411.21	15138.58
411.40	15075.39
411.59	15129.22
411.78	14698.56
411.98	14745.38
412.17	15346.89
412.36	14733.67
412.55	15192.42
412.74	14459.83
412.93	14267.91
413.12	14588.56
413.31	15522.43
413.50	15646.48
413.69	16105.23
413.88	15400.72
414.07	15044.96
414.26	15379.66
414.45	15702.65
414.64	15981.18
414.83	15700.31
415.02	15407.75
415.22	15414.77
415.41	15910.96
415.60	16386.09
415.79	17359.75
415.98	17259.11
416.17	17479.12
416.36	16952.50
416.55	16884.62
416.74	15946.07
416.93	15873.51
417.12	15690.95
417.31	16056.08
417.50	16297.15
417.69	16739.51
417.88	16664.61
418.07	16374.39
418.26	16236.30
418.45	16411.84
418.64	17111.66
418.83	17769.35
419.02	17408.90
419.21	17184.21
419.39	16475.03
419.58	15651.16
419.77	15854.79
419.96	16252.68
420.15	17509.55
420.34	18235.11
420.53	18703.22
420.72	18920.89
420.91	18981.74
421.10	18347.46
421.29	18630.66
421.48	17921.48
421.67	18700.88
421.86	18153.20
422.05	16802.71
422.24	15382.00
422.43	14944.32
422.61	16741.85
422.80	18033.83
422.99	17867.65
423.18	17446.35
423.37	16423.54
423.56	16985.27
423.75	17317.62
423.94	17621.89
424.13	16624.83
424.32	16650.57
424.50	16889.31
424.69	16446.94
424.88	16837.81
425.07	16673.98
425.26	16908.03
425.45	16622.48
425.64	16191.83
425.83	16074.80
426.01	17303.58
426.20	17752.96
426.39	17607.85
426.58	15932.03
426.77	15178.37
426.96	14740.69
427.15	15077.73
427.33	16194.17
427.52	17015.69
427.71	17226.34
427.90	16624.83
428.09	16688.02
428.28	16325.24
428.46	15714.36
428.65	15599.67
428.84	15981.18
429.03	16182.46
429.22	15410.09
429.40	14434.08
429.59	13095.30
429.78	11639.48
429.97	11779.92
430.16	11707.36
430.34	11910.99
430.53	11903.96
430.72	12285.47
430.91	13633.62
431.10	15927.35
431.28	18686.84
431.47	20304.15
431.66	20280.74
431.85	18548.75
432.03	16842.50
432.22	16219.91
432.41	16854.20
432.60	18864.72
432.79	19555.18
432.97	20121.59
433.16	19412.40
433.35	17790.41
433.54	15967.13
433.72	15171.35
433.91	15475.62
434.10	17303.58
434.28	18878.76
434.47	19601.99
434.66	19197.07
434.85	18707.90
435.03	18766.42
435.22	19520.07
435.41	20505.43
435.59	20374.36
435.78	20950.14
435.97	21216.96
436.16	21341.00
436.34	20741.83
436.53	20482.03
436.72	20479.69
436.90	19522.41
437.09	19426.45
437.28	19058.98
437.46	19728.38
437.65	19814.98
437.84	18223.41
438.02	16959.52
438.21	16819.09
438.40	17790.41
438.58	19152.60
438.77	19756.46
438.96	20367.34
439.14	20975.88
439.33	21355.05
439.52	21462.71
439.70	21355.05
439.89	20610.76
440.08	20386.07
440.26	20460.96
440.45	20713.74
440.63	22342.75
440.82	23536.43
441.01	23199.39
441.19	22707.88
441.38	23143.22
441.57	24044.32
441.75	24245.61
441.94	24549.88
442.12	23957.72
442.31	24732.44
442.50	24732.44
442.68	24084.11
442.87	24210.50
443.05	23510.68
443.24	24367.32
443.43	24517.11
443.61	25088.20
443.80	25085.86
443.98	24180.07
444.17	24086.45
444.35	25263.74
444.54	25462.69
444.73	25692.06
444.91	24313.48
445.10	23323.44
445.28	22328.71
445.47	22045.51
445.65	22333.39
445.84	23070.66
446.02	23871.12
446.21	24109.86
446.39	23934.32
446.58	24364.98
446.77	25090.54
446.95	25282.47
447.14	26043.14
447.32	25977.61
447.51	25729.51
447.69	24849.47
447.88	24659.88
448.06	24730.10
448.25	24996.92
448.43	25458.01
448.62	24732.44
448.80	24900.96
448.99	25071.82
449.17	25429.92
449.36	25514.18
449.54	26078.25
449.73	26728.92
449.91	26878.71
450.10	27594.92
450.28	28102.81
450.46	27571.51
450.65	27711.94
450.83	27674.49
451.02	26902.12
451.20	27009.78
451.39	27070.64
451.57	26874.03
451.76	26988.72
451.94	26595.51
452.13	26171.87
452.31	24716.06
452.49	23814.95
452.68	23880.49
452.86	24210.50
453.05	24184.76
453.23	25380.77
453.42	25703.76
453.60	26410.60
453.78	26508.91
453.97	26143.78
454.15	26544.02
454.34	25998.67
454.52	25867.60
454.70	25413.54
454.89	25846.54
455.07	25549.29
455.26	26415.29
455.44	27246.18
455.62	27796.20
455.81	27957.70
455.99	27775.14
456.17	27367.88
456.36	27496.61
456.54	28191.75
456.73	27969.40
456.91	28505.38
457.09	29050.73
457.28	29394.79
457.46	28079.41
457.64	27882.80
457.83	27253.20
458.01	26251.45
458.19	27178.30
458.38	27087.02
458.56	28474.96
458.74	27941.32
458.93	27747.05
459.11	27447.46
459.29	27543.42
459.48	27924.93
459.66	27658.11
459.84	27695.56
460.03	28205.80
460.21	28135.58
460.39	28807.31
460.57	28652.84
460.76	29216.91
460.94	29254.36
461.12	28648.16
461.31	29130.31
461.49	29050.73
461.67	28830.72
461.85	29886.30
462.04	29476.71
462.22	30333.34
462.40	29457.98
462.59	29656.93
462.77	29795.02
462.95	29825.45
463.13	29207.55
463.32	29102.22
463.50	28584.96
463.68	28811.99
463.86	28950.09
464.05	28716.03
464.23	27878.12
464.41	28013.87
464.59	27555.13
464.78	28814.34
464.96	28755.82
465.14	28257.29
465.32	29111.58
465.50	30066.52
465.69	30274.83
465.87	29312.87
466.05	28606.03
466.23	27543.42
466.41	26665.72
466.60	27316.39
466.78	27835.99
466.96	27686.20
467.14	28510.07
467.32	29097.54
467.51	29240.31
467.69	27796.20
467.87	27950.68
468.05	28762.84
468.23	28409.42
468.41	28781.57
468.60	29078.82
468.78	28898.59
468.96	28634.11
469.14	29048.39
469.32	29385.43
469.50	27974.08
469.69	28552.20
469.87	27702.58
470.05	27889.82
470.23	27948.34
470.41	27655.77
470.59	28339.21
470.77	28669.22
470.95	28615.39
471.14	29607.78
471.32	29486.07
471.50	30885.71
471.68	30972.31
471.86	31164.23
472.04	31421.69
472.22	31426.37
472.40	29996.31
472.58	30146.10
472.77	29551.60
472.95	30462.07
473.13	30939.54
473.31	30155.46
473.49	30370.79
473.67	30927.84
473.85	30881.03
474.03	32158.96
474.21	32034.91
474.39	32243.22
474.57	32357.91
474.75	32243.22
474.93	32154.28
475.12	31637.02
475.30	31468.50
475.48	31349.14
475.66	32072.36
475.84	31557.44
476.02	31377.22
476.20	31255.51
476.38	31791.50
476.56	32540.47
476.74	33289.44
476.92	32992.19
477.10	33055.39
477.28	34319.28
477.46	34705.46
477.64	34794.40
477.82	34653.97
478.00	35187.61
478.18	35138.46
478.36	35147.82
478.54	34408.22
478.72	34698.44
478.90	36105.10
479.08	36748.75
479.26	37228.56
479.44	37071.75
479.62	36355.54
479.80	36765.14
479.98	36914.93
480.16	37146.64
480.34	36627.04
480.52	37057.70
480.70	37621.77
480.88	37340.91
481.06	38433.94
481.24	38562.67
481.41	39381.85
481.59	40210.40
481.77	39381.85
481.95	39201.63
482.13	38607.14
482.31	38763.95
482.49	39924.86
482.67	39510.58
482.85	39573.78
483.03	40526.38
483.21	40870.43
483.39	40704.26
483.57	39817.19
483.74	39859.32
483.92	40107.42
484.10	40395.31
484.28	41191.09
484.46	41539.83
484.64	41914.31
484.82	41050.66
485.00	40512.33
485.18	39854.64
485.35	38305.21
485.53	35328.05
485.71	32388.33
485.89	32217.47
486.07	34164.80
486.25	37177.07
486.43	39260.15
486.61	39686.12
486.78	39262.49
486.96	39674.42
487.14	41109.17
487.32	42321.57
487.50	43466.09
487.68	44294.64
487.85	44996.80
488.03	44795.51
488.21	44081.65
488.39	43665.03
488.57	42649.24
488.75	42532.22
488.92	43735.25
489.10	46263.03
489.28	47821.83
489.46	48458.45
489.64	48444.41
489.81	48296.95
489.99	47896.72
490.17	47805.44
490.35	48582.50
490.53	48397.60
490.70	47576.07
490.88	47391.17
491.06	48767.40
491.24	48425.68
491.41	47187.54
491.59	45191.06
491.77	44533.37
491.95	46122.60
492.13	47112.64
492.30	48861.02
492.48	50080.44
492.66	50274.71
492.84	50288.75
493.01	50059.38
493.19	49612.34
493.37	49008.48
493.54	48940.60
493.72	49844.05
493.90	50475.99
494.08	51456.68
494.25	51868.61
494.43	52458.43
494.61	52636.31
494.79	52743.97
494.96	52264.16
495.14	51590.09
495.32	50578.98
495.49	50295.77
495.67	51423.91
495.85	52739.29
496.02	53446.13
496.20	53186.33
496.38	52463.11
496.55	52413.96
496.73	52643.33
496.91	53081.01
497.09	53530.39
497.26	53918.92
497.44	53698.91
497.62	52502.90
497.79	51660.30
497.97	50354.29
498.14	50541.53
498.32	52121.39
498.50	53155.91
498.67	53549.12
498.85	53551.46
499.03	53502.31
499.20	53818.28
499.38	53975.09
499.56	53771.47
499.73	53083.35
499.91	52816.53
500.08	52135.43
500.26	51632.22
500.44	52231.40
500.61	53050.58
500.79	52563.75
500.97	52156.50
501.14	51896.70
501.32	51908.40
501.49	51950.53
501.67	52240.76
501.84	52725.25
502.02	52870.36
502.20	53176.97
502.37	53525.71
502.55	53600.61
502.72	54082.76
502.90	54454.90
503.07	54218.51
503.25	53595.93
503.43	52804.83
503.60	51995.00
503.78	51730.52
503.95	52044.15
504.13	53469.54
504.30	54403.41
504.48	54087.44
504.65	53635.72
504.83	54035.95
505.01	54724.07
505.18	55033.02
505.36	55742.20
505.53	55606.45
505.71	55702.41
505.88	56032.42
506.06	55030.68
506.23	54958.12
506.41	54541.50
506.58	54735.77
506.76	54824.71
506.93	54808.32
507.11	54571.93
507.28	54497.03
507.46	53961.05
507.63	53525.71
507.81	53368.90
507.98	53516.35
508.16	54597.68
508.33	54815.35
508.50	55189.83
508.68	55290.48
508.85	56027.74
509.03	56044.13
509.20	55915.40
509.38	55304.52
509.55	54265.32
509.73	54513.42
509.90	54901.95
510.08	55585.38
510.25	55103.23
510.42	54810.67
510.60	54913.65
510.77	55182.81
510.95	55917.74
511.12	56006.68
511.30	56191.58
511.47	56161.15
511.64	56409.25
511.82	55866.25
511.99	54993.23
512.17	55110.25
512.34	54602.36
512.51	54761.51
512.69	55030.68
512.86	55018.97
513.04	55346.65
513.21	55524.53
513.38	54939.39
513.56	54447.88
513.73	53773.81
513.90	54061.69
514.08	54183.40
514.25	54384.69
514.43	54925.35
514.60	55164.09
514.77	55030.68
514.95	55091.53
515.12	54972.16
515.29	55166.43
515.47	56004.34
515.64	55962.21
515.81	55356.01
515.99	54791.94
516.16	53265.91
516.33	50693.66
516.51	49256.57
516.68	47552.66
516.85	47730.54
517.03	48348.45
517.20	51538.60
517.37	54026.59
517.54	55370.05
517.72	54344.90
517.89	51470.72
518.06	49099.76
518.24	49572.55
518.41	52320.34
518.58	53401.66
518.75	53780.83
518.93	53811.26
519.10	53911.90
519.27	54447.88
519.45	54663.21
519.62	55356.01
519.79	55716.45
519.96	55412.18
520.14	54813.01
520.31	53930.62
520.48	54127.23
520.65	54672.57
520.83	55650.92
521.00	56090.94
521.17	55681.34
521.34	55161.75
521.52	55569.00
521.69	56210.31
521.86	56495.85
522.03	55994.98
522.20	54651.51
522.38	54052.33
522.55	54014.88
522.72	54578.95
522.89	54426.82
523.07	54859.82
523.24	55341.97
523.41	56250.09
523.58	56491.17
523.75	56846.93
523.92	56860.97
524.10	56673.73
524.27	56530.96
524.44	56465.42
524.61	56095.62
524.78	56104.98
524.96	55831.14
525.13	56088.60
525.30	56261.80
525.47	56692.46
525.64	56561.39
525.81	55861.57
525.98	54319.15
526.16	52828.23
526.33	51826.48
526.50	51573.70
526.67	51210.92
526.84	51950.53
527.01	53301.02
527.18	54237.23
527.36	55222.60
527.53	55735.18
527.70	56179.88
527.87	55524.53
528.04	55089.19
528.21	55606.45
528.38	56367.12
528.55	56832.89
528.72	57001.41
528.89	57315.04
529.07	56800.12
529.24	56184.56
529.41	55735.18
529.58	54962.80
529.75	55253.03
529.92	55580.70
530.09	56226.69
530.26	56729.90
530.43	56940.55
530.60	57036.51
530.77	57055.24
530.94	57263.55
531.11	56568.41
531.28	56472.45
531.46	56317.97
531.63	56294.56
531.80	56294.56
531.97	55835.82
532.14	55070.46
532.31	53750.40
532.48	53064.63
532.65	53062.29
532.82	54199.79
532.99	55334.95
533.16	55739.86
533.33	56418.61
533.50	56177.54
533.67	55487.08
533.84	55128.98
534.01	55264.73
534.18	55597.09
534.35	55604.11
534.52	55255.37
534.69	55819.44
534.86	56233.71
535.03	56427.98
535.20	56664.37
535.37	57422.70
535.54	57359.51
535.71	56825.87
535.88	56324.99
536.05	55927.10
536.22	55341.97
536.38	55119.62
536.55	54583.63
536.72	54136.59
536.89	54096.80
537.06	55182.81
537.23	56013.70
537.40	56135.41
537.57	56175.20
537.74	55983.27
537.91	55854.54
538.08	55922.42
538.25	55971.57
538.42	56067.53
538.59	55920.08
538.75	55241.32
538.92	55016.63
539.09	54635.13
539.26	54464.27
539.43	54485.33
539.60	54525.12
539.77	54731.09
539.94	54466.61
540.11	53586.57
540.28	53382.94
540.44	53244.85
540.61	53511.67
540.78	53804.24
540.95	54209.15
541.12	54925.35
541.29	55047.06
541.46	55316.22
541.62	55468.36
541.79	55054.08
541.96	54555.55
542.13	54492.35
542.30	54857.48
542.47	55168.77
542.63	55124.30
542.80	54695.98
542.97	54780.24
543.14	54429.16
543.31	54644.49
543.48	55257.71
543.64	55899.01
543.81	56109.66
543.98	55791.35
544.15	55531.55
544.32	54588.31
544.48	54864.50
544.65	55337.29
544.82	55590.06
544.99	55353.67
545.16	54939.39
545.32	54595.34
545.49	55686.03
545.66	56069.87
545.83	55547.93
546.00	55222.60
546.16	54993.23
546.33	54920.67
546.50	54986.21
546.67	55576.02
546.83	54780.24
547.00	54986.21
547.17	54080.42
547.34	53764.45
547.50	53649.76
547.67	54143.61
547.84	53942.33
548.00	54691.30
548.17	54944.08
548.34	54775.56
548.51	54843.43
548.67	54644.49
548.84	55201.53
549.01	54789.60
549.18	54691.30
549.34	54817.69
549.51	54782.58
549.68	54801.30
549.84	54251.28
550.01	54450.22
550.18	54272.34
550.34	54490.01
550.51	54340.22
550.68	54412.77
550.84	53719.98
551.01	53979.78
551.18	54052.33
551.34	54457.24
551.51	54738.11
551.68	54880.88
551.84	54838.75
552.01	54712.36
552.18	54286.39
552.34	53624.01
552.51	53251.87
552.68	53270.59
552.84	53787.85
553.01	54199.79
553.18	54082.76
553.34	54035.95
553.51	54255.96
553.67	54461.93
553.84	54850.45
554.01	54632.78
554.17	54475.97
554.34	54508.74
554.51	54506.40
554.67	54930.03
554.84	54679.60
555.00	54202.13
555.17	54232.55
555.33	54169.36
555.50	54073.40
555.67	54033.61
555.83	53708.27
556.00	53286.98
556.16	53556.14
556.33	52978.03
556.50	52839.93
556.66	53134.84
556.83	52837.59
556.99	53078.67
557.16	52842.27
557.32	53106.76
557.49	53521.03
557.65	53497.62
557.82	53389.96
557.98	53099.73
558.15	52748.65
558.32	51789.03
558.48	50932.40
558.65	51243.69
558.81	51435.61
558.98	51828.82
559.14	51952.87
559.31	51955.21
559.47	52149.48
559.64	51557.32
559.80	51475.40
559.97	51767.97
560.13	52065.22
560.30	53057.60
560.46	53680.19
560.63	53855.73
560.79	53837.00
560.96	53116.12
561.12	52051.17
561.29	51042.40
561.45	50883.25
561.61	51683.71
561.78	52549.71
561.94	52182.24
562.11	52198.63
562.27	52217.35
562.44	52575.45
562.60	52591.84
562.77	52879.72
562.93	52746.31
563.10	52910.15
563.26	52168.20
563.42	52238.42
563.59	51697.75
563.75	51995.00
563.92	51824.14
564.08	51828.82
564.24	52109.69
564.41	52327.36
564.57	52023.09
564.74	52105.01
564.90	51915.42
565.07	51817.12
565.23	51213.26
565.39	50281.73
565.56	50185.77
565.72	50120.23
565.88	50436.20
566.05	50595.36
566.21	50855.16
566.38	51323.27
566.54	51175.81
566.70	51325.61
566.87	51786.69
567.03	51800.74
567.19	52123.73
567.36	51847.55
567.52	51608.81
567.68	51440.29
567.85	50553.23
568.01	50045.33
568.17	49507.01
568.34	49935.33
568.50	49673.19
568.66	49741.06
568.83	50616.43
568.99	50211.51
569.15	50892.61
569.32	50614.08
569.48	50590.68
569.64	49921.29
569.81	49647.44
569.97	49581.91
570.13	49647.44
570.30	48956.99
570.46	48226.74
570.62	47627.56
570.78	47845.23
570.95	48383.55
571.11	48900.81
571.27	49195.72
571.43	49584.25
571.60	50078.10
571.76	50241.94
571.92	50181.09
572.09	50684.30
572.25	50567.27
572.41	50211.51
572.57	50197.47
572.74	50117.89
572.90	49600.63
573.06	49539.78
573.22	49607.65
573.38	49804.26
573.55	49827.66
573.71	49989.16
573.87	49654.47
574.03	49574.89
574.20	49539.78
574.36	49226.15
574.52	49125.50
574.68	48355.47
574.84	48322.70
575.01	47971.62
575.17	47941.19
575.33	48566.12
575.49	48369.51
575.65	48673.78
575.82	48580.16
575.98	47828.85
576.14	48353.13
576.30	48680.80
576.46	49106.78
576.62	49048.27
576.79	48896.13
576.95	48254.82
577.11	48292.27
577.27	48425.68
577.43	48458.45
577.59	47999.71
577.75	47288.18
577.92	46932.42
578.08	46906.68
578.24	46464.32
578.40	46752.20
578.56	47147.75
578.72	47290.52
578.88	47625.22
579.04	47721.18
579.21	47775.02
579.37	47765.65
579.53	48039.50
579.69	48245.46
579.85	48514.62
580.01	47838.21
580.17	47295.21
580.33	47426.28
580.49	47866.30
580.65	47899.06
580.82	48018.43
580.98	47985.66
581.14	47763.31
581.30	48135.46
581.46	47536.28
581.62	47835.87
581.78	48154.18
581.94	48318.02
582.10	48343.77
582.26	48533.35
582.42	48240.78
582.58	48217.38
582.74	48311.00
582.90	48186.95
583.06	48376.53
583.22	48030.13
583.38	47899.06
583.54	47484.79
583.70	47817.14
583.86	47807.78
584.02	47400.53
584.18	47770.33
584.34	47648.63
584.50	47531.60
584.66	47529.26
584.82	46894.97
584.98	46756.88
585.14	46068.76
585.30	45436.82
