SpectraSuite Data File
++++++++++++++++++++++++++++++++++++
Date: Mon Oct 07 14:53:56 GMT-05:00 2013
User: price-jones
Dark Spectrum Present: No
Reference Spectrum Present: No
Number of Sampled Component Spectra: 1
Spectrometers: USB2+H05261
Integration Time (usec): 100000 (USB2+H05261)
Spectra Averaged: 1 (USB2+H05261)
Boxcar Smoothing: 0 (USB2+H05261)
Correct for Electrical Dark: No (USB2+H05261)
Strobe/Lamp Enabled: No (USB2+H05261)
Correct for Detector Non-linearity: No (USB2+H05261)
Correct for Stray Light: No (USB2+H05261)
Number of Pixels in Processed Spectrum: 2048
>>>>>Begin Processed Spectral Data<<<<<
365.73	0.00
365.92	0.00
366.12	0.00
366.32	0.00
366.52	0.00
366.72	0.00
366.91	0.00
367.11	0.00
367.31	0.00
367.51	0.00
367.70	0.00
367.90	0.00
368.10	0.00
368.30	0.00
368.49	0.00
368.69	0.00
368.89	0.00
369.09	0.00
369.28	0.00
369.48	0.00
369.68	0.00
369.87	0.00
370.07	0.00
370.27	0.00
370.47	543.00
370.66	2785.24
370.86	3262.71
371.06	3646.55
371.25	3702.73
371.45	3400.80
371.65	3143.34
371.84	2614.38
372.04	2951.42
372.24	3290.79
372.44	3501.44
372.63	3414.84
372.83	3192.49
373.03	2834.39
373.22	2583.95
373.42	2658.85
373.62	3056.74
373.81	3330.58
374.01	3318.88
374.21	3098.87
374.40	2729.06
374.60	2902.26
374.79	3225.26
374.99	3960.19
375.19	4227.01
375.38	4259.78
375.58	3978.91
375.78	3946.14
375.97	3943.80
376.17	4124.02
376.37	4046.79
376.56	4180.20
376.76	4442.34
376.95	4709.16
377.15	5097.69
377.35	5144.50
377.54	5366.85
377.74	5703.89
377.93	5619.63
378.13	5481.53
378.33	5102.37
378.52	4734.90
378.72	4610.86
378.91	4517.23
379.11	4346.37
379.31	4198.92
379.50	4184.88
379.70	4514.89
379.89	4896.40
380.09	5345.78
380.28	5406.64
380.48	5509.62
380.68	5303.65
380.87	5238.12
381.07	4863.63
381.26	4395.53
381.46	4156.79
381.65	3976.57
381.85	3889.97
382.04	3822.09
382.24	3620.81
382.43	3405.48
382.63	3241.64
382.83	3251.00
383.02	3236.96
383.22	3339.94
383.41	3438.25
383.61	3658.26
383.80	4039.76
384.00	4538.30
384.19	5118.75
384.39	5408.98
384.58	5427.70
384.78	5268.55
384.97	5242.80
385.17	4933.85
385.36	4821.50
385.56	4505.53
385.75	4655.33
385.95	5090.67
386.14	5540.05
386.34	5708.57
386.53	5378.55
386.72	4959.60
386.92	5074.28
387.11	5198.33
387.31	5521.32
387.50	5493.24
387.70	5158.54
387.89	5207.69
388.09	5224.08
388.28	5289.61
388.48	5235.78
388.67	5830.27
388.86	6333.49
389.06	6689.25
389.25	7208.85
389.45	7241.62
389.64	7077.78
389.84	6991.18
390.03	7037.99
390.22	6885.86
390.42	7229.91
390.61	7571.63
390.81	8173.15
391.00	8446.99
391.19	8379.12
391.39	8156.77
391.58	7494.40
391.78	7066.08
391.97	6918.62
392.16	6459.88
392.36	6015.18
392.55	4758.31
392.75	3784.65
392.94	3059.08
393.13	3040.36
393.33	3449.95
393.52	4596.81
393.71	5568.13
393.91	6197.74
394.10	6649.46
394.29	7456.95
394.49	8250.39
394.68	8699.77
394.88	8821.48
395.07	9202.99
395.26	8744.24
395.46	8753.60
395.65	8236.35
395.84	7302.47
396.04	6120.50
396.23	4975.98
396.42	4196.58
396.62	3936.78
396.81	4627.24
397.00	5912.19
397.19	7435.88
397.39	8638.92
397.58	9802.16
397.77	10450.49
397.97	10927.96
398.16	11049.67
398.35	11445.22
398.55	11754.17
398.74	12131.00
398.93	12486.76
399.12	12486.76
399.32	11590.33
399.51	11943.75
399.70	13076.57
399.90	12994.65
400.09	12826.14
400.28	12608.47
400.47	12681.02
400.67	13268.50
400.86	13811.50
401.05	13682.77
401.24	13736.60
401.44	13762.35
401.63	14253.86
401.82	14059.60
402.01	14033.85
402.21	14129.81
402.40	14174.28
402.59	13996.40
402.78	13418.29
402.97	12858.90
403.17	13228.71
403.36	14132.15
403.55	14864.74
403.74	15344.55
403.93	14387.27
404.13	13296.58
404.32	12737.20
404.51	13589.15
404.70	14567.49
404.89	14408.34
405.09	14260.88
405.28	13760.01
405.47	13762.35
405.66	13898.10
405.85	13792.78
406.05	13434.68
406.24	13273.18
406.43	13912.14
406.62	14312.38
406.81	14640.05
407.00	13916.83
407.20	13795.12
407.39	13799.80
407.58	14356.85
407.77	15227.53
407.96	15484.98
408.15	15452.22
408.34	15604.35
408.54	16554.61
408.73	16322.90
408.92	16252.68
409.11	15667.55
409.30	15037.94
409.49	14054.92
409.68	13153.81
409.87	12982.95
410.07	13532.98
410.26	14668.14
410.45	15356.25
410.64	15981.18
410.83	16563.97
411.02	16727.81
411.21	17528.27
411.40	17376.14
411.59	17062.51
411.78	17245.07
411.98	16767.60
412.17	17413.59
412.36	16973.56
412.55	17074.21
412.74	16723.13
412.93	16414.18
413.12	16671.64
413.31	18090.00
413.50	18118.09
413.69	18258.52
413.88	17708.49
414.07	17532.95
414.26	17497.84
414.45	18001.06
414.64	18134.47
414.83	18216.39
415.02	17848.93
415.22	18045.53
415.41	18394.27
415.60	18850.67
415.79	19777.53
415.98	20187.12
416.17	20264.36
416.36	19613.69
416.55	19365.59
416.74	18415.34
416.93	18101.70
417.12	17912.12
417.31	18188.30
417.50	18588.53
417.69	19021.53
417.88	18890.46
418.07	18958.34
418.26	18953.66
418.45	18764.07
418.64	19386.66
418.83	20306.49
419.02	19932.00
419.21	19695.61
419.39	18801.52
419.58	17797.43
419.77	18223.41
419.96	18438.74
420.15	19915.62
420.34	20247.97
420.53	21301.22
420.72	21348.03
420.91	21219.30
421.10	21013.33
421.29	20837.79
421.48	20430.54
421.67	21165.46
421.86	20608.42
422.05	19178.35
422.24	17205.28
422.43	16816.75
422.61	18668.11
422.80	20182.44
422.99	20453.94
423.18	19634.75
423.37	19393.68
423.56	19101.11
423.75	19332.82
423.94	19716.67
424.13	18752.37
424.32	18635.35
424.50	19211.12
424.69	18970.04
424.88	18995.79
425.07	19026.21
425.26	18848.33
425.45	18719.60
425.64	18560.45
425.83	18345.12
426.01	19489.64
426.20	19920.30
426.39	19665.18
426.58	18459.81
426.77	17104.64
426.96	16418.86
427.15	16886.97
427.33	18595.56
427.52	19101.11
427.71	19154.94
427.90	19131.54
428.09	18745.35
428.28	18279.58
428.46	18029.15
428.65	17322.30
428.84	17987.02
429.03	18317.03
429.22	17514.23
429.40	16379.07
429.59	14710.27
429.78	12931.46
429.97	13170.19
430.16	13214.66
430.34	13511.91
430.53	13474.46
430.72	13696.82
430.91	15335.19
431.10	17837.22
431.28	21303.56
431.47	22572.13
431.66	22567.45
431.85	20676.29
432.03	19318.78
432.22	18242.14
432.41	19274.31
432.60	20725.44
432.79	21734.21
432.97	22569.79
433.16	21855.92
433.35	20081.80
433.54	18075.96
433.72	16858.88
433.91	17502.53
434.10	19482.62
434.28	20746.51
434.47	21788.05
434.66	21535.27
434.85	21013.33
435.03	21022.69
435.22	21638.25
435.41	22955.97
435.59	22958.31
435.78	23047.26
435.97	23892.19
436.16	24023.26
436.34	23407.70
436.53	22937.25
436.72	22740.64
436.90	21844.22
437.09	21940.18
437.28	21294.19
437.46	22480.85
437.65	21860.60
437.84	20442.24
438.02	19075.37
438.21	18899.83
438.40	20072.43
438.58	21055.46
438.77	22019.76
438.96	22228.07
439.14	23353.87
439.33	23875.80
439.52	23915.59
439.70	23882.83
439.89	23084.70
440.08	22291.26
440.26	22209.34
440.45	23300.03
440.63	24744.14
440.82	26106.34
441.01	25584.40
441.19	25322.26
441.38	25984.63
441.57	26820.20
441.75	27318.73
441.94	26904.46
442.12	26979.36
442.31	27470.87
442.50	27269.58
442.68	26778.07
442.87	26529.97
443.05	26288.90
443.24	27281.28
443.43	27861.74
443.61	27899.19
443.80	28240.90
443.98	26520.61
444.17	26714.87
444.35	28053.66
444.54	28959.45
444.73	28290.06
444.91	27194.68
445.10	26022.08
445.28	25027.35
445.47	24730.10
445.65	24844.79
445.84	25729.51
446.02	26246.77
446.21	26405.92
446.39	26635.30
446.58	26775.73
446.77	27733.01
446.95	27510.66
447.14	28371.97
447.32	28388.36
447.51	28231.54
447.69	27276.60
447.88	26658.70
448.06	27136.17
448.25	28018.55
448.43	28329.84
448.62	27536.40
448.80	27140.85
448.99	27733.01
449.17	27899.19
449.36	27700.24
449.54	29156.05
449.73	29310.53
449.91	29663.95
450.10	30239.72
450.28	31248.49
450.46	30349.73
450.65	30478.46
450.83	30316.96
451.02	30089.93
451.20	29488.41
451.39	29961.20
451.57	29200.52
451.76	29413.51
451.94	29069.45
452.13	28528.79
452.31	27285.97
452.49	26160.17
452.68	26457.42
452.86	26274.85
453.05	26560.40
453.23	27536.40
453.42	28364.95
453.60	28971.15
453.78	29422.87
453.97	28854.12
454.15	29106.90
454.34	28481.98
454.52	28662.20
454.70	27927.27
454.89	28175.37
455.07	28489.00
455.26	28655.18
455.44	29797.36
455.62	30773.36
455.81	30820.17
455.99	30314.62
456.17	29961.20
456.36	30059.50
456.54	30630.59
456.73	30857.62
456.91	31220.41
457.09	31524.68
457.28	32063.00
457.46	30625.91
457.64	30305.26
457.83	29879.28
458.01	28905.62
458.19	29598.41
458.38	30143.76
458.56	30916.14
458.74	30696.13
458.93	30218.66
459.11	30153.12
459.29	29921.41
459.48	30338.02
459.66	30118.01
459.84	30401.22
460.03	30433.99
460.21	30773.36
460.39	31307.01
460.57	31147.85
460.76	31555.10
460.94	31732.98
461.12	31229.77
461.31	31426.37
461.49	31344.45
461.67	31365.52
461.85	32474.93
462.04	32023.21
462.22	32945.38
462.40	32151.94
462.59	31990.44
462.77	32311.10
462.95	32254.92
463.13	32168.32
463.32	31197.00
463.50	31248.49
463.68	31543.40
463.86	31524.68
464.05	30859.96
464.23	30265.47
464.41	30120.35
464.59	29640.54
464.78	31330.41
464.96	30848.26
465.14	30415.26
465.32	31522.34
465.50	32409.40
465.69	32376.63
465.87	31796.18
466.05	30822.51
466.23	29935.45
466.41	28687.95
466.60	29619.48
466.78	29785.66
466.96	30876.35
467.14	30876.35
467.32	31173.60
467.51	31143.17
467.69	29890.98
467.87	30441.01
468.05	30932.52
468.23	30859.96
468.41	31356.16
468.60	31049.55
468.78	31150.19
468.96	30974.65
469.14	31704.90
469.32	31709.58
469.50	30174.19
469.69	30532.29
469.87	30295.89
470.05	30106.31
470.23	29790.34
470.41	29902.68
470.59	30466.75
470.77	30871.67
470.95	31257.85
471.14	31473.18
471.32	31999.80
471.50	33652.22
471.68	33408.81
471.86	34024.37
472.04	34206.93
472.22	34265.44
472.40	32119.17
472.58	32498.34
472.77	31868.73
472.95	32835.38
473.13	33202.84
473.31	31957.67
473.49	32650.47
473.67	32999.21
473.85	33415.83
474.03	34279.49
474.21	34590.78
474.39	34635.25
474.57	34939.52
474.75	34892.71
474.93	34897.39
475.12	33762.23
475.30	33713.08
475.48	34043.09
475.66	34265.44
475.84	34330.98
476.02	33556.26
476.20	33132.62
476.38	33830.10
476.56	34871.64
476.74	35264.85
476.92	35739.98
477.10	36395.33
477.28	37146.64
477.46	37020.25
477.64	37532.83
477.82	37635.81
478.00	37481.34
478.18	36905.57
478.36	37371.33
478.54	36959.40
478.72	37308.14
478.90	38181.16
479.08	38878.64
479.26	39826.56
479.44	39164.18
479.62	39058.86
479.80	39068.22
479.98	39676.76
480.16	39922.52
480.34	38911.41
480.52	39585.48
480.70	40051.25
480.88	39611.23
481.06	40818.94
481.24	41268.33
481.41	41813.67
481.59	42176.45
481.77	42040.70
481.95	41862.82
482.13	41483.66
482.31	41523.44
482.49	41982.19
482.67	42225.60
482.85	42206.88
483.03	42810.74
483.21	43065.86
483.39	42731.16
483.57	42724.14
483.74	41794.95
483.92	42192.84
484.10	42539.24
484.28	43456.73
484.46	43990.37
484.64	44374.22
484.82	43344.38
485.00	43199.27
485.18	42340.29
485.35	40971.08
485.53	38040.73
485.71	34813.13
485.89	34127.35
486.07	35683.81
486.25	39220.36
486.43	41074.06
486.61	42019.64
486.78	41909.63
486.96	41928.36
487.14	43817.17
487.32	44488.90
487.50	45539.80
487.68	46880.93
487.85	47189.88
488.03	47487.13
488.21	46340.27
488.39	46220.90
488.57	45495.33
488.75	44685.51
488.92	46082.81
489.10	48704.21
489.28	49937.67
489.46	50534.51
489.64	50632.81
489.81	50543.87
489.99	50174.06
490.17	50232.58
490.35	50717.07
490.53	50141.30
490.70	49560.84
490.88	49378.28
491.06	50887.93
491.24	50632.81
491.41	49701.28
491.59	47791.40
491.77	46953.49
491.95	48168.22
492.13	49361.90
492.30	50623.45
492.48	51903.72
492.66	52362.46
492.84	52184.58
493.01	51845.21
493.19	51341.99
493.37	50827.07
493.54	50841.12
493.72	51285.82
493.90	52481.83
494.08	53310.38
494.25	53499.97
494.43	53652.10
494.61	54370.64
494.79	54178.72
494.96	54057.01
495.14	53401.66
495.32	52418.64
495.49	51718.82
495.67	53099.73
495.85	54309.79
496.02	54794.28
496.20	54609.38
496.38	54167.02
496.55	53977.43
496.73	54672.57
496.91	54820.03
497.09	55264.73
497.26	55409.84
497.44	54555.55
497.62	54351.92
497.79	53502.31
497.97	52133.09
498.14	52383.53
498.32	53609.97
498.50	54405.75
498.67	55215.58
498.85	54923.01
499.03	54960.46
499.20	55105.57
499.38	55388.78
499.56	55466.02
499.73	54665.55
499.91	54106.16
500.08	53869.77
500.26	52999.09
500.44	53591.25
500.61	54101.48
500.79	53832.32
500.97	53357.19
501.14	53057.60
501.32	53202.72
501.49	53207.40
501.67	53303.36
501.84	54281.70
502.02	54291.07
502.20	54614.06
502.37	54944.08
502.55	54681.94
502.72	55274.09
502.90	55849.86
503.07	55587.72
503.25	55037.70
503.43	54543.84
503.60	53614.65
503.78	52856.32
503.95	53226.12
504.13	54880.88
504.30	55669.64
504.48	55451.97
504.65	55260.05
504.83	55047.06
505.01	55592.40
505.18	56222.01
505.36	56704.16
505.53	56802.46
505.71	57045.88
505.88	57057.58
506.06	56596.49
506.23	55875.61
506.41	55398.14
506.58	55838.16
506.76	55854.54
506.93	55842.84
507.11	55611.13
507.28	55646.24
507.46	55224.94
507.63	54789.60
507.81	54471.29
507.98	54646.83
508.16	55297.50
508.33	56081.58
508.50	56308.61
508.68	56811.82
508.85	57083.33
509.03	57258.87
509.20	57064.60
509.38	56385.85
509.55	55304.52
509.73	55538.57
509.90	56039.45
510.08	56282.86
510.25	56250.09
510.42	56266.48
510.60	56095.62
510.77	56385.85
510.95	56811.82
511.12	56956.94
511.30	57371.21
511.47	57546.75
511.64	57453.13
511.82	57069.28
511.99	56296.91
512.17	55852.20
512.34	55192.17
512.51	55693.05
512.69	55739.86
512.86	56018.38
513.04	56425.64
513.21	56339.04
513.38	55971.57
513.56	55543.25
513.73	54663.21
513.90	55295.16
514.08	55084.51
514.25	55693.05
514.43	55737.52
514.60	55660.28
514.77	55915.40
514.95	56212.65
515.12	55980.93
515.29	56252.44
515.47	56633.94
515.64	56816.50
515.81	56533.30
515.99	55803.05
516.16	54431.50
516.33	52016.07
516.51	50295.77
516.68	49132.53
516.85	48708.89
517.03	49235.51
517.20	52369.49
517.37	55082.17
517.54	56193.92
517.72	55587.72
517.89	52846.96
518.06	50239.60
518.24	50373.01
518.41	53050.58
518.58	54321.49
518.75	54820.03
518.93	54857.48
519.10	54745.13
519.27	55257.71
519.45	55590.06
519.62	56179.88
519.79	56416.27
519.96	56294.56
520.14	55798.37
520.31	54934.71
520.48	55042.38
520.65	55274.09
520.83	56437.34
521.00	56832.89
521.17	56406.91
521.34	56044.13
521.52	56266.48
521.69	57003.75
521.86	57254.18
522.03	56816.50
522.20	55657.94
522.38	54635.13
522.55	54417.46
522.72	55187.49
522.89	55379.42
523.07	55594.74
523.24	55999.66
523.41	56802.46
523.58	57188.65
523.75	57429.72
523.92	57415.68
524.10	57623.99
524.27	57331.42
524.44	57233.12
524.61	56830.55
524.78	56769.69
524.96	56669.05
525.13	56605.86
525.30	56938.21
525.47	57492.92
525.64	57219.08
525.81	56481.81
525.98	55114.94
526.16	53769.13
526.33	52971.00
526.50	52509.92
526.67	52100.32
526.84	52715.89
527.01	54031.27
527.18	54623.42
527.36	55704.75
527.53	56458.40
527.70	56774.37
527.87	56348.40
528.04	55688.37
528.21	56175.20
528.38	56858.63
528.55	57530.37
528.72	57635.69
528.89	57858.04
529.07	57755.06
529.24	56961.62
529.41	56285.20
529.58	55955.19
529.75	55929.44
529.92	56257.12
530.09	56891.40
530.26	57209.71
530.43	57375.89
530.60	57499.94
530.77	57661.44
530.94	57726.97
531.11	57275.25
531.28	56945.23
531.46	56680.75
531.63	57038.86
531.80	56856.29
531.97	56376.48
532.14	55519.85
532.31	54461.93
532.48	53876.79
532.65	53734.02
532.82	54646.83
532.99	56104.98
533.16	56418.61
533.33	56879.70
533.50	56795.44
533.67	55887.31
533.84	55491.76
534.01	55772.63
534.18	56112.00
534.35	56327.33
534.52	56053.49
534.69	56364.78
534.86	56664.37
535.03	56945.23
535.20	57418.02
535.37	57811.23
535.54	57851.02
535.71	57593.56
535.88	57085.67
536.05	56374.14
536.22	55962.21
536.38	55896.67
536.55	55309.20
536.72	54665.55
536.89	54515.76
537.06	55323.24
537.23	56446.70
537.40	56502.87
537.57	56521.60
537.74	56367.12
537.91	56392.87
538.08	56257.12
538.25	56357.76
538.42	56713.52
538.59	56427.98
538.75	55707.09
538.92	55318.56
539.09	55040.04
539.26	55023.65
539.43	55082.17
539.60	55119.62
539.77	55023.65
539.94	54976.84
540.11	54071.06
540.28	53766.79
540.44	53787.85
540.61	54134.25
540.78	54162.34
540.95	54763.85
541.12	54904.29
541.29	55494.10
541.46	55760.92
541.62	55751.56
541.79	55735.18
541.96	55210.90
542.13	54932.37
542.30	55018.97
542.47	55482.40
542.63	55246.00
542.80	54848.11
542.97	55023.65
543.14	54883.22
543.31	54686.62
543.48	55599.43
543.64	56308.61
543.81	56676.07
543.98	56193.92
544.15	55496.44
544.32	54934.71
544.48	54997.91
544.65	55716.45
544.82	55863.91
544.99	55643.90
545.16	55075.15
545.32	54904.29
545.49	55791.35
545.66	56144.77
545.83	55732.84
546.00	55477.72
546.16	55061.10
546.33	55285.79
546.50	55384.10
546.67	55550.27
546.83	55264.73
547.00	55243.66
547.17	54358.94
547.34	53595.93
547.50	53642.74
547.67	54181.06
547.84	54387.03
548.00	54770.88
548.17	55405.16
548.34	55002.59
548.51	55234.30
548.67	55051.74
548.84	55531.55
549.01	55136.00
549.18	55180.47
549.34	55000.25
549.51	55107.91
549.68	55152.38
549.84	54609.38
550.01	54286.39
550.18	54358.94
550.34	54691.30
550.51	54691.30
550.68	54782.58
550.84	54110.85
551.01	54157.66
551.18	54042.97
551.34	54499.37
551.51	54803.64
551.68	55121.96
551.84	54890.24
552.01	54927.69
552.18	54740.45
552.34	54307.45
552.51	53492.94
552.68	53345.49
552.84	53984.46
553.01	54239.57
553.18	54272.34
553.34	54272.34
553.51	54440.86
553.67	54546.18
553.84	54862.16
554.01	54714.70
554.17	54298.09
554.34	54337.88
554.51	54897.27
554.67	55030.68
554.84	54733.43
555.00	54457.24
555.17	54174.04
555.33	54270.00
555.50	54129.57
555.67	54042.97
555.83	53937.65
556.00	53631.04
556.16	53544.44
556.33	53284.64
556.50	52935.90
556.66	52994.41
556.83	52853.98
556.99	53221.44
557.16	52938.24
557.32	53434.43
557.49	53518.69
557.65	53333.79
557.82	53408.68
557.98	53366.55
558.15	52928.87
558.32	51973.94
558.48	50820.05
558.65	51304.54
558.81	51508.17
558.98	52165.86
559.14	52086.28
559.31	52163.52
559.47	52062.88
559.64	51728.18
559.80	51402.85
559.97	51756.27
560.13	51760.95
560.30	53263.57
560.46	53525.71
560.63	53883.81
560.79	53900.20
560.96	53308.04
561.12	51973.94
561.29	51201.56
561.45	51194.54
561.61	51784.35
561.78	52280.55
561.94	52374.17
562.11	51849.89
562.27	51899.04
562.44	52163.52
562.60	52861.00
562.77	52928.87
562.93	52875.04
563.10	52631.63
563.26	52322.68
563.42	52229.05
563.59	51613.49
563.75	52018.41
563.92	51980.96
564.08	51777.33
564.24	52353.10
564.41	52186.92
564.57	52018.41
564.74	51842.87
564.90	51751.59
565.07	51447.32
565.23	50908.99
565.39	50485.36
565.56	50087.46
565.72	49705.96
565.88	50115.55
566.05	50557.91
566.21	50597.70
566.38	50946.44
566.54	51217.94
566.70	51351.35
566.87	51835.84
567.03	51791.37
567.19	52072.24
567.36	51721.16
567.52	51349.01
567.68	51241.35
567.85	50293.43
568.01	49642.76
568.17	49572.55
568.34	49439.14
568.50	49408.71
568.66	49745.75
568.83	50117.89
568.99	50281.73
569.15	50506.42
569.32	50138.96
569.48	49743.41
569.64	49364.24
569.81	49560.84
569.97	49371.26
570.13	49095.08
570.30	48736.98
570.46	48123.75
570.62	47643.94
570.78	47632.24
570.95	47384.15
571.11	48563.78
571.27	48643.35
571.43	49155.93
571.60	49844.05
571.76	49689.57
571.92	49909.58
572.09	50218.53
572.25	50183.43
572.41	50120.23
572.57	49979.80
572.74	49769.15
572.90	49249.55
573.06	49595.95
573.22	49511.69
573.38	49553.82
573.55	49628.72
573.71	49441.48
573.87	49499.99
574.03	49382.96
574.20	48999.12
574.36	48973.37
574.52	48535.69
574.68	48477.18
574.84	48172.91
575.01	47484.79
575.17	47189.88
575.33	47599.47
575.49	47833.53
575.65	48259.51
575.82	48196.31
575.98	47489.47
576.14	47924.81
576.30	48542.71
576.46	48533.35
576.62	48170.57
576.79	48729.95
576.95	47915.45
577.11	47639.26
577.27	47833.53
577.43	48074.60
577.59	47833.53
577.75	47033.07
577.92	46227.92
578.08	46286.43
578.24	46120.26
578.40	46616.45
578.56	46880.93
578.72	46796.67
578.88	47009.66
579.04	47208.61
579.21	47393.51
579.37	47344.36
579.53	47440.32
579.69	47641.60
579.85	47587.77
580.01	47250.74
580.17	46717.09
580.33	46871.57
580.49	47058.81
580.65	47264.78
580.82	47550.32
580.98	47187.54
581.14	47386.49
581.30	47384.15
581.46	46941.78
581.62	47592.45
581.78	47398.19
581.94	47807.78
582.10	47545.64
582.26	47587.77
582.42	47599.47
582.58	47437.98
582.74	47463.72
582.90	47388.83
583.06	47503.51
583.22	47519.90
583.38	47313.93
583.54	46920.72
583.70	47260.10
583.86	46850.50
584.02	47072.85
584.18	47068.17
584.34	46625.81
584.50	46714.75
584.66	46724.11
584.82	45827.69
584.98	46202.18
585.14	45621.72
585.30	44959.35
