SpectraSuite Data File
++++++++++++++++++++++++++++++++++++
Date: Mon Oct 07 14:55:02 GMT-05:00 2013
User: price-jones
Dark Spectrum Present: No
Reference Spectrum Present: No
Number of Sampled Component Spectra: 1
Spectrometers: USB2+H05261
Integration Time (usec): 10000 (USB2+H05261)
Spectra Averaged: 1 (USB2+H05261)
Boxcar Smoothing: 0 (USB2+H05261)
Correct for Electrical Dark: No (USB2+H05261)
Strobe/Lamp Enabled: No (USB2+H05261)
Correct for Detector Non-linearity: No (USB2+H05261)
Correct for Stray Light: No (USB2+H05261)
Number of Pixels in Processed Spectrum: 2048
>>>>>Begin Processed Spectral Data<<<<<
365.73	0.00
365.92	0.00
366.12	0.00
366.32	0.00
366.52	0.00
366.72	0.00
366.91	0.00
367.11	0.00
367.31	0.00
367.51	0.00
367.70	0.00
367.90	0.00
368.10	0.00
368.30	0.00
368.49	0.00
368.69	0.00
368.89	0.00
369.09	0.00
369.28	0.00
369.48	0.00
369.68	0.00
369.87	0.00
370.07	0.00
370.27	0.00
370.47	430.66
370.66	2745.45
370.86	3070.78
371.06	3375.05
371.25	3349.31
371.45	2986.52
371.65	2726.72
371.84	2532.46
372.04	2848.43
372.24	3138.66
372.44	3131.64
372.63	3009.93
372.83	2888.22
373.03	2415.43
373.22	2410.75
373.42	2600.34
373.62	3045.04
373.81	3133.98
374.01	2974.82
374.21	2602.68
374.40	2607.36
374.60	2820.35
374.79	3272.07
374.99	3672.30
375.19	3808.05
375.38	3817.41
375.58	3564.64
375.78	3564.64
375.97	3691.02
376.17	3681.66
376.37	3796.35
376.56	3960.19
376.76	4248.07
376.95	4369.78
377.15	4713.84
377.35	4774.69
377.54	5144.50
377.74	5062.58
377.93	5097.69
378.13	4816.82
378.33	4519.57
378.52	4287.86
378.72	4147.43
378.91	4241.05
379.11	4014.02
379.31	3824.44
379.50	3798.69
379.70	4194.24
379.89	4709.16
380.09	4812.14
380.28	4957.25
380.48	5011.09
380.68	4985.34
380.87	4940.87
381.07	4353.40
381.26	4030.40
381.46	3772.94
381.65	3662.94
381.85	3672.30
382.04	3337.60
382.24	3162.06
382.43	3138.66
382.63	2895.24
382.83	2918.65
383.02	3002.91
383.22	3047.38
383.41	3183.13
383.61	3417.18
383.80	3985.93
384.00	4444.68
384.19	4999.38
384.39	5210.03
384.58	5123.43
384.78	4767.67
384.97	4940.87
385.17	4709.16
385.36	4287.86
385.56	4138.07
385.75	4531.28
385.95	5069.60
386.14	5371.53
386.34	5217.05
386.53	5020.45
386.72	4528.94
386.92	4842.57
387.11	5263.86
387.31	5139.82
387.50	5109.39
387.70	4957.25
387.89	4999.38
388.09	5046.20
388.28	5050.88
388.48	5144.50
388.67	5577.50
388.86	6239.87
389.06	6560.52
389.25	6932.67
389.45	6864.79
389.64	6935.01
389.84	6832.02
390.03	6593.29
390.22	6890.54
390.42	7192.47
390.61	7297.79
390.81	7974.21
391.00	7946.12
391.19	7777.60
391.39	7611.42
391.58	7164.38
391.78	6745.42
391.97	6567.54
392.16	6291.36
392.36	5167.90
392.55	4212.96
392.75	3365.69
392.94	2979.50
393.13	3021.63
393.33	3632.51
393.52	4741.93
393.71	5724.95
393.91	6267.95
394.10	6906.92
394.29	7583.34
394.49	8093.57
394.68	8376.78
394.88	8383.80
395.07	8704.45
395.26	8685.73
395.46	8411.89
395.65	7850.16
395.84	6483.28
396.04	5493.24
396.23	4557.02
396.42	3782.31
396.62	4023.38
396.81	4863.63
397.00	6186.04
397.19	7494.40
397.39	9160.86
397.58	9928.55
397.77	10619.01
397.97	10619.01
398.16	10890.51
398.35	11585.65
398.55	11375.00
398.74	12016.31
398.93	12023.33
399.12	12044.40
399.32	11569.27
399.51	12016.31
399.70	12538.25
399.90	12336.96
400.09	12360.37
400.28	12243.34
400.47	12645.91
400.67	13429.99
400.86	13666.39
401.05	13413.61
401.24	13593.83
401.44	13881.72
401.63	14106.41
401.82	13806.82
402.01	13886.40
402.21	14150.88
402.40	14155.56
402.59	13605.53
402.78	12833.16
402.97	12821.45
403.17	13628.94
403.36	14441.11
403.55	14703.25
403.74	14665.80
403.93	13806.82
404.13	12636.55
404.32	12910.40
404.51	13298.92
404.70	14246.84
404.89	14267.91
405.09	14223.44
405.28	13771.71
405.47	13912.14
405.66	13994.06
405.85	13305.95
406.05	13083.59
406.24	13502.55
406.43	13998.74
406.62	14307.69
406.81	14267.91
407.00	14169.60
407.20	13624.26
407.39	13982.36
407.58	14920.92
407.77	15208.80
407.96	15700.31
408.15	15908.62
408.34	15946.07
408.54	16545.25
408.73	16233.96
408.92	16407.16
409.11	15564.56
409.30	14977.09
409.49	13680.43
409.68	12784.01
409.87	12807.41
410.07	13954.27
410.26	14864.74
410.45	15496.69
410.64	16018.63
410.83	16449.28
411.02	17071.87
411.21	17317.62
411.40	17441.67
411.59	17593.81
411.78	17654.66
411.98	17275.49
412.17	17448.69
412.36	17371.46
412.55	17090.59
412.74	16910.37
412.93	16449.28
413.12	17069.53
413.31	18679.82
413.50	18675.13
413.69	18728.97
413.88	17759.98
414.07	17577.42
414.26	18321.71
414.45	18483.21
414.64	18342.78
414.83	18689.18
415.02	18024.47
415.22	18501.93
415.41	18824.93
415.60	19220.48
415.79	20177.76
415.98	20339.26
416.17	20074.77
416.36	19840.72
416.55	19702.63
416.74	18544.06
416.93	18057.23
417.12	18600.24
417.31	18778.12
417.50	19166.65
417.69	19550.49
417.88	19403.04
418.07	19159.63
418.26	18995.79
418.45	19314.10
418.64	20329.89
418.83	21090.57
419.02	20425.86
419.21	19765.82
419.39	19094.09
419.58	18855.36
419.77	18691.52
419.96	19920.30
420.15	20776.94
420.34	21720.17
420.53	21919.12
420.72	22438.72
420.91	22031.46
421.10	21717.83
421.29	21219.30
421.48	21088.23
421.67	22113.38
421.86	20702.04
422.05	19269.63
422.24	17420.61
422.43	18525.34
422.61	20091.16
422.80	21015.67
422.99	20636.50
423.18	20046.69
423.37	20034.99
423.56	20542.88
423.75	20790.98
423.94	21039.08
424.13	19702.63
424.32	19662.84
424.50	20079.46
424.69	19868.81
424.88	20144.99
425.07	20365.00
425.26	20119.24
425.45	19281.33
425.64	19173.67
425.83	19541.13
426.01	20617.78
426.20	20812.04
426.39	20524.16
426.58	19115.16
426.77	17743.60
426.96	17598.49
427.15	18057.23
427.33	19784.55
427.52	20350.96
427.71	20077.12
427.90	19826.68
428.09	20156.69
428.28	19073.03
428.46	18310.01
428.65	18455.12
428.84	19365.59
429.03	19300.06
429.22	17989.36
429.40	16699.72
429.59	15389.02
429.78	13584.47
429.97	14022.15
430.16	14127.47
430.34	13905.12
430.53	14218.75
430.72	15241.57
430.91	17022.72
431.10	19868.81
431.28	23082.36
431.47	24240.93
431.66	23543.45
431.85	21132.70
432.03	19667.52
432.22	19892.21
432.41	21612.51
432.60	22972.36
432.79	23496.64
432.97	23627.71
433.16	23065.98
433.35	20538.20
433.54	18759.39
433.72	18188.30
433.91	19452.19
434.10	21656.98
434.28	22829.59
434.47	23676.86
434.66	22787.46
434.85	22197.64
435.03	22764.05
435.22	22953.63
435.41	24507.75
435.59	24863.51
435.78	25275.45
435.97	25202.89
436.16	25572.69
436.34	25179.48
436.53	24573.28
436.72	24950.11
436.90	23648.77
437.09	23482.59
437.28	22913.84
437.46	23798.57
437.65	23255.56
437.84	21226.32
438.02	20547.56
438.21	20783.96
438.40	21223.98
438.58	22979.38
438.77	24247.95
438.96	24154.33
439.14	25886.32
439.33	25839.51
439.52	25773.98
439.70	25146.72
439.89	24306.46
440.08	24201.14
440.26	24395.40
440.45	25663.97
440.63	26932.54
440.82	28058.34
441.01	27274.26
441.19	27234.47
441.38	28381.34
441.57	29359.68
441.75	29249.67
441.94	29560.97
442.12	29312.87
442.31	30008.01
442.50	29654.59
442.68	29207.55
442.87	29277.76
443.05	28797.95
443.24	29081.16
443.43	29560.97
443.61	30181.21
443.80	30703.15
443.98	29345.64
444.17	29149.03
444.35	30279.51
444.54	31075.29
444.73	30096.95
444.91	28833.06
445.10	27758.75
445.28	27208.73
445.47	26923.18
445.65	26583.80
445.84	27901.53
446.02	28781.57
446.21	29039.03
446.39	29319.89
446.58	29638.20
446.77	30609.53
446.95	30639.95
447.14	30799.11
447.32	31838.31
447.51	31021.46
447.69	29549.26
447.88	29663.95
448.06	30029.07
448.25	30408.24
448.43	30237.38
448.62	30092.27
448.80	29986.94
448.99	30087.59
449.17	30525.27
449.36	31208.70
449.54	31896.82
449.73	31960.02
449.91	32332.16
450.10	33785.63
450.28	33544.56
450.46	33558.60
450.65	33518.81
450.83	32961.76
451.02	32793.25
451.20	32966.45
451.39	32980.49
451.57	32814.31
451.76	32645.79
451.94	31992.78
452.13	31285.94
452.31	29436.92
452.49	28308.78
452.68	29343.30
452.86	29450.96
453.05	29940.13
453.23	31424.03
453.42	31749.37
453.60	32158.96
453.78	32409.40
453.97	31892.14
454.15	31445.10
454.34	30125.04
454.52	30342.70
454.70	30670.38
454.89	31751.71
455.07	31089.34
455.26	32219.81
455.44	33013.26
455.62	33151.35
455.81	32996.87
455.99	32985.17
456.17	33621.80
456.36	34026.71
456.54	34443.32
456.73	33720.10
456.91	34260.76
457.09	34588.44
457.28	35276.55
457.46	33724.78
457.64	33425.19
457.83	32961.76
458.01	32624.73
458.19	34089.90
458.38	34096.92
458.56	34904.41
458.74	34244.38
458.93	33677.97
459.11	32870.48
459.29	33163.05
459.48	33656.90
459.66	33579.67
459.84	33677.97
460.03	34092.24
460.21	34675.04
460.39	35489.54
460.57	34298.21
460.76	34637.59
460.94	35405.28
461.12	34960.58
461.31	35248.47
461.49	35461.46
461.67	35175.91
461.85	35913.18
462.04	35903.82
462.22	36180.00
462.40	35857.01
462.59	35323.36
462.77	35819.56
462.95	36135.53
463.13	35356.13
463.32	34742.91
463.50	34749.93
463.68	34930.16
463.86	35264.85
464.05	34239.70
464.23	33469.66
464.41	33776.27
464.59	33462.64
464.78	35061.22
464.96	34244.38
465.14	33825.42
465.32	35398.26
465.50	36620.02
465.69	37200.47
465.87	35922.54
466.05	34469.07
466.23	33483.70
466.41	32098.11
466.60	33799.68
466.78	33806.70
466.96	33944.79
467.14	34899.73
467.32	34778.02
467.51	35065.91
467.69	32945.38
467.87	34469.07
468.05	35227.40
468.23	34773.34
468.41	34555.67
468.60	34995.69
468.78	35562.10
468.96	35281.24
469.14	35969.35
469.32	36098.08
469.50	33926.07
469.69	34298.21
469.87	34216.29
470.05	33701.37
470.23	33762.23
470.41	34178.84
470.59	34361.40
470.77	34436.30
470.95	35426.35
471.14	35948.29
471.32	36320.43
471.50	37933.06
471.68	37469.64
471.86	37893.27
472.04	37715.39
472.22	38043.07
472.40	36811.95
472.58	36222.13
472.77	36006.80
472.95	36858.76
473.13	37876.89
473.31	36477.25
473.49	36205.75
473.67	37170.05
473.85	37979.87
474.03	39545.69
474.21	39882.73
474.39	39838.26
474.57	39344.41
474.75	39798.47
474.93	38822.47
475.12	37975.19
475.30	38520.54
475.48	37900.29
475.66	38305.21
475.84	38010.30
476.02	38352.02
476.20	37600.71
476.38	38590.75
476.56	39871.03
476.74	40341.47
476.92	40823.62
477.10	40786.18
477.28	41621.75
477.46	42190.50
477.64	42653.92
477.82	42773.29
478.00	42974.58
478.18	41790.27
478.36	40811.92
478.54	41464.93
478.72	42337.95
478.90	44034.84
479.08	45488.31
479.26	45123.19
479.44	46021.95
479.62	44865.73
479.80	45776.20
479.98	45289.37
480.16	45684.92
480.34	44797.85
480.52	45783.22
480.70	45755.13
480.88	45350.22
481.06	46326.22
481.24	46880.93
481.41	47136.05
481.59	48727.61
481.77	47117.32
481.95	46651.56
482.13	46492.40
482.31	47159.45
482.49	48573.14
482.67	47452.02
482.85	47854.59
483.03	47966.94
483.21	48835.28
483.39	48311.00
483.57	48013.75
483.74	47920.13
483.92	48570.80
484.10	48112.05
484.28	48069.92
484.46	48250.14
484.64	49991.50
484.82	48797.83
485.00	48336.74
485.18	48212.70
485.35	45689.60
485.53	39964.65
485.71	38337.98
485.89	39215.68
486.07	42096.88
486.25	44257.19
486.43	46948.81
486.61	46913.70
486.78	46564.96
486.96	47880.34
487.14	49279.98
487.32	50155.34
487.50	50829.41
487.68	52044.15
487.85	52673.76
488.03	51995.00
488.21	51480.08
488.39	51224.96
488.57	49790.22
488.75	50014.91
488.92	51484.76
489.10	53181.65
489.28	54209.15
489.46	55529.21
489.64	55093.87
489.81	55217.92
489.99	54401.07
490.17	54749.81
490.35	54820.03
490.53	54429.16
490.70	54169.36
490.88	53937.65
491.06	55002.59
491.24	55728.16
491.41	54541.50
491.59	53022.50
491.77	52811.85
491.95	53958.71
492.13	55292.82
492.30	55718.79
492.48	56189.24
492.66	56750.97
492.84	56257.12
493.01	56217.33
493.19	55903.70
493.37	55615.81
493.54	55899.01
493.72	56783.74
493.90	57064.60
494.08	57359.51
494.25	57612.29
494.43	58136.57
494.61	58464.24
494.79	58157.63
494.96	58740.42
495.14	58164.65
495.32	56898.42
495.49	57085.67
495.67	58078.05
495.85	58894.90
496.02	59344.28
496.20	58616.38
496.38	58396.37
496.55	58555.52
496.73	59110.23
496.91	59334.92
497.09	59143.00
497.26	59629.83
497.44	59023.63
497.62	58508.71
497.79	57570.16
497.97	56938.21
498.14	57581.86
498.32	58702.98
498.50	58787.24
498.67	58604.67
498.85	58637.44
499.03	59437.90
499.20	59629.83
499.38	59187.47
499.56	58438.50
499.73	58482.97
499.91	58321.47
500.08	57668.46
500.26	57361.85
500.44	58049.97
500.61	58497.01
500.79	58099.12
500.97	58312.11
501.14	57357.17
501.32	57017.79
501.49	57474.20
501.67	58026.56
501.84	58092.10
502.02	58548.50
502.20	59341.94
502.37	59206.19
502.55	59339.60
502.72	59817.07
502.90	60416.25
503.07	59990.27
503.25	59009.59
503.43	58085.07
503.60	57916.56
503.78	57687.18
503.95	58314.45
504.13	59346.62
504.30	59538.55
504.48	59145.34
504.65	59337.26
504.83	59503.44
505.01	60287.52
505.18	60519.23
505.36	60683.07
505.53	60877.33
505.71	60743.92
505.88	61031.81
506.06	60552.00
506.23	60376.46
506.41	60048.78
506.58	60463.06
506.76	60294.54
506.93	59671.96
507.11	59557.27
507.28	59913.03
507.46	59257.68
507.63	59374.71
507.81	58864.47
507.98	59238.96
508.16	60509.87
508.33	60350.71
508.50	60619.88
508.68	61209.69
508.85	61221.39
509.03	61343.10
509.20	60818.82
509.38	60069.85
509.55	60088.57
509.73	60245.39
509.90	60404.55
510.08	60512.21
510.25	59976.23
510.42	60039.42
510.60	60339.01
510.77	60577.75
510.95	60718.18
511.12	61099.68
511.30	61790.14
511.47	62026.54
511.64	61649.71
511.82	61740.99
511.99	60650.30
512.17	60711.16
512.34	60179.85
512.51	60140.07
512.69	60664.35
512.86	60346.03
513.04	60465.40
513.21	60009.00
513.38	59173.42
513.56	59002.56
513.73	58693.61
513.90	59877.93
514.08	59744.51
514.25	59473.01
514.43	60055.81
514.60	60266.45
514.77	60418.59
514.95	60580.09
515.12	60519.23
515.29	60734.56
515.47	61277.57
515.64	61055.21
515.81	60732.22
515.99	59664.94
516.16	58054.65
516.33	56006.68
516.51	55875.61
516.68	54742.79
516.85	53783.17
517.03	55484.74
517.20	57841.66
517.37	59683.66
517.54	60603.49
517.72	59213.21
517.89	56505.21
518.06	54939.39
518.24	55978.59
518.41	58202.10
518.58	59435.56
518.75	59470.67
518.93	59337.26
519.10	58695.95
519.27	59880.27
519.45	60329.65
519.62	60823.50
519.79	60853.93
519.96	60491.15
520.14	60100.28
520.31	59030.65
520.48	59089.16
520.65	60081.55
520.83	61172.24
521.00	61052.87
521.17	60402.21
521.34	60624.56
521.52	61116.07
521.69	61127.77
521.86	61359.48
522.03	61207.35
522.20	59767.92
522.38	59082.14
522.55	59796.01
522.72	59999.63
522.89	59653.23
523.07	60697.11
523.24	61041.17
523.41	61598.22
523.58	61780.78
523.75	61897.81
523.92	61715.25
524.10	61497.58
524.27	61254.16
524.44	60975.64
524.61	60636.26
524.78	61165.22
524.96	61146.50
525.13	61333.74
525.30	61790.14
525.47	61991.43
525.64	61677.80
525.81	61041.17
525.98	59086.82
526.16	58080.39
526.33	58089.76
526.50	57544.41
526.67	57827.62
526.84	58171.67
527.01	59098.53
527.18	59716.43
527.36	60259.43
527.53	61307.99
527.70	60835.20
527.87	59566.63
528.04	60919.46
528.21	60956.91
528.38	61434.38
528.55	62405.70
528.72	62115.48
528.89	61750.35
529.07	61380.55
529.24	60495.83
529.41	60259.43
529.58	60301.56
529.75	60999.04
529.92	61160.54
530.09	61137.13
530.26	61818.23
530.43	62621.03
530.60	61621.62
530.77	62192.72
530.94	62473.58
531.11	61439.06
531.28	61457.79
531.46	61623.96
531.63	61600.56
531.80	61158.20
531.97	60720.52
532.14	60481.78
532.31	59283.43
532.48	58398.71
532.65	59002.56
532.82	59440.24
532.99	61125.43
533.16	61230.75
533.33	61251.82
533.50	61385.23
533.67	61190.97
533.84	60449.02
534.01	61099.68
534.18	60849.25
534.35	60603.49
534.52	60200.92
534.69	61027.13
534.86	61350.12
535.03	61649.71
535.20	61410.98
535.37	62377.62
535.54	62475.92
535.71	62134.20
535.88	62276.97
536.05	61162.88
536.22	60399.86
536.38	60200.92
536.55	59683.66
536.72	59082.14
536.89	59990.27
537.06	60072.19
537.23	60353.05
537.40	60306.24
537.57	60308.58
537.74	60434.97
537.91	60853.93
538.08	60874.99
538.25	60757.97
538.42	61572.47
538.59	61001.38
538.75	60076.87
538.92	59554.93
539.09	59915.37
539.26	60027.72
539.43	59765.58
539.60	59767.92
539.77	60320.29
539.94	60018.36
540.11	59407.48
540.28	58927.67
540.44	58777.87
540.61	58700.64
540.78	59215.55
540.95	59833.46
541.12	60032.40
541.29	60259.43
541.46	60324.97
541.62	60917.12
541.79	59978.57
541.96	59407.48
542.13	59580.68
542.30	59477.69
542.47	60144.75
542.63	60011.34
542.80	59906.01
542.97	59299.81
543.14	59306.83
543.31	59604.08
543.48	60479.44
543.64	60673.71
543.81	61371.19
543.98	61537.36
544.15	59969.21
544.32	60669.03
544.48	60238.37
544.65	59950.48
544.82	60673.71
544.99	59203.85
545.16	59028.31
545.32	59339.60
545.49	59938.78
545.66	60055.81
545.83	60046.44
546.00	60327.31
546.16	60009.00
546.33	59800.69
546.50	59903.67
546.67	60601.15
546.83	59877.93
547.00	60310.92
547.17	58915.96
547.34	58581.27
547.50	58319.13
547.67	59260.02
547.84	60177.51
548.00	60158.79
548.17	59833.46
548.34	60313.26
548.51	60331.99
548.67	60233.69
548.84	60058.15
549.01	60498.17
549.18	59718.77
549.34	60095.60
549.51	60111.98
549.68	60320.29
549.84	59704.73
550.01	59159.38
550.18	58944.05
550.34	59311.52
550.51	59381.73
550.68	59964.52
550.84	59863.88
551.01	58937.03
551.18	59018.95
551.34	58642.12
551.51	59833.46
551.68	59835.80
551.84	59943.46
552.01	59646.21
552.18	59068.10
552.34	58571.91
552.51	58522.76
552.68	58445.52
552.84	58649.14
553.01	58913.62
553.18	59379.39
553.34	59299.81
553.51	59676.64
553.67	59405.14
553.84	59437.90
554.01	59793.67
554.17	59049.38
554.34	59264.70
554.51	59400.46
554.67	58618.72
554.84	58649.14
555.00	58403.39
555.17	58450.20
555.33	58628.08
555.50	58246.57
555.67	58904.26
555.83	58876.18
556.00	58473.60
556.16	58199.76
556.33	58089.76
556.50	58120.18
556.66	58431.47
556.83	57975.07
556.99	57616.97
557.16	58342.53
557.32	57916.56
557.49	58372.96
557.65	58216.14
557.82	58387.00
557.98	58876.18
558.15	57638.03
558.32	57186.31
558.48	56692.46
558.65	56638.62
558.81	56921.83
558.98	57956.35
559.14	58066.35
559.31	57738.68
559.47	57270.57
559.64	57242.48
559.80	56842.25
559.97	57677.82
560.13	58164.65
560.30	59217.89
560.46	59414.50
560.63	59639.19
560.79	59341.94
560.96	58667.87
561.12	57542.07
561.29	57153.54
561.45	57095.03
561.61	58527.44
561.78	57492.92
561.94	58056.99
562.11	58106.14
562.27	57265.89
562.44	58183.38
562.60	58405.73
562.77	58461.90
562.93	57834.64
563.10	57579.52
563.26	57584.20
563.42	58384.66
563.59	57509.30
563.75	57408.66
563.92	57183.97
564.08	56772.03
564.24	57832.30
564.41	57050.56
564.57	58267.64
564.74	57649.74
564.90	56776.72
565.07	56898.42
565.23	56065.19
565.39	55664.96
565.56	55913.06
565.72	56488.83
565.88	55482.40
566.05	57389.94
566.21	57661.44
566.38	56966.30
566.54	57331.42
566.70	57930.60
566.87	57778.46
567.03	57045.88
567.19	58377.64
567.36	58487.65
567.52	57193.33
567.68	56385.85
567.85	55767.94
568.01	56442.02
568.17	56264.14
568.34	56849.27
568.50	56395.21
568.66	56175.20
568.83	55732.84
568.99	55714.11
569.15	55725.81
569.32	55987.95
569.48	55763.26
569.64	55627.51
569.81	55702.41
569.97	55243.66
570.13	54651.51
570.30	54298.09
570.46	53844.02
570.62	53081.01
570.78	53612.31
570.95	54585.97
571.11	54497.03
571.27	54424.48
571.43	54515.76
571.60	54394.05
571.76	55618.15
571.92	55847.52
572.09	56023.06
572.25	55861.57
572.41	56168.18
572.57	55824.12
572.74	56205.62
572.90	57322.06
573.06	56427.98
573.22	56559.05
573.38	56463.08
573.55	57448.45
573.71	56048.81
573.87	56053.49
574.03	55943.48
574.20	55730.50
574.36	55632.19
574.52	54871.52
574.68	54859.82
574.84	54150.63
575.01	54199.79
575.17	54532.14
575.33	54901.95
575.49	54745.13
575.65	53574.86
575.82	54485.33
575.98	54501.71
576.14	55489.42
576.30	55957.53
576.46	54293.41
576.62	54515.76
576.79	54756.83
576.95	54733.43
577.11	55206.22
577.27	54733.43
577.43	55126.64
577.59	54485.33
577.75	53509.33
577.92	53439.11
578.08	53694.23
578.24	53872.11
578.40	54068.72
578.56	53024.84
578.72	53490.60
578.88	53137.18
579.04	53916.58
579.21	53600.61
579.37	53750.40
579.53	54270.00
579.69	53514.01
579.85	53333.79
580.01	53514.01
580.17	53162.93
580.33	54052.33
580.49	54206.81
580.65	52875.04
580.82	53734.02
580.98	54291.07
581.14	54277.02
581.30	54148.29
581.46	53247.19
581.62	53719.98
581.78	54536.82
581.94	54485.33
582.10	54719.38
582.26	54499.37
582.42	54600.02
582.58	53359.53
582.74	53432.09
582.90	53769.13
583.06	53986.80
583.22	54293.41
583.38	53844.02
583.54	54466.61
583.70	54726.41
583.86	54202.13
584.02	53539.75
584.18	53483.58
584.34	53228.46
584.50	52685.46
584.66	53212.08
584.82	53308.04
584.98	53326.77
585.14	52608.22
585.30	52856.32
