SpectraSuite Data File
++++++++++++++++++++++++++++++++++++
Date: Mon Oct 07 14:53:07 GMT-05:00 2013
User: price-jones
Dark Spectrum Present: No
Reference Spectrum Present: No
Number of Sampled Component Spectra: 1
Spectrometers: USB2+H05261
Integration Time (usec): 100000 (USB2+H05261)
Spectra Averaged: 1 (USB2+H05261)
Boxcar Smoothing: 0 (USB2+H05261)
Correct for Electrical Dark: No (USB2+H05261)
Strobe/Lamp Enabled: No (USB2+H05261)
Correct for Detector Non-linearity: No (USB2+H05261)
Correct for Stray Light: No (USB2+H05261)
Number of Pixels in Processed Spectrum: 2048
>>>>>Begin Processed Spectral Data<<<<<
365.73	0.00
365.92	0.00
366.12	0.00
366.32	0.00
366.52	0.00
366.72	0.00
366.91	0.00
367.11	0.00
367.31	0.00
367.51	0.00
367.70	0.00
367.90	0.00
368.10	0.00
368.30	0.00
368.49	0.00
368.69	0.00
368.89	0.00
369.09	0.00
369.28	0.00
369.48	0.00
369.68	0.00
369.87	0.00
370.07	0.00
370.27	0.00
370.47	543.00
370.66	3115.25
370.86	3471.01
371.06	4117.00
371.25	3939.12
371.45	3695.71
371.65	3218.24
371.84	3108.23
372.04	3246.32
372.24	3543.57
372.44	3751.88
372.63	3662.94
372.83	3370.37
373.03	2960.78
373.22	2726.72
373.42	2958.44
373.62	3454.63
373.81	3810.39
374.01	3719.11
374.21	3389.10
374.40	3117.59
374.60	3241.64
374.79	3630.17
374.99	4304.25
375.19	4561.70
375.38	4447.02
375.58	4346.37
375.78	4255.09
375.97	4236.37
376.17	4322.97
376.37	4440.00
376.56	4500.85
376.76	4741.93
376.95	5074.28
377.15	5568.13
377.35	5476.85
377.54	5811.55
377.74	6054.97
377.93	6071.35
378.13	5884.11
378.33	5640.69
378.52	5324.72
378.72	4947.89
378.91	4835.55
379.11	4842.57
379.31	4547.66
379.50	4542.98
379.70	4978.32
379.89	5371.53
380.09	5774.10
380.28	5935.60
380.48	5900.49
380.68	5827.93
380.87	5628.99
381.07	5205.35
381.26	4826.18
381.46	4468.08
381.65	4442.34
381.85	4327.65
382.04	4285.52
382.24	3843.16
382.43	3714.43
382.63	3545.91
382.83	3602.08
383.02	3672.30
383.22	3590.38
383.41	3726.13
383.61	3941.46
383.80	4484.47
384.00	5100.03
384.19	5640.69
384.39	5895.81
384.58	5987.09
384.78	5968.37
384.97	5963.68
385.17	5542.39
385.36	5287.27
385.56	4938.53
385.75	5203.01
385.95	5692.18
386.14	6038.58
386.34	6164.97
386.53	5980.07
386.72	5542.39
386.92	5610.26
387.11	5916.87
387.31	5973.05
387.50	5984.75
387.70	5692.18
387.89	5858.36
388.09	5743.67
388.28	5816.23
388.48	5998.79
388.67	6352.21
388.86	6981.82
389.06	7548.23
389.25	7880.58
389.45	7845.48
389.64	7864.20
389.84	7730.79
390.03	7623.12
390.22	7758.88
390.42	7939.10
390.61	8472.74
390.81	8929.14
391.00	9212.35
391.19	9076.60
391.39	8828.50
391.58	8243.37
391.78	7730.79
391.97	7452.27
392.16	6965.43
392.36	6333.49
392.55	5188.97
392.75	4067.85
392.94	3403.14
393.13	3286.11
393.33	3955.51
393.52	5130.45
393.71	6125.18
393.91	7014.59
394.10	7398.43
394.29	8154.43
394.49	8957.23
394.68	9650.03
394.88	9675.77
395.07	10024.51
395.26	9930.89
395.46	9451.08
395.65	9081.28
395.84	7892.29
396.04	6665.85
396.23	5465.15
396.42	4484.47
396.62	4505.53
396.81	5144.50
397.00	6513.71
397.19	8138.04
397.39	9816.21
397.58	10836.68
397.77	11590.33
397.97	11997.59
398.16	12046.74
398.35	12620.17
398.55	12912.74
398.74	13458.08
398.93	13820.86
399.12	13617.24
399.32	12954.87
399.51	13348.08
399.70	14438.76
399.90	13923.85
400.09	14141.52
400.28	13778.73
400.47	14232.80
400.67	14696.22
400.86	15307.10
401.05	15286.04
401.24	15180.71
401.44	15704.99
401.63	15510.73
401.82	15630.10
402.01	15709.68
402.21	15770.53
402.40	15861.81
402.59	15477.96
402.78	14843.68
402.97	14272.59
403.17	14766.44
403.36	15906.28
403.55	16374.39
403.74	16648.23
403.93	15763.51
404.13	14663.46
404.32	14200.03
404.51	15007.52
404.70	16182.46
404.89	16177.78
405.09	15749.46
405.28	15473.28
405.47	15475.62
405.66	15452.22
405.85	15143.27
406.05	14609.62
406.24	14867.08
406.43	15644.14
406.62	16161.40
406.81	16287.79
407.00	15557.54
407.20	15147.95
407.39	15255.61
407.58	16292.47
407.77	16849.52
407.96	17224.00
408.15	17252.09
408.34	17682.75
408.54	18162.56
408.73	18307.67
408.92	18160.22
409.11	17575.08
409.30	16580.36
409.49	15819.68
409.68	14717.29
409.87	14530.05
410.07	15082.41
410.26	16414.18
410.45	17282.52
410.64	17799.77
410.83	18405.97
411.02	18993.45
411.21	19770.51
411.40	19068.34
411.59	19241.54
411.78	19204.10
411.98	18806.20
412.17	19138.56
412.36	18881.10
412.55	19204.10
412.74	18700.88
412.93	18153.20
413.12	18616.62
413.31	20407.13
413.50	20379.04
413.69	20837.79
413.88	19957.75
414.07	19108.13
414.26	19798.59
414.45	20212.87
414.64	20327.55
414.83	20198.82
415.02	20072.43
415.22	19866.47
415.41	20390.75
415.60	21523.57
415.79	21930.82
415.98	22359.14
416.17	22593.19
416.36	21930.82
416.55	21579.74
416.74	21158.44
416.93	20245.63
417.12	20259.68
417.31	20503.09
417.50	20643.52
417.69	21715.49
417.88	21338.66
418.07	21207.59
418.26	20716.08
418.45	21259.09
418.64	21970.61
418.83	22810.86
419.02	22434.03
419.21	22106.36
419.39	20840.13
419.58	20013.92
419.77	20336.91
419.96	21090.57
420.15	22209.34
420.34	22848.31
420.53	23721.33
420.72	23936.66
420.91	24109.86
421.10	23814.95
421.29	23498.98
421.48	22738.30
421.67	23754.10
421.86	23197.05
422.05	21376.11
422.24	19061.32
422.43	18857.70
422.61	21301.22
422.80	23098.75
422.99	22937.25
423.18	22017.42
423.37	21830.18
423.56	21869.97
423.75	21956.57
423.94	22672.77
424.13	21366.75
424.32	21483.78
424.50	21694.43
424.69	21441.65
424.88	21584.42
425.07	21369.09
425.26	21357.39
425.45	21345.69
425.64	20680.97
425.83	20577.99
426.01	22188.28
426.20	22544.04
426.39	22230.41
426.58	21018.01
426.77	19276.65
426.96	18913.87
427.15	19700.29
427.33	20783.96
427.52	21825.50
427.71	22001.04
427.90	21329.30
428.09	21277.81
428.28	20669.27
428.46	20191.80
428.65	19845.40
428.84	20397.77
429.03	20725.44
429.22	19576.24
429.40	18445.76
429.59	16830.79
429.78	14970.07
429.97	15115.18
430.16	15229.87
430.34	15169.01
430.53	15374.98
430.72	15609.03
430.91	17357.41
431.10	20299.47
431.28	23866.44
431.47	25954.20
431.66	25986.97
431.85	23768.14
432.03	21413.56
432.22	20760.55
432.41	21989.33
432.60	24315.83
432.79	25198.21
432.97	25486.09
433.16	25226.29
433.35	22850.65
433.54	20510.11
433.72	19143.24
433.91	19711.99
434.10	22412.97
434.28	23899.21
434.47	25127.99
434.66	24931.39
434.85	24428.17
435.03	24173.05
435.22	24795.64
435.41	26450.39
435.59	26136.76
435.78	26792.11
435.97	27283.62
436.16	27831.31
436.34	26813.18
436.53	26363.79
436.72	26155.49
436.90	25120.97
437.09	24973.52
437.28	24650.52
437.46	25663.97
437.65	25324.60
437.84	23637.07
438.02	21645.27
438.21	21617.19
438.40	22974.70
438.58	24606.05
438.77	25680.36
438.96	26101.65
439.14	27096.38
439.33	27236.81
439.52	27924.93
439.70	27452.14
439.89	26349.75
440.08	25736.53
440.26	25607.80
440.45	26862.33
440.63	28643.48
440.82	29935.45
441.01	29516.50
441.19	29060.09
441.38	29682.67
441.57	30904.43
441.75	31098.70
441.94	30827.20
442.12	31356.16
442.31	31817.24
442.50	31503.61
442.68	31337.43
442.87	30749.96
443.05	30572.08
443.24	31054.23
443.43	31552.76
443.61	31995.12
443.80	32767.50
443.98	30927.84
444.17	30829.54
444.35	32533.45
444.54	33097.52
444.73	32741.75
444.91	31253.17
445.10	29832.47
445.28	28751.14
445.47	28184.73
445.65	28388.36
445.84	29315.21
446.02	30520.59
446.21	30497.18
446.39	31044.87
446.58	31356.16
446.77	31868.73
446.95	32156.62
447.14	32989.85
447.32	33406.47
447.51	32893.89
447.69	31398.29
447.88	31206.36
448.06	31800.86
448.25	32851.76
448.43	32517.06
448.62	32088.74
448.80	31519.99
448.99	32147.26
449.17	32215.13
449.36	32238.54
449.54	33596.05
449.73	34129.69
449.91	34665.67
450.10	35475.50
450.28	35828.92
450.46	35796.15
450.65	35711.89
450.83	35564.44
451.02	34677.38
451.20	34508.86
451.39	34410.56
451.57	34312.25
451.76	34316.93
451.94	34045.43
452.13	33598.39
452.31	32158.96
452.49	30302.92
452.68	30529.95
452.86	31337.43
453.05	31367.86
453.23	32404.72
453.42	33097.52
453.60	33839.47
453.78	34375.45
453.97	33464.98
454.15	33729.46
454.34	33156.03
454.52	33303.48
454.70	32437.48
454.89	32524.08
455.07	33181.77
455.26	33596.05
455.44	34888.03
455.62	35360.81
455.81	35496.56
455.99	35257.83
456.17	35042.50
456.36	34948.88
456.54	36144.89
456.73	35873.39
456.91	36840.03
457.09	36903.23
457.28	37525.81
457.46	36030.21
457.64	35908.50
457.83	34911.43
458.01	33832.44
458.19	34572.05
458.38	34916.11
458.56	36477.25
458.74	35950.63
458.93	35339.75
459.11	35400.60
459.29	34799.08
459.48	35204.00
459.66	34651.63
459.84	35627.63
460.03	35744.66
460.21	35566.78
460.39	36849.39
460.57	36900.89
460.76	37071.75
460.94	37528.15
461.12	36739.39
461.31	36926.63
461.49	36615.34
461.67	36961.74
461.85	37818.38
462.04	37909.66
462.22	38267.76
462.40	38124.99
462.59	37858.17
462.77	37574.96
462.95	37645.18
463.13	37258.99
463.32	37034.30
463.50	36313.41
463.68	36889.18
463.86	37282.39
464.05	36566.19
464.23	35512.95
464.41	35372.52
464.59	35061.22
464.78	36580.23
464.96	36306.39
465.14	35861.69
465.32	37057.70
465.50	37893.27
465.69	38316.91
465.87	37787.95
466.05	36842.37
466.23	34967.60
466.41	34162.46
466.60	35416.99
466.78	34937.18
466.96	36002.12
467.14	36400.01
467.32	37055.36
467.51	36865.78
467.69	35063.57
467.87	35927.22
468.05	36465.55
468.23	36669.17
468.41	36655.13
468.60	36472.57
468.78	36924.29
468.96	36325.11
469.14	37390.06
469.32	37645.18
469.50	36084.04
469.69	36271.28
469.87	35819.56
470.05	35168.89
470.23	35531.67
470.41	36046.59
470.59	36411.71
470.77	36552.15
470.95	37092.81
471.14	37413.46
471.32	37699.01
471.50	39856.98
471.68	40032.52
471.86	40484.25
472.04	40254.87
472.22	39999.76
472.40	38082.86
472.58	38080.52
472.77	37549.21
472.95	38836.51
473.13	39655.70
473.31	38838.85
473.49	38855.23
473.67	39498.88
473.85	39587.82
474.03	40376.58
474.21	40704.26
474.39	41184.07
474.57	41380.67
474.75	41277.69
474.93	40559.14
475.12	40212.74
475.30	40219.77
475.48	40201.04
475.66	40910.22
475.84	40549.78
476.02	40318.07
476.20	39651.02
476.38	40479.57
476.56	41684.94
476.74	42239.65
476.92	42068.79
477.10	42923.08
477.28	44219.74
477.46	43480.13
477.64	44306.34
477.82	44622.31
478.00	45064.67
478.18	44203.36
478.36	43681.42
478.54	44411.67
478.72	44079.31
478.90	45270.64
479.08	46548.57
479.26	46754.54
479.44	46632.83
479.62	46319.20
479.80	46361.33
479.98	46579.00
480.16	47112.64
480.34	46164.73
480.52	46780.29
480.70	46864.55
480.88	47105.62
481.06	48133.12
481.24	48266.53
481.41	49326.79
481.59	49750.43
481.77	49244.87
481.95	48336.74
482.13	48215.04
482.31	48844.64
482.49	49169.97
482.67	49057.63
482.85	49464.88
483.03	50216.19
483.21	50553.23
483.39	50040.65
483.57	49600.63
483.74	49436.80
483.92	49537.44
484.10	49961.08
484.28	50419.82
484.46	50939.42
484.64	51320.93
484.82	50574.30
485.00	50286.41
485.18	49336.15
485.35	48182.27
485.53	44760.40
485.71	41200.45
485.89	41125.55
486.07	43243.74
486.25	46344.95
486.43	48505.26
486.61	49516.37
486.78	48924.22
486.96	49272.96
487.14	50852.82
487.32	51531.57
487.50	52516.94
487.68	53322.08
487.85	53457.84
488.03	53715.29
488.21	53055.26
488.39	52758.02
488.57	52245.44
488.75	51845.21
488.92	53055.26
489.10	55243.66
489.28	55852.20
489.46	56493.51
489.64	56149.45
489.81	56465.42
489.99	56016.04
490.17	56179.88
490.35	56612.88
490.53	56367.12
490.70	55751.56
490.88	55774.97
491.06	56797.78
491.24	56406.91
491.41	55538.57
491.59	54227.87
491.77	53684.87
491.95	54593.00
492.13	55711.77
492.30	56633.94
492.48	57432.07
492.66	57956.35
492.84	57876.77
493.01	57546.75
493.19	57003.75
493.37	56832.89
493.54	56528.62
493.72	57181.63
493.90	58176.36
494.08	58679.57
494.25	58993.20
494.43	59112.57
494.61	59409.82
494.79	59693.02
494.96	59288.11
495.14	58904.26
495.32	57797.19
495.49	57453.13
495.67	58557.86
495.85	59693.02
496.02	59803.03
496.20	59718.77
496.38	59288.11
496.55	59465.99
496.73	59758.56
496.91	59922.40
497.09	60378.80
497.26	60374.12
497.44	60280.50
497.62	59540.89
497.79	58784.90
497.97	57780.81
498.14	58075.71
498.32	59091.51
498.50	59664.94
498.67	60259.43
498.85	60203.26
499.03	60259.43
499.20	60673.71
499.38	60608.17
499.56	60605.83
499.73	59856.86
499.91	59662.60
500.08	59304.49
500.26	58681.91
500.44	59231.94
500.61	59519.82
500.79	59358.33
500.97	59051.72
501.14	58976.82
501.32	58918.31
501.49	58880.86
501.67	59077.46
501.84	59489.40
502.02	59693.02
502.20	60009.00
502.37	60147.09
502.55	60205.60
502.72	60839.89
502.90	61151.18
503.07	60825.84
503.25	60376.46
503.43	59709.41
503.60	59236.62
503.78	58410.41
503.95	59175.76
504.13	60327.31
504.30	61020.11
504.48	60837.54
504.65	60423.27
504.83	60690.09
505.01	61130.11
505.18	61434.38
505.36	61958.66
505.53	61836.95
505.71	62129.52
505.88	62197.40
506.06	61602.90
506.23	61396.93
506.41	61085.64
506.58	61268.20
506.76	61125.43
506.93	61263.52
507.11	60975.64
507.28	61111.39
507.46	60690.09
507.63	60409.23
507.81	59994.95
507.98	60409.23
508.16	60994.36
508.33	61467.15
508.50	61602.90
508.68	61909.51
508.85	62447.83
509.03	62370.60
509.20	62192.72
509.38	61520.98
509.55	60844.57
509.73	60842.23
509.90	61572.47
510.08	61705.88
510.25	61673.12
510.42	61497.58
510.60	61317.35
510.77	61759.72
510.95	62131.86
511.12	62265.27
511.30	62485.28
511.47	62752.10
511.64	62609.33
511.82	62305.06
511.99	61584.18
512.17	61319.70
512.34	61003.72
512.51	61010.74
512.69	61600.56
512.86	61420.34
513.04	61677.80
513.21	61923.55
513.38	61375.87
513.56	61029.47
513.73	60331.99
513.90	60711.16
514.08	60739.24
514.25	61013.08
514.43	61268.20
514.60	61333.74
514.77	61619.28
514.95	61492.89
515.12	61446.08
515.29	61712.91
515.47	61958.66
515.64	62361.23
515.81	61883.76
515.99	61453.11
516.16	59924.74
516.33	58005.50
516.51	56945.23
516.68	56165.84
516.85	55870.93
517.03	56502.87
517.20	58672.55
517.37	60772.01
517.54	61696.52
517.72	60832.86
517.89	58803.62
518.06	56657.35
518.24	57439.09
518.41	58960.44
518.58	60324.97
518.75	60441.99
518.93	60713.50
519.10	60350.71
519.27	61041.17
519.45	61027.13
519.62	61801.85
519.79	62195.06
519.96	61951.64
520.14	61612.26
520.31	60610.51
520.48	60725.20
520.65	61092.66
520.83	62024.20
521.00	62321.44
521.17	61937.60
521.34	61495.24
521.52	62049.94
521.69	62379.96
521.86	62740.40
522.03	62440.81
522.20	61247.14
522.38	60495.83
522.55	60678.39
522.72	61020.11
522.89	61235.44
523.07	61368.85
523.24	61698.86
523.41	62426.77
523.58	62724.02
523.75	63161.70
523.92	63208.51
524.10	62812.96
524.27	63075.10
524.44	62653.80
524.61	62478.26
524.78	62518.05
524.96	62412.73
525.13	62382.30
525.30	62513.37
525.47	63004.88
525.64	63105.52
525.81	62260.59
525.98	60800.10
526.16	59419.18
526.33	59135.98
526.50	58972.14
526.67	58688.93
526.84	59103.21
527.01	59992.61
527.18	60636.26
527.36	61460.13
527.53	62487.62
527.70	62609.33
527.87	62108.46
528.04	61724.61
528.21	62120.16
528.38	62726.36
528.55	63229.57
528.72	63398.09
528.89	63550.23
529.07	63388.73
529.24	62604.65
529.41	62073.35
529.58	61450.77
529.75	61759.72
529.92	62171.65
530.09	62527.41
530.26	63084.46
530.43	63274.04
530.60	63208.51
530.77	63346.60
530.94	63484.69
531.11	63103.18
531.28	62796.57
531.46	62576.56
531.63	62770.83
531.80	62522.73
531.97	62155.27
532.14	61497.58
532.31	60692.43
532.48	60062.83
532.65	60090.91
532.82	60884.36
532.99	61785.46
533.16	62124.84
533.33	62731.04
533.50	62532.09
533.67	61928.23
533.84	61546.73
534.01	61851.00
534.18	61921.21
534.35	62164.63
534.52	62094.41
534.69	62188.03
534.86	62464.22
535.03	62852.75
535.20	63316.17
535.37	63660.23
535.54	63510.44
535.71	63248.30
535.88	62815.30
536.05	62438.47
536.22	61843.98
536.38	61769.08
536.55	61265.86
536.72	60823.50
536.89	60863.29
537.06	61504.60
537.23	62351.87
537.40	62656.14
537.57	62473.58
537.74	62361.23
537.91	62386.98
538.08	62199.74
538.25	62410.38
538.42	62592.95
538.59	62349.53
538.75	61663.75
538.92	61410.98
539.09	61481.19
539.26	61174.58
539.43	61043.51
539.60	61174.58
539.77	61312.67
539.94	61146.50
540.11	60589.45
540.28	60062.83
540.44	60217.30
540.61	60481.78
540.78	60355.39
540.95	61017.77
541.12	61230.75
541.29	61757.38
541.46	61689.50
541.62	61818.23
541.79	61701.20
541.96	61153.52
542.13	61296.29
542.30	61542.05
542.47	61593.54
542.63	61183.94
542.80	61361.82
542.97	61331.40
543.14	61118.41
543.31	61254.16
543.48	61811.21
543.64	62489.96
543.81	62695.93
543.98	62417.41
544.15	61780.78
544.32	61193.31
544.48	61673.12
544.65	61991.43
544.82	62115.48
544.99	61881.42
545.16	61418.00
545.32	61350.12
545.49	62148.24
545.66	62567.20
545.83	62080.37
546.00	61595.88
546.16	61478.85
546.33	61432.04
546.50	61502.26
546.67	62042.92
546.83	61537.36
547.00	61680.14
547.17	60933.51
547.34	60481.78
547.50	60589.45
547.67	60874.99
547.84	60891.38
548.00	61221.39
548.17	61719.93
548.34	61422.68
548.51	61434.38
548.67	61513.96
548.84	61511.62
549.01	61352.46
549.18	61448.42
549.34	61490.55
549.51	61483.53
549.68	61403.95
549.84	61148.84
550.01	61095.00
550.18	60928.83
550.34	61113.73
550.51	61141.81
550.68	61226.07
550.84	60736.90
551.01	60853.93
551.18	60697.11
551.34	61010.74
551.51	61460.13
551.68	61485.87
551.84	61762.06
552.01	61371.19
552.18	61305.65
552.34	60456.04
552.51	60076.87
552.68	60404.55
552.84	60729.88
553.01	60814.14
553.18	60605.83
553.34	60900.74
553.51	61139.47
553.67	61389.91
553.84	61518.64
554.01	61242.46
554.17	61034.15
554.34	61247.14
554.51	61286.93
554.67	61640.35
554.84	61399.27
555.00	61188.63
555.17	60849.25
555.33	60900.74
555.50	60832.86
555.67	60992.02
555.83	60547.32
556.00	60453.70
556.16	60341.35
556.33	60097.94
556.50	60048.78
556.66	60123.68
556.83	59952.82
556.99	59980.91
557.16	59990.27
557.32	60369.44
557.49	60411.57
557.65	60299.22
557.82	60369.44
557.98	60200.92
558.15	59866.22
558.32	58824.68
558.48	58637.44
558.65	58684.25
558.81	59004.91
558.98	59285.77
559.14	59505.78
559.31	59728.13
559.47	59608.76
559.64	59222.58
559.80	58915.96
559.97	59047.04
560.13	59402.80
560.30	60186.88
560.46	60460.72
560.63	60743.92
560.79	60739.24
560.96	60383.48
561.12	59409.82
561.29	58681.91
561.45	58770.85
561.61	59187.47
561.78	59372.37
561.94	59458.97
562.11	59306.83
562.27	59395.77
562.44	59678.98
562.60	59845.16
562.77	60142.41
562.93	59913.03
563.10	59732.81
563.26	59515.14
563.42	59358.33
563.59	59260.02
563.75	59283.43
563.92	59297.47
564.08	59201.51
564.24	59554.93
564.41	59522.16
564.57	59571.32
564.74	59173.42
564.90	59110.23
565.07	58794.26
565.23	58714.68
565.39	58267.64
565.56	57820.59
565.72	57862.72
565.88	58216.14
566.05	58234.87
566.21	58637.44
566.38	58618.72
566.54	58763.83
566.70	58990.86
566.87	59243.64
567.03	59292.79
567.19	59545.57
567.36	59199.17
567.52	59255.34
567.68	58506.37
567.85	58162.31
568.01	58176.36
568.17	57570.16
568.34	57563.14
568.50	57602.92
568.66	57628.67
568.83	58155.29
568.99	57949.32
569.15	58309.77
569.32	58174.02
569.48	58075.71
569.64	57719.95
569.81	57677.82
569.97	57626.33
570.13	57368.87
570.30	57130.14
570.46	56715.86
570.62	56367.12
570.78	56104.98
570.95	56545.00
571.11	57088.01
571.27	57205.03
571.43	57633.35
571.60	57565.48
571.76	57652.08
571.92	57918.90
572.09	58246.57
572.25	58202.10
572.41	58307.43
572.57	58068.69
572.74	58131.89
572.90	57539.73
573.06	57553.77
573.22	57806.55
573.38	57588.88
573.55	57481.22
573.71	57818.25
573.87	57925.92
574.03	57443.77
574.20	57694.21
574.36	57387.60
574.52	57373.55
574.68	56879.70
574.84	56568.41
575.01	56191.58
575.17	56254.78
575.33	56486.49
575.49	56776.72
575.65	56889.06
575.82	56741.61
575.98	56348.40
576.14	56940.55
576.30	56748.63
576.46	56896.08
576.62	57059.92
576.79	57050.56
576.95	56425.64
577.11	56528.62
577.27	56870.34
577.43	56903.10
577.59	56507.55
577.75	55966.89
577.92	55533.89
578.08	55285.79
578.24	55547.93
578.40	55613.47
578.56	55671.98
578.72	55922.42
578.88	56072.21
579.04	56165.84
579.21	56467.76
579.37	56268.82
579.53	56610.54
579.69	56399.89
579.85	56587.13
580.01	56128.39
580.17	55852.20
580.33	55648.58
580.49	56006.68
580.65	56217.33
580.82	56334.35
580.98	56287.54
581.14	56261.80
581.30	56463.08
581.46	55992.64
581.62	56523.94
581.78	56439.68
581.94	56559.05
582.10	56657.35
582.26	56456.06
582.42	56516.92
582.58	56673.73
582.74	56205.62
582.90	56587.13
583.06	56481.81
583.22	56339.04
583.38	56350.74
583.54	56306.27
583.70	56179.88
583.86	56226.69
584.02	56207.97
584.18	56170.52
584.34	56191.58
584.50	55793.69
584.66	55847.52
584.82	55606.45
584.98	55648.58
585.14	55185.15
