SpectraSuite Data File
++++++++++++++++++++++++++++++++++++
Date: Mon Oct 07 14:53:26 GMT-05:00 2013
User: price-jones
Dark Spectrum Present: No
Reference Spectrum Present: No
Number of Sampled Component Spectra: 1
Spectrometers: USB2+H05261
Integration Time (usec): 100000 (USB2+H05261)
Spectra Averaged: 1 (USB2+H05261)
Boxcar Smoothing: 0 (USB2+H05261)
Correct for Electrical Dark: No (USB2+H05261)
Strobe/Lamp Enabled: No (USB2+H05261)
Correct for Detector Non-linearity: No (USB2+H05261)
Correct for Stray Light: No (USB2+H05261)
Number of Pixels in Processed Spectrum: 2048
>>>>>Begin Processed Spectral Data<<<<<
365.73	0.00
365.92	0.00
366.12	0.00
366.32	0.00
366.52	0.00
366.72	0.00
366.91	0.00
367.11	0.00
367.31	0.00
367.51	0.00
367.70	0.00
367.90	0.00
368.10	0.00
368.30	0.00
368.49	0.00
368.69	0.00
368.89	0.00
369.09	0.00
369.28	0.00
369.48	0.00
369.68	0.00
369.87	0.00
370.07	0.00
370.27	0.00
370.47	624.92
370.66	2736.09
370.86	3445.27
371.06	3686.34
371.25	3719.11
371.45	3330.58
371.65	3009.93
371.84	2808.64
372.04	3014.61
372.24	3307.18
372.44	3400.80
372.63	3431.23
372.83	3218.24
373.03	2825.03
373.22	2602.68
373.42	2661.19
373.62	3073.12
373.81	3499.10
374.01	3396.12
374.21	2963.12
374.40	2974.82
374.60	2920.99
374.79	3424.20
374.99	3847.84
375.19	4224.67
375.38	4248.07
375.58	3873.59
375.78	3969.55
375.97	3932.10
376.17	4154.45
376.37	4135.73
376.56	4332.33
376.76	4454.04
376.95	4667.03
377.15	5142.16
377.35	5268.55
377.54	5385.57
377.74	5568.13
377.93	5540.05
378.13	5462.81
378.33	5329.40
378.52	4652.98
378.72	4554.68
378.91	4638.94
379.11	4369.78
379.31	4219.99
379.50	4292.54
379.70	4514.89
379.89	5057.90
380.09	5329.40
380.28	5467.49
380.48	5441.75
380.68	5411.32
380.87	5210.03
381.07	4987.68
381.26	4329.99
381.46	4142.75
381.65	4121.68
381.85	3904.01
382.04	3857.20
382.24	3637.19
382.43	3290.79
382.63	3248.66
382.83	3325.90
383.02	3361.01
383.22	3412.50
383.41	3246.32
383.61	3672.30
383.80	4109.98
384.00	4624.90
384.19	5217.05
384.39	5551.75
384.58	5439.40
384.78	5336.42
384.97	5399.62
385.17	5004.07
385.36	4720.86
385.56	4475.10
385.75	4767.67
385.95	5060.24
386.14	5643.03
386.34	5631.33
386.53	5427.70
386.72	5116.41
386.92	5102.37
387.11	5411.32
387.31	5640.69
387.50	5268.55
387.70	5198.33
387.89	5226.42
388.09	5430.04
388.28	5359.83
388.48	5362.17
388.67	5827.93
388.86	6459.88
389.06	6874.15
389.25	7222.89
389.45	7288.43
389.64	7365.67
389.84	7379.71
390.03	7077.78
390.22	7098.84
390.42	7309.49
390.61	7896.97
390.81	8170.81
391.00	8437.63
391.19	8390.82
391.39	8065.49
391.58	7644.19
391.78	7016.93
391.97	6899.90
392.16	6502.01
392.36	5966.03
392.55	4823.84
392.75	3812.73
392.94	3180.79
393.13	3038.02
393.33	3602.08
393.52	4652.98
393.71	5729.63
393.91	6558.18
394.10	6958.41
394.29	7480.35
394.49	8100.59
394.68	8835.52
394.88	8894.04
395.07	9294.27
395.26	9156.18
395.46	8807.44
395.65	8276.13
395.84	7351.62
396.04	6153.27
396.23	5132.79
396.42	4259.78
396.62	3936.78
396.81	4681.07
397.00	6076.03
397.19	7325.88
397.39	9013.40
397.58	9968.34
397.77	10532.41
397.97	10843.70
398.16	11110.52
398.35	11651.19
398.55	12002.27
398.74	12512.50
398.93	12669.32
399.12	12358.03
399.32	12198.87
399.51	12238.66
399.70	12879.97
399.90	13018.06
400.09	13025.08
400.28	12933.80
400.47	12891.67
400.67	13682.77
400.86	13853.63
401.05	13757.67
401.24	14040.87
401.44	14324.08
401.63	14373.23
401.82	14162.58
402.01	14382.59
402.21	14464.51
402.40	14501.96
402.59	13947.25
402.78	13486.17
402.97	13130.41
403.17	13479.15
403.36	14408.34
403.55	14813.25
403.74	15393.70
403.93	14532.39
404.13	13516.59
404.32	12964.23
404.51	13640.64
404.70	14902.19
404.89	14714.95
405.09	14665.80
405.28	14188.33
405.47	14284.29
405.66	14043.21
405.85	13757.67
406.05	13362.12
406.24	13642.98
406.43	14054.92
406.62	14881.13
406.81	14691.54
407.00	14359.19
407.20	14136.84
407.39	14108.75
407.58	14527.71
407.77	14995.81
407.96	15758.83
408.15	16135.65
408.34	16030.33
408.54	16821.43
408.73	16779.30
408.92	16582.70
409.11	16266.72
409.30	15470.94
409.49	14544.09
409.68	13432.33
409.87	12936.14
410.07	13832.57
410.26	15019.22
410.45	15929.69
410.64	16273.74
410.83	16856.54
411.02	17177.19
411.21	17975.31
411.40	17694.45
411.59	17804.46
411.78	17572.74
411.98	17364.43
412.17	17659.34
412.36	17268.47
412.55	17240.39
412.74	17071.87
412.93	16444.60
413.12	16861.22
413.31	18312.35
413.50	18331.08
413.69	19005.15
413.88	18420.02
414.07	17713.17
414.26	17820.84
414.45	18473.85
414.64	18803.86
414.83	18506.62
415.02	18590.88
415.22	18178.94
415.41	18941.96
415.60	19271.97
415.79	19946.05
415.98	20535.86
416.17	20390.75
416.36	19861.79
416.55	19695.61
416.74	18721.95
416.93	18417.68
417.12	18389.59
417.31	18436.40
417.50	18932.59
417.69	19616.03
417.88	19412.40
418.07	19597.31
418.26	18979.40
418.45	19145.58
418.64	20159.03
418.83	20814.38
419.02	20498.41
419.21	20093.50
419.39	19342.19
419.58	18497.25
419.77	18551.09
419.96	19241.54
420.15	20226.91
420.34	21006.31
420.53	21736.56
420.72	21848.90
420.91	21741.24
421.10	21406.54
421.29	21329.30
421.48	20755.87
421.67	21884.01
421.86	21048.44
422.05	19910.94
422.24	17626.57
422.43	17568.06
422.61	19264.95
422.80	20767.57
422.99	20868.22
423.18	20189.46
423.37	19892.21
423.56	19971.79
423.75	20112.22
423.94	20627.14
424.13	19466.24
424.32	19667.52
424.50	19751.78
424.69	19419.42
424.88	19583.26
425.07	19417.08
425.26	19213.46
425.45	19269.63
425.64	18785.14
425.83	18644.71
426.01	20077.12
426.20	20395.43
426.39	20173.08
426.58	18836.63
426.77	17444.01
426.96	16973.56
427.15	17181.87
427.33	18885.78
427.52	19360.91
427.71	19639.44
427.90	19393.68
428.09	19328.14
428.28	18981.74
428.46	18338.10
428.65	17741.26
428.84	18518.32
429.03	18906.85
429.22	17811.48
429.40	16964.20
429.59	15484.98
429.78	13298.92
429.97	13474.46
430.16	13734.26
430.34	13839.59
430.53	13710.86
430.72	14204.71
430.91	15527.11
431.10	18274.90
431.28	21474.42
431.47	23414.72
431.66	23384.29
431.85	21542.29
432.03	19836.04
432.22	18799.18
432.41	19489.64
432.60	21741.24
432.79	22604.89
432.97	23206.41
433.16	22665.75
433.35	20903.32
433.54	18953.66
433.72	17631.26
433.91	18015.10
434.10	20184.78
434.28	21743.58
434.47	22916.19
434.66	22317.01
434.85	22022.10
435.03	21979.97
435.22	22216.36
435.41	23630.05
435.59	23754.10
435.78	23948.36
435.97	24627.12
436.16	24776.91
436.34	24470.30
436.53	23997.51
436.72	23917.93
436.90	22424.67
437.09	22410.63
437.28	22148.49
437.46	22934.91
437.65	23023.85
437.84	21441.65
438.02	19449.85
438.21	19494.32
438.40	20404.79
438.58	22415.31
438.77	22801.50
438.96	23290.67
439.14	23983.47
439.33	24547.54
439.52	25025.01
439.70	24666.91
439.89	23943.68
440.08	23344.50
440.26	23183.01
440.45	23899.21
440.63	25364.39
440.82	27154.90
441.01	26782.75
441.19	26389.54
441.38	26616.57
441.57	27655.77
441.75	28023.23
441.94	28072.39
442.12	27520.02
442.31	28428.15
442.50	28519.43
442.68	28196.43
442.87	28020.89
443.05	27454.48
443.24	27522.36
443.43	28070.04
443.61	28858.81
443.80	28891.57
443.98	27225.11
444.17	27658.11
444.35	29064.77
444.54	29331.59
444.73	29134.99
444.91	28067.70
445.10	26845.94
445.28	26040.80
445.47	25336.30
445.65	25589.08
445.84	25886.32
446.02	27442.78
446.21	27475.55
446.39	27770.46
446.58	28002.17
446.77	28966.47
446.95	28489.00
447.14	29799.70
447.32	30258.45
447.51	29223.93
447.69	28737.10
447.88	28098.13
448.06	28524.11
448.25	28945.41
448.43	29369.04
448.62	28371.97
448.80	28648.16
448.99	28723.05
449.17	29008.60
449.36	29163.08
449.54	30302.92
449.73	30536.97
449.91	30731.23
450.10	31992.78
450.28	32446.85
450.46	31903.84
450.65	32100.45
450.83	31505.95
451.02	31082.31
451.20	30958.27
451.39	30820.17
451.57	30689.10
451.76	30415.26
451.94	30607.19
452.13	29991.62
452.31	28306.44
452.49	27171.28
452.68	27630.02
452.86	27704.92
453.05	28201.11
453.23	29226.27
453.42	29713.10
453.60	30024.39
453.78	30628.25
453.97	30251.42
454.15	29855.87
454.34	29287.12
454.52	29631.18
454.70	28950.09
454.89	29308.19
455.07	29900.34
455.26	30080.56
455.44	30972.31
455.62	31615.96
455.81	31931.93
455.99	31475.52
456.17	31412.33
456.36	31374.88
456.54	32194.07
456.73	31950.65
456.91	33092.83
457.09	32760.48
457.28	33893.30
457.46	32158.96
457.64	31775.11
457.83	31108.06
458.01	30216.32
458.19	31199.34
458.38	31110.40
458.56	32198.75
458.74	32254.92
458.93	31517.65
459.11	31541.06
459.29	31171.25
459.48	31484.89
459.66	30951.24
459.84	31784.48
460.03	31913.20
460.21	31845.33
460.39	32914.95
460.57	32732.39
460.76	33090.49
460.94	33401.79
461.12	32903.25
461.31	33209.86
461.49	32964.10
461.67	32818.99
461.85	33825.42
462.04	33481.36
462.22	34574.39
462.40	33546.90
462.59	33497.75
462.77	33951.81
462.95	33441.57
463.13	33394.76
463.32	33085.81
463.50	32624.73
463.68	32662.18
463.86	33284.76
464.05	32507.70
464.23	31709.58
464.41	31402.97
464.59	31005.08
464.78	32694.94
464.96	32769.84
465.14	32126.19
465.32	32900.91
465.50	33837.12
465.69	34188.21
465.87	33509.45
466.05	32692.60
466.23	31054.23
466.41	30323.98
466.60	31079.97
466.78	31056.57
466.96	31770.43
467.14	32573.24
467.32	33081.13
467.51	32636.43
467.69	31377.22
467.87	32004.49
468.05	32254.92
468.23	32577.92
468.41	32390.67
468.60	32577.92
468.78	32556.85
468.96	32070.02
469.14	33603.07
469.32	33254.33
469.50	32133.21
469.69	32311.10
469.87	31814.90
470.05	31866.39
470.23	31435.74
470.41	31859.37
470.59	32283.01
470.77	32481.95
470.95	32816.65
471.14	33230.93
471.32	33558.60
471.50	35288.26
471.68	35199.32
471.86	35578.48
472.04	35967.01
472.22	35995.10
472.40	34068.84
472.58	34146.08
472.77	33731.80
472.95	34017.35
473.13	35185.27
473.31	33802.02
473.49	34326.30
473.67	34951.22
473.85	35145.48
474.03	35756.36
474.21	36318.09
474.39	36746.41
474.57	36463.21
474.75	36587.25
474.93	36535.76
475.12	35754.02
475.30	35601.89
475.48	36055.95
475.66	36081.70
475.84	35667.42
476.02	35758.70
476.20	34522.90
476.38	36208.09
476.56	37034.30
476.74	37200.47
476.92	37366.65
477.10	37855.82
477.28	39168.87
477.46	39005.03
477.64	39723.57
477.82	39728.25
478.00	39613.57
478.18	38733.53
478.36	38756.93
478.54	39185.25
478.72	39075.24
478.90	40264.24
479.08	41736.43
479.26	41553.87
479.44	41755.16
479.62	41127.89
479.80	41401.74
479.98	41626.43
480.16	41792.61
480.34	41172.36
480.52	41895.59
480.70	42052.41
480.88	42150.71
481.06	43033.09
481.24	42988.62
481.41	44224.42
481.59	44603.59
481.77	44346.13
481.95	43833.55
482.13	43533.96
482.31	43571.41
482.49	44217.40
482.67	44425.71
482.85	44378.90
483.03	44168.25
483.21	45698.96
483.39	45282.34
483.57	44737.00
483.74	44266.55
483.92	44821.26
484.10	44533.37
484.28	45855.78
484.46	45963.44
484.64	46405.80
484.82	45881.52
485.00	45223.83
485.18	44554.44
485.35	43257.78
485.53	40062.95
485.71	36552.15
485.89	35948.29
486.07	37752.84
486.25	41488.34
486.43	43519.92
486.61	44086.33
486.78	43899.09
486.96	44444.43
487.14	45734.07
487.32	46707.73
487.50	47980.98
487.68	48762.72
487.85	49382.96
488.03	49359.56
488.21	49174.66
488.39	48090.99
488.57	47407.55
488.75	47178.18
488.92	48608.25
489.10	50848.14
489.28	51842.87
489.46	52640.99
489.64	52652.69
489.81	52676.10
489.99	52172.88
490.17	52385.87
490.35	52966.32
490.53	52144.80
490.70	51800.74
490.88	51496.47
491.06	52633.97
491.24	52900.79
491.41	51618.17
491.59	49886.18
491.77	49020.18
491.95	50138.96
492.13	51512.85
492.30	52296.93
492.48	53827.64
492.66	54365.96
492.84	54204.47
493.01	53745.72
493.19	53516.35
493.37	53059.94
493.54	52814.19
493.72	53198.04
493.90	54429.16
494.08	55128.98
494.25	55491.76
494.43	55636.87
494.61	55758.58
494.79	55882.63
494.96	55812.41
495.14	55348.99
495.32	54394.05
495.49	53567.84
495.67	54593.00
495.85	56137.75
496.02	56533.30
496.20	56371.80
496.38	55852.20
496.55	55791.35
496.73	56161.15
496.91	56343.72
497.09	56839.91
497.26	57209.71
497.44	56718.20
497.62	56191.58
497.79	55414.52
497.97	53916.58
498.14	54532.14
498.32	55428.57
498.50	56226.69
498.67	56828.21
498.85	56598.83
499.03	56900.76
499.20	57088.01
499.38	57205.03
499.56	56814.16
499.73	56598.83
499.91	56081.58
500.08	55426.23
500.26	54887.90
500.44	55447.29
500.61	55819.44
500.79	55962.21
500.97	55332.60
501.14	55608.79
501.32	54986.21
501.49	55318.56
501.67	55257.71
501.84	56030.08
502.02	56435.00
502.20	56404.57
502.37	56556.70
502.55	56762.67
502.72	57137.16
502.90	57684.84
503.07	57427.38
503.25	56765.01
503.43	56200.94
503.60	55576.02
503.78	54740.45
503.95	55405.16
504.13	56655.01
504.30	57441.43
504.48	57483.56
504.65	56966.30
504.83	56868.00
505.01	57640.37
505.18	58064.01
505.36	58789.58
505.53	58581.27
505.71	58913.62
505.88	58948.73
506.06	58333.17
506.23	58047.63
506.41	57567.82
506.58	57675.48
506.76	57815.91
506.93	57865.06
507.11	57364.19
507.28	57638.03
507.46	57319.72
507.63	56498.19
507.81	56446.70
507.98	56631.60
508.16	57265.89
508.33	57944.64
508.50	58188.06
508.68	58520.41
508.85	58918.31
509.03	58684.25
509.20	58784.90
509.38	58026.56
509.55	57322.06
509.73	57389.94
509.90	57984.43
510.08	58298.06
510.25	58019.54
510.42	58159.97
510.60	57834.64
510.77	58293.38
510.95	58607.01
511.12	58812.98
511.30	59227.26
511.47	59264.70
511.64	59536.21
511.82	59014.27
511.99	58122.52
512.17	57827.62
512.34	57155.88
512.51	57619.31
512.69	57677.82
512.86	57808.89
513.04	58284.02
513.21	58148.27
513.38	57977.41
513.56	57336.10
513.73	56933.53
513.90	57134.82
514.08	57083.33
514.25	57322.06
514.43	57741.02
514.60	57858.04
514.77	57801.87
514.95	57921.24
515.12	57780.81
515.29	58096.78
515.47	58459.56
515.64	58691.27
515.81	58410.41
515.99	57895.49
516.16	56549.68
516.33	54206.81
516.51	52547.37
516.68	51711.80
516.85	51377.10
517.03	51828.82
517.20	54499.37
517.37	57017.79
517.54	58216.14
517.72	57478.88
517.89	54967.48
518.06	52521.62
518.24	52945.26
518.41	55117.28
518.58	56559.05
518.75	56919.49
518.93	57015.45
519.10	57013.11
519.27	57317.38
519.45	57448.45
519.62	58548.50
519.79	58513.39
519.96	58293.38
520.14	57876.77
520.31	57064.60
520.48	56891.40
520.65	57455.47
520.83	58356.58
521.00	58939.37
521.17	58159.97
521.34	58040.60
521.52	58286.36
521.69	58885.54
521.86	59451.95
522.03	58651.48
522.20	57783.15
522.38	56860.97
522.55	56898.42
522.72	57394.62
522.89	57413.34
523.07	57815.91
523.24	58035.92
523.41	59023.63
523.58	59178.10
523.75	59625.15
523.92	59353.65
524.10	59309.18
524.27	59295.13
524.44	59016.61
524.61	58958.09
524.78	58733.40
524.96	58834.05
525.13	58801.28
525.30	58934.69
525.47	59487.06
525.64	59243.64
525.81	58597.65
525.98	57111.41
526.16	55812.41
526.33	55044.72
526.50	54852.80
526.67	54213.83
526.84	54995.57
527.01	55931.78
527.18	57029.49
527.36	57813.57
527.53	58670.21
527.70	58731.06
527.87	58358.92
528.04	57970.39
528.21	58543.82
528.38	58981.50
528.55	59597.06
528.72	59835.80
528.89	59882.61
529.07	59854.52
529.24	58946.39
529.41	58625.74
529.58	57752.72
529.75	58010.18
529.92	58333.17
530.09	58780.21
530.26	59217.89
530.43	59622.81
530.60	59693.02
530.77	59938.78
530.94	59870.90
531.11	59332.58
531.28	59032.99
531.46	58852.77
531.63	59180.45
531.80	58946.39
531.97	58599.99
532.14	57883.79
532.31	56814.16
532.48	56135.41
532.65	55842.84
532.82	57008.43
532.99	58166.99
533.16	58436.16
533.33	59047.04
533.50	59007.25
533.67	58300.40
533.84	57771.44
534.01	58159.97
534.18	58438.50
534.35	58590.63
534.52	58358.92
534.69	58328.49
534.86	58686.59
535.03	59063.42
535.20	59519.82
535.37	59992.61
535.54	59980.91
535.71	59662.60
535.88	59213.21
536.05	58543.82
536.22	58195.08
536.38	57729.31
536.55	57350.15
536.72	57059.92
536.89	56999.07
537.06	57705.91
537.23	58567.23
537.40	58735.74
537.57	58745.11
537.74	58394.03
537.91	58440.84
538.08	58501.69
538.25	58550.84
538.42	58567.23
538.59	58417.43
538.75	57628.67
538.92	57668.46
539.09	57612.29
539.26	57333.76
539.43	57289.29
539.60	57209.71
539.77	57619.31
539.94	57251.84
540.11	56376.48
540.28	56172.86
540.44	56060.51
540.61	56217.33
540.78	56669.05
540.95	57113.75
541.12	57371.21
541.29	57712.93
541.46	58106.14
541.62	57909.53
541.79	57925.92
541.96	57158.22
542.13	56891.40
542.30	57474.20
542.47	57654.42
542.63	57298.65
542.80	57125.46
542.97	57619.31
543.14	57144.18
543.31	57284.61
543.48	57584.20
543.64	58646.80
543.81	58775.53
543.98	58534.46
544.15	58026.56
544.32	57352.49
544.48	57584.20
544.65	58026.56
544.82	58342.53
544.99	58035.92
545.16	57537.39
545.32	57361.85
545.49	58176.36
545.66	58508.71
545.83	58188.06
546.00	57893.15
546.16	57565.48
546.33	57698.89
546.50	57621.65
546.67	58110.82
546.83	57567.82
547.00	57642.71
547.17	57109.07
547.34	56224.35
547.50	56341.38
547.67	56891.40
547.84	56814.16
548.00	57209.71
548.17	57616.97
548.34	57453.13
548.51	57614.63
548.67	57485.90
548.84	57605.26
549.01	57626.33
549.18	57382.91
549.34	57153.54
549.51	57387.60
549.68	57345.47
549.84	57085.67
550.01	57038.86
550.18	56860.97
550.34	56917.15
550.51	57071.62
550.68	57109.07
550.84	56498.19
551.01	56690.12
551.18	56673.73
551.34	56996.73
551.51	57202.69
551.68	57443.77
551.84	57532.71
552.01	57546.75
552.18	57153.54
552.34	56566.07
552.51	56128.39
552.68	55840.50
552.84	56587.13
553.01	56685.43
553.18	56615.22
553.34	57062.26
553.51	57006.09
553.67	57153.54
553.84	57221.42
554.01	57176.95
554.17	56870.34
554.34	56963.96
554.51	57179.29
554.67	57717.61
554.84	57216.74
555.00	56652.67
555.17	56781.40
555.33	56659.69
555.50	56488.83
555.67	56535.64
555.83	56521.60
556.00	56184.56
556.16	56299.25
556.33	55641.56
556.50	55704.75
556.66	56037.11
556.83	55753.90
556.99	55697.73
557.16	55758.58
557.32	55952.85
557.49	56427.98
557.65	56278.18
557.82	55980.93
557.98	56072.21
558.15	55700.07
558.32	54820.03
558.48	53862.75
558.65	54122.55
558.81	54585.97
558.98	54628.10
559.14	55201.53
559.31	54850.45
559.47	55000.25
559.64	54719.38
559.80	54270.00
559.97	54260.64
560.13	54906.63
560.30	55812.41
560.46	56416.27
560.63	56626.92
560.79	56430.32
560.96	56261.80
561.12	55131.32
561.29	53982.12
561.45	54225.53
561.61	54747.47
561.78	55164.09
561.94	54932.37
562.11	54927.69
562.27	54780.24
562.44	55271.75
562.60	55407.50
562.77	55538.57
562.93	55529.21
563.10	55494.10
563.26	55110.25
563.42	54953.44
563.59	54843.43
563.75	54651.51
563.92	54965.14
564.08	54691.30
564.24	55323.24
564.41	55028.34
564.57	54908.97
564.74	54784.92
564.90	54466.61
565.07	54583.63
565.23	54068.72
565.39	53680.19
565.56	53207.40
565.72	53392.30
565.88	53446.13
566.05	53581.88
566.21	53911.90
566.38	54064.03
566.54	54122.55
566.70	54550.87
566.87	54693.64
567.03	54618.74
567.19	55168.77
567.36	54663.21
567.52	54468.95
567.68	54298.09
567.85	53558.48
568.01	53286.98
568.17	52886.74
568.34	53090.37
568.50	52725.25
568.66	52779.08
568.83	53518.69
568.99	53322.08
569.15	53535.07
569.32	53474.22
569.48	53385.28
569.64	52978.03
569.81	52928.87
569.97	53162.93
570.13	52865.68
570.30	52119.05
570.46	51578.39
570.62	51269.43
570.78	50923.04
570.95	51313.90
571.11	52250.12
571.27	52280.55
571.43	52481.83
571.60	52851.64
571.76	52823.55
571.92	53092.71
572.09	53380.60
572.25	53605.29
572.41	53298.68
572.57	53322.08
572.74	53111.44
572.90	52802.49
573.06	52479.49
573.22	52643.33
573.38	52963.98
573.55	53116.12
573.71	52570.77
573.87	52786.10
574.03	52853.98
574.20	52310.97
574.36	52458.43
574.52	52126.07
574.68	51973.94
574.84	51622.86
575.01	51206.24
575.17	50677.28
575.33	51402.85
575.49	51657.96
575.65	51796.06
575.82	51508.17
575.98	51208.58
576.14	51554.98
576.30	51887.34
576.46	52002.02
576.62	52200.97
576.79	52034.79
576.95	51592.43
577.11	51250.71
577.27	51484.76
577.43	51358.38
577.59	51157.09
577.75	50726.43
577.92	50042.99
578.08	49893.20
578.24	49949.37
578.40	50288.75
578.56	50693.66
578.72	50588.34
578.88	50908.99
579.04	51175.81
579.21	51222.62
579.37	51615.83
579.53	51283.48
579.69	51292.84
579.85	51353.69
580.01	51250.71
580.17	50693.66
580.33	50658.56
580.49	50625.79
580.65	51192.20
580.82	51210.92
580.98	51105.60
581.14	50890.27
581.30	51044.74
581.46	50738.13
581.62	51199.22
581.78	51496.47
581.94	51374.76
582.10	51494.13
582.26	51643.92
582.42	51426.25
582.58	51433.27
582.74	51196.88
582.90	51437.95
583.06	51468.38
583.22	50885.59
583.38	51065.81
583.54	50897.29
583.70	50808.35
583.86	50527.48
584.02	50590.68
584.18	50993.25
584.34	50890.27
584.50	50712.39
584.66	50656.21
584.82	49918.95
584.98	50099.17
585.14	49886.18
585.30	48942.94
