SpectraSuite Data File
++++++++++++++++++++++++++++++++++++
Date: Mon Oct 07 14:53:31 GMT-05:00 2013
User: price-jones
Dark Spectrum Present: No
Reference Spectrum Present: No
Number of Sampled Component Spectra: 1
Spectrometers: USB2+H05261
Integration Time (usec): 100000 (USB2+H05261)
Spectra Averaged: 1 (USB2+H05261)
Boxcar Smoothing: 0 (USB2+H05261)
Correct for Electrical Dark: No (USB2+H05261)
Strobe/Lamp Enabled: No (USB2+H05261)
Correct for Detector Non-linearity: No (USB2+H05261)
Correct for Stray Light: No (USB2+H05261)
Number of Pixels in Processed Spectrum: 2048
>>>>>Begin Processed Spectral Data<<<<<
365.73	0.00
365.92	0.00
366.12	0.00
366.32	0.00
366.52	0.00
366.72	0.00
366.91	0.00
367.11	0.00
367.31	0.00
367.51	0.00
367.70	0.00
367.90	0.00
368.10	0.00
368.30	0.00
368.49	0.00
368.69	0.00
368.89	0.00
369.09	0.00
369.28	0.00
369.48	0.00
369.68	0.00
369.87	0.00
370.07	0.00
370.27	0.00
370.47	578.11
370.66	3012.27
370.86	3644.21
371.06	3819.75
371.25	4007.00
371.45	3543.57
371.65	3119.93
371.84	3040.36
372.04	3269.73
372.24	3595.06
372.44	3726.13
372.63	3646.55
372.83	3386.76
373.03	3016.95
373.22	2789.92
373.42	2890.56
373.62	3440.59
373.81	3639.53
374.01	3815.07
374.21	3265.05
374.40	2979.50
374.60	3173.77
374.79	3527.19
374.99	4290.20
375.19	4463.40
375.38	4411.91
375.58	4292.54
375.78	4135.73
375.97	4198.92
376.17	4468.08
376.37	4311.27
376.56	4404.89
376.76	4802.78
376.95	5142.16
377.15	5504.94
377.35	5516.64
377.54	5900.49
377.74	5977.73
377.93	6108.80
378.13	5825.59
378.33	5659.42
378.52	5270.89
378.72	4844.91
378.91	4966.62
379.11	4720.86
379.31	4580.43
379.50	4634.26
379.70	4997.04
379.89	5516.64
380.09	5713.25
380.28	6003.47
380.48	5891.13
380.68	5769.42
380.87	5720.27
381.07	5427.70
381.26	4830.87
381.46	4545.32
381.65	4341.69
381.85	4346.37
382.04	4177.86
382.24	3852.52
382.43	3574.00
382.63	3482.72
382.83	3564.64
383.02	3597.40
383.22	3637.19
383.41	3681.66
383.61	3892.31
383.80	4320.63
384.00	5027.47
384.19	5607.92
384.39	5802.19
384.58	5989.43
384.78	5795.17
384.97	5827.93
385.17	5385.57
385.36	5217.05
385.56	4950.23
385.75	5125.77
385.95	5600.90
386.14	6134.54
386.34	5973.05
386.53	5914.53
386.72	5411.32
386.92	5420.68
387.11	5640.69
387.31	6101.78
387.50	5912.19
387.70	5715.59
387.89	5678.14
388.09	5689.84
388.28	5809.21
388.48	5856.02
388.67	6422.43
388.86	6813.30
389.06	7297.79
389.25	7840.79
389.45	7878.24
389.64	7943.78
389.84	7665.25
390.03	7510.78
390.22	7679.30
390.42	7913.35
390.61	8390.82
390.81	8992.34
391.00	9039.15
391.19	8915.10
391.39	9029.79
391.58	8224.64
391.78	7948.46
391.97	7332.90
392.16	6979.48
392.36	6530.09
392.55	5060.24
392.75	4159.13
392.94	3365.69
393.13	3155.04
393.33	3943.80
393.52	4826.18
393.71	6176.67
393.91	6768.83
394.10	7492.05
394.29	8262.09
394.49	8870.63
394.68	9427.68
394.88	9504.92
395.07	10216.44
395.26	9879.40
395.46	9544.70
395.65	9011.06
395.84	7946.12
396.04	6703.29
396.23	5394.93
396.42	4444.68
396.62	4341.69
396.81	5144.50
397.00	6286.68
397.19	8060.80
397.39	9650.03
397.58	10780.51
397.77	11412.45
397.97	12175.47
398.16	12088.87
398.35	12561.66
398.55	12894.01
398.74	13462.76
398.93	13748.31
399.12	13549.36
399.32	13013.38
399.51	13263.82
399.70	14221.10
399.90	13902.78
400.09	14193.01
400.28	13832.57
400.47	13937.89
400.67	14707.93
400.86	15351.57
401.05	15087.09
401.24	15337.53
401.44	15463.92
401.63	15470.94
401.82	15492.01
402.01	15480.30
402.21	15885.22
402.40	16011.60
402.59	15192.42
402.78	14623.67
402.97	14214.07
403.17	14539.41
403.36	15499.03
403.55	16137.99
403.74	16526.52
403.93	15719.04
404.13	14455.15
404.32	14038.53
404.51	14829.63
404.70	16037.35
404.89	16063.10
405.09	15707.34
405.28	15222.84
405.47	15272.00
405.66	15332.85
405.85	14853.04
406.05	14384.93
406.24	14817.93
406.43	15346.89
406.62	15833.72
406.81	15733.08
407.00	15325.83
407.20	15066.03
407.39	15105.82
407.58	15803.30
407.77	16318.22
407.96	16994.63
408.15	17116.34
408.34	17018.04
408.54	18244.48
408.73	18099.36
408.92	18104.04
409.11	17535.29
409.30	16294.81
409.49	15695.63
409.68	14726.65
409.87	14134.50
410.07	14750.06
410.26	16025.65
410.45	16809.73
410.64	17455.72
410.83	18274.90
411.02	18387.25
411.21	19168.99
411.40	19056.64
411.59	19035.58
411.78	19019.19
411.98	18745.35
412.17	19342.19
412.36	18892.80
412.55	18738.33
412.74	18396.61
412.93	17771.69
413.12	18443.42
413.31	19786.89
413.50	19988.18
413.69	20217.55
413.88	20009.24
414.07	19241.54
414.26	19470.92
414.45	19915.62
414.64	20217.55
414.83	20236.27
415.02	19889.87
415.22	19854.76
415.41	20467.98
415.60	20603.74
415.79	21439.31
415.98	22134.45
416.17	21926.14
416.36	21511.86
416.55	21151.42
416.74	20734.81
416.93	20060.73
417.12	20006.90
417.31	20421.17
417.50	20407.13
417.69	21308.24
417.88	21069.50
418.07	20910.35
418.26	20486.71
418.45	20912.69
418.64	21621.87
418.83	22251.47
419.02	21872.31
419.21	21979.97
419.39	20540.54
419.58	19943.70
419.77	19950.73
419.96	20889.28
420.15	21975.29
420.34	22586.17
420.53	23225.14
420.72	24217.52
420.91	24105.18
421.10	23269.61
421.29	23428.76
421.48	22494.89
421.67	23269.61
421.86	23016.83
422.05	21666.34
422.24	19054.30
422.43	18721.95
422.61	20849.49
422.80	22221.05
422.99	22637.66
423.18	22094.66
423.37	21500.16
423.56	21652.30
423.75	21542.29
423.94	21891.03
424.13	21055.46
424.32	21312.92
424.50	21233.34
424.69	21209.93
424.88	21238.02
425.07	21043.76
425.26	21139.72
425.45	20751.19
425.64	20470.33
425.83	20327.55
426.01	21678.04
426.20	22040.82
426.39	21778.68
426.58	20463.30
426.77	18939.62
426.96	18576.83
427.15	19115.16
427.33	20540.54
427.52	21331.64
427.71	21448.67
427.90	21289.51
428.09	20971.20
428.28	20313.51
428.46	19955.41
428.65	19393.68
428.84	19803.27
429.03	20163.72
429.22	19140.90
429.40	18113.41
429.59	16851.86
429.78	14719.63
429.97	14410.68
430.16	14768.78
430.34	15150.29
430.53	14869.42
430.72	15077.73
430.91	17027.40
431.10	19669.86
431.28	23365.57
431.47	25139.69
431.66	25245.02
431.85	23288.33
432.03	21422.92
432.22	20575.65
432.41	21048.44
432.60	23569.19
432.79	24596.69
432.97	25259.06
433.16	24877.55
433.35	22466.80
433.54	20365.00
433.72	18930.25
433.91	19499.00
434.10	21668.68
434.28	23227.48
434.47	24793.29
434.66	24407.11
434.85	23356.21
435.03	23440.47
435.22	23868.78
435.41	25710.78
435.59	25392.47
435.78	25750.57
435.97	26628.27
436.16	26707.85
436.34	26249.11
436.53	25724.83
436.72	25781.00
436.90	24496.05
437.09	24563.92
437.28	23777.50
437.46	24805.00
437.65	24465.62
437.84	23070.66
438.02	21266.11
438.21	21158.44
438.40	21741.24
438.58	23988.15
438.77	24851.81
438.96	24961.81
439.14	26249.11
439.33	26941.91
439.52	27215.75
439.70	26747.64
439.89	25991.65
440.08	25291.83
440.26	25221.61
440.45	26047.82
440.63	27531.72
440.82	29134.99
441.01	28507.72
441.19	28313.46
441.38	29167.76
441.57	29923.75
441.75	30366.11
441.94	30581.44
442.12	30085.25
442.31	30799.11
442.50	30679.74
442.68	30216.32
442.87	30338.02
443.05	29277.76
443.24	30008.01
443.43	30621.23
443.61	31454.46
443.80	31779.79
443.98	30078.22
444.17	29427.56
444.35	31772.77
444.54	31840.65
444.73	31817.24
444.91	30246.74
445.10	29198.18
445.28	27845.35
445.47	27725.99
445.65	27833.65
445.84	28547.51
446.02	29493.09
446.21	29795.02
446.39	30366.11
446.58	30462.07
446.77	31117.42
446.95	31133.81
447.14	31941.29
447.32	32601.32
447.51	31812.56
447.69	30588.46
447.88	30160.14
448.06	30799.11
448.25	31225.09
448.43	31725.96
448.62	31023.80
448.80	30859.96
448.99	30960.61
449.17	31625.32
449.36	31367.86
449.54	32339.18
449.73	33109.22
449.91	33193.48
450.10	34141.39
450.28	34895.05
450.46	34787.38
450.65	34366.09
450.83	34007.98
451.02	33429.87
451.20	33577.33
451.39	33525.83
451.57	33336.25
451.76	33156.03
451.94	33170.07
452.13	32465.57
452.31	30747.62
452.49	29759.91
452.68	29647.57
452.86	29865.24
453.05	30319.30
453.23	31124.44
453.42	31770.43
453.60	32744.09
453.78	33092.83
453.97	32781.54
454.15	32608.34
454.34	31915.54
454.52	32245.56
454.70	31019.12
454.89	31740.00
455.07	32191.73
455.26	32308.76
455.44	33312.84
455.62	34007.98
455.81	34415.24
455.99	34136.71
456.17	33867.55
456.36	34000.96
456.54	34871.64
456.73	34483.11
456.91	35211.02
457.09	35728.28
457.28	35913.18
457.46	34742.91
457.64	34576.73
457.83	33652.22
458.01	32975.81
458.19	33766.91
458.38	34150.76
458.56	35248.47
458.74	34808.45
458.93	33799.68
459.11	33750.52
459.29	33727.12
459.48	34096.92
459.66	33785.63
459.84	34731.21
460.03	34960.58
460.21	34522.90
460.39	35365.49
460.57	35871.05
460.76	36095.74
460.94	36259.58
461.12	35391.24
461.31	35152.51
461.49	35517.63
461.67	35409.96
461.85	36790.88
462.04	36308.73
462.22	37125.58
462.40	37015.57
462.59	36383.63
462.77	36360.22
462.95	36704.28
463.13	35864.03
463.32	35608.91
463.50	35566.78
463.68	35309.32
463.86	35779.77
464.05	35213.36
464.23	34527.58
464.41	34387.15
464.59	33640.52
464.78	35477.84
464.96	35019.10
465.14	34597.80
465.32	35840.62
465.50	36292.35
465.69	37113.87
465.87	36013.82
466.05	34927.81
466.23	33563.28
466.41	33083.47
466.60	33888.62
466.78	34134.37
466.96	34471.41
467.14	34951.22
467.32	35515.29
467.51	35702.53
467.69	34162.46
467.87	34616.52
468.05	35285.92
468.23	35428.69
468.41	35215.70
468.60	35681.47
468.78	35702.53
468.96	35218.04
469.14	35878.07
469.32	36147.23
469.50	34527.58
469.69	34646.95
469.87	34366.09
470.05	34305.23
470.23	34293.53
470.41	34710.14
470.59	34808.45
470.77	35033.14
470.95	35952.97
471.14	36114.47
471.32	36226.81
471.50	38199.88
471.68	38167.12
471.86	38604.80
472.04	38920.77
472.22	38864.60
472.40	37104.51
472.58	36587.25
472.77	36187.02
472.95	36938.33
473.13	37593.68
473.31	37141.96
473.49	36891.52
473.67	37715.39
473.85	37975.19
474.03	38560.33
474.21	39150.14
474.39	39463.77
474.57	39782.09
474.75	39524.63
474.93	39674.42
475.12	38143.71
475.30	38548.62
475.48	39028.43
475.66	39402.92
475.84	38855.23
476.02	38515.86
476.20	37649.86
476.38	38412.87
476.56	39463.77
476.74	40123.80
476.92	40224.45
477.10	41127.89
477.28	42197.52
477.46	42319.23
477.64	42749.88
477.82	42590.73
478.00	43077.56
478.18	41989.21
478.36	41734.09
478.54	42064.11
478.72	42267.73
478.90	43117.35
479.08	44311.02
479.26	44945.31
479.44	44804.88
479.62	44390.60
479.80	44734.66
479.98	44975.73
480.16	44961.69
480.34	44397.62
480.52	44664.44
480.70	45022.54
480.88	45497.67
481.06	46057.06
481.24	46021.95
481.41	47126.69
481.59	47688.42
481.77	47297.55
481.95	46838.80
482.13	46850.50
482.31	47182.86
482.49	47868.64
482.67	47269.46
482.85	47442.66
483.03	48212.70
483.21	48318.02
483.39	48697.19
483.57	47896.72
483.74	47327.97
483.92	47906.08
484.10	47995.03
484.28	48914.86
484.46	49481.27
484.64	49750.43
484.82	48872.73
485.00	48343.77
485.18	47547.98
485.35	46089.83
485.53	43274.16
485.71	39854.64
485.89	39271.85
486.07	40879.80
486.25	44020.80
486.43	46199.83
486.61	47253.08
486.78	47250.74
486.96	47454.36
487.14	48875.07
487.32	49914.26
487.50	50864.52
487.68	51519.87
487.85	52037.13
488.03	51913.08
488.21	51760.95
488.39	51079.85
488.57	50461.95
488.75	50171.72
488.92	51206.24
489.10	53090.37
489.28	54471.29
489.46	55051.74
489.64	54782.58
489.81	55171.11
489.99	54782.58
490.17	54843.43
490.35	55299.84
490.53	54607.04
490.70	54560.23
490.88	54255.96
491.06	55072.81
491.24	55061.10
491.41	54143.61
491.59	52516.94
491.77	51990.32
491.95	52919.51
492.13	54026.59
492.30	54955.78
492.48	56025.40
492.66	56498.19
492.84	56442.02
493.01	56327.33
493.19	55601.77
493.37	55449.63
493.54	55096.21
493.72	55674.32
493.90	56849.27
494.08	57354.83
494.25	57766.76
494.43	57628.67
494.61	58138.91
494.79	58197.42
494.96	57984.43
495.14	57478.88
495.32	56659.69
495.49	56032.42
495.67	57073.96
495.85	58061.67
496.02	58674.89
496.20	58562.54
496.38	58127.20
496.55	58005.50
496.73	58454.88
496.91	58492.33
497.09	59084.48
497.26	59072.78
497.44	58773.19
497.62	58436.16
497.79	57511.64
497.97	56647.99
498.14	56451.38
498.32	57574.84
498.50	58445.52
498.67	59110.23
498.85	58745.11
499.03	58962.78
499.20	59157.04
499.38	59157.04
499.56	59014.27
499.73	58546.16
499.91	58375.30
500.08	57811.23
500.26	57104.39
500.44	57748.04
500.61	58136.57
500.79	57982.09
500.97	57612.29
501.14	57645.05
501.32	57418.02
501.49	57371.21
501.67	57544.41
501.84	57867.40
502.02	58227.85
502.20	58838.73
502.37	58955.75
502.55	58777.87
502.72	59168.74
502.90	59847.50
503.07	59678.98
503.25	59196.83
503.43	58412.75
503.60	57586.54
503.78	57059.92
503.95	57521.01
504.13	58735.74
504.30	59667.28
504.48	59470.67
504.65	59014.27
504.83	59079.80
505.01	59671.96
505.18	60037.08
505.36	60708.82
505.53	60596.47
505.71	60802.44
505.88	60708.82
506.06	60179.85
506.23	60090.91
506.41	59540.89
506.58	59887.29
506.76	59840.48
506.93	59817.07
507.11	59449.61
507.28	59660.26
507.46	59196.83
507.63	58518.07
507.81	58457.22
507.98	58787.24
508.16	59341.94
508.33	59852.18
508.50	60313.26
508.68	60418.59
508.85	60811.80
509.03	61085.64
509.20	60872.65
509.38	60114.32
509.55	59316.20
509.73	59725.79
509.90	60074.53
510.08	60392.84
510.25	59927.08
510.42	60030.06
510.60	59934.10
510.77	60231.35
510.95	60662.00
511.12	60851.59
511.30	61132.45
511.47	61230.75
511.64	61296.29
511.82	60961.59
511.99	60221.98
512.17	59927.08
512.34	59594.72
512.51	59585.36
512.69	59683.66
512.86	59826.43
513.04	60210.28
513.21	60210.28
513.38	59931.76
513.56	59580.68
513.73	58855.11
513.90	58932.35
514.08	59388.75
514.25	59437.90
514.43	59629.83
514.60	59646.21
514.77	59831.11
514.95	60102.62
515.12	59983.25
515.29	60203.26
515.47	60629.24
515.64	60781.37
515.81	60446.68
515.99	59913.03
516.16	58639.78
516.33	56521.60
516.51	54995.57
516.68	54471.29
516.85	53848.71
517.03	54148.29
517.20	56739.27
517.37	58969.80
517.54	60268.79
517.72	59803.03
517.89	57492.92
518.06	55056.42
518.24	55278.77
518.41	57425.04
518.58	58752.13
518.75	58843.41
518.93	58939.37
519.10	58965.12
519.27	59409.82
519.45	59487.06
519.62	60266.45
519.79	60666.69
519.96	60355.39
520.14	59877.93
520.31	59236.62
520.48	59220.23
520.65	59632.17
520.83	60348.37
521.00	61027.13
521.17	60453.70
521.34	59945.80
521.52	60385.82
521.69	60725.20
521.86	61329.06
522.03	60949.89
522.20	59859.20
522.38	58976.82
522.55	58857.45
522.72	59334.92
522.89	59576.00
523.07	59533.87
523.24	60048.78
523.41	60835.20
523.58	61130.11
523.75	61429.70
523.92	61448.42
524.10	61329.06
524.27	61420.34
524.44	61162.88
524.61	60797.76
524.78	60781.37
524.96	60640.94
525.13	60790.73
525.30	61043.51
525.47	61439.06
525.64	61315.01
525.81	60554.34
525.98	59281.09
526.16	57893.15
526.33	57429.72
526.50	57010.77
526.67	56591.81
526.84	57256.53
527.01	58248.91
527.18	59018.95
527.36	59936.44
527.53	60596.47
527.70	60891.38
527.87	60519.23
528.04	60093.25
528.21	60264.11
528.38	60912.44
528.55	61490.55
528.72	61647.37
528.89	62007.81
529.07	61722.27
529.24	61052.87
529.41	60619.88
529.58	59758.56
529.75	60051.12
529.92	60425.61
530.09	60828.18
530.26	61261.18
530.43	61799.50
530.60	61537.36
530.77	61659.07
530.94	61736.31
531.11	61532.68
531.28	60963.93
531.46	60809.46
531.63	60914.78
531.80	61008.40
531.97	60432.63
532.14	59875.58
532.31	58880.86
532.48	58408.07
532.65	58347.21
532.82	59119.59
532.99	60011.34
533.16	60467.74
533.33	60898.40
533.50	60711.16
533.67	60217.30
533.84	59964.52
534.01	60030.06
534.18	60186.88
534.35	60406.89
534.52	60226.66
534.69	60479.44
534.86	60835.20
535.03	61277.57
535.20	61364.17
535.37	61801.85
535.54	61733.97
535.71	61595.88
535.88	61244.80
536.05	60732.22
536.22	60331.99
536.38	60018.36
536.55	59419.18
536.72	59032.99
536.89	58993.20
537.06	59695.36
537.23	60498.17
537.40	60732.22
537.57	60942.87
537.74	60437.31
537.91	60336.67
538.08	60542.64
538.25	60432.63
538.42	60734.56
538.59	60662.00
538.75	60058.15
538.92	59774.94
539.09	59543.23
539.26	59206.19
539.43	59194.49
539.60	59367.69
539.77	59554.93
539.94	59419.18
540.11	58478.28
540.28	58122.52
540.44	58089.76
540.61	58742.77
540.78	58642.12
540.95	59124.27
541.12	59557.27
541.29	59728.13
541.46	60018.36
541.62	60111.98
541.79	60001.97
541.96	59384.07
542.13	59236.62
542.30	59538.55
542.47	59746.86
542.63	59587.70
542.80	59283.43
542.97	59526.84
543.14	59185.13
543.31	59456.63
543.48	59793.67
543.64	60769.67
543.81	60905.42
543.98	60652.64
544.15	59913.03
544.32	59487.06
544.48	59714.09
544.65	60055.81
544.82	60254.75
544.99	59891.97
545.16	59601.74
545.32	59444.93
545.49	60156.45
545.66	60526.25
545.83	60266.45
546.00	59868.56
546.16	59702.38
546.33	59540.89
546.50	59505.78
546.67	59964.52
546.83	59608.76
547.00	59676.64
547.17	59058.74
547.34	58632.76
547.50	58487.65
547.67	58628.08
547.84	58927.67
548.00	59150.02
548.17	59583.02
548.34	59402.80
548.51	59508.12
548.67	59576.00
548.84	59676.64
549.01	59690.68
549.18	59442.59
549.34	59320.88
549.51	59487.06
549.68	59622.81
549.84	59318.54
550.01	59267.05
550.18	59107.89
550.34	59063.42
550.51	59164.06
550.68	59274.07
550.84	58710.00
551.01	58885.54
551.18	58918.31
551.34	59086.82
551.51	59391.09
551.68	59573.66
551.84	59746.86
552.01	59414.50
552.18	59632.17
552.34	58712.34
552.51	58227.85
552.68	58071.03
552.84	58789.58
553.01	58859.79
553.18	58728.72
553.34	58885.54
553.51	59103.21
553.67	59302.15
553.84	59533.87
554.01	59262.36
554.17	59213.21
554.34	58997.88
554.51	59363.01
554.67	59400.46
554.84	59489.40
555.00	59199.17
555.17	58824.68
555.33	58857.45
555.50	58747.45
555.67	58831.71
555.83	58602.33
556.00	58361.26
556.16	58150.61
556.33	57900.17
556.50	57724.63
556.66	58021.88
556.83	57586.54
556.99	57794.85
557.16	57932.94
557.32	58379.98
557.49	58611.70
557.65	58438.50
557.82	58342.53
557.98	58157.63
558.15	57682.50
558.32	57048.22
558.48	56324.99
558.65	56371.80
558.81	56809.48
558.98	57123.11
559.14	57361.85
559.31	57263.55
559.47	57029.49
559.64	57020.13
559.80	56877.36
559.97	56559.05
560.13	56942.89
560.30	58010.18
560.46	58525.10
560.63	58777.87
560.79	58684.25
560.96	58300.40
561.12	57228.44
561.29	56542.66
561.45	56327.33
561.61	57141.84
561.78	57429.72
561.94	57415.68
562.11	57277.59
562.27	56903.10
562.44	57357.17
562.60	57565.48
562.77	57836.98
562.93	57757.40
563.10	57544.41
563.26	56875.02
563.42	57116.09
563.59	56954.60
563.75	57205.03
563.92	57069.28
564.08	56999.07
564.24	57317.38
564.41	57153.54
564.57	57212.06
564.74	57450.79
564.90	57062.26
565.07	56760.33
565.23	56453.72
565.39	56041.79
565.56	55781.99
565.72	55774.97
565.88	55901.36
566.05	55891.99
566.21	56350.74
566.38	56556.70
566.54	56346.06
566.70	56676.07
566.87	56769.69
567.03	57057.58
567.19	57258.87
567.36	56868.00
567.52	56645.65
567.68	56655.01
567.85	55845.18
568.01	55466.02
568.17	55194.51
568.34	55423.89
568.50	55236.64
568.66	55353.67
568.83	55646.24
568.99	55664.96
569.15	55955.19
569.32	55875.61
569.48	55627.51
569.64	55547.93
569.81	55086.85
569.97	55016.63
570.13	55196.85
570.30	54450.22
570.46	54117.87
570.62	53799.55
570.78	53542.10
570.95	53752.74
571.11	54389.37
571.27	54834.07
571.43	55030.68
571.60	55175.79
571.76	55180.47
571.92	55653.26
572.09	55992.64
572.25	55763.26
572.41	55604.11
572.57	55590.06
572.74	55625.17
572.90	55250.69
573.06	55164.09
573.22	55276.43
573.38	55271.75
573.55	55112.59
573.71	55388.78
573.87	55494.10
574.03	55220.26
574.20	54871.52
574.36	54672.57
574.52	54593.00
574.68	54492.35
574.84	54080.42
575.01	53609.97
575.17	53609.97
575.33	53935.30
575.49	54255.96
575.65	54291.07
575.82	54007.86
575.98	54019.56
576.14	54272.34
576.30	54391.71
576.46	54595.34
576.62	54241.92
576.79	54485.33
576.95	53914.24
577.11	54073.40
577.27	54028.93
577.43	54096.80
577.59	53691.89
577.75	53738.70
577.92	52706.52
578.08	52816.53
578.24	52762.70
578.40	52987.39
578.56	53434.43
578.72	53226.12
578.88	53584.22
579.04	53563.16
579.21	53968.07
579.37	53778.49
579.53	53820.62
579.69	53916.58
579.85	54028.93
580.01	53759.76
580.17	53467.20
580.33	53092.71
580.49	53109.10
580.65	53542.10
580.82	53867.43
580.98	53813.60
581.14	53530.39
581.30	53759.76
581.46	53710.61
581.62	53956.37
581.78	53652.10
581.94	54042.97
582.10	53719.98
582.26	53649.76
582.42	53860.41
582.58	54169.36
582.74	53895.52
582.90	53963.39
583.06	53745.72
583.22	53787.85
583.38	53326.77
583.54	53673.16
583.70	53609.97
583.86	53633.38
584.02	53511.67
584.18	53790.19
584.34	53577.20
584.50	53256.55
584.66	53209.74
584.82	52851.64
584.98	52561.41
585.14	52760.36
