SpectraSuite Data File
++++++++++++++++++++++++++++++++++++
Date: Mon Oct 07 14:53:09 GMT-05:00 2013
User: price-jones
Dark Spectrum Present: No
Reference Spectrum Present: No
Number of Sampled Component Spectra: 1
Spectrometers: USB2+H05261
Integration Time (usec): 100000 (USB2+H05261)
Spectra Averaged: 1 (USB2+H05261)
Boxcar Smoothing: 0 (USB2+H05261)
Correct for Electrical Dark: No (USB2+H05261)
Strobe/Lamp Enabled: No (USB2+H05261)
Correct for Detector Non-linearity: No (USB2+H05261)
Correct for Stray Light: No (USB2+H05261)
Number of Pixels in Processed Spectrum: 2048
>>>>>Begin Processed Spectral Data<<<<<
365.73	0.00
365.92	0.00
366.12	0.00
366.32	0.00
366.52	0.00
366.72	0.00
366.91	0.00
367.11	0.00
367.31	0.00
367.51	0.00
367.70	0.00
367.90	0.00
368.10	0.00
368.30	0.00
368.49	0.00
368.69	0.00
368.89	0.00
369.09	0.00
369.28	0.00
369.48	0.00
369.68	0.00
369.87	0.00
370.07	0.00
370.27	0.00
370.47	772.38
370.66	3698.05
370.86	4355.74
371.06	4695.11
371.25	4844.91
371.45	4278.50
371.65	4004.66
371.84	3768.26
372.04	4065.51
372.24	4313.61
372.44	4542.98
372.63	4414.25
372.83	4086.58
373.03	3763.58
373.22	3492.08
373.42	3555.27
373.62	4135.73
373.81	4379.14
374.01	4498.51
374.21	3974.23
374.40	3756.56
374.60	3922.74
374.79	4344.03
374.99	5093.01
375.19	5645.37
375.38	5493.24
375.58	5088.32
375.78	5048.54
375.97	5146.84
376.17	5582.18
376.37	5191.31
376.56	5301.31
376.76	5933.26
376.95	6183.70
377.15	6729.04
377.35	6916.28
377.54	6958.41
377.74	7229.91
377.93	7262.68
378.13	7045.01
378.33	6630.74
378.52	6132.20
378.72	5980.07
378.91	5671.12
379.11	5757.72
379.31	5432.38
379.50	5446.43
379.70	5839.64
379.89	6569.88
380.09	6817.98
380.28	7262.68
380.48	7077.78
380.68	7030.97
380.87	6747.76
381.07	6282.00
381.26	5645.37
381.46	5364.51
381.65	5181.95
381.85	5128.11
382.04	4915.12
382.24	4479.79
382.43	4287.86
382.63	4308.93
382.83	4278.50
383.02	4224.67
383.22	4465.74
383.41	4135.73
383.61	4636.60
383.80	5355.15
384.00	6026.88
384.19	6691.59
384.39	6885.86
384.58	7012.24
384.78	6932.67
384.97	6850.75
385.17	6373.28
385.36	6209.44
385.56	5870.06
385.75	6108.80
385.95	6663.51
386.14	7136.29
386.34	7133.95
386.53	6799.26
386.72	6490.31
386.92	6516.05
387.11	6944.37
387.31	7232.26
387.50	7155.02
387.70	6883.52
387.89	6803.94
388.09	6937.35
388.28	7014.59
388.48	7047.35
388.67	7400.77
388.86	8353.37
389.06	8739.56
389.25	9310.65
389.45	9357.46
389.64	9348.10
389.84	9020.42
390.03	9043.83
390.22	9060.21
390.42	9469.81
390.61	9694.50
390.81	10799.23
391.00	10981.79
391.19	10611.99
391.39	10244.52
391.58	9502.58
391.78	8957.23
391.97	8833.18
392.16	8372.10
392.36	7456.95
392.55	6043.26
392.75	4702.14
392.94	3798.69
393.13	3964.87
393.33	4636.60
393.52	5853.68
393.71	7253.32
393.91	8219.96
394.10	8894.04
394.29	9970.68
394.49	10413.04
394.68	11208.83
394.88	11173.72
395.07	11616.08
395.26	11742.47
395.46	11096.48
395.65	10427.09
395.84	9202.99
396.04	7676.96
396.23	6356.90
396.42	5334.08
396.62	5121.09
396.81	6031.56
397.00	7634.83
397.19	9736.63
397.39	11365.64
397.58	12901.03
397.77	13886.40
397.97	14167.26
398.16	14169.60
398.35	14846.02
398.55	15229.87
398.74	15712.02
398.93	16020.97
399.12	15939.05
399.32	14986.45
399.51	15639.46
399.70	16744.19
399.90	16458.65
400.09	16407.16
400.28	16336.94
400.47	16599.08
400.67	17767.01
400.86	17731.90
401.05	17767.01
401.24	17525.93
401.44	18183.62
401.63	18068.94
401.82	18192.98
402.01	18281.92
402.21	18401.29
402.40	18466.83
402.59	18080.64
402.78	17317.62
402.97	16734.83
403.17	17198.26
403.36	18530.02
403.55	19110.47
403.74	19335.17
403.93	18642.37
404.13	16957.18
404.32	16919.73
404.51	17422.95
404.70	18817.91
404.89	18925.57
405.09	18366.18
405.28	17668.70
405.47	17884.03
405.66	18047.87
405.85	17514.23
406.05	17015.69
406.24	17048.46
406.43	18129.79
406.62	18693.86
406.81	18899.83
407.00	18164.90
407.20	17516.57
407.39	17708.49
407.58	18726.63
407.77	19529.43
407.96	20245.63
408.15	20128.61
408.34	20290.10
408.54	21324.62
408.73	21612.51
408.92	21022.69
409.11	20657.57
409.30	19524.75
409.49	18445.76
409.68	17135.06
409.87	16643.55
410.07	17675.73
410.26	19232.18
410.45	20388.41
410.64	20741.83
410.83	21298.88
411.02	21605.49
411.21	22642.34
411.40	22274.88
411.59	22759.37
411.78	22286.58
411.98	22047.85
412.17	22537.02
412.36	21968.27
412.55	22040.82
412.74	21558.67
412.93	21223.98
413.12	21584.42
413.31	23288.33
413.50	23496.64
413.69	23927.30
413.88	23049.60
414.07	22284.24
414.26	22860.01
414.45	23693.24
414.64	23857.08
414.83	23583.24
415.02	23227.48
415.22	23374.93
415.41	24107.52
415.60	24442.21
415.79	25504.82
415.98	26047.82
416.17	26471.46
416.36	25699.08
416.55	25083.52
416.74	24058.37
416.93	23454.51
417.12	23477.91
417.31	23941.34
417.50	24109.86
417.69	25043.73
417.88	24865.85
418.07	24402.43
418.26	24322.85
418.45	24634.14
418.64	25186.50
418.83	25881.64
419.02	26015.05
419.21	25575.03
419.39	24177.73
419.58	23264.92
419.77	23428.76
419.96	24634.14
420.15	26127.40
420.34	26298.26
420.53	27391.29
420.72	27828.97
420.91	27524.70
421.10	27311.71
421.29	27391.29
421.48	26492.52
421.67	27674.49
421.86	26632.96
422.05	24814.36
422.24	22354.46
422.43	22246.79
422.61	24746.48
422.80	26703.17
422.99	26696.15
423.18	25703.76
423.37	25181.82
423.56	25383.11
423.75	25462.69
423.94	25998.67
424.13	24648.18
424.32	24790.95
424.50	25057.78
424.69	24727.76
424.88	25055.43
425.07	24985.22
425.26	24851.81
425.45	24629.46
425.64	23946.02
425.83	24219.86
426.01	25738.87
426.20	26036.12
426.39	25537.59
426.58	24109.86
426.77	22338.07
426.96	21537.61
427.15	22160.19
427.33	24301.78
427.52	25041.39
427.71	25298.85
427.90	24863.51
428.09	24809.68
428.28	24093.47
428.46	23091.73
428.65	22775.75
428.84	23623.03
429.03	23910.91
429.22	22373.18
429.40	21530.59
429.59	19400.70
429.78	17247.41
429.97	17219.32
430.16	17607.85
430.34	17642.96
430.53	17682.75
430.72	17841.90
430.91	19782.21
431.10	23571.54
431.28	27835.99
431.47	29848.85
431.66	30239.72
431.85	27300.01
432.03	25006.28
432.22	24105.18
432.41	25298.85
432.60	27824.29
432.79	28971.15
432.97	30113.33
433.16	28931.36
433.35	26272.51
433.54	23559.83
433.72	22286.58
433.91	23037.89
434.10	26274.85
434.28	27604.28
434.47	28851.78
434.66	28538.15
434.85	27634.71
435.03	27875.78
435.22	28573.26
435.41	29783.32
435.59	30230.36
435.78	30665.70
435.97	31079.97
436.16	31379.56
436.34	30618.89
436.53	30464.41
436.72	30246.74
436.90	29085.84
437.09	28828.38
437.28	28706.67
437.46	29715.44
437.65	29287.12
437.84	27267.24
438.02	25006.28
438.21	25429.92
438.40	26623.59
438.58	28861.15
438.77	29392.45
438.96	29731.83
439.14	30913.80
439.33	31222.75
439.52	32023.21
439.70	31409.99
439.89	30684.42
440.08	29699.06
440.26	29638.20
440.45	30993.37
440.63	32524.08
440.82	34272.46
441.01	34209.27
441.19	33553.92
441.38	34103.95
441.57	35700.19
441.75	35831.26
441.94	35924.88
442.12	35393.58
442.31	36369.58
442.50	36421.08
442.68	36299.37
442.87	35433.37
443.05	35028.46
443.24	35922.54
443.43	36378.95
443.61	36629.38
443.80	37490.70
443.98	35625.29
444.17	35063.57
444.35	37247.29
444.54	38220.95
444.73	37397.08
444.91	35859.35
445.10	34471.41
445.28	33312.84
445.47	32891.55
445.65	32655.15
445.84	33736.48
446.02	34855.26
446.21	35182.93
446.39	35580.82
446.58	36079.36
446.77	36495.97
446.95	36861.10
447.14	38059.45
447.32	38534.58
447.51	37689.65
447.69	36322.77
447.88	35889.77
448.06	36336.82
448.25	36947.70
448.43	37523.47
448.62	36664.49
448.80	36322.77
448.99	36762.79
449.17	37338.57
449.36	37305.80
449.54	38948.85
449.73	39124.40
449.91	39800.81
450.10	40594.25
450.28	40797.88
450.46	40718.30
450.65	40725.32
450.83	40664.47
451.02	39491.86
451.20	39412.28
451.39	39611.23
451.57	39236.74
451.76	38909.07
451.94	38770.97
452.13	38426.92
452.31	36364.90
452.49	35007.39
452.68	35227.40
452.86	35641.68
453.05	36367.24
453.23	36875.14
453.42	38024.34
453.60	38845.87
453.78	39241.42
453.97	38649.27
454.15	38785.02
454.34	37675.60
454.52	37996.26
454.70	37020.25
454.89	38031.36
455.07	38197.54
455.26	38525.22
455.44	39796.13
455.62	40205.72
455.81	40367.22
455.99	40374.24
456.17	40156.57
456.36	39690.80
456.54	41064.70
456.73	41254.28
456.91	41603.02
457.09	42403.49
457.28	42649.24
457.46	40835.33
457.64	40320.41
457.83	39653.36
458.01	39136.10
458.19	39906.13
458.38	39969.33
458.56	40964.06
458.74	40725.32
458.93	40877.46
459.11	40130.83
459.29	40411.69
459.48	40596.59
459.66	40109.76
459.84	40699.58
460.03	40739.36
460.21	41003.85
460.39	42080.49
460.57	41832.39
460.76	42377.74
460.94	42394.12
461.12	42162.41
461.31	41991.55
461.49	42031.34
461.67	42417.53
461.85	43615.88
462.04	42955.85
462.22	43454.39
462.40	43358.42
462.59	43124.37
462.77	43016.71
462.95	43313.95
463.13	42866.91
463.32	42237.31
463.50	41916.65
463.68	42316.89
463.86	42623.50
464.05	41596.00
464.23	41137.26
464.41	40842.35
464.59	40278.28
464.78	42256.03
464.96	42033.68
465.14	41310.46
465.32	42309.86
465.50	43555.03
465.69	43335.02
465.87	42918.40
466.05	42036.02
466.23	40023.16
466.41	38983.96
466.60	40662.13
466.78	40292.32
466.96	41167.68
467.14	41652.17
467.32	42148.37
467.51	42230.29
467.69	40100.40
467.87	41315.14
468.05	41839.42
468.23	41989.21
468.41	41998.57
468.60	42466.68
468.78	42284.12
468.96	41691.96
469.14	42815.42
469.32	42806.06
469.50	40966.40
469.69	41378.33
469.87	40760.43
470.05	40697.24
470.23	40950.01
470.41	41036.61
470.59	41303.43
470.77	41446.21
470.95	42232.63
471.14	42855.21
471.32	42887.98
471.50	44893.82
471.68	45326.81
471.86	45666.19
472.04	45897.91
472.22	45830.03
472.40	43789.08
472.58	43297.57
472.77	42890.32
472.95	44016.11
473.13	44781.47
473.31	44203.36
473.49	44032.50
473.67	45050.63
473.85	45263.62
474.03	46370.69
474.21	46141.32
474.39	46265.37
474.57	46321.54
474.75	46532.19
474.93	46202.18
475.12	45977.48
475.30	45434.48
475.48	45883.86
475.66	46330.90
475.84	45713.00
476.02	45986.85
476.20	45141.91
476.38	45979.82
476.56	47096.26
476.74	47332.65
476.92	47819.49
477.10	47966.94
477.28	49092.74
477.46	49165.29
477.64	49745.75
477.82	49628.72
478.00	49759.79
478.18	49099.76
478.36	49109.12
478.54	49223.81
478.72	49441.48
478.90	50515.78
479.08	51180.49
479.26	51636.90
479.44	51592.43
479.62	51358.38
479.80	51379.44
479.98	51566.68
480.16	51793.71
480.34	51578.39
480.52	51606.47
480.70	51863.93
480.88	52023.09
481.06	52472.47
481.24	52563.75
481.41	53343.15
481.59	54143.61
481.77	54082.76
481.95	53474.22
482.13	53301.02
482.31	53088.03
482.49	53593.59
482.67	53879.13
482.85	53851.05
483.03	54258.30
483.21	54782.58
483.39	54766.20
483.57	53890.83
483.74	53829.98
483.92	54295.75
484.10	54066.38
484.28	55063.44
484.46	55215.58
484.64	55341.97
484.82	54857.48
485.00	54518.10
485.18	53492.94
485.35	52821.21
485.53	50253.64
485.71	46934.76
485.89	46415.16
486.07	48325.04
486.25	51386.46
486.43	53064.63
486.61	53708.27
486.78	53703.59
486.96	54160.00
487.14	55089.19
487.32	55777.31
487.50	56456.06
487.68	57097.37
487.85	57425.04
488.03	57525.69
488.21	57237.80
488.39	56746.29
488.57	55957.53
488.75	55964.55
488.92	56917.15
489.10	58464.24
489.28	59334.92
489.46	60018.36
489.64	59758.56
489.81	59948.14
489.99	59568.97
490.17	59693.02
490.35	60093.25
490.53	59678.98
490.70	59414.50
490.88	59255.34
491.06	60018.36
491.24	59927.08
491.41	59079.80
491.59	57942.30
491.77	57387.60
491.95	58326.15
492.13	59135.98
492.30	60095.60
492.48	61148.84
492.66	61293.95
492.84	61052.87
493.01	61041.17
493.19	60662.00
493.37	60299.22
493.54	60198.58
493.72	60547.32
493.90	61368.85
494.08	62080.37
494.25	62431.45
494.43	62501.67
494.61	62885.51
494.79	62976.79
494.96	62541.45
495.14	62136.54
495.32	61385.23
495.49	60729.88
495.67	61942.28
495.85	63004.88
496.02	63159.36
496.20	63011.90
496.38	62651.46
496.55	62478.26
496.73	63061.05
496.91	63089.14
497.09	63472.99
497.26	63746.83
497.44	63201.49
497.62	62679.55
497.79	62159.95
497.97	61230.75
498.14	61460.13
498.32	62211.44
498.50	63037.65
498.67	63409.79
498.85	63475.33
499.03	63568.95
499.20	63845.13
499.38	63887.26
499.56	63608.74
499.73	63362.98
499.91	62929.98
500.08	62445.49
500.26	61979.73
500.44	62255.91
500.61	62995.52
500.79	62494.64
500.97	62244.21
501.14	62134.20
501.32	61975.05
501.49	62138.88
501.67	62302.72
501.84	62878.49
502.02	63093.82
502.20	63243.62
502.37	63454.26
502.55	63468.31
502.72	63913.01
502.90	64280.47
503.07	64034.72
503.25	63709.38
503.43	63011.90
503.60	62358.89
503.78	61851.00
503.95	62342.51
504.13	63606.40
504.30	64287.49
504.48	64018.33
504.65	63742.15
504.83	63880.24
505.01	64451.33
505.18	64523.89
505.36	65176.90
505.53	65197.96
505.71	65314.99
505.88	65464.78
506.06	64736.88
506.23	64551.98
506.41	64285.15
506.58	64509.85
506.76	64411.54
506.93	64418.56
507.11	64135.36
507.28	64301.54
507.46	64086.21
507.63	63257.66
507.81	63339.58
507.98	63568.95
508.16	64062.80
508.33	64423.25
508.50	64781.35
508.68	65087.96
508.85	65403.93
509.03	65511.59
509.20	65443.72
509.38	64732.20
509.55	64027.70
509.73	64198.55
509.90	64638.57
510.08	65008.38
510.25	64874.97
510.42	64720.49
510.60	64448.99
510.77	64945.18
510.95	65378.18
511.12	65219.03
511.30	65535.00
511.47	65535.00
511.64	65535.00
511.82	65527.98
511.99	64767.30
512.17	64652.62
512.34	64343.67
512.51	64458.35
512.69	64561.34
512.86	64629.21
513.04	65029.44
513.21	64860.93
513.38	64568.36
513.56	64053.44
513.73	63552.57
513.90	63931.73
514.08	64001.95
514.25	64292.18
514.43	64341.33
514.60	64596.45
514.77	64669.00
514.95	64699.43
515.12	64694.75
515.29	64881.99
515.47	65226.05
515.64	65525.64
515.81	65148.81
515.99	64559.00
516.16	63091.48
516.33	61371.19
516.51	60149.43
516.68	59618.13
516.85	59131.29
517.03	59884.95
517.20	61869.72
517.37	64018.33
517.54	64879.65
517.72	64247.71
517.89	62260.59
518.06	60020.70
518.24	60626.90
518.41	62452.51
518.58	63353.62
518.75	63487.03
518.93	63798.32
519.10	63639.17
519.27	64037.06
519.45	64353.03
519.62	64966.25
519.79	65403.93
519.96	65141.79
520.14	64748.58
520.31	64046.42
520.48	64053.44
520.65	64210.26
520.83	65183.92
521.00	65495.21
521.17	65099.66
521.34	64762.62
521.52	65020.08
521.69	65535.00
521.86	65535.00
522.03	65457.76
522.20	64371.75
522.38	63580.65
522.55	63795.98
522.72	64212.60
522.89	64327.28
523.07	64498.14
523.24	65001.36
523.41	65535.00
523.58	65535.00
523.75	65535.00
523.92	65535.00
524.10	65535.00
524.27	65535.00
524.44	65535.00
524.61	65535.00
524.78	65535.00
524.96	65359.46
525.13	65535.00
525.30	65535.00
525.47	65535.00
525.64	65535.00
525.81	65424.99
525.98	64116.64
526.16	63000.20
526.33	62314.42
526.50	62129.52
526.67	61935.26
526.84	62621.03
527.01	63252.98
527.18	63976.20
527.36	64556.66
527.53	65530.32
527.70	65535.00
527.87	65052.85
528.04	64760.28
528.21	65368.82
528.38	65535.00
528.55	65535.00
528.72	65535.00
528.89	65535.00
529.07	65535.00
529.24	65535.00
529.41	65235.41
529.58	64692.41
529.75	64975.61
529.92	65424.99
530.09	65535.00
530.26	65535.00
530.43	65535.00
530.60	65535.00
530.77	65535.00
530.94	65535.00
531.11	65535.00
531.28	65535.00
531.46	65535.00
531.63	65535.00
531.80	65535.00
531.97	65345.42
532.14	64757.94
532.31	63807.68
532.48	63255.32
532.65	63545.54
532.82	64130.68
532.99	65027.10
533.16	65249.45
533.33	65535.00
533.50	65535.00
533.67	65083.28
533.84	64725.17
534.01	64896.03
534.18	64980.29
534.35	65261.16
534.52	65125.41
534.69	65361.80
534.86	65535.00
535.03	65535.00
535.20	65535.00
535.37	65535.00
535.54	65535.00
535.71	65535.00
535.88	65535.00
536.05	65481.17
536.22	65043.49
536.38	64924.12
536.55	64383.46
536.72	63962.16
536.89	63997.27
537.06	64891.35
537.23	65532.66
537.40	65535.00
537.57	65535.00
537.74	65506.91
537.91	65347.76
538.08	65275.20
538.25	65354.78
538.42	65535.00
538.59	65434.36
538.75	64722.83
538.92	64601.13
539.09	64537.93
539.26	64399.84
539.43	64228.98
539.60	64434.95
539.77	64514.53
539.94	64402.18
540.11	63643.85
540.28	63119.57
540.44	63355.96
540.61	63449.58
540.78	63913.01
540.95	64140.04
541.12	64521.55
541.29	64549.63
541.46	65041.15
541.62	64994.34
541.79	64952.21
541.96	64245.36
542.13	64348.35
542.30	64617.51
542.47	64755.60
542.63	64519.21
542.80	64411.54
542.97	64622.19
543.14	64411.54
543.31	64402.18
543.48	64757.94
543.64	65502.23
543.81	65535.00
543.98	65535.00
544.15	65116.04
544.32	64687.73
544.48	64589.42
544.65	64992.00
544.82	65387.55
544.99	64867.95
545.16	64610.49
545.32	64526.23
545.49	65148.81
545.66	65401.59
545.83	65094.98
546.00	64786.03
546.16	64470.06
546.33	64636.23
546.50	64645.60
546.67	64940.50
546.83	64760.28
547.00	64872.63
547.17	64133.02
547.34	63664.91
547.50	63641.51
547.67	63950.46
547.84	64107.27
548.00	64406.86
548.17	64945.18
548.34	64589.42
548.51	64610.49
548.67	64561.34
548.84	64690.07
549.01	64748.58
549.18	64619.85
549.34	64601.13
549.51	64514.53
549.68	64479.42
549.84	64313.24
550.01	64196.21
550.18	64147.06
550.34	64236.00
550.51	64294.52
550.68	64493.46
550.84	63795.98
551.01	63866.20
551.18	64004.29
551.34	64100.25
551.51	64498.14
551.68	64725.17
551.84	64669.00
552.01	64456.01
552.18	64243.02
552.34	63681.30
552.51	63517.46
552.68	63341.92
552.84	63807.68
553.01	63859.18
553.18	63898.97
553.34	64093.23
553.51	64193.87
553.67	64233.66
553.84	64430.27
554.01	64329.62
554.17	64048.76
554.34	64287.49
554.51	64296.86
554.67	64650.28
554.84	64406.86
555.00	64296.86
555.17	64044.08
555.33	63983.22
555.50	64142.38
555.67	64039.40
555.83	63913.01
556.00	63533.84
556.16	63550.23
556.33	63344.26
556.50	63267.02
556.66	63217.87
556.83	63004.88
556.99	63051.69
557.16	63079.78
557.32	63594.70
557.49	63671.93
557.65	63599.38
557.82	63604.06
557.98	63508.10
558.15	62951.05
558.32	62342.51
558.48	61694.18
558.65	61701.20
558.81	62190.37
558.98	62536.77
559.14	62681.89
559.31	62684.23
559.47	62616.35
559.64	62532.09
559.80	62045.26
559.97	62347.19
560.13	62614.01
560.30	63348.94
560.46	63627.46
560.63	64034.72
560.79	63908.33
560.96	63496.39
561.12	62518.05
561.29	62066.33
561.45	61818.23
561.61	62562.52
561.78	62677.21
561.94	62789.55
562.11	62585.92
562.27	62660.82
562.44	62883.17
562.60	62880.83
562.77	63276.38
562.93	63044.67
563.10	63199.15
563.26	62616.35
563.42	62738.06
563.59	62527.41
563.75	62489.96
563.92	62358.89
564.08	62358.89
564.24	62796.57
564.41	62707.63
564.57	62712.31
564.74	62389.32
564.90	62347.19
565.07	62244.21
565.23	61946.96
565.39	61350.12
565.56	61221.39
565.72	61279.91
565.88	61535.02
566.05	61471.83
566.21	61645.03
566.38	61776.10
566.54	61921.21
566.70	62197.40
566.87	62518.05
567.03	62361.23
567.19	62714.65
567.36	62312.08
567.52	62300.38
567.68	61851.00
567.85	61380.55
568.01	61151.18
568.17	60924.14
568.34	60851.59
568.50	60987.34
568.66	60947.55
568.83	61392.25
568.99	61408.64
569.15	61464.81
569.32	61549.07
569.48	61226.07
569.64	61242.46
569.81	60889.04
569.97	60898.40
570.13	60863.29
570.30	60425.61
570.46	60158.79
570.62	59723.45
570.78	59568.97
570.95	60175.17
571.11	60465.40
571.27	60493.49
571.43	60757.97
571.60	61235.44
571.76	61155.86
571.92	61420.34
572.09	61537.36
572.25	61434.38
572.41	61352.46
572.57	61263.52
572.74	61312.67
572.90	60818.82
573.06	61029.47
573.22	61137.13
573.38	61050.53
573.55	60919.46
573.71	61228.41
573.87	60959.25
574.03	60863.29
574.20	61017.77
574.36	60659.66
574.52	60577.75
574.68	60413.91
574.84	60069.85
575.01	59746.86
575.17	59730.47
575.33	59964.52
575.49	60320.29
575.65	60261.77
575.82	60137.72
575.98	59611.10
576.14	60030.06
576.30	60224.32
576.46	60346.03
576.62	60322.63
576.79	60212.62
576.95	60266.45
577.11	60104.96
577.27	60074.53
577.43	60320.29
577.59	59697.70
577.75	59351.30
577.92	58965.12
578.08	58681.91
578.24	58829.37
578.40	59194.49
578.56	59494.08
578.72	59269.39
578.88	59585.36
579.04	59643.87
579.21	59718.77
579.37	59648.55
579.53	59908.35
579.69	59833.46
579.85	59868.56
580.01	59620.47
580.17	59245.98
580.33	59201.51
580.49	59564.29
580.65	59594.72
580.82	59833.46
580.98	59803.03
581.14	59580.68
581.30	59725.79
581.46	59501.10
581.62	59856.86
581.78	59718.77
581.94	59920.05
582.10	59854.52
582.26	60032.40
582.42	59983.25
582.58	59994.95
582.74	59985.59
582.90	59929.42
583.06	59985.59
583.22	59674.30
583.38	59751.54
583.54	59671.96
583.70	59784.30
583.86	59760.90
584.02	59597.06
584.18	59758.56
584.34	59522.16
584.50	59587.70
584.66	59290.45
584.82	58944.05
584.98	59063.42
585.14	58787.24
