SpectraSuite Data File
++++++++++++++++++++++++++++++++++++
Date: Mon Oct 07 14:53:33 GMT-05:00 2013
User: price-jones
Dark Spectrum Present: No
Reference Spectrum Present: No
Number of Sampled Component Spectra: 1
Spectrometers: USB2+H05261
Integration Time (usec): 100000 (USB2+H05261)
Spectra Averaged: 1 (USB2+H05261)
Boxcar Smoothing: 0 (USB2+H05261)
Correct for Electrical Dark: No (USB2+H05261)
Strobe/Lamp Enabled: No (USB2+H05261)
Correct for Detector Non-linearity: No (USB2+H05261)
Correct for Stray Light: No (USB2+H05261)
Number of Pixels in Processed Spectrum: 2048
>>>>>Begin Processed Spectral Data<<<<<
365.73	0.00
365.92	0.00
366.12	0.00
366.32	0.00
366.52	0.00
366.72	0.00
366.91	0.00
367.11	0.00
367.31	0.00
367.51	0.00
367.70	0.00
367.90	0.00
368.10	0.00
368.30	0.00
368.49	0.00
368.69	0.00
368.89	0.00
369.09	0.00
369.28	0.00
369.48	0.00
369.68	0.00
369.87	0.00
370.07	0.00
370.27	0.00
370.47	667.05
370.66	3002.91
370.86	3468.67
371.06	3925.08
371.25	3838.48
371.45	3494.42
371.65	3243.98
371.84	2949.08
372.04	3068.44
372.24	3494.42
372.44	3637.19
372.63	3599.74
372.83	3403.14
373.03	2930.35
373.22	2750.13
373.42	2848.43
373.62	3290.79
373.81	3658.26
374.01	3730.81
374.21	3279.09
374.40	2951.42
374.60	3105.89
374.79	3613.79
374.99	4067.85
375.19	4578.09
375.38	4454.04
375.58	4222.33
375.78	4042.11
375.97	4173.18
376.17	4404.89
376.37	4365.10
376.56	4374.46
376.76	4739.58
376.95	5088.32
377.15	5455.79
377.35	5542.39
377.54	5886.45
377.74	6139.23
377.93	6125.18
378.13	5788.14
378.33	5654.73
378.52	5111.73
378.72	4816.82
378.91	4847.25
379.11	4683.41
379.31	4421.27
379.50	4573.41
379.70	4908.10
379.89	5460.47
380.09	5764.74
380.28	5994.11
380.48	5947.30
380.68	5724.95
380.87	5481.53
381.07	4983.00
381.26	4842.57
381.46	4571.07
381.65	4379.14
381.85	4292.54
382.04	4067.85
382.24	3908.69
382.43	3648.90
382.63	3377.39
382.83	3655.92
383.02	3709.75
383.22	3456.97
383.41	3590.38
383.61	3782.31
383.80	4557.02
384.00	5142.16
384.19	5591.54
384.39	5781.12
384.58	5741.33
384.78	5778.78
384.97	5703.89
385.17	5343.44
385.36	5291.95
385.56	4870.65
385.75	5097.69
385.95	5589.20
386.14	5973.05
386.34	5982.41
386.53	5909.85
386.72	5605.58
386.92	5432.38
387.11	5778.78
387.31	5970.71
387.50	6101.78
387.70	5671.12
387.89	5729.63
388.09	5633.67
388.28	5626.65
388.48	5731.97
388.67	6305.40
388.86	6829.68
389.06	7293.11
389.25	7801.01
389.45	7763.56
389.64	7859.52
389.84	7730.79
390.03	7637.17
390.22	7438.22
390.42	7730.79
390.61	8491.46
390.81	8947.87
391.00	9177.24
391.19	9011.06
391.39	8704.45
391.58	8236.35
391.78	7566.95
391.97	7524.82
392.16	6869.47
392.36	6483.28
392.55	5252.16
392.75	4149.77
392.94	3276.75
393.13	3304.84
393.33	3875.93
393.52	4985.34
393.71	6141.57
393.91	6970.12
394.10	7435.88
394.29	8290.18
394.49	8861.27
394.68	9584.49
394.88	9591.52
395.07	9860.68
395.26	9806.84
395.46	9579.81
395.65	8938.51
395.84	7988.25
396.04	6595.63
396.23	5390.25
396.42	4402.55
396.62	4346.37
396.81	5027.47
397.00	6345.19
397.19	8224.64
397.39	9523.64
397.58	10829.66
397.77	11552.88
397.97	11798.64
398.16	12030.35
398.35	12428.24
398.55	12973.59
398.74	13273.18
398.93	13631.28
399.12	13488.51
399.32	12891.67
399.51	13331.69
399.70	14120.45
399.90	14005.77
400.09	14045.55
400.28	13858.31
400.47	13956.61
400.67	14747.72
400.86	14988.79
401.05	15131.56
401.24	15302.42
401.44	15351.57
401.63	15346.89
401.82	15524.77
402.01	15763.51
402.21	15367.96
402.40	15646.48
402.59	15108.16
402.78	14595.58
402.97	14193.01
403.17	14588.56
403.36	15356.25
403.55	16025.65
403.74	16664.61
403.93	15492.01
404.13	14614.30
404.32	14197.69
404.51	14501.96
404.70	15815.00
404.89	16088.84
405.09	15417.11
405.28	15419.45
405.47	15286.04
405.66	15349.23
405.85	15021.56
406.05	14368.55
406.24	14597.92
406.43	15227.53
406.62	15700.31
406.81	16226.93
407.00	15391.36
407.20	14836.66
407.39	15286.04
407.58	16161.40
407.77	16376.73
407.96	16903.35
408.15	17142.08
408.34	17198.26
408.54	18052.55
408.73	17905.10
408.92	17816.16
409.11	17600.83
409.30	16409.50
409.49	15330.51
409.68	14415.36
409.87	13996.40
410.07	14874.10
410.26	16149.70
410.45	17116.34
410.64	17481.46
410.83	18230.43
411.02	18534.70
411.21	19381.98
411.40	18794.50
411.59	19129.20
411.78	18911.53
411.98	18747.69
412.17	19363.25
412.36	18717.26
412.55	18848.33
412.74	18314.69
412.93	17685.09
413.12	18216.39
413.31	19669.86
413.50	19866.47
413.69	20496.07
413.88	19365.59
414.07	18993.45
414.26	19400.70
414.45	19749.44
414.64	19651.14
414.83	20320.53
415.02	19756.46
415.22	19667.52
415.41	20327.55
415.60	20596.71
415.79	21589.10
415.98	21825.50
416.17	22019.76
416.36	21752.94
416.55	21048.44
416.74	20779.28
416.93	19978.81
417.12	19978.81
417.31	20255.00
417.50	20697.36
417.69	21174.83
417.88	21151.42
418.07	20802.68
418.26	20585.01
418.45	20776.94
418.64	21687.40
418.83	22136.79
419.02	21881.67
419.21	22068.91
419.39	20531.18
419.58	19854.76
419.77	19899.23
419.96	20868.22
420.15	21937.84
420.34	22579.15
420.53	23473.23
420.72	23950.70
420.91	23608.98
421.10	22902.14
421.29	23171.30
421.48	22097.00
421.67	23459.19
421.86	22916.19
422.05	21535.27
422.24	18988.77
422.43	18740.67
422.61	20776.94
422.80	22527.66
422.99	22836.61
423.18	21675.70
423.37	21312.92
423.56	21317.60
423.75	21570.38
423.94	22408.29
424.13	20725.44
424.32	21223.98
424.50	21083.55
424.69	20912.69
424.88	20964.18
425.07	21167.80
425.26	20711.40
425.45	20807.36
425.64	20510.11
425.83	20519.48
426.01	21509.52
426.20	22012.74
426.39	21972.95
426.58	20430.54
426.77	18810.89
426.96	18033.83
427.15	18883.44
427.33	20177.76
427.52	21476.76
427.71	21221.64
427.90	21081.21
428.09	21008.65
428.28	20453.94
428.46	19660.50
428.65	19358.57
428.84	19864.13
429.03	20372.02
429.22	19264.95
429.40	18164.90
429.59	16573.33
429.78	14621.33
429.97	14466.85
430.16	14647.07
430.34	15026.24
430.53	14972.41
430.72	15201.78
430.91	17011.01
431.10	19695.61
431.28	23426.42
431.47	25324.60
431.66	25198.21
431.85	23075.34
432.03	21305.90
432.22	20339.26
432.41	20863.54
432.60	23157.26
432.79	24390.72
432.97	24975.86
433.16	24556.90
433.35	22600.21
433.54	20402.45
433.72	18904.51
433.91	19491.98
434.10	21649.96
434.28	23356.21
434.47	24706.70
434.66	24100.50
434.85	23571.54
435.03	23206.41
435.22	24203.48
435.41	25834.83
435.59	25188.85
435.78	25956.54
435.97	26604.87
436.16	27019.14
436.34	26237.41
436.53	25792.70
436.72	25771.64
436.90	24339.23
437.09	24386.04
437.28	24086.45
437.46	24826.06
437.65	24884.58
437.84	23197.05
438.02	21106.95
438.21	21008.65
438.40	22347.44
438.58	24280.72
438.77	24744.14
438.96	25064.80
439.14	26211.66
439.33	26532.31
439.52	26925.52
439.70	26682.11
439.89	25771.64
440.08	25247.36
440.26	24987.56
440.45	25769.30
440.63	27700.24
440.82	29282.44
441.01	28517.09
441.19	28430.49
441.38	28755.82
441.57	29818.42
441.75	30558.03
441.94	30679.74
442.12	30340.36
442.31	30775.70
442.50	31189.98
442.68	30352.07
442.87	30003.33
443.05	29369.04
443.24	29734.17
443.43	30682.08
443.61	31424.03
443.80	31592.55
443.98	29795.02
444.17	30024.39
444.35	31498.93
444.54	32542.81
444.73	31672.13
444.91	30403.56
445.10	29219.25
445.28	28252.61
445.47	28016.21
445.65	27529.38
445.84	28566.24
446.02	29537.56
446.21	29743.53
446.39	30139.08
446.58	30707.83
446.77	31129.12
446.95	31084.65
447.14	32261.94
447.32	32591.96
447.51	32070.02
447.69	31105.72
447.88	30607.19
448.06	30895.07
448.25	31557.44
448.43	31569.15
448.62	30815.49
448.80	30883.37
448.99	31204.02
449.17	31681.49
449.36	31208.70
449.54	32348.54
449.73	33113.90
449.91	33464.98
450.10	34314.59
450.28	34859.94
450.46	34384.81
450.65	34581.42
450.83	34595.46
451.02	33844.15
451.20	33242.63
451.39	33228.59
451.57	32975.81
451.76	33010.92
451.94	33137.30
452.13	31948.31
452.31	31388.92
452.49	29560.97
452.68	30150.78
452.86	29839.49
453.05	30265.47
453.23	31051.89
453.42	32027.89
453.60	32570.90
453.78	32973.47
453.97	32301.73
454.15	32875.16
454.34	32006.83
454.52	32128.53
454.70	31431.05
454.89	31536.38
455.07	31835.97
455.26	32116.83
455.44	33956.49
455.62	34298.21
455.81	34155.44
455.99	33792.65
456.17	33422.85
456.36	33846.49
456.54	34909.09
456.73	34876.32
456.91	35243.79
457.09	35875.73
457.28	36327.45
457.46	35206.34
457.64	34529.92
457.83	33408.81
458.01	32685.58
458.19	33656.90
458.38	33647.54
458.56	35091.65
458.74	34745.25
458.93	34408.22
459.11	34031.39
459.29	34026.71
459.48	34050.11
459.66	33806.70
459.84	34328.64
460.03	34684.40
460.21	34866.96
460.39	36013.82
460.57	35267.19
460.76	36091.06
460.94	36348.52
461.12	35232.08
461.31	36074.68
461.49	35285.92
461.67	35637.00
461.85	36421.08
462.04	36390.65
462.22	36954.72
462.40	36767.48
462.59	36510.02
462.77	36325.11
462.95	36683.22
463.13	36449.16
463.32	35747.00
463.50	35519.97
463.68	35709.55
463.86	35658.06
464.05	34925.47
464.23	34211.61
464.41	34230.33
464.59	33586.69
464.78	35496.56
464.96	35189.95
465.14	34766.32
465.32	35782.11
465.50	36432.78
465.69	36828.33
465.87	36341.50
466.05	35147.82
466.23	34015.01
466.41	33015.60
466.60	34113.31
466.78	34022.03
466.96	35035.48
467.14	35218.04
467.32	35489.54
467.51	35620.61
467.69	34188.21
467.87	34719.51
468.05	35290.60
468.23	35021.44
468.41	35023.78
468.60	35489.54
468.78	35737.64
468.96	35393.58
469.14	35983.40
469.32	36112.13
469.50	34527.58
469.69	35147.82
469.87	34604.82
470.05	33977.56
470.23	34155.44
470.41	34314.59
470.59	34979.31
470.77	34916.11
470.95	36273.62
471.14	36116.81
471.32	36280.64
471.50	38066.47
471.68	38007.96
471.86	38349.68
472.04	39152.48
472.22	39082.27
472.40	37343.25
472.58	36634.06
472.77	36266.60
472.95	37378.36
473.13	38038.39
473.31	36847.05
473.49	36917.27
473.67	37640.50
473.85	38134.35
474.03	39019.07
474.21	39299.94
474.39	39538.67
474.57	39875.71
474.75	39421.64
474.93	39812.51
475.12	38618.84
475.30	38211.59
475.48	38834.17
475.66	39608.89
475.84	38679.69
476.02	38543.94
476.20	37818.38
476.38	38335.63
476.56	39714.21
476.74	40755.75
476.92	40140.19
477.10	41113.85
477.28	42309.86
477.46	42038.36
477.64	42508.81
477.82	42855.21
478.00	42700.73
478.18	42548.60
478.36	42422.21
478.54	42590.73
478.72	42422.21
478.90	43735.25
479.08	44516.99
479.26	45067.02
479.44	44626.99
479.62	44519.33
479.80	44247.83
479.98	44919.56
480.16	45010.84
480.34	44500.61
480.52	45116.17
480.70	45638.11
480.88	44947.65
481.06	46223.24
481.24	46560.28
481.41	47302.23
481.59	47700.12
481.77	47489.47
481.95	47054.13
482.13	46667.94
482.31	46728.80
482.49	47824.17
482.67	47023.70
482.85	47938.85
483.03	48123.75
483.21	48762.72
483.39	48135.46
483.57	47716.50
483.74	47657.99
483.92	47688.42
484.10	47641.60
484.28	48797.83
484.46	48994.43
484.64	49715.32
484.82	49066.99
485.00	48439.73
485.18	47793.74
485.35	46527.51
485.53	43484.81
485.71	40308.71
485.89	38895.02
486.07	40751.07
486.25	44332.09
486.43	46553.26
486.61	47323.29
486.78	47243.71
486.96	47732.89
487.14	49120.82
487.32	49989.16
487.50	50948.78
487.68	51562.00
487.85	52261.82
488.03	52460.77
488.21	51742.22
488.39	50946.44
488.57	50581.32
488.75	50148.32
488.92	51227.31
489.10	53368.90
489.28	54403.41
489.46	54876.20
489.64	54923.01
489.81	55269.41
489.99	54838.75
490.17	54677.25
490.35	55201.53
490.53	54810.67
490.70	54412.77
490.88	53986.80
491.06	55189.83
491.24	55220.26
491.41	54101.48
491.59	52926.53
491.77	51995.00
491.95	53022.50
492.13	54281.70
492.30	55344.31
492.48	56079.24
492.66	56598.83
492.84	56545.00
493.01	56151.79
493.19	55709.43
493.37	55590.06
493.54	55089.19
493.72	55634.53
493.90	56540.32
494.08	57537.39
494.25	57717.61
494.43	57937.62
494.61	58248.91
494.79	58382.32
494.96	57996.13
495.14	57481.22
495.32	56734.59
495.49	55901.36
495.67	57172.27
495.85	58396.37
496.02	58562.54
496.20	58438.50
496.38	58056.99
496.55	58024.22
496.73	58323.81
496.91	58522.76
497.09	59131.29
497.26	59269.39
497.44	58618.72
497.62	58422.11
497.79	57724.63
497.97	56453.72
498.14	56526.28
498.32	57528.03
498.50	58642.12
498.67	58939.37
498.85	58843.41
499.03	58988.52
499.20	59222.58
499.38	59138.32
499.56	59079.80
499.73	58562.54
499.91	58209.12
500.08	57764.42
500.26	57179.29
500.44	57682.50
500.61	58269.98
500.79	58157.63
500.97	57827.62
501.14	57525.69
501.32	57504.62
501.49	57333.76
501.67	57694.21
501.84	58150.61
502.02	58398.71
502.20	58726.38
502.37	58801.28
502.55	58834.05
502.72	59426.20
502.90	59767.92
503.07	59709.41
503.25	59138.32
503.43	58422.11
503.60	57853.36
503.78	57251.84
503.95	57663.78
504.13	58829.37
504.30	59625.15
504.48	59494.08
504.65	59119.59
504.83	59138.32
505.01	59653.23
505.18	60121.34
505.36	60636.26
505.53	60662.00
505.71	60846.91
505.88	60980.32
506.06	60327.31
506.23	60079.21
506.41	59496.42
506.58	60090.91
506.76	60055.81
506.93	59847.50
507.11	59634.51
507.28	59842.82
507.46	59320.88
507.63	58728.72
507.81	58489.99
507.98	58894.90
508.16	59657.91
508.33	60182.19
508.50	60301.56
508.68	60310.92
508.85	60919.46
509.03	61146.50
509.20	61013.08
509.38	60271.14
509.55	59522.16
509.73	59428.54
509.90	60083.89
510.08	60441.99
510.25	60198.58
510.42	59962.18
510.60	60128.36
510.77	60350.71
510.95	60699.45
511.12	60823.50
511.30	61207.35
511.47	61329.06
511.64	61371.19
511.82	60903.08
511.99	60341.35
512.17	59856.86
512.34	59667.28
512.51	59730.47
512.69	59655.57
512.86	60107.30
513.04	60294.54
513.21	60156.45
513.38	59866.22
513.56	59449.61
513.73	58925.33
513.90	59187.47
514.08	59032.99
514.25	59522.16
514.43	59594.72
514.60	59898.99
514.77	59901.33
514.95	60107.30
515.12	59877.93
515.29	60107.30
515.47	60530.93
515.64	60739.24
515.81	60577.75
515.99	59695.36
516.16	58773.19
516.33	56713.52
516.51	55128.98
516.68	54518.10
516.85	54108.50
517.03	54216.17
517.20	56704.16
517.37	58920.65
517.54	60123.68
517.72	59751.54
517.89	57312.70
518.06	55323.24
518.24	55295.16
518.41	57460.15
518.58	58604.67
518.75	59126.61
518.93	59168.74
519.10	59002.56
519.27	59536.21
519.45	59592.38
519.62	60390.50
519.79	60802.44
519.96	60481.78
520.14	60062.83
520.31	59320.88
520.48	59227.26
520.65	59409.82
520.83	60406.89
521.00	60896.06
521.17	60498.17
521.34	60027.72
521.52	60512.21
521.69	60814.14
521.86	61317.35
522.03	61008.40
522.20	60032.40
522.38	58878.52
522.55	58918.31
522.72	59561.95
522.89	59688.34
523.07	59901.33
523.24	59999.63
523.41	60910.10
523.58	61183.94
523.75	61528.00
523.92	61310.33
524.10	61336.08
524.27	61476.51
524.44	61226.07
524.61	61001.38
524.78	60811.80
524.96	60825.84
525.13	60865.63
525.30	61038.83
525.47	61598.22
525.64	61193.31
525.81	60694.77
525.98	59484.72
526.16	58052.31
526.33	57595.90
526.50	57179.29
526.67	56790.76
526.84	57261.21
527.01	58429.13
527.18	59002.56
527.36	59875.58
527.53	60615.19
527.70	60954.57
527.87	60308.58
528.04	59833.46
528.21	60505.19
528.38	60893.72
528.55	61818.23
528.72	61958.66
528.89	62010.15
529.07	61748.01
529.24	61085.64
529.41	60610.51
529.58	59863.88
529.75	59896.65
529.92	60446.68
530.09	60760.31
530.26	61577.15
530.43	61652.05
530.60	61574.81
530.77	61904.83
530.94	61886.10
531.11	61705.88
531.28	61109.05
531.46	61167.56
531.63	61235.44
531.80	61090.32
531.97	60832.86
532.14	60067.51
532.31	59002.56
532.48	58309.77
532.65	58295.72
532.82	59241.30
532.99	60388.16
533.16	60573.06
533.33	61137.13
533.50	60975.64
533.67	60348.37
533.84	59952.82
534.01	60210.28
534.18	60259.43
534.35	60566.04
534.52	60409.23
534.69	60566.04
534.86	60860.95
535.03	61106.71
535.20	61563.11
535.37	61780.78
535.54	61785.46
535.71	61647.37
535.88	61282.25
536.05	60823.50
536.22	60376.46
536.38	60172.83
536.55	59568.97
536.72	59166.40
536.89	59068.10
537.06	59985.59
537.23	60741.58
537.40	60821.16
537.57	61055.21
537.74	60727.54
537.91	60617.53
538.08	60671.37
538.25	60523.91
538.42	60872.65
538.59	60617.53
538.75	60037.08
538.92	59533.87
539.09	59765.58
539.26	59508.12
539.43	59311.52
539.60	59093.85
539.77	59604.08
539.94	59391.09
540.11	58988.52
540.28	58190.40
540.44	58244.23
540.61	58501.69
540.78	58864.47
540.95	59295.13
541.12	59824.09
541.29	59730.47
541.46	60121.34
541.62	60135.38
541.79	60179.85
541.96	59267.05
542.13	59330.24
542.30	59718.77
542.47	59819.41
542.63	59377.05
542.80	59449.61
542.97	59564.29
543.14	59494.08
543.31	59611.10
543.48	59884.95
543.64	60636.26
543.81	60996.70
543.98	60790.73
544.15	59877.93
544.32	59683.66
544.48	59618.13
544.65	59894.31
544.82	60388.16
544.99	59845.16
545.16	59728.13
545.32	59529.19
545.49	60219.64
545.66	60587.11
545.83	60355.39
546.00	59831.11
546.16	59526.84
546.33	59622.81
546.50	59585.36
546.67	60287.52
546.83	59653.23
547.00	59730.47
547.17	58960.44
547.34	58887.88
547.50	58672.55
547.67	58974.48
547.84	59210.87
548.00	59377.05
548.17	59756.22
548.34	59566.63
548.51	59622.81
548.67	59437.90
548.84	60004.31
549.01	59735.15
549.18	59576.00
549.34	59608.76
549.51	59650.89
549.68	59503.44
549.84	59306.83
550.01	59405.14
550.18	59035.33
550.34	59016.61
550.51	59346.62
550.68	59288.11
550.84	58880.86
551.01	59011.93
551.18	58855.11
551.34	59061.08
551.51	59519.82
551.68	59669.62
551.84	59739.83
552.01	59550.25
552.18	59573.66
552.34	58794.26
552.51	58454.88
552.68	58181.04
552.84	58724.04
553.01	58981.50
553.18	59028.31
553.34	59011.93
553.51	59037.67
553.67	59550.25
553.84	59618.13
554.01	59206.19
554.17	59105.55
554.34	59276.41
554.51	59412.16
554.67	59625.15
554.84	59667.28
555.00	58918.31
555.17	59112.57
555.33	59091.51
555.50	59011.93
555.67	58962.78
555.83	58915.96
556.00	58333.17
556.16	58382.32
556.33	58099.12
556.50	57949.32
556.66	58115.50
556.83	57794.85
556.99	57867.40
557.16	57970.39
557.32	58284.02
557.49	58508.71
557.65	58569.57
557.82	58569.57
557.98	58206.78
558.15	57783.15
558.32	56994.39
558.48	56271.16
558.65	56413.93
558.81	56828.21
558.98	56982.68
559.14	57312.70
559.31	57350.15
559.47	57420.36
559.64	57109.07
559.80	56491.17
559.97	56617.56
560.13	57247.16
560.30	58068.69
560.46	58822.34
560.63	58812.98
560.79	58770.85
560.96	58429.13
561.12	57296.31
561.29	56652.67
561.45	56519.26
561.61	57139.50
561.78	57495.26
561.94	57329.08
562.11	57499.94
562.27	57085.67
562.44	57752.72
562.60	57661.44
562.77	57918.90
562.93	57963.37
563.10	57827.62
563.26	57031.83
563.42	57305.68
563.59	57195.67
563.75	57162.90
563.92	57116.09
564.08	57069.28
564.24	57443.77
564.41	57333.76
564.57	57244.82
564.74	57205.03
564.90	56961.62
565.07	56879.70
565.23	56495.85
565.39	55901.36
565.56	55739.86
565.72	55707.09
565.88	55861.57
566.05	56013.70
566.21	56360.10
566.38	56399.89
566.54	56631.60
566.70	56830.55
566.87	57024.81
567.03	57200.35
567.19	57162.90
567.36	56802.46
567.52	56804.80
567.68	56743.95
567.85	56083.92
568.01	55519.85
568.17	55299.84
568.34	55473.04
568.50	55384.10
568.66	55449.63
568.83	56051.15
568.99	56156.47
569.15	56053.49
569.32	56147.11
569.48	55779.65
569.64	55714.11
569.81	55283.45
569.97	55356.01
570.13	55154.72
570.30	54784.92
570.46	54424.48
570.62	53839.34
570.78	53668.48
570.95	53979.78
571.11	54672.57
571.27	54738.11
571.43	54859.82
571.60	55423.89
571.76	55482.40
571.92	56023.06
572.09	55966.89
572.25	55941.14
572.41	55849.86
572.57	55606.45
572.74	55681.34
572.90	55304.52
573.06	55491.76
573.22	55442.61
573.38	55423.89
573.55	55477.72
573.71	55468.36
573.87	55306.86
574.03	55065.78
574.20	55079.83
574.36	55018.97
574.52	54789.60
574.68	54490.01
574.84	54237.23
575.01	54035.95
575.17	53902.54
575.33	53925.94
575.49	54340.22
575.65	54492.35
575.82	54106.16
575.98	53909.56
576.14	54204.47
576.30	54717.04
576.46	54724.07
576.62	54541.50
576.79	54478.31
576.95	54108.50
577.11	54293.41
577.27	54099.14
577.43	54534.48
577.59	53701.25
577.75	53481.24
577.92	53183.99
578.08	52839.93
578.24	52942.92
578.40	52952.28
578.56	53801.89
578.72	53439.11
578.88	53481.24
579.04	53745.72
579.21	54064.03
579.37	53954.03
579.53	54143.61
579.69	53998.50
579.85	53956.37
580.01	54028.93
580.17	53322.08
580.33	53450.81
580.49	53535.07
580.65	53691.89
580.82	54007.86
580.98	53991.48
581.14	53598.27
581.30	53628.69
581.46	53600.61
581.62	53881.47
581.78	54080.42
581.94	54014.88
582.10	54033.61
582.26	54281.70
582.42	53893.18
582.58	54167.02
582.74	53991.48
582.90	53998.50
583.06	54127.23
583.22	53841.68
583.38	53502.31
583.54	53497.62
583.70	53801.89
583.86	53448.47
584.02	53460.18
584.18	53581.88
584.34	53478.90
584.50	53553.80
584.66	53537.41
584.82	52762.70
584.98	52931.22
585.14	52706.52
585.30	51983.30
