SpectraSuite Data File
++++++++++++++++++++++++++++++++++++
Date: Mon Oct 07 14:54:03 GMT-05:00 2013
User: price-jones
Dark Spectrum Present: No
Reference Spectrum Present: No
Number of Sampled Component Spectra: 1
Spectrometers: USB2+H05261
Integration Time (usec): 100000 (USB2+H05261)
Spectra Averaged: 1 (USB2+H05261)
Boxcar Smoothing: 0 (USB2+H05261)
Correct for Electrical Dark: No (USB2+H05261)
Strobe/Lamp Enabled: No (USB2+H05261)
Correct for Detector Non-linearity: No (USB2+H05261)
Correct for Stray Light: No (USB2+H05261)
Number of Pixels in Processed Spectrum: 2048
>>>>>Begin Processed Spectral Data<<<<<
365.73	0.00
365.92	0.00
366.12	0.00
366.32	0.00
366.52	0.00
366.72	0.00
366.91	0.00
367.11	0.00
367.31	0.00
367.51	0.00
367.70	0.00
367.90	0.00
368.10	0.00
368.30	0.00
368.49	0.00
368.69	0.00
368.89	0.00
369.09	0.00
369.28	0.00
369.48	0.00
369.68	0.00
369.87	0.00
370.07	0.00
370.27	0.00
370.47	645.99
370.66	3236.96
370.86	3911.04
371.06	4344.03
371.25	4344.03
371.45	4028.06
371.65	3426.54
371.84	3386.76
372.04	3414.84
372.24	3801.03
372.44	4079.55
372.63	3990.61
372.83	3782.31
373.03	3459.31
373.22	3061.42
373.42	3267.39
373.62	3653.58
373.81	3983.59
374.01	3911.04
374.21	3684.00
374.40	3307.18
374.60	3562.30
374.79	3904.01
374.99	4554.68
375.19	4938.53
375.38	4910.44
375.58	4566.39
375.78	4631.92
375.97	4613.20
376.17	4793.42
376.37	4795.76
376.56	4723.20
376.76	5324.72
376.95	5416.00
377.15	6043.26
377.35	6143.91
377.54	6415.41
377.74	6551.16
377.93	6509.03
378.13	6516.05
378.33	6087.73
378.52	5612.60
378.72	5296.63
378.91	5338.76
379.11	5263.86
379.31	4990.02
379.50	4863.63
379.70	5324.72
379.89	5933.26
380.09	6251.57
380.28	6558.18
380.48	6319.45
380.68	6232.85
380.87	6157.95
381.07	5715.59
381.26	5226.42
381.46	5055.56
381.65	4655.33
381.85	4821.50
382.04	4449.36
382.24	4163.81
382.43	4077.21
382.63	3840.82
382.83	3840.82
383.02	3812.73
383.22	4009.34
383.41	3871.25
383.61	4063.17
383.80	4983.00
384.00	5448.77
384.19	5977.73
384.39	6422.43
384.58	6473.92
384.78	6190.72
384.97	6174.33
385.17	5809.21
385.36	5628.99
385.56	5242.80
385.75	5666.44
385.95	5975.39
386.14	6693.93
386.34	6637.76
386.53	6207.10
386.72	5949.64
386.92	5923.90
387.11	6134.54
387.31	6576.91
387.50	6429.45
387.70	6090.07
387.89	5987.09
388.09	6146.25
388.28	6246.89
388.48	6396.68
388.67	6825.00
388.86	7644.19
389.06	7974.21
389.25	8372.10
389.45	8372.10
389.64	8311.24
389.84	8451.67
390.03	8006.97
390.22	8182.51
390.42	8468.06
390.61	8863.61
390.81	9408.95
391.00	9813.87
391.19	9696.84
391.39	9404.27
391.58	8919.78
391.78	8142.72
391.97	8049.10
392.16	7506.10
392.36	6799.26
392.55	5430.04
392.75	4351.06
392.94	3632.51
393.13	3349.31
393.33	4093.60
393.52	5455.79
393.71	6640.10
393.91	7375.03
394.10	7992.93
394.29	8727.86
394.49	9500.23
394.68	10101.75
394.88	10008.13
395.07	10553.48
395.26	10434.11
395.46	10181.33
395.65	9509.60
395.84	8334.65
396.04	7176.08
396.23	5710.91
396.42	4950.23
396.62	4650.64
396.81	5298.97
397.00	6913.94
397.19	8624.87
397.39	10281.97
397.58	11309.47
397.77	12273.77
397.97	12741.88
398.16	12554.63
398.35	13420.63
398.55	13666.39
398.74	14083.00
398.93	14537.07
399.12	14202.37
399.32	13774.05
399.51	14181.31
399.70	15096.46
399.90	14831.97
400.09	14869.42
400.28	14979.43
400.47	14836.66
400.67	15658.18
400.86	15744.78
401.05	16154.38
401.24	15882.88
401.44	16533.54
401.63	16566.31
401.82	16470.35
402.01	16365.03
402.21	16835.47
402.40	16830.79
402.59	16114.59
402.78	15578.61
402.97	15035.60
403.17	15510.73
403.36	16149.70
403.55	17036.76
403.74	17472.10
403.93	16650.57
404.13	15510.73
404.32	15019.22
404.51	15676.91
404.70	17158.47
404.89	16837.81
405.09	16802.71
405.28	16313.53
405.47	16205.87
405.66	16386.09
405.85	15688.61
406.05	15140.93
406.24	15410.09
406.43	16301.83
406.62	17022.72
406.81	16702.06
407.00	15920.32
407.20	16042.03
407.39	16079.48
407.58	16664.61
407.77	17263.79
407.96	17738.92
408.15	17963.61
408.34	18232.77
408.54	18864.72
408.73	19019.19
408.92	19037.92
409.11	18466.83
409.30	17572.74
409.49	16442.26
409.68	15609.03
409.87	14761.76
410.07	15763.51
410.26	17268.47
410.45	18108.72
410.64	18794.50
410.83	19295.38
411.02	19281.33
411.21	20093.50
411.40	20049.03
411.59	20109.88
411.78	20060.73
411.98	19719.01
412.17	20308.83
412.36	19847.74
412.55	19672.20
412.74	19400.70
412.93	18853.02
413.12	19082.39
413.31	20723.10
413.50	20863.54
413.69	21563.36
413.88	20641.18
414.07	19831.36
414.26	20599.05
414.45	21018.01
414.64	21149.08
414.83	21287.17
415.02	20676.29
415.22	20542.88
415.41	21010.99
415.60	21919.12
415.79	22555.74
415.98	23403.02
416.17	23145.56
416.36	22703.20
416.55	22272.54
416.74	21605.49
416.93	20868.22
417.12	20643.52
417.31	21109.29
417.50	21472.07
417.69	22293.60
417.88	22157.85
418.07	22015.08
418.26	21493.14
418.45	21912.10
418.64	22527.66
418.83	23384.29
419.02	23014.49
419.21	22850.65
419.39	21591.44
419.58	20601.40
419.77	20858.85
419.96	21748.26
420.15	22597.87
420.34	23468.55
420.53	24725.42
420.72	25041.39
420.91	24650.52
421.10	24353.27
421.29	24217.52
421.48	23178.33
421.67	24393.06
421.86	24187.10
422.05	22291.26
422.24	19910.94
422.43	19733.06
422.61	21741.24
422.80	23513.02
422.99	23669.84
423.18	22860.01
423.37	22532.34
423.56	22237.43
423.75	22525.32
423.94	22995.76
424.13	21771.66
424.32	22078.27
424.50	21888.69
424.69	21769.32
424.88	22085.30
425.07	21820.81
425.26	22094.66
425.45	21743.58
425.64	21184.19
425.83	21212.28
426.01	22419.99
426.20	23414.72
426.39	23110.45
426.58	21380.79
426.77	20170.74
426.96	18885.78
427.15	19562.20
427.33	21027.37
427.52	22080.61
427.71	22118.06
427.90	21942.52
428.09	22003.38
428.28	21572.72
428.46	20631.82
428.65	20018.60
428.84	20823.75
429.03	21060.14
429.22	19796.25
429.40	19119.84
429.59	16898.67
429.78	15225.18
429.97	15138.58
430.16	15428.81
430.34	15260.29
430.53	15255.61
430.72	15365.62
430.91	17455.72
431.10	20540.54
431.28	24116.88
431.47	25970.58
431.66	26321.66
431.85	24299.44
432.03	21628.89
432.22	21298.88
432.41	22054.87
432.60	24299.44
432.79	25357.36
432.97	26040.80
433.16	25518.86
433.35	23126.83
433.54	20695.02
433.72	19583.26
433.91	20397.77
434.10	22602.55
434.28	23936.66
434.47	25652.27
434.66	24992.24
434.85	24290.08
435.03	24414.13
435.22	24982.88
435.41	26359.11
435.59	26274.85
435.78	26565.08
435.97	27534.06
436.16	27442.78
436.34	27150.21
436.53	26679.77
436.72	27005.10
436.90	25249.70
437.09	25221.61
437.28	24599.03
437.46	25446.30
437.65	25158.42
437.84	23903.89
438.02	21860.60
438.21	21401.86
438.40	22799.16
438.58	24875.21
438.77	25656.95
438.96	25764.62
439.14	26923.18
439.33	27473.21
439.52	27908.55
439.70	27414.69
439.89	26796.79
440.08	25881.64
440.26	25788.02
440.45	26515.93
440.63	28704.33
440.82	29886.30
441.01	28987.53
441.19	29408.83
441.38	30003.33
441.57	30494.84
441.75	31363.18
441.94	31108.06
442.12	31122.10
442.31	31641.70
442.50	31608.93
442.68	31503.61
442.87	30813.15
443.05	30211.64
443.24	31012.10
443.43	31756.39
443.61	32285.35
443.80	32409.40
443.98	30471.43
444.17	30735.92
444.35	32596.64
444.54	32870.48
444.73	32439.82
444.91	31353.82
445.10	29652.25
445.28	28238.56
445.47	28025.57
445.65	28739.44
445.84	29254.36
446.02	30038.44
446.21	30883.37
446.39	30258.45
446.58	30925.50
446.77	31555.10
446.95	31962.36
447.14	32732.39
447.32	33268.37
447.51	32940.70
447.69	31342.11
447.88	31309.35
448.06	31262.54
448.25	32421.10
448.43	32570.90
448.62	31688.51
448.80	31204.02
448.99	31431.05
449.17	31945.97
449.36	32013.85
449.54	33303.48
449.73	33670.95
449.91	34031.39
450.10	34759.30
450.28	35976.37
450.46	35173.57
450.65	35309.32
450.83	35054.20
451.02	34602.48
451.20	34073.52
451.39	33977.56
451.57	33362.00
451.76	33544.56
451.94	33717.76
452.13	32966.45
452.31	31480.21
452.49	30073.54
452.68	30408.24
452.86	30354.41
453.05	30834.22
453.23	31775.11
453.42	32488.98
453.60	33228.59
453.78	33682.65
453.97	33340.93
454.15	33340.93
454.34	32514.72
454.52	32769.84
454.70	31751.71
454.89	32456.21
455.07	32229.18
455.26	33090.49
455.44	34199.91
455.62	34899.73
455.81	34813.13
455.99	34794.40
456.17	33951.81
456.36	34490.13
456.54	35253.15
456.73	35332.73
456.91	35751.68
457.09	36084.04
457.28	36755.77
457.46	35409.96
457.64	34719.51
457.83	34309.91
458.01	33294.12
458.19	34108.63
458.38	34185.86
458.56	35388.90
458.74	35164.21
458.93	34621.20
459.11	34359.06
459.29	34445.66
459.48	34487.79
459.66	34274.80
459.84	34831.85
460.03	35459.12
460.21	34958.24
460.39	36002.12
460.57	35557.42
460.76	36299.37
460.94	36587.25
461.12	36093.40
461.31	36060.63
461.49	36098.08
461.67	36048.93
461.85	36851.73
462.04	36620.02
462.22	37502.40
462.40	36872.80
462.59	36811.95
462.77	37053.02
462.95	36769.82
463.13	36376.61
463.32	35974.03
463.50	35555.08
463.68	35768.07
463.86	36161.28
464.05	35325.71
464.23	34937.18
464.41	34326.30
464.59	33905.00
464.78	35831.26
464.96	35529.33
465.14	35030.80
465.32	35941.27
465.50	36570.87
465.69	36966.42
465.87	36238.51
466.05	35648.70
466.23	33958.83
466.41	33151.35
466.60	33989.26
466.78	34660.99
466.96	34785.04
467.14	35412.31
467.32	35440.39
467.51	35882.75
467.69	33909.68
467.87	34663.33
468.05	35927.22
468.23	35543.38
468.41	35351.45
468.60	35892.12
468.78	36041.91
468.96	35129.10
469.14	36102.76
469.32	36400.01
469.50	34927.81
469.69	35044.84
469.87	34572.05
470.05	34333.32
470.23	34223.31
470.41	34263.10
470.59	34787.38
470.77	34843.56
470.95	35922.54
471.14	36217.45
471.32	36250.22
471.50	38220.95
471.68	38579.05
471.86	38541.60
472.04	38501.81
472.22	39014.39
472.40	36713.64
472.58	36531.08
472.77	36133.19
472.95	37226.22
473.13	38075.84
473.31	37090.47
473.49	37247.29
473.67	37834.76
473.85	38363.72
474.03	38958.22
474.21	39213.34
474.39	39510.58
474.57	39484.84
474.75	39447.39
474.93	39463.77
475.12	38473.73
475.30	39016.73
475.48	38969.92
475.66	39164.18
475.84	39016.73
476.02	38534.58
476.20	37968.17
476.38	38721.82
476.56	39807.83
476.74	40095.72
476.92	40318.07
477.10	40788.52
477.28	41956.44
477.46	42375.40
477.64	43189.91
477.82	42501.79
478.00	42841.17
478.18	42040.70
478.36	41846.44
478.54	41881.55
478.72	42539.24
478.90	43414.60
479.08	44334.43
479.26	45057.65
479.44	44776.79
479.62	44238.47
479.80	44362.51
479.98	45006.16
480.16	44828.28
480.34	44467.84
480.52	44917.22
480.70	45291.71
480.88	44847.00
481.06	45921.31
481.24	46110.89
481.41	47299.89
481.59	47980.98
481.77	47040.09
481.95	46593.04
482.13	46974.55
482.31	46567.30
482.49	47559.69
482.67	47114.98
482.85	48067.58
483.03	47833.53
483.21	48449.09
483.39	48655.06
483.57	47753.95
483.74	47615.86
483.92	47503.51
484.10	47889.70
484.28	48774.42
484.46	49125.50
484.64	49640.42
484.82	48720.59
485.00	48240.78
485.18	47475.43
485.35	46429.21
485.53	43098.62
485.71	39356.11
485.89	38487.77
486.07	40629.36
486.25	44231.44
486.43	46459.63
486.61	47185.20
486.78	46920.72
486.96	47187.54
487.14	49184.02
487.32	49509.35
487.50	50607.06
487.68	51550.30
487.85	52088.62
488.03	51796.06
488.21	51550.30
488.39	50731.11
488.57	50038.31
488.75	49888.52
488.92	50684.30
489.10	53022.50
489.28	54213.83
489.46	54904.29
489.64	54543.84
489.81	54859.82
489.99	54344.90
490.17	54581.29
490.35	55016.63
490.53	54490.01
490.70	54143.61
490.88	53682.53
491.06	55009.61
491.24	55007.27
491.41	53914.24
491.59	52182.24
491.77	51327.95
491.95	52985.05
492.13	53729.34
492.30	54864.50
492.48	55814.76
492.66	56170.52
492.84	56231.37
493.01	55959.87
493.19	55313.88
493.37	55229.62
493.54	54869.18
493.72	55414.52
493.90	56542.66
494.08	57069.28
494.25	57233.12
494.43	57553.77
494.61	57820.59
494.79	58073.37
494.96	57490.58
495.14	57286.95
495.32	56229.03
495.49	55454.31
495.67	56484.15
495.85	57958.69
496.02	58342.53
496.20	58152.95
496.38	57752.72
496.55	57415.68
496.73	58087.42
496.91	58115.50
497.09	58719.36
497.26	58883.20
497.44	58281.68
497.62	57726.97
497.79	57198.01
497.97	55786.67
498.14	56058.17
498.32	57286.95
498.50	58113.16
498.67	58672.55
498.85	58499.35
499.03	58581.27
499.20	58770.85
499.38	58784.90
499.56	58667.87
499.73	58166.99
499.91	57848.68
500.08	57408.66
500.26	56746.29
500.44	56945.23
500.61	57755.06
500.79	57825.28
500.97	57123.11
501.14	57343.12
501.32	57167.58
501.49	56940.55
501.67	57256.53
501.84	57670.80
502.02	57996.13
502.20	58225.51
502.37	58504.03
502.55	58305.09
502.72	58777.87
502.90	59281.09
503.07	59161.72
503.25	58770.85
503.43	57808.89
503.60	57464.83
503.78	56545.00
503.95	57006.09
504.13	58457.22
504.30	59236.62
504.48	58815.32
504.65	58550.84
504.83	58618.72
505.01	59105.55
505.18	59573.66
505.36	60011.34
505.53	59915.37
505.71	60519.23
505.88	60275.82
506.06	59875.58
506.23	59304.49
506.41	59238.96
506.58	59138.32
506.76	59391.09
506.93	59264.70
507.11	58951.07
507.28	59348.96
507.46	58798.94
507.63	58284.02
507.81	58017.20
507.98	57998.48
508.16	58798.94
508.33	59302.15
508.50	59763.24
508.68	59999.63
508.85	60261.77
509.03	60495.83
509.20	60324.97
509.38	59660.26
509.55	58852.77
509.73	58660.85
509.90	59421.52
510.08	59671.96
510.25	59732.81
510.42	59407.48
510.60	59440.24
510.77	59578.34
510.95	60203.26
511.12	60287.52
511.30	60441.99
511.47	60945.21
511.64	60734.56
511.82	60500.51
511.99	59533.87
512.17	59463.65
512.34	58803.62
512.51	58824.68
512.69	59255.34
512.86	59262.36
513.04	59791.33
513.21	59601.74
513.38	59330.24
513.56	58852.77
513.73	58255.93
513.90	58550.84
514.08	58632.76
514.25	58829.37
514.43	59002.56
514.60	59187.47
514.77	59367.69
514.95	59370.03
515.12	59348.96
515.29	59561.95
515.47	59868.56
515.64	60165.81
515.81	59805.37
515.99	59234.28
516.16	58035.92
516.33	55861.57
516.51	54106.16
516.68	53495.28
516.85	53043.56
517.03	53450.81
517.20	56128.39
517.37	58293.38
517.54	59400.46
517.72	58906.60
517.89	56666.71
518.06	54380.01
518.24	54763.85
518.41	56694.80
518.58	57902.51
518.75	58082.73
518.93	58408.07
519.10	58166.99
519.27	58777.87
519.45	58953.41
519.62	59611.10
519.79	59812.39
519.96	59622.81
520.14	59035.33
520.31	58681.91
520.48	58361.26
520.65	58784.90
520.83	59627.49
521.00	60104.96
521.17	59695.36
521.34	59274.07
521.52	59583.02
521.69	60041.76
521.86	60486.46
522.03	60243.05
522.20	59018.95
522.38	58066.35
522.55	57993.79
522.72	58695.95
522.89	58892.56
523.07	58913.62
523.24	59325.56
523.41	60198.58
523.58	60193.90
523.75	60750.94
523.92	60657.32
524.10	60542.64
524.27	60533.28
524.44	60406.89
524.61	60093.25
524.78	59962.18
524.96	59842.82
525.13	59884.95
525.30	60109.64
525.47	60694.77
525.64	60374.12
525.81	59920.05
525.98	58499.35
526.16	57090.35
526.33	56573.09
526.50	56310.95
526.67	55774.97
526.84	56451.38
527.01	57457.81
527.18	58113.16
527.36	59068.10
527.53	59990.27
527.70	60083.89
527.87	59519.82
528.04	59138.32
528.21	59381.73
528.38	60121.34
528.55	60720.52
528.72	61073.94
528.89	60973.30
529.07	60729.88
529.24	60133.04
529.41	59643.87
529.58	59140.66
529.75	59018.95
529.92	59704.73
530.09	59840.48
530.26	60488.80
530.43	60769.67
530.60	60898.40
530.77	60917.12
530.94	60921.80
531.11	60542.64
531.28	60200.92
531.46	59845.16
531.63	60111.98
531.80	60133.04
531.97	59714.09
532.14	58932.35
532.31	58092.10
532.48	57427.38
532.65	57528.03
532.82	58314.45
532.99	59398.12
533.16	59655.57
533.33	60060.49
533.50	59877.93
533.67	59283.43
533.84	58885.54
534.01	59189.81
534.18	59428.54
534.35	59594.72
534.52	59311.52
534.69	59545.57
534.86	59957.50
535.03	60313.26
535.20	60505.19
535.37	60736.90
535.54	61144.16
535.71	60697.11
535.88	60303.90
536.05	59746.86
536.22	59316.20
536.38	59110.23
536.55	58686.59
536.72	57972.73
536.89	57846.34
537.06	58838.73
537.23	59625.15
537.40	59711.75
537.57	59573.66
537.74	59482.37
537.91	59540.89
538.08	59327.90
538.25	59487.06
538.42	59807.71
538.59	59702.38
538.75	58951.07
538.92	58555.52
539.09	58520.41
539.26	58475.94
539.43	58003.16
539.60	58269.98
539.77	58553.18
539.94	58333.17
540.11	57607.61
540.28	57027.15
540.44	57263.55
540.61	57380.57
540.78	57474.20
540.95	58372.96
541.12	58337.85
541.29	58658.51
541.46	58843.41
541.62	59047.04
541.79	58838.73
541.96	58148.27
542.13	58202.10
542.30	58597.65
542.47	58864.47
542.63	58328.49
542.80	58197.42
542.97	58382.32
543.14	58059.33
543.31	58234.87
543.48	58625.74
543.64	59337.26
543.81	59674.30
543.98	59632.17
544.15	58876.18
544.32	58368.28
544.48	58403.39
544.65	58780.21
544.82	59140.66
544.99	59035.33
545.16	58447.86
545.32	58134.23
545.49	59105.55
545.66	59484.72
545.83	58988.52
546.00	58824.68
546.16	58489.99
546.33	58328.49
546.50	58347.21
546.67	58932.35
546.83	58405.73
547.00	58358.92
547.17	57921.24
547.34	57396.96
547.50	57333.76
547.67	57869.75
547.84	57787.83
548.00	58237.21
548.17	58475.94
548.34	58328.49
548.51	58585.95
548.67	58330.83
548.84	58665.53
549.01	58445.52
549.18	58628.08
549.34	58166.99
549.51	58389.34
549.68	58375.30
549.84	58012.52
550.01	58038.26
550.18	57858.04
550.34	57942.30
550.51	57872.09
550.68	57909.53
550.84	57551.43
551.01	57626.33
551.18	57553.77
551.34	57715.27
551.51	58291.04
551.68	58363.60
551.84	58536.80
552.01	58188.06
552.18	58152.95
552.34	57425.04
552.51	57031.83
552.68	56800.12
552.84	57350.15
553.01	57663.78
553.18	57691.86
553.34	57511.64
553.51	57748.04
553.67	57989.11
553.84	58155.29
554.01	58113.16
554.17	57757.40
554.34	57801.87
554.51	58115.50
554.67	58232.53
554.84	58033.58
555.00	57818.25
555.17	57584.20
555.33	57588.88
555.50	57338.44
555.67	57752.72
555.83	57549.09
556.00	57116.09
556.16	57041.20
556.33	56722.88
556.50	56603.52
556.66	56636.28
556.83	56329.67
556.99	56470.11
557.16	56612.88
557.32	56767.35
557.49	57041.20
557.65	57109.07
557.82	57139.50
557.98	56589.47
558.15	56308.61
558.32	55597.09
558.48	54749.81
558.65	55119.62
558.81	55145.36
558.98	55381.76
559.14	55847.52
559.31	55873.27
559.47	55908.38
559.64	55278.77
559.80	55297.50
559.97	55412.18
560.13	55526.87
560.30	56673.73
560.46	56970.98
560.63	57324.40
560.79	57422.70
560.96	56823.53
561.12	55969.23
561.29	54988.55
561.45	54822.37
561.61	55356.01
561.78	55929.44
561.94	55877.95
562.11	55566.66
562.27	55414.52
562.44	55973.91
562.60	56236.05
562.77	56458.40
562.93	56332.01
563.10	56027.74
563.26	55604.11
563.42	55594.74
563.59	55332.60
563.75	55075.15
563.92	55538.57
564.08	55402.82
564.24	55920.08
564.41	55950.51
564.57	55552.62
564.74	55477.72
564.90	55374.73
565.07	55353.67
565.23	55021.31
565.39	54300.43
565.56	54127.23
565.72	53860.41
565.88	54045.31
566.05	54160.00
566.21	54639.81
566.38	54674.91
566.54	54887.90
566.70	55295.16
566.87	55515.17
567.03	55372.39
567.19	55430.91
567.36	55543.25
567.52	55208.56
567.68	54681.94
567.85	54284.04
568.01	53708.27
568.17	53490.60
568.34	53261.23
568.50	53624.01
568.66	53647.42
568.83	54012.54
568.99	54007.86
569.15	54288.73
569.32	54218.51
569.48	53930.62
569.64	53841.68
569.81	53422.73
569.97	53066.97
570.13	53375.92
570.30	52811.85
570.46	52514.60
570.62	51664.99
570.78	51789.03
570.95	51957.55
571.11	52828.23
571.27	52940.58
571.43	53277.61
571.60	53757.42
571.76	53841.68
571.92	54042.97
572.09	54314.47
572.25	54169.36
572.41	53975.09
572.57	53738.70
572.74	53595.93
572.90	53577.20
573.06	53741.04
573.22	53609.97
573.38	53380.60
573.55	53413.37
573.71	53450.81
573.87	53539.75
574.03	53160.59
574.20	53301.02
574.36	52985.05
574.52	52587.16
574.68	52669.08
574.84	52282.89
575.01	51959.89
575.17	51601.79
575.33	51990.32
575.49	52229.05
575.65	52289.91
575.82	52020.75
575.98	51800.74
576.14	52451.41
576.30	52587.16
576.46	52706.52
576.62	52566.09
576.79	52699.50
576.95	51945.85
577.11	51662.64
577.27	51943.51
577.43	51971.60
577.59	52034.79
577.75	51491.79
577.92	50749.84
578.08	50286.41
578.24	50548.55
578.40	50738.13
578.56	51131.34
578.72	50990.91
578.88	51562.00
579.04	51643.92
579.21	51943.51
579.37	51367.74
579.53	51765.63
579.69	51562.00
579.85	51821.80
580.01	51863.93
580.17	51157.09
580.33	51004.95
580.49	51023.68
580.65	51466.04
580.82	51695.41
580.98	51435.61
581.14	51660.30
581.30	51728.18
581.46	51470.72
581.62	51789.03
581.78	51428.59
581.94	51660.30
582.10	51861.59
582.26	51873.29
582.42	51543.28
582.58	51845.21
582.74	51945.85
582.90	51566.68
583.06	51798.40
583.22	51334.97
583.38	51533.92
583.54	51414.55
583.70	51384.12
583.86	51517.53
584.02	51021.34
584.18	51477.74
584.34	51229.65
584.50	51206.24
584.66	51100.92
584.82	50578.98
584.98	50365.99
585.14	50239.60
