SpectraSuite Data File
++++++++++++++++++++++++++++++++++++
Date: Mon Oct 07 14:53:08 GMT-05:00 2013
User: price-jones
Dark Spectrum Present: No
Reference Spectrum Present: No
Number of Sampled Component Spectra: 1
Spectrometers: USB2+H05261
Integration Time (usec): 100000 (USB2+H05261)
Spectra Averaged: 1 (USB2+H05261)
Boxcar Smoothing: 0 (USB2+H05261)
Correct for Electrical Dark: No (USB2+H05261)
Strobe/Lamp Enabled: No (USB2+H05261)
Correct for Detector Non-linearity: No (USB2+H05261)
Correct for Stray Light: No (USB2+H05261)
Number of Pixels in Processed Spectrum: 2048
>>>>>Begin Processed Spectral Data<<<<<
365.73	0.00
365.92	0.00
366.12	0.00
366.32	0.00
366.52	0.00
366.72	0.00
366.91	0.00
367.11	0.00
367.31	0.00
367.51	0.00
367.70	0.00
367.90	0.00
368.10	0.00
368.30	0.00
368.49	0.00
368.69	0.00
368.89	0.00
369.09	0.00
369.28	0.00
369.48	0.00
369.68	0.00
369.87	0.00
370.07	0.00
370.27	0.00
370.47	730.25
370.66	3274.41
370.86	3906.35
371.06	4210.62
371.25	4238.71
371.45	3758.90
371.65	3550.59
371.84	3255.69
372.04	3515.48
372.24	3794.01
372.44	4198.92
372.63	3871.25
372.83	3611.45
373.03	3108.23
373.22	2923.33
373.42	3091.85
373.62	3627.83
373.81	3936.78
374.01	3833.80
374.21	3478.04
374.40	3283.77
374.60	3463.99
374.79	3882.95
374.99	4479.79
375.19	4844.91
375.38	4758.31
375.58	4571.07
375.78	4540.64
375.97	4606.17
376.17	4617.88
376.37	4732.56
376.56	4793.42
376.76	5165.56
376.95	5453.45
377.15	5750.70
377.35	6005.81
377.54	6090.07
377.74	6462.22
377.93	6331.15
378.13	6115.82
378.33	5687.50
378.52	5444.09
378.72	5193.65
378.91	5188.97
379.11	4905.76
379.31	4894.06
379.50	4800.44
379.70	5397.28
379.89	5792.83
380.09	6031.56
380.28	6307.74
380.48	6237.53
380.68	6162.63
380.87	6115.82
381.07	5490.90
381.26	5163.22
381.46	4901.08
381.65	4585.11
381.85	4643.62
382.04	4355.74
382.24	4028.06
382.43	3875.93
382.63	3768.26
382.83	3782.31
383.02	3901.67
383.22	3889.97
383.41	3894.65
383.61	4252.75
383.80	4606.17
384.00	5317.70
384.19	5797.51
384.39	6244.55
384.58	6279.66
384.78	6143.91
384.97	6188.38
385.17	5851.34
385.36	5284.93
385.56	5364.51
385.75	5514.30
385.95	5907.51
386.14	6483.28
386.34	6462.22
386.53	6253.91
386.72	5708.57
386.92	5792.83
387.11	6228.17
387.31	6614.35
387.50	6345.19
387.70	6171.99
387.89	6057.31
388.09	6022.20
388.28	6218.80
388.48	6179.01
388.67	6736.06
388.86	7419.50
389.06	7995.27
389.25	8374.44
389.45	8266.77
389.64	8344.01
389.84	8081.87
390.03	8126.34
390.22	8100.59
390.42	8358.05
390.61	8779.35
390.81	9568.11
391.00	9860.68
391.19	9577.47
391.39	9231.07
391.58	8557.00
391.78	8224.64
391.97	8004.63
392.16	7534.18
392.36	6822.66
392.55	5369.19
392.75	4376.80
392.94	3463.99
393.13	3559.95
393.33	4201.26
393.52	5380.89
393.71	6534.78
393.91	7421.84
394.10	7967.18
394.29	8755.94
394.49	9486.19
394.68	10164.95
394.88	10176.65
395.07	10450.49
395.26	10324.10
395.46	9865.36
395.65	9415.98
395.84	8292.52
396.04	7131.61
396.23	5893.47
396.42	4711.50
396.62	4821.50
396.81	5343.44
397.00	6750.10
397.19	8713.81
397.39	10274.95
397.58	11372.66
397.77	12152.06
397.97	12716.13
398.16	12863.58
398.35	13177.22
398.55	13561.06
398.74	14200.03
398.93	14534.73
399.12	14183.65
399.32	13919.17
399.51	14090.02
399.70	15288.38
399.90	14897.51
400.09	14946.66
400.28	14773.46
400.47	14750.06
400.67	15868.83
400.86	16161.40
401.05	16350.98
401.24	16006.92
401.44	16570.99
401.63	16341.62
401.82	16367.37
402.01	16252.68
402.21	16554.61
402.40	16861.22
402.59	16079.48
402.78	15506.05
402.97	15037.94
403.17	15634.78
403.36	16723.13
403.55	17092.93
403.74	17425.29
403.93	16882.28
404.13	15524.77
404.32	15164.33
404.51	15620.74
404.70	17121.02
404.89	16884.62
405.09	16620.14
405.28	16175.44
405.47	16369.71
405.66	16510.14
405.85	15962.45
406.05	15461.58
406.24	15864.15
406.43	16468.01
406.62	16865.90
406.81	17114.00
407.00	16435.24
407.20	15939.05
407.39	16187.14
407.58	16957.18
407.77	17563.38
407.96	18008.08
408.15	18279.58
408.34	18494.91
408.54	19304.74
408.73	19503.68
408.92	19391.34
409.11	18604.92
409.30	17439.33
409.49	16287.79
409.68	15356.25
409.87	14810.91
410.07	16109.91
410.26	17411.25
410.45	18260.86
410.64	18888.12
410.83	19644.12
411.02	20159.03
411.21	20627.14
411.40	20589.69
411.59	20575.65
411.78	20517.14
411.98	20603.74
412.17	20491.39
412.36	19985.83
412.55	19941.36
412.74	19538.79
412.93	19365.59
413.12	19470.92
413.31	21458.03
413.50	21270.79
413.69	21965.93
413.88	20950.14
414.07	20315.85
414.26	21039.08
414.45	21209.93
414.64	21404.20
414.83	21537.61
415.02	20828.43
415.22	21135.04
415.41	21392.50
415.60	22520.63
415.79	23084.70
415.98	23541.11
416.17	23651.11
416.36	22948.95
416.55	22593.19
416.74	21961.25
416.93	21186.53
417.12	21362.07
417.31	21961.25
417.50	22199.98
417.69	22698.52
417.88	22925.55
418.07	22515.95
418.26	22029.12
418.45	22169.55
418.64	23335.14
418.83	24142.63
419.02	23559.83
419.21	23564.51
419.39	22359.14
419.58	21282.49
419.77	21612.51
419.96	22450.42
420.15	23967.09
420.34	24247.95
420.53	25132.67
420.72	25610.14
420.91	25563.33
421.10	24849.47
421.29	24779.25
421.48	23999.85
421.67	24723.08
421.86	24191.78
422.05	22532.34
422.24	20503.09
422.43	20304.15
422.61	22576.81
422.80	24435.19
422.99	24240.93
423.18	23372.59
423.37	23051.94
423.56	22946.61
423.75	23178.33
423.94	23861.76
424.13	22462.12
424.32	22712.56
424.50	22656.39
424.69	22637.66
424.88	22733.62
425.07	22618.94
425.26	22558.08
425.45	22277.22
425.64	22024.44
425.83	21968.27
426.01	23339.82
426.20	23843.04
426.39	23601.96
426.58	21664.00
426.77	20159.03
426.96	19506.02
427.15	20226.91
427.33	22045.51
427.52	22913.84
427.71	22998.10
427.90	22665.75
428.09	22560.42
428.28	22214.02
428.46	21275.47
428.65	21055.46
428.84	21846.56
429.03	21647.61
429.22	20561.61
429.40	19681.56
429.59	17907.44
429.78	15733.08
429.97	15850.11
430.16	16006.92
430.34	16018.63
430.53	15892.24
430.72	16592.06
430.91	18476.19
431.10	21542.29
431.28	25348.00
431.47	27187.66
431.66	27522.36
431.85	24889.26
432.03	22874.06
432.22	22068.91
432.41	23234.50
432.60	25663.97
432.79	26780.41
432.97	27395.97
433.16	26277.19
433.35	24217.52
433.54	21668.68
433.72	20547.56
433.91	21071.84
434.10	23606.64
434.28	24959.47
434.47	26904.46
434.66	26221.02
434.85	25411.20
435.03	25556.31
435.22	26059.52
435.41	27494.27
435.59	27515.34
435.78	27924.93
435.97	29020.30
436.16	28847.10
436.34	28500.70
436.53	27777.48
436.72	28320.48
436.90	26206.98
437.09	26464.44
437.28	26113.36
437.46	27084.68
437.65	26405.92
437.84	24856.49
438.02	22904.48
438.21	22998.10
438.40	23871.12
438.58	26148.46
438.77	27103.40
438.96	26906.80
439.14	28306.44
439.33	28982.85
439.52	29149.03
439.70	28739.44
439.89	27817.27
440.08	27374.91
440.26	27381.93
440.45	28371.97
440.63	30195.25
440.82	31618.30
441.01	31246.15
441.19	30644.63
441.38	31194.66
441.57	32453.87
441.75	32804.95
441.94	33336.25
442.12	33041.34
442.31	33450.94
442.50	33214.54
442.68	33031.98
442.87	32671.54
443.05	31812.56
443.24	32264.28
443.43	33434.55
443.61	33872.23
443.80	34246.72
443.98	32294.71
444.17	32313.44
444.35	34270.12
444.54	34639.93
444.73	34293.53
444.91	32760.48
445.10	31573.83
445.28	30623.57
445.47	29961.20
445.65	30188.23
445.84	31161.89
446.02	32203.43
446.21	32430.46
446.39	32587.28
446.58	33195.82
446.77	33853.51
446.95	33902.66
447.14	34663.33
447.32	35365.49
447.51	34298.21
447.69	32765.16
447.88	32732.39
448.06	32924.32
448.25	34342.68
448.43	34450.35
448.62	33937.77
448.80	33830.10
448.99	33900.32
449.17	33696.69
449.36	34113.31
449.54	35629.98
449.73	35849.99
449.91	35828.92
450.10	37340.91
450.28	37429.85
450.46	37743.48
450.65	37347.93
450.83	37277.71
451.02	36842.37
451.20	36299.37
451.39	36339.16
451.57	36105.10
451.76	35878.07
451.94	35700.19
452.13	35133.78
452.31	33823.08
452.49	31812.56
452.68	32978.15
452.86	32811.97
453.05	33039.00
453.23	34366.09
453.42	34991.01
453.60	35557.42
453.78	35866.37
453.97	35725.94
454.15	35529.33
454.34	34726.53
454.52	35051.86
454.70	34265.44
454.89	34504.18
455.07	34979.31
455.26	35316.34
455.44	36378.95
455.62	37315.16
455.81	37624.11
455.99	37244.94
456.17	37076.43
456.36	37139.62
456.54	37823.06
456.73	37834.76
456.91	38501.81
457.09	39068.22
457.28	39751.66
457.46	37879.23
457.64	37263.67
457.83	36163.62
458.01	36261.92
458.19	36615.34
458.38	37277.71
458.56	37673.26
458.74	37729.44
458.93	37200.47
459.11	37069.40
459.29	36999.19
459.48	37359.63
459.66	36903.23
459.84	37118.56
460.03	38050.09
460.21	38064.13
460.39	38951.20
460.57	38864.60
460.76	39255.46
460.94	39349.09
461.12	38405.85
461.31	38862.26
461.49	38845.87
461.67	38703.10
461.85	40430.41
462.04	39522.29
462.22	40292.32
462.40	39903.79
462.59	39775.06
462.77	39922.52
462.95	39742.30
463.13	39232.06
463.32	38904.38
463.50	38838.85
463.68	38890.34
463.86	39005.03
464.05	38202.22
464.23	37411.12
464.41	37766.88
464.59	36727.69
464.78	38806.08
464.96	38529.90
465.14	38497.13
465.32	39147.80
465.50	40105.08
465.69	40531.06
465.87	39442.71
466.05	38352.02
466.23	37043.66
466.41	35913.18
466.60	36973.44
466.78	37022.59
466.96	37867.53
467.14	38445.64
467.32	39061.20
467.51	38986.30
467.69	37661.56
467.87	38270.10
468.05	39054.18
468.23	38071.15
468.41	38906.73
468.60	38864.60
468.78	39061.20
468.96	38880.98
469.14	39337.38
469.32	39562.08
469.50	37963.49
469.69	38115.62
469.87	37343.25
470.05	37251.97
470.23	37619.43
470.41	37837.10
470.59	38380.10
470.77	38356.70
470.95	39402.92
471.14	39044.82
471.32	38859.91
471.50	41949.42
471.68	41647.49
471.86	41879.21
472.04	42148.37
472.22	42291.14
472.40	40130.83
472.58	40151.89
472.77	40016.14
472.95	40975.76
473.13	41450.89
473.31	40348.50
473.49	40730.00
473.67	41893.25
473.85	41546.85
474.03	42752.23
474.21	42714.78
474.39	43201.61
474.57	43515.24
474.75	43674.40
474.93	43227.35
475.12	42036.02
475.30	42665.63
475.48	42347.31
475.66	43131.39
475.84	42518.17
476.02	42394.12
476.20	41464.93
476.38	42220.92
476.56	43625.25
476.74	44453.79
476.92	44114.42
477.10	44854.03
477.28	45734.07
477.46	46188.13
477.64	47023.70
477.82	46511.13
478.00	46855.18
478.18	45844.07
478.36	45958.76
478.54	46115.58
478.72	46326.22
478.90	47597.13
479.08	48369.51
479.26	48816.55
479.44	48488.88
479.62	48203.33
479.80	48385.89
479.98	48648.03
480.16	49001.46
480.34	48133.12
480.52	48949.96
480.70	49116.14
480.88	49022.52
481.06	49977.46
481.24	49813.62
481.41	50742.81
481.59	51592.43
481.77	51168.79
481.95	50279.39
482.13	50370.67
482.31	50277.05
482.49	51077.51
482.67	51100.92
482.85	51531.57
483.03	51796.06
483.21	51985.64
483.39	51920.10
483.57	51480.08
483.74	50986.23
483.92	51339.65
484.10	51234.33
484.28	52484.17
484.46	52643.33
484.64	53148.88
484.82	52353.10
485.00	52114.37
485.18	51381.78
485.35	49989.16
485.53	46976.89
485.71	43342.04
485.89	43353.74
486.07	45237.87
486.25	48512.28
486.43	50384.71
486.61	51098.58
486.78	50918.35
486.96	51285.82
487.14	52868.02
487.32	53242.51
487.50	54316.81
487.68	54714.70
487.85	55564.32
488.03	55320.90
488.21	54810.67
488.39	54246.60
488.57	53965.73
488.75	53633.38
488.92	54604.70
489.10	56420.95
489.28	57448.45
489.46	57879.11
489.64	57986.77
489.81	57769.10
489.99	57511.64
490.17	57619.31
490.35	58068.69
490.53	57326.74
490.70	57279.93
490.88	57380.57
491.06	58127.20
491.24	57932.94
491.41	57095.03
491.59	55702.41
491.77	54965.14
491.95	56032.42
492.13	56989.70
492.30	58066.35
492.48	58684.25
492.66	59164.06
492.84	59344.28
493.01	58827.02
493.19	58717.02
493.37	58354.24
493.54	57860.38
493.72	58497.01
493.90	59435.56
494.08	60151.77
494.25	60214.96
494.43	60516.89
494.61	60783.71
494.79	60741.58
494.96	60757.97
495.14	59962.18
495.32	59283.43
495.49	58894.90
495.67	59765.58
495.85	61062.24
496.02	61197.99
496.20	61090.32
496.38	60706.47
496.55	60694.77
496.73	61087.98
496.91	61123.09
497.09	61733.97
497.26	61829.93
497.44	61331.40
497.62	60973.30
497.79	60266.45
497.97	59032.99
498.14	59526.84
498.32	60467.74
498.50	61181.60
498.67	61614.60
498.85	61516.30
499.03	61460.13
499.20	61867.38
499.38	61848.66
499.56	61689.50
499.73	61181.60
499.91	60921.80
500.08	60552.00
500.26	59669.62
500.44	60238.37
500.61	60853.93
500.79	60907.76
500.97	60432.63
501.14	60306.24
501.32	60121.34
501.49	60210.28
501.67	60444.33
501.84	60905.42
502.02	61176.92
502.20	61364.17
502.37	61427.36
502.55	61478.85
502.72	62101.43
502.90	62363.57
503.07	62089.73
503.25	61759.72
503.43	61057.56
503.60	60528.59
503.78	59973.89
503.95	60453.70
504.13	61476.51
504.30	62410.38
504.48	62300.38
504.65	61797.16
504.83	61949.30
505.01	62487.62
505.18	62606.99
505.36	63100.84
505.53	63292.77
505.71	63503.42
505.88	63381.71
506.06	63023.61
506.23	62635.08
506.41	62354.21
506.58	62583.58
506.76	62583.58
506.93	62635.08
507.11	62328.47
507.28	62424.43
507.46	62059.30
507.63	61481.19
507.81	61354.80
507.98	61654.39
508.16	62148.24
508.33	62738.06
508.50	63023.61
508.68	63213.19
508.85	63714.06
509.03	63746.83
509.20	63463.63
509.38	62745.08
509.55	62003.13
509.73	62342.51
509.90	62763.81
510.08	63030.63
510.25	62939.35
510.42	62798.91
510.60	62602.31
510.77	62932.32
510.95	63381.71
511.12	63515.12
511.30	63805.34
511.47	63976.20
511.64	64046.42
511.82	63571.29
511.99	62869.13
512.17	62766.15
512.34	62239.53
512.51	62522.73
512.69	62496.98
512.86	62667.84
513.04	63105.52
513.21	63025.95
513.38	62728.70
513.56	62351.87
513.73	61832.27
513.90	62115.48
514.08	62092.07
514.25	62382.30
514.43	62639.76
514.60	62618.69
514.77	62674.87
514.95	62869.13
515.12	62698.27
515.29	62983.82
515.47	63355.96
515.64	63608.74
515.81	63374.69
515.99	62562.52
516.16	61354.80
516.33	59363.01
516.51	58202.10
516.68	57595.90
516.85	57233.12
517.03	57628.67
517.20	60023.04
517.37	62073.35
517.54	62890.19
517.72	62319.10
517.89	60191.56
518.06	58286.36
518.24	58665.53
518.41	60594.13
518.58	61675.46
518.75	61879.08
518.93	61949.30
519.10	61708.22
519.27	62358.89
519.45	62485.28
519.62	63072.76
519.79	63456.60
519.96	63166.38
520.14	62855.09
520.31	62106.12
520.48	62089.73
520.65	62342.51
520.83	63299.79
521.00	63456.60
521.17	63215.53
521.34	62918.28
521.52	63458.94
521.69	63833.43
521.86	64058.12
522.03	63711.72
522.20	62571.88
522.38	61623.96
522.55	61848.66
522.72	62319.10
522.89	62361.23
523.07	62759.12
523.24	63018.92
523.41	63793.64
523.58	64041.74
523.75	64390.48
523.92	64306.22
524.10	64306.22
524.27	64261.75
524.44	64065.14
524.61	63678.96
524.78	63800.66
524.96	63629.80
525.13	63702.36
525.30	63831.09
525.47	64292.18
525.64	64210.26
525.81	63412.13
525.98	62284.00
526.16	60970.96
526.33	60507.53
526.50	60065.17
526.67	59952.82
526.84	60495.83
527.01	61258.84
527.18	62040.58
527.36	62684.23
527.53	63671.93
527.70	63632.14
527.87	63405.11
528.04	62855.09
528.21	63309.15
528.38	63849.81
528.55	64467.72
528.72	64690.07
528.89	64776.67
529.07	64507.50
529.24	63833.43
529.41	63384.05
529.58	62721.68
529.75	62915.94
529.92	63484.69
530.09	63849.81
530.26	64097.91
530.43	64547.29
530.60	64601.13
530.77	64741.56
530.94	64856.24
531.11	64299.20
531.28	64062.80
531.46	64006.63
531.63	64184.51
531.80	63788.96
531.97	63615.76
532.14	62841.04
532.31	61928.23
532.48	61272.88
532.65	61614.60
532.82	62354.21
532.99	63234.25
533.16	63442.56
533.33	64048.76
533.50	63791.30
533.67	63447.24
533.84	62892.54
534.01	63039.99
534.18	63302.13
534.35	63524.48
534.52	63243.62
534.69	63533.84
534.86	63943.44
535.03	64046.42
535.20	64484.10
535.37	64633.89
535.54	64764.96
535.71	64427.93
535.88	64226.64
536.05	63604.06
536.22	63370.00
536.38	62927.64
536.55	62506.35
536.72	62202.08
536.89	62059.30
537.06	62922.96
537.23	63711.72
537.40	63868.54
537.57	63767.90
537.74	63580.65
537.91	63512.78
538.08	63505.76
538.25	63463.63
538.42	63786.62
538.59	63522.14
538.75	63044.67
538.92	62864.45
539.09	62714.65
539.26	62665.50
539.43	62368.26
539.60	62513.37
539.77	62597.63
539.94	62550.82
540.11	61712.91
540.28	61139.47
540.44	61511.62
540.61	61502.26
540.78	61970.36
540.95	62522.73
541.12	62597.63
541.29	62838.70
541.46	63011.90
541.62	63140.63
541.79	62981.48
541.96	62382.30
542.13	62557.84
542.30	62969.77
542.47	62859.77
542.63	62714.65
542.80	62550.82
542.97	62709.97
543.14	62522.73
543.31	62635.08
543.48	63077.44
543.64	63685.98
543.81	63945.78
543.98	63798.32
544.15	62981.48
544.32	62728.70
544.48	62773.17
544.65	63032.97
544.82	63608.74
544.99	63145.31
545.16	62768.49
545.32	62398.68
545.49	63402.77
545.66	63575.97
545.83	63105.52
546.00	62983.82
546.16	62717.00
546.33	62686.57
546.50	62908.92
546.67	63131.27
546.83	62929.98
547.00	62988.50
547.17	62391.66
547.34	61848.66
547.50	61607.58
547.67	62129.52
547.84	62300.38
548.00	62412.73
548.17	62962.75
548.34	62894.88
548.51	62665.50
548.67	62845.72
548.84	62958.07
549.01	62960.41
549.18	62822.32
549.34	62571.88
549.51	62848.06
549.68	62499.33
549.84	62539.11
550.01	62335.49
550.18	62255.91
550.34	62386.98
550.51	62438.47
550.68	62588.27
550.84	62026.54
551.01	62124.84
551.18	62239.53
551.34	62347.19
551.51	62663.16
551.68	62756.78
551.84	62822.32
552.01	62637.42
552.18	62548.48
552.34	61745.67
552.51	61661.41
552.68	61520.98
552.84	62047.60
553.01	62010.15
553.18	62166.97
553.34	62101.43
553.51	62279.31
553.67	62574.22
553.84	62606.99
554.01	62438.47
554.17	62316.76
554.34	62520.39
554.51	62592.95
554.67	62915.94
554.84	62714.65
555.00	62326.13
555.17	62251.23
555.33	62106.12
555.50	62300.38
555.67	62251.23
555.83	61937.60
556.00	61757.38
556.16	61687.16
556.33	61345.44
556.50	61319.70
556.66	61338.42
556.83	61146.50
556.99	61422.68
557.16	61506.94
557.32	61602.90
557.49	61914.19
557.65	61794.82
557.82	61839.29
557.98	61565.45
558.15	61137.13
558.32	60465.40
558.48	59835.80
558.65	59992.61
558.81	60348.37
558.98	60528.59
559.14	60938.19
559.31	60727.54
559.47	60809.46
559.64	60624.56
559.80	60329.65
559.97	60282.84
560.13	60786.05
560.30	61401.61
560.46	61932.92
560.63	62197.40
560.79	61942.28
560.96	61640.35
561.12	60825.84
561.29	60217.30
561.45	60147.09
561.61	60722.86
561.78	60903.08
561.94	60931.17
562.11	60781.37
562.27	60694.77
562.44	60928.83
562.60	61097.34
562.77	61483.53
562.93	61125.43
563.10	61073.94
563.26	60748.60
563.42	60851.59
563.59	60662.00
563.75	60622.22
563.92	60573.06
564.08	60514.55
564.24	60718.18
564.41	60872.65
564.57	60596.47
564.74	60650.30
564.90	60441.99
565.07	60243.05
565.23	60133.04
565.39	59667.28
565.56	59353.65
565.72	59201.51
565.88	59482.37
566.05	59730.47
566.21	59884.95
566.38	59920.05
566.54	59906.01
566.70	60285.18
566.87	60465.40
567.03	60573.06
567.19	60748.60
567.36	60568.38
567.52	60484.12
567.68	59948.14
567.85	59622.81
568.01	59227.26
568.17	58990.86
568.34	59152.36
568.50	59105.55
568.66	59264.70
568.83	59400.46
568.99	59458.97
569.15	59824.09
569.32	59545.57
569.48	59316.20
569.64	59187.47
569.81	59058.74
569.97	58871.49
570.13	58822.34
570.30	58433.81
570.46	57986.77
570.62	57694.21
570.78	57801.87
570.95	57958.69
571.11	58700.64
571.27	58766.17
571.43	58876.18
571.60	59264.70
571.76	59327.90
571.92	59433.22
572.09	59454.29
572.25	59468.33
572.41	59386.41
572.57	59379.39
572.74	59264.70
572.90	58953.41
573.06	58827.02
573.22	59145.34
573.38	59131.29
573.55	59011.93
573.71	59194.49
573.87	59091.51
574.03	58871.49
574.20	58937.03
574.36	58590.63
574.52	58576.59
574.68	58115.50
574.84	57930.60
575.01	57726.97
575.17	57733.99
575.33	58117.84
575.49	58169.33
575.65	58323.81
575.82	58255.93
575.98	57839.32
576.14	58127.20
576.30	58155.29
576.46	58473.60
576.62	58284.02
576.79	58382.32
576.95	57780.81
577.11	58028.90
577.27	57998.48
577.43	58197.42
577.59	57450.79
577.75	57492.92
577.92	56924.17
578.08	56580.11
578.24	56856.29
578.40	57174.61
578.56	57198.01
578.72	57263.55
578.88	57640.37
579.04	57647.39
579.21	57680.16
579.37	57689.52
579.53	57729.31
579.69	57558.45
579.85	58094.44
580.01	57764.42
580.17	57389.94
580.33	57165.24
580.49	57506.96
580.65	57729.31
580.82	58028.90
580.98	57574.84
581.14	57687.18
581.30	57738.68
581.46	57670.80
581.62	57820.59
581.78	57717.61
581.94	57949.32
582.10	57949.32
582.26	57961.03
582.42	57977.41
582.58	57872.09
582.74	57975.07
582.90	57989.11
583.06	58138.91
583.22	57890.81
583.38	57846.34
583.54	57638.03
583.70	57411.00
583.86	57682.50
584.02	57574.84
584.18	57738.68
584.34	57544.41
584.50	57691.86
584.66	57312.70
584.82	57219.08
584.98	57097.37
585.14	56680.75
