SpectraSuite Data File
++++++++++++++++++++++++++++++++++++
Date: Mon Oct 07 14:53:33 GMT-05:00 2013
User: price-jones
Dark Spectrum Present: No
Reference Spectrum Present: No
Number of Sampled Component Spectra: 1
Spectrometers: USB2+H05261
Integration Time (usec): 100000 (USB2+H05261)
Spectra Averaged: 1 (USB2+H05261)
Boxcar Smoothing: 0 (USB2+H05261)
Correct for Electrical Dark: No (USB2+H05261)
Strobe/Lamp Enabled: No (USB2+H05261)
Correct for Detector Non-linearity: No (USB2+H05261)
Correct for Stray Light: No (USB2+H05261)
Number of Pixels in Processed Spectrum: 2048
>>>>>Begin Processed Spectral Data<<<<<
365.73	0.00
365.92	0.00
366.12	0.00
366.32	0.00
366.52	0.00
366.72	0.00
366.91	0.00
367.11	0.00
367.31	0.00
367.51	0.00
367.70	0.00
367.90	0.00
368.10	0.00
368.30	0.00
368.49	0.00
368.69	0.00
368.89	0.00
369.09	0.00
369.28	0.00
369.48	0.00
369.68	0.00
369.87	0.00
370.07	0.00
370.27	0.00
370.47	585.13
370.66	2874.18
370.86	3527.19
371.06	3857.20
371.25	3971.89
371.45	3508.46
371.65	3129.30
371.84	2892.90
372.04	3026.31
372.24	3503.78
372.44	3613.79
372.63	3606.77
372.83	3365.69
373.03	3070.78
373.22	2670.55
373.42	2850.77
373.62	3307.18
373.81	3527.19
374.01	3485.06
374.21	3227.60
374.40	2902.26
374.60	3171.43
374.79	3330.58
374.99	4117.00
375.19	4360.42
375.38	4329.99
375.58	4072.53
375.78	4067.85
375.97	4009.34
376.17	4334.67
376.37	4245.73
376.56	4269.14
376.76	4648.30
376.95	4915.12
377.15	5261.52
377.35	5474.51
377.54	5706.23
377.74	5839.64
377.93	5900.49
378.13	5675.80
378.33	5448.77
378.52	4894.06
378.72	4901.08
378.91	4910.44
379.11	4631.92
379.31	4346.37
379.50	4280.84
379.70	4739.58
379.89	5254.50
380.09	5568.13
380.28	5748.36
380.48	5738.99
380.68	5458.13
380.87	5626.65
381.07	4997.04
381.26	4695.11
381.46	4437.66
381.65	4271.48
381.85	4257.43
382.04	3838.48
382.24	3838.48
382.43	3407.82
382.63	3510.80
382.83	3454.63
383.02	3557.61
383.22	3421.86
383.41	3510.80
383.61	3803.37
383.80	4201.26
384.00	4903.42
384.19	5329.40
384.39	5916.87
384.58	5483.88
384.78	5521.32
384.97	5659.42
385.17	5200.67
385.36	5214.71
385.56	4725.54
385.75	4929.17
385.95	5387.91
386.14	5844.32
386.34	6019.86
386.53	5591.54
386.72	5284.93
386.92	5266.21
387.11	5591.54
387.31	5851.34
387.50	5914.53
387.70	5596.22
387.89	5516.64
388.09	5694.52
388.28	5797.51
388.48	5778.78
388.67	6097.10
388.86	6544.14
389.06	7063.74
389.25	7576.31
389.45	7747.17
389.64	7728.45
389.84	7485.03
390.03	7328.22
390.22	7510.78
390.42	7557.59
390.61	8189.53
390.81	8683.39
391.00	8959.57
391.19	8947.87
391.39	8372.10
391.58	8060.80
391.78	7520.14
391.97	7328.22
392.16	6883.52
392.36	6363.92
392.55	5240.46
392.75	3833.80
392.94	3115.25
393.13	3157.38
393.33	3801.03
393.52	4737.24
393.71	5888.79
393.91	6789.89
394.10	7300.13
394.29	8016.33
394.49	8517.21
394.68	9465.13
394.88	9329.38
395.07	9727.27
395.26	9643.01
395.46	9352.78
395.65	8891.70
395.84	7583.34
396.04	6429.45
396.23	5139.82
396.42	4339.35
396.62	4400.21
396.81	4802.78
397.00	6228.17
397.19	7585.68
397.39	9191.28
397.58	10544.11
397.77	11279.04
397.97	11901.62
398.16	11709.70
398.35	11908.65
398.55	12409.52
398.74	12954.87
398.93	13429.99
399.12	13165.51
399.32	12629.53
399.51	13022.74
399.70	13767.03
399.90	13628.94
400.09	13523.62
400.28	13427.65
400.47	13692.13
400.67	14288.97
400.86	14520.68
401.05	14679.84
401.24	14719.63
401.44	15272.00
401.63	14970.07
401.82	14780.48
402.01	15066.03
402.21	15164.33
402.40	15197.10
402.59	15021.56
402.78	14153.22
402.97	13865.33
403.17	14272.59
403.36	15143.27
403.55	15819.68
403.74	16168.42
403.93	15133.90
404.13	14071.30
404.32	13769.37
404.51	14604.94
404.70	15164.33
404.89	15562.22
405.09	15400.72
405.28	14984.11
405.47	14906.87
405.66	14787.50
405.85	14354.51
406.05	14136.84
406.24	14113.43
406.43	14597.92
406.62	15637.12
406.81	15740.10
407.00	15110.50
407.20	14597.92
407.39	14661.12
407.58	15552.86
407.77	15861.81
407.96	16243.32
408.15	16690.36
408.34	16837.81
408.54	17851.27
408.73	17673.39
408.92	17497.84
409.11	17057.82
409.30	16137.99
409.49	15129.22
409.68	14181.31
409.87	13642.98
410.07	14581.54
410.26	15822.02
410.45	16734.83
410.64	17018.04
410.83	17539.97
411.02	18003.40
411.21	18705.56
411.40	18630.66
411.59	19002.81
411.78	18644.71
411.98	18422.36
412.17	18740.67
412.36	18534.70
412.55	18394.27
412.74	18092.34
412.93	17668.70
413.12	17809.14
413.31	19260.27
413.50	19442.83
413.69	19719.01
413.88	19147.92
414.07	18534.70
414.26	19040.26
414.45	19318.78
414.64	19473.26
414.83	19646.46
415.02	19501.34
415.22	19220.48
415.41	19929.66
415.60	20493.73
415.79	20886.94
415.98	21591.44
416.17	21343.35
416.36	20987.58
416.55	20666.93
416.74	20182.44
416.93	19349.21
417.12	19594.96
417.31	19847.74
417.50	20002.22
417.69	20751.19
417.88	20648.21
418.07	20053.71
418.26	20105.20
418.45	20058.39
418.64	21062.48
418.83	21640.59
419.02	21446.33
419.21	21408.88
419.39	19974.13
419.58	19454.53
419.77	19112.81
419.96	20161.37
420.15	21064.82
420.34	21710.81
420.53	22787.46
420.72	23234.50
420.91	23080.02
421.10	22742.99
421.29	22867.03
421.48	21809.11
421.67	22808.52
421.86	22424.67
422.05	20938.43
422.24	18394.27
422.43	18382.57
422.61	20472.67
422.80	22253.81
422.99	22214.02
423.18	21280.15
423.37	20910.35
423.56	20608.42
423.75	21561.02
423.94	21771.66
424.13	20858.85
424.32	20989.92
424.50	20809.70
424.69	20336.91
424.88	20613.10
425.07	20517.14
425.26	20568.63
425.45	20435.22
425.64	20016.26
425.83	19796.25
426.01	20823.75
426.20	21706.13
426.39	21577.40
426.58	19756.46
426.77	18324.05
426.96	17769.35
427.15	18628.32
427.33	19969.45
427.52	20985.24
427.71	20727.78
427.90	20893.96
428.09	20390.75
428.28	20032.65
428.46	19454.53
428.65	18773.44
428.84	19501.34
429.03	19852.42
429.22	18677.48
429.40	17996.38
429.59	16238.64
429.78	14143.86
429.97	14361.53
430.16	14401.32
430.34	14429.40
430.53	14544.09
430.72	14824.95
430.91	16402.47
431.10	19161.97
431.28	22663.41
431.47	24596.69
431.66	24865.85
431.85	23040.23
432.03	21010.99
432.22	19896.89
432.41	20746.51
432.60	22888.10
432.79	23859.42
432.97	24364.98
433.16	23686.22
433.35	21813.79
433.54	19576.24
433.72	18345.12
433.91	19040.26
434.10	21319.94
434.28	23087.04
434.47	23964.75
434.66	23655.79
434.85	23122.15
435.03	22661.07
435.22	23508.34
435.41	24910.32
435.59	24896.28
435.78	25364.39
435.97	25804.41
436.16	25809.09
436.34	25937.82
436.53	25013.31
436.72	25366.73
436.90	24044.32
437.09	24030.28
437.28	23239.18
437.46	24465.62
437.65	24173.05
437.84	22970.02
438.02	21135.04
438.21	20648.21
438.40	21678.04
438.58	23681.54
438.77	24259.65
438.96	24566.26
439.14	25579.71
439.33	25511.84
439.52	26464.44
439.70	25930.80
439.89	25429.92
440.08	24723.08
440.26	24603.71
440.45	25362.04
440.63	27103.40
440.82	28390.70
441.01	28196.43
441.19	28023.23
441.38	28364.95
441.57	29427.56
441.75	29834.81
441.94	29951.84
442.12	29659.27
442.31	30150.78
442.50	29869.92
442.68	29926.09
442.87	29645.23
443.05	29177.12
443.24	29457.98
443.43	30127.38
443.61	30380.15
443.80	31023.80
443.98	29102.22
444.17	29635.86
444.35	30909.11
444.54	31381.90
444.73	30876.35
444.91	29635.86
445.10	28477.30
445.28	27402.99
445.47	27089.36
445.65	27021.48
445.84	27683.86
446.02	28823.70
446.21	29551.60
446.39	29792.68
446.58	29853.53
446.77	30174.19
446.95	30422.28
447.14	31674.47
447.32	31370.20
447.51	30937.20
447.69	29834.81
447.88	29745.87
448.06	29853.53
448.25	30852.94
448.43	30869.33
448.62	30064.18
448.80	30066.52
448.99	30244.40
449.17	30916.14
449.36	30859.96
449.54	31831.29
449.73	32020.87
449.91	32879.85
450.10	33373.70
450.28	34396.51
450.46	34085.22
450.65	33860.53
450.83	33450.94
451.02	32868.14
451.20	32676.22
451.39	33062.41
451.57	32156.62
451.76	32514.72
451.94	32357.91
452.13	31681.49
452.31	30492.50
452.49	28809.65
452.68	29006.26
452.86	29670.97
453.05	30036.09
453.23	30363.77
453.42	31084.65
453.60	31721.28
453.78	32187.05
453.97	31850.01
454.15	31995.12
454.34	31527.02
454.52	31775.11
454.70	30745.28
454.89	31267.22
455.07	30890.39
455.26	31875.76
455.44	32563.87
455.62	33525.83
455.81	33914.36
455.99	33560.94
456.17	33031.98
456.36	33041.34
456.54	34171.82
456.73	33968.19
456.91	34700.78
457.09	34726.53
457.28	35314.00
457.46	34316.93
457.64	33975.22
457.83	32989.85
458.01	31768.09
458.19	32968.79
458.38	32725.37
458.56	34078.20
458.74	34338.00
458.93	33317.53
459.11	33413.49
459.29	32889.21
459.48	33308.16
459.66	33305.82
459.84	33668.61
460.03	33813.72
460.21	33928.41
460.39	34651.63
460.57	34792.06
460.76	35070.59
460.94	35414.65
461.12	34909.09
461.31	34883.34
461.49	34443.32
461.67	34265.44
461.85	36219.79
462.04	35510.61
462.22	36009.14
462.40	35910.84
462.59	35669.76
462.77	35669.76
462.95	35831.26
463.13	35253.15
463.32	34883.34
463.50	35016.75
463.68	34965.26
463.86	34852.92
464.05	34403.53
464.23	33394.76
464.41	33315.19
464.59	33001.55
464.78	34401.19
464.96	34071.18
465.14	34054.79
465.32	35056.54
465.50	35704.87
465.69	36058.29
465.87	35452.09
466.05	34689.08
466.23	33153.69
466.41	32278.33
466.60	33137.30
466.78	33039.00
466.96	33799.68
467.14	34415.24
467.32	34927.81
467.51	34803.77
467.69	33392.42
467.87	34176.50
468.05	34396.51
468.23	34558.01
468.41	34827.17
468.60	34754.61
468.78	34588.44
468.96	34389.49
469.14	35093.99
469.32	35356.13
469.50	34153.10
469.69	34171.82
469.87	33790.31
470.05	33593.71
470.23	33408.81
470.41	33565.62
470.59	33961.17
470.77	33865.21
470.95	35077.61
471.14	35564.44
471.32	35637.00
471.50	37144.30
471.68	37404.10
471.86	38148.39
472.04	37937.74
472.22	37968.17
472.40	36215.11
472.58	36065.31
472.77	35482.52
472.95	36154.26
473.13	36807.26
473.31	35861.69
473.49	36402.35
473.67	37095.15
473.85	37336.23
474.03	38143.71
474.21	38543.94
474.39	38656.29
474.57	38904.38
474.75	39178.23
474.93	38848.21
475.12	38043.07
475.30	37607.73
475.48	38014.98
475.66	38710.12
475.84	37933.06
476.02	37778.59
476.20	36879.82
476.38	37914.34
476.56	39086.95
476.74	39859.32
476.92	40095.72
477.10	40348.50
477.28	41368.97
477.46	41682.60
477.64	42050.06
477.82	41780.90
478.00	41993.89
478.18	41530.47
478.36	41010.87
478.54	41029.59
478.72	41661.54
478.90	42424.55
479.08	43859.30
479.26	44184.63
479.44	43735.25
479.62	43730.57
479.80	43543.33
479.98	43650.99
480.16	44598.91
480.34	43807.81
480.52	43948.24
480.70	44566.14
480.88	44285.28
481.06	45202.77
481.24	45411.07
481.41	46344.95
481.59	46911.36
481.77	46880.93
481.95	46155.36
482.13	45940.04
482.31	46059.40
482.49	46794.33
482.67	46387.08
482.85	46714.75
483.03	47171.16
483.21	47943.53
483.39	48105.03
483.57	46960.51
483.74	46894.97
483.92	46831.78
484.10	47227.33
484.28	48163.54
484.46	48708.89
484.64	48839.96
484.82	47718.84
485.00	47594.79
485.18	46983.91
485.35	45734.07
485.53	42536.90
485.71	38806.08
485.89	38078.18
486.07	39948.26
486.25	43384.17
486.43	46092.17
486.61	46541.55
486.78	46398.78
486.96	46649.22
487.14	48395.26
487.32	49179.34
487.50	50162.36
487.68	51278.80
487.85	51578.39
488.03	51402.85
488.21	51117.30
488.39	50417.48
488.57	49387.64
488.75	49385.30
488.92	50520.46
489.10	52582.48
489.28	53855.73
489.46	54543.84
489.64	54520.44
489.81	54700.66
489.99	54169.36
490.17	54155.32
490.35	54347.24
490.53	54120.21
490.70	54005.52
490.88	53609.97
491.06	54651.51
491.24	54330.86
491.41	53574.86
491.59	52097.98
491.77	51049.42
491.95	52266.50
492.13	53577.20
492.30	54712.36
492.48	55608.79
492.66	55854.54
492.84	55852.20
493.01	55945.83
493.19	55388.78
493.37	54960.46
493.54	54684.28
493.72	55241.32
493.90	56310.95
494.08	56715.86
494.25	57090.35
494.43	57279.93
494.61	57525.69
494.79	57518.67
494.96	57539.73
495.14	56935.87
495.32	56060.51
495.49	55491.76
495.67	56465.42
495.85	57696.55
496.02	58291.04
496.20	57944.64
496.38	57371.21
496.55	57319.72
496.73	57916.56
496.91	58113.16
497.09	58656.17
497.26	58536.80
497.44	58166.99
497.62	57738.68
497.79	57216.74
497.97	55920.08
498.14	55838.16
498.32	57015.45
498.50	57984.43
498.67	58557.86
498.85	58305.09
499.03	58426.79
499.20	58597.65
499.38	58599.99
499.56	58349.56
499.73	58120.18
499.91	57588.88
500.08	57251.84
500.26	56545.00
500.44	56959.28
500.61	57708.25
500.79	57703.57
500.97	57109.07
501.14	56891.40
501.32	56912.47
501.49	56891.40
501.67	57017.79
501.84	57474.20
502.02	57715.27
502.20	58073.37
502.37	58459.56
502.55	58267.64
502.72	58911.28
502.90	59236.62
503.07	59049.38
503.25	58688.93
503.43	57701.23
503.60	57097.37
503.78	56444.36
503.95	57155.88
504.13	58389.34
504.30	59290.45
504.48	58712.34
504.65	58707.66
504.83	58592.97
505.01	59267.05
505.18	59517.48
505.36	60135.38
505.53	60041.76
505.71	60254.75
505.88	60413.91
506.06	59627.49
506.23	59473.01
506.41	59119.59
506.58	59332.58
506.76	59339.60
506.93	59262.36
507.11	58913.62
507.28	59203.85
507.46	58838.73
507.63	58176.36
507.81	57923.58
507.98	58202.10
508.16	58939.37
508.33	59309.18
508.50	59901.33
508.68	60121.34
508.85	60376.46
509.03	60264.11
509.20	60133.04
509.38	59550.25
509.55	58974.48
509.73	59018.95
509.90	59634.51
510.08	59793.67
510.25	59833.46
510.42	59583.02
510.60	59550.25
510.77	59772.60
510.95	60196.24
511.12	60383.48
511.30	60673.71
511.47	61017.77
511.64	60767.33
511.82	60554.34
511.99	59791.33
512.17	59409.82
512.34	58937.03
512.51	59049.38
512.69	59224.92
512.86	59332.58
513.04	59856.86
513.21	59873.24
513.38	59590.04
513.56	59166.40
513.73	58412.75
513.90	58660.85
514.08	58585.95
514.25	59171.08
514.43	59285.77
514.60	59341.94
514.77	59388.75
514.95	59751.54
515.12	59550.25
515.29	59695.36
515.47	60090.91
515.64	60355.39
515.81	60006.65
515.99	59348.96
516.16	58335.51
516.33	55903.70
516.51	54410.43
516.68	53837.00
516.85	53399.32
517.03	53769.13
517.20	56334.35
517.37	58639.78
517.54	59585.36
517.72	58972.14
517.89	56959.28
518.06	54499.37
518.24	54937.05
518.41	56821.19
518.58	58181.04
518.75	58560.20
518.93	58520.41
519.10	58494.67
519.27	58997.88
519.45	58922.99
519.62	59655.57
519.79	60097.94
519.96	59833.46
520.14	59559.61
520.31	58925.33
520.48	58728.72
520.65	59009.59
520.83	59898.99
521.00	60324.97
521.17	59978.57
521.34	59681.32
521.52	59877.93
521.69	60264.11
521.86	60842.23
522.03	60619.88
522.20	59339.60
522.38	58241.89
522.55	58314.45
522.72	58995.54
522.89	59194.49
523.07	59363.01
523.24	59618.13
523.41	60460.72
523.58	60575.40
523.75	61045.85
523.92	61034.15
524.10	60781.37
524.27	60699.45
524.44	60769.67
524.61	60598.81
524.78	60357.74
524.96	60350.71
525.13	60268.79
525.30	60481.78
525.47	61087.98
525.64	60963.93
525.81	60360.08
525.98	58955.75
526.16	57331.42
526.33	56793.10
526.50	56629.26
526.67	56114.34
526.84	56748.63
527.01	57680.16
527.18	58607.01
527.36	59288.11
527.53	60196.24
527.70	60411.57
527.87	60123.68
528.04	59447.27
528.21	59711.75
528.38	60399.86
528.55	61099.68
528.72	61375.87
528.89	61455.45
529.07	61319.70
529.24	60575.40
529.41	60044.10
529.58	59421.52
529.75	59625.15
529.92	59931.76
530.09	60399.86
530.26	60835.20
530.43	61008.40
530.60	61169.90
530.77	61310.33
530.94	61490.55
531.11	60940.53
531.28	60570.72
531.46	60645.62
531.63	60582.43
531.80	60514.55
531.97	59955.16
532.14	59554.93
532.31	58529.78
532.48	57731.65
532.65	58061.67
532.82	58663.19
532.99	59758.56
533.16	60198.58
533.33	60638.60
533.50	60296.88
533.67	59838.14
533.84	59320.88
534.01	59716.43
534.18	59880.27
534.35	60009.00
534.52	59791.33
534.69	60072.19
534.86	60378.80
535.03	60619.88
535.20	61027.13
535.37	61357.14
535.54	61429.70
535.71	61099.68
535.88	60706.47
536.05	60339.01
536.22	59831.11
536.38	59585.36
536.55	59032.99
536.72	58644.46
536.89	58546.16
537.06	59510.46
537.23	60238.37
537.40	60219.64
537.57	60289.86
537.74	60165.81
537.91	60130.70
538.08	60137.72
538.25	60013.68
538.42	60226.66
538.59	60004.31
538.75	59526.84
538.92	59367.69
539.09	59091.51
539.26	58761.49
539.43	58787.24
539.60	58829.37
539.77	59079.80
539.94	59023.63
540.11	58431.47
540.28	57626.33
540.44	57853.36
540.61	58136.57
540.78	58286.36
540.95	58464.24
541.12	59210.87
541.29	59224.92
541.46	59664.94
541.62	59688.34
541.79	59524.50
541.96	58927.67
542.13	58864.47
542.30	59145.34
542.47	59400.46
542.63	59140.66
542.80	59009.59
542.97	58794.26
543.14	58892.56
543.31	58869.15
543.48	59253.00
543.64	60041.76
543.81	60519.23
543.98	60282.84
544.15	59615.79
544.32	59011.93
544.48	59150.02
544.65	59440.24
544.82	59994.95
544.99	59669.62
545.16	59257.68
545.32	59110.23
545.49	59728.13
545.66	59992.61
545.83	59990.27
546.00	59576.00
546.16	59119.59
546.33	59231.94
546.50	59187.47
546.67	59711.75
546.83	59260.02
547.00	58976.82
547.17	58408.07
547.34	58017.20
547.50	58110.82
547.67	58497.01
547.84	58550.84
548.00	58712.34
548.17	59276.41
548.34	58990.86
548.51	59323.22
548.67	59320.88
548.84	59288.11
549.01	59126.61
549.18	59224.92
549.34	59058.74
549.51	59243.64
549.68	59084.48
549.84	58773.19
550.01	58686.59
550.18	58653.82
550.34	58719.36
550.51	58740.42
550.68	58913.62
550.84	58368.28
551.01	58506.37
551.18	58333.17
551.34	58590.63
551.51	58967.46
551.68	59192.15
551.84	59187.47
552.01	58918.31
552.18	59028.31
552.34	58354.24
552.51	57865.06
552.68	57691.86
552.84	58307.43
553.01	58543.82
553.18	58478.28
553.34	58443.18
553.51	58686.59
553.67	58878.52
553.84	58827.02
554.01	58817.66
554.17	58597.65
554.34	58625.74
554.51	58880.86
554.67	59257.68
554.84	59037.67
555.00	58855.11
555.17	58309.77
555.33	58342.53
555.50	58286.36
555.67	58277.00
555.83	58108.48
556.00	57846.34
556.16	58099.12
556.33	57528.03
556.50	57396.96
556.66	57745.70
556.83	57415.68
556.99	57420.36
557.16	57453.13
557.32	57869.75
557.49	58073.37
557.65	57776.12
557.82	57897.83
557.98	57764.42
558.15	57336.10
558.32	56732.25
558.48	55838.16
558.65	55833.48
558.81	56268.82
558.98	56596.49
559.14	56992.04
559.31	56832.89
559.47	56816.50
559.64	56636.28
559.80	55973.91
559.97	56334.35
560.13	56868.00
560.30	57546.75
560.46	57928.26
560.63	58293.38
560.79	58333.17
560.96	57869.75
561.12	56807.14
561.29	55997.32
561.45	55863.91
561.61	56619.90
561.78	56924.17
561.94	56886.72
562.11	56816.50
562.27	56605.86
562.44	57155.88
562.60	57298.65
562.77	57333.76
562.93	57202.69
563.10	57261.21
563.26	56591.81
563.42	56465.42
563.59	56523.94
563.75	56465.42
563.92	56481.81
564.08	56554.36
564.24	56690.12
564.41	56662.03
564.57	56715.86
564.74	56463.08
564.90	56573.09
565.07	56395.21
565.23	55751.56
565.39	55547.93
565.56	55320.90
565.72	55011.95
565.88	55213.24
566.05	55461.33
566.21	55655.60
566.38	55910.72
566.54	56002.00
566.70	56268.82
566.87	56631.60
567.03	56470.11
567.19	56814.16
567.36	56507.55
567.52	56734.59
567.68	56168.18
567.85	55576.02
568.01	54897.27
568.17	54784.92
568.34	54864.50
568.50	54651.51
568.66	54864.50
568.83	55264.73
568.99	55327.92
569.15	55545.59
569.32	55414.52
569.48	54983.86
569.64	55110.25
569.81	54761.51
569.97	54501.71
570.13	54482.99
570.30	54330.86
570.46	53801.89
570.62	53366.55
570.78	53052.92
570.95	53429.75
571.11	54185.74
571.27	54377.67
571.43	54499.37
571.60	54651.51
571.76	54703.00
571.92	55299.84
572.09	55304.52
572.25	55580.70
572.41	55388.78
572.57	55367.71
572.74	55166.43
572.90	54719.38
573.06	54913.65
573.22	54852.80
573.38	54876.20
573.55	54695.98
573.71	55058.76
573.87	54901.95
574.03	54653.85
574.20	54747.47
574.36	54506.40
574.52	54188.08
574.68	54010.20
574.84	53808.92
575.01	53137.18
575.17	53195.70
575.33	53382.94
575.49	53366.55
575.65	53790.19
575.82	53759.76
575.98	53226.12
576.14	53535.07
576.30	53947.01
576.46	54260.64
576.62	54012.54
576.79	53820.62
576.95	53715.29
577.11	53373.58
577.27	53614.65
577.43	53593.59
577.59	53223.78
577.75	53015.47
577.92	52332.04
578.08	51978.62
578.24	52191.61
578.40	52514.60
578.56	52797.80
578.72	52938.24
578.88	52919.51
579.04	53172.29
579.21	53251.87
579.37	53059.94
579.53	53272.93
579.69	53188.67
579.85	53354.85
580.01	53385.28
580.17	52949.94
580.33	52687.80
580.49	52853.98
580.65	53179.31
580.82	53282.30
580.98	53202.72
581.14	53361.87
581.30	53443.79
581.46	53038.88
581.62	53373.58
581.78	53389.96
581.94	53392.30
582.10	53509.33
582.26	53595.93
582.42	53354.85
582.58	53317.40
582.74	53132.50
582.90	53633.38
583.06	53277.61
583.22	53188.67
583.38	53198.04
583.54	52830.57
583.70	53015.47
583.86	53092.71
584.02	52999.09
584.18	53153.57
584.34	52846.96
584.50	52783.76
584.66	52748.65
584.82	52254.80
584.98	52067.56
585.14	51894.36
585.30	51236.67
