SpectraSuite Data File
++++++++++++++++++++++++++++++++++++
Date: Mon Oct 07 14:54:03 GMT-05:00 2013
User: price-jones
Dark Spectrum Present: No
Reference Spectrum Present: No
Number of Sampled Component Spectra: 1
Spectrometers: USB2+H05261
Integration Time (usec): 100000 (USB2+H05261)
Spectra Averaged: 1 (USB2+H05261)
Boxcar Smoothing: 0 (USB2+H05261)
Correct for Electrical Dark: No (USB2+H05261)
Strobe/Lamp Enabled: No (USB2+H05261)
Correct for Detector Non-linearity: No (USB2+H05261)
Correct for Stray Light: No (USB2+H05261)
Number of Pixels in Processed Spectrum: 2048
>>>>>Begin Processed Spectral Data<<<<<
365.73	0.00
365.92	0.00
366.12	0.00
366.32	0.00
366.52	0.00
366.72	0.00
366.91	0.00
367.11	0.00
367.31	0.00
367.51	0.00
367.70	0.00
367.90	0.00
368.10	0.00
368.30	0.00
368.49	0.00
368.69	0.00
368.89	0.00
369.09	0.00
369.28	0.00
369.48	0.00
369.68	0.00
369.87	0.00
370.07	0.00
370.27	0.00
370.47	772.38
370.66	3279.09
370.86	3831.46
371.06	4393.19
371.25	4423.61
371.45	3955.51
371.65	3571.66
371.84	3417.18
372.04	3405.48
372.24	3927.42
372.44	4098.28
372.63	3941.46
372.83	3822.09
373.03	3346.97
373.22	3077.80
373.42	3234.62
373.62	3609.11
373.81	4021.04
374.01	4009.34
374.21	3468.67
374.40	3211.22
374.60	3503.78
374.79	3875.93
374.99	4566.39
375.19	4905.76
375.38	5022.79
375.58	4695.11
375.78	4559.36
375.97	4498.51
376.17	4674.05
376.37	4734.90
376.56	4994.70
376.76	5167.90
376.95	5554.09
377.15	5996.45
377.35	6209.44
377.54	6228.17
377.74	6483.28
377.93	6700.95
378.13	6448.18
378.33	6134.54
378.52	5495.58
378.72	5383.23
378.91	5462.81
379.11	5018.11
379.31	4994.70
379.50	4882.36
379.70	5324.72
379.89	5928.58
380.09	6204.76
380.28	6546.48
380.48	6424.77
380.68	6218.80
380.87	6069.01
381.07	5778.78
381.26	5160.88
381.46	4924.49
381.65	4905.76
381.85	4564.04
382.04	4416.59
382.24	4285.52
382.43	3847.84
382.63	3742.52
382.83	3889.97
383.02	3847.84
383.22	3882.95
383.41	3887.63
383.61	4098.28
383.80	4816.82
384.00	5303.65
384.19	6022.20
384.39	6246.89
384.58	6291.36
384.78	6090.07
384.97	5937.94
385.17	5760.06
385.36	5617.29
385.56	5259.18
385.75	5540.05
385.95	5963.68
386.14	6560.52
386.34	6588.61
386.53	6237.53
386.72	5930.92
386.92	5776.44
387.11	6202.42
387.31	6553.50
387.50	6626.06
387.70	6256.25
387.89	6057.31
388.09	6249.23
388.28	6183.70
388.48	6242.21
388.67	6771.17
388.86	7351.62
389.06	7995.27
389.25	8437.63
389.45	8514.87
389.64	8250.39
389.84	8271.45
390.03	8140.38
390.22	8264.43
390.42	8402.52
390.61	8924.46
390.81	9455.76
391.00	9720.24
391.19	9720.24
391.39	9235.75
391.58	8924.46
391.78	8287.84
391.97	8095.91
392.16	7583.34
392.36	6923.30
392.55	5589.20
392.75	4299.56
392.94	3487.40
393.13	3637.19
393.33	4205.94
393.52	5289.61
393.71	6712.66
393.91	7274.38
394.10	7885.26
394.29	8615.51
394.49	9287.25
394.68	10237.50
394.88	10146.22
395.07	10747.74
395.26	10375.59
395.46	10122.82
395.65	9621.94
395.84	8257.41
396.04	7030.97
396.23	5856.02
396.42	4636.60
396.62	4592.13
396.81	5268.55
397.00	6942.03
397.19	8486.78
397.39	10029.20
397.58	11468.62
397.77	12283.13
397.97	12594.42
398.16	12620.17
398.35	13336.37
398.55	13493.19
398.74	14246.84
398.93	14483.24
399.12	14326.42
399.32	13973.00
399.51	14267.91
399.70	15044.96
399.90	14899.85
400.09	15236.89
400.28	14626.01
400.47	14958.36
400.67	15674.57
400.86	16032.67
401.05	15850.11
401.24	15744.78
401.44	16442.26
401.63	16500.78
401.82	16507.80
402.01	16442.26
402.21	16673.98
402.40	16732.49
402.59	16161.40
402.78	15494.35
402.97	15035.60
403.17	15578.61
403.36	16489.07
403.55	17198.26
403.74	17589.13
403.93	16491.41
404.13	15262.63
404.32	15023.90
404.51	15658.18
404.70	16746.53
404.89	16755.90
405.09	16428.22
405.28	16133.31
405.47	16035.01
405.66	16072.46
405.85	15719.04
406.05	15473.28
406.24	15400.72
406.43	16414.18
406.62	16737.17
406.81	16957.18
407.00	16224.59
407.20	15704.99
407.39	15927.35
407.58	16643.55
407.77	17458.06
407.96	17832.54
408.15	18017.44
408.34	18377.89
408.54	19103.45
408.73	19082.39
408.92	19063.66
409.11	18218.73
409.30	17247.41
409.49	16517.16
409.68	15412.43
409.87	14836.66
410.07	15625.42
410.26	16959.52
410.45	17867.65
410.64	18359.16
410.83	19014.51
411.02	19508.37
411.21	20542.88
411.40	20109.88
411.59	20119.24
411.78	19934.34
411.98	19690.93
412.17	20142.65
412.36	19749.44
412.55	20037.33
412.74	19349.21
412.93	18845.99
413.12	19049.62
413.31	20692.68
413.50	21025.03
413.69	21516.54
413.88	21001.63
414.07	20114.56
414.26	20325.21
414.45	20884.60
414.64	21048.44
414.83	21282.49
415.02	20608.42
415.22	20615.44
415.41	21102.27
415.60	21752.94
415.79	22817.88
415.98	23040.23
416.17	23112.79
416.36	22359.14
416.55	22609.58
416.74	21731.87
416.93	21153.76
417.12	21153.76
417.31	21135.04
417.50	21427.60
417.69	22324.03
417.88	22082.95
418.07	21937.84
418.26	21671.02
418.45	21757.62
418.64	22527.66
418.83	23115.13
419.02	22986.40
419.21	22902.14
419.39	21453.35
419.58	20704.38
419.77	20966.52
419.96	21759.96
420.15	22782.77
420.34	23726.01
420.53	24229.23
420.72	24624.78
420.91	24776.91
421.10	24393.06
421.29	23892.19
421.48	22981.72
421.67	24430.51
421.86	23770.48
422.05	22328.71
422.24	19908.60
422.43	19274.31
422.61	21656.98
422.80	23295.35
422.99	23515.36
423.18	22644.68
423.37	22436.38
423.56	22183.60
423.75	22710.22
423.94	23061.30
424.13	22024.44
424.32	22005.72
424.50	22132.11
424.69	21673.36
424.88	22244.45
425.07	21743.58
425.26	21722.51
425.45	21434.63
425.64	21231.00
425.83	21195.89
426.01	22609.58
426.20	22820.22
426.39	22944.27
426.58	21277.81
426.77	19632.41
426.96	19051.96
427.15	19321.12
427.33	21432.29
427.52	22059.55
427.71	21926.14
427.90	21771.66
428.09	21788.05
428.28	21221.64
428.46	20730.12
428.65	19871.15
428.84	20643.52
429.03	21060.14
429.22	20011.58
429.40	18958.34
429.59	17280.18
429.78	15035.60
429.97	14839.00
430.16	15311.78
430.34	15410.09
430.53	15641.80
430.72	15667.55
430.91	17408.90
431.10	20498.41
431.28	23786.86
431.47	26253.79
431.66	26511.25
431.85	24318.17
432.03	21891.03
432.22	21209.93
432.41	21759.96
432.60	24332.21
432.79	25453.33
432.97	26005.69
433.16	25509.50
433.35	22918.53
433.54	20662.25
433.72	19192.39
433.91	20006.90
434.10	22459.78
434.28	24364.98
434.47	25064.80
434.66	24755.85
434.85	24364.98
435.03	23892.19
435.22	25020.33
435.41	26225.70
435.59	26382.52
435.78	26480.82
435.97	27267.24
436.16	27255.54
436.34	27035.53
436.53	26272.51
436.72	26941.91
436.90	24898.62
437.09	25345.66
437.28	24793.29
437.46	25706.10
437.65	25167.78
437.84	23728.35
438.02	21617.19
438.21	21696.77
438.40	22878.74
438.58	24840.11
438.77	25406.52
438.96	25921.43
439.14	26595.51
439.33	27044.89
439.52	27992.81
439.70	27171.28
439.89	26562.74
440.08	25916.75
440.26	25656.95
440.45	26462.10
440.63	28407.08
440.82	29970.56
441.01	29441.60
441.19	29198.18
441.38	29315.21
441.57	30548.67
441.75	31028.48
441.94	31360.84
442.12	30986.35
442.31	31452.12
442.50	31470.84
442.68	31189.98
442.87	30831.88
443.05	30174.19
443.24	30740.60
443.43	31204.02
443.61	31611.28
443.80	32486.64
443.98	30604.84
444.17	30012.69
444.35	32535.79
444.54	32807.29
444.73	32332.16
444.91	31225.09
445.10	29893.32
445.28	28755.82
445.47	28500.70
445.65	28304.10
445.84	29373.72
446.02	30106.31
446.21	30665.70
446.39	30593.14
446.58	30862.30
446.77	31358.50
446.95	32198.75
447.14	32547.49
447.32	33041.34
447.51	32706.65
447.69	31002.74
447.88	31215.72
448.06	31211.04
448.25	32100.45
448.43	32624.73
448.62	31299.98
448.80	31330.41
448.99	31812.56
449.17	32313.44
449.36	31700.22
449.54	32835.38
449.73	33612.43
449.91	34455.03
450.10	34857.60
450.28	35117.40
450.46	34911.43
450.65	35234.42
450.83	34763.98
451.02	33897.98
451.20	33689.67
451.39	33865.21
451.57	33542.22
451.76	33610.09
451.94	33184.12
452.13	33113.90
452.31	31620.64
452.49	29741.19
452.68	30382.49
452.86	30597.82
453.05	30845.92
453.23	31299.98
453.42	32257.26
453.60	32767.50
453.78	33893.30
453.97	32975.81
454.15	33074.11
454.34	32173.00
454.52	32360.25
454.70	32046.62
454.89	32261.94
455.07	32528.77
455.26	32652.81
455.44	33809.04
455.62	34670.36
455.81	35196.98
455.99	34682.06
456.17	34000.96
456.36	34281.83
456.54	35419.33
456.73	35634.66
456.91	35857.01
457.09	36114.47
457.28	36566.19
457.46	34925.47
457.64	35124.42
457.83	34197.57
458.01	32994.53
458.19	34080.54
458.38	34216.29
458.56	35229.74
458.74	34679.72
458.93	34445.66
459.11	34036.07
459.29	34373.11
459.48	34492.47
459.66	34199.91
459.84	35023.78
460.03	35061.22
460.21	34726.53
460.39	36142.55
460.57	35732.96
460.76	36168.30
460.94	36378.95
461.12	35754.02
461.31	36088.72
461.49	35541.03
461.67	35952.97
461.85	36959.40
462.04	36315.75
462.22	37024.93
462.40	37104.51
462.59	36727.69
462.77	36334.48
462.95	36816.63
463.13	36397.67
463.32	35964.67
463.50	35927.22
463.68	35901.48
463.86	35892.12
464.05	35049.52
464.23	34696.10
464.41	33895.64
464.59	33773.93
464.78	35945.95
464.96	35147.82
465.14	34944.20
465.32	35819.56
465.50	36903.23
465.69	36690.24
465.87	36215.11
466.05	35466.14
466.23	33738.82
466.41	32769.84
466.60	33923.72
466.78	33787.97
466.96	34637.59
467.14	35023.78
467.32	35601.89
467.51	35505.93
467.69	34050.11
467.87	35054.20
468.05	35615.93
468.23	35498.91
468.41	35447.41
468.60	35552.74
468.78	35690.83
468.96	34916.11
469.14	36165.96
469.32	36191.70
469.50	34902.07
469.69	34778.02
469.87	34459.71
470.05	33919.04
470.23	34471.41
470.41	34728.87
470.59	35358.47
470.77	35211.02
470.95	35988.08
471.14	36203.41
471.32	36137.87
471.50	37916.68
471.68	38319.25
471.86	38431.60
472.04	38239.67
472.22	38588.41
472.40	36961.74
472.58	36671.51
472.77	36217.45
472.95	36821.31
473.13	37706.03
473.31	36648.11
473.49	37076.43
473.67	38050.09
473.85	37897.95
474.03	39159.50
474.21	38934.81
474.39	39316.32
474.57	39316.32
474.75	39379.51
474.93	39035.45
475.12	38277.12
475.30	38714.80
475.48	38637.56
475.66	39009.71
475.84	38508.83
476.02	38265.42
476.20	37769.22
476.38	38450.32
476.56	39974.01
476.74	40477.22
476.92	40147.21
477.10	41022.57
477.28	41848.78
477.46	42094.53
477.64	42291.14
477.82	42391.78
478.00	42742.86
478.18	42108.58
478.36	41958.78
478.54	42239.65
478.72	42080.49
478.90	43398.21
479.08	44449.11
479.26	44856.37
479.44	44669.12
479.62	44208.04
479.80	44292.30
479.98	44453.79
480.16	45036.59
480.34	44280.60
480.52	44657.42
480.70	44830.62
480.88	45165.32
481.06	45956.42
481.24	46019.61
481.41	46588.36
481.59	47676.71
481.77	46960.51
481.95	46637.51
482.13	46539.21
482.31	46314.52
482.49	47372.44
482.67	47182.86
482.85	47384.15
483.03	47920.13
483.21	48147.16
483.39	48147.16
483.57	47494.15
483.74	46876.25
483.92	47625.22
484.10	47688.42
484.28	48346.11
484.46	49193.38
484.64	49251.89
484.82	48851.66
485.00	48048.86
485.18	47412.23
485.35	46469.00
485.53	42621.16
485.71	39044.82
485.89	38630.54
486.07	40479.57
486.25	43805.47
486.43	46038.34
486.61	47037.75
486.78	46815.40
486.96	47171.16
487.14	48765.06
487.32	49492.97
487.50	50473.65
487.68	51337.31
487.85	51807.76
488.03	51679.03
488.21	51437.95
488.39	50546.21
488.57	50035.97
488.75	49645.10
488.92	50646.85
489.10	52882.06
489.28	53998.50
489.46	54742.79
489.64	54480.65
489.81	54707.68
489.99	54452.56
490.17	54522.78
490.35	54794.28
490.53	54129.57
490.70	53829.98
490.88	53769.13
491.06	54763.85
491.24	54560.23
491.41	53652.10
491.59	52472.47
491.77	51309.22
491.95	52273.52
492.13	53642.74
492.30	54665.55
492.48	55533.89
492.66	56287.54
492.84	56102.64
493.01	55819.44
493.19	55437.93
493.37	55051.74
493.54	54770.88
493.72	55367.71
493.90	56303.93
494.08	57076.30
494.25	57167.58
494.43	57453.13
494.61	57719.95
494.79	57787.83
494.96	57670.80
495.14	57228.44
495.32	56310.95
495.49	55412.18
495.67	56619.90
495.85	57984.43
496.02	58382.32
496.20	58033.58
496.38	57741.02
496.55	57499.94
496.73	57928.26
496.91	58056.99
497.09	58639.78
497.26	58941.71
497.44	58333.17
497.62	57853.36
497.79	57099.71
497.97	56009.02
498.14	55987.95
498.32	57195.67
498.50	57993.79
498.67	58405.73
498.85	58094.44
499.03	58461.90
499.20	58686.59
499.38	58681.91
499.56	58511.05
499.73	58085.07
499.91	57773.78
500.08	57282.27
500.26	56460.74
500.44	56973.32
500.61	57743.36
500.79	57429.72
500.97	56853.95
501.14	56732.25
501.32	56821.19
501.49	57120.77
501.67	56942.89
501.84	57759.74
502.02	57925.92
502.20	58260.62
502.37	58223.17
502.55	58169.33
502.72	58908.94
502.90	59208.53
503.07	58922.99
503.25	58625.74
503.43	57607.61
503.60	57326.74
503.78	56449.04
503.95	56961.62
504.13	58248.91
504.30	59021.29
504.48	58941.71
504.65	58555.52
504.83	58644.46
505.01	59168.74
505.18	59536.21
505.36	60119.00
505.53	60004.31
505.71	60214.96
505.88	60289.86
506.06	59515.14
506.23	59428.54
506.41	58915.96
506.58	59236.62
506.76	59119.59
506.93	59353.65
507.11	58805.96
507.28	59180.45
507.46	58712.34
507.63	58330.83
507.81	58007.84
507.98	58007.84
508.16	58944.05
508.33	59224.92
508.50	59604.08
508.68	59828.77
508.85	60280.50
509.03	60360.08
509.20	60252.41
509.38	59592.38
509.55	58625.74
509.73	58820.00
509.90	59477.69
510.08	59746.86
510.25	59456.63
510.42	59255.34
510.60	59332.58
510.77	59381.73
510.95	60196.24
511.12	60093.25
511.30	60214.96
511.47	60514.55
511.64	60748.60
511.82	60505.19
511.99	59739.83
512.17	59227.26
512.34	58869.15
512.51	58857.45
512.69	59119.59
512.86	59440.24
513.04	59648.55
513.21	59583.02
513.38	59278.75
513.56	58822.34
513.73	58262.96
513.90	58403.39
514.08	58539.14
514.25	58946.39
514.43	58820.00
514.60	59112.57
514.77	59215.55
514.95	59248.32
515.12	58969.80
515.29	59327.90
515.47	59810.05
515.64	60013.68
515.81	59552.59
515.99	59210.87
516.16	57968.05
516.33	55742.20
516.51	54216.17
516.68	53230.80
516.85	53106.76
517.03	53471.88
517.20	55971.57
517.37	58255.93
517.54	59217.89
517.72	58670.21
517.89	56537.98
518.06	54206.81
518.24	54389.37
518.41	56573.09
518.58	57806.55
518.75	58206.78
518.93	58108.48
519.10	58124.86
519.27	58815.32
519.45	58555.52
519.62	59313.86
519.79	59873.24
519.96	59552.59
520.14	59126.61
520.31	58473.60
520.48	58384.66
520.65	58897.24
520.83	59587.70
521.00	59891.97
521.17	59634.51
521.34	59107.89
521.52	59297.47
521.69	60165.81
521.86	60432.63
522.03	60341.35
522.20	58712.34
522.38	57825.28
522.55	58047.63
522.72	58588.29
522.89	58492.33
523.07	59075.12
523.24	59051.72
523.41	59987.93
523.58	60236.03
523.75	60636.26
523.92	60420.93
524.10	60612.85
524.27	60439.65
524.44	60207.94
524.61	60126.02
524.78	60001.97
524.96	59873.24
525.13	59969.21
525.30	60011.34
525.47	60355.39
525.64	60357.74
525.81	59742.17
525.98	58595.31
526.16	57244.82
526.33	56320.31
526.50	56128.39
526.67	55611.13
526.84	56458.40
527.01	57137.16
527.18	58064.01
527.36	58869.15
527.53	59583.02
527.70	60158.79
527.87	59480.03
528.04	58934.69
528.21	59442.59
528.38	59987.93
528.55	60575.40
528.72	60846.91
528.89	61069.26
529.07	60755.63
529.24	60046.44
529.41	59533.87
529.58	58927.67
529.75	59138.32
529.92	59498.76
530.09	59838.14
530.26	60470.08
530.43	60720.52
530.60	60704.13
530.77	60774.35
530.94	60828.18
531.11	60360.08
531.28	59943.46
531.46	59821.75
531.63	60172.83
531.80	60032.40
531.97	59510.46
532.14	58700.64
532.31	58085.07
532.48	57118.43
532.65	57296.31
532.82	58042.95
532.99	59199.17
533.16	59384.07
533.33	60135.38
533.50	59835.80
533.67	59353.65
533.84	58679.57
534.01	59014.27
534.18	59194.49
534.35	59344.28
534.52	59157.04
534.69	59405.14
534.86	59681.32
535.03	59962.18
535.20	60626.90
535.37	60561.36
535.54	60795.42
535.71	60662.00
535.88	60128.36
536.05	59681.32
536.22	59126.61
536.38	59018.95
536.55	58323.81
536.72	57935.28
536.89	57876.77
537.06	58576.59
537.23	59601.74
537.40	59660.26
537.57	59564.29
537.74	59461.31
537.91	59489.40
538.08	59161.72
538.25	59351.30
538.42	59714.09
538.59	59557.27
538.75	58974.48
538.92	58501.69
539.09	58475.94
539.26	58321.47
539.43	58211.46
539.60	58300.40
539.77	58209.12
539.94	58553.18
540.11	57570.16
540.28	56952.26
540.44	57233.12
540.61	57200.35
540.78	57577.18
540.95	58019.54
541.12	58335.51
541.29	58529.78
541.46	58773.19
541.62	59018.95
541.79	58883.20
541.96	58190.40
542.13	58087.42
542.30	58515.73
542.47	58599.99
542.63	58141.25
542.80	58115.50
542.97	58281.68
543.14	58286.36
543.31	58096.78
543.48	58597.65
543.64	59416.84
543.81	59576.00
543.98	59377.05
544.15	58880.86
544.32	58202.10
544.48	58246.57
544.65	58658.51
544.82	59400.46
544.99	58599.99
545.16	58337.85
545.32	58150.61
545.49	58845.75
545.66	59248.32
545.83	58962.78
546.00	58665.53
546.16	58178.70
546.33	58192.74
546.50	58312.11
546.67	59000.22
546.83	58562.54
547.00	58354.24
547.17	57752.72
547.34	57277.59
547.50	57378.23
547.67	57715.27
547.84	57900.17
548.00	57900.17
548.17	58560.20
548.34	58394.03
548.51	58162.31
548.67	58389.34
548.84	58480.63
549.01	58272.32
549.18	58234.87
549.34	58117.84
549.51	58323.81
549.68	58262.96
549.84	57834.64
550.01	58019.54
550.18	57696.55
550.34	57701.23
550.51	57958.69
550.68	58049.97
550.84	57544.41
551.01	57478.88
551.18	57436.75
551.34	57946.98
551.51	58094.44
551.68	58286.36
551.84	58223.17
552.01	58080.39
552.18	57979.75
552.34	57069.28
552.51	56694.80
552.68	56549.68
552.84	57488.24
553.01	57499.94
553.18	57652.08
553.34	57668.46
553.51	57448.45
553.67	58101.46
553.84	57996.13
554.01	57797.19
554.17	57785.49
554.34	57752.72
554.51	57895.49
554.67	58134.23
554.84	58010.18
555.00	57567.82
555.17	57462.49
555.33	57495.26
555.50	57240.14
555.67	57460.15
555.83	57265.89
556.00	56835.23
556.16	57048.22
556.33	56853.95
556.50	56231.37
556.66	56294.56
556.83	56222.01
556.99	56516.92
557.16	56547.34
557.32	56987.36
557.49	56968.64
557.65	56966.30
557.82	56776.72
557.98	56811.82
558.15	56334.35
558.32	55309.20
558.48	54808.32
558.65	54749.81
558.81	55161.75
558.98	55358.35
559.14	55536.23
559.31	55681.34
559.47	55648.58
559.64	55463.67
559.80	54930.03
559.97	55494.10
560.13	55571.34
560.30	56383.51
560.46	56699.48
560.63	57080.98
560.79	56982.68
560.96	56816.50
561.12	55426.23
561.29	54742.79
561.45	54855.14
561.61	55363.03
561.78	55973.91
561.94	55770.28
562.11	55599.43
562.27	55337.29
562.44	55992.64
562.60	55973.91
562.77	56156.47
562.93	55929.44
563.10	56062.85
563.26	55414.52
563.42	55536.23
563.59	55030.68
563.75	55348.99
563.92	55391.12
564.08	55353.67
564.24	55547.93
564.41	55484.74
564.57	55360.69
564.74	55407.50
564.90	55629.85
565.07	54857.48
565.23	54801.30
565.39	54223.19
565.56	53930.62
565.72	53406.34
565.88	54197.44
566.05	54176.38
566.21	54415.11
566.38	54466.61
566.54	54597.68
566.70	55103.23
566.87	55164.09
567.03	54864.50
567.19	55576.02
567.36	55110.25
567.52	54983.86
567.68	54869.18
567.85	54279.36
568.01	53815.94
568.17	53441.45
568.34	53614.65
568.50	53277.61
568.66	53364.21
568.83	54017.22
568.99	53595.93
569.15	53949.35
569.32	54211.49
569.48	53778.49
569.64	53418.05
569.81	53521.03
569.97	53305.70
570.13	53169.95
570.30	52734.61
570.46	52353.10
570.62	52023.09
570.78	51405.19
570.95	51700.09
571.11	52442.04
571.27	52687.80
571.43	53228.46
571.60	53324.43
571.76	53490.60
571.92	53696.57
572.09	53799.55
572.25	53937.65
572.41	53841.68
572.57	53579.54
572.74	53783.17
572.90	53158.25
573.06	53083.35
573.22	53265.91
573.38	53329.11
573.55	53151.23
573.71	53394.64
573.87	53373.58
574.03	52987.39
574.20	53020.16
574.36	52802.49
574.52	52769.72
574.68	52425.66
574.84	52137.77
575.01	51625.20
575.17	51461.36
575.33	51690.73
575.49	52074.58
575.65	52413.96
575.82	51803.08
575.98	51756.27
576.14	52210.33
576.30	52371.83
576.46	52458.43
576.62	52196.29
576.79	52388.21
576.95	51669.67
577.11	51990.32
577.27	51732.86
577.43	52243.10
577.59	51578.39
577.75	51063.47
577.92	50384.71
578.08	50176.40
578.24	50349.60
578.40	50422.16
578.56	50997.93
578.72	51257.73
578.88	50983.89
579.04	51231.99
579.21	51543.28
579.37	51538.60
579.53	51505.83
579.69	51838.18
579.85	51758.61
580.01	51262.41
580.17	51229.65
580.33	51021.34
580.49	51206.24
580.65	51430.93
580.82	51681.37
580.98	51664.99
581.14	51491.79
581.30	51482.42
581.46	51136.02
581.62	51627.54
581.78	51334.97
581.94	51526.89
582.10	51381.78
582.26	51620.52
582.42	51763.29
582.58	51419.23
582.74	51533.92
582.90	51688.39
583.06	51653.28
583.22	51627.54
583.38	51554.98
583.54	51234.33
583.70	51009.64
583.86	51175.81
584.02	51105.60
584.18	51154.75
584.34	51033.04
584.50	50960.48
584.66	50796.65
584.82	50728.77
584.98	50232.58
585.14	49720.00
