SpectraSuite Data File
++++++++++++++++++++++++++++++++++++
Date: Mon Oct 07 14:54:58 GMT-05:00 2013
User: price-jones
Dark Spectrum Present: No
Reference Spectrum Present: No
Number of Sampled Component Spectra: 1
Spectrometers: USB2+H05261
Integration Time (usec): 10000 (USB2+H05261)
Spectra Averaged: 1 (USB2+H05261)
Boxcar Smoothing: 0 (USB2+H05261)
Correct for Electrical Dark: No (USB2+H05261)
Strobe/Lamp Enabled: No (USB2+H05261)
Correct for Detector Non-linearity: No (USB2+H05261)
Correct for Stray Light: No (USB2+H05261)
Number of Pixels in Processed Spectrum: 2048
>>>>>Begin Processed Spectral Data<<<<<
365.73	0.00
365.92	0.00
366.12	0.00
366.32	0.00
366.52	0.00
366.72	0.00
366.91	0.00
367.11	0.00
367.31	0.00
367.51	0.00
367.70	0.00
367.90	0.00
368.10	0.00
368.30	0.00
368.49	0.00
368.69	0.00
368.89	0.00
369.09	0.00
369.28	0.00
369.48	0.00
369.68	0.00
369.87	0.00
370.07	0.00
370.27	0.00
370.47	0.00
370.66	77.24
370.86	189.58
371.06	224.69
371.25	180.22
371.45	231.71
371.65	135.75
371.84	131.07
372.04	170.86
372.24	222.35
372.44	262.14
372.63	140.43
372.83	212.99
373.03	81.92
373.22	98.30
373.42	102.98
373.62	77.24
373.81	262.14
374.01	182.56
374.21	203.63
374.40	212.99
374.60	177.88
374.79	180.22
374.99	177.88
375.19	315.97
375.38	322.99
375.58	271.50
375.78	273.84
375.97	266.82
376.17	308.95
376.37	292.57
376.56	325.33
376.76	339.38
376.95	322.99
377.15	437.68
377.35	493.85
377.54	451.72
377.74	496.19
377.93	526.62
378.13	461.09
378.33	355.76
378.52	411.93
378.72	381.51
378.91	262.14
379.11	355.76
379.31	276.18
379.50	287.89
379.70	299.59
379.89	414.27
380.09	442.36
380.28	428.32
380.48	557.05
380.68	449.38
380.87	390.87
381.07	440.02
381.26	369.80
381.46	334.70
381.65	308.95
381.85	266.82
382.04	243.42
382.24	222.35
382.43	198.95
382.63	166.18
382.83	154.48
383.02	156.82
383.22	170.86
383.41	257.46
383.61	147.45
383.80	308.95
384.00	365.12
384.19	393.21
384.39	458.74
384.58	458.74
384.78	444.70
384.97	334.70
385.17	337.04
385.36	423.64
385.56	400.23
385.75	337.04
385.95	397.89
386.14	498.53
386.34	425.98
386.53	388.53
386.72	381.51
386.92	465.77
387.11	374.49
387.31	465.77
387.50	486.83
387.70	440.02
387.89	358.10
388.09	344.06
388.28	440.02
388.48	374.49
388.67	498.53
388.86	627.26
389.06	587.47
389.25	655.35
389.45	653.01
389.64	564.07
389.84	599.18
390.03	620.24
390.22	606.20
390.42	706.84
390.61	711.52
390.81	777.06
391.00	800.46
391.19	751.31
391.39	784.08
391.58	674.07
391.78	594.50
391.97	634.29
392.16	535.98
392.36	437.68
392.55	259.80
392.75	156.82
392.94	128.73
393.13	88.94
393.33	217.67
393.52	292.57
393.71	454.06
393.91	514.92
394.10	550.03
394.29	655.35
394.49	774.72
394.68	938.55
394.88	830.89
395.07	891.74
395.26	844.93
395.46	837.91
395.65	744.29
395.84	634.29
396.04	477.47
396.23	332.36
396.42	227.03
396.62	259.80
396.81	313.63
397.00	486.83
397.19	622.58
397.39	828.55
397.58	905.79
397.77	978.34
397.97	1081.33
398.16	1090.69
398.35	1146.86
398.55	1228.78
398.74	1179.63
398.93	1299.00
399.12	1090.69
399.32	1151.54
399.51	1214.74
399.70	1277.93
399.90	1282.61
400.09	1247.51
400.28	1263.89
400.47	1205.38
400.67	1352.83
400.86	1420.71
401.05	1324.74
401.24	1486.24
401.44	1399.64
401.63	1495.60
401.82	1441.77
402.01	1399.64
402.21	1406.66
402.40	1404.32
402.59	1432.41
402.78	1348.15
402.97	1270.91
403.17	1357.51
403.36	1409.00
403.55	1441.77
403.74	1469.86
403.93	1490.92
404.13	1291.98
404.32	1172.61
404.51	1376.24
404.70	1549.43
404.89	1378.58
405.09	1497.94
405.28	1413.68
405.47	1401.98
405.66	1378.58
405.85	1399.64
406.05	1240.48
406.24	1219.42
406.43	1369.21
406.62	1432.41
406.81	1432.41
407.00	1397.30
407.20	1343.47
407.39	1380.92
407.58	1411.34
407.77	1483.90
407.96	1523.69
408.15	1544.75
408.34	1542.41
408.54	1710.93
408.73	1621.99
408.92	1533.05
409.11	1577.52
409.30	1504.96
409.49	1409.00
409.68	1301.34
409.87	1081.33
410.07	1331.76
410.26	1413.68
410.45	1497.94
410.64	1633.69
410.83	1526.03
411.02	1717.95
411.21	1720.29
411.40	1792.85
411.59	1760.08
411.78	1682.85
411.98	1680.50
412.17	1748.38
412.36	1654.76
412.55	1687.53
412.74	1666.46
412.93	1530.71
413.12	1661.78
413.31	1832.64
413.50	1781.15
413.69	1832.64
413.88	1748.38
414.07	1717.95
414.26	1809.23
414.45	1764.76
414.64	1849.02
414.83	1921.58
415.02	1755.40
415.22	1764.76
415.41	1839.66
415.60	2010.52
415.79	1919.24
415.98	1984.77
416.17	2031.58
416.36	1916.90
416.55	1968.39
416.74	1802.21
416.93	1874.77
417.12	1851.36
417.31	1937.96
417.50	1895.83
417.69	1849.02
417.88	1863.07
418.07	1851.36
418.26	2001.16
418.45	1846.68
418.64	1952.01
418.83	2045.63
419.02	2012.86
419.21	1933.28
419.39	1886.47
419.58	1820.94
419.77	1755.40
419.96	1741.36
420.15	2054.99
420.34	2024.56
420.53	2289.04
420.72	2146.27
420.91	2225.85
421.10	2083.08
421.29	2052.65
421.48	1998.82
421.67	2050.31
421.86	2064.35
422.05	1921.58
422.24	1654.76
422.43	1678.16
422.61	1834.98
422.80	2012.86
422.99	2092.44
423.18	1865.41
423.37	1909.88
423.56	1973.07
423.75	1942.64
423.94	2010.52
424.13	1980.09
424.32	1947.33
424.50	1980.09
424.69	1816.26
424.88	1827.96
425.07	1741.36
425.26	1839.66
425.45	1872.43
425.64	1788.17
425.83	1919.24
426.01	1947.33
426.20	1952.01
426.39	1984.77
426.58	1785.83
426.77	1675.82
426.96	1633.69
427.15	1661.78
427.33	1713.27
427.52	1802.21
427.71	1863.07
427.90	1722.63
428.09	1839.66
428.28	1776.47
428.46	1715.61
428.65	1680.50
428.84	1774.13
429.03	1825.62
429.22	1781.15
429.40	1549.43
429.59	1383.26
429.78	1238.14
429.97	1284.95
430.16	1259.21
430.34	1219.42
430.53	1177.29
430.72	1226.44
430.91	1474.54
431.10	1682.85
431.28	2200.10
431.47	2232.87
431.66	2265.64
431.85	2045.63
432.03	1888.81
432.22	1849.02
432.41	1837.32
432.60	2129.89
432.79	2150.95
432.97	2242.23
433.16	2108.82
433.35	2026.90
433.54	1685.19
433.72	1619.65
433.91	1563.48
434.10	1753.06
434.28	2076.06
434.47	2139.25
434.66	2069.03
434.85	2059.67
435.03	1975.41
435.22	2022.22
435.41	2218.83
435.59	2246.91
435.78	2223.51
435.97	2263.30
436.16	2380.32
436.34	2385.01
436.53	2172.02
436.72	2221.17
436.90	2090.10
437.09	2085.42
437.28	2015.20
437.46	2132.23
437.65	1998.82
437.84	1952.01
438.02	1732.00
438.21	1722.63
438.40	1966.05
438.58	2001.16
438.77	2073.71
438.96	2157.97
439.14	2239.89
439.33	2307.77
439.52	2387.35
439.70	2319.47
439.89	2186.06
440.08	2132.23
440.26	2087.76
440.45	2146.27
440.63	2359.26
440.82	2553.52
441.01	2448.20
441.19	2457.56
441.38	2464.58
441.57	2637.78
441.75	2733.75
441.94	2715.02
442.12	2668.21
442.31	2743.11
442.50	2609.70
442.68	2705.66
442.87	2651.83
443.05	2626.08
443.24	2590.97
443.43	2703.32
443.61	2696.30
443.80	2740.77
443.98	2511.39
444.17	2445.86
444.35	2705.66
444.54	2771.19
444.73	2820.35
444.91	2597.99
445.10	2534.80
445.28	2333.51
445.47	2410.75
445.65	2380.32
445.84	2401.39
446.02	2469.27
446.21	2553.52
446.39	2602.68
446.58	2541.82
446.77	2738.43
446.95	2541.82
447.14	2731.41
447.32	2860.13
447.51	2612.04
447.69	2644.81
447.88	2703.32
448.06	2558.21
448.25	2717.36
448.43	2745.45
448.62	2597.99
448.80	2665.87
448.99	2722.04
449.17	2640.12
449.36	2693.96
449.54	2916.31
449.73	2761.83
449.91	2815.66
450.10	2967.80
450.28	2855.45
450.46	2953.76
450.65	2956.10
450.83	2892.90
451.02	2780.56
451.20	2822.69
451.39	2818.00
451.57	2792.26
451.76	2869.50
451.94	2768.85
452.13	2778.22
452.31	2750.13
452.49	2605.02
452.68	2497.35
452.86	2401.39
453.05	2438.84
453.23	2715.02
453.42	2600.34
453.60	2750.13
453.78	2815.66
453.97	2642.46
454.15	2656.51
454.34	2651.83
454.52	2698.64
454.70	2626.08
454.89	2663.53
455.07	2691.62
455.26	2822.69
455.44	2724.38
455.62	2818.00
455.81	2782.90
455.99	2932.69
456.17	2897.58
456.36	2715.02
456.54	2913.97
456.73	2970.14
456.91	2986.52
457.09	3026.31
457.28	3133.98
457.46	2932.69
457.64	2841.41
457.83	2729.06
458.01	2778.22
458.19	2820.35
458.38	2855.45
458.56	3005.25
458.74	3061.42
458.93	2834.39
459.11	2757.15
459.29	2820.35
459.48	2808.64
459.66	2731.41
459.84	2970.14
460.03	2977.16
460.21	2920.99
460.39	2939.71
460.57	2986.52
460.76	3035.67
460.94	3091.85
461.12	2890.56
461.31	3094.19
461.49	2810.98
461.67	2953.76
461.85	3150.36
462.04	3091.85
462.22	3169.09
462.40	3084.83
462.59	3019.29
462.77	3068.44
462.95	3002.91
463.13	3080.14
463.32	2890.56
463.50	3028.65
463.68	2935.03
463.86	2974.82
464.05	2810.98
464.23	2789.92
464.41	2878.86
464.59	2712.68
464.78	2874.18
464.96	2920.99
465.14	2906.95
465.32	2930.35
465.50	3105.89
465.69	3075.46
465.87	3082.49
466.05	2869.50
466.23	2885.88
466.41	2663.53
466.60	2876.52
466.78	2813.32
466.96	2768.85
467.14	2902.26
467.32	2895.24
467.51	2874.18
467.69	2836.73
467.87	2864.82
468.05	2878.86
468.23	2885.88
468.41	2881.20
468.60	2946.73
468.78	2956.10
468.96	2920.99
469.14	2991.20
469.32	3089.51
469.50	2869.50
469.69	2712.68
469.87	2860.13
470.05	2874.18
470.23	2827.37
470.41	2792.26
470.59	2843.75
470.77	2778.22
470.95	2979.50
471.14	2977.16
471.32	2902.26
471.50	3061.42
471.68	3201.85
471.86	3077.80
472.04	3243.98
472.22	3283.77
472.40	2972.48
472.58	2909.29
472.77	2892.90
472.95	3045.04
473.13	3066.10
473.31	3110.57
473.49	3108.23
473.67	2991.20
473.85	3075.46
474.03	3112.91
474.21	3211.22
474.39	3302.50
474.57	3267.39
474.75	3162.06
474.93	3314.20
475.12	3201.85
475.30	3126.96
475.48	3162.06
475.66	3187.81
475.84	3089.51
476.02	3199.51
476.20	3136.32
476.38	3220.58
476.56	3211.22
476.74	3279.09
476.92	3356.33
477.10	3353.99
477.28	3375.05
477.46	3536.55
477.64	3445.27
477.82	3496.76
478.00	3419.52
478.18	3531.87
478.36	3351.65
478.54	3382.07
478.72	3562.30
478.90	3391.44
479.08	3562.30
479.26	3737.84
479.44	3667.62
479.62	3658.26
479.80	3590.38
479.98	3599.74
480.16	3866.56
480.34	3627.83
480.52	3651.24
480.70	3801.03
480.88	3873.59
481.06	3794.01
481.24	3789.33
481.41	3981.25
481.59	3892.31
481.77	3948.48
481.95	3829.12
482.13	3843.16
482.31	3985.93
482.49	3967.21
482.67	3873.59
482.85	4074.87
483.03	3974.23
483.21	4046.79
483.39	4014.02
483.57	3985.93
483.74	4016.36
483.92	3946.14
484.10	3852.52
484.28	3927.42
484.46	4241.05
484.64	4212.96
484.82	4074.87
485.00	4184.88
485.18	3983.59
485.35	3712.09
485.53	3358.67
485.71	3192.49
485.89	3185.47
486.07	3267.39
486.25	3660.60
486.43	3782.31
486.61	3854.86
486.78	3878.27
486.96	3857.20
487.14	4060.83
487.32	4084.23
487.50	4337.01
487.68	4624.90
487.85	4353.40
488.03	4451.70
488.21	4409.57
488.39	4383.82
488.57	4372.12
488.75	4135.73
488.92	4372.12
489.10	4444.68
489.28	4765.33
489.46	4926.83
489.64	4819.16
489.81	4737.24
489.99	4739.58
490.17	4931.51
490.35	4870.65
490.53	4929.17
490.70	4657.67
490.88	4805.12
491.06	4933.85
491.24	4880.02
491.41	4655.33
491.59	4402.55
491.77	4348.72
491.95	4475.10
492.13	4645.96
492.30	4945.55
492.48	5013.43
492.66	5013.43
492.84	4947.89
493.01	5032.15
493.19	5008.75
493.37	4891.72
493.54	4919.81
493.72	5046.20
493.90	5001.72
494.08	5380.89
494.25	5394.93
494.43	5586.86
494.61	5500.26
494.79	5437.06
494.96	5614.95
495.14	5331.74
495.32	5226.42
495.49	4973.64
495.67	5303.65
495.85	5500.26
496.02	5526.00
496.20	5455.79
496.38	5423.02
496.55	5277.91
496.73	5528.35
496.91	5607.92
497.09	5689.84
497.26	5586.86
497.44	5607.92
497.62	5579.84
497.79	5158.54
497.97	5071.94
498.14	5158.54
498.32	5245.14
498.50	5518.98
498.67	5750.70
498.85	5577.50
499.03	5617.29
499.20	5750.70
499.38	5612.60
499.56	5509.62
499.73	5439.40
499.91	5504.94
500.08	5376.21
500.26	5256.84
500.44	5233.44
500.61	5528.35
500.79	5210.03
500.97	5313.02
501.14	5338.76
501.32	5406.64
501.49	5078.96
501.67	5231.10
501.84	5458.13
502.02	5488.56
502.20	5364.51
502.37	5699.20
502.55	5448.77
502.72	5778.78
502.90	5720.27
503.07	5636.01
503.25	5507.28
503.43	5420.68
503.60	5198.33
503.78	5179.61
503.95	5277.91
504.13	5547.07
504.30	5708.57
504.48	5647.71
504.65	5448.77
504.83	5453.45
505.01	5774.10
505.18	5865.38
505.36	5832.62
505.53	6085.39
505.71	6019.86
505.88	6015.18
506.06	5703.89
506.23	5767.08
506.41	5685.16
506.58	5769.42
506.76	5673.46
506.93	5776.44
507.11	5731.97
507.28	5743.67
507.46	5530.69
507.63	5572.82
507.81	5547.07
507.98	5551.75
508.16	5472.17
508.33	5710.91
508.50	5888.79
508.68	5968.37
508.85	5916.87
509.03	5867.72
509.20	6235.19
509.38	5900.49
509.55	5619.63
509.73	5556.43
509.90	5767.08
510.08	5724.95
510.25	5647.71
510.42	5849.00
510.60	5764.74
510.77	5628.99
510.95	5914.53
511.12	5921.56
511.30	5956.66
511.47	6120.50
511.64	6106.46
511.82	6120.50
511.99	5696.86
512.17	5696.86
512.34	5708.57
512.51	5617.29
512.69	5724.95
512.86	5696.86
513.04	5741.33
513.21	5767.08
513.38	5631.33
513.56	5603.24
513.73	5355.15
513.90	5586.86
514.08	5556.43
514.25	5596.22
514.43	5762.40
514.60	5767.08
514.77	5818.57
514.95	5675.80
515.12	5853.68
515.29	5626.65
515.47	5804.53
515.64	5795.17
515.81	5893.47
515.99	5600.90
516.16	5366.85
516.33	4926.83
516.51	4734.90
516.68	4676.39
516.85	4400.21
517.03	4517.23
517.20	4919.81
517.37	5500.26
517.54	5666.44
517.72	5624.31
517.89	4994.70
518.06	4692.77
518.24	4704.48
518.41	5181.95
518.58	5474.51
518.75	5460.47
518.93	5390.25
519.10	5406.64
519.27	5483.88
519.45	5593.88
519.62	5797.51
519.79	5823.25
519.96	5809.21
520.14	5565.79
520.31	5437.06
520.48	5586.86
520.65	5561.11
520.83	5631.33
521.00	5748.36
521.17	5722.61
521.34	5795.17
521.52	5832.62
521.69	5874.74
521.86	5959.00
522.03	5919.21
522.20	5579.84
522.38	5348.12
522.55	5331.74
522.72	5490.90
522.89	5540.05
523.07	5621.97
523.24	5818.57
523.41	5804.53
523.58	5956.66
523.75	6047.94
523.92	6106.46
524.10	5926.24
524.27	6017.52
524.44	5968.37
524.61	6001.13
524.78	5668.78
524.96	5734.31
525.13	5823.25
525.30	5865.38
525.47	6057.31
525.64	5893.47
525.81	5743.67
525.98	5509.62
526.16	5273.23
526.33	5064.92
526.50	4915.12
526.67	4910.44
526.84	4922.15
527.01	5282.59
527.18	5420.68
527.36	5610.26
527.53	5947.30
527.70	5830.27
527.87	5678.14
528.04	5509.62
528.21	5537.71
528.38	5804.53
528.55	5989.43
528.72	6232.85
528.89	6111.14
529.07	5959.00
529.24	5785.80
529.41	5640.69
529.58	5430.04
529.75	5638.35
529.92	5696.86
530.09	5753.04
530.26	5755.38
530.43	5923.90
530.60	5951.98
530.77	6054.97
530.94	6300.72
531.11	5820.91
531.28	5776.44
531.46	5947.30
531.63	5769.42
531.80	5923.90
531.97	5696.86
532.14	5516.64
532.31	5404.30
532.48	5135.14
532.65	5214.71
532.82	5430.04
532.99	5722.61
533.16	5661.76
533.33	5851.34
533.50	5816.23
533.67	5607.92
533.84	5575.16
534.01	5467.49
534.18	5701.54
534.35	5563.45
534.52	5614.95
534.69	5518.98
534.86	5816.23
535.03	5926.24
535.20	5912.19
535.37	5961.34
535.54	5970.71
535.71	6015.18
535.88	5788.14
536.05	5673.46
536.22	5596.22
536.38	5549.41
536.55	5551.75
536.72	5334.08
536.89	5303.65
537.06	5432.38
537.23	5666.44
537.40	5764.74
537.57	5657.07
537.74	5568.13
537.91	5643.03
538.08	5479.19
538.25	5614.95
538.42	5486.22
538.59	5734.31
538.75	5474.51
538.92	5324.72
539.09	5467.49
539.26	5387.91
539.43	5310.68
539.60	5420.68
539.77	5324.72
539.94	5430.04
540.11	5268.55
540.28	5001.72
540.44	5130.45
540.61	5280.25
540.78	5298.97
540.95	5163.22
541.12	5364.51
541.29	5437.06
541.46	5507.28
541.62	5481.53
541.79	5336.42
541.96	5165.56
542.13	5359.83
542.30	5493.24
542.47	5460.47
542.63	5397.28
542.80	5425.36
542.97	5448.77
543.14	5514.30
543.31	5324.72
543.48	5383.23
543.64	5783.46
543.81	5600.90
543.98	5586.86
544.15	5575.16
544.32	5362.17
544.48	5359.83
544.65	5432.38
544.82	5483.88
544.99	5380.89
545.16	5399.62
545.32	5320.04
545.49	5544.73
545.66	5526.00
545.83	5418.34
546.00	5516.64
546.16	5394.93
546.33	5294.29
546.50	5387.91
546.67	5399.62
546.83	5404.30
547.00	5458.13
547.17	5235.78
547.34	5217.05
547.50	5205.35
547.67	5338.76
547.84	5338.76
548.00	5261.52
548.17	5350.46
548.34	5165.56
548.51	5277.91
548.67	5247.48
548.84	5390.25
549.01	5310.68
549.18	5280.25
549.34	5397.28
549.51	5263.86
549.68	5324.72
549.84	5121.09
550.01	5170.24
550.18	5071.94
550.34	5261.52
550.51	5179.61
550.68	5331.74
550.84	4954.91
551.01	5273.23
551.18	5158.54
551.34	5226.42
551.51	5219.39
551.68	5121.09
551.84	5350.46
552.01	5322.38
552.18	5203.01
552.34	4936.19
552.51	5111.73
552.68	4973.64
552.84	5203.01
553.01	5235.78
553.18	5097.69
553.34	5034.49
553.51	5081.30
553.67	5235.78
553.84	5275.57
554.01	5294.29
554.17	5268.55
554.34	5149.18
554.51	5350.46
554.67	5109.39
554.84	5291.95
555.00	5214.71
555.17	5142.16
555.33	5006.41
555.50	5163.22
555.67	5195.99
555.83	5053.22
556.00	4990.02
556.16	4894.06
556.33	4910.44
556.50	5018.11
556.66	5001.72
556.83	5043.85
556.99	5011.09
557.16	5041.51
557.32	5029.81
557.49	5022.79
557.65	4968.96
557.82	4983.00
557.98	4919.81
558.15	4833.21
558.32	4863.63
558.48	4407.23
558.65	4587.45
558.81	4699.80
558.98	4765.33
559.14	4706.82
559.31	4753.63
559.47	4833.21
559.64	4809.80
559.80	4828.53
559.97	4699.80
560.13	4758.31
560.30	5008.75
560.46	5123.43
560.63	5093.01
560.79	5034.49
560.96	4812.14
561.12	4730.22
561.29	4638.94
561.45	4655.33
561.61	4671.71
561.78	4912.78
561.94	4777.03
562.11	4805.12
562.27	4741.93
562.44	4826.18
562.60	4685.75
562.77	4725.54
562.93	4828.53
563.10	4720.86
563.26	4746.61
563.42	4697.46
563.59	4695.11
563.75	4751.29
563.92	4683.41
564.08	4667.03
564.24	4730.22
564.41	4482.13
564.57	4711.50
564.74	4823.84
564.90	4690.43
565.07	4667.03
565.23	4601.49
565.39	4447.02
565.56	4360.42
565.72	4421.27
565.88	4517.23
566.05	4435.32
566.21	4526.60
566.38	4615.54
566.54	4468.08
566.70	4615.54
566.87	4772.35
567.03	4739.58
567.19	4784.06
567.36	4681.07
567.52	4505.53
567.68	4652.98
567.85	4437.66
568.01	4468.08
568.17	4337.01
568.34	4362.76
568.50	4397.87
568.66	4411.91
568.83	4550.00
568.99	4386.16
569.15	4470.42
569.32	4465.74
569.48	4386.16
569.64	4435.32
569.81	4344.03
569.97	4477.44
570.13	4280.84
570.30	4332.33
570.46	4231.69
570.62	4194.24
570.78	4212.96
570.95	4187.22
571.11	4308.93
571.27	4325.31
571.43	4367.44
571.60	4365.10
571.76	4395.53
571.92	4458.72
572.09	4423.61
572.25	4402.55
572.41	4449.36
572.57	4325.31
572.74	4339.35
572.90	4280.84
573.06	4397.87
573.22	4182.54
573.38	4245.73
573.55	4271.48
573.71	4250.41
573.87	4379.14
574.03	4290.20
574.20	4259.78
574.36	4248.07
574.52	4346.37
574.68	4210.62
574.84	4067.85
575.01	4196.58
575.17	4133.39
575.33	4182.54
575.49	4257.43
575.65	4234.03
575.82	4203.60
575.98	4095.94
576.14	4070.19
576.30	4297.22
576.46	4278.50
576.62	4257.43
576.79	4184.88
576.95	4016.36
577.11	4112.32
577.27	4243.39
577.43	4248.07
577.59	4070.19
577.75	3978.91
577.92	3974.23
578.08	3868.91
578.24	3918.06
578.40	4046.79
578.56	4063.17
578.72	4107.64
578.88	4105.30
579.04	3983.59
579.21	4063.17
579.37	4072.53
579.53	4119.34
579.69	4222.33
579.85	4100.62
580.01	4023.38
580.17	4084.23
580.33	4030.40
580.49	4004.66
580.65	3999.98
580.82	4124.02
580.98	3950.82
581.14	3992.95
581.30	4166.15
581.46	4109.98
581.62	4072.53
581.78	4063.17
581.94	4051.47
582.10	4004.66
582.26	4035.08
582.42	4016.36
582.58	4028.06
582.74	4320.63
582.90	4126.36
583.06	4138.07
583.22	4077.21
583.38	4018.70
583.54	4018.70
583.70	4114.66
583.86	3925.08
584.02	3948.48
584.18	4070.19
584.34	4332.33
584.50	4058.49
584.66	3941.46
584.82	3873.59
584.98	3985.93
585.14	3981.25
585.30	3904.01
585.46	3761.24
585.62	3672.30
585.78	3857.20
585.94	3894.65
586.10	3721.45
586.26	4039.76
586.42	3864.22
586.58	3836.14
586.74	3995.29
586.90	3864.22
587.06	3810.39
587.22	3904.01
587.38	3791.67
587.54	3871.25
587.70	3817.41
587.86	3639.53
588.02	3595.06
588.18	3810.39
588.34	3578.68
588.49	3361.01
588.65	3166.74
588.81	3054.40
588.97	3115.25
589.13	3220.58
589.29	3089.51
589.45	3206.53
589.61	3403.14
589.77	3515.48
589.93	3496.76
590.08	3672.30
590.24	3637.19
590.40	3578.68
590.56	3634.85
590.72	3684.00
590.88	3653.58
591.04	3454.63
591.20	3566.98
591.35	3478.04
591.51	3419.52
591.67	3463.99
591.83	3506.12
591.99	3590.38
592.15	3590.38
592.31	3639.53
592.46	3541.23
592.62	3653.58
592.78	3562.30
592.94	3562.30
593.10	3499.10
593.26	3536.55
593.41	3644.21
593.57	3564.64
593.73	3499.10
593.89	3487.40
594.05	3471.01
594.20	3581.02
594.36	3379.73
594.52	3363.35
594.68	3349.31
594.84	3417.18
594.99	3480.38
595.15	3421.86
595.31	3520.17
595.47	3534.21
595.62	3440.59
595.78	3492.08
595.94	3606.77
596.10	3515.48
596.25	3548.25
596.41	3417.18
596.57	3517.83
596.73	3433.57
596.88	3417.18
597.04	3517.83
597.20	3407.82
597.36	3414.84
597.51	3342.28
597.67	3358.67
597.83	3400.80
597.99	3417.18
