SpectraSuite Data File
++++++++++++++++++++++++++++++++++++
Date: Mon Oct 07 14:53:26 GMT-05:00 2013
User: price-jones
Dark Spectrum Present: No
Reference Spectrum Present: No
Number of Sampled Component Spectra: 1
Spectrometers: USB2+H05261
Integration Time (usec): 100000 (USB2+H05261)
Spectra Averaged: 1 (USB2+H05261)
Boxcar Smoothing: 0 (USB2+H05261)
Correct for Electrical Dark: No (USB2+H05261)
Strobe/Lamp Enabled: No (USB2+H05261)
Correct for Detector Non-linearity: No (USB2+H05261)
Correct for Stray Light: No (USB2+H05261)
Number of Pixels in Processed Spectrum: 2048
>>>>>Begin Processed Spectral Data<<<<<
365.73	0.00
365.92	0.00
366.12	0.00
366.32	0.00
366.52	0.00
366.72	0.00
366.91	0.00
367.11	0.00
367.31	0.00
367.51	0.00
367.70	0.00
367.90	0.00
368.10	0.00
368.30	0.00
368.49	0.00
368.69	0.00
368.89	0.00
369.09	0.00
369.28	0.00
369.48	0.00
369.68	0.00
369.87	0.00
370.07	0.00
370.27	0.00
370.47	533.64
370.66	2574.59
370.86	3173.77
371.06	3473.36
371.25	3421.86
371.45	3119.93
371.65	2761.83
371.84	2780.56
372.04	2869.50
372.24	3103.55
372.44	3265.05
372.63	3227.60
372.83	3049.72
373.03	2658.85
373.22	2569.91
373.42	2490.33
373.62	2951.42
373.81	3314.20
374.01	3131.64
374.21	2764.17
374.40	2612.04
374.60	2892.90
374.79	3124.62
374.99	3623.15
375.19	3946.14
375.38	4014.02
375.58	3737.84
375.78	3672.30
375.97	3716.77
376.17	3719.11
376.37	3852.52
376.56	3960.19
376.76	4203.60
376.95	4348.72
377.15	4770.01
377.35	5144.50
377.54	5076.62
377.74	5097.69
377.93	5270.89
378.13	5078.96
378.33	4938.53
378.52	4587.45
378.72	4283.18
378.91	4238.71
379.11	4133.39
379.31	4124.02
379.50	3784.65
379.70	4133.39
379.89	4837.89
380.09	4966.62
380.28	5167.90
380.48	5153.86
380.68	5081.30
380.87	5043.85
381.07	4561.70
381.26	4156.79
381.46	3943.80
381.65	3971.89
381.85	3885.29
382.04	3723.79
382.24	3293.13
382.43	3155.04
382.63	3002.91
382.83	3145.68
383.02	3115.25
383.22	3096.53
383.41	3227.60
383.61	3328.24
383.80	3913.38
384.00	4325.31
384.19	4847.25
384.39	5118.75
384.58	5107.05
384.78	4957.25
384.97	4929.17
385.17	4861.29
385.36	4456.38
385.56	4105.30
385.75	4421.27
385.95	4873.00
386.14	5198.33
386.34	5313.02
386.53	5062.58
386.72	4781.71
386.92	4685.75
387.11	5104.71
387.31	5193.65
387.50	5310.68
387.70	5060.24
387.89	5067.26
388.09	5078.96
388.28	4926.83
388.48	5156.20
388.67	5355.15
388.86	5959.00
389.06	6523.07
389.25	6874.15
389.45	6885.86
389.64	6888.20
389.84	6686.91
390.03	6544.14
390.22	6977.14
390.42	6895.22
390.61	7419.50
390.81	7899.31
391.00	7906.33
391.19	7815.05
391.39	7550.57
391.58	7176.08
391.78	6853.09
391.97	6607.33
392.16	6092.41
392.36	5774.10
392.55	4517.23
392.75	3581.02
392.94	2953.76
393.13	2750.13
393.33	3295.47
393.52	4311.27
393.71	5341.10
393.91	6085.39
394.10	6452.86
394.29	7250.98
394.49	7747.17
394.68	8369.76
394.88	8369.76
395.07	8802.75
395.26	8477.42
395.46	8608.49
395.65	7878.24
395.84	6813.30
396.04	5806.87
396.23	4748.95
396.42	4039.76
396.62	3815.07
396.81	4432.97
397.00	5743.67
397.19	7204.17
397.39	8514.87
397.58	9488.53
397.77	10221.12
397.97	10478.58
398.16	10555.82
398.35	10787.53
398.55	11131.59
398.74	11651.19
398.93	11995.25
399.12	11442.88
399.32	11304.79
399.51	11604.38
399.70	12535.91
399.90	12233.98
400.09	12313.56
400.28	12292.49
400.47	12210.57
400.67	12936.14
400.86	13336.37
401.05	13123.38
401.24	13270.84
401.44	13341.05
401.63	13516.59
401.82	13549.36
402.01	13107.00
402.21	13664.05
402.40	13837.25
402.59	13383.18
402.78	12620.17
402.97	12294.83
403.17	12624.85
403.36	13745.97
403.55	13734.26
403.74	14370.89
403.93	13729.58
404.13	12716.13
404.32	12189.51
404.51	12884.65
404.70	14061.94
404.89	14045.55
405.09	13771.71
405.28	13387.86
405.47	13240.41
405.66	13413.61
405.85	13294.24
406.05	12643.57
406.24	12751.24
406.43	13385.52
406.62	13797.46
406.81	13954.27
407.00	13310.63
407.20	13301.26
407.39	13181.90
407.58	13839.59
407.77	14530.05
407.96	14633.03
408.15	15028.58
408.34	15129.22
408.54	15700.31
408.73	16072.46
408.92	15632.44
409.11	15300.08
409.30	14303.01
409.49	13432.33
409.68	12795.71
409.87	12362.71
410.07	12905.71
410.26	14008.11
410.45	15232.21
410.64	15548.18
410.83	15885.22
411.02	16189.49
411.21	16893.99
411.40	16727.81
411.59	16765.26
411.78	16519.50
411.98	16313.53
412.17	16973.56
412.36	16360.34
412.55	16570.99
412.74	16091.18
412.93	15885.22
413.12	15756.49
413.31	17181.87
413.50	17418.27
413.69	17909.78
413.88	16954.84
414.07	16634.19
414.26	16999.31
414.45	17586.79
414.64	17504.87
414.83	17502.53
415.02	17413.59
415.22	17261.45
415.41	17451.03
415.60	18143.83
415.79	18855.36
415.98	19370.27
416.17	19604.33
416.36	19037.92
416.55	18473.85
416.74	17855.95
416.93	17334.01
417.12	17600.83
417.31	17624.23
417.50	17767.01
417.69	18555.77
417.88	18263.20
418.07	18146.17
418.26	17891.06
418.45	18141.49
418.64	18956.00
418.83	19346.87
419.02	19108.13
419.21	18977.06
419.39	18118.09
419.58	17460.40
419.77	17216.98
419.96	18047.87
420.15	19047.28
420.34	19634.75
420.53	20163.72
420.72	20767.57
420.91	20610.76
421.10	20236.27
421.29	20250.32
421.48	19506.02
421.67	20482.03
421.86	19976.47
422.05	18412.99
422.24	16816.75
422.43	16496.10
422.61	18162.56
422.80	19791.57
422.99	19742.42
423.18	19051.96
423.37	18684.50
423.56	18651.73
423.75	18855.36
423.94	19398.36
424.13	18544.06
424.32	18618.96
424.50	18670.45
424.69	18174.26
424.88	18515.98
425.07	18438.74
425.26	18644.71
425.45	18099.36
425.64	17652.32
425.83	17715.51
426.01	19005.15
426.20	19290.70
426.39	19220.48
426.58	17851.27
426.77	16655.25
426.96	15901.60
427.15	16343.96
427.33	17930.84
427.52	18616.62
427.71	18359.16
427.90	18574.49
428.09	18223.41
428.28	18082.98
428.46	17135.06
428.65	17062.51
428.84	17310.60
429.03	17774.03
429.22	16683.34
429.40	15981.18
429.59	14553.45
429.78	12613.15
429.97	12713.79
430.16	12830.82
430.34	12833.16
430.53	12996.99
430.72	13062.53
430.91	14696.22
431.10	17034.42
431.28	20348.62
431.47	21837.20
431.66	22567.45
431.85	20383.73
432.03	18780.46
432.22	17717.86
432.41	18562.79
432.60	20521.82
432.79	21324.62
432.97	21827.84
433.16	21420.58
433.35	19499.00
433.54	17767.01
433.72	16477.37
433.91	17060.16
434.10	19119.84
434.28	20386.07
434.47	21083.55
434.66	21221.64
434.85	20486.71
435.03	20673.95
435.22	20931.41
435.41	22218.71
435.59	22490.21
435.78	22429.35
435.97	23213.43
436.16	23435.78
436.34	23108.11
436.53	22218.71
436.72	22874.06
436.90	21336.32
437.09	21254.40
437.28	20905.66
437.46	22022.10
437.65	21722.51
437.84	20243.29
438.02	18410.65
438.21	18611.94
438.40	19257.93
438.58	20812.04
438.77	21476.76
438.96	21752.94
439.14	22742.99
439.33	23199.39
439.52	23772.82
439.70	23208.75
439.89	22480.85
440.08	22190.62
440.26	22295.94
440.45	22712.56
440.63	24060.71
440.82	25331.62
441.01	25212.25
441.19	24463.28
441.38	25083.52
441.57	26321.66
441.75	26534.65
441.94	26654.02
442.12	26522.95
442.31	26724.24
442.50	26792.11
442.68	26504.23
442.87	26506.57
443.05	25818.45
443.24	26157.83
443.43	26883.39
443.61	27269.58
443.80	27651.09
443.98	25645.25
444.17	25855.90
444.35	27571.51
444.54	27929.61
444.73	27400.65
444.91	26382.52
445.10	25532.90
445.28	24079.43
445.47	23882.83
445.65	24346.25
445.84	25104.59
446.02	25579.71
446.21	26143.78
446.39	26532.31
446.58	26464.44
446.77	27358.52
446.95	27377.25
447.14	28180.05
447.32	28767.52
447.51	27552.79
447.69	26665.72
447.88	26635.30
448.06	26714.87
448.25	27494.27
448.43	27777.48
448.62	27098.72
448.80	26824.88
448.99	27225.11
449.17	27417.04
449.36	27484.91
449.54	28327.50
449.73	28933.70
449.91	29223.93
450.10	29844.17
450.28	30429.30
450.46	30478.46
450.65	30246.74
450.83	29474.37
451.02	29481.39
451.20	29244.99
451.39	29090.52
451.57	28706.67
451.76	28954.77
451.94	29291.80
452.13	28313.46
452.31	27234.47
452.49	25858.24
452.68	25965.90
452.86	25902.71
453.05	26558.06
453.23	27126.81
453.42	27733.01
453.60	28603.69
453.78	28816.68
453.97	28538.15
454.15	28631.77
454.34	28187.07
454.52	28346.23
454.70	27686.20
454.89	27660.45
455.07	27899.19
455.26	28549.85
455.44	29600.76
455.62	30101.63
455.81	29937.79
455.99	29937.79
456.17	29326.91
456.36	29312.87
456.54	30429.30
456.73	30206.95
456.91	30525.27
457.09	31091.68
457.28	31880.44
457.46	30567.40
457.64	30230.36
457.83	29062.43
458.01	28390.70
458.19	29390.11
458.38	29731.83
458.56	30478.46
458.74	30361.43
458.93	30153.12
459.11	29682.67
459.29	29488.41
459.48	29872.26
459.66	29385.43
459.84	30094.61
460.03	30300.58
460.21	29986.94
460.39	31393.61
460.57	30958.27
460.76	31304.67
460.94	31459.14
461.12	30918.48
461.31	30953.58
461.49	30888.05
461.67	30941.88
461.85	32446.85
462.04	31667.45
462.22	32657.49
462.40	31920.23
462.59	31747.03
462.77	31812.56
462.95	32004.49
463.13	31229.77
463.32	31700.22
463.50	30787.41
463.68	31061.25
463.86	31189.98
464.05	30775.70
464.23	30314.62
464.41	29797.36
464.59	29277.76
464.78	31012.10
464.96	30574.42
465.14	30370.79
465.32	31094.02
465.50	32173.00
465.69	32180.03
465.87	31587.87
466.05	30764.00
466.23	29530.54
466.41	28643.48
466.60	29593.73
466.78	29385.43
466.96	30101.63
467.14	31030.82
467.32	31278.92
467.51	31133.81
467.69	29949.50
467.87	30415.26
468.05	30801.45
468.23	30719.53
468.41	31049.55
468.60	31019.12
468.78	31208.70
468.96	30518.25
469.14	31534.04
469.32	31290.62
469.50	30237.38
469.69	30225.68
469.87	29699.06
470.05	29558.63
470.23	29895.66
470.41	29888.64
470.59	30555.69
470.77	30684.42
470.95	31419.35
471.14	31604.25
471.32	31618.30
471.50	33450.94
471.68	33483.70
471.86	33640.52
472.04	33869.89
472.22	33710.74
472.40	32472.59
472.58	32032.57
472.77	31510.63
472.95	32297.05
473.13	33062.41
473.31	32116.83
473.49	32301.73
473.67	33214.54
473.85	33336.25
474.03	33703.71
474.21	34445.66
474.39	34581.42
474.57	34668.02
474.75	34878.66
474.93	34333.32
475.12	33909.68
475.30	33696.69
475.48	34040.75
475.66	34733.55
475.84	33940.11
476.02	33460.30
476.20	33347.95
476.38	33860.53
476.56	34796.74
476.74	35285.92
476.92	35615.93
477.10	35749.34
477.28	36594.28
477.46	36753.43
477.64	37439.21
477.82	37521.13
478.00	37315.16
478.18	37141.96
478.36	36807.26
478.54	36781.52
478.72	37230.90
478.90	37930.72
479.08	39250.78
479.26	39393.56
479.44	39344.41
479.62	39325.68
479.80	39262.49
479.98	39435.69
480.16	39421.64
480.34	39313.98
480.52	39587.82
480.70	39931.88
480.88	39821.87
481.06	40964.06
481.24	40961.72
481.41	41848.78
481.59	42387.10
481.77	42206.88
481.95	41394.71
482.13	41390.03
482.31	41631.11
482.49	42082.83
482.67	41883.89
482.85	42136.66
483.03	42527.53
483.21	42801.38
483.39	43360.76
483.57	42354.33
483.74	42101.56
483.92	42274.76
484.10	42604.77
484.28	43854.62
484.46	43938.88
484.64	44130.80
484.82	43337.36
485.00	43103.31
485.18	42017.30
485.35	40526.38
485.53	38323.93
485.71	34574.39
485.89	34127.35
486.07	35618.27
486.25	38763.95
486.43	41521.10
486.61	42155.39
486.78	41265.99
486.96	42335.61
487.14	43613.54
487.32	44430.39
487.50	45837.05
487.68	46944.12
487.85	47079.88
488.03	47316.27
488.21	46972.21
488.39	45675.55
488.57	45254.26
488.75	45034.25
488.92	45923.65
489.10	48413.98
489.28	49764.47
489.46	50932.40
489.64	50539.19
489.81	51030.70
489.99	50160.02
490.17	50333.22
490.35	50712.39
490.53	50529.83
490.70	49780.85
490.88	49546.80
491.06	50707.71
491.24	50740.47
491.41	49464.88
491.59	47653.31
491.77	46953.49
491.95	48072.26
492.13	49237.85
492.30	50796.65
492.48	51952.87
492.66	52636.31
492.84	52430.34
493.01	52285.23
493.19	51304.54
493.37	51224.96
493.54	50836.44
493.72	51550.30
493.90	52711.20
494.08	53563.16
494.25	53806.58
494.43	54031.27
494.61	54387.03
494.79	54396.39
494.96	54185.74
495.14	53729.34
495.32	52552.05
495.49	51955.21
495.67	53064.63
495.85	54370.64
496.02	54855.14
496.20	54761.51
496.38	54164.68
496.55	53865.09
496.73	54784.92
496.91	54834.07
497.09	55243.66
497.26	55458.99
497.44	55072.81
497.62	54356.60
497.79	53448.47
497.97	52381.19
498.14	52549.71
498.32	53673.16
498.50	54562.57
498.67	55199.19
498.85	55196.85
499.03	55365.37
499.20	55569.00
499.38	55622.83
499.56	55503.46
499.73	54775.56
499.91	54468.95
500.08	53750.40
500.26	53214.42
500.44	53315.06
500.61	54405.75
500.79	54246.60
500.97	53542.10
501.14	53675.51
501.32	53488.26
501.49	53521.03
501.67	53801.89
501.84	54199.79
502.02	54504.06
502.20	54873.86
502.37	55161.75
502.55	55063.44
502.72	55791.35
502.90	56343.72
503.07	55824.12
503.25	55569.00
503.43	54724.07
503.60	53886.15
503.78	53022.50
503.95	53483.58
504.13	54962.80
504.30	56154.13
504.48	55735.18
504.65	55381.76
504.83	55498.78
505.01	56177.54
505.18	56437.34
505.36	57221.42
505.53	57118.43
505.71	57331.42
505.88	57275.25
506.06	56748.63
506.23	56193.92
506.41	55964.55
506.58	56067.53
506.76	56339.04
506.93	56317.97
507.11	55882.63
507.28	56303.93
507.46	55543.25
507.63	55068.12
507.81	54939.39
507.98	55299.84
508.16	55728.16
508.33	56715.86
508.50	56676.07
508.68	56928.85
508.85	57546.75
509.03	57504.62
509.20	57223.76
509.38	56760.33
509.55	55660.28
509.73	55868.59
509.90	56289.88
510.08	56537.98
510.25	56720.54
510.42	56573.09
510.60	56315.63
510.77	56697.14
510.95	57102.05
511.12	57315.04
511.30	57726.97
511.47	57862.72
511.64	57743.36
511.82	57570.16
511.99	56765.01
512.17	56144.77
512.34	55943.48
512.51	56189.24
512.69	56254.78
512.86	56299.25
513.04	56790.76
513.21	56725.22
513.38	56694.80
513.56	55927.10
513.73	55224.94
513.90	55522.19
514.08	55540.91
514.25	56027.74
514.43	56069.87
514.60	56310.95
514.77	56420.95
514.95	56243.07
515.12	56294.56
515.29	56610.54
515.47	56907.79
515.64	57214.40
515.81	56992.04
515.99	56470.11
516.16	54885.56
516.33	52329.70
516.51	50670.26
516.68	49712.98
516.85	49322.11
517.03	49666.17
517.20	53006.11
517.37	55660.28
517.54	56652.67
517.72	56076.90
517.89	53066.97
518.06	50855.16
518.24	51063.47
518.41	53509.33
518.58	54899.61
518.75	55346.65
518.93	55391.12
519.10	55358.35
519.27	55648.58
519.45	56341.38
519.62	56680.75
519.79	56970.98
519.96	56678.41
520.14	56226.69
520.31	55440.27
520.48	55461.33
520.65	55791.35
520.83	56896.08
521.00	57198.01
521.17	56872.68
521.34	56254.78
521.52	56566.07
521.69	57179.29
521.86	57860.38
522.03	57272.91
522.20	56371.80
522.38	55138.34
522.55	55018.97
522.72	55924.76
522.89	56011.36
523.07	56229.03
523.24	56430.32
523.41	57375.89
523.58	57694.21
523.75	57942.30
523.92	57719.95
524.10	57907.19
524.27	58028.90
524.44	57661.44
524.61	57441.43
524.78	57301.00
524.96	57200.35
525.13	57558.45
525.30	57429.72
525.47	57916.56
525.64	57900.17
525.81	57247.16
525.98	55723.47
526.16	54068.72
526.33	53593.59
526.50	53055.26
526.67	52816.53
526.84	53453.15
527.01	54529.80
527.18	55271.75
527.36	56252.44
527.53	57254.18
527.70	57216.74
527.87	56952.26
528.04	56406.91
528.21	56839.91
528.38	57586.54
528.55	57949.32
528.72	58354.24
528.89	58457.22
529.07	58106.14
529.24	57406.32
529.41	56905.44
529.58	56158.81
529.75	56254.78
529.92	56903.10
530.09	57443.77
530.26	58087.42
530.43	58174.02
530.60	58080.39
530.77	58440.84
530.94	58513.39
531.11	57963.37
531.28	57572.50
531.46	57516.32
531.63	57460.15
531.80	57345.47
531.97	57090.35
532.14	56182.22
532.31	55372.39
532.48	54611.72
532.65	54649.17
532.82	55320.90
532.99	56516.92
533.16	56924.17
533.33	57399.30
533.50	57347.81
533.67	56722.88
533.84	56500.53
534.01	56474.79
534.18	56849.27
534.35	56949.92
534.52	56638.62
534.69	56947.57
534.86	57289.29
535.03	57546.75
535.20	57932.94
535.37	58234.87
535.54	58440.84
535.71	57815.91
535.88	57808.89
536.05	56956.94
536.22	56741.61
536.38	56460.74
536.55	55824.12
536.72	55358.35
536.89	55332.60
537.06	56200.94
537.23	57027.15
537.40	57200.35
537.57	57277.59
537.74	56985.02
537.91	56903.10
538.08	57188.65
538.25	57071.62
538.42	57216.74
538.59	56917.15
538.75	56151.79
538.92	56130.73
539.09	55889.65
539.26	55636.87
539.43	55533.89
539.60	55737.52
539.77	55716.45
539.94	55833.48
540.11	54567.25
540.28	54195.10
540.44	54714.70
540.61	54827.05
540.78	54850.45
540.95	55512.83
541.12	55796.03
541.29	56093.28
541.46	56521.60
541.62	56168.18
541.79	56245.41
541.96	55943.48
542.13	55732.84
542.30	55964.55
542.47	56156.47
542.63	55997.32
542.80	55688.37
542.97	56058.17
543.14	55580.70
543.31	55723.47
543.48	56296.91
543.64	57153.54
543.81	57312.70
543.98	57059.92
544.15	56446.70
544.32	55931.78
544.48	56095.62
544.65	56498.19
544.82	56863.32
544.99	56442.02
545.16	56076.90
545.32	55765.60
545.49	56711.18
545.66	56879.70
545.83	56683.09
546.00	56224.35
546.16	55831.14
546.33	55896.67
546.50	55999.66
546.67	56521.60
546.83	55760.92
547.00	56039.45
547.17	55466.02
547.34	54773.22
547.50	54487.67
547.67	55246.00
547.84	55166.43
548.00	55510.49
548.17	56137.75
548.34	56151.79
548.51	56032.42
548.67	56062.85
548.84	56044.13
549.01	56002.00
549.18	56013.70
549.34	55789.01
549.51	55679.00
549.68	55796.03
549.84	55597.09
550.01	55489.42
550.18	55180.47
550.34	55365.37
550.51	55367.71
550.68	55681.34
550.84	55000.25
551.01	55182.81
551.18	55065.78
551.34	55302.18
551.51	55817.10
551.68	55819.44
551.84	56212.65
552.01	55880.29
552.18	55606.45
552.34	54894.92
552.51	54258.30
552.68	54309.79
552.84	55030.68
553.01	55264.73
553.18	54777.90
553.34	55295.16
553.51	55290.48
553.67	55487.08
553.84	55503.46
554.01	55370.05
554.17	55353.67
554.34	55487.08
554.51	55543.25
554.67	55966.89
554.84	55578.36
555.00	55290.48
555.17	55002.59
555.33	54976.84
555.50	55018.97
555.67	55075.15
555.83	54981.52
556.00	54560.23
556.16	54836.41
556.33	54190.42
556.50	54092.12
556.66	54103.82
556.83	53719.98
556.99	53785.51
557.16	54131.91
557.32	54464.27
557.49	54454.90
557.65	54307.45
557.82	54555.55
557.98	54028.93
558.15	53792.53
558.32	52727.59
558.48	51903.72
558.65	52390.55
558.81	52715.89
558.98	52973.34
559.14	53165.27
559.31	53202.72
559.47	53387.62
559.64	53228.46
559.80	52633.97
559.97	52575.45
560.13	53244.85
560.30	54202.13
560.46	54721.72
560.63	54983.86
560.79	54780.24
560.96	54557.89
561.12	53301.02
561.29	52023.09
561.45	52310.97
561.61	52856.32
561.78	53375.92
561.94	53347.83
562.11	53298.68
562.27	52949.94
562.44	53324.43
562.60	53708.27
562.77	53851.05
562.93	53939.99
563.10	53895.52
563.26	53099.73
563.42	53244.85
563.59	52963.98
563.75	52926.53
563.92	52933.56
564.08	52907.81
564.24	53420.39
564.41	53453.15
564.57	53352.51
564.74	53024.84
564.90	53017.82
565.07	52940.58
565.23	52210.33
565.39	51810.10
565.56	51559.66
565.72	51152.41
565.88	51849.89
566.05	51491.79
566.21	52083.94
566.38	52133.09
566.54	52545.03
566.70	52671.42
566.87	53031.86
567.03	53153.57
567.19	53188.67
567.36	52666.73
567.52	52753.33
567.68	52486.51
567.85	51948.19
568.01	51138.36
568.17	50726.43
568.34	50960.48
568.50	50997.93
568.66	51061.13
568.83	51599.45
568.99	51470.72
569.15	51995.00
569.32	51854.57
569.48	51547.96
569.64	51089.21
569.81	50710.05
569.97	50586.00
570.13	50665.58
570.30	50000.86
570.46	49675.53
570.62	49066.99
570.78	49104.44
570.95	49516.37
571.11	50150.66
571.27	50567.27
571.43	50611.74
571.60	51011.98
571.76	50782.60
571.92	51435.61
572.09	51253.05
572.25	51419.23
572.41	51356.03
572.57	51089.21
572.74	51409.87
572.90	51096.24
573.06	50897.29
573.22	51000.27
573.38	50745.15
573.55	51117.30
573.71	51161.77
573.87	51138.36
574.03	50490.04
574.20	50461.95
574.36	50045.33
574.52	50326.20
574.68	49741.06
574.84	49677.87
575.01	49214.44
575.17	48507.60
575.33	49123.16
575.49	49389.98
575.65	49621.70
575.82	49450.84
575.98	48905.49
576.14	49521.05
576.30	49909.58
576.46	50012.57
576.62	49897.88
576.79	49972.78
576.95	49511.69
577.11	49289.34
577.27	49380.62
577.43	49940.01
577.59	49066.99
577.75	49076.35
577.92	47620.54
578.08	48004.39
578.24	47870.98
578.40	48175.25
578.56	48601.22
578.72	48346.11
578.88	48903.15
579.04	48650.38
579.21	49043.59
579.37	48809.53
579.53	48961.67
579.69	48882.09
579.85	49272.96
580.01	48896.13
580.17	48442.07
580.33	48287.59
580.49	48516.96
580.65	49010.82
580.82	49022.52
580.98	49008.48
581.14	49130.19
581.30	49048.27
581.46	48854.00
581.62	49062.31
581.78	48835.28
581.94	49289.34
582.10	49289.34
582.26	49551.48
582.42	49312.75
582.58	49172.31
582.74	48942.94
582.90	49261.26
583.06	49102.10
583.22	48891.45
583.38	48999.12
583.54	48598.88
583.70	48706.55
583.86	48952.30
584.02	48596.54
584.18	48968.69
584.34	48313.34
584.50	48285.25
584.66	48142.48
584.82	48041.84
584.98	47681.39
585.14	47604.16
585.30	46586.02
