SpectraSuite Data File
++++++++++++++++++++++++++++++++++++
Date: Mon Oct 07 14:54:56 GMT-05:00 2013
User: price-jones
Dark Spectrum Present: No
Reference Spectrum Present: No
Number of Sampled Component Spectra: 1
Spectrometers: USB2+H05261
Integration Time (usec): 10000 (USB2+H05261)
Spectra Averaged: 1 (USB2+H05261)
Boxcar Smoothing: 0 (USB2+H05261)
Correct for Electrical Dark: No (USB2+H05261)
Strobe/Lamp Enabled: No (USB2+H05261)
Correct for Detector Non-linearity: No (USB2+H05261)
Correct for Stray Light: No (USB2+H05261)
Number of Pixels in Processed Spectrum: 2048
>>>>>Begin Processed Spectral Data<<<<<
365.73	0.00
365.92	0.00
366.12	0.00
366.32	0.00
366.52	0.00
366.72	0.00
366.91	0.00
367.11	0.00
367.31	0.00
367.51	0.00
367.70	0.00
367.90	0.00
368.10	0.00
368.30	0.00
368.49	0.00
368.69	0.00
368.89	0.00
369.09	0.00
369.28	0.00
369.48	0.00
369.68	0.00
369.87	0.00
370.07	0.00
370.27	0.00
370.47	0.00
370.66	210.65
370.86	318.31
371.06	407.25
371.25	411.93
371.45	381.51
371.65	358.10
371.84	306.61
372.04	423.64
372.24	397.89
372.44	505.56
372.63	407.25
372.83	376.83
373.03	287.89
373.22	168.52
373.42	351.08
373.62	472.79
373.81	461.09
374.01	351.08
374.21	367.46
374.40	381.51
374.60	358.10
374.79	451.72
374.99	533.64
375.19	561.73
375.38	585.13
375.58	519.60
375.78	526.62
375.97	507.90
376.17	575.77
376.37	463.43
376.56	540.66
376.76	615.56
376.95	641.31
377.15	690.46
377.35	709.18
377.54	734.93
377.74	854.30
377.93	896.43
378.13	840.25
378.33	791.10
378.52	678.76
378.72	573.43
378.91	498.53
379.11	587.47
379.31	564.07
379.50	589.82
379.70	725.57
379.89	634.29
380.09	692.80
380.28	723.23
380.48	795.78
380.68	753.65
380.87	695.14
381.07	608.54
381.26	580.45
381.46	578.11
381.65	465.77
381.85	491.51
382.04	447.04
382.24	351.08
382.43	367.46
382.63	353.42
382.83	344.06
383.02	301.93
383.22	346.40
383.41	353.42
383.61	397.89
383.80	524.28
384.00	514.92
384.19	636.63
384.39	767.70
384.58	760.67
384.78	688.12
384.97	578.11
385.17	678.76
385.36	573.43
385.56	498.53
385.75	589.82
385.95	594.50
386.14	678.76
386.34	716.20
386.53	718.54
386.72	662.37
386.92	643.65
387.11	657.69
387.31	748.97
387.50	709.18
387.70	676.41
387.89	702.16
388.09	716.20
388.28	657.69
388.48	699.82
388.67	739.61
388.86	858.98
389.06	1015.79
389.25	983.02
389.45	983.02
389.64	1025.15
389.84	898.77
390.03	1008.77
390.22	1074.31
390.42	1039.20
390.61	1156.22
390.81	1142.18
391.00	1137.50
391.19	1067.28
391.39	1156.22
391.58	997.07
391.78	954.94
391.97	903.45
392.16	830.89
392.36	692.80
392.55	526.62
392.75	404.91
392.94	220.01
393.13	304.27
393.33	407.25
393.52	472.79
393.71	678.76
393.91	851.96
394.10	891.74
394.29	973.66
394.49	990.05
394.68	1020.47
394.88	1200.69
395.07	1170.27
395.26	1233.46
395.46	1224.10
395.65	1144.52
395.84	966.64
396.04	716.20
396.23	526.62
396.42	409.59
396.62	287.89
396.81	444.70
397.00	779.40
397.19	1053.24
397.39	1221.76
397.58	1334.11
397.77	1446.45
397.97	1437.09
398.16	1556.46
398.35	1575.18
398.55	1647.74
398.74	1757.74
398.93	1743.70
399.12	1657.10
399.32	1685.19
399.51	1764.76
399.70	1842.00
399.90	1713.27
400.09	1614.97
400.28	1673.48
400.47	1762.42
400.67	1863.07
400.86	1928.60
401.05	1853.70
401.24	1907.54
401.44	2038.61
401.63	1912.22
401.82	1959.03
402.01	1884.13
402.21	1940.30
402.40	1961.37
402.59	1930.94
402.78	1879.45
402.97	1813.92
403.17	1755.40
403.36	1905.20
403.55	1966.05
403.74	1987.11
403.93	1858.39
404.13	1825.62
404.32	1715.61
404.51	1891.15
404.70	1933.28
404.89	1900.52
405.09	1989.46
405.28	1874.77
405.47	1802.21
405.66	1818.60
405.85	1783.49
406.05	1666.46
406.24	1778.81
406.43	1804.55
406.62	1919.24
406.81	1823.28
407.00	1799.87
407.20	1743.70
407.39	1804.55
407.58	1919.24
407.77	1984.77
407.96	2001.16
408.15	1975.41
408.34	2118.18
408.54	2155.63
408.73	2066.69
408.92	2052.65
409.11	2052.65
409.30	1849.02
409.49	1820.94
409.68	1736.68
409.87	1696.89
410.07	1739.02
410.26	1891.15
410.45	1970.73
410.64	2120.53
410.83	2186.06
411.02	2172.02
411.21	2256.28
411.40	2392.03
411.59	2256.28
411.78	2204.78
411.98	2235.21
412.17	2211.81
412.36	2265.64
412.55	2097.12
412.74	2296.07
412.93	2111.16
413.12	2078.40
413.31	2333.51
413.50	2394.37
413.69	2417.77
413.88	2265.64
414.07	2305.43
414.26	2340.54
414.45	2321.81
414.64	2410.75
414.83	2342.88
415.02	2396.71
415.22	2225.85
415.41	2324.15
415.60	2523.10
415.79	2471.61
415.98	2689.28
416.17	2630.76
416.36	2473.95
416.55	2492.67
416.74	2424.80
416.93	2408.41
417.12	2321.81
417.31	2303.09
417.50	2326.49
417.69	2375.64
417.88	2462.24
418.07	2401.39
418.26	2408.41
418.45	2373.30
418.64	2485.65
418.83	2602.68
419.02	2670.55
419.21	2579.27
419.39	2352.24
419.58	2289.04
419.77	2370.96
419.96	2396.71
420.15	2504.37
420.34	2640.12
420.53	2733.75
420.72	2654.17
420.91	2635.44
421.10	2537.14
421.29	2579.27
421.48	2455.22
421.67	2558.21
421.86	2614.38
422.05	2347.56
422.24	2157.97
422.43	2157.97
422.61	2403.73
422.80	2518.42
422.99	2537.14
423.18	2455.22
423.37	2476.29
423.56	2307.77
423.75	2509.05
423.94	2614.38
424.13	2324.15
424.32	2387.35
424.50	2424.80
424.69	2368.62
424.88	2396.71
425.07	2366.28
425.26	2293.72
425.45	2363.94
425.64	2242.23
425.83	2242.23
426.01	2443.52
426.20	2410.75
426.39	2555.86
426.58	2218.83
426.77	2150.95
426.96	1959.03
427.15	2066.69
427.33	2214.15
427.52	2431.82
427.71	2321.81
427.90	2424.80
428.09	2300.75
428.28	2279.68
428.46	2223.51
428.65	2202.44
428.84	2237.55
429.03	2282.02
429.22	2143.93
429.40	1980.09
429.59	1795.19
429.78	1439.43
429.97	1565.82
430.16	1591.56
430.34	1537.73
430.53	1619.65
430.72	1729.66
430.91	1834.98
431.10	2157.97
431.28	2359.26
431.47	2705.66
431.66	2832.05
431.85	2581.61
432.03	2340.54
432.22	2216.49
432.41	2328.83
432.60	2623.74
432.79	2722.04
432.97	2794.60
433.16	2679.91
433.35	2541.82
433.54	2214.15
433.72	2073.71
433.91	2087.76
434.10	2410.75
434.28	2509.05
434.47	2663.53
434.66	2581.61
434.85	2480.97
435.03	2485.65
435.22	2633.10
435.41	2740.77
435.59	2815.66
435.78	2780.56
435.97	2885.88
436.16	2806.30
436.34	2967.80
436.53	2871.84
436.72	2799.28
436.90	2691.62
437.09	2630.76
437.28	2654.17
437.46	2635.44
437.65	2651.83
437.84	2502.03
438.02	2228.19
438.21	2174.36
438.40	2356.92
438.58	2527.78
438.77	2544.16
438.96	2588.63
439.14	2782.90
439.33	2864.82
439.52	2878.86
439.70	2801.62
439.89	2712.68
440.08	2649.49
440.26	2640.12
440.45	2796.94
440.63	3023.97
440.82	3258.03
441.01	3232.28
441.19	2944.39
441.38	3145.68
441.57	3234.62
441.75	3318.88
441.94	3335.26
442.12	3225.26
442.31	3365.69
442.50	3152.70
442.68	3300.16
442.87	3183.13
443.05	3089.51
443.24	3173.77
443.43	3220.58
443.61	3337.60
443.80	3424.20
443.98	3279.09
444.17	3201.85
444.35	3316.54
444.54	3419.52
444.73	3405.48
444.91	3255.69
445.10	3110.57
445.28	2918.65
445.47	2939.71
445.65	2836.73
445.84	3091.85
446.02	3112.91
446.21	3040.36
446.39	3143.34
446.58	3286.11
446.77	3213.56
446.95	3328.24
447.14	3499.10
447.32	3363.35
447.51	3281.43
447.69	3206.53
447.88	3183.13
448.06	3248.66
448.25	3286.11
448.43	3295.47
448.62	3297.81
448.80	3159.72
448.99	3330.58
449.17	3353.99
449.36	3389.10
449.54	3435.91
449.73	3538.89
449.91	3452.29
450.10	3569.32
450.28	3611.45
450.46	3620.81
450.65	3712.09
450.83	3569.32
451.02	3346.97
451.20	3459.31
451.39	3562.30
451.57	3421.86
451.76	3417.18
451.94	3241.64
452.13	3314.20
452.31	3166.74
452.49	3131.64
452.68	3040.36
452.86	3059.08
453.05	3059.08
453.23	3255.69
453.42	3407.82
453.60	3405.48
453.78	3393.78
453.97	3325.90
454.15	3384.41
454.34	3349.31
454.52	3318.88
454.70	3180.79
454.89	3190.15
455.07	3386.76
455.26	3339.94
455.44	3550.59
455.62	3620.81
455.81	3581.02
455.99	3517.83
456.17	3351.65
456.36	3499.10
456.54	3506.12
456.73	3681.66
456.91	3620.81
457.09	3562.30
457.28	3606.77
457.46	3522.51
457.64	3487.40
457.83	3403.14
458.01	3288.45
458.19	3438.25
458.38	3426.54
458.56	3506.12
458.74	3609.11
458.93	3456.97
459.11	3447.61
459.29	3342.28
459.48	3508.46
459.66	3485.06
459.84	3487.40
460.03	3515.48
460.21	3412.50
460.39	3714.43
460.57	3569.32
460.76	3709.75
460.94	3562.30
461.12	3681.66
461.31	3604.42
461.49	3583.36
461.67	3585.70
461.85	3756.56
462.04	3597.40
462.22	3728.47
462.40	3796.35
462.59	3651.24
462.77	3749.54
462.95	3564.64
463.13	3653.58
463.32	3702.73
463.50	3588.04
463.68	3590.38
463.86	3634.85
464.05	3627.83
464.23	3541.23
464.41	3438.25
464.59	3466.33
464.78	3536.55
464.96	3559.95
465.14	3442.93
465.32	3485.06
465.50	3609.11
465.69	3660.60
465.87	3583.36
466.05	3611.45
466.23	3239.30
466.41	3323.56
466.60	3426.54
466.78	3332.92
466.96	3466.33
467.14	3471.01
467.32	3475.70
467.51	3510.80
467.69	3524.85
467.87	3410.16
468.05	3433.57
468.23	3665.28
468.41	3480.38
468.60	3358.67
468.78	3524.85
468.96	3449.95
469.14	3634.85
469.32	3496.76
469.50	3377.39
469.69	3382.07
469.87	3529.53
470.05	3433.57
470.23	3286.11
470.41	3407.82
470.59	3449.95
470.77	3459.31
470.95	3534.21
471.14	3595.06
471.32	3599.74
471.50	3737.84
471.68	3616.13
471.86	3805.71
472.04	3737.84
472.22	3838.48
472.40	3552.93
472.58	3513.14
472.77	3482.72
472.95	3595.06
473.13	3836.14
473.31	3637.19
473.49	3588.04
473.67	3765.92
473.85	3707.41
474.03	3784.65
474.21	3911.04
474.39	3887.63
474.57	3969.55
474.75	3967.21
474.93	3843.16
475.12	3744.86
475.30	3812.73
475.48	3861.88
475.66	3866.56
475.84	3810.39
476.02	3667.62
476.20	3559.95
476.38	3693.37
476.56	4049.13
476.74	3854.86
476.92	4154.45
477.10	3983.59
477.28	4182.54
477.46	4131.05
477.64	4386.16
477.82	4201.26
478.00	4250.41
478.18	4030.40
478.36	4021.04
478.54	4128.70
478.72	4142.75
478.90	4229.35
479.08	4306.59
479.26	4376.80
479.44	4461.06
479.62	4428.29
479.80	4334.67
479.98	4285.52
480.16	4465.74
480.34	4397.87
480.52	4503.19
480.70	4678.73
480.88	4414.25
481.06	4660.01
481.24	4690.43
481.41	4835.55
481.59	4695.11
481.77	4779.37
481.95	4526.60
482.13	4695.11
482.31	4535.96
482.49	4725.54
482.67	4601.49
482.85	4828.53
483.03	4798.10
483.21	4837.89
483.39	4849.59
483.57	4777.03
483.74	4669.37
483.92	4683.41
484.10	4861.29
484.28	4957.25
484.46	4983.00
484.64	5018.11
484.82	4903.42
485.00	4901.08
485.18	4741.93
485.35	4554.68
485.53	4177.86
485.71	3845.50
485.89	3829.12
486.07	3981.25
486.25	4435.32
486.43	4482.13
486.61	4664.69
486.78	4657.67
486.96	4748.95
487.14	4870.65
487.32	5011.09
487.50	5149.18
487.68	5397.28
487.85	5423.02
488.03	5188.97
488.21	5205.35
488.39	5036.83
488.57	4973.64
488.75	4983.00
488.92	5156.20
489.10	5394.93
489.28	5579.84
489.46	5802.19
489.64	5881.77
489.81	5834.96
489.99	5886.45
490.17	5757.72
490.35	5863.04
490.53	5898.15
490.70	5816.23
490.88	5561.11
491.06	5900.49
491.24	5867.72
491.41	5607.92
491.59	5341.10
491.77	5081.30
491.95	5430.04
492.13	5624.31
492.30	5851.34
492.48	6200.08
492.66	6176.67
492.84	6029.22
493.01	6141.57
493.19	6139.23
493.37	5834.96
493.54	5788.14
493.72	5853.68
493.90	6195.40
494.08	6363.92
494.25	6256.25
494.43	6640.10
494.61	6572.22
494.79	6539.46
494.96	6647.12
495.14	6331.15
495.32	6253.91
495.49	6061.99
495.67	6221.14
495.85	6387.32
496.02	6513.71
496.20	6509.03
496.38	6579.25
496.55	6513.71
496.73	6560.52
496.91	6452.86
497.09	6775.85
497.26	6871.81
497.44	6747.76
497.62	6612.01
497.79	6338.17
497.97	5977.73
498.14	6253.91
498.32	6340.51
498.50	6392.00
498.67	6651.80
498.85	6658.82
499.03	6799.26
499.20	6817.98
499.38	6665.85
499.56	6600.31
499.73	6607.33
499.91	6572.22
500.08	6370.94
500.26	6045.60
500.44	6509.03
500.61	6377.96
500.79	6534.78
500.97	6298.38
501.14	6333.49
501.32	6305.40
501.49	6267.95
501.67	6427.11
501.84	6326.47
502.02	6424.77
502.20	6644.78
502.37	6473.92
502.55	6707.98
502.72	6733.72
502.90	6691.59
503.07	6717.34
503.25	6717.34
503.43	6387.32
503.60	6410.73
503.78	6132.20
503.95	6331.15
504.13	6478.60
504.30	6726.70
504.48	6773.51
504.65	6754.79
504.83	6700.95
505.01	6782.87
505.18	6857.77
505.36	7037.99
505.53	7140.97
505.71	7145.66
505.88	7171.40
506.06	6876.49
506.23	6902.24
506.41	6937.35
506.58	6843.73
506.76	6829.68
506.93	6778.19
507.11	6738.40
507.28	6771.17
507.46	6740.74
507.63	6595.63
507.81	6555.84
507.98	6593.29
508.16	6736.06
508.33	6810.96
508.50	7037.99
508.68	7124.59
508.85	7152.68
509.03	7155.02
509.20	7070.76
509.38	6860.11
509.55	6612.01
509.73	6628.40
509.90	6803.94
510.08	6949.05
510.25	6846.07
510.42	6778.19
510.60	6691.59
510.77	6904.58
510.95	6998.20
511.12	7164.38
511.30	7056.72
511.47	7192.47
511.64	7250.98
511.82	7115.23
511.99	6850.75
512.17	6883.52
512.34	6775.85
512.51	6871.81
512.69	6827.34
512.86	6841.39
513.04	7140.97
513.21	6970.12
513.38	6944.37
513.56	6731.38
513.73	6649.46
513.90	6684.57
514.08	6593.29
514.25	6555.84
514.43	6527.75
514.60	6736.06
514.77	6787.55
514.95	6832.02
515.12	6621.38
515.29	6862.45
515.47	7070.76
515.64	7133.95
515.81	6942.03
515.99	6832.02
516.16	6223.48
516.33	5729.63
516.51	5427.70
516.68	5373.87
516.85	5270.89
517.03	5371.53
517.20	5928.58
517.37	6614.35
517.54	6715.00
517.72	6700.95
517.89	6080.71
518.06	5621.97
518.24	5544.73
518.41	6097.10
518.58	6375.62
518.75	6431.79
518.93	6581.59
519.10	6520.73
519.27	6658.82
519.45	6623.72
519.62	6869.47
519.79	6869.47
519.96	6803.94
520.14	6567.54
520.31	6530.09
520.48	6464.56
520.65	6478.60
520.83	6899.90
521.00	6925.65
521.17	7019.27
521.34	6754.79
521.52	6829.68
521.69	7042.67
521.86	7201.83
522.03	6857.77
522.20	6686.91
522.38	6258.59
522.55	6342.85
522.72	6635.42
522.89	6558.18
523.07	6565.20
523.24	6656.48
523.41	7066.08
523.58	7077.78
523.75	7037.99
523.92	7183.10
524.10	6958.41
524.27	7248.64
524.44	6953.73
524.61	7002.88
524.78	6932.67
524.96	6841.39
525.13	6977.14
525.30	7000.54
525.47	7054.37
525.64	7199.49
525.81	6736.06
525.98	6656.48
526.16	6195.40
526.33	5942.62
526.50	6031.56
526.67	5947.30
526.84	5900.49
527.01	6223.48
527.18	6466.90
527.36	6555.84
527.53	6876.49
527.70	6850.75
527.87	6736.06
528.04	6548.82
528.21	6785.21
528.38	6878.83
528.55	7213.53
528.72	7211.19
528.89	7180.76
529.07	7150.34
529.24	6864.79
529.41	6820.32
529.58	6785.21
529.75	6621.38
529.92	6799.26
530.09	6696.27
530.26	7070.76
530.43	7054.37
530.60	7117.57
530.77	7077.78
530.94	7014.59
531.11	7150.34
531.28	6984.16
531.46	6916.28
531.63	6935.01
531.80	6796.92
531.97	6626.06
532.14	6619.04
532.31	6307.74
532.48	6216.46
532.65	6197.74
532.82	6651.80
532.99	6707.98
533.16	6733.72
533.33	6885.86
533.50	6876.49
533.67	6825.00
533.84	6597.97
534.01	6731.38
534.18	6626.06
534.35	6686.91
534.52	6693.93
534.69	6576.91
534.86	6843.73
535.03	6965.43
535.20	7075.44
535.37	7012.24
535.54	7054.37
535.71	6965.43
535.88	7002.88
536.05	6944.37
536.22	6764.15
536.38	6621.38
536.55	6492.65
536.72	6366.26
536.89	5975.39
537.06	6635.42
537.23	6766.49
537.40	6771.17
537.57	6825.00
537.74	6679.89
537.91	6665.85
538.08	6504.35
538.25	6780.53
538.42	6672.87
538.59	6675.21
538.75	6487.96
538.92	6480.94
539.09	6574.56
539.26	6354.55
539.43	6265.61
539.60	6408.39
539.77	6525.41
539.94	6286.68
540.11	6164.97
540.28	6080.71
540.44	6036.24
540.61	6291.36
540.78	6190.72
540.95	6305.40
541.12	6363.92
541.29	6469.24
541.46	6644.78
541.62	6593.29
541.79	6420.09
541.96	6312.42
542.13	6452.86
542.30	6253.91
542.47	6530.09
542.63	6345.19
542.80	6298.38
542.97	6375.62
543.14	6497.33
543.31	6424.77
543.48	6314.77
543.64	6642.44
543.81	6722.02
543.98	6649.46
544.15	6354.55
544.32	6560.52
544.48	6382.64
544.65	6651.80
544.82	6827.34
544.99	6544.14
545.16	6462.22
545.32	6333.49
545.49	6455.20
545.66	6626.06
545.83	6497.33
546.00	6354.55
546.16	6319.45
546.33	6251.57
546.50	6375.62
546.67	6600.31
546.83	6361.58
547.00	6448.18
547.17	6195.40
547.34	6061.99
547.50	6040.92
547.67	6118.16
547.84	6225.82
548.00	6356.90
548.17	6483.28
548.34	6504.35
548.51	6356.90
548.67	6476.26
548.84	6314.77
549.01	6303.06
549.18	6387.32
549.34	6457.54
549.51	6420.09
549.68	6300.72
549.84	6164.97
550.01	6251.57
550.18	6216.46
550.34	6235.19
550.51	6244.55
550.68	6099.44
550.84	6286.68
551.01	6239.87
551.18	6169.65
551.34	6312.42
551.51	6328.81
551.68	6279.66
551.84	6333.49
552.01	6382.64
552.18	6263.27
552.34	6186.04
552.51	5834.96
552.68	5959.00
552.84	6097.10
553.01	6331.15
553.18	6129.86
553.34	6094.76
553.51	6043.26
553.67	6328.81
553.84	6296.04
554.01	6190.72
554.17	6235.19
554.34	6331.15
554.51	6200.08
554.67	6384.98
554.84	6380.30
555.00	6160.29
555.17	6256.25
555.33	6143.91
555.50	6188.38
555.67	6141.57
555.83	5989.43
556.00	5996.45
556.16	5956.66
556.33	5874.74
556.50	5912.19
556.66	5806.87
556.83	5809.21
556.99	5916.87
557.16	5823.25
557.32	6040.92
557.49	5994.11
557.65	5959.00
557.82	6010.50
557.98	6057.31
558.15	5795.17
558.32	5593.88
558.48	5476.85
558.65	5448.77
558.81	5526.00
558.98	5687.50
559.14	5771.76
559.31	5755.38
559.47	5664.10
559.64	5504.94
559.80	5453.45
559.97	5607.92
560.13	5710.91
560.30	5858.36
560.46	6017.52
560.63	6064.33
560.79	6057.31
560.96	5942.62
561.12	5654.73
561.29	5458.13
561.45	5530.69
561.61	5643.03
561.78	5612.60
561.94	5675.80
562.11	5753.04
562.27	5675.80
562.44	5738.99
562.60	5722.61
562.77	5898.15
562.93	5797.51
563.10	5935.60
563.26	5586.86
563.42	5650.05
563.59	5526.00
563.75	5537.71
563.92	5809.21
564.08	5533.03
564.24	5600.90
564.41	5837.30
564.57	5657.07
564.74	5659.42
564.90	5689.84
565.07	5547.07
565.23	5432.38
565.39	5413.66
565.56	5401.96
565.72	5310.68
565.88	5533.03
566.05	5376.21
566.21	5373.87
566.38	5352.81
566.54	5455.79
566.70	5568.13
566.87	5680.48
567.03	5619.63
567.19	5591.54
567.36	5582.18
567.52	5636.01
567.68	5542.39
567.85	5268.55
568.01	5259.18
568.17	5195.99
568.34	5188.97
568.50	5231.10
568.66	5177.26
568.83	5195.99
568.99	5350.46
569.15	5385.57
569.32	5256.84
569.48	5509.62
569.64	5303.65
569.81	5228.76
569.97	5146.84
570.13	5350.46
570.30	5053.22
570.46	5088.32
570.62	4943.21
570.78	4779.37
570.95	5050.88
571.11	5071.94
571.27	5135.14
571.43	5095.35
571.60	5317.70
571.76	5289.61
571.92	5273.23
572.09	5259.18
572.25	5380.89
572.41	5224.08
572.57	5242.80
572.74	5305.99
572.90	5181.95
573.06	5100.03
573.22	5114.07
573.38	5137.48
573.55	5025.13
573.71	5303.65
573.87	5266.21
574.03	5270.89
574.20	5219.39
574.36	5118.75
574.52	5064.92
574.68	5078.96
574.84	4983.00
575.01	4821.50
575.17	4926.83
575.33	4973.64
575.49	4858.95
575.65	4945.55
575.82	4908.10
575.98	4990.02
576.14	4889.38
576.30	5076.62
576.46	4999.38
576.62	5053.22
576.79	4997.04
576.95	4978.32
577.11	4798.10
577.27	4837.89
577.43	4954.91
577.59	4915.12
577.75	4816.82
577.92	4713.84
578.08	4805.12
578.24	4667.03
578.40	4891.72
578.56	4851.93
578.72	4816.82
578.88	4823.84
579.04	4999.38
579.21	4887.04
579.37	4987.68
579.53	4873.00
579.69	4795.76
579.85	4854.27
580.01	5011.09
580.17	4788.74
580.33	4786.40
580.49	4800.44
580.65	4856.61
580.82	4992.36
580.98	4786.40
581.14	4835.55
581.30	4826.18
581.46	4922.15
581.62	4842.57
581.78	4940.87
581.94	4877.68
582.10	4882.36
582.26	4856.61
582.42	4875.34
582.58	4954.91
582.74	4908.10
582.90	4884.70
583.06	4887.04
583.22	5006.41
583.38	4868.31
583.54	5008.75
583.70	4809.80
583.86	4774.69
584.02	4880.02
584.18	4919.81
584.34	4692.77
584.50	4830.87
584.66	4674.05
584.82	4863.63
584.98	4741.93
585.14	4596.81
585.30	4573.41
585.46	4627.24
585.62	4573.41
585.78	4571.07
585.94	4524.26
586.10	4573.41
586.26	4652.98
586.42	4617.88
586.58	4685.75
586.74	4713.84
586.90	4629.58
587.06	4767.67
587.22	4620.22
587.38	4564.04
587.54	4615.54
587.70	4547.66
587.86	4503.19
588.02	4437.66
588.18	4432.97
588.34	4219.99
588.49	3962.53
588.65	3749.54
588.81	3716.77
588.97	3925.08
589.13	3786.99
589.29	3796.35
589.45	3850.18
589.61	4100.62
589.77	4032.74
589.93	4304.25
590.08	4355.74
590.24	4381.48
590.40	4463.40
590.56	4369.78
590.72	4262.12
590.88	4318.29
591.04	4332.33
591.20	4271.48
591.35	4278.50
591.51	4236.37
591.67	4318.29
591.83	4191.90
591.99	4351.06
592.15	4306.59
592.31	4231.69
592.46	4234.03
592.62	4152.11
592.78	4297.22
592.94	4273.82
593.10	4318.29
593.26	4355.74
593.41	4308.93
593.57	4290.20
593.73	4299.56
593.89	4086.58
594.05	4173.18
594.20	4198.92
594.36	4182.54
594.52	4058.49
594.68	4126.36
594.84	4053.81
594.99	4142.75
595.15	4128.70
595.31	4156.79
595.47	4117.00
595.62	4222.33
595.78	4271.48
595.94	4280.84
596.10	4187.22
596.25	4236.37
596.41	4234.03
596.57	4093.60
596.73	4128.70
596.88	4149.77
597.04	4313.61
597.20	4194.24
597.36	4046.79
597.51	4180.20
597.67	4039.76
597.83	4044.45
