SpectraSuite Data File
++++++++++++++++++++++++++++++++++++
Date: Mon Oct 07 14:55:00 GMT-05:00 2013
User: price-jones
Dark Spectrum Present: No
Reference Spectrum Present: No
Number of Sampled Component Spectra: 1
Spectrometers: USB2+H05261
Integration Time (usec): 10000 (USB2+H05261)
Spectra Averaged: 1 (USB2+H05261)
Boxcar Smoothing: 0 (USB2+H05261)
Correct for Electrical Dark: No (USB2+H05261)
Strobe/Lamp Enabled: No (USB2+H05261)
Correct for Detector Non-linearity: No (USB2+H05261)
Correct for Stray Light: No (USB2+H05261)
Number of Pixels in Processed Spectrum: 2048
>>>>>Begin Processed Spectral Data<<<<<
365.73	0.00
365.92	0.00
366.12	0.00
366.32	0.00
366.52	0.00
366.72	0.00
366.91	0.00
367.11	0.00
367.31	0.00
367.51	0.00
367.70	0.00
367.90	0.00
368.10	0.00
368.30	0.00
368.49	0.00
368.69	0.00
368.89	0.00
369.09	0.00
369.28	0.00
369.48	0.00
369.68	0.00
369.87	0.00
370.07	0.00
370.27	0.00
370.47	339.38
370.66	2106.48
370.86	2607.36
371.06	2850.77
371.25	2768.85
371.45	2490.33
371.65	2214.15
371.84	2246.91
372.04	2394.37
372.24	2541.82
372.44	2750.13
372.63	2616.72
372.83	2356.92
373.03	2085.42
373.22	1907.54
373.42	2174.36
373.62	2422.45
373.81	2705.66
374.01	2495.01
374.21	2354.58
374.40	2291.38
374.60	2347.56
374.79	2715.02
374.99	3112.91
375.19	3356.33
375.38	3178.45
375.58	3059.08
375.78	3066.10
375.97	3052.06
376.17	3192.49
376.37	3290.79
376.56	3279.09
376.76	3494.42
376.95	3749.54
377.15	4018.70
377.35	4243.39
377.54	4437.66
377.74	4491.49
377.93	4407.23
378.13	4294.88
378.33	3997.64
378.52	3857.20
378.72	3478.04
378.91	3407.82
379.11	3412.50
379.31	3286.11
379.50	3234.62
379.70	3634.85
379.89	4065.51
380.09	4257.43
380.28	4376.80
380.48	4402.55
380.68	4271.48
380.87	4161.47
381.07	3777.62
381.26	3403.14
381.46	3075.46
381.65	3251.00
381.85	3063.76
382.04	3005.25
382.24	2832.05
382.43	2518.42
382.63	2551.18
382.83	2518.42
383.02	2668.21
383.22	2626.08
383.41	2628.42
383.61	2885.88
383.80	3452.29
384.00	3777.62
384.19	4203.60
384.39	4252.75
384.58	4425.95
384.78	4241.05
384.97	4222.33
385.17	3943.80
385.36	3735.50
385.56	3648.90
385.75	3913.38
385.95	4269.14
386.14	4496.17
386.34	4507.87
386.53	4234.03
386.72	4088.92
386.92	4252.75
387.11	4442.34
387.31	4388.50
387.50	4486.81
387.70	4208.28
387.89	4248.07
388.09	4332.33
388.28	4393.19
388.48	4400.21
388.67	4784.06
388.86	5282.59
389.06	5638.35
389.25	5823.25
389.45	5881.77
389.64	5912.19
389.84	5764.74
390.03	5626.65
390.22	5921.56
390.42	6071.35
390.61	6541.80
390.81	6867.13
391.00	7061.40
391.19	6920.96
391.39	6513.71
391.58	6143.91
391.78	5757.72
391.97	5682.82
392.16	5359.83
392.36	4596.81
392.55	3646.55
392.75	2970.14
392.94	2455.22
393.13	2586.29
393.33	3023.97
393.52	4025.72
393.71	4851.93
393.91	5423.02
394.10	6090.07
394.29	6263.27
394.49	6972.46
394.68	7339.92
394.88	7386.73
395.07	7517.80
395.26	7648.87
395.46	7208.85
395.65	6722.02
395.84	5825.59
396.04	4690.43
396.23	3925.08
396.42	3356.33
396.62	3459.31
396.81	4117.00
397.00	5383.23
397.19	6532.44
397.39	7737.81
397.58	8610.83
397.77	8854.25
397.97	9453.42
398.16	9415.98
398.35	9666.41
398.55	10162.61
398.74	10518.37
398.93	10590.92
399.12	10394.32
399.32	10155.58
399.51	10438.79
399.70	11021.58
399.90	10710.29
400.09	10874.13
400.28	10773.49
400.47	11002.86
400.67	11517.78
400.86	11655.87
401.05	11763.53
401.24	11995.25
401.44	12332.28
401.63	12238.66
401.82	12341.64
402.01	12112.27
402.21	12100.57
402.40	11992.90
402.59	11831.41
402.78	11176.06
402.97	11042.65
403.17	11712.04
403.36	12386.12
403.55	12858.90
403.74	12835.50
403.93	11882.90
404.13	11412.45
404.32	11255.64
404.51	12121.63
404.70	12971.25
404.89	12929.12
405.09	12519.53
405.28	11941.41
405.47	11974.18
405.66	12383.77
405.85	11496.71
406.05	11400.75
406.24	11737.79
406.43	12215.26
406.62	12437.61
406.81	12468.03
407.00	12243.34
407.20	11880.56
407.39	11990.56
407.58	12767.62
407.77	13362.12
407.96	13638.30
408.15	13715.54
408.34	13769.37
408.54	14218.75
408.73	14071.30
408.92	14064.28
409.11	13572.77
409.30	12798.05
409.49	11920.35
409.68	11311.81
409.87	11286.06
410.07	11983.54
410.26	12950.18
410.45	13806.82
410.64	14384.93
410.83	14464.51
411.02	14909.21
411.21	15236.89
411.40	15192.42
411.59	15300.08
411.78	15405.41
411.98	15033.26
412.17	15346.89
412.36	15016.88
412.55	14998.15
412.74	14689.20
412.93	14560.47
413.12	15101.14
413.31	16341.62
413.50	16198.85
413.69	16114.59
413.88	15407.75
414.07	15211.14
414.26	15765.85
414.45	16100.55
414.64	15967.13
414.83	15964.79
415.02	15784.57
415.22	16140.33
415.41	16411.84
415.60	16987.61
415.79	17661.68
415.98	18029.15
416.17	17621.89
416.36	17401.88
416.55	17291.88
416.74	16437.58
416.93	16271.40
417.12	16262.04
417.31	16599.08
417.50	16954.84
417.69	17266.13
417.88	17001.65
418.07	17123.36
418.26	17053.14
418.45	17053.14
418.64	17633.60
418.83	18024.47
419.02	17769.35
419.21	17680.41
419.39	16849.52
419.58	16044.37
419.77	16365.03
419.96	17137.40
420.15	18171.92
420.34	18607.26
420.53	18953.66
420.72	19311.76
420.91	19307.08
421.10	18544.06
421.29	18909.19
421.48	18246.82
421.67	19211.12
421.86	18642.37
422.05	16767.60
422.24	15372.64
422.43	15672.23
422.61	17675.73
422.80	18548.75
422.99	18246.82
423.18	17563.38
423.37	17521.25
423.56	17603.17
423.75	18176.60
423.94	18607.26
424.13	17373.80
424.32	17451.03
424.50	17877.01
424.69	17748.28
424.88	17687.43
425.07	17446.35
425.26	17415.93
425.45	17034.42
425.64	16774.62
425.83	17184.21
426.01	18239.79
426.20	18590.88
426.39	17741.26
426.58	16549.93
426.77	15389.02
426.96	15264.97
427.15	16198.85
427.33	17535.29
427.52	17514.23
427.71	17605.51
427.90	17500.19
428.09	17348.05
428.28	16840.15
428.46	16175.44
428.65	16336.94
428.84	16908.03
429.03	16535.88
429.22	15770.53
429.40	14644.73
429.59	13153.81
429.78	12184.83
429.97	12334.62
430.16	12367.39
430.34	12259.73
430.53	12521.87
430.72	13167.85
430.91	14689.20
431.10	17326.99
431.28	19962.43
431.47	21242.70
431.66	20940.77
431.85	18761.73
432.03	17156.13
432.22	17453.37
432.41	18494.91
432.60	20252.66
432.79	20645.87
432.97	21151.42
433.16	20226.91
433.35	18221.07
433.54	16468.01
433.72	15943.73
433.91	16837.81
434.10	18822.59
434.28	19850.08
434.47	20933.75
434.66	20245.63
434.85	19704.97
435.03	20184.78
435.22	20369.68
435.41	21216.96
435.59	21671.02
435.78	22153.17
435.97	22115.72
436.16	22593.19
436.34	21954.22
436.53	21296.53
436.72	21345.69
436.90	20465.64
437.09	20346.28
437.28	20538.20
437.46	21055.46
437.65	20540.54
437.84	18909.19
438.02	18087.66
438.21	18207.03
438.40	19028.56
438.58	20339.26
438.77	20727.78
438.96	21099.93
439.14	22279.56
439.33	22361.48
439.52	22658.73
439.70	22190.62
439.89	21766.98
440.08	20973.54
440.26	21661.66
440.45	22359.14
440.63	24226.89
440.82	24978.20
441.01	24435.19
441.19	24140.29
441.38	24549.88
441.57	25245.02
441.75	25750.57
441.94	26377.84
442.12	25865.26
442.31	26618.91
442.50	26572.10
442.68	26567.42
442.87	25425.24
443.05	25310.55
443.24	26618.91
443.43	26389.54
443.61	26356.77
443.80	26218.68
443.98	25881.64
444.17	25891.01
444.35	27236.81
444.54	27463.85
444.73	27002.76
444.91	25841.85
445.10	25020.33
445.28	24046.66
445.47	23836.02
445.65	23672.18
445.84	24439.87
446.02	25303.53
446.21	26047.82
446.39	25495.46
446.58	26464.44
446.77	27267.24
446.95	26834.24
447.14	28252.61
447.32	28594.32
447.51	27428.74
447.69	26506.57
447.88	26546.36
448.06	27190.00
448.25	27391.29
448.43	27407.67
448.62	26761.69
448.80	27019.14
448.99	26773.39
449.17	26953.61
449.36	27353.84
449.54	28329.84
449.73	28481.98
449.91	29088.18
450.10	29986.94
450.28	30361.43
450.46	29750.55
450.65	29736.51
450.83	29624.16
451.02	29179.46
451.20	28950.09
451.39	28563.90
451.57	28287.71
451.76	28456.23
451.94	27950.68
452.13	27524.70
452.31	26066.55
452.49	24989.90
452.68	26202.30
452.86	26099.31
453.05	26394.22
453.23	27527.04
453.42	27978.76
453.60	28460.91
453.78	29312.87
453.97	28517.09
454.15	28606.03
454.34	27835.99
454.52	27648.75
454.70	26904.46
454.89	27583.21
455.07	27917.91
455.26	28641.14
455.44	29614.80
455.62	30309.94
455.81	29715.44
455.99	29586.71
456.17	28975.83
456.36	29848.85
456.54	30148.44
456.73	30314.62
456.91	30864.64
457.09	30960.61
457.28	32048.96
457.46	30291.21
457.64	29406.49
457.83	28620.07
458.01	28369.63
458.19	29369.04
458.38	30087.59
458.56	30686.76
458.74	30651.66
458.93	29455.64
459.11	29233.29
459.29	29397.13
459.48	29277.76
459.66	29319.89
459.84	30382.49
460.03	30628.25
460.21	30593.14
460.39	31536.38
460.57	31260.20
460.76	31651.06
460.94	31477.86
461.12	31342.11
461.31	30766.34
461.49	31386.58
461.67	31302.32
461.85	32168.32
462.04	31768.09
462.22	32095.77
462.40	32510.04
462.59	32226.84
462.77	32144.92
462.95	31655.75
463.13	31817.24
463.32	31339.77
463.50	31590.21
463.68	31578.51
463.86	31098.70
464.05	30864.64
464.23	30347.39
464.41	30487.82
464.59	30331.00
464.78	31887.46
464.96	30991.03
465.14	30759.32
465.32	31648.72
465.50	32416.42
465.69	32535.79
465.87	31622.98
466.05	30726.55
466.23	29521.18
466.41	28737.10
466.60	29685.01
466.78	29572.67
466.96	30345.05
467.14	30967.63
467.32	31405.31
467.51	31531.70
467.69	30125.04
467.87	31105.72
468.05	31236.79
468.23	31440.42
468.41	31318.71
468.60	31040.18
468.78	31744.69
468.96	31030.82
469.14	31983.42
469.32	31892.14
469.50	30927.84
469.69	31185.30
469.87	30328.66
470.05	30167.16
470.23	31220.41
470.41	31084.65
470.59	31335.09
470.77	30944.22
470.95	31793.84
471.14	32102.79
471.32	32737.07
471.50	34040.75
471.68	33420.51
471.86	33949.47
472.04	34050.11
472.22	34281.83
472.40	32444.51
472.58	32521.74
472.77	32266.63
472.95	32814.31
473.13	33020.28
473.31	32818.99
473.49	33146.67
473.67	33942.45
473.85	34230.33
474.03	34792.06
474.21	35204.00
474.39	35119.74
474.57	35283.58
474.75	35274.21
474.93	34721.85
475.12	34150.76
475.30	34892.71
475.48	34878.66
475.66	34991.01
475.84	34511.20
476.02	34801.43
476.20	34134.37
476.38	35082.29
476.56	36378.95
476.74	36212.77
476.92	36444.48
477.10	36760.45
477.28	37546.87
477.46	37060.04
477.64	38162.43
477.82	37998.60
478.00	37921.36
478.18	37305.80
478.36	37432.19
478.54	36861.10
478.72	37787.95
478.90	38862.26
479.08	39976.35
479.26	39800.81
479.44	40095.72
479.62	40058.27
479.80	40161.25
479.98	39917.84
480.16	40587.23
480.34	40116.78
480.52	41165.34
480.70	41242.58
480.88	41038.95
481.06	41265.99
481.24	41535.15
481.41	42569.66
481.59	43311.61
481.77	42403.49
481.95	42323.91
482.13	42567.32
482.31	42359.02
482.49	43407.58
482.67	42831.80
482.85	42721.80
483.03	43557.37
483.21	44477.20
483.39	44390.60
483.57	44076.97
483.74	43358.42
483.92	43899.09
484.10	44002.07
484.28	44355.49
484.46	45125.53
484.64	45951.74
484.82	44825.94
485.00	44626.99
485.18	42988.62
485.35	40458.50
485.53	36727.69
485.71	34572.05
485.89	35077.61
486.07	37511.77
486.25	40481.91
486.43	42199.86
486.61	43679.08
486.78	43419.28
486.96	44329.75
487.14	45404.05
487.32	46579.00
487.50	47466.06
487.68	47943.53
487.85	48212.70
488.03	47985.66
488.21	47248.39
488.39	47339.68
488.57	45715.34
488.75	46410.48
488.92	47112.64
489.10	50550.89
489.28	50099.17
489.46	51330.29
489.64	51482.42
489.81	51824.14
489.99	51634.56
490.17	51271.78
490.35	51798.40
490.53	50983.89
490.70	51014.32
490.88	51393.48
491.06	52842.27
491.24	52240.76
491.41	50227.90
491.59	48793.15
491.77	48879.75
491.95	50307.47
492.13	51262.41
492.30	51987.98
492.48	53567.84
492.66	54216.17
492.84	53179.31
493.01	52905.47
493.19	52779.08
493.37	52037.13
493.54	52107.35
493.72	53347.83
493.90	54131.91
494.08	55250.69
494.25	55753.90
494.43	55248.35
494.61	55454.31
494.79	55356.01
494.96	55042.38
495.14	54827.05
495.32	53602.95
495.49	53506.99
495.67	54487.67
495.85	55384.10
496.02	56142.43
496.20	56268.82
496.38	56109.66
496.55	55547.93
496.73	56104.98
496.91	55880.29
497.09	56072.21
497.26	56666.71
497.44	56299.25
497.62	55318.56
497.79	54321.49
497.97	53539.75
498.14	54857.48
498.32	55987.95
498.50	56076.90
498.67	56624.58
498.85	56275.84
499.03	56673.73
499.20	57198.01
499.38	56647.99
499.56	56093.28
499.73	55739.86
499.91	55543.25
500.08	55072.81
500.26	55180.47
500.44	55908.38
500.61	55576.02
500.79	55386.44
500.97	55636.87
501.14	55199.19
501.32	54220.85
501.49	54761.51
501.67	55409.84
501.84	55203.88
502.02	55896.67
502.20	56133.07
502.37	56418.61
502.55	56619.90
502.72	57361.85
502.90	57733.99
503.07	56879.70
503.25	56083.92
503.43	55070.46
503.60	55234.30
503.78	55011.95
503.95	55615.81
504.13	56959.28
504.30	57432.07
504.48	56624.58
504.65	56774.37
504.83	56940.55
505.01	57221.42
505.18	57640.37
505.36	58330.83
505.53	58251.25
505.71	58775.53
505.88	58562.54
506.06	58213.80
506.23	57808.89
506.41	57226.10
506.58	56980.34
506.76	57717.61
506.93	57256.53
507.11	57193.33
507.28	57069.28
507.46	56456.06
507.63	56640.96
507.81	56659.69
507.98	56814.16
508.16	57137.16
508.33	57326.74
508.50	58356.58
508.68	58642.12
508.85	59505.78
509.03	59374.71
509.20	58667.87
509.38	57902.51
509.55	57212.06
509.73	57345.47
509.90	58089.76
510.08	58277.00
510.25	58148.27
510.42	57097.37
510.60	56779.06
510.77	57598.24
510.95	58501.69
511.12	58312.11
511.30	58756.81
511.47	59524.50
511.64	59363.01
511.82	59414.50
511.99	58244.23
512.17	57528.03
512.34	57078.64
512.51	57539.73
512.69	57874.43
512.86	57048.22
513.04	58291.04
513.21	57778.46
513.38	56706.50
513.56	56334.35
513.73	56217.33
513.90	56238.39
514.08	56877.36
514.25	57279.93
514.43	57467.17
514.60	56949.92
514.77	57572.50
514.95	58707.66
515.12	59037.67
515.29	58787.24
515.47	58599.99
515.64	58901.92
515.81	58230.19
515.99	57193.33
516.16	55157.06
516.33	53120.80
516.51	52919.51
516.68	51058.79
516.85	49940.01
517.03	52154.16
517.20	54550.87
517.37	57172.27
517.54	57785.49
517.72	57003.75
517.89	54040.63
518.06	52566.09
518.24	54213.83
518.41	56097.96
518.58	57120.77
518.75	56399.89
518.93	56788.42
519.10	56397.55
519.27	56713.52
519.45	57368.87
519.62	58384.66
519.79	57815.91
519.96	57357.17
520.14	57895.49
520.31	56994.39
520.48	57071.62
520.65	57057.58
520.83	57715.27
521.00	57909.53
521.17	57439.09
521.34	57860.38
521.52	58499.35
521.69	58761.49
521.86	59749.20
522.03	58672.55
522.20	56945.23
522.38	56376.48
522.55	56453.72
522.72	56605.86
522.89	57141.84
523.07	57378.23
523.24	57570.16
523.41	58529.78
523.58	59313.86
523.75	59550.25
523.92	59086.82
524.10	59063.42
524.27	59480.03
524.44	58562.54
524.61	58660.85
524.78	58834.05
524.96	58602.33
525.13	59147.68
525.30	59683.66
525.47	60016.02
525.64	59386.41
525.81	58651.48
525.98	57230.78
526.16	55430.91
526.33	55449.63
526.50	54600.02
526.67	54944.08
526.84	55538.57
527.01	56142.43
527.18	56587.13
527.36	58089.76
527.53	58735.74
527.70	58653.82
527.87	57916.56
528.04	58157.63
528.21	58944.05
528.38	59203.85
528.55	59611.10
528.72	59901.33
528.89	60011.34
529.07	59714.09
529.24	58728.72
529.41	58269.98
529.58	58384.66
529.75	58578.93
529.92	59093.85
530.09	59093.85
530.26	58731.06
530.43	59051.72
530.60	59501.10
530.77	59463.65
530.94	58876.18
531.11	58712.34
531.28	58642.12
531.46	59068.10
531.63	59606.42
531.80	58384.66
531.97	57918.90
532.14	57289.29
532.31	56287.54
532.48	55702.41
532.65	56320.31
532.82	57111.41
532.99	58656.17
533.16	58967.46
533.33	58894.90
533.50	58937.03
533.67	58056.99
533.84	58068.69
534.01	58157.63
534.18	58099.12
534.35	58113.16
534.52	57705.91
534.69	58609.35
534.86	58382.32
535.03	59164.06
535.20	59456.63
535.37	59742.17
535.54	60336.67
535.71	59938.78
535.88	59292.79
536.05	58459.56
536.22	57752.72
536.38	58028.90
536.55	57228.44
536.72	57331.42
536.89	57165.24
537.06	58141.25
537.23	58864.47
537.40	59082.14
537.57	59501.10
537.74	59311.52
537.91	58791.92
538.08	58801.28
538.25	59030.65
538.42	58494.67
538.59	58255.93
538.75	57998.48
538.92	57631.01
539.09	57324.40
539.26	57537.39
539.43	57726.97
539.60	57387.60
539.77	58120.18
539.94	57205.03
540.11	56465.42
540.28	55952.85
540.44	56418.61
540.61	57272.91
540.78	57249.50
540.95	57333.76
541.12	56767.35
541.29	58049.97
541.46	57862.72
541.62	58473.60
541.79	57354.83
541.96	56444.36
542.13	57563.14
542.30	58204.44
542.47	57794.85
542.63	57607.61
542.80	57457.81
542.97	57614.63
543.14	57233.12
543.31	57661.44
543.48	58564.88
543.64	58782.55
543.81	59051.72
543.98	59213.21
544.15	58120.18
544.32	57804.21
544.48	58295.72
544.65	58363.60
544.82	58831.71
544.99	57979.75
545.16	58021.88
545.32	57567.82
545.49	58260.62
545.66	58581.27
545.83	58045.29
546.00	58391.68
546.16	58424.45
546.33	58106.14
546.50	57289.29
546.67	58195.08
546.83	58688.93
547.00	58171.67
547.17	56800.12
547.34	56378.82
547.50	56341.38
547.67	56863.32
547.84	57155.88
548.00	57977.41
548.17	57726.97
548.34	58169.33
548.51	58255.93
548.67	57811.23
548.84	57932.94
549.01	57687.18
549.18	57497.60
549.34	57024.81
549.51	57698.89
549.68	57034.17
549.84	56877.36
550.01	56280.52
550.18	56837.57
550.34	57022.47
550.51	57874.43
550.68	57167.58
550.84	57312.70
551.01	57820.59
551.18	57301.00
551.34	57434.41
551.51	57382.91
551.68	56921.83
551.84	57504.62
552.01	57401.64
552.18	56741.61
552.34	56257.12
552.51	56463.08
552.68	57130.14
552.84	56856.29
553.01	57106.73
553.18	55884.97
553.34	56891.40
553.51	57151.20
553.67	57055.24
553.84	56963.96
554.01	57443.77
554.17	56540.32
554.34	56844.59
554.51	57146.52
554.67	56985.02
554.84	57015.45
555.00	56643.30
555.17	56528.62
555.33	56622.24
555.50	56825.87
555.67	57530.37
555.83	56811.82
556.00	56189.24
556.16	56018.38
556.33	56339.04
556.50	56350.74
556.66	56889.06
556.83	56629.26
556.99	56210.31
557.16	56184.56
557.32	56685.43
557.49	56825.87
557.65	56397.55
557.82	56968.64
557.98	56458.40
558.15	55894.33
558.32	54759.17
558.48	54499.37
558.65	54162.34
558.81	54424.48
558.98	54223.19
559.14	54021.90
559.31	55025.99
559.47	55744.54
559.64	54459.58
559.80	54162.34
559.97	54447.88
560.13	55503.46
560.30	56348.40
560.46	57403.98
560.63	57153.54
560.79	58089.76
560.96	56392.87
561.12	55723.47
561.29	55751.56
561.45	54976.84
561.61	56320.31
561.78	56044.13
561.94	55746.88
562.11	54557.89
562.27	54389.37
562.44	54986.21
562.60	55419.20
562.77	55835.82
562.93	55463.67
563.10	55683.69
563.26	55707.09
563.42	55496.44
563.59	55419.20
563.75	54864.50
563.92	55473.04
564.08	55962.21
564.24	55842.84
564.41	54908.97
564.57	55334.95
564.74	54838.75
564.90	54951.10
565.07	54562.57
565.23	54365.96
565.39	53710.61
565.56	54131.91
565.72	53886.15
565.88	53755.08
566.05	55227.28
566.21	54124.89
566.38	54340.22
566.54	54899.61
566.70	54710.02
566.87	55018.97
567.03	55463.67
567.19	55604.11
567.36	55215.58
567.52	54979.18
567.68	54761.51
567.85	54536.82
568.01	54129.57
568.17	53942.33
568.34	53813.60
568.50	53757.42
568.66	53081.01
568.83	53003.77
568.99	53214.42
569.15	53815.94
569.32	54475.97
569.48	53689.55
569.64	53691.89
569.81	54117.87
569.97	53546.78
570.13	52420.98
570.30	52299.27
570.46	52257.14
570.62	50777.92
570.78	52027.77
570.95	52683.12
571.11	52739.29
571.27	52350.76
571.43	52963.98
571.60	53825.30
571.76	53221.44
571.92	53825.30
572.09	53832.32
572.25	53265.91
572.41	54358.94
572.57	54305.11
572.74	54370.64
572.90	52828.23
573.06	53829.98
573.22	53942.33
573.38	53738.70
573.55	54178.72
573.71	53778.49
573.87	53968.07
574.03	53794.87
574.20	53984.46
574.36	52486.51
574.52	52772.06
574.68	51737.54
574.84	51873.29
575.01	51676.69
575.17	52666.73
575.33	52608.22
575.49	53577.20
575.65	53497.62
575.82	52341.40
575.98	52151.82
576.14	52736.95
576.30	53495.28
576.46	53261.23
576.62	52116.71
576.79	52126.07
576.95	52526.30
577.11	51950.53
577.27	52322.68
577.43	52083.94
577.59	52247.78
577.75	52589.50
577.92	51634.56
578.08	50766.22
578.24	50726.43
578.40	51147.73
578.56	50787.28
578.72	51826.48
578.88	51760.95
579.04	51873.29
579.21	51730.52
579.37	51395.82
579.53	50983.89
579.69	51234.33
579.85	51501.15
580.01	51260.07
580.17	50763.88
580.33	52420.98
580.49	52196.29
580.65	52023.09
580.82	52072.24
580.98	52004.36
581.14	51180.49
581.30	51412.21
581.46	51297.52
581.62	51496.47
581.78	51793.71
581.94	52282.89
582.10	51732.86
582.26	51054.11
582.42	51337.31
582.58	52198.63
582.74	51447.32
582.90	51215.60
583.06	52942.92
583.22	51875.63
583.38	52285.23
583.54	52142.45
583.70	51758.61
583.86	51454.34
584.02	51494.13
584.18	51842.87
584.34	51126.66
584.50	51072.83
584.66	51002.61
584.82	50712.39
584.98	50951.12
585.14	50511.10
585.30	50185.77
