SpectraSuite Data File
++++++++++++++++++++++++++++++++++++
Date: Mon Oct 07 14:53:11 GMT-05:00 2013
User: price-jones
Dark Spectrum Present: No
Reference Spectrum Present: No
Number of Sampled Component Spectra: 1
Spectrometers: USB2+H05261
Integration Time (usec): 100000 (USB2+H05261)
Spectra Averaged: 1 (USB2+H05261)
Boxcar Smoothing: 0 (USB2+H05261)
Correct for Electrical Dark: No (USB2+H05261)
Strobe/Lamp Enabled: No (USB2+H05261)
Correct for Detector Non-linearity: No (USB2+H05261)
Correct for Stray Light: No (USB2+H05261)
Number of Pixels in Processed Spectrum: 2048
>>>>>Begin Processed Spectral Data<<<<<
365.73	0.00
365.92	0.00
366.12	0.00
366.32	0.00
366.52	0.00
366.72	0.00
366.91	0.00
367.11	0.00
367.31	0.00
367.51	0.00
367.70	0.00
367.90	0.00
368.10	0.00
368.30	0.00
368.49	0.00
368.69	0.00
368.89	0.00
369.09	0.00
369.28	0.00
369.48	0.00
369.68	0.00
369.87	0.00
370.07	0.00
370.27	0.00
370.47	978.34
370.66	4191.90
370.86	4983.00
371.06	5313.02
371.25	5266.21
371.45	4849.59
371.65	4383.82
371.84	4149.77
372.04	4348.72
372.24	4887.04
372.44	5137.48
372.63	4926.83
372.83	4634.26
373.03	4095.94
373.22	3831.46
373.42	3953.16
373.62	4620.22
373.81	4821.50
374.01	4980.66
374.21	4454.04
374.40	4273.82
374.60	4264.46
374.79	4765.33
374.99	5713.25
375.19	6218.80
375.38	6022.20
375.58	5654.73
375.78	5493.24
375.97	5867.72
376.17	5849.00
376.37	5856.02
376.56	6235.19
376.76	6349.87
376.95	6860.11
377.15	7344.60
377.35	7576.31
377.54	7878.24
377.74	7941.44
377.93	8116.98
378.13	7812.71
378.33	7442.90
378.52	6855.43
378.72	6614.35
378.91	6494.99
379.11	6104.12
379.31	6015.18
379.50	6085.39
379.70	6558.18
379.89	7162.04
380.09	7344.60
380.28	7775.26
380.48	7763.56
380.68	7581.00
380.87	7470.99
381.07	6834.36
381.26	6253.91
381.46	5996.45
381.65	5970.71
381.85	5593.88
382.04	5423.02
382.24	4926.83
382.43	4741.93
382.63	4685.75
382.83	4807.46
383.02	4812.14
383.22	4784.06
383.41	4751.29
383.61	5067.26
383.80	6078.37
384.00	6637.76
384.19	7227.57
384.39	7658.23
384.58	7655.89
384.78	7503.76
384.97	7456.95
385.17	7169.06
385.36	6733.72
385.56	6450.52
385.75	6651.80
385.95	7140.97
386.14	8039.74
386.34	7918.03
386.53	7459.29
386.72	7101.19
386.92	7187.79
387.11	7438.22
387.31	7985.91
387.50	7758.88
387.70	7543.55
387.89	7515.46
388.09	7545.89
388.28	7365.67
388.48	7857.18
388.67	8114.64
388.86	9081.28
389.06	9738.97
389.25	10143.88
389.45	10113.45
389.64	10036.22
389.84	10080.69
390.03	9893.44
390.22	9891.10
390.42	10382.62
390.61	10792.21
390.81	11332.87
391.00	11707.36
391.19	11548.20
391.39	11344.58
391.58	10478.58
391.78	10223.46
391.97	9851.31
392.16	9032.13
392.36	8161.45
392.55	6597.97
392.75	5231.10
392.94	4421.27
393.13	4255.09
393.33	5327.06
393.52	6665.85
393.71	8056.12
393.91	8978.30
394.10	9664.07
394.29	10740.72
394.49	11672.25
394.68	12215.26
394.88	12280.79
395.07	12692.73
395.26	12636.55
395.46	11955.46
395.65	11662.89
395.84	9811.53
396.04	8524.23
396.23	6988.84
396.42	5846.66
396.62	5692.18
396.81	6785.21
397.00	8383.80
397.19	10714.97
397.39	12507.82
397.58	14094.71
397.77	14974.75
397.97	15382.00
398.16	15318.81
398.35	16070.12
398.55	16624.83
398.74	17284.86
398.93	17343.37
399.12	17441.67
399.32	16411.84
399.51	17425.29
399.70	18431.72
399.90	18029.15
400.09	17748.28
400.28	17671.04
400.47	18071.28
400.67	18871.74
400.86	19520.07
401.05	19166.65
401.24	19126.86
401.44	19793.91
401.63	19325.80
401.82	20013.92
402.01	19669.86
402.21	19990.52
402.40	20009.24
402.59	19260.27
402.78	18527.68
402.97	18384.91
403.17	19082.39
403.36	19742.42
403.55	20688.00
403.74	21221.64
403.93	19845.40
404.13	18396.61
404.32	18293.63
404.51	19047.28
404.70	20678.63
404.89	20409.47
405.09	20161.37
405.28	19414.74
405.47	19786.89
405.66	19316.44
405.85	18874.08
406.05	18455.12
406.24	18515.98
406.43	19496.66
406.62	20229.25
406.81	20299.47
407.00	19573.90
407.20	18927.91
407.39	18920.89
407.58	20388.41
407.77	20821.41
407.96	21764.64
408.15	21975.29
408.34	22328.71
408.54	23091.73
408.73	23257.90
408.92	22684.47
409.11	22080.61
409.30	21177.17
409.49	19309.42
409.68	18675.13
409.87	17855.95
410.07	19403.04
410.26	20643.52
410.45	22045.51
410.64	22745.33
410.83	23218.11
411.02	23880.49
411.21	24746.48
411.40	24350.93
411.59	24376.68
411.78	23969.43
411.98	23929.64
412.17	24671.59
412.36	23470.89
412.55	24208.16
412.74	23222.80
412.93	22864.69
413.12	23267.27
413.31	25001.60
413.50	25696.74
413.69	25989.31
413.88	25158.42
414.07	24205.82
414.26	24592.01
414.45	25479.07
414.64	25481.41
414.83	25591.42
415.02	24769.89
415.22	25071.82
415.41	25500.14
415.60	26242.09
415.79	27452.14
415.98	28144.94
416.17	28025.57
416.36	27459.16
416.55	27061.27
416.74	26546.36
416.93	25167.78
417.12	25324.60
417.31	25853.56
417.50	25741.21
417.69	27105.74
417.88	26761.69
418.07	26719.56
418.26	26295.92
418.45	26436.35
418.64	27330.44
418.83	28037.28
419.02	27737.69
419.21	27559.81
419.39	26195.28
419.58	25319.92
419.77	25362.04
419.96	26457.42
420.15	28112.17
420.34	28535.81
420.53	29612.46
420.72	30059.50
420.91	29951.84
421.10	29343.30
421.29	29270.74
421.48	28158.99
421.67	29797.36
421.86	28987.53
422.05	26927.86
422.24	23988.15
422.43	24397.74
422.61	26279.54
422.80	28704.33
422.99	28622.41
423.18	27653.43
423.37	27040.21
423.56	27307.03
423.75	27501.29
423.94	28311.12
424.13	26536.99
424.32	27096.38
424.50	26841.26
424.69	26698.49
424.88	26960.63
425.07	26923.18
425.26	26443.37
425.45	26363.79
425.64	25717.81
425.83	25998.67
426.01	27435.76
426.20	28058.34
426.39	27728.33
426.58	25827.81
426.77	23730.69
426.96	23037.89
427.15	24245.61
427.33	26263.15
427.52	27028.51
427.71	27194.68
427.90	26483.16
428.09	26361.45
428.28	25792.70
428.46	25109.27
428.65	24484.34
428.84	25411.20
429.03	25921.43
429.22	24348.59
429.40	23122.15
429.59	21074.18
429.78	18656.41
429.97	19096.43
430.16	18941.96
430.34	18757.05
430.53	18843.65
430.72	19342.19
430.91	21610.17
431.10	25158.42
431.28	29720.12
431.47	31702.56
431.66	32245.56
431.85	29350.32
432.03	27126.81
432.22	25762.28
432.41	27133.83
432.60	29818.42
432.79	31372.54
432.97	31679.15
433.16	30574.42
433.35	28133.24
433.54	25247.36
433.72	24217.52
433.91	25195.87
434.10	28369.63
434.28	29834.81
434.47	31201.68
434.66	30632.93
434.85	29996.31
435.03	29813.74
435.22	30602.50
435.41	32488.98
435.59	32477.27
435.78	32664.52
435.97	33237.95
436.16	33425.19
436.34	33137.30
436.53	32364.93
436.72	32797.93
436.90	30651.66
437.09	30782.73
437.28	30473.78
437.46	31482.55
437.65	31281.26
437.84	29041.37
438.02	26986.38
438.21	26724.24
438.40	28411.76
438.58	30548.67
438.77	31309.35
438.96	31562.12
439.14	32898.57
439.33	33715.42
439.52	34321.62
439.70	33413.49
439.89	32257.26
440.08	31702.56
440.26	31665.11
440.45	33113.90
440.63	35346.77
440.82	36479.59
441.01	35943.61
441.19	36430.44
441.38	37015.57
441.57	37930.72
441.75	38658.63
441.94	38274.78
442.12	38064.13
442.31	38885.66
442.50	38995.67
442.68	38244.35
442.87	37998.60
443.05	37874.55
443.24	37883.91
443.43	38698.42
443.61	39374.83
443.80	39594.84
443.98	37530.49
444.17	37745.82
444.35	39344.41
444.54	40273.60
444.73	39812.51
444.91	38267.76
445.10	37097.49
445.28	35697.85
445.47	35140.80
445.65	35276.55
445.84	36392.99
446.02	37158.34
446.21	38022.00
446.39	38061.79
446.58	38380.10
446.77	39002.69
446.95	39541.01
447.14	40676.17
447.32	41399.40
447.51	40292.32
447.69	38361.38
447.88	38281.80
448.06	38712.46
448.25	39473.13
448.43	39793.79
448.62	39019.07
448.80	38841.19
448.99	39040.14
449.17	39545.69
449.36	39838.26
449.54	41055.34
449.73	41827.71
449.91	42342.63
450.10	43695.46
450.28	43814.83
450.46	43129.05
450.65	43374.81
450.83	42946.49
451.02	42153.05
451.20	42054.75
451.39	42054.75
451.57	41834.74
451.76	41904.95
451.94	41230.88
452.13	40830.65
452.31	39096.31
452.49	37308.14
452.68	38092.22
452.86	37682.62
453.05	38380.10
453.23	39763.36
453.42	40294.66
453.60	41254.28
453.78	41439.18
453.97	41308.11
454.15	41031.93
454.34	40439.78
454.52	40664.47
454.70	39793.79
454.89	40367.22
455.07	40837.67
455.26	41022.57
455.44	42689.03
455.62	43496.52
455.81	43320.98
455.99	42890.32
456.17	42394.12
456.36	42845.85
456.54	43583.12
456.73	43653.33
456.91	44538.05
457.09	44982.76
457.28	45137.23
457.46	43655.67
457.64	43203.95
457.83	42630.52
458.01	41336.20
458.19	42761.59
458.38	42897.34
458.56	44032.50
458.74	43379.49
458.93	43309.27
459.11	42986.28
459.29	42623.50
459.48	42932.45
459.66	43009.68
459.84	43285.87
460.03	43803.13
460.21	43863.98
460.39	44626.99
460.57	44694.87
460.76	45408.73
460.94	45256.60
461.12	44884.45
461.31	44629.34
461.49	44573.16
461.67	44868.07
461.85	46686.67
462.04	45584.27
462.22	46354.31
462.40	45825.35
462.59	45722.37
462.77	45591.30
462.95	45783.22
463.13	45364.26
463.32	44418.69
463.50	44685.51
463.68	44982.76
463.86	44673.81
464.05	44172.93
464.23	43407.58
464.41	42981.60
464.59	42494.77
464.78	44435.07
464.96	44769.77
465.14	43875.68
465.32	45097.44
465.50	45855.78
465.69	46478.36
465.87	45155.96
466.05	44552.10
466.23	42490.09
466.41	41799.63
466.60	42944.15
466.78	42841.17
466.96	43700.14
467.14	44568.48
467.32	44680.83
467.51	44601.25
467.69	42721.80
467.87	43288.21
468.05	44074.63
468.23	44016.11
468.41	44486.56
468.60	44725.30
468.78	44968.71
468.96	44030.16
469.14	45010.84
469.32	45397.03
469.50	43786.74
469.69	43484.81
469.87	43423.96
470.05	42810.74
470.23	43290.55
470.41	43742.27
470.59	44128.46
470.77	44385.92
470.95	45027.23
471.14	45439.16
471.32	45736.41
471.50	47796.08
471.68	47391.17
471.86	47583.09
472.04	48343.77
472.22	47821.83
472.40	46244.30
472.58	46178.77
472.77	45745.77
472.95	46227.92
473.13	47342.02
473.31	46754.54
473.49	46536.87
473.67	47241.37
473.85	47988.00
474.03	48484.20
474.21	48463.13
474.39	49024.86
474.57	49315.09
474.75	49202.74
474.93	48652.72
475.12	47913.11
475.30	47845.23
475.48	48222.06
475.66	48523.99
475.84	48306.32
476.02	47840.55
476.20	47313.93
476.38	48357.81
476.56	49081.03
476.74	49940.01
476.92	49935.33
477.10	50473.65
477.28	51674.35
477.46	51374.76
477.64	52088.62
477.82	51704.77
478.00	52348.42
478.18	51334.97
478.36	51353.69
478.54	50979.21
478.72	51576.04
478.90	52746.31
479.08	53165.27
479.26	53635.72
479.44	53677.85
479.62	53303.36
479.80	53289.32
479.98	53497.62
480.16	53895.52
480.34	53329.11
480.52	53645.08
480.70	53895.52
480.88	53825.30
481.06	54653.85
481.24	54625.76
481.41	55084.51
481.59	55646.24
481.77	55529.21
481.95	55143.02
482.13	55035.36
482.31	54976.84
482.49	55693.05
482.67	55625.17
482.85	55585.38
483.03	56170.52
483.21	56374.14
483.39	56474.79
483.57	55533.89
483.74	55744.54
483.92	55866.25
484.10	55959.87
484.28	56669.05
484.46	56961.62
484.64	57219.08
484.82	56474.79
485.00	55985.61
485.18	55580.70
485.35	54487.67
485.53	52439.70
485.71	48973.37
485.89	48921.88
486.07	50890.27
486.25	53579.54
486.43	55323.24
486.61	55374.73
486.78	55517.51
486.96	55608.79
487.14	56708.84
487.32	57317.38
487.50	58284.02
487.68	58859.79
487.85	59091.51
488.03	58965.12
488.21	58670.21
488.39	58363.60
488.57	57759.74
488.75	57411.00
488.92	58389.34
489.10	59945.80
489.28	60961.59
489.46	61422.68
489.64	61137.13
489.81	61410.98
489.99	60966.27
490.17	61158.20
490.35	61598.22
490.53	61111.39
490.70	61017.77
490.88	60743.92
491.06	61668.44
491.24	61518.64
491.41	60598.81
491.59	59505.78
491.77	59082.14
491.95	59959.84
492.13	60748.60
492.30	61591.20
492.48	62286.34
492.66	62518.05
492.84	62539.11
493.01	62452.51
493.19	61858.02
493.37	61806.53
493.54	61642.69
493.72	62152.93
493.90	62899.56
494.08	63454.26
494.25	63845.13
494.43	63898.97
494.61	64224.30
494.79	64266.43
494.96	64097.91
495.14	63683.64
495.32	62841.04
495.49	62375.28
495.67	63370.00
495.85	64427.93
496.02	64549.63
496.20	64430.27
496.38	64170.47
496.55	64001.95
496.73	64465.38
496.91	64493.46
497.09	65223.71
497.26	65120.73
497.44	64771.99
497.62	64238.34
497.79	63594.70
497.97	62606.99
498.14	62827.00
498.32	63866.20
498.50	64507.50
498.67	64973.27
498.85	64954.55
499.03	65076.26
499.20	65216.69
499.38	65036.47
499.56	65073.91
499.73	64762.62
499.91	64259.41
500.08	63901.31
500.26	63374.69
500.44	63749.17
500.61	64397.50
500.79	64004.29
500.97	63824.07
501.14	63641.51
501.32	63522.14
501.49	63688.32
501.67	63978.54
501.84	64310.90
502.02	64523.89
502.20	64828.16
502.37	64963.91
502.55	64853.90
502.72	65396.91
502.90	65535.00
503.07	65422.65
503.25	64933.48
503.43	64453.67
503.60	64060.46
503.78	63175.74
503.95	63786.62
504.13	64858.59
504.30	65535.00
504.48	65223.71
504.65	65169.88
504.83	65207.32
505.01	65535.00
505.18	65535.00
505.36	65535.00
505.53	65535.00
505.71	65535.00
505.88	65535.00
506.06	65535.00
506.23	65535.00
506.41	65535.00
506.58	65535.00
506.76	65535.00
506.93	65535.00
507.11	65535.00
507.28	65535.00
507.46	65223.71
507.63	64783.69
507.81	64830.50
507.98	64999.02
508.16	65420.31
508.33	65535.00
508.50	65535.00
508.68	65535.00
508.85	65535.00
509.03	65535.00
509.20	65535.00
509.38	65535.00
509.55	65535.00
509.73	65535.00
509.90	65535.00
510.08	65535.00
510.25	65535.00
510.42	65535.00
510.60	65535.00
510.77	65535.00
510.95	65535.00
511.12	65535.00
511.30	65535.00
511.47	65535.00
511.64	65535.00
511.82	65535.00
511.99	65535.00
512.17	65535.00
512.34	65535.00
512.51	65535.00
512.69	65535.00
512.86	65535.00
513.04	65535.00
513.21	65535.00
513.38	65535.00
513.56	65535.00
513.73	65048.17
513.90	65314.99
514.08	65502.23
514.25	65485.85
514.43	65535.00
514.60	65535.00
514.77	65535.00
514.95	65535.00
515.12	65535.00
515.29	65535.00
515.47	65535.00
515.64	65535.00
515.81	65535.00
515.99	65535.00
516.16	64814.12
516.33	62625.71
516.51	61701.20
516.68	61116.07
516.85	60863.29
517.03	61174.58
517.20	63391.07
517.37	65244.77
517.54	65535.00
517.72	65535.00
517.89	63400.43
518.06	61691.84
518.24	62349.53
518.41	64058.12
518.58	64877.31
518.75	65080.94
518.93	65202.64
519.10	65102.00
519.27	65417.97
519.45	65535.00
519.62	65535.00
519.79	65535.00
519.96	65535.00
520.14	65535.00
520.31	65513.94
520.48	65450.74
520.65	65518.62
520.83	65535.00
521.00	65535.00
521.17	65535.00
521.34	65535.00
521.52	65535.00
521.69	65535.00
521.86	65535.00
522.03	65535.00
522.20	65535.00
522.38	64977.95
522.55	65172.22
522.72	65535.00
522.89	65535.00
523.07	65535.00
523.24	65535.00
523.41	65535.00
523.58	65535.00
523.75	65535.00
523.92	65535.00
524.10	65535.00
524.27	65535.00
524.44	65535.00
524.61	65535.00
524.78	65535.00
524.96	65535.00
525.13	65535.00
525.30	65535.00
525.47	65535.00
525.64	65535.00
525.81	65535.00
525.98	65535.00
526.16	64467.72
526.33	63760.87
526.50	63468.31
526.67	63070.42
526.84	63817.05
527.01	64589.42
527.18	65338.40
527.36	65535.00
527.53	65535.00
527.70	65535.00
527.87	65535.00
528.04	65535.00
528.21	65535.00
528.38	65535.00
528.55	65535.00
528.72	65535.00
528.89	65535.00
529.07	65535.00
529.24	65535.00
529.41	65535.00
529.58	65535.00
529.75	65535.00
529.92	65535.00
530.09	65535.00
530.26	65535.00
530.43	65535.00
530.60	65535.00
530.77	65535.00
530.94	65535.00
531.11	65535.00
531.28	65535.00
531.46	65535.00
531.63	65535.00
531.80	65535.00
531.97	65535.00
532.14	65535.00
532.31	65530.32
532.48	64591.76
532.65	64771.99
532.82	65535.00
532.99	65535.00
533.16	65535.00
533.33	65535.00
533.50	65535.00
533.67	65535.00
533.84	65535.00
534.01	65535.00
534.18	65535.00
534.35	65535.00
534.52	65535.00
534.69	65535.00
534.86	65535.00
535.03	65535.00
535.20	65535.00
535.37	65535.00
535.54	65535.00
535.71	65535.00
535.88	65535.00
536.05	65535.00
536.22	65535.00
536.38	65535.00
536.55	65535.00
536.72	65448.40
536.89	65293.92
537.06	65535.00
537.23	65535.00
537.40	65535.00
537.57	65535.00
537.74	65535.00
537.91	65535.00
538.08	65535.00
538.25	65535.00
538.42	65535.00
538.59	65535.00
538.75	65535.00
538.92	65535.00
539.09	65535.00
539.26	65535.00
539.43	65535.00
539.60	65535.00
539.77	65535.00
539.94	65535.00
540.11	64898.37
540.28	64633.89
540.44	64732.20
540.61	64881.99
540.78	65235.41
540.95	65535.00
541.12	65535.00
541.29	65535.00
541.46	65535.00
541.62	65535.00
541.79	65535.00
541.96	65535.00
542.13	65535.00
542.30	65535.00
542.47	65535.00
542.63	65535.00
542.80	65535.00
542.97	65535.00
543.14	65535.00
543.31	65535.00
543.48	65535.00
543.64	65535.00
543.81	65535.00
543.98	65535.00
544.15	65535.00
544.32	65535.00
544.48	65535.00
544.65	65535.00
544.82	65535.00
544.99	65535.00
545.16	65535.00
545.32	65535.00
545.49	65535.00
545.66	65535.00
545.83	65535.00
546.00	65535.00
546.16	65535.00
546.33	65535.00
546.50	65535.00
546.67	65535.00
546.83	65535.00
547.00	65535.00
547.17	65535.00
547.34	64924.12
547.50	64992.00
547.67	65350.10
547.84	65331.37
548.00	65535.00
548.17	65535.00
548.34	65535.00
548.51	65535.00
548.67	65535.00
548.84	65535.00
549.01	65535.00
549.18	65535.00
549.34	65535.00
549.51	65535.00
549.68	65535.00
549.84	65450.74
550.01	65535.00
550.18	65326.69
550.34	65481.17
550.51	65535.00
550.68	65535.00
550.84	65509.25
551.01	65535.00
551.18	65228.39
551.34	65457.76
551.51	65535.00
551.68	65535.00
551.84	65535.00
552.01	65535.00
552.18	65535.00
552.34	65041.15
552.51	64741.56
552.68	64701.77
552.84	65071.57
553.01	65286.90
553.18	65368.82
553.34	65361.80
553.51	65446.06
553.67	65535.00
553.84	65535.00
554.01	65535.00
554.17	65535.00
554.34	65535.00
554.51	65535.00
554.67	65535.00
554.84	65535.00
555.00	65535.00
555.17	65511.59
555.33	65277.54
555.50	65132.43
555.67	65303.29
555.83	64992.00
556.00	64966.25
556.16	64919.44
556.33	64624.53
556.50	64657.30
556.66	64650.28
556.83	64378.78
556.99	64502.82
557.16	64612.83
557.32	64746.24
557.49	64975.61
557.65	64886.67
557.82	64926.46
557.98	64788.37
558.15	64250.05
558.32	63564.27
558.48	63093.82
558.65	63178.08
558.81	63718.74
558.98	63721.08
559.14	63973.86
559.31	64182.17
559.47	64069.82
559.64	63791.30
559.80	63508.10
559.97	63648.53
560.13	64186.85
560.30	64706.45
560.46	65251.80
560.63	65434.36
560.79	65357.12
560.96	64837.52
561.12	63978.54
561.29	63297.45
561.45	63552.57
561.61	63840.45
561.78	64121.32
561.94	64133.02
562.11	63969.18
562.27	63854.50
562.44	64135.36
562.60	64458.35
562.77	64711.13
562.93	64397.50
563.10	64472.40
563.26	64144.72
563.42	64212.60
563.59	64081.53
563.75	63842.79
563.92	63866.20
564.08	63987.91
564.24	64034.72
564.41	64175.15
564.57	63749.17
564.74	63730.45
564.90	63742.15
565.07	63737.47
565.23	63407.45
565.39	63056.37
565.56	62763.81
565.72	62480.60
565.88	62958.07
566.05	62939.35
566.21	62852.75
566.38	63341.92
566.54	63271.70
566.70	63402.77
566.87	63880.24
567.03	63730.45
567.19	64170.47
567.36	63779.60
567.52	63561.93
567.68	63412.13
567.85	62836.36
568.01	62504.01
568.17	62384.64
568.34	62408.04
568.50	62482.94
568.66	62508.69
568.83	62667.84
568.99	62604.65
569.15	62946.37
569.32	63004.88
569.48	62803.59
569.64	62838.70
569.81	62466.56
569.97	62482.94
570.13	62356.55
570.30	61712.91
570.46	61471.83
570.62	61165.22
570.78	61083.30
570.95	61434.38
571.11	61993.77
571.27	61921.21
571.43	62337.83
571.60	62550.82
571.76	62754.44
571.92	62801.25
572.09	63091.48
572.25	62880.83
572.41	62665.50
572.57	62728.70
572.74	62555.50
572.90	62471.24
573.06	62337.83
573.22	62480.60
573.38	62520.39
573.55	62335.49
573.71	62583.58
573.87	62419.75
574.03	62232.50
574.20	62106.12
574.36	62052.28
574.52	61932.92
574.68	61921.21
574.84	61403.95
575.01	61059.90
575.17	61083.30
575.33	61408.64
575.49	61748.01
575.65	61696.52
575.82	61574.81
575.98	61331.40
576.14	61378.21
576.30	61647.37
576.46	61942.28
576.62	61687.16
576.79	61708.22
576.95	61485.87
577.11	61240.12
577.27	61539.71
577.43	61638.01
577.59	60959.25
577.75	60736.90
577.92	60236.03
578.08	60331.99
578.24	60364.76
578.40	60762.65
578.56	60750.94
578.72	60591.79
578.88	60900.74
579.04	61066.92
579.21	61162.88
579.37	60973.30
579.53	61066.92
579.69	61111.39
579.85	61429.70
580.01	61141.81
580.17	60734.56
580.33	60446.68
580.49	60912.44
580.65	61197.99
580.82	61174.58
580.98	61230.75
581.14	61017.77
581.30	61095.00
581.46	60994.36
581.62	61324.38
581.78	61043.51
581.94	61366.51
582.10	61300.97
582.26	61448.42
582.42	61415.66
582.58	61427.36
582.74	61347.78
582.90	61460.13
583.06	61310.33
583.22	61226.07
583.38	61095.00
583.54	61212.03
583.70	61031.81
583.86	61179.26
584.02	60879.67
584.18	61151.18
584.34	60732.22
584.50	60844.57
584.66	60872.65
584.82	60521.57
584.98	60451.36
