SpectraSuite Data File
++++++++++++++++++++++++++++++++++++
Date: Mon Oct 07 14:53:34 GMT-05:00 2013
User: price-jones
Dark Spectrum Present: No
Reference Spectrum Present: No
Number of Sampled Component Spectra: 1
Spectrometers: USB2+H05261
Integration Time (usec): 100000 (USB2+H05261)
Spectra Averaged: 1 (USB2+H05261)
Boxcar Smoothing: 0 (USB2+H05261)
Correct for Electrical Dark: No (USB2+H05261)
Strobe/Lamp Enabled: No (USB2+H05261)
Correct for Detector Non-linearity: No (USB2+H05261)
Correct for Stray Light: No (USB2+H05261)
Number of Pixels in Processed Spectrum: 2048
>>>>>Begin Processed Spectral Data<<<<<
365.73	0.00
365.92	0.00
366.12	0.00
366.32	0.00
366.52	0.00
366.72	0.00
366.91	0.00
367.11	0.00
367.31	0.00
367.51	0.00
367.70	0.00
367.90	0.00
368.10	0.00
368.30	0.00
368.49	0.00
368.69	0.00
368.89	0.00
369.09	0.00
369.28	0.00
369.48	0.00
369.68	0.00
369.87	0.00
370.07	0.00
370.27	0.00
370.47	645.99
370.66	3335.26
370.86	3985.93
371.06	4409.57
371.25	4329.99
371.45	3829.12
371.65	3543.57
371.84	3290.79
372.04	3536.55
372.24	3801.03
372.44	3976.57
372.63	3962.53
372.83	3857.20
373.03	3297.81
373.22	3038.02
373.42	3148.02
373.62	3761.24
373.81	4102.96
374.01	3857.20
374.21	3676.98
374.40	3295.47
374.60	3503.78
374.79	3946.14
374.99	4655.33
375.19	4840.23
375.38	4954.91
375.58	4723.20
375.78	4493.83
375.97	4568.73
376.17	4784.06
376.37	4683.41
376.56	4809.80
376.76	5303.65
376.95	5394.93
377.15	5996.45
377.35	6209.44
377.54	6466.90
377.74	6532.44
377.93	6464.56
378.13	6375.62
378.33	5940.28
378.52	5809.21
378.72	5406.64
378.91	5394.93
379.11	5397.28
379.31	5074.28
379.50	4882.36
379.70	5352.81
379.89	5785.80
380.09	6410.73
380.28	6459.88
380.48	6480.94
380.68	6335.83
380.87	6155.61
381.07	5769.42
381.26	5385.57
381.46	4861.29
381.65	4891.72
381.85	4781.71
382.04	4388.50
382.24	4189.56
382.43	3978.91
382.63	3995.29
382.83	4100.62
383.02	3911.04
383.22	3985.93
383.41	3946.14
383.61	4177.86
383.80	4840.23
384.00	5495.58
384.19	6080.71
384.39	6399.02
384.58	6436.47
384.78	6305.40
384.97	6354.55
385.17	5898.15
385.36	5556.43
385.56	5570.48
385.75	5338.76
385.95	6120.50
386.14	6516.05
386.34	6644.78
386.53	6422.43
386.72	5951.98
386.92	6008.16
387.11	6296.04
387.31	6490.31
387.50	6450.52
387.70	6324.13
387.89	6001.13
388.09	6207.10
388.28	6476.26
388.48	6553.50
388.67	6888.20
388.86	7466.31
389.06	8147.40
389.25	8517.21
389.45	8545.30
389.64	8645.94
389.84	8390.82
390.03	8418.91
390.22	8257.41
390.42	8524.23
390.61	9130.43
390.81	10010.47
391.00	9916.85
391.19	9893.44
391.39	9694.50
391.58	9268.52
391.78	8468.06
391.97	8198.90
392.16	7810.37
392.36	6960.75
392.55	5586.86
392.75	4423.61
392.94	3723.79
393.13	3599.74
393.33	4346.37
393.52	5357.49
393.71	6806.28
393.91	7625.47
394.10	8124.00
394.29	9118.73
394.49	9699.18
394.68	10480.92
394.88	10434.11
395.07	10792.21
395.26	10747.74
395.46	10284.31
395.65	9951.96
395.84	8683.39
396.04	7449.93
396.23	6047.94
396.42	5046.20
396.62	4624.90
396.81	5619.63
397.00	7117.57
397.19	8933.82
397.39	10377.94
397.58	11861.84
397.77	12610.81
397.97	13165.51
398.16	13069.55
398.35	13493.19
398.55	14134.50
398.74	14623.67
398.93	15030.92
399.12	14537.07
399.32	13895.76
399.51	14417.70
399.70	15421.79
399.90	15316.47
400.09	15316.47
400.28	15066.03
400.47	15583.29
400.67	16240.98
400.86	16573.33
401.05	16699.72
401.24	16409.50
401.44	16582.70
401.63	16774.62
401.82	16926.75
402.01	16940.80
402.21	17081.23
402.40	17165.49
402.59	16425.88
402.78	15859.47
402.97	15602.01
403.17	16325.24
403.36	17018.04
403.55	17277.83
403.74	18090.00
403.93	17018.04
404.13	16025.65
404.32	15272.00
404.51	16194.17
404.70	17556.36
404.89	17561.04
405.09	17373.80
405.28	16554.61
405.47	16662.27
405.66	16404.81
405.85	16091.18
406.05	15995.22
406.24	16276.09
406.43	16402.47
406.62	17149.11
406.81	17530.61
407.00	16753.55
407.20	16116.93
407.39	16524.18
407.58	17188.89
407.77	18101.70
407.96	18523.00
408.15	18698.54
408.34	18899.83
408.54	19861.79
408.73	19997.54
408.92	19543.47
409.11	18857.70
409.30	18031.49
409.49	17083.57
409.68	15817.34
409.87	15431.15
410.07	16229.27
410.26	17724.88
410.45	18824.93
410.64	19061.32
410.83	19742.42
411.02	20276.06
411.21	21039.08
411.40	20826.09
411.59	20662.25
411.78	20933.75
411.98	20652.89
412.17	20912.69
412.36	20692.68
412.55	20563.95
412.74	20306.49
412.93	19606.67
413.12	19784.55
413.31	21888.69
413.50	21748.26
413.69	22010.40
413.88	21532.93
414.07	20936.09
414.26	21125.68
414.45	21954.22
414.64	21977.63
414.83	22113.38
415.02	21607.83
415.22	21273.13
415.41	22073.59
415.60	22803.84
415.79	23323.44
415.98	23768.14
416.17	24313.48
416.36	23695.58
416.55	23225.14
416.74	22501.91
416.93	21678.04
417.12	21867.63
417.31	21972.95
417.50	22190.62
417.69	23164.28
417.88	22899.80
418.07	22810.86
418.26	22707.88
418.45	22742.99
418.64	23571.54
418.83	24315.83
419.02	23756.44
419.21	23758.78
419.39	22668.09
419.58	21757.62
419.77	21848.90
419.96	22649.36
420.15	24191.78
420.34	24311.14
420.53	25593.76
420.72	25673.34
420.91	25748.23
421.10	25624.18
421.29	25160.76
421.48	24470.30
421.67	25626.53
421.86	24947.77
422.05	23707.29
422.24	21046.10
422.43	20194.14
422.61	22810.86
422.80	24854.15
422.99	24699.67
423.18	24121.56
423.37	23124.49
423.56	23477.91
423.75	23590.26
423.94	24409.45
424.13	22855.33
424.32	23510.68
424.50	23346.84
424.69	23058.96
424.88	23297.69
425.07	22895.12
425.26	22874.06
425.45	22525.32
425.64	22368.50
425.83	22160.19
426.01	23718.99
426.20	24336.89
426.39	24301.78
426.58	22583.83
426.77	20896.30
426.96	19917.96
427.15	20744.17
427.33	22347.44
427.52	23489.62
427.71	23372.59
427.90	23016.83
428.09	22946.61
428.28	22309.99
428.46	21830.18
428.65	21310.58
428.84	21909.75
429.03	22265.52
429.22	20908.01
429.40	19800.93
429.59	18080.64
429.78	15667.55
429.97	16123.95
430.16	16304.17
430.34	16573.33
430.53	16116.93
430.72	16697.38
430.91	18396.61
431.10	21413.56
431.28	25530.56
431.47	27676.83
431.66	28006.85
431.85	25483.75
432.03	23328.12
432.22	22377.86
432.41	23220.45
432.60	25736.53
432.79	26593.17
432.97	27555.13
433.16	27204.05
433.35	24849.47
433.54	22085.30
433.72	20570.97
433.91	21380.79
434.10	24123.90
434.28	25741.21
434.47	26874.03
434.66	26483.16
434.85	25654.61
435.03	25827.81
435.22	26438.69
435.41	27978.76
435.59	27971.74
435.78	28224.52
435.97	29259.04
436.16	28985.19
436.34	28701.99
436.53	28325.16
436.72	28608.37
436.90	27178.30
437.09	26675.09
437.28	26274.85
437.46	27136.17
437.65	27246.18
437.84	25717.81
438.02	23297.69
438.21	22906.82
438.40	24360.30
438.58	26338.05
438.77	26972.33
438.96	27241.50
439.14	28315.80
439.33	29123.29
439.52	29268.40
439.70	28957.11
439.89	27943.66
440.08	27187.66
440.26	27590.24
440.45	28540.49
440.63	30382.49
440.82	31735.32
441.01	31379.56
441.19	31126.78
441.38	31548.08
441.57	32840.06
441.75	33282.42
441.94	33551.58
442.12	32985.17
442.31	33560.94
442.50	34075.86
442.68	33670.95
442.87	32690.26
443.05	32540.47
443.24	33013.26
443.43	33240.29
443.61	34227.99
443.80	34799.08
443.98	32987.51
444.17	32577.92
444.35	34487.79
444.54	34806.11
444.73	34792.06
444.91	33132.62
445.10	31992.78
445.28	31152.53
445.47	29919.07
445.65	30195.25
445.84	31161.89
446.02	32198.75
446.21	32875.16
446.39	33156.03
446.58	33687.33
446.77	33769.25
446.95	34277.15
447.14	35281.24
447.32	35838.28
447.51	34822.49
447.69	33605.41
447.88	32929.00
448.06	33390.08
448.25	34548.65
448.43	34492.47
448.62	34113.31
448.80	33399.44
448.99	33963.51
449.17	34632.91
449.36	34455.03
449.54	35585.50
449.73	36364.90
449.91	36435.12
450.10	37645.18
450.28	37935.40
450.46	37956.47
450.65	37755.18
450.83	37340.91
451.02	36847.05
451.20	37046.00
451.39	36547.47
451.57	36325.11
451.76	36613.00
451.94	36334.48
452.13	35800.83
452.31	33514.13
452.49	32236.20
452.68	32730.05
452.86	32598.98
453.05	33104.54
453.23	34103.95
453.42	34895.05
453.60	35985.74
453.78	36088.72
453.97	35515.29
454.15	36123.83
454.34	34747.59
454.52	35079.95
454.70	34778.02
454.89	34473.75
455.07	35079.95
455.26	35566.78
455.44	37198.13
455.62	36861.10
455.81	37713.05
455.99	37570.28
456.17	36648.11
456.36	37251.97
456.54	38029.02
456.73	37846.46
456.91	38770.97
457.09	38532.24
457.28	39957.63
457.46	38312.23
457.64	37848.80
457.83	36741.73
458.01	35814.88
458.19	36697.26
458.38	36907.91
458.56	38342.66
458.74	38143.71
458.93	37511.77
459.11	37198.13
459.29	37088.13
459.48	37380.70
459.66	36996.85
459.84	37364.31
460.03	37982.21
460.21	38099.24
460.39	38738.21
460.57	38976.94
460.76	39592.50
460.94	39061.20
461.12	38541.60
461.31	38700.76
461.49	39042.48
461.67	38721.82
461.85	40212.74
462.04	39758.68
462.22	40079.33
462.40	40201.04
462.59	39892.09
462.77	39800.81
462.95	40048.91
463.13	39576.12
463.32	38902.04
463.50	38501.81
463.68	38988.64
463.86	39351.43
464.05	38389.47
464.23	37713.05
464.41	37481.34
464.59	36678.54
464.78	38506.49
464.96	38436.28
465.14	38022.00
465.32	38925.45
465.50	40116.78
465.69	40486.59
465.87	39302.28
466.05	38511.17
466.23	36980.46
466.41	35901.48
466.60	37170.05
466.78	36945.36
466.96	37493.04
467.14	38204.56
467.32	39028.43
467.51	38981.62
467.69	37191.11
467.87	37998.60
468.05	38532.24
468.23	38712.46
468.41	38539.26
468.60	38955.88
468.78	39426.32
468.96	38684.37
469.14	39824.22
469.32	39227.38
469.50	37682.62
469.69	37652.20
469.87	37216.86
470.05	37043.66
470.23	37619.43
470.41	38033.71
470.59	38466.70
470.77	38628.20
470.95	38988.64
471.14	39641.65
471.32	39363.13
471.50	41949.42
471.68	41691.96
471.86	42127.30
472.04	42279.44
472.22	42557.96
472.40	40208.06
472.58	40016.14
472.77	39779.74
472.95	40486.59
473.13	41315.14
473.31	40512.33
473.49	40713.62
473.67	41399.40
473.85	41853.46
474.03	42174.11
474.21	42822.44
474.39	43192.25
474.57	43676.74
474.75	43309.27
474.93	43117.35
475.12	42073.47
475.30	41961.12
475.48	42452.64
475.66	42602.43
475.84	42351.99
476.02	42014.96
476.20	41195.77
476.38	41982.19
476.56	43508.22
476.74	43856.96
476.92	43929.51
477.10	44542.74
477.28	45694.28
477.46	45986.85
477.64	46450.27
477.82	46630.49
478.00	46806.03
478.18	45918.97
478.36	45984.51
478.54	45799.60
478.72	46059.40
478.90	47119.66
479.08	47842.89
479.26	48687.82
479.44	48516.96
479.62	48465.47
479.80	48523.99
479.98	48823.58
480.16	48587.18
480.34	48222.06
480.52	48739.32
480.70	48914.86
480.88	48671.44
481.06	49397.01
481.24	50019.59
481.41	50452.59
481.59	51070.49
481.77	51026.02
481.95	50169.38
482.13	50445.57
482.31	50361.31
482.49	50798.99
482.67	50677.28
482.85	51103.26
483.03	51295.18
483.21	51767.97
483.39	51452.00
483.57	51358.38
483.74	51096.24
483.92	51227.31
484.10	51604.13
484.28	51952.87
484.46	52369.49
484.64	52985.05
484.82	52034.79
485.00	51395.82
485.18	50646.85
485.35	49991.50
485.53	47098.60
485.71	43414.60
485.89	42522.85
486.07	44058.24
486.25	47814.80
486.43	50365.99
486.61	50576.64
486.78	50534.51
486.96	50944.10
487.14	52397.57
487.32	52945.26
487.50	53703.59
487.68	54555.55
487.85	55025.99
488.03	54883.22
488.21	54602.36
488.39	53822.96
488.57	53453.15
488.75	53006.11
488.92	54094.46
489.10	55856.88
489.28	56839.91
489.46	57544.41
489.64	57680.16
489.81	57441.43
489.99	57504.62
490.17	57270.57
490.35	57609.95
490.53	56994.39
490.70	56872.68
490.88	56804.80
491.06	57411.00
491.24	57705.91
491.41	56757.99
491.59	55618.15
491.77	54663.21
491.95	55671.98
492.13	56807.14
492.30	57668.46
492.48	58543.82
492.66	58990.86
492.84	58693.61
493.01	58492.33
493.19	58110.82
493.37	58035.92
493.54	57726.97
493.72	58335.51
493.90	58913.62
494.08	59807.71
494.25	60013.68
494.43	60121.34
494.61	60346.03
494.79	60530.93
494.96	60273.48
495.14	59770.26
495.32	59063.42
495.49	58534.46
495.67	59302.15
495.85	60472.42
496.02	61071.60
496.20	61027.13
496.38	60622.22
496.55	60196.24
496.73	60884.36
496.91	60846.91
497.09	61352.46
497.26	61752.69
497.44	61123.09
497.62	60636.26
497.79	59756.22
497.97	58623.40
498.14	58850.43
498.32	59868.56
498.50	60694.77
498.67	61071.60
498.85	61083.30
499.03	61228.41
499.20	61254.16
499.38	61518.64
499.56	61359.48
499.73	60809.46
499.91	60580.09
500.08	60100.28
500.26	59597.06
500.44	59723.45
500.61	60449.02
500.79	60411.57
500.97	59983.25
501.14	59824.09
501.32	59632.17
501.49	59793.67
501.67	59927.08
501.84	60491.15
502.02	60629.24
502.20	60891.38
502.37	60975.64
502.55	61006.06
502.72	61666.09
502.90	62096.75
503.07	61818.23
503.25	61476.51
503.43	60671.37
503.60	60074.53
503.78	59288.11
503.95	60023.04
504.13	61188.63
504.30	62007.81
504.48	61792.48
504.65	61387.57
504.83	61415.66
505.01	61902.49
505.18	62181.01
505.36	62831.68
505.53	63035.31
505.71	63032.97
505.88	62990.84
506.06	62597.63
506.23	62262.93
506.41	61893.13
506.58	62164.63
506.76	62049.94
506.93	62042.92
507.11	61963.34
507.28	62157.61
507.46	61389.91
507.63	61052.87
507.81	60821.16
507.98	60999.04
508.16	61811.21
508.33	62115.48
508.50	62541.45
508.68	62812.96
508.85	63267.02
509.03	63229.57
509.20	63220.21
509.38	62408.04
509.55	61652.05
509.73	61790.14
509.90	62417.41
510.08	62492.30
510.25	62340.17
510.42	62150.59
510.60	62171.65
510.77	62506.35
510.95	62969.77
511.12	63075.10
511.30	63281.06
511.47	63641.51
511.64	63491.71
511.82	63339.58
511.99	62707.63
512.17	62251.23
512.34	61998.45
512.51	62021.86
512.69	62089.73
512.86	62281.66
513.04	62522.73
513.21	62768.49
513.38	62223.14
513.56	61719.93
513.73	61427.36
513.90	61511.62
514.08	61656.73
514.25	61958.66
514.43	62199.74
514.60	62176.33
514.77	62155.27
514.95	62375.28
515.12	62181.01
515.29	62534.43
515.47	62913.60
515.64	63093.82
515.81	62707.63
515.99	62223.14
516.16	60898.40
516.33	58887.88
516.51	57570.16
516.68	57055.24
516.85	56589.47
517.03	57055.24
517.20	59213.21
517.37	61549.07
517.54	62396.34
517.72	61874.40
517.89	59770.26
518.06	57724.63
518.24	57691.86
518.41	60016.02
518.58	61209.69
518.75	61375.87
518.93	61427.36
519.10	61261.18
519.27	61811.21
519.45	61846.32
519.62	62447.83
519.79	62817.64
519.96	62796.57
520.14	62145.90
520.31	61520.98
520.48	61389.91
520.65	61811.21
520.83	62623.37
521.00	63004.88
521.17	62592.95
521.34	62417.41
521.52	62394.00
521.69	63100.84
521.86	63557.25
522.03	63227.23
522.20	62312.08
522.38	61073.94
522.55	61254.16
522.72	61818.23
522.89	61703.54
523.07	62110.80
523.24	62223.14
523.41	63018.92
523.58	63426.18
523.75	63901.31
523.92	63538.52
524.10	63515.12
524.27	63545.54
524.44	63337.24
524.61	63175.74
524.78	63035.31
524.96	63051.69
525.13	63061.05
525.30	63187.44
525.47	63688.32
525.64	63639.17
525.81	62937.01
525.98	61797.16
526.16	60317.95
526.33	59681.32
526.50	59409.82
526.67	59079.80
526.84	59578.34
527.01	60561.36
527.18	61277.57
527.36	61975.05
527.53	62901.90
527.70	63276.38
527.87	62623.37
528.04	62136.54
528.21	62651.46
528.38	63194.46
528.55	63870.88
528.72	64018.33
528.89	64212.60
529.07	63898.97
529.24	63402.77
529.41	62841.04
529.58	62150.59
529.75	62274.63
529.92	62777.85
530.09	63035.31
530.26	63597.04
530.43	63763.21
530.60	63737.47
530.77	63927.05
530.94	64186.85
531.11	63608.74
531.28	63568.95
531.46	63248.30
531.63	63252.98
531.80	63299.79
531.97	62827.00
532.14	62213.78
532.31	61181.60
532.48	60671.37
532.65	60715.84
532.82	61504.60
532.99	62475.92
533.16	62777.85
533.33	63372.34
533.50	63145.31
533.67	62653.80
533.84	62129.52
534.01	62571.88
534.18	62466.56
534.35	62770.83
534.52	62630.40
534.69	62827.00
534.86	63126.59
535.03	63428.52
535.20	63648.53
535.37	64182.17
535.54	64008.97
535.71	63861.52
535.88	63512.78
536.05	63032.97
536.22	62670.18
536.38	62394.00
536.55	61886.10
536.72	61373.53
536.89	61340.76
537.06	62031.22
537.23	62845.72
537.40	62988.50
537.57	63138.29
537.74	62770.83
537.91	62873.81
538.08	62670.18
538.25	62922.96
538.42	63070.42
538.59	62770.83
538.75	62129.52
538.92	61893.13
539.09	61968.02
539.26	61787.80
539.43	61652.05
539.60	61787.80
539.77	62054.62
539.94	61717.59
540.11	61006.06
540.28	60559.02
540.44	60617.53
540.61	60757.97
540.78	60851.59
540.95	61483.53
541.12	61801.85
541.29	62012.49
541.46	62370.60
541.62	62386.98
541.79	62305.06
541.96	61567.79
542.13	61591.20
542.30	61961.00
542.47	62171.65
542.63	61836.95
542.80	61740.99
542.97	61680.14
543.14	61647.37
543.31	61621.62
543.48	62082.71
543.64	62915.94
543.81	63157.02
543.98	62969.77
544.15	62323.78
544.32	61883.76
544.48	61843.98
544.65	62494.64
544.82	62513.37
544.99	62155.27
545.16	62026.54
545.32	61745.67
545.49	62347.19
545.66	62899.56
545.83	62391.66
546.00	62246.55
546.16	61909.51
546.33	61911.85
546.50	61783.12
546.67	62260.59
546.83	61883.76
547.00	61963.34
547.17	61483.53
547.34	60818.82
547.50	60727.54
547.67	61038.83
547.84	61172.24
548.00	61586.52
548.17	62134.20
548.34	62010.15
548.51	61766.74
548.67	61865.04
548.84	61923.55
549.01	61867.38
549.18	61874.40
549.34	61881.42
549.51	61949.30
549.68	61785.46
549.84	61762.06
550.01	61441.40
550.18	61385.23
550.34	61347.78
550.51	61670.78
550.68	61691.84
550.84	61090.32
551.01	61237.78
551.18	61212.03
551.34	61382.89
551.51	61740.99
551.68	61970.36
551.84	62284.00
552.01	61848.66
552.18	61787.80
552.34	61048.19
552.51	60804.78
552.68	60552.00
552.84	61209.69
553.01	61429.70
553.18	61254.16
553.34	61125.43
553.51	61380.55
553.67	61743.33
553.84	61820.57
554.01	61684.82
554.17	61560.77
554.34	61640.35
554.51	61549.07
554.67	61801.85
554.84	61762.06
555.00	61387.57
555.17	61064.58
555.33	61322.04
555.50	61125.43
555.67	61160.54
555.83	61176.92
556.00	60945.21
556.16	60624.56
556.33	60530.93
556.50	60425.61
556.66	60233.69
556.83	60233.69
556.99	60310.92
557.16	60324.97
557.32	60671.37
557.49	61013.08
557.65	60781.37
557.82	60598.81
557.98	60523.91
558.15	60172.83
558.32	59487.06
558.48	58555.52
558.65	58850.43
558.81	59269.39
558.98	59568.97
559.14	59915.37
559.31	59767.92
559.47	60025.38
559.64	59442.59
559.80	59339.60
559.97	59304.49
560.13	59611.10
560.30	60488.80
560.46	60650.30
560.63	61242.46
560.79	61265.86
560.96	60692.43
561.12	59697.70
561.29	59086.82
561.45	58866.81
561.61	59540.89
561.78	59817.07
561.94	59636.85
562.11	59505.78
562.27	59456.63
562.44	59997.29
562.60	60219.64
562.77	60243.05
562.93	60214.96
563.10	60186.88
563.26	59676.64
563.42	59568.97
563.59	59386.41
563.75	59522.16
563.92	59353.65
564.08	59510.46
564.24	59709.41
564.41	59786.64
564.57	59700.04
564.74	59585.36
564.90	59531.53
565.07	59405.14
565.23	59082.14
565.39	58344.87
565.56	58293.38
565.72	58178.70
565.88	58379.98
566.05	58665.53
566.21	58651.48
566.38	58955.75
566.54	58812.98
566.70	59229.60
566.87	59435.56
567.03	59393.43
567.19	59704.73
567.36	59531.53
567.52	59243.64
567.68	59004.91
567.85	58513.39
568.01	57972.73
568.17	57841.66
568.34	57963.37
568.50	57801.87
568.66	58061.67
568.83	58274.66
568.99	58127.20
569.15	58468.92
569.32	58576.59
569.48	58417.43
569.64	58166.99
569.81	57712.93
569.97	57780.81
570.13	57804.21
570.30	57485.90
570.46	56954.60
570.62	56545.00
570.78	56343.72
570.95	56591.81
571.11	57146.52
571.27	57602.92
571.43	57609.95
571.60	57942.30
571.76	57939.96
571.92	58220.83
572.09	58356.58
572.25	58511.05
572.41	58258.27
572.57	58225.51
572.74	58134.23
572.90	57773.78
573.06	57794.85
573.22	58078.05
573.38	57923.58
573.55	57741.02
573.71	58113.16
573.87	57820.59
574.03	57832.30
574.20	57691.86
574.36	57291.63
574.52	57275.25
574.68	57446.11
574.84	57052.90
575.01	56549.68
575.17	56355.42
575.33	56718.20
575.49	56947.57
575.65	57085.67
575.82	56776.72
575.98	56804.80
576.14	56844.59
576.30	57176.95
576.46	57183.97
576.62	57069.28
576.79	57153.54
576.95	56886.72
577.11	56722.88
577.27	56912.47
577.43	56931.19
577.59	56306.27
577.75	56299.25
577.92	55641.56
578.08	55327.92
578.24	55611.13
578.40	56104.98
578.56	56149.45
578.72	56112.00
578.88	56348.40
579.04	56076.90
579.21	56432.66
579.37	56680.75
579.53	56690.12
579.69	56395.21
579.85	56566.07
580.01	56662.03
580.17	56350.74
580.33	55985.61
580.49	56126.05
580.65	56463.08
580.82	56317.97
580.98	56315.63
581.14	56229.03
581.30	56460.74
581.46	56444.36
581.62	56477.13
581.78	56598.83
581.94	56875.02
582.10	56549.68
582.26	56884.38
582.42	56680.75
582.58	56666.71
582.74	56676.07
582.90	56507.55
583.06	56598.83
583.22	56390.53
583.38	56271.16
583.54	56205.62
583.70	56231.37
583.86	56470.11
584.02	56102.64
584.18	56587.13
584.34	56388.19
584.50	55889.65
584.66	55922.42
584.82	55702.41
584.98	55580.70
585.14	55337.29
