SpectraSuite Data File
++++++++++++++++++++++++++++++++++++
Date: Mon Oct 07 14:53:36 GMT-05:00 2013
User: price-jones
Dark Spectrum Present: No
Reference Spectrum Present: No
Number of Sampled Component Spectra: 1
Spectrometers: USB2+H05261
Integration Time (usec): 100000 (USB2+H05261)
Spectra Averaged: 1 (USB2+H05261)
Boxcar Smoothing: 0 (USB2+H05261)
Correct for Electrical Dark: No (USB2+H05261)
Strobe/Lamp Enabled: No (USB2+H05261)
Correct for Detector Non-linearity: No (USB2+H05261)
Correct for Stray Light: No (USB2+H05261)
Number of Pixels in Processed Spectrum: 2048
>>>>>Begin Processed Spectral Data<<<<<
365.73	0.00
365.92	0.00
366.12	0.00
366.32	0.00
366.52	0.00
366.72	0.00
366.91	0.00
367.11	0.00
367.31	0.00
367.51	0.00
367.70	0.00
367.90	0.00
368.10	0.00
368.30	0.00
368.49	0.00
368.69	0.00
368.89	0.00
369.09	0.00
369.28	0.00
369.48	0.00
369.68	0.00
369.87	0.00
370.07	0.00
370.27	0.00
370.47	858.98
370.66	3597.40
370.86	4332.33
371.06	4765.33
371.25	4613.20
371.45	4264.46
371.65	3864.22
371.84	3627.83
372.04	3737.84
372.24	4259.78
372.44	4498.51
372.63	4346.37
372.83	3906.35
373.03	3438.25
373.22	3442.93
373.42	3405.48
373.62	3943.80
373.81	4440.00
374.01	4477.44
374.21	3857.20
374.40	3604.42
374.60	3737.84
374.79	4308.93
374.99	4980.66
375.19	5268.55
375.38	5406.64
375.58	5022.79
375.78	5004.07
375.97	4952.57
376.17	5256.84
376.37	5097.69
376.56	5350.46
376.76	5628.99
376.95	6113.48
377.15	6342.85
377.35	6717.34
377.54	6869.47
377.74	7265.02
377.93	7112.89
378.13	6869.47
378.33	6420.09
378.52	6204.76
378.72	5949.64
378.91	5743.67
379.11	5589.20
379.31	5481.53
379.50	5294.29
379.70	5865.38
379.89	6457.54
380.09	6899.90
380.28	7073.10
380.48	7094.16
380.68	7091.82
380.87	6848.41
381.07	6354.55
381.26	5741.33
381.46	5453.45
381.65	5205.35
381.85	5149.18
382.04	4840.23
382.24	4526.60
382.43	4400.21
382.63	4168.49
382.83	4250.41
383.02	4245.73
383.22	4245.73
383.41	4250.41
383.61	4709.16
383.80	5242.80
384.00	6050.28
384.19	6693.93
384.39	6974.80
384.58	6960.75
384.78	6878.83
384.97	7035.65
385.17	6427.11
385.36	6221.14
385.56	5837.30
385.75	6076.03
385.95	6686.91
386.14	7288.43
386.34	7091.82
386.53	6890.54
386.72	6567.54
386.92	6583.93
387.11	6827.34
387.31	7119.91
387.50	7119.91
387.70	6806.28
387.89	6628.40
388.09	6860.11
388.28	6850.75
388.48	7012.24
388.67	7492.05
388.86	8238.69
389.06	8702.11
389.25	9043.83
389.45	9348.10
389.64	9195.96
389.84	9193.62
390.03	8954.89
390.22	8933.82
390.42	9352.78
390.61	9863.02
390.81	10588.58
391.00	11005.20
391.19	10815.62
391.39	10368.57
391.58	9839.61
391.78	9284.91
391.97	8828.50
392.16	8386.14
392.36	7723.77
392.55	6040.92
392.75	5062.58
392.94	4086.58
393.13	3899.33
393.33	4512.55
393.52	5923.90
393.71	7288.43
393.91	8409.54
394.10	8865.95
394.29	9731.95
394.49	10691.57
394.68	11314.15
394.88	11276.70
395.07	11950.78
395.26	11325.85
395.46	11482.67
395.65	10588.58
395.84	9312.99
396.04	7906.33
396.23	6485.62
396.42	5380.89
396.62	5090.67
396.81	5731.97
397.00	7480.35
397.19	9544.70
397.39	11602.04
397.58	12943.16
397.77	13657.03
397.97	14431.74
398.16	14249.18
398.35	14616.65
398.55	15297.74
398.74	15506.05
398.93	16126.29
399.12	16016.29
399.32	15428.81
399.51	15683.93
399.70	17048.46
399.90	16744.19
400.09	17046.12
400.28	16346.30
400.47	16720.79
400.67	17432.31
400.86	17788.07
401.05	17528.27
401.24	17874.67
401.44	18246.82
401.63	18427.04
401.82	18157.88
402.01	18354.48
402.21	18810.89
402.40	18593.22
402.59	18279.58
402.78	17453.37
402.97	16592.06
403.17	17434.65
403.36	18342.78
403.55	19164.31
403.74	19665.18
403.93	18637.69
404.13	17186.55
404.32	16919.73
404.51	17593.81
404.70	18995.79
404.89	18871.74
405.09	18668.11
405.28	17862.97
405.47	18417.68
405.66	18143.83
405.85	17855.95
406.05	17158.47
406.24	17420.61
406.43	18029.15
406.62	18766.42
406.81	19105.79
407.00	18438.74
407.20	17577.42
407.39	18075.96
407.58	18927.91
407.77	19522.41
407.96	20168.40
408.15	20313.51
408.34	20479.69
408.54	21474.42
408.73	21675.70
408.92	21128.02
409.11	20893.96
409.30	19634.75
409.49	18551.09
409.68	17308.26
409.87	16807.39
410.07	17614.87
410.26	19049.62
410.45	20379.04
410.64	21025.03
410.83	21364.41
411.02	22431.69
411.21	23140.88
411.40	22663.41
411.59	22375.52
411.78	22249.13
411.98	21984.65
412.17	22424.67
412.36	22089.98
412.55	22134.45
412.74	22260.84
412.93	21364.41
413.12	21467.39
413.31	23669.84
413.50	23775.16
413.69	24180.07
413.88	23522.38
414.07	22487.87
414.26	23108.11
414.45	23733.03
414.64	23763.46
414.83	23864.10
415.02	23597.28
415.22	23304.71
415.41	24170.71
415.60	24748.82
415.79	25645.25
415.98	26230.38
416.17	26663.38
416.36	25539.93
416.55	25146.72
416.74	24493.71
416.93	23360.89
417.12	23866.44
417.31	23960.06
417.50	24435.19
417.69	25359.70
417.88	25240.34
418.07	24805.00
418.26	24292.42
418.45	24671.59
418.64	25289.49
418.83	26565.08
419.02	26038.46
419.21	26061.87
419.39	24713.72
419.58	23772.82
419.77	23910.91
419.96	24456.26
420.15	25685.04
420.34	27042.55
420.53	27681.52
420.72	28268.99
420.91	27875.78
421.10	27896.85
421.29	27239.15
421.48	26630.62
421.67	27742.37
421.86	27131.49
422.05	25439.28
422.24	22677.45
422.43	22354.46
422.61	24685.63
422.80	26520.61
422.99	27021.48
423.18	26033.78
423.37	25275.45
423.56	25474.39
423.75	25799.73
423.94	26298.26
424.13	25240.34
424.32	25216.93
424.50	25551.63
424.69	24809.68
424.88	25577.37
425.07	25048.41
425.26	25448.64
425.45	24650.52
425.64	24060.71
425.83	24123.90
426.01	25263.74
426.20	26441.03
426.39	26340.39
426.58	24264.33
426.77	22691.49
426.96	21530.59
427.15	22155.51
427.33	24318.17
427.52	25448.64
427.71	25160.76
427.90	25003.94
428.09	25137.35
428.28	24271.36
428.46	23779.84
428.65	22885.76
428.84	23690.90
429.03	24339.23
429.22	22862.35
429.40	21855.92
429.59	19644.12
429.78	17336.35
429.97	17401.88
430.16	17827.86
430.34	17694.45
430.53	17682.75
430.72	18036.17
430.91	20109.88
431.10	23634.73
431.28	27899.19
431.47	30103.97
431.66	30382.49
431.85	27534.06
432.03	25486.09
432.22	24170.71
432.41	25631.21
432.60	27756.41
432.79	29036.69
432.97	29858.21
433.16	29294.14
433.35	26707.85
433.54	24301.78
433.72	22679.79
433.91	22890.44
434.10	25673.34
434.28	27714.28
434.47	29085.84
434.66	28624.75
434.85	28177.71
435.03	27978.76
435.22	28751.14
435.41	30082.91
435.59	30197.59
435.78	30876.35
435.97	31590.21
436.16	31805.54
436.34	31393.61
436.53	30642.29
436.72	30625.91
436.90	29010.94
437.09	28966.47
437.28	28552.20
437.46	29041.37
437.65	29364.36
437.84	27435.76
438.02	25146.72
438.21	24936.07
438.40	26686.79
438.58	28650.50
438.77	29315.21
438.96	29584.37
439.14	31180.62
439.33	31522.34
439.52	32084.06
439.70	31197.00
439.89	30738.26
440.08	30113.33
440.26	29886.30
440.45	30892.73
440.63	32912.61
440.82	34494.82
441.01	34232.68
441.19	33710.74
441.38	34050.11
441.57	35381.88
441.75	36013.82
441.94	36322.77
442.12	35655.72
442.31	36910.25
442.50	36208.09
442.68	35981.06
442.87	35641.68
443.05	35182.93
443.24	35627.63
443.43	36306.39
443.61	36905.57
443.80	37699.01
443.98	35393.58
444.17	35484.86
444.35	37544.53
444.54	37989.24
444.73	37474.32
444.91	36273.62
445.10	34546.31
445.28	33455.62
445.47	32339.18
445.65	33347.95
445.84	34490.13
446.02	35007.39
446.21	35295.28
446.39	35749.34
446.58	35957.65
446.77	36301.71
446.95	36999.19
447.14	38501.81
447.32	38557.99
447.51	37577.30
447.69	36402.35
447.88	35971.69
448.06	36156.60
448.25	37532.83
448.43	37469.64
448.62	36718.32
448.80	36577.89
448.99	36811.95
449.17	37284.73
449.36	37104.51
449.54	38824.81
449.73	38880.98
449.91	39730.59
450.10	40381.26
450.28	41118.53
450.46	40664.47
450.65	40636.38
450.83	40690.21
451.02	39777.40
451.20	39943.58
451.39	39498.88
451.57	39330.36
451.76	39604.20
451.94	38911.41
452.13	38576.71
452.31	36540.44
452.49	35021.44
452.68	35569.12
452.86	35629.98
453.05	36287.67
453.23	36989.83
453.42	38094.56
453.60	38733.53
453.78	39423.98
453.97	38796.72
454.15	38958.22
454.34	37839.44
454.52	38979.28
454.70	37223.88
454.89	37832.42
455.07	38270.10
455.26	38548.62
455.44	39672.08
455.62	40460.84
455.81	40825.96
455.99	40933.63
456.17	39798.47
456.36	40250.19
456.54	41404.08
456.73	41078.74
456.91	41694.30
457.09	42403.49
457.28	42962.87
457.46	41347.90
457.64	40832.99
457.83	40123.80
458.01	39000.35
458.19	39758.68
458.38	39739.96
458.56	41235.56
458.74	41282.37
458.93	40552.12
459.11	40858.73
459.29	39988.05
459.48	40627.02
459.66	40238.49
459.84	40706.60
460.03	41062.36
460.21	41153.64
460.39	41977.51
460.57	42059.43
460.76	42323.91
460.94	43105.65
461.12	41785.58
461.31	42635.20
461.49	42183.48
461.67	42012.62
461.85	43349.06
462.04	42892.66
462.22	43592.48
462.40	42808.40
462.59	42974.58
462.77	43192.25
462.95	42976.92
463.13	42759.25
463.32	42607.11
463.50	42134.32
463.68	42337.95
463.86	42171.77
464.05	41659.20
464.23	40334.45
464.41	40563.82
464.59	40282.96
464.78	41631.11
464.96	41390.03
465.14	41469.61
465.32	42120.28
465.50	43115.01
465.69	43739.93
465.87	42635.20
466.05	42036.02
466.23	40058.27
466.41	39002.69
466.60	40313.39
466.78	40154.23
466.96	41141.94
467.14	41911.97
467.32	42167.09
467.51	42199.86
467.69	40175.30
467.87	41425.14
468.05	41516.42
468.23	41638.13
468.41	41937.72
468.60	41762.18
468.78	41993.89
468.96	41535.15
469.14	42693.71
469.32	42480.72
469.50	40814.26
469.69	41191.09
469.87	40912.56
470.05	40297.00
470.23	40648.08
470.41	40870.43
470.59	41359.61
470.77	41581.96
470.95	42080.49
471.14	42871.59
471.32	42639.88
471.50	45301.07
471.68	45385.33
471.86	45532.78
472.04	45432.14
472.22	45755.13
472.40	43934.20
472.58	43145.44
472.77	42890.32
472.95	44011.43
473.13	44479.54
473.31	43667.37
473.49	43629.93
473.67	44907.86
473.85	44931.26
474.03	46162.39
474.21	45830.03
474.39	46223.24
474.57	46735.82
474.75	46394.10
474.93	46415.16
475.12	45298.73
475.30	45570.23
475.48	45429.80
475.66	46075.79
475.84	45998.55
476.02	45446.18
476.20	44610.61
476.38	45521.08
476.56	47136.05
476.74	47267.12
476.92	47426.28
477.10	48112.05
477.28	49289.34
477.46	49052.95
477.64	49532.76
477.82	49673.19
478.00	49516.37
478.18	49041.24
478.36	49139.55
478.54	48713.57
478.72	49551.48
478.90	50361.31
479.08	51234.33
479.26	51674.35
479.44	51257.73
479.62	51084.53
479.80	51119.64
479.98	51433.27
480.16	51515.19
480.34	51440.29
480.52	51739.88
480.70	51683.71
480.88	51892.02
481.06	52746.31
481.24	52673.76
481.41	53200.38
481.59	53804.24
481.77	53780.83
481.95	53347.83
482.13	52994.41
482.31	53205.06
482.49	53642.74
482.67	53516.35
482.85	53684.87
483.03	54281.70
483.21	54646.83
483.39	54681.94
483.57	53792.53
483.74	53478.90
483.92	53626.35
484.10	54115.53
484.28	54667.89
484.46	55105.57
484.64	55377.08
484.82	54475.97
485.00	54202.13
485.18	53612.31
485.35	53008.45
485.53	50033.63
485.71	47255.42
485.89	45663.85
486.07	47660.33
486.25	51363.06
486.43	53174.63
486.61	53518.69
486.78	53591.25
486.96	53429.75
487.14	54941.74
487.32	55440.27
487.50	56367.12
487.68	56931.19
487.85	57322.06
488.03	57235.46
488.21	57242.48
488.39	56343.72
488.57	55994.98
488.75	55709.43
488.92	56151.79
489.10	58085.07
489.28	58951.07
489.46	59833.46
489.64	59538.55
489.81	59732.81
489.99	59580.68
490.17	59613.44
490.35	59608.76
490.53	59304.49
490.70	59171.08
490.88	59000.22
491.06	59842.82
491.24	59749.20
491.41	58986.18
491.59	57851.02
491.77	57048.22
491.95	57731.65
492.13	59037.67
492.30	59842.82
492.48	60645.62
492.66	60942.87
492.84	60935.85
493.01	60877.33
493.19	60163.47
493.37	60198.58
493.54	59753.88
493.72	60324.97
493.90	61069.26
494.08	61652.05
494.25	62021.86
494.43	62082.71
494.61	62457.20
494.79	62489.96
494.96	62225.48
495.14	62085.05
495.32	61202.67
495.49	60612.85
495.67	61506.94
495.85	62361.23
496.02	63058.71
496.20	62941.69
496.38	62478.26
496.55	62312.08
496.73	62787.21
496.91	62834.02
497.09	63451.92
497.26	63475.33
497.44	63042.33
497.62	62663.16
497.79	62073.35
497.97	60921.80
498.14	60851.59
498.32	61893.13
498.50	62604.65
498.67	63325.53
498.85	63180.42
499.03	63234.25
499.20	63681.30
499.38	63566.61
499.56	63304.47
499.73	62801.25
499.91	62485.28
500.08	62117.82
500.26	61675.46
500.44	62075.69
500.61	62429.11
500.79	62408.04
500.97	61996.11
501.14	62019.52
501.32	61750.35
501.49	61979.73
501.67	61925.89
501.84	62401.02
502.02	62759.12
502.20	63084.46
502.37	63098.50
502.55	63178.08
502.72	63629.80
502.90	64034.72
503.07	63695.34
503.25	63437.88
503.43	62599.97
503.60	62017.17
503.78	61471.83
503.95	62122.50
504.13	63089.14
504.30	64074.51
504.48	63678.96
504.65	63508.10
504.83	63442.56
505.01	63936.41
505.18	64261.75
505.36	64788.37
505.53	64865.61
505.71	64968.59
505.88	65027.10
506.06	64603.47
506.23	64254.73
506.41	63758.53
506.58	64109.61
506.76	63994.93
506.93	64025.35
507.11	63950.46
507.28	64058.12
507.46	63704.70
507.63	63014.24
507.81	62855.09
507.98	63384.05
508.16	63793.64
508.33	64282.81
508.50	64493.46
508.68	64786.03
508.85	65183.92
509.03	65235.41
509.20	64968.59
509.38	64343.67
509.55	63798.32
509.73	63779.60
509.90	64322.60
510.08	64807.09
510.25	64367.07
510.42	64367.07
510.60	64172.81
510.77	64423.25
510.95	64891.35
511.12	65155.83
511.30	65291.58
511.47	65535.00
511.64	65406.27
511.82	65200.30
511.99	64605.81
512.17	64287.49
512.34	63901.31
512.51	63983.22
512.69	64177.49
512.86	64287.49
513.04	64615.17
513.21	64587.08
513.38	64434.95
513.56	63749.17
513.73	63339.58
513.90	63559.59
514.08	63561.93
514.25	63927.05
514.43	64128.34
514.60	64051.10
514.77	64420.90
514.95	64474.74
515.12	64207.92
515.29	64362.39
515.47	64825.82
515.64	64994.34
515.81	64821.14
515.99	64226.64
516.16	62894.88
516.33	61132.45
516.51	59716.43
516.68	59210.87
516.85	58848.09
517.03	59023.63
517.20	61254.16
517.37	63384.05
517.54	64331.96
517.72	63945.78
517.89	61787.80
518.06	59875.58
518.24	59966.87
518.41	61787.80
518.58	63007.22
518.75	63316.17
518.93	63288.09
519.10	63210.85
519.27	63620.44
519.45	63941.10
519.62	64577.72
519.79	64694.75
519.96	64779.01
520.14	64343.67
520.31	63627.46
520.48	63458.94
520.65	63856.84
520.83	64556.66
521.00	65055.19
521.17	64748.58
521.34	64540.27
521.52	64598.79
521.69	65034.13
521.86	65368.82
522.03	65179.24
522.20	64207.92
522.38	63217.87
522.55	63274.04
522.72	63756.19
522.89	63852.15
523.07	64102.59
523.24	64397.50
523.41	65020.08
523.58	65317.33
523.75	65535.00
523.92	65535.00
524.10	65535.00
524.27	65535.00
524.44	65406.27
524.61	65235.41
524.78	65141.79
524.96	65048.17
525.13	65144.13
525.30	65298.61
525.47	65535.00
525.64	65535.00
525.81	65113.70
525.98	63721.08
526.16	62398.68
526.33	61846.32
526.50	61794.82
526.67	61008.40
526.84	61628.65
527.01	62698.27
527.18	63217.87
527.36	64217.28
527.53	64860.93
527.70	65085.62
527.87	64720.49
528.04	64334.31
528.21	64626.87
528.38	65197.96
528.55	65535.00
528.72	65535.00
528.89	65535.00
529.07	65535.00
529.24	65471.81
529.41	64987.31
529.58	64308.56
529.75	64460.69
529.92	64596.45
530.09	65186.26
530.26	65535.00
530.43	65535.00
530.60	65535.00
530.77	65535.00
530.94	65535.00
531.11	65535.00
531.28	65333.71
531.46	65179.24
531.63	65336.05
531.80	65361.80
531.97	64942.84
532.14	64140.04
532.31	63325.53
532.48	62773.17
532.65	62824.66
532.82	63592.36
532.99	64526.23
533.16	64844.54
533.33	65394.57
533.50	65104.34
533.67	64615.17
533.84	64144.72
534.01	64409.20
534.18	64402.18
534.35	64977.95
534.52	64629.21
534.69	64720.49
534.86	65167.54
535.03	65291.58
535.20	65535.00
535.37	65535.00
535.54	65535.00
535.71	65535.00
535.88	65471.81
536.05	64853.90
536.22	64612.83
536.38	64432.61
536.55	63971.52
536.72	63543.20
536.89	63353.62
537.06	64175.15
537.23	64788.37
537.40	65076.26
537.57	65045.83
537.74	64839.86
537.91	64725.17
538.08	64729.86
538.25	64928.80
538.42	65085.62
538.59	64942.84
538.75	64320.26
538.92	64214.94
539.09	63917.69
539.26	63669.59
539.43	63575.97
539.60	63756.19
539.77	63774.92
539.94	63852.15
540.11	63227.23
540.28	62796.57
540.44	62761.47
540.61	62913.60
540.78	62979.14
540.95	63653.21
541.12	63950.46
541.29	64102.59
541.46	64385.80
541.62	64418.56
541.79	64308.56
541.96	63657.89
542.13	63590.01
542.30	64008.97
542.47	64140.04
542.63	63908.33
542.80	63749.17
542.97	63688.32
543.14	63730.45
543.31	63791.30
543.48	64151.74
543.64	64800.07
543.81	65233.07
543.98	65010.72
544.15	64568.36
544.32	63905.99
544.48	63875.56
544.65	64280.47
544.82	64755.60
544.99	64355.37
545.16	64257.07
545.32	63723.43
545.49	64465.38
545.66	64984.97
545.83	64671.34
546.00	64100.25
546.16	63838.11
546.33	63983.22
546.50	63992.59
546.67	64446.65
546.83	64088.55
547.00	64179.83
547.17	63398.09
547.34	63072.76
547.50	62932.32
547.67	63351.28
547.84	63428.52
548.00	63751.51
548.17	64285.15
548.34	63920.03
548.51	63924.71
548.67	63978.54
548.84	64015.99
549.01	64175.15
549.18	64060.46
549.34	63894.28
549.51	64151.74
549.68	63905.99
549.84	63484.69
550.01	63674.27
550.18	63281.06
550.34	63536.18
550.51	63447.24
550.68	63632.14
550.84	63379.37
551.01	63585.33
551.18	63182.76
551.34	63501.07
551.51	63758.53
551.68	63905.99
551.84	63952.80
552.01	63945.78
552.18	63777.26
552.34	63210.85
552.51	62717.00
552.68	62623.37
552.84	63210.85
553.01	63419.16
553.18	63157.02
553.34	63215.53
553.51	63332.56
553.67	63559.59
553.84	63908.33
554.01	63554.91
554.17	63524.48
554.34	63566.61
554.51	63704.70
554.67	63948.12
554.84	63831.09
555.00	63304.47
555.17	63341.92
555.33	63229.57
555.50	63257.66
555.67	63267.02
555.83	63114.89
556.00	62913.60
556.16	62831.68
556.33	62405.70
556.50	62466.56
556.66	62471.24
556.83	62166.97
556.99	62370.60
557.16	62464.22
557.32	62688.91
557.49	62955.73
557.65	62831.68
557.82	62784.87
557.98	62789.55
558.15	62326.13
558.32	61726.95
558.48	60872.65
558.65	60942.87
558.81	61352.46
558.98	61659.07
559.14	61907.17
559.31	61801.85
559.47	61893.13
559.64	61759.72
559.80	61595.88
559.97	61403.95
560.13	61778.44
560.30	62646.78
560.46	63032.97
560.63	63311.49
560.79	63131.27
560.96	62829.34
561.12	61860.36
561.29	61113.73
561.45	61137.13
561.61	61659.07
561.78	62094.41
561.94	62068.67
562.11	61792.48
562.27	61663.75
562.44	62066.33
562.60	62424.43
562.77	62342.51
562.93	62204.42
563.10	62059.30
563.26	61722.27
563.42	61762.06
563.59	61834.61
563.75	61572.47
563.92	61593.54
564.08	61659.07
564.24	61764.40
564.41	61900.15
564.57	61740.99
564.74	61630.99
564.90	61659.07
565.07	61357.14
565.23	61041.17
565.39	60793.07
565.56	60500.51
565.72	60280.50
565.88	60491.15
566.05	60697.11
566.21	60891.38
566.38	60959.25
566.54	61057.56
566.70	61392.25
566.87	61883.76
567.03	61544.39
567.19	61937.60
567.36	61626.31
567.52	61289.27
567.68	61237.78
567.85	60662.00
568.01	60406.89
568.17	60018.36
568.34	60287.52
568.50	60179.85
568.66	60076.87
568.83	60537.96
568.99	60692.43
569.15	60706.47
569.32	60643.28
569.48	60463.06
569.64	60530.93
569.81	60032.40
569.97	60214.96
570.13	60067.51
570.30	59533.87
570.46	59161.72
570.62	58850.43
570.78	58717.02
570.95	58997.88
571.11	59327.90
571.27	59796.01
571.43	59966.87
571.60	60203.26
571.76	60170.49
571.92	60418.59
572.09	60603.49
572.25	60690.09
572.41	60615.19
572.57	60336.67
572.74	60446.68
572.90	60037.08
573.06	60170.49
573.22	60224.32
573.38	60236.03
573.55	60140.07
573.71	60355.39
573.87	60168.15
574.03	60062.83
574.20	60039.42
574.36	59833.46
574.52	59870.90
574.68	59475.35
574.84	59199.17
575.01	58993.20
575.17	58768.51
575.33	59023.63
575.49	59114.91
575.65	59119.59
575.82	58922.99
575.98	58831.71
576.14	59007.25
576.30	59316.20
576.46	59465.99
576.62	59421.52
576.79	59370.03
576.95	58913.62
577.11	59051.72
577.27	59262.36
577.43	59117.25
577.59	59009.59
577.75	58440.84
577.92	58159.97
578.08	57656.76
578.24	57979.75
578.40	58272.32
578.56	58518.07
578.72	58595.31
578.88	58667.87
579.04	58712.34
579.21	58752.13
579.37	58780.21
579.53	59054.06
579.69	58885.54
579.85	59007.25
580.01	58878.52
580.17	58363.60
580.33	58298.06
580.49	58431.47
580.65	58599.99
580.82	58859.79
580.98	58742.77
581.14	58745.11
581.30	58827.02
581.46	58934.69
581.62	58930.01
581.78	58904.26
581.94	59030.65
582.10	59072.78
582.26	58955.75
582.42	59018.95
582.58	58890.22
582.74	58885.54
582.90	59068.10
583.06	59032.99
583.22	58810.64
583.38	58607.01
583.54	58588.29
583.70	58548.50
583.86	58684.25
584.02	58422.11
584.18	58742.77
584.34	58305.09
584.50	58625.74
584.66	58405.73
584.82	58035.92
584.98	58066.35
585.14	57736.34
