SpectraSuite Data File
++++++++++++++++++++++++++++++++++++
Date: Mon Oct 07 14:53:26 GMT-05:00 2013
User: price-jones
Dark Spectrum Present: No
Reference Spectrum Present: No
Number of Sampled Component Spectra: 1
Spectrometers: USB2+H05261
Integration Time (usec): 100000 (USB2+H05261)
Spectra Averaged: 1 (USB2+H05261)
Boxcar Smoothing: 0 (USB2+H05261)
Correct for Electrical Dark: No (USB2+H05261)
Strobe/Lamp Enabled: No (USB2+H05261)
Correct for Detector Non-linearity: No (USB2+H05261)
Correct for Stray Light: No (USB2+H05261)
Number of Pixels in Processed Spectrum: 2048
>>>>>Begin Processed Spectral Data<<<<<
365.73	0.00
365.92	0.00
366.12	0.00
366.32	0.00
366.52	0.00
366.72	0.00
366.91	0.00
367.11	0.00
367.31	0.00
367.51	0.00
367.70	0.00
367.90	0.00
368.10	0.00
368.30	0.00
368.49	0.00
368.69	0.00
368.89	0.00
369.09	0.00
369.28	0.00
369.48	0.00
369.68	0.00
369.87	0.00
370.07	0.00
370.27	0.00
370.47	552.37
370.66	2799.28
370.86	3206.53
371.06	3510.80
371.25	3595.06
371.45	3236.96
371.65	2869.50
371.84	2654.17
372.04	2885.88
372.24	3171.43
372.44	3398.46
372.63	3260.37
372.83	3045.04
373.03	2593.31
373.22	2457.56
373.42	2656.51
373.62	3112.91
373.81	3379.73
374.01	3307.18
374.21	3056.74
374.40	2808.64
374.60	2895.24
374.79	3173.77
374.99	3721.45
375.19	3990.61
375.38	3997.64
375.58	3894.65
375.78	3595.06
375.97	3829.12
376.17	3911.04
376.37	3948.48
376.56	4039.76
376.76	4306.59
376.95	4573.41
377.15	4931.51
377.35	4999.38
377.54	5294.29
377.74	5408.98
377.93	5385.57
378.13	5231.10
378.33	5093.01
378.52	4652.98
378.72	4369.78
378.91	4250.41
379.11	4358.08
379.31	4105.30
379.50	3953.16
379.70	4381.48
379.89	4833.21
380.09	5198.33
380.28	5320.04
380.48	5317.70
380.68	5310.68
380.87	4950.23
381.07	4863.63
381.26	4322.97
381.46	4109.98
381.65	3962.53
381.85	3765.92
382.04	3684.00
382.24	3454.63
382.43	3222.92
382.63	3248.66
382.83	3222.92
383.02	3241.64
383.22	3251.00
383.41	3208.87
383.61	3609.11
383.80	3936.78
384.00	4477.44
384.19	4961.94
384.39	5188.97
384.58	5158.54
384.78	5135.14
384.97	5090.67
385.17	4819.16
385.36	4685.75
385.56	4416.59
385.75	4559.36
385.95	4971.30
386.14	5390.25
386.34	5406.64
386.53	5214.71
386.72	4767.67
386.92	5053.22
387.11	5193.65
387.31	5500.26
387.50	5233.44
387.70	5048.54
387.89	5029.81
388.09	5163.22
388.28	5142.16
388.48	5394.93
388.67	5760.06
388.86	6267.95
389.06	6583.93
389.25	6817.98
389.45	7045.01
389.64	7063.74
389.84	6939.69
390.03	6773.51
390.22	6810.96
390.42	7136.29
390.61	7499.08
390.81	8032.72
391.00	7978.89
391.19	8044.42
391.39	7817.39
391.58	7300.13
391.78	7180.76
391.97	6705.63
392.16	6263.27
392.36	5874.74
392.55	4723.20
392.75	3882.95
392.94	3016.95
393.13	2944.39
393.33	3382.07
393.52	4521.92
393.71	5551.75
393.91	6204.76
394.10	6551.16
394.29	7382.05
394.49	7934.42
394.68	8559.34
394.88	8620.19
395.07	9011.06
395.26	8840.20
395.46	8491.46
395.65	8147.40
395.84	7159.70
396.04	6033.90
396.23	4856.61
396.42	4098.28
396.62	3922.74
396.81	4519.57
397.00	5841.98
397.19	7063.74
397.39	8751.26
397.58	9743.65
397.77	10331.12
397.97	11033.29
398.16	10846.04
398.35	11204.14
398.55	11634.80
398.74	11838.43
398.93	12353.35
399.12	11885.24
399.32	11681.61
399.51	11808.00
399.70	12690.38
399.90	12346.33
400.09	12259.73
400.28	12500.80
400.47	12472.71
400.67	13231.05
400.86	13500.21
401.05	13734.26
401.24	13556.38
401.44	13898.10
401.63	13933.21
401.82	14029.17
402.01	13717.88
402.21	14394.29
402.40	14235.14
402.59	13661.71
402.78	12980.61
402.97	12575.70
403.17	13221.69
403.36	14005.77
403.55	14597.92
403.74	14839.00
403.93	13980.02
404.13	12896.35
404.32	12681.02
404.51	13217.01
404.70	14429.40
404.89	14567.49
405.09	14010.45
405.28	13570.43
405.47	13638.30
405.66	13607.87
405.85	13458.08
406.05	13207.64
406.24	13172.54
406.43	13647.66
406.62	14384.93
406.81	14230.46
407.00	13902.78
407.20	13352.76
407.39	13469.78
407.58	14251.52
407.77	14663.46
407.96	15274.34
408.15	15494.35
408.34	15573.92
408.54	16168.42
408.73	16346.30
408.92	16102.89
409.11	15529.45
409.30	14595.58
409.49	13919.17
409.68	12966.57
409.87	12688.04
410.07	13577.45
410.26	14263.22
410.45	15531.80
410.64	15995.22
410.83	16056.08
411.02	16695.04
411.21	17224.00
411.40	17200.60
411.59	17226.34
411.78	16737.17
411.98	16776.96
412.17	17331.67
412.36	16802.71
412.55	16685.68
412.74	16659.93
412.93	16184.80
413.12	16245.66
413.31	17671.04
413.50	18003.40
413.69	18562.79
413.88	17666.36
414.07	17099.95
414.26	17102.29
414.45	18155.54
414.64	17872.33
414.83	18197.67
415.02	17558.70
415.22	17579.76
415.41	18043.19
415.60	18867.06
415.79	19241.54
415.98	19882.85
416.17	19903.92
416.36	19367.93
416.55	18958.34
416.74	18925.57
416.93	17867.65
417.12	17865.31
417.31	17834.88
417.50	18291.29
417.69	19208.78
417.88	18979.40
418.07	18923.23
418.26	18101.70
418.45	18389.59
418.64	19328.14
418.83	20063.07
419.02	19814.98
419.21	19920.30
419.39	18899.83
419.58	17710.83
419.77	17879.35
419.96	18822.59
420.15	19660.50
420.34	20018.60
420.53	21034.39
420.72	21750.60
420.91	21238.02
421.10	20975.88
421.29	20350.96
421.48	19885.19
421.67	21214.62
421.86	20325.21
422.05	19159.63
422.24	17015.69
422.43	16751.21
422.61	18829.61
422.80	20421.17
422.99	20486.71
423.18	19302.40
423.37	19211.12
423.56	19140.90
423.75	19543.47
423.94	19557.52
424.13	18916.21
424.32	19243.88
424.50	19033.24
424.69	18494.91
424.88	18864.72
425.07	18562.79
425.26	18820.25
425.45	18780.46
425.64	18490.23
425.83	18480.87
426.01	19522.41
426.20	19789.23
426.39	19765.82
426.58	18504.28
426.77	17142.08
426.96	16482.05
427.15	16931.44
427.33	18291.29
427.52	19084.73
427.71	19218.14
427.90	18986.43
428.09	18801.52
428.28	18384.91
428.46	17577.42
428.65	17525.93
428.84	17867.65
429.03	18197.67
429.22	17380.82
429.40	16320.56
429.59	15140.93
429.78	13181.90
429.97	13289.56
430.16	13195.94
430.34	13324.67
430.53	13284.88
430.72	13530.64
430.91	15054.33
431.10	17687.43
431.28	21240.36
431.47	22431.69
431.66	22944.27
431.85	20765.23
432.03	19288.35
432.22	17958.93
432.41	18691.52
432.60	21296.53
432.79	21963.59
432.97	22609.58
433.16	21804.43
433.35	20350.96
433.54	18132.13
433.72	16840.15
433.91	17458.06
434.10	19384.32
434.28	21179.51
434.47	21958.91
434.66	21799.75
434.85	21022.69
435.03	20933.75
435.22	21591.44
435.41	22850.65
435.59	22822.56
435.78	23246.20
435.97	24070.07
436.16	24074.75
436.34	23536.43
436.53	22986.40
436.72	23143.22
436.90	21926.14
437.09	21706.13
437.28	21301.22
437.46	22382.54
437.65	22010.40
437.84	20699.70
438.02	18878.76
438.21	18684.50
438.40	19871.15
438.58	21371.43
438.77	22424.67
438.96	22181.26
439.14	23534.09
439.33	23775.16
439.52	24091.13
439.70	23627.71
439.89	23262.58
440.08	22656.39
440.26	22221.05
440.45	23527.06
440.63	24758.19
440.82	25834.83
441.01	25500.14
441.19	25245.02
441.38	25769.30
441.57	27227.45
441.75	27222.77
441.94	27246.18
442.12	27344.48
442.31	27438.10
442.50	27309.37
442.68	27576.19
442.87	26895.10
443.05	26455.08
443.24	26813.18
443.43	27271.92
443.61	28350.91
443.80	28374.31
443.98	26586.15
444.17	26551.04
444.35	28290.06
444.54	28943.06
444.73	28411.76
444.91	27225.11
445.10	26256.13
445.28	25003.94
445.47	24809.68
445.65	25113.95
445.84	25687.38
446.02	26518.27
446.21	27094.04
446.39	26794.45
446.58	27452.14
446.77	27901.53
446.95	27960.04
447.14	28547.51
447.32	28657.52
447.51	28336.87
447.69	27538.74
447.88	27234.47
448.06	27033.19
448.25	27812.59
448.43	28280.69
448.62	28030.26
448.80	27447.46
448.99	27960.04
449.17	28116.86
449.36	28070.04
449.54	29289.46
449.73	29621.82
449.91	30127.38
450.10	30862.30
450.28	31365.52
450.46	30838.90
450.65	30778.04
450.83	30883.37
451.02	30167.16
451.20	30190.57
451.39	29696.72
451.57	29830.13
451.76	29668.63
451.94	29249.67
452.13	29008.60
452.31	27552.79
452.49	26162.51
452.68	27049.57
452.86	26719.56
453.05	27152.55
453.23	27955.36
453.42	28709.01
453.60	29284.78
453.78	29479.05
453.97	29053.07
454.15	29429.90
454.34	28657.52
454.52	28886.89
454.70	28147.28
454.89	28968.81
455.07	28552.20
455.26	28650.50
455.44	30321.64
455.62	30890.39
455.81	31035.50
455.99	30588.46
456.17	30363.77
456.36	30632.93
456.54	30892.73
456.73	31314.03
456.91	31651.06
457.09	31655.75
457.28	32456.21
457.46	31580.85
457.64	30892.73
457.83	30043.12
458.01	28938.38
458.19	29933.11
458.38	30462.07
458.56	31791.50
458.74	31307.01
458.93	30274.83
459.11	30394.20
459.29	30305.26
459.48	30731.23
459.66	30188.23
459.84	30756.98
460.03	31388.92
460.21	30967.63
460.39	31644.04
460.57	31850.01
460.76	31931.93
460.94	32095.77
461.12	31564.46
461.31	31945.97
461.49	31601.91
461.67	31763.41
461.85	32842.40
462.04	32334.50
462.22	33027.30
462.40	32591.96
462.59	32486.64
462.77	32507.70
462.95	32680.90
463.13	32142.58
463.32	32336.84
463.50	31606.59
463.68	31842.99
463.86	32018.53
464.05	31653.40
464.23	30761.66
464.41	30551.01
464.59	30038.44
464.78	31587.87
464.96	31370.20
465.14	31161.89
465.32	31845.33
465.50	32919.63
465.69	33132.62
465.87	32463.23
466.05	31309.35
466.23	30169.51
466.41	29429.90
466.60	30373.13
466.78	30455.05
466.96	31068.27
467.14	31585.53
467.32	31529.36
467.51	31508.29
467.69	30265.47
467.87	31105.72
468.05	31789.16
468.23	31644.04
468.41	31648.72
468.60	31730.64
468.78	32107.47
468.96	31353.82
469.14	32240.88
469.32	32184.71
469.50	30611.87
469.69	30958.27
469.87	30529.95
470.05	30471.43
470.23	30340.36
470.41	30862.30
470.59	31180.62
470.77	31091.68
470.95	31931.93
471.14	32613.02
471.32	32531.11
471.50	34057.14
471.68	34167.14
471.86	34590.78
472.04	34616.52
472.22	34642.27
472.40	32765.16
472.58	32828.35
472.77	32800.27
472.95	33310.50
473.13	33734.14
473.31	33050.70
473.49	33251.99
473.67	33663.93
473.85	33914.36
474.03	34700.78
474.21	35241.45
474.39	35625.29
474.57	35428.69
474.75	35651.04
474.93	35276.55
475.12	34394.17
475.30	34679.72
475.48	34761.64
475.66	35047.18
475.84	34705.46
476.02	34281.83
476.20	34127.35
476.38	34391.83
476.56	35824.24
476.74	35962.33
476.92	35828.92
477.10	36807.26
477.28	38199.88
477.46	38108.60
477.64	38033.71
477.82	38600.12
478.00	38686.71
478.18	37591.34
478.36	37614.75
478.54	37942.42
478.72	37872.21
478.90	38827.15
479.08	39983.37
479.26	40617.66
479.44	40135.51
479.62	39728.25
479.80	40271.26
479.98	40500.63
480.16	40378.92
480.34	40016.14
480.52	40985.12
480.70	40669.15
480.88	40856.39
481.06	41729.41
481.24	41624.09
481.41	42986.28
481.59	43269.48
481.77	42976.92
481.95	42653.92
482.13	42134.32
482.31	42513.49
482.49	43306.93
482.67	42698.39
482.85	43412.26
483.03	43817.17
483.21	44100.37
483.39	43885.04
483.57	43166.50
483.74	43241.40
483.92	43564.39
484.10	43580.78
484.28	44643.38
484.46	44706.57
484.64	45521.08
484.82	44598.91
485.00	44172.93
485.18	43187.56
485.35	41881.55
485.53	38925.45
485.71	35222.72
485.89	35154.85
486.07	36648.11
486.25	39613.57
486.43	42403.49
486.61	43430.98
486.78	42869.25
486.96	43105.65
487.14	44470.18
487.32	45815.99
487.50	46944.12
487.68	47711.82
487.85	48030.13
488.03	48484.20
488.21	47782.04
488.39	46742.84
488.57	46284.09
488.75	45495.33
488.92	47023.70
489.10	49626.38
489.28	50871.54
489.46	51629.88
489.64	51615.83
489.81	51662.64
489.99	51306.88
490.17	51269.43
490.35	51613.49
490.53	51271.78
490.70	50904.31
490.88	50504.08
491.06	51896.70
491.24	51538.60
491.41	50354.29
491.59	49296.36
491.77	47786.72
491.95	49031.88
492.13	50454.93
492.30	51819.46
492.48	52732.27
492.66	53003.77
492.84	53111.44
493.01	52917.17
493.19	52179.90
493.37	51810.10
493.54	51676.69
493.72	52470.13
493.90	53443.79
494.08	54181.06
494.25	54649.17
494.43	54834.07
494.61	55283.45
494.79	55168.77
494.96	55260.05
495.14	54546.18
495.32	53347.83
495.49	52683.12
495.67	53771.47
495.85	55393.46
496.02	55683.69
496.20	55620.49
496.38	55164.09
496.55	54665.55
496.73	55419.20
496.91	55332.60
497.09	56013.70
497.26	56193.92
497.44	55667.30
497.62	55161.75
497.79	54342.56
497.97	53212.08
498.14	53176.97
498.32	54511.08
498.50	55463.67
498.67	55826.46
498.85	55826.46
499.03	56104.98
499.20	55990.30
499.38	56329.67
499.56	56264.14
499.73	55791.35
499.91	55126.64
500.08	54726.41
500.26	53909.56
500.44	54335.54
500.61	55306.86
500.79	54831.73
500.97	54642.15
501.14	54312.13
501.32	54216.17
501.49	54321.49
501.67	54564.91
501.84	55131.32
502.02	55313.88
502.20	55625.17
502.37	56074.55
502.55	55994.98
502.72	56666.71
502.90	56956.94
503.07	56474.79
503.25	56062.85
503.43	55217.92
503.60	54859.82
503.78	54012.54
503.95	54370.64
504.13	55971.57
504.30	56669.05
504.48	56570.75
504.65	56027.74
504.83	56226.69
505.01	56767.35
505.18	57139.50
505.36	57764.42
505.53	57593.56
505.71	58127.20
505.88	57954.00
506.06	57319.72
506.23	57045.88
506.41	56559.05
506.58	56954.60
506.76	56793.10
506.93	56725.22
507.11	56547.34
507.28	56818.84
507.46	56217.33
507.63	55784.33
507.81	55653.26
507.98	55723.47
508.16	56442.02
508.33	57090.35
508.50	57146.52
508.68	57794.85
508.85	58150.61
509.03	57998.48
509.20	58183.38
509.38	57219.08
509.55	56624.58
509.73	56488.83
509.90	57235.46
510.08	57345.47
510.25	57279.93
510.42	57116.09
510.60	56893.74
510.77	57169.93
510.95	57743.36
511.12	58110.82
511.30	58171.67
511.47	58333.17
511.64	58478.28
511.82	58138.91
511.99	57308.02
512.17	57076.30
512.34	56334.35
512.51	56882.04
512.69	56879.70
512.86	57155.88
513.04	57354.83
513.21	57467.17
513.38	57132.48
513.56	56432.66
513.73	56104.98
513.90	56254.78
514.08	56179.88
514.25	56699.48
514.43	56765.01
514.60	56800.12
514.77	57099.71
514.95	57102.05
515.12	56870.34
515.29	57226.10
515.47	57834.64
515.64	57914.22
515.81	57549.09
515.99	57038.86
516.16	55451.97
516.33	53034.20
516.51	51840.53
516.68	51199.22
516.85	50394.07
517.03	50775.58
517.20	53715.29
517.37	55962.21
517.54	57169.93
517.72	56626.92
517.89	54143.61
518.06	51875.63
518.24	51964.57
518.41	54389.37
518.58	55697.73
518.75	55908.38
518.93	56236.05
519.10	56165.84
519.27	56760.33
519.45	56643.30
519.62	57366.53
519.79	57722.29
519.96	57457.81
520.14	56821.19
520.31	56128.39
520.48	56069.87
520.65	56374.14
520.83	57607.61
521.00	58031.24
521.17	57574.84
521.34	57106.73
521.52	57467.17
521.69	57972.73
521.86	58213.80
522.03	58145.93
522.20	56996.73
522.38	55922.42
522.55	55894.33
522.72	56598.83
522.89	56683.09
523.07	56982.68
523.24	57228.44
523.41	57961.03
523.58	58237.21
523.75	58742.77
523.92	58548.50
524.10	58642.12
524.27	58543.82
524.44	58372.96
524.61	58241.89
524.78	57930.60
524.96	57874.43
525.13	58092.10
525.30	58183.38
525.47	58543.82
525.64	58401.05
525.81	57865.06
525.98	56322.65
526.16	54731.09
526.33	54232.55
526.50	54007.86
526.67	53436.77
526.84	54190.42
527.01	55152.38
527.18	55896.67
527.36	56802.46
527.53	57553.77
527.70	58134.23
527.87	57366.53
528.04	57134.82
528.21	57464.83
528.38	58234.87
528.55	58717.02
528.72	59065.76
528.89	59105.55
529.07	58904.26
529.24	58204.44
529.41	57680.16
529.58	57055.24
529.75	57132.48
529.92	57588.88
530.09	58007.84
530.26	58457.22
530.43	58798.94
530.60	58789.58
530.77	59054.06
530.94	59224.92
531.11	58644.46
531.28	58134.23
531.46	58127.20
531.63	58223.17
531.80	58253.59
531.97	57598.24
532.14	56924.17
532.31	56142.43
532.48	55290.48
532.65	55290.48
532.82	56238.39
532.99	57186.31
533.16	57776.12
533.33	58204.44
533.50	58007.84
533.67	57535.05
533.84	57003.75
534.01	57118.43
534.18	57467.17
534.35	57647.39
534.52	57546.75
534.69	57696.55
534.86	58033.58
535.03	58358.92
535.20	58363.60
535.37	58925.33
535.54	59157.04
535.71	58625.74
535.88	58457.22
536.05	57801.87
536.22	57190.99
536.38	57169.93
536.55	56790.76
536.72	55999.66
536.89	56067.53
537.06	56973.32
537.23	57897.83
537.40	57815.91
537.57	58045.29
537.74	57785.49
537.91	57766.76
538.08	57663.78
538.25	57773.78
538.42	57998.48
538.59	57701.23
538.75	57055.24
538.92	56779.06
539.09	56676.07
539.26	56624.58
539.43	56200.94
539.60	56250.09
539.77	56554.36
539.94	56245.41
540.11	55714.11
540.28	54983.86
540.44	55114.94
540.61	55861.57
540.78	55569.00
540.95	56203.28
541.12	56753.31
541.29	56762.67
541.46	56858.63
541.62	57310.36
541.79	56844.59
541.96	56245.41
542.13	56435.00
542.30	56692.46
542.47	56849.27
542.63	56774.37
542.80	56320.31
542.97	56647.99
543.14	56329.67
543.31	56308.61
543.48	57045.88
543.64	57827.62
543.81	58000.82
543.98	57776.12
544.15	57034.17
544.32	56472.45
544.48	56584.79
544.65	57109.07
544.82	57425.04
544.99	57125.46
545.16	56804.80
545.32	56512.23
545.49	57394.62
545.66	57565.48
545.83	57368.87
546.00	57031.83
546.16	56516.92
546.33	56624.58
546.50	56781.40
546.67	57083.33
546.83	56500.53
547.00	56718.20
547.17	56189.24
547.34	55545.59
547.50	55473.04
547.67	55999.66
547.84	56023.06
548.00	56374.14
548.17	56896.08
548.34	56556.70
548.51	56612.88
548.67	56343.72
548.84	56633.94
549.01	56753.31
549.18	56561.39
549.34	56582.45
549.51	56584.79
549.68	56339.04
549.84	56020.72
550.01	56273.50
550.18	55894.33
550.34	56324.99
550.51	56165.84
550.68	56350.74
550.84	55690.71
551.01	55938.80
551.18	55817.10
551.34	55978.59
551.51	56399.89
551.68	56577.77
551.84	56612.88
552.01	56680.75
552.18	56376.48
552.34	55627.51
552.51	55285.79
552.68	55100.89
552.84	55430.91
553.01	55899.01
553.18	55643.90
553.34	56041.79
553.51	56137.75
553.67	56299.25
553.84	56523.94
554.01	56423.29
554.17	55910.72
554.34	56179.88
554.51	56442.02
554.67	56708.84
554.84	56493.51
555.00	55973.91
555.17	55554.96
555.33	55920.08
555.50	55679.00
555.67	55749.22
555.83	55627.51
556.00	55348.99
556.16	55208.56
556.33	54981.52
556.50	54920.67
556.66	54787.26
556.83	54487.67
556.99	54567.25
557.16	54695.98
557.32	54864.50
557.49	55161.75
557.65	55341.97
557.82	55295.16
557.98	55206.22
558.15	54358.94
558.32	53862.75
558.48	52856.32
558.65	53188.67
558.81	53614.65
558.98	53904.88
559.14	54047.65
559.31	53944.67
559.47	54160.00
559.64	53792.53
559.80	53251.87
559.97	53415.71
560.13	53961.05
560.30	54890.24
560.46	55693.05
560.63	55594.74
560.79	55702.41
560.96	55154.72
561.12	54145.95
561.29	53172.29
561.45	53256.55
561.61	53834.66
561.78	54138.93
561.94	54092.12
562.11	54026.59
562.27	53750.40
562.44	54064.03
562.60	54522.78
562.77	54693.64
562.93	54401.07
563.10	54487.67
563.26	53827.64
563.42	53888.49
563.59	53656.78
563.75	53911.90
563.92	53670.82
564.08	53762.11
564.24	53965.73
564.41	54122.55
564.57	54213.83
564.74	53532.73
564.90	53556.14
565.07	53240.17
565.23	53202.72
565.39	52409.28
565.56	52350.76
565.72	52009.04
565.88	52437.36
566.05	52327.36
566.21	53071.65
566.38	53050.58
566.54	53183.99
566.70	53411.02
566.87	53879.13
567.03	53757.42
567.19	54241.92
567.36	53551.46
567.52	53869.77
567.68	53228.46
567.85	52243.10
568.01	52196.29
568.17	52025.43
568.34	51793.71
568.50	51751.59
568.66	51758.61
568.83	52444.38
568.99	52547.37
569.15	52460.77
569.32	52697.16
569.48	52383.53
569.64	51936.49
569.81	52107.35
569.97	51908.40
570.13	51444.98
570.30	51147.73
570.46	50759.20
570.62	49605.31
570.78	49514.03
570.95	50377.69
571.11	50969.85
571.27	51171.13
571.43	51786.69
571.60	51690.73
571.76	52046.49
571.92	52425.66
572.09	52449.06
572.25	52460.77
572.41	52317.99
572.57	51751.59
572.74	52243.10
572.90	51641.58
573.06	51725.84
573.22	51714.14
573.38	51419.23
573.55	51992.66
573.71	51882.66
573.87	51714.14
574.03	51433.27
574.20	51554.98
574.36	51203.90
574.52	51229.65
574.68	50703.03
574.84	50492.38
575.01	50059.38
575.17	49874.48
575.33	50232.58
575.49	50536.85
575.65	50337.90
575.82	50422.16
575.98	50164.70
576.14	50602.38
576.30	50794.31
576.46	51201.56
576.62	51068.15
576.79	50642.17
576.95	50394.07
577.11	50267.69
577.27	50586.00
577.43	50658.56
577.59	49848.73
577.75	49668.51
577.92	48964.01
578.08	48905.49
578.24	48547.39
578.40	49041.24
578.56	49343.17
578.72	49368.92
578.88	49361.90
579.04	49720.00
579.21	49876.82
579.37	49902.56
579.53	50202.15
579.69	50164.70
579.85	50115.55
580.01	49764.47
580.17	49244.87
580.33	49457.86
580.49	49151.25
580.65	49748.09
580.82	50089.80
580.98	49932.99
581.14	49865.11
581.30	49954.05
581.46	49455.52
581.62	50321.52
581.78	49907.24
581.94	50305.13
582.10	49893.20
582.26	50239.60
582.42	50150.66
582.58	50209.17
582.74	49925.97
582.90	50389.39
583.06	50005.55
583.22	49584.25
583.38	49509.35
583.54	49769.15
583.70	49638.08
583.86	49783.19
584.02	49359.56
584.18	49937.67
584.34	49844.05
584.50	49455.52
584.66	49261.26
584.82	49085.72
584.98	49177.00
585.14	48390.58
585.30	47910.77
