SpectraSuite Data File
++++++++++++++++++++++++++++++++++++
Date: Mon Oct 07 14:54:56 GMT-05:00 2013
User: price-jones
Dark Spectrum Present: No
Reference Spectrum Present: No
Number of Sampled Component Spectra: 1
Spectrometers: USB2+H05261
Integration Time (usec): 10000 (USB2+H05261)
Spectra Averaged: 1 (USB2+H05261)
Boxcar Smoothing: 0 (USB2+H05261)
Correct for Electrical Dark: No (USB2+H05261)
Strobe/Lamp Enabled: No (USB2+H05261)
Correct for Detector Non-linearity: No (USB2+H05261)
Correct for Stray Light: No (USB2+H05261)
Number of Pixels in Processed Spectrum: 2048
>>>>>Begin Processed Spectral Data<<<<<
365.73	0.00
365.92	0.00
366.12	0.00
366.32	0.00
366.52	0.00
366.72	0.00
366.91	0.00
367.11	0.00
367.31	0.00
367.51	0.00
367.70	0.00
367.90	0.00
368.10	0.00
368.30	0.00
368.49	0.00
368.69	0.00
368.89	0.00
369.09	0.00
369.28	0.00
369.48	0.00
369.68	0.00
369.87	0.00
370.07	0.00
370.27	0.00
370.47	0.00
370.66	318.31
370.86	301.93
371.06	472.79
371.25	444.70
371.45	479.81
371.65	447.04
371.84	365.12
372.04	402.57
372.24	503.22
372.44	507.90
372.63	463.43
372.83	325.33
373.03	313.63
373.22	355.76
373.42	339.38
373.62	463.43
373.81	395.55
374.01	514.92
374.21	374.49
374.40	397.89
374.60	390.87
374.79	575.77
374.99	678.76
375.19	671.73
375.38	671.73
375.58	641.31
375.78	566.41
375.97	589.82
376.17	531.30
376.37	557.05
376.56	603.86
376.76	543.00
376.95	575.77
377.15	704.50
377.35	744.29
377.54	814.51
377.74	802.80
377.93	837.91
378.13	800.46
378.33	727.91
378.52	706.84
378.72	603.86
378.91	629.60
379.11	561.73
379.31	617.90
379.50	505.56
379.70	636.63
379.89	674.07
380.09	723.23
380.28	870.68
380.48	821.53
380.68	711.52
380.87	706.84
381.07	641.31
381.26	582.79
381.46	615.56
381.65	486.83
381.85	526.62
382.04	456.40
382.24	393.21
382.43	407.25
382.63	407.25
382.83	423.64
383.02	390.87
383.22	374.49
383.41	351.08
383.61	397.89
383.80	521.94
384.00	629.60
384.19	770.04
384.39	777.06
384.58	748.97
384.78	746.63
384.97	758.33
385.17	732.59
385.36	615.56
385.56	655.35
385.75	493.85
385.95	660.03
386.14	704.50
386.34	798.12
386.53	835.57
386.72	662.37
386.92	669.39
387.11	709.18
387.31	758.33
387.50	763.01
387.70	664.71
387.89	716.20
388.09	746.63
388.28	734.93
388.48	772.38
388.67	910.47
388.86	894.08
389.06	1015.79
389.25	1022.81
389.45	1041.54
389.64	1097.71
389.84	997.07
390.03	966.64
390.22	1048.56
390.42	1064.94
390.61	1170.27
390.81	1231.12
391.00	1188.99
391.19	1270.91
391.39	1114.10
391.58	1093.03
391.78	1013.45
391.97	950.26
392.16	863.66
392.36	697.48
392.55	557.05
392.75	308.95
392.94	320.65
393.13	325.33
393.33	372.15
393.52	571.09
393.71	716.20
393.91	812.17
394.10	990.05
394.29	1097.71
394.49	1193.67
394.68	1287.29
394.88	1207.72
395.07	1174.95
395.26	1210.06
395.46	1205.38
395.65	1100.05
395.84	903.45
396.04	734.93
396.23	531.30
396.42	491.51
396.62	449.38
396.81	606.20
397.00	791.10
397.19	966.64
397.39	1320.06
397.58	1390.28
397.77	1495.60
397.97	1495.60
398.16	1675.82
398.35	1572.84
398.55	1633.69
398.74	1736.68
398.93	1788.17
399.12	1600.93
399.32	1582.20
399.51	1750.72
399.70	1804.55
399.90	1771.79
400.09	1858.39
400.28	1804.55
400.47	1748.38
400.67	1846.68
400.86	2040.95
401.05	1884.13
401.24	1942.64
401.44	1902.86
401.63	1996.48
401.82	1996.48
402.01	1919.24
402.21	1921.58
402.40	2069.03
402.59	1865.41
402.78	1863.07
402.97	1820.94
403.17	1820.94
403.36	1949.67
403.55	2092.44
403.74	2115.84
403.93	1982.43
404.13	1902.86
404.32	1825.62
404.51	1874.77
404.70	1947.33
404.89	2001.16
405.09	1989.46
405.28	1863.07
405.47	1930.94
405.66	1785.83
405.85	1825.62
406.05	1879.45
406.24	1760.08
406.43	1937.96
406.62	1902.86
406.81	1961.37
407.00	1947.33
407.20	1867.75
407.39	1818.60
407.58	1902.86
407.77	2052.65
407.96	2066.69
408.15	2218.83
408.34	2094.78
408.54	2197.76
408.73	2286.70
408.92	2228.19
409.11	2108.82
409.30	2017.54
409.49	1771.79
409.68	1792.85
409.87	1724.97
410.07	1666.46
410.26	1846.68
410.45	2076.06
410.64	2080.74
410.83	2218.83
411.02	2244.57
411.21	2380.32
411.40	2282.02
411.59	2401.39
411.78	2324.15
411.98	2279.68
412.17	2392.03
412.36	2251.60
412.55	2324.15
412.74	2256.28
412.93	2204.78
413.12	2237.55
413.31	2328.83
413.50	2492.67
413.69	2396.71
413.88	2321.81
414.07	2375.64
414.26	2258.62
414.45	2370.96
414.64	2436.50
414.83	2511.39
415.02	2450.54
415.22	2370.96
415.41	2406.07
415.60	2469.27
415.79	2654.17
415.98	2719.70
416.17	2602.68
416.36	2476.29
416.55	2506.71
416.74	2394.37
416.93	2413.09
417.12	2417.77
417.31	2298.41
417.50	2403.73
417.69	2406.07
417.88	2534.80
418.07	2537.14
418.26	2385.01
418.45	2403.73
418.64	2544.16
418.83	2675.23
419.02	2548.84
419.21	2527.78
419.39	2429.48
419.58	2445.86
419.77	2347.56
419.96	2478.63
420.15	2551.18
420.34	2602.68
420.53	2771.19
420.72	2803.96
420.91	2768.85
421.10	2670.55
421.29	2733.75
421.48	2682.25
421.67	2668.21
421.86	2698.64
422.05	2326.49
422.24	2183.72
422.43	2146.27
422.61	2359.26
422.80	2593.31
422.99	2677.57
423.18	2464.58
423.37	2485.65
423.56	2513.74
423.75	2593.31
423.94	2518.42
424.13	2408.41
424.32	2305.43
424.50	2509.05
424.69	2377.98
424.88	2291.38
425.07	2525.44
425.26	2392.03
425.45	2399.05
425.64	2340.54
425.83	2270.32
426.01	2513.74
426.20	2373.30
426.39	2457.56
426.58	2319.47
426.77	2029.24
426.96	2043.29
427.15	2183.72
427.33	2359.26
427.52	2415.43
427.71	2448.20
427.90	2312.45
428.09	2399.05
428.28	2242.23
428.46	2197.76
428.65	2181.38
428.84	2190.74
429.03	2352.24
429.22	2073.71
429.40	2003.50
429.59	1729.66
429.78	1614.97
429.97	1556.46
430.16	1610.29
430.34	1675.82
430.53	1603.27
430.72	1706.25
430.91	1795.19
431.10	2120.53
431.28	2492.67
431.47	2715.02
431.66	2869.50
431.85	2619.06
432.03	2370.96
432.22	2277.34
432.41	2321.81
432.60	2633.10
432.79	2691.62
432.97	2825.03
433.16	2635.44
433.35	2462.24
433.54	2293.72
433.72	2069.03
433.91	2176.70
434.10	2338.20
434.28	2581.61
434.47	2614.38
434.66	2595.65
434.85	2630.76
435.03	2525.44
435.22	2593.31
435.41	2771.19
435.59	2796.94
435.78	2899.92
435.97	2738.43
436.16	3005.25
436.34	2974.82
436.53	2771.19
436.72	2785.24
436.90	2808.64
437.09	2691.62
437.28	2595.65
437.46	2628.42
437.65	2607.36
437.84	2537.14
438.02	2202.44
438.21	2300.75
438.40	2417.77
438.58	2600.34
438.77	2743.11
438.96	2689.28
439.14	2942.05
439.33	2829.71
439.52	2984.18
439.70	2836.73
439.89	2733.75
440.08	2593.31
440.26	2829.71
440.45	2775.88
440.63	3007.59
440.82	3227.60
441.01	3038.02
441.19	3016.95
441.38	3021.63
441.57	3215.90
441.75	3295.47
441.94	3206.53
442.12	3112.91
442.31	3456.97
442.50	3309.52
442.68	3272.07
442.87	3265.05
443.05	3145.68
443.24	3248.66
443.43	3239.30
443.61	3428.88
443.80	3534.21
443.98	3255.69
444.17	3178.45
444.35	3316.54
444.54	3466.33
444.73	3337.60
444.91	3258.03
445.10	3089.51
445.28	3016.95
445.47	2977.16
445.65	3073.12
445.84	2984.18
446.02	2979.50
446.21	3169.09
446.39	3201.85
446.58	3201.85
446.77	3428.88
446.95	3342.28
447.14	3440.59
447.32	3428.88
447.51	3447.61
447.69	3251.00
447.88	3265.05
448.06	3269.73
448.25	3459.31
448.43	3288.45
448.62	3183.13
448.80	3337.60
448.99	3311.86
449.17	3463.99
449.36	3272.07
449.54	3524.85
449.73	3417.18
449.91	3435.91
450.10	3503.78
450.28	3726.13
450.46	3536.55
450.65	3681.66
450.83	3644.21
451.02	3588.04
451.20	3445.27
451.39	3492.08
451.57	3515.48
451.76	3414.84
451.94	3365.69
452.13	3344.63
452.31	3358.67
452.49	3173.77
452.68	3089.51
452.86	3108.23
453.05	3248.66
453.23	3286.11
453.42	3234.62
453.60	3396.12
453.78	3468.67
453.97	3445.27
454.15	3407.82
454.34	3255.69
454.52	3286.11
454.70	3143.34
454.89	3349.31
455.07	3379.73
455.26	3417.18
455.44	3531.87
455.62	3461.65
455.81	3644.21
455.99	3590.38
456.17	3517.83
456.36	3559.95
456.54	3538.89
456.73	3548.25
456.91	3850.18
457.09	3639.53
457.28	3707.41
457.46	3456.97
457.64	3489.74
457.83	3466.33
458.01	3307.18
458.19	3417.18
458.38	3520.17
458.56	3637.19
458.74	3588.04
458.93	3499.10
459.11	3417.18
459.29	3377.39
459.48	3365.69
459.66	3550.59
459.84	3454.63
460.03	3517.83
460.21	3648.90
460.39	3655.92
460.57	3595.06
460.76	3672.30
460.94	3754.22
461.12	3599.74
461.31	3719.11
461.49	3555.27
461.67	3541.23
461.85	3653.58
462.04	3782.31
462.22	3817.41
462.40	3719.11
462.59	3733.15
462.77	3655.92
462.95	3651.24
463.13	3688.68
463.32	3555.27
463.50	3564.64
463.68	3684.00
463.86	3676.98
464.05	3634.85
464.23	3501.44
464.41	3492.08
464.59	3361.01
464.78	3616.13
464.96	3543.57
465.14	3365.69
465.32	3550.59
465.50	3583.36
465.69	3651.24
465.87	3543.57
466.05	3515.48
466.23	3433.57
466.41	3173.77
466.60	3442.93
466.78	3456.97
466.96	3592.72
467.14	3494.42
467.32	3456.97
467.51	3541.23
467.69	3459.31
467.87	3492.08
468.05	3424.20
468.23	3382.07
468.41	3445.27
468.60	3651.24
468.78	3583.36
468.96	3494.42
469.14	3639.53
469.32	3747.20
469.50	3506.12
469.69	3438.25
469.87	3445.27
470.05	3328.24
470.23	3447.61
470.41	3515.48
470.59	3609.11
470.77	3449.95
470.95	3576.34
471.14	3564.64
471.32	3660.60
471.50	3805.71
471.68	3826.78
471.86	3829.12
472.04	3845.50
472.22	3859.54
472.40	3681.66
472.58	3569.32
472.77	3527.19
472.95	3721.45
473.13	3819.75
473.31	3611.45
473.49	3730.81
473.67	3634.85
473.85	3915.72
474.03	3927.42
474.21	3904.01
474.39	3801.03
474.57	4009.34
474.75	3976.57
474.93	3939.12
475.12	3866.56
475.30	3782.31
475.48	3761.24
475.66	3861.88
475.84	3798.69
476.02	3763.58
476.20	3655.92
476.38	3889.97
476.56	3889.97
476.74	3988.27
476.92	3953.16
477.10	3985.93
477.28	4180.20
477.46	4166.15
477.64	4159.13
477.82	4210.62
478.00	4292.54
478.18	4231.69
478.36	4182.54
478.54	4159.13
478.72	4044.45
478.90	4301.90
479.08	4404.89
479.26	4332.33
479.44	4362.76
479.62	4528.94
479.80	4348.72
479.98	4437.66
480.16	4500.85
480.34	4484.47
480.52	4465.74
480.70	4465.74
480.88	4451.70
481.06	4435.32
481.24	4568.73
481.41	4669.37
481.59	4758.31
481.77	4629.58
481.95	4683.41
482.13	4657.67
482.31	4755.97
482.49	4758.31
482.67	4652.98
482.85	4777.03
483.03	4966.62
483.21	4917.47
483.39	5057.90
483.57	4826.18
483.74	4805.12
483.92	4802.78
484.10	4798.10
484.28	4973.64
484.46	4774.69
484.64	5118.75
484.82	4765.33
485.00	4791.08
485.18	4617.88
485.35	4477.44
485.53	4311.27
485.71	3843.16
485.89	3754.22
486.07	3852.52
486.25	4308.93
486.43	4617.88
486.61	4826.18
486.78	4655.33
486.96	4545.32
487.14	4800.44
487.32	4987.68
487.50	5301.31
487.68	5259.18
487.85	5245.14
488.03	5401.96
488.21	5275.57
488.39	5130.45
488.57	5116.41
488.75	4994.70
488.92	5195.99
489.10	5589.20
489.28	5785.80
489.46	5963.68
489.64	5930.92
489.81	5947.30
489.99	5867.72
490.17	5860.70
490.35	5919.21
490.53	5937.94
490.70	5696.86
490.88	5540.05
491.06	5856.02
491.24	5940.28
491.41	5771.76
491.59	5507.28
491.77	5261.52
491.95	5366.85
492.13	5699.20
492.30	5734.31
492.48	6026.88
492.66	5980.07
492.84	6061.99
493.01	6193.06
493.19	6059.65
493.37	5825.59
493.54	5834.96
493.72	6197.74
493.90	6122.84
494.08	6436.47
494.25	6291.36
494.43	6502.01
494.61	6663.51
494.79	6525.41
494.96	6424.77
495.14	6441.15
495.32	6136.88
495.49	6101.78
495.67	6160.29
495.85	6602.65
496.02	6504.35
496.20	6623.72
496.38	6520.73
496.55	6478.60
496.73	6729.04
496.91	6703.29
497.09	6895.22
497.26	6839.05
497.44	6654.14
497.62	6597.97
497.79	6366.26
497.97	6043.26
498.14	6045.60
498.32	6399.02
498.50	6600.31
498.67	6731.38
498.85	6604.99
499.03	6693.93
499.20	6918.62
499.38	6710.32
499.56	6810.96
499.73	6567.54
499.91	6581.59
500.08	6551.16
500.26	6204.76
500.44	6319.45
500.61	6380.30
500.79	6434.13
500.97	6228.17
501.14	6417.75
501.32	6239.87
501.49	6207.10
501.67	6420.09
501.84	6427.11
502.02	6487.96
502.20	6754.79
502.37	6691.59
502.55	6642.44
502.72	6820.32
502.90	6904.58
503.07	6890.54
503.25	6733.72
503.43	6516.05
503.60	6267.95
503.78	6183.70
503.95	6214.12
504.13	6626.06
504.30	6651.80
504.48	6663.51
504.65	6799.26
504.83	6616.69
505.01	6801.60
505.18	7028.63
505.36	7206.51
505.53	7119.91
505.71	7094.16
505.88	7103.53
506.06	6953.73
506.23	6843.73
506.41	6775.85
506.58	6780.53
506.76	6750.10
506.93	6754.79
507.11	6759.47
507.28	6700.95
507.46	6497.33
507.63	6567.54
507.81	6558.18
507.98	6401.37
508.16	6796.92
508.33	6916.28
508.50	7040.33
508.68	7052.03
508.85	7126.93
509.03	7192.47
509.20	7148.00
509.38	6869.47
509.55	6942.03
509.73	6740.74
509.90	6897.56
510.08	7023.95
510.25	6822.66
510.42	6949.05
510.60	7054.37
510.77	6881.18
510.95	6932.67
511.12	7040.33
511.30	7164.38
511.47	7323.54
511.64	7276.73
511.82	7143.32
511.99	7119.91
512.17	6813.30
512.34	6757.13
512.51	6672.87
512.69	6658.82
512.86	6902.24
513.04	7035.65
513.21	6930.33
513.38	6806.28
513.56	6583.93
513.73	6612.01
513.90	6499.67
514.08	6822.66
514.25	6925.65
514.43	6773.51
514.60	6668.19
514.77	6775.85
514.95	6780.53
515.12	6796.92
515.29	6843.73
515.47	7026.29
515.64	6977.14
515.81	6935.01
515.99	6712.66
516.16	6359.24
516.33	5933.26
516.51	5605.58
516.68	5549.41
516.85	5406.64
517.03	5460.47
517.20	6005.81
517.37	6593.29
517.54	6829.68
517.72	6686.91
517.89	6108.80
518.06	5652.39
518.24	5554.09
518.41	6083.05
518.58	6361.58
518.75	6502.01
518.93	6588.61
519.10	6612.01
519.27	6438.81
519.45	6766.49
519.62	6916.28
519.79	7084.80
519.96	6836.70
520.14	6810.96
520.31	6560.52
520.48	6422.43
520.65	6558.18
520.83	6972.46
521.00	6949.05
521.17	6930.33
521.34	6761.81
521.52	6729.04
521.69	6890.54
521.86	7068.42
522.03	7054.37
522.20	6750.10
522.38	6473.92
522.55	6207.10
522.72	6511.37
522.89	6609.67
523.07	6736.06
523.24	6895.22
523.41	6817.98
523.58	6963.09
523.75	7391.41
523.92	7012.24
524.10	7096.50
524.27	7101.19
524.44	7089.48
524.61	7087.14
524.78	7016.93
524.96	6775.85
525.13	6871.81
525.30	6862.45
525.47	7108.21
525.64	6995.86
525.81	6909.26
525.98	6546.48
526.16	6277.32
526.33	5940.28
526.50	5919.21
526.67	5905.17
526.84	6026.88
527.01	6246.89
527.18	6499.67
527.36	6457.54
527.53	6743.08
527.70	7002.88
527.87	6740.74
528.04	6787.55
528.21	6677.55
528.38	6888.20
528.55	6956.07
528.72	7297.79
528.89	7396.09
529.07	7082.46
529.24	7061.40
529.41	6796.92
529.58	6534.78
529.75	6518.39
529.92	6951.39
530.09	6974.80
530.26	7028.63
530.43	7159.70
530.60	7171.40
530.77	7269.70
530.94	7262.68
531.11	6862.45
531.28	6902.24
531.46	6925.65
531.63	6899.90
531.80	6808.62
531.97	6801.60
532.14	6600.31
532.31	6274.98
532.48	6169.65
532.65	6190.72
532.82	6366.26
532.99	6726.70
533.16	6698.61
533.33	6888.20
533.50	6902.24
533.67	6626.06
533.84	6530.09
534.01	6733.72
534.18	6644.78
534.35	6724.36
534.52	6733.72
534.69	6899.90
534.86	6820.32
535.03	6881.18
535.20	6951.39
535.37	7059.06
535.54	7143.32
535.71	7002.88
535.88	6913.94
536.05	6761.81
536.22	6621.38
536.38	6480.94
536.55	6520.73
536.72	6476.26
536.89	6274.98
537.06	6504.35
537.23	6895.22
537.40	6700.95
537.57	6832.02
537.74	6736.06
537.91	6682.23
538.08	6722.02
538.25	6939.69
538.42	6810.96
538.59	6677.55
538.75	6665.85
538.92	6541.80
539.09	6356.90
539.26	6520.73
539.43	6326.47
539.60	6424.77
539.77	6417.75
539.94	6326.47
540.11	6209.44
540.28	6143.91
540.44	6129.86
540.61	6193.06
540.78	6115.82
540.95	6195.40
541.12	6506.69
541.29	6576.91
541.46	6569.88
541.62	6665.85
541.79	6588.61
541.96	6431.79
542.13	6310.08
542.30	6293.70
542.47	6455.20
542.63	6305.40
542.80	6464.56
542.97	6279.66
543.14	6331.15
543.31	6373.28
543.48	6621.38
543.64	6775.85
543.81	6635.42
543.98	6700.95
544.15	6569.88
544.32	6429.45
544.48	6263.27
544.65	6480.94
544.82	6757.13
544.99	6513.71
545.16	6300.72
545.32	6373.28
545.49	6562.86
545.66	6707.98
545.83	6621.38
546.00	6614.35
546.16	6408.39
546.33	6466.90
546.50	6394.34
546.67	6647.12
546.83	6422.43
547.00	6387.32
547.17	6132.20
547.34	6272.64
547.50	6026.88
547.67	6434.13
547.84	6471.58
548.00	6090.07
548.17	6342.85
548.34	6420.09
548.51	6361.58
548.67	6574.56
548.84	6382.64
549.01	6331.15
549.18	6417.75
549.34	6429.45
549.51	6469.24
549.68	6300.72
549.84	6324.13
550.01	6228.17
550.18	6155.61
550.34	6237.53
550.51	6263.27
550.68	6239.87
550.84	6160.29
551.01	6047.94
551.18	5940.28
551.34	6132.20
551.51	6354.55
551.68	6490.31
551.84	6267.95
552.01	6317.11
552.18	6413.07
552.34	6047.94
552.51	5966.03
552.68	6022.20
552.84	6256.25
553.01	6209.44
553.18	6251.57
553.34	6143.91
553.51	6104.12
553.67	6392.00
553.84	6265.61
554.01	6263.27
554.17	6099.44
554.34	6310.08
554.51	6305.40
554.67	6347.53
554.84	6284.34
555.00	6235.19
555.17	6249.23
555.33	6064.33
555.50	6188.38
555.67	6148.59
555.83	6129.86
556.00	5811.55
556.16	5942.62
556.33	5891.13
556.50	5778.78
556.66	5888.79
556.83	5799.85
556.99	5996.45
557.16	5933.26
557.32	5947.30
557.49	6078.37
557.65	5977.73
557.82	5951.98
557.98	5884.11
558.15	5898.15
558.32	5666.44
558.48	5315.36
558.65	5605.58
558.81	5657.07
558.98	5535.37
559.14	5511.96
559.31	5715.59
559.47	5645.37
559.64	5516.64
559.80	5734.31
559.97	5631.33
560.13	5851.34
560.30	5872.40
560.46	6003.47
560.63	6253.91
560.79	6073.69
560.96	5902.83
561.12	5792.83
561.29	5488.56
561.45	5621.97
561.61	5680.48
561.78	5575.16
561.94	5668.78
562.11	5544.73
562.27	5678.14
562.44	5818.57
562.60	5966.03
562.77	5858.36
562.93	5790.49
563.10	5687.50
563.26	5631.33
563.42	5586.86
563.59	5671.12
563.75	5621.97
563.92	5675.80
564.08	5727.29
564.24	5600.90
564.41	5636.01
564.57	5710.91
564.74	5638.35
564.90	5657.07
565.07	5453.45
565.23	5392.59
565.39	5418.34
565.56	5387.91
565.72	5291.95
565.88	5343.44
566.05	5329.40
566.21	5523.66
566.38	5486.22
566.54	5455.79
566.70	5626.65
566.87	5554.09
567.03	5727.29
567.19	5668.78
567.36	5645.37
567.52	5680.48
567.68	5544.73
567.85	5378.55
568.01	5423.02
568.17	5118.75
568.34	5369.19
568.50	5179.61
568.66	5195.99
568.83	5329.40
568.99	5242.80
569.15	5348.12
569.32	5210.03
569.48	5411.32
569.64	5270.89
569.81	5158.54
569.97	5320.04
570.13	5132.79
570.30	5177.26
570.46	5078.96
570.62	5018.11
570.78	5097.69
570.95	5032.15
571.11	5153.86
571.27	5088.32
571.43	5362.17
571.60	5170.24
571.76	5266.21
571.92	5132.79
572.09	5275.57
572.25	5268.55
572.41	5221.74
572.57	5287.27
572.74	5301.31
572.90	5116.41
573.06	5235.78
573.22	5385.57
573.38	5179.61
573.55	5191.31
573.71	5233.44
573.87	5191.31
574.03	5193.65
574.20	5135.14
574.36	5102.37
574.52	5015.77
574.68	5116.41
574.84	4975.98
575.01	4973.64
575.17	4896.40
575.33	4903.42
575.49	4926.83
575.65	4933.85
575.82	4954.91
575.98	4772.35
576.14	4997.04
576.30	5083.64
576.46	5022.79
576.62	5004.07
576.79	5022.79
576.95	4929.17
577.11	4891.72
577.27	4875.34
577.43	4842.57
577.59	4901.08
577.75	4905.76
577.92	4884.70
578.08	4671.71
578.24	4793.42
578.40	4770.01
578.56	4938.53
578.72	4922.15
578.88	4746.61
579.04	4975.98
579.21	4842.57
579.37	4875.34
579.53	4901.08
579.69	4887.04
579.85	4884.70
580.01	4858.95
580.17	4919.81
580.33	4882.36
580.49	4812.14
580.65	4985.34
580.82	4983.00
580.98	4788.74
581.14	4798.10
581.30	4882.36
581.46	4851.93
581.62	4990.02
581.78	5011.09
581.94	5048.54
582.10	4933.85
582.26	4823.84
582.42	5027.47
582.58	4945.55
582.74	4952.57
582.90	4999.38
583.06	4774.69
583.22	4894.06
583.38	4767.67
583.54	4870.65
583.70	4718.52
583.86	4772.35
584.02	4620.22
584.18	4844.91
584.34	4896.40
584.50	4765.33
584.66	4716.18
584.82	4802.78
584.98	4683.41
585.14	4657.67
585.30	4538.30
585.46	4601.49
585.62	4514.89
585.78	4631.92
585.94	4554.68
586.10	4615.54
586.26	4699.80
586.42	4674.05
586.58	4585.11
586.74	4697.46
586.90	4638.94
587.06	4596.81
587.22	4641.28
587.38	4643.62
587.54	4638.94
587.70	4603.83
587.86	4622.56
588.02	4362.76
588.18	4367.44
588.34	4243.39
588.49	4030.40
588.65	3763.58
588.81	3688.68
588.97	3885.29
589.13	3976.57
589.29	3691.02
589.45	3817.41
589.61	4044.45
589.77	4049.13
589.93	4297.22
590.08	4425.95
590.24	4486.81
590.40	4409.57
590.56	4432.97
590.72	4407.23
590.88	4367.44
591.04	4351.06
591.20	4250.41
591.35	4117.00
591.51	4161.47
591.67	4367.44
591.83	4290.20
591.99	4271.48
592.15	4400.21
592.31	4386.16
592.46	4287.86
592.62	4355.74
592.78	4341.69
592.94	4320.63
593.10	4306.59
593.26	4344.03
593.41	4348.72
593.57	4367.44
593.73	4234.03
593.89	4039.76
594.05	4297.22
594.20	4135.73
594.36	4009.34
594.52	3990.61
594.68	4018.70
594.84	4114.66
594.99	4229.35
595.15	4128.70
595.31	4138.07
595.47	4273.82
595.62	4332.33
595.78	4215.30
595.94	4255.09
596.10	4428.29
596.25	4170.83
596.41	4173.18
596.57	4112.32
596.73	4093.60
596.88	4124.02
597.04	4032.74
597.20	4182.54
597.36	3992.95
597.51	4138.07
597.67	4126.36
