SpectraSuite Data File
++++++++++++++++++++++++++++++++++++
Date: Mon Oct 07 14:54:57 GMT-05:00 2013
User: price-jones
Dark Spectrum Present: No
Reference Spectrum Present: No
Number of Sampled Component Spectra: 1
Spectrometers: USB2+H05261
Integration Time (usec): 10000 (USB2+H05261)
Spectra Averaged: 1 (USB2+H05261)
Boxcar Smoothing: 0 (USB2+H05261)
Correct for Electrical Dark: No (USB2+H05261)
Strobe/Lamp Enabled: No (USB2+H05261)
Correct for Detector Non-linearity: No (USB2+H05261)
Correct for Stray Light: No (USB2+H05261)
Number of Pixels in Processed Spectrum: 2048
>>>>>Begin Processed Spectral Data<<<<<
365.73	0.00
365.92	0.00
366.12	0.00
366.32	0.00
366.52	0.00
366.72	0.00
366.91	0.00
367.11	0.00
367.31	0.00
367.51	0.00
367.70	0.00
367.90	0.00
368.10	0.00
368.30	0.00
368.49	0.00
368.69	0.00
368.89	0.00
369.09	0.00
369.28	0.00
369.48	0.00
369.68	0.00
369.87	0.00
370.07	0.00
370.27	0.00
370.47	124.05
370.66	1631.35
370.86	1895.83
371.06	1961.37
371.25	1898.17
371.45	1647.74
371.65	1600.93
371.84	1577.52
372.04	1640.72
372.24	1769.44
372.44	1914.56
372.63	1631.35
372.83	1568.16
373.03	1479.22
373.22	1350.49
373.42	1432.41
373.62	1743.70
373.81	1701.57
374.01	1685.19
374.21	1530.71
374.40	1490.92
374.60	1530.71
374.79	1863.07
374.99	2202.44
375.19	2256.28
375.38	2251.60
375.58	2122.87
375.78	2090.10
375.97	2069.03
376.17	2122.87
376.37	2307.77
376.56	2237.55
376.76	2513.74
376.95	2576.93
377.15	2684.59
377.35	2939.71
377.54	3033.33
377.74	3253.34
377.93	3030.99
378.13	2850.77
378.33	2803.96
378.52	2497.35
378.72	2459.90
378.91	2389.69
379.11	2347.56
379.31	2167.34
379.50	2284.36
379.70	2612.04
379.89	2689.28
380.09	2850.77
380.28	3016.95
380.48	3005.25
380.68	2883.54
380.87	2754.81
381.07	2464.58
381.26	2342.88
381.46	2258.62
381.65	2146.27
381.85	2047.97
382.04	1956.69
382.24	1797.53
382.43	1776.47
382.63	1699.23
382.83	1739.02
383.02	1685.19
383.22	1764.76
383.41	1739.02
383.61	1867.75
383.80	2326.49
384.00	2534.80
384.19	2869.50
384.39	2956.10
384.58	2918.65
384.78	2970.14
384.97	2778.22
385.17	2569.91
385.36	2579.27
385.56	2448.20
385.75	2417.77
385.95	2869.50
386.14	3009.93
386.34	2963.12
386.53	2843.75
386.72	2700.98
386.92	2794.60
387.11	2937.37
387.31	2918.65
387.50	2916.31
387.70	2890.56
387.89	2881.20
388.09	2874.18
388.28	2913.97
388.48	3056.74
388.67	3353.99
388.86	3452.29
389.06	3761.24
389.25	4037.42
389.45	4112.32
389.64	3946.14
389.84	3941.46
390.03	3651.24
390.22	3812.73
390.42	4086.58
390.61	4348.72
390.81	4631.92
391.00	4655.33
391.19	4512.55
391.39	4264.46
391.58	4131.05
391.78	3904.01
391.97	3618.47
392.16	3391.44
392.36	2918.65
392.55	2406.07
392.75	1881.79
392.94	1444.11
393.13	1636.03
393.33	2062.01
393.52	2670.55
393.71	3251.00
393.91	3627.83
394.10	3817.41
394.29	4285.52
394.49	4681.07
394.68	4880.02
394.88	4966.62
395.07	5064.92
395.26	4798.10
395.46	4674.05
395.65	4510.21
395.84	3634.85
396.04	3007.59
396.23	2459.90
396.42	2136.91
396.62	2286.70
396.81	2637.78
397.00	3410.16
397.19	4327.65
397.39	5179.61
397.58	5675.80
397.77	5987.09
397.97	6237.53
398.16	6171.99
398.35	6574.56
398.55	6651.80
398.74	6857.77
398.93	6909.26
399.12	6853.09
399.32	6403.71
399.51	6537.12
399.70	7239.28
399.90	6916.28
400.09	6993.52
400.28	7295.45
400.47	7524.82
400.67	7662.91
400.86	7648.87
401.05	7770.58
401.24	7566.95
401.44	7588.02
401.63	7761.22
401.82	7810.37
402.01	7927.39
402.21	8060.80
402.40	7999.95
402.59	7768.24
402.78	7332.90
402.97	7248.64
403.17	7480.35
403.36	7925.05
403.55	8053.78
403.74	8056.12
403.93	7702.70
404.13	7279.07
404.32	7201.83
404.51	7744.83
404.70	7990.59
404.89	8093.57
405.09	7932.08
405.28	7709.72
405.47	7964.84
405.66	7784.62
405.85	7470.99
406.05	7150.34
406.24	7410.14
406.43	7880.58
406.62	7878.24
406.81	7896.97
407.00	7777.60
407.20	7325.88
407.39	7896.97
407.58	8053.78
407.77	8388.48
407.96	8549.98
408.15	8840.20
408.34	8875.31
408.54	9282.56
408.73	9458.10
408.92	8964.25
409.11	8617.85
409.30	8189.53
409.49	7758.88
409.68	7328.22
409.87	7300.13
410.07	7925.05
410.26	8196.56
410.45	8706.79
410.64	8875.31
410.83	9312.99
411.02	9607.90
411.21	9877.06
411.40	9764.72
411.59	9624.28
411.78	9722.59
411.98	9446.40
412.17	9511.94
412.36	9355.12
412.55	9341.08
412.74	9226.39
412.93	9050.85
413.12	9345.76
413.31	10101.75
413.50	10003.45
413.69	9928.55
413.88	9413.63
414.07	9682.80
414.26	9916.85
414.45	10209.42
414.64	10230.48
414.83	10150.90
415.02	9942.60
415.22	9870.04
415.41	10174.31
415.60	10408.36
415.79	10824.98
415.98	11246.27
416.17	10981.79
416.36	10555.82
416.55	10572.20
416.74	10373.25
416.93	10017.49
417.12	10026.86
417.31	10111.11
417.50	10249.21
417.69	10745.40
417.88	10682.20
418.07	10422.41
418.26	10410.70
418.45	10459.85
418.64	10855.40
418.83	11328.19
419.02	11154.99
419.21	10817.96
419.39	10305.38
419.58	10141.54
419.77	10022.17
419.96	10576.88
420.15	11122.23
420.34	11566.93
420.53	12161.42
420.72	11836.09
420.91	11852.47
421.10	11800.98
421.29	11571.61
421.48	11272.02
421.67	11777.58
421.86	11009.88
422.05	10015.15
422.24	9476.83
422.43	9895.78
422.61	10817.96
422.80	11054.35
422.99	10993.50
423.18	10675.18
423.37	10588.58
423.56	10986.47
423.75	11159.67
423.94	11351.60
424.13	10548.79
424.32	10583.90
424.50	10551.14
424.69	10710.29
424.88	10619.01
425.07	10698.59
425.26	10626.03
425.45	10232.82
425.64	10373.25
425.83	10626.03
426.01	11307.13
426.20	11082.44
426.39	10963.07
426.58	9968.34
426.77	9521.30
426.96	9268.52
427.15	9635.99
427.33	10511.35
427.52	10796.89
427.71	10766.46
427.90	10195.37
428.09	10293.68
428.28	10026.86
428.46	10043.24
428.65	9902.81
428.84	10024.51
429.03	9998.77
429.22	9252.14
429.40	8802.75
429.59	8198.90
429.78	7368.01
429.97	7342.26
430.16	7258.00
430.34	7288.43
430.53	7475.67
430.72	8042.08
430.91	9043.83
431.10	10214.10
431.28	11641.82
431.47	12250.36
431.66	12414.20
431.85	11222.87
432.03	10202.40
432.22	10410.70
432.41	11000.52
432.60	11779.92
432.79	12184.83
432.97	12528.89
433.16	11908.65
433.35	10827.32
433.54	9795.14
433.72	9736.63
433.91	10391.98
434.10	11187.76
434.28	11716.72
434.47	12250.36
434.66	11854.81
434.85	11569.27
435.03	11665.23
435.22	12313.56
435.41	12603.78
435.59	12727.83
435.78	12865.92
435.97	13181.90
436.16	13434.68
436.34	13008.70
436.53	12954.87
436.72	12791.03
436.90	12013.97
437.09	12252.70
437.28	12116.95
437.46	12271.43
437.65	12105.25
437.84	10934.98
438.02	10576.88
438.21	10799.23
438.40	11272.02
438.58	11894.60
438.77	12414.20
438.96	12294.83
439.14	13462.76
439.33	13029.76
439.52	13544.68
439.70	13062.53
439.89	12589.74
440.08	12528.89
440.26	12620.17
440.45	13039.12
440.63	14029.17
440.82	14668.14
441.01	14202.37
441.19	14303.01
441.38	14707.93
441.57	14864.74
441.75	14677.50
441.94	14909.21
442.12	14878.79
442.31	15611.37
442.50	15307.10
442.68	15068.37
442.87	15098.80
443.05	14925.60
443.24	15145.61
443.43	15367.96
443.61	15349.23
443.80	15913.30
443.98	15007.52
444.17	15276.68
444.35	16107.57
444.54	16035.01
444.73	16018.63
444.91	14757.08
445.10	14338.12
445.28	14033.85
445.47	13401.91
445.65	13797.46
445.84	14363.87
446.02	14789.85
446.21	15190.08
446.39	15082.41
446.58	15250.93
446.77	15929.69
446.95	15880.53
447.14	16079.48
447.32	16074.80
447.51	15822.02
447.69	14974.75
447.88	14885.81
448.06	15194.76
448.25	15316.47
448.43	15861.81
448.62	15112.84
448.80	14972.41
448.99	15257.95
449.17	15609.03
449.36	15765.85
449.54	15934.37
449.73	16446.94
449.91	16383.75
450.10	17146.76
450.28	16870.58
450.46	16671.64
450.65	16479.71
450.83	16690.36
451.02	16711.42
451.20	16470.35
451.39	16091.18
451.57	16367.37
451.76	16355.66
451.94	15913.30
452.13	15880.53
452.31	15028.58
452.49	14352.16
452.68	14728.99
452.86	14881.13
453.05	15073.05
453.23	15955.43
453.42	16037.35
453.60	15974.16
453.78	16240.98
453.97	15903.94
454.15	15885.22
454.34	15541.16
454.52	15704.99
454.70	15360.94
454.89	15667.55
455.07	15784.57
455.26	15815.00
455.44	16535.88
455.62	16781.64
455.81	16947.82
455.99	16547.59
456.17	16673.98
456.36	16608.44
456.54	16872.92
456.73	17022.72
456.91	17324.65
457.09	17413.59
457.28	17610.19
457.46	16952.50
457.64	16863.56
457.83	16116.93
458.01	15592.65
458.19	16620.14
458.38	16339.28
458.56	16776.96
458.74	17090.59
458.93	16690.36
459.11	16545.25
459.29	16112.25
459.48	16568.65
459.66	16659.93
459.84	16442.26
460.03	17067.19
460.21	16982.93
460.39	17224.00
460.57	17413.59
460.76	17376.14
460.94	17469.76
461.12	17357.41
461.31	17455.72
461.49	17460.40
461.67	17366.78
461.85	17987.02
462.04	17804.46
462.22	17635.94
462.40	17895.74
462.59	17418.27
462.77	17167.83
462.95	17376.14
463.13	17926.16
463.32	17364.43
463.50	17090.59
463.68	17305.92
463.86	17303.58
464.05	17366.78
464.23	16702.06
464.41	16201.19
464.59	16336.94
464.78	16849.52
464.96	16676.32
465.14	16472.69
465.32	17242.73
465.50	17715.51
465.69	17839.56
465.87	17350.39
466.05	16521.84
466.23	16013.95
466.41	16077.14
466.60	16872.92
466.78	16650.57
466.96	16580.36
467.14	16917.39
467.32	17027.40
467.51	16959.52
467.69	16390.77
467.87	16542.91
468.05	16842.50
468.23	16671.64
468.41	16919.73
468.60	16903.35
468.78	16961.86
468.96	17043.78
469.14	17497.84
469.32	17518.91
469.50	16428.22
469.69	16463.33
469.87	16418.86
470.05	16526.52
470.23	16528.86
470.41	16741.85
470.59	16975.91
470.77	16826.11
470.95	17186.55
471.14	17231.02
471.32	17455.72
471.50	18923.23
471.68	18499.59
471.86	18415.34
472.04	18122.77
472.22	18326.39
472.40	17366.78
472.58	17706.15
472.77	17282.52
472.95	17972.97
473.13	18253.84
473.31	17984.68
473.49	17694.45
473.67	18286.61
473.85	17951.91
474.03	18462.15
474.21	18785.14
474.39	18335.76
474.57	18595.56
474.75	19021.53
474.93	18899.83
475.12	18567.47
475.30	18478.53
475.48	18396.61
475.66	18761.73
475.84	18216.39
476.02	18651.73
476.20	18511.30
476.38	18333.42
476.56	19133.88
476.74	19145.58
476.92	19173.67
477.10	19302.40
477.28	20348.62
477.46	20049.03
477.64	20444.58
477.82	20196.48
478.00	20318.19
478.18	19917.96
478.36	20044.35
478.54	19632.41
478.72	20673.95
478.90	21443.99
479.08	21481.44
479.26	21205.25
479.44	21010.99
479.62	21488.46
479.80	21736.56
479.98	21289.51
480.16	22005.72
480.34	21462.71
480.52	21734.21
480.70	21542.29
480.88	21996.35
481.06	22309.99
481.24	22396.59
481.41	23147.90
481.59	23477.91
481.77	22909.16
481.95	22637.66
482.13	22965.34
482.31	22478.50
482.49	23168.96
482.67	22686.81
482.85	22551.06
483.03	22792.14
483.21	23143.22
483.39	23527.06
483.57	23398.34
483.74	23325.78
483.92	23000.44
484.10	23852.40
484.28	23997.51
484.46	23917.93
484.64	23601.96
484.82	23906.23
485.00	23124.49
485.18	22396.59
485.35	21432.29
485.53	19260.27
485.71	17891.06
485.89	18513.64
486.07	19910.94
486.25	21413.56
486.43	22338.07
486.61	21848.90
486.78	21886.35
486.96	23087.04
487.14	23651.11
487.32	24713.72
487.50	25085.86
487.68	24484.34
487.85	25750.57
488.03	25790.36
488.21	24917.34
488.39	24189.44
488.57	24547.54
488.75	24224.54
488.92	25373.75
489.10	27721.30
489.28	27716.62
489.46	28566.24
489.64	29350.32
489.81	28666.88
489.99	28189.41
490.17	28348.57
490.35	28629.43
490.53	27639.39
490.70	27571.51
490.88	27885.14
491.06	28648.16
491.24	28673.90
491.41	26984.04
491.59	26202.30
491.77	25387.79
491.95	27082.34
492.13	27110.43
492.30	27627.68
492.48	29357.34
492.66	29741.19
492.84	29345.64
493.01	29036.69
493.19	27861.74
493.37	27508.32
493.54	28191.75
493.72	29032.00
493.90	29741.19
494.08	30136.74
494.25	31295.30
494.43	31594.89
494.61	31962.36
494.79	31819.58
494.96	32030.23
495.14	30443.35
495.32	29413.51
495.49	29600.76
495.67	30211.64
495.85	32009.17
496.02	32229.18
496.20	32329.82
496.38	32116.83
496.55	31667.45
496.73	31744.69
496.91	31751.71
497.09	31917.89
497.26	32158.96
497.44	32449.19
497.62	31632.34
497.79	30789.75
497.97	29790.34
498.14	30132.06
498.32	30869.33
498.50	31484.89
498.67	32460.89
498.85	31585.53
499.03	31833.63
499.20	32128.53
499.38	31777.45
499.56	31061.25
499.73	31009.76
499.91	30995.71
500.08	30419.94
500.26	29738.85
500.44	30583.78
500.61	31309.35
500.79	30646.97
500.97	30553.35
501.14	30068.86
501.32	29556.28
501.49	29254.36
501.67	30246.74
501.84	31349.14
502.02	31545.74
502.20	31082.31
502.37	32364.93
502.55	32659.84
502.72	32870.48
502.90	33586.69
503.07	32730.05
503.25	32416.42
503.43	32114.49
503.60	30099.29
503.78	29937.79
503.95	31175.94
504.13	31395.95
504.30	33160.71
504.48	33294.12
504.65	32748.78
504.83	32671.54
505.01	32582.60
505.18	32657.49
505.36	34185.86
505.53	33998.62
505.71	34345.02
505.88	34616.52
506.06	34349.70
506.23	33116.24
506.41	32252.58
506.58	32610.68
506.76	32315.78
506.93	33160.71
507.11	31337.43
507.28	32383.65
507.46	31824.26
507.63	31618.30
507.81	30628.25
507.98	31346.79
508.16	32215.13
508.33	33233.27
508.50	32271.31
508.68	33663.93
508.85	34405.88
509.03	33949.47
509.20	32870.48
509.38	32357.91
509.55	32205.77
509.73	32854.10
509.90	33472.00
510.08	32538.13
510.25	32126.19
510.42	32292.37
510.60	32140.24
510.77	33362.00
510.95	34345.02
511.12	33244.97
511.30	33897.98
511.47	34981.65
511.64	33310.50
511.82	33975.22
511.99	33200.50
512.17	32929.00
512.34	32409.40
512.51	32233.86
512.69	32350.88
512.86	32692.60
513.04	33312.84
513.21	33230.93
513.38	33127.94
513.56	31840.65
513.73	30991.03
513.90	30941.88
514.08	31714.26
514.25	32397.70
514.43	33116.24
514.60	32776.86
514.77	32790.91
514.95	32861.12
515.12	32631.75
515.29	33282.42
515.47	33216.88
515.64	32542.81
515.81	33567.96
515.99	32828.35
516.16	29521.18
516.33	27747.05
516.51	26878.71
516.68	25996.33
516.85	25008.62
517.03	26618.91
517.20	28914.98
517.37	30761.66
517.54	31292.96
517.72	30026.73
517.89	28030.26
518.06	26984.04
518.24	27590.24
518.41	29352.66
518.58	30639.95
518.75	30934.86
518.93	31182.96
519.10	30703.15
519.27	31508.29
519.45	31964.70
519.62	32467.91
519.79	33268.37
519.96	32659.84
520.14	31758.73
520.31	30808.47
520.48	31267.22
520.65	31892.14
520.83	32488.98
521.00	32044.27
521.17	32016.19
521.34	31658.09
521.52	31976.40
521.69	33123.26
521.86	33453.28
522.03	32325.14
522.20	31374.88
522.38	29865.24
522.55	30171.85
522.72	31204.02
522.89	30464.41
523.07	31323.39
523.24	32446.85
523.41	32655.15
523.58	32638.77
523.75	32531.11
523.92	33434.55
524.10	33507.11
524.27	33322.21
524.44	32701.96
524.61	33582.01
524.78	33090.49
524.96	33193.48
525.13	33207.52
525.30	34164.80
525.47	33947.13
525.64	34176.50
525.81	31541.06
525.98	29972.90
526.16	28056.00
526.33	28177.71
526.50	28804.97
526.67	28301.76
526.84	28781.57
527.01	30139.08
527.18	31030.82
527.36	31625.32
527.53	32807.29
527.70	32086.40
527.87	30724.21
528.04	31054.23
528.21	32091.09
528.38	32802.61
528.55	33696.69
528.72	33612.43
528.89	33092.83
529.07	33689.67
529.24	31896.82
529.41	32044.27
529.58	31344.45
529.75	31262.54
529.92	31988.10
530.09	31690.85
530.26	32584.94
530.43	31204.02
530.60	32816.65
530.77	32987.51
530.94	34061.82
531.11	33354.97
531.28	32463.23
531.46	32643.45
531.63	33214.54
531.80	33331.57
531.97	31768.09
532.14	30190.57
532.31	28898.59
532.48	28411.76
532.65	28631.77
532.82	29542.24
532.99	31314.03
533.16	32669.20
533.33	32919.63
533.50	32360.25
533.67	31672.13
533.84	31847.67
534.01	31332.75
534.18	31302.32
534.35	31173.60
534.52	31166.57
534.69	31686.17
534.86	31960.02
535.03	31693.19
535.20	33008.58
535.37	33090.49
535.54	33315.19
535.71	32400.04
535.88	31634.68
536.05	30759.32
536.22	30728.89
536.38	30139.08
536.55	30827.20
536.72	30190.57
536.89	30576.76
537.06	31522.34
537.23	31821.92
537.40	31529.36
537.57	31702.56
537.74	30623.57
537.91	30148.44
538.08	31868.73
538.25	31630.00
538.42	30974.65
538.59	31463.82
538.75	31765.75
538.92	31484.89
539.09	30546.33
539.26	29404.15
539.43	28980.51
539.60	29521.18
539.77	29165.42
539.94	28386.02
540.11	28023.23
540.28	27564.49
540.44	28430.49
540.61	28512.41
540.78	29242.65
540.95	30312.28
541.12	29467.34
541.29	30934.86
541.46	30424.62
541.62	30167.16
541.79	29628.84
541.96	29081.16
542.13	30132.06
542.30	30188.23
542.47	30288.87
542.63	29944.81
542.80	29055.41
542.97	28889.23
543.14	28938.38
543.31	29003.92
543.48	30536.97
543.64	30494.84
543.81	31227.43
543.98	30169.51
544.15	30087.59
544.32	29165.42
544.48	30108.65
544.65	29247.33
544.82	29582.03
544.99	29757.57
545.16	29617.14
545.32	30665.70
545.49	30965.29
545.66	30335.68
545.83	30721.87
546.00	29736.51
546.16	29254.36
546.33	29551.60
546.50	29968.22
546.67	29572.67
546.83	29027.32
547.00	29289.46
547.17	28849.44
547.34	28847.10
547.50	28549.85
547.67	28804.97
547.84	28648.16
548.00	29673.31
548.17	28563.90
548.34	28664.54
548.51	28896.25
548.67	29537.56
548.84	29413.51
549.01	29862.90
549.18	29949.50
549.34	30658.68
549.51	29947.15
549.68	29738.85
549.84	29053.07
550.01	29811.40
550.18	28580.28
550.34	28687.95
550.51	28524.11
550.68	27988.13
550.84	27290.65
551.01	27229.79
551.18	27089.36
551.34	27197.02
551.51	28404.74
551.68	29961.20
551.84	28500.70
552.01	28835.40
552.18	28002.17
552.34	27857.06
552.51	28411.76
552.68	29177.12
552.84	28423.47
553.01	28091.11
553.18	29474.37
553.34	29120.95
553.51	28865.83
553.67	27740.03
553.84	29261.38
554.01	29888.64
554.17	28030.26
554.34	28591.98
554.51	29153.71
554.67	28989.88
554.84	28044.30
555.00	28196.43
555.17	28439.85
555.33	27978.76
555.50	28922.00
555.67	28477.30
555.83	28376.66
556.00	28283.03
556.16	28084.09
556.33	27641.73
556.50	27365.54
556.66	26771.05
556.83	26272.51
556.99	26864.67
557.16	27440.44
557.32	27367.88
557.49	27335.12
557.65	27447.46
557.82	26300.60
557.98	26780.41
558.15	27253.20
558.32	26412.95
558.48	25436.94
558.65	25184.16
558.81	25411.20
558.98	25895.69
559.14	26256.13
559.31	27037.87
559.47	26281.88
559.64	25649.93
559.80	27204.05
559.97	26572.10
560.13	26874.03
560.30	27393.63
560.46	27152.55
560.63	27608.96
560.79	28030.26
560.96	26843.60
561.12	26263.15
561.29	25914.41
561.45	25635.89
561.61	25539.93
561.78	26078.25
561.94	26223.36
562.11	26068.89
562.27	26267.83
562.44	26513.59
562.60	26340.39
562.77	26902.12
562.93	26216.34
563.10	26024.42
563.26	25722.49
563.42	25266.08
563.59	25216.93
563.75	26368.48
563.92	25748.23
564.08	25886.32
564.24	25886.32
564.41	24474.98
564.57	25212.25
564.74	24966.49
564.90	24943.09
565.07	24430.51
565.23	24032.62
565.39	23639.41
565.56	25230.98
565.72	24428.17
565.88	25462.69
566.05	24882.24
566.21	24683.29
566.38	24116.88
566.54	24423.49
566.70	24215.18
566.87	25240.34
567.03	26352.09
567.19	26703.17
567.36	24805.00
567.52	25584.40
567.68	24503.07
567.85	25074.16
568.01	25034.37
568.17	23480.25
568.34	22902.14
568.50	22948.95
568.66	23487.28
568.83	23885.17
568.99	24510.09
569.15	24687.97
569.32	24601.37
569.48	24514.77
569.64	23777.50
569.81	23260.24
569.97	23178.33
570.13	23449.83
570.30	23225.14
570.46	22803.84
570.62	21743.58
570.78	21387.82
570.95	21874.65
571.11	22829.59
571.27	22974.70
571.43	22995.76
571.60	23744.73
571.76	23864.10
571.92	23772.82
572.09	24205.82
572.25	24130.92
572.41	24559.24
572.57	24311.14
572.74	23756.44
572.90	23571.54
573.06	23449.83
573.22	23199.39
573.38	23063.64
573.55	22562.76
573.71	22986.40
573.87	23026.19
574.03	23400.68
574.20	23117.47
574.36	23026.19
574.52	23009.81
574.68	22288.92
574.84	22452.76
575.01	22881.08
575.17	23094.07
575.33	22705.54
575.49	22415.31
575.65	22867.03
575.82	22403.61
575.98	22244.45
576.14	22171.89
576.30	22181.26
576.46	21912.10
576.62	22628.30
576.79	22513.61
576.95	21472.07
577.11	21348.03
577.27	21661.66
577.43	21490.80
577.59	21689.74
577.75	22295.94
577.92	21184.19
578.08	21142.06
578.24	21247.38
578.40	21598.46
578.56	21401.86
578.72	21422.92
578.88	22326.37
579.04	21563.36
579.21	21434.63
579.37	21937.84
579.53	21408.88
579.69	21245.04
579.85	21142.06
580.01	21057.80
580.17	21149.08
580.33	21678.04
580.49	21371.43
580.65	21502.50
580.82	21469.73
580.98	21584.42
581.14	21355.05
581.30	22258.49
581.46	21502.50
581.62	21458.03
581.78	21886.35
581.94	22244.45
582.10	21865.28
582.26	21523.57
582.42	21694.43
582.58	22569.79
582.74	22279.56
582.90	21638.25
583.06	21774.00
583.22	21577.40
583.38	21769.32
583.54	22036.14
583.70	21839.54
583.86	21701.45
584.02	21811.45
584.18	21558.67
584.34	21916.78
584.50	22295.94
584.66	21884.01
584.82	21455.69
584.98	21446.33
585.14	20877.58
585.30	20163.72
585.46	20388.41
585.62	20119.24
585.78	20486.71
585.94	20421.17
586.10	21240.36
586.26	20837.79
