SpectraSuite Data File
++++++++++++++++++++++++++++++++++++
Date: Mon Oct 07 14:53:38 GMT-05:00 2013
User: price-jones
Dark Spectrum Present: No
Reference Spectrum Present: No
Number of Sampled Component Spectra: 1
Spectrometers: USB2+H05261
Integration Time (usec): 100000 (USB2+H05261)
Spectra Averaged: 1 (USB2+H05261)
Boxcar Smoothing: 0 (USB2+H05261)
Correct for Electrical Dark: No (USB2+H05261)
Strobe/Lamp Enabled: No (USB2+H05261)
Correct for Detector Non-linearity: No (USB2+H05261)
Correct for Stray Light: No (USB2+H05261)
Number of Pixels in Processed Spectrum: 2048
>>>>>Begin Processed Spectral Data<<<<<
365.73	0.00
365.92	0.00
366.12	0.00
366.32	0.00
366.52	0.00
366.72	0.00
366.91	0.00
367.11	0.00
367.31	0.00
367.51	0.00
367.70	0.00
367.90	0.00
368.10	0.00
368.30	0.00
368.49	0.00
368.69	0.00
368.89	0.00
369.09	0.00
369.28	0.00
369.48	0.00
369.68	0.00
369.87	0.00
370.07	0.00
370.27	0.00
370.47	383.85
370.66	2267.98
370.86	2729.06
371.06	3110.57
371.25	2958.44
371.45	2715.02
371.65	2408.41
371.84	2195.42
372.04	2361.60
372.24	2722.04
372.44	2881.20
372.63	2836.73
372.83	2640.12
373.03	2317.13
373.22	2113.50
373.42	2249.25
373.62	2677.57
373.81	2726.72
374.01	2801.62
374.21	2583.95
374.40	2303.09
374.60	2420.11
374.79	2630.76
374.99	3330.58
375.19	3393.78
375.38	3428.88
375.58	3105.89
375.78	3176.11
375.97	3218.24
376.17	3337.60
376.37	3316.54
376.56	3412.50
376.76	3576.34
376.95	3866.56
377.15	4245.73
377.35	4388.50
377.54	4550.00
377.74	4432.97
377.93	4521.92
378.13	4402.55
378.33	4308.93
378.52	3913.38
378.72	3684.00
378.91	3847.84
379.11	3632.51
379.31	3485.06
379.50	3529.53
379.70	3810.39
379.89	4227.01
380.09	4500.85
380.28	4559.36
380.48	4418.93
380.68	4329.99
380.87	4381.48
381.07	3955.51
381.26	3684.00
381.46	3466.33
381.65	3332.92
381.85	3349.31
382.04	3206.53
382.24	2895.24
382.43	2853.11
382.63	2813.32
382.83	2630.76
383.02	2700.98
383.22	2710.34
383.41	2700.98
383.61	2885.88
383.80	3475.70
384.00	3908.69
384.19	4248.07
384.39	4610.86
384.58	4507.87
384.78	4465.74
384.97	4337.01
385.17	4180.20
385.36	3911.04
385.56	3691.02
385.75	3857.20
385.95	4318.29
386.14	4631.92
386.34	4711.50
386.53	4575.75
386.72	4177.86
386.92	4084.23
387.11	4411.91
387.31	4557.02
387.50	4458.72
387.70	4512.55
387.89	4383.82
388.09	4383.82
388.28	4409.57
388.48	4521.92
388.67	4671.71
388.86	5118.75
389.06	5682.82
389.25	6059.65
389.45	5977.73
389.64	6005.81
389.84	5870.06
390.03	5879.43
390.22	5865.38
390.42	6118.16
390.61	6293.70
390.81	6834.36
391.00	7089.48
391.19	7075.44
391.39	6642.44
391.58	6312.42
391.78	5966.03
391.97	5820.91
392.16	5226.42
392.36	4861.29
392.55	3967.21
392.75	3115.25
392.94	2579.27
393.13	2417.77
393.33	2932.69
393.52	3857.20
393.71	4816.82
393.91	5245.14
394.10	5757.72
394.29	6408.39
394.49	6794.58
394.68	7384.39
394.88	7344.60
395.07	7786.96
395.26	7646.53
395.46	7281.41
395.65	6906.92
395.84	6005.81
396.04	5118.75
396.23	4229.35
396.42	3475.70
396.62	3379.73
396.81	3988.27
397.00	5015.77
397.19	6300.72
397.39	7403.11
397.58	8269.11
397.77	8975.95
397.97	9135.11
398.16	9226.39
398.35	9495.55
398.55	9923.87
398.74	10188.35
398.93	10518.37
399.12	10356.87
399.32	9944.94
399.51	10494.96
399.70	10689.23
399.90	10939.66
400.09	10846.04
400.28	10658.80
400.47	10616.67
400.67	11276.70
400.86	11587.99
401.05	11637.14
401.24	11592.67
401.44	11838.43
401.63	11761.19
401.82	12084.19
402.01	12102.91
402.21	12201.21
402.40	12224.62
402.59	11557.57
402.78	11384.37
402.97	10906.90
403.17	11269.68
403.36	12067.80
403.55	12629.53
403.74	12641.23
403.93	11971.84
404.13	11119.89
404.32	10846.04
404.51	11552.88
404.70	12498.46
404.89	12194.19
405.09	12105.25
405.28	11714.38
405.47	12058.44
405.66	11875.88
405.85	11461.60
406.05	11302.45
406.24	11192.44
406.43	11854.81
406.62	12264.41
406.81	12376.75
407.00	12028.01
407.20	11625.44
407.39	11676.93
407.58	12362.71
407.77	12683.36
407.96	12968.91
408.15	13212.32
408.34	13334.03
408.54	13895.76
408.73	13832.57
408.92	13881.72
409.11	13537.66
409.30	12886.99
409.49	12072.48
409.68	11269.68
409.87	10820.30
410.07	11426.50
410.26	12372.07
410.45	13303.60
410.64	13788.10
410.83	13853.63
411.02	14181.31
411.21	14813.25
411.40	14850.70
411.59	14897.51
411.78	14551.11
411.98	14303.01
412.17	15096.46
412.36	14326.42
412.55	14546.43
412.74	14473.87
412.93	14026.83
413.12	13799.80
413.31	15492.01
413.50	15800.96
413.69	15995.22
413.88	15290.72
414.07	14867.08
414.26	15161.99
414.45	15515.41
414.64	15391.36
414.83	15374.98
415.02	15302.42
415.22	15489.67
415.41	15695.63
415.60	16304.17
415.79	16592.06
415.98	17142.08
416.17	16987.61
416.36	16671.64
416.55	16493.76
416.74	15955.43
416.93	15550.52
417.12	15527.11
417.31	15702.65
417.50	16079.48
417.69	16631.85
417.88	16563.97
418.07	16493.76
418.26	16058.42
418.45	16123.95
418.64	16652.91
418.83	17254.43
419.02	17078.89
419.21	16870.58
419.39	16393.11
419.58	15571.58
419.77	15508.39
419.96	16205.87
420.15	17118.68
420.34	17640.62
420.53	18129.79
420.72	18569.81
420.91	18403.63
421.10	18181.28
421.29	18054.89
421.48	17413.59
421.67	18373.21
421.86	17851.27
422.05	16606.10
422.24	14986.45
422.43	14525.36
422.61	16147.36
422.80	17551.68
422.99	17689.77
423.18	16968.88
423.37	16870.58
423.56	16397.79
423.75	16643.55
423.94	17474.44
424.13	16425.88
424.32	16442.26
424.50	16819.09
424.69	16250.34
424.88	16650.57
425.07	16479.71
425.26	16407.16
425.45	16126.29
425.64	15690.95
425.83	15941.39
426.01	16933.78
426.20	17062.51
426.39	17191.23
426.58	15543.50
426.77	14937.30
426.96	14249.18
427.15	14656.43
427.33	15917.98
427.52	16500.78
427.71	16603.76
427.90	16582.70
428.09	16610.78
428.28	15943.73
428.46	15587.97
428.65	15059.01
428.84	15456.90
429.03	16030.33
429.22	14963.04
429.40	14162.58
429.59	13121.04
429.78	11562.25
429.97	11143.29
430.16	11356.28
430.34	11620.76
430.53	11644.17
430.72	12051.42
430.91	13373.82
431.10	15625.42
431.28	18223.41
431.47	19669.86
431.66	20006.90
431.85	18246.82
432.03	16706.74
432.22	15686.27
432.41	16573.33
432.60	18420.02
432.79	19082.39
432.97	19571.56
433.16	19098.77
433.35	17703.81
433.54	15847.77
433.72	14607.28
433.91	15253.27
434.10	16992.29
434.28	18375.55
434.47	18998.13
434.66	19171.33
434.85	18534.70
435.03	18216.39
435.22	18810.89
435.41	20105.20
435.59	19990.52
435.78	20390.75
435.97	20938.43
436.16	20905.66
436.34	20402.45
436.53	20304.15
436.72	20222.23
436.90	19124.52
437.09	19115.16
437.28	18689.18
437.46	19307.08
437.65	19147.92
437.84	18230.43
438.02	16587.38
438.21	16472.69
438.40	17343.37
438.58	18890.46
438.77	19578.58
438.96	19463.90
439.14	20498.41
439.33	21018.01
439.52	20947.79
439.70	21188.87
439.89	20034.99
440.08	19723.69
440.26	19665.18
440.45	20011.58
440.63	21680.38
440.82	22895.12
441.01	22958.31
441.19	22265.52
441.38	22782.77
441.57	23484.94
441.75	23864.10
441.94	23903.89
442.12	23758.78
442.31	24198.80
442.50	24144.97
442.68	23805.59
442.87	23894.53
443.05	23211.09
443.24	23632.39
443.43	24123.90
443.61	24584.99
443.80	24694.99
443.98	23662.82
444.17	23208.75
444.35	24889.26
444.54	25179.48
444.73	25013.31
444.91	23934.32
445.10	22714.90
445.28	22223.39
445.47	21661.66
445.65	21986.99
445.84	22274.88
446.02	23400.68
446.21	23459.19
446.39	23433.44
446.58	23899.21
446.77	24402.43
446.95	24865.85
447.14	25228.63
447.32	25619.50
447.51	24961.81
447.69	23875.80
447.88	23901.55
448.06	24168.37
448.25	24907.98
448.43	24821.38
448.62	24404.77
448.80	24322.85
448.99	24493.71
449.17	24994.58
449.36	24643.50
449.54	25640.57
449.73	26295.92
449.91	26153.15
450.10	27035.53
450.28	27452.14
450.46	27302.35
450.65	27426.40
450.83	27080.00
451.02	26789.77
451.20	26431.67
451.39	26291.24
451.57	26221.02
451.76	26064.21
451.94	26150.81
452.13	25378.43
452.31	24503.07
452.49	22991.08
452.68	23503.66
452.86	23339.82
453.05	23704.95
453.23	24837.76
453.42	25362.04
453.60	25703.76
453.78	25935.48
453.97	25855.90
454.15	26050.16
454.34	25317.57
454.52	25600.78
454.70	24877.55
454.89	25020.33
455.07	25350.34
455.26	25579.71
455.44	26749.98
455.62	27208.73
455.81	27520.02
455.99	26782.75
456.17	26799.13
456.36	26984.04
456.54	27253.20
456.73	27768.12
456.91	28224.52
457.09	27821.95
457.28	28575.60
457.46	27641.73
457.64	27578.53
457.83	26387.20
458.01	25785.68
458.19	26808.50
458.38	26827.22
458.56	27854.72
458.74	27620.66
458.93	27063.61
459.11	27175.96
459.29	26712.53
459.48	26593.17
459.66	26628.27
459.84	27131.49
460.03	27269.58
460.21	27522.36
460.39	28231.54
460.57	28137.92
460.76	28559.22
460.94	28444.53
461.12	28334.53
461.31	28278.35
461.49	28065.36
461.67	27967.06
461.85	29057.75
462.04	29106.90
462.22	29425.22
462.40	28898.59
462.59	28952.43
462.77	28643.48
462.95	28765.18
463.13	28568.58
463.32	28088.77
463.50	28189.41
463.68	28498.36
463.86	28402.40
464.05	27810.25
464.23	27513.00
464.41	27386.61
464.59	26799.13
464.78	28205.80
464.96	27910.89
465.14	27831.31
465.32	28526.45
465.50	28627.09
465.69	29624.16
465.87	28737.10
466.05	28226.86
466.23	26726.58
466.41	26148.46
466.60	26658.70
466.78	26923.18
466.96	27304.69
467.14	27845.35
467.32	28456.23
467.51	28343.89
467.69	26876.37
467.87	27721.30
468.05	27910.89
468.23	28016.21
468.41	28105.15
468.60	28294.74
468.78	28608.37
468.96	27735.35
469.14	28772.21
469.32	28879.87
469.50	27810.25
469.69	27852.38
469.87	27168.94
470.05	27136.17
470.23	27227.45
470.41	27569.17
470.59	27915.57
470.77	27835.99
470.95	28201.11
471.14	28828.38
471.32	28594.32
471.50	30529.95
471.68	30621.23
471.86	30574.42
472.04	30960.61
472.22	30691.44
472.40	29404.15
472.58	29106.90
472.77	29083.50
472.95	29572.67
473.13	29795.02
473.31	29472.03
473.49	29893.32
473.67	30368.45
473.85	30359.09
474.03	31274.24
474.21	31388.92
474.39	31241.47
474.57	31103.38
474.75	31627.66
474.93	31374.88
475.12	30866.98
475.30	30871.67
475.48	30677.40
475.66	31679.15
475.84	30890.39
476.02	30646.97
476.20	30639.95
476.38	31005.08
476.56	31744.69
476.74	32325.14
476.92	32313.44
477.10	32790.91
477.28	34213.95
477.46	33933.09
477.64	34253.74
477.82	34307.57
478.00	34710.14
478.18	33989.26
478.36	33897.98
478.54	34085.22
478.72	33858.19
478.90	34738.23
479.08	35655.72
479.26	36250.22
479.44	36374.27
479.62	35915.52
479.80	35913.18
479.98	36439.80
480.16	36638.75
480.34	36002.12
480.52	36332.14
480.70	36308.73
480.88	36514.70
481.06	37209.84
481.24	37729.44
481.41	38450.32
481.59	38888.00
481.77	38593.09
481.95	38188.18
482.13	37483.68
482.31	38284.14
482.49	38976.94
482.67	38550.96
482.85	38724.16
483.03	39700.17
483.21	39459.09
483.39	40058.27
483.57	38958.22
483.74	38871.62
483.92	39047.16
484.10	39339.72
484.28	40121.46
484.46	40308.71
484.64	40641.06
484.82	39377.17
485.00	39351.43
485.18	38761.61
485.35	37511.77
485.53	34799.08
485.71	31583.19
485.89	31395.95
486.07	33113.90
486.25	36039.57
486.43	37881.57
486.61	38766.29
486.78	38089.88
486.96	38356.70
487.14	40428.07
487.32	41144.28
487.50	42197.52
487.68	43650.99
487.85	43742.27
488.03	43938.88
488.21	43531.62
488.39	42440.93
488.57	42197.52
488.75	41567.91
488.92	42653.92
489.10	45027.23
489.28	47096.26
489.46	47641.60
489.64	47625.22
489.81	47529.26
489.99	46930.08
490.17	47388.83
490.35	47524.58
490.53	46934.76
490.70	46110.89
490.88	46408.14
491.06	47791.40
491.24	47672.03
491.41	46387.08
491.59	44650.40
491.77	43454.39
491.95	44669.12
492.13	46473.68
492.30	47580.75
492.48	49083.37
492.66	49495.31
492.84	49605.31
493.01	48956.99
493.19	48123.75
493.37	48196.31
493.54	47711.82
493.72	48217.38
493.90	49514.03
494.08	51152.41
494.25	51166.45
494.43	51339.65
494.61	52062.88
494.79	51833.50
494.96	51859.25
495.14	50937.08
495.32	49511.69
495.49	48516.96
495.67	50422.16
495.85	51924.78
496.02	52264.16
496.20	52273.52
496.38	51686.05
496.55	51487.10
496.73	52088.62
496.91	51950.53
497.09	52800.15
497.26	53326.77
497.44	52353.10
497.62	52165.86
497.79	51056.45
497.97	49675.53
498.14	49556.16
498.32	51206.24
498.50	52425.66
498.67	52861.00
498.85	52502.90
499.03	52673.76
499.20	52982.71
499.38	53146.54
499.56	52886.74
499.73	52294.59
499.91	52009.04
500.08	51550.30
500.26	50461.95
500.44	50761.54
500.61	51749.24
500.79	51847.55
500.97	51131.34
501.14	50768.56
501.32	50930.06
501.49	50651.53
501.67	51126.66
501.84	51814.78
502.02	51964.57
502.20	52346.08
502.37	52556.73
502.55	52779.08
502.72	53361.87
502.90	53956.37
503.07	53439.11
503.25	53123.14
503.43	51934.15
503.60	51349.01
503.78	50651.53
503.95	50990.91
504.13	52903.13
504.30	53792.53
504.48	53432.09
504.65	53216.76
504.83	53113.78
505.01	53628.69
505.18	54262.98
505.36	54733.43
505.53	54899.61
505.71	55082.17
505.88	55360.69
506.06	54375.33
506.23	54007.86
506.41	53764.45
506.58	54061.69
506.76	54075.74
506.93	53666.14
507.11	53621.67
507.28	53820.62
507.46	53432.09
507.63	52341.40
507.81	52402.25
507.98	52596.52
508.16	53476.56
508.33	54255.96
508.50	54424.48
508.68	54688.96
508.85	55405.16
509.03	55430.91
509.20	55241.32
509.38	54265.32
509.55	53399.32
509.73	53399.32
509.90	54347.24
510.08	54569.59
510.25	54534.48
510.42	54429.16
510.60	54204.47
510.77	54358.94
510.95	55061.10
511.12	54972.16
511.30	55456.65
511.47	55714.11
511.64	55615.81
511.82	55367.71
511.99	54632.78
512.17	54239.57
512.34	53609.97
512.51	53975.09
512.69	53771.47
512.86	54040.63
513.04	54635.13
513.21	54677.25
513.38	54209.15
513.56	53432.09
513.73	52851.64
513.90	53116.12
514.08	52973.34
514.25	53820.62
514.43	54127.23
514.60	53834.66
514.77	54131.91
514.95	54176.38
515.12	54021.90
515.29	54506.40
515.47	54890.24
515.64	55196.85
515.81	54738.11
515.99	54124.89
516.16	52521.62
516.33	49509.35
516.51	47782.04
516.68	46518.15
516.85	46677.30
517.03	46911.36
517.20	49698.94
517.37	53183.99
517.54	54396.39
517.72	53738.70
517.89	50761.54
518.06	47676.71
518.24	47964.60
518.41	50822.39
518.58	52362.46
518.75	53038.88
518.93	53024.84
519.10	52708.86
519.27	53588.91
519.45	53860.41
519.62	54452.56
519.79	54918.33
519.96	54843.43
520.14	54314.47
520.31	52992.07
520.48	53066.97
520.65	53418.05
520.83	54754.49
521.00	55121.96
521.17	54712.36
521.34	54286.39
521.52	54609.38
521.69	55222.60
521.86	55753.90
522.03	55363.03
522.20	54216.17
522.38	52907.81
522.55	52830.57
522.72	53352.51
522.89	53900.20
523.07	54045.31
523.24	54468.95
523.41	55339.63
523.58	55704.75
523.75	55966.89
523.92	56020.72
524.10	55934.12
524.27	55803.05
524.44	55482.40
524.61	55585.38
524.78	55330.26
524.96	55297.50
525.13	55011.95
525.30	55416.86
525.47	55955.19
525.64	55798.37
525.81	54897.27
525.98	53434.43
526.16	51810.10
526.33	51164.11
526.50	50806.01
526.67	50223.22
526.84	50969.85
527.01	52229.05
527.18	52919.51
527.36	54157.66
527.53	54773.22
527.70	55248.35
527.87	54529.80
528.04	54232.55
528.21	54747.47
528.38	55444.95
528.55	56229.03
528.72	56427.98
528.89	56622.24
529.07	56299.25
529.24	55402.82
529.41	55054.08
529.58	54447.88
529.75	54466.61
529.92	54775.56
530.09	55444.95
530.26	55636.87
530.43	56097.96
530.60	56245.41
530.77	56275.84
530.94	56514.58
531.11	55990.30
531.28	55458.99
531.46	55433.25
531.63	55587.72
531.80	55203.88
531.97	54995.57
532.14	54368.30
532.31	53050.58
532.48	52203.31
532.65	52013.73
532.82	53298.68
532.99	54522.78
533.16	55096.21
533.33	55662.62
533.50	55278.77
533.67	54749.81
533.84	54190.42
534.01	54391.71
534.18	54384.69
534.35	54721.72
534.52	54726.41
534.69	55068.12
534.86	55283.45
535.03	55700.07
535.20	55870.93
535.37	56376.48
535.54	56535.64
535.71	56086.26
535.88	56226.69
536.05	55028.34
536.22	54574.27
536.38	54368.30
536.55	53563.16
536.72	53043.56
536.89	53001.43
537.06	54300.43
537.23	54892.58
537.40	55248.35
537.57	55131.32
537.74	55131.32
537.91	54946.42
538.08	54805.98
538.25	54967.48
538.42	55281.11
538.59	55070.46
538.75	54461.93
538.92	54087.44
539.09	53904.88
539.26	53701.25
539.43	53015.47
539.60	53521.03
539.77	53998.50
539.94	53483.58
540.11	52767.38
540.28	52170.54
540.44	52570.77
540.61	52633.97
540.78	52980.37
540.95	53642.74
541.12	53642.74
541.29	54330.86
541.46	54543.84
541.62	54635.13
541.79	54508.74
541.96	53345.49
542.13	53359.53
542.30	53764.45
542.47	54328.52
542.63	53879.13
542.80	53530.39
542.97	53743.38
543.14	53834.66
543.31	53509.33
543.48	54372.99
543.64	54824.71
543.81	55571.34
543.98	55405.16
544.15	54518.10
544.32	53815.94
544.48	53771.47
544.65	54436.18
544.82	54871.52
544.99	54459.58
545.16	54026.59
545.32	53979.78
545.49	54602.36
545.66	55093.87
545.83	54710.02
546.00	54171.70
546.16	54204.47
546.33	53764.45
546.50	54171.70
546.67	54447.88
546.83	53928.28
547.00	53694.23
547.17	53242.51
547.34	52633.97
547.50	52549.71
547.67	53137.18
547.84	53396.98
548.00	53595.93
548.17	53928.28
548.34	53869.77
548.51	53818.28
548.67	53944.67
548.84	53904.88
549.01	53937.65
549.18	54000.84
549.34	53813.60
549.51	54082.76
549.68	53715.29
549.84	53712.95
550.01	53275.27
550.18	53389.96
550.34	53361.87
550.51	53546.78
550.68	53687.21
550.84	53123.14
551.01	53317.40
551.18	53265.91
551.34	53404.00
551.51	53785.51
551.68	53991.48
551.84	54099.14
552.01	53846.36
552.18	53642.74
552.34	52837.59
552.51	51990.32
552.68	52065.22
552.84	52865.68
553.01	53069.31
553.18	53155.91
553.34	53221.44
553.51	53506.99
553.67	53626.35
553.84	53937.65
554.01	53659.12
554.17	53193.36
554.34	53411.02
554.51	53694.23
554.67	53876.79
554.84	53736.36
555.00	53347.83
555.17	52992.07
555.33	53106.76
555.50	52966.32
555.67	52872.70
555.83	53111.44
556.00	52528.64
556.16	52701.84
556.33	52142.45
556.50	51903.72
556.66	51894.36
556.83	51489.45
556.99	51648.60
557.16	51767.97
557.32	52435.02
557.49	52619.92
557.65	52491.19
557.82	52385.87
557.98	52313.31
558.15	52027.77
558.32	50635.15
558.48	49827.66
558.65	49867.45
558.81	50454.93
558.98	50780.26
559.14	51285.82
559.31	51395.82
559.47	51173.47
559.64	50576.64
559.80	50445.57
559.97	50588.34
560.13	50756.86
560.30	52264.16
560.46	52790.78
560.63	52886.74
560.79	53038.88
560.96	52526.30
561.12	51145.39
561.29	49982.14
561.45	50312.16
561.61	50717.07
561.78	51145.39
561.94	51192.20
562.11	51030.70
562.27	50787.28
562.44	51255.39
562.60	51412.21
562.77	52006.70
562.93	51714.14
563.10	51662.64
563.26	50953.46
563.42	51044.74
563.59	50759.20
563.75	50522.80
563.92	50555.57
564.08	50686.64
564.24	51229.65
564.41	51065.81
564.57	51145.39
564.74	51002.61
564.90	50721.75
565.07	50361.31
565.23	49822.98
565.39	49340.83
565.56	48790.81
565.72	48891.45
565.88	49380.62
566.05	49628.72
566.21	49476.58
566.38	50075.76
566.54	50089.80
566.70	50225.56
566.87	50405.78
567.03	50663.24
567.19	51152.41
567.36	50679.62
567.52	50553.23
567.68	50150.66
567.85	49212.10
568.01	49237.85
568.17	48477.18
568.34	48369.51
568.50	48479.52
568.66	48669.10
568.83	49137.21
568.99	49127.84
569.15	49162.95
569.32	49453.18
569.48	49289.34
569.64	49043.59
569.81	48589.52
569.97	48521.65
570.13	48645.69
570.30	47618.20
570.46	47283.50
570.62	46646.88
570.78	46693.69
570.95	46681.98
571.11	47744.59
571.27	47983.32
571.43	48128.44
571.60	48598.88
571.76	48832.94
571.92	49247.21
572.09	49528.08
572.25	49088.06
572.41	49322.11
572.57	49109.12
572.74	49249.55
572.90	48413.98
573.06	48231.42
573.22	48725.27
573.38	48559.09
573.55	48868.05
573.71	48722.93
573.87	48779.10
574.03	48692.50
574.20	48215.04
574.36	47473.09
574.52	48058.22
574.68	47201.58
574.84	47138.39
575.01	46707.73
575.17	46178.77
575.33	46738.16
575.49	46880.93
575.65	47117.32
575.82	46911.36
575.98	46284.09
576.14	47054.13
576.30	47477.77
576.46	47681.39
576.62	47704.80
576.79	47309.25
576.95	46993.28
577.11	47012.00
577.27	46876.25
577.43	47129.03
577.59	46550.91
577.75	46340.27
577.92	45762.15
578.08	45078.72
578.24	45139.57
578.40	45368.94
578.56	45869.82
578.72	46040.68
578.88	46431.55
579.04	46403.46
579.21	46394.10
579.37	46745.18
579.53	46745.18
579.69	46546.23
579.85	46979.23
580.01	47068.17
580.17	46316.86
580.33	45951.74
580.49	46450.27
580.65	46199.83
580.82	46293.46
580.98	46717.09
581.14	46522.83
581.30	46546.23
581.46	46602.41
581.62	46852.84
581.78	46649.22
581.94	46850.50
582.10	46586.02
582.26	47110.30
582.42	46674.96
582.58	46576.66
582.74	46838.80
582.90	47271.80
583.06	46883.27
583.22	46883.27
583.38	46511.13
583.54	46490.06
583.70	46122.60
583.86	46213.88
584.02	46391.76
584.18	46258.35
584.34	46445.59
584.50	46199.83
584.66	46230.26
584.82	45851.09
584.98	45853.44
585.14	44898.50
585.30	44177.61
