SpectraSuite Data File
++++++++++++++++++++++++++++++++++++
Date: Mon Oct 07 14:53:16 GMT-05:00 2013
User: price-jones
Dark Spectrum Present: No
Reference Spectrum Present: No
Number of Sampled Component Spectra: 1
Spectrometers: USB2+H05261
Integration Time (usec): 100000 (USB2+H05261)
Spectra Averaged: 1 (USB2+H05261)
Boxcar Smoothing: 0 (USB2+H05261)
Correct for Electrical Dark: No (USB2+H05261)
Strobe/Lamp Enabled: No (USB2+H05261)
Correct for Detector Non-linearity: No (USB2+H05261)
Correct for Stray Light: No (USB2+H05261)
Number of Pixels in Processed Spectrum: 2048
>>>>>Begin Processed Spectral Data<<<<<
365.73	0.00
365.92	0.00
366.12	0.00
366.32	0.00
366.52	0.00
366.72	0.00
366.91	0.00
367.11	0.00
367.31	0.00
367.51	0.00
367.70	0.00
367.90	0.00
368.10	0.00
368.30	0.00
368.49	0.00
368.69	0.00
368.89	0.00
369.09	0.00
369.28	0.00
369.48	0.00
369.68	0.00
369.87	0.00
370.07	0.00
370.27	0.00
370.47	2167.34
370.66	9397.25
370.86	10916.26
371.06	11452.24
371.25	11424.15
371.45	10335.81
371.65	9399.59
371.84	8985.32
372.04	9497.89
372.24	10424.75
372.44	10740.72
372.63	10281.97
372.83	9390.23
373.03	8727.86
373.22	8142.72
373.42	8772.33
373.62	10097.07
373.81	10544.11
374.01	10263.25
374.21	9048.51
374.40	8987.66
374.60	9483.85
374.79	10895.19
374.99	12189.51
375.19	12601.44
375.38	12695.07
375.58	12166.10
375.78	11754.17
375.97	12114.61
376.17	12365.05
376.37	12697.41
376.56	13125.72
376.76	13736.60
376.95	14630.69
377.15	15480.30
377.35	16105.23
377.54	16739.51
377.74	16968.88
377.93	16709.08
378.13	16205.87
378.33	15417.11
378.52	14303.01
378.72	13844.27
378.91	13434.68
379.11	13226.37
379.31	12606.13
379.50	12989.97
379.70	14043.21
379.89	15784.57
380.09	16163.74
380.28	16699.72
380.48	16393.11
380.68	15782.23
380.87	15452.22
381.07	14244.50
381.26	13135.09
381.46	12379.09
381.65	12002.27
381.85	11768.21
382.04	11304.79
382.24	10499.64
382.43	10057.28
382.63	9884.08
382.83	9853.66
383.02	9982.38
383.22	9858.34
383.41	9961.32
383.61	10904.56
383.80	12482.08
384.00	14001.08
384.19	15541.16
384.39	16152.04
384.58	16505.46
384.78	15939.05
384.97	15611.37
385.17	14731.33
385.36	13689.79
385.56	13600.85
385.75	14146.20
385.95	15346.89
386.14	16383.75
386.34	15985.86
386.53	15426.47
386.72	14906.87
386.92	15124.54
387.11	15763.51
387.31	16678.66
387.50	15997.56
387.70	15721.38
387.89	15456.90
388.09	15683.93
388.28	15871.17
388.48	16224.59
388.67	17310.60
388.86	19028.56
389.06	20144.99
389.25	20938.43
389.45	20954.82
389.64	21376.11
389.84	20732.47
390.03	20329.89
390.22	20620.12
390.42	21659.32
390.61	22939.59
390.81	24135.60
391.00	24432.85
391.19	23782.18
391.39	23246.20
391.58	21991.67
391.78	20477.35
391.97	19981.15
392.16	18284.26
392.36	16280.77
392.55	13319.99
392.75	10691.57
392.94	9022.77
393.13	9231.07
393.33	11206.48
393.52	14134.50
393.71	16772.28
393.91	18600.24
394.10	20060.73
394.29	22405.95
394.49	23756.44
394.68	25797.38
394.88	25366.73
395.07	26251.45
395.26	26139.10
395.46	24964.15
395.65	22979.38
395.84	20056.05
396.04	16769.94
396.23	13680.43
396.42	11927.37
396.62	11864.18
396.81	14312.38
397.00	18150.85
397.19	22246.79
397.39	26342.73
397.58	29233.29
397.77	30333.34
397.97	31796.18
398.16	32086.40
398.35	33329.23
398.55	34176.50
398.74	35026.12
398.93	35564.44
399.12	34614.18
399.32	33668.61
399.51	34979.31
399.70	37041.32
399.90	36259.58
400.09	36048.93
400.28	35615.93
400.47	36421.08
400.67	37895.61
400.86	38522.88
401.05	38478.41
401.24	38857.57
401.44	39992.73
401.63	39761.02
401.82	40273.60
402.01	40254.87
402.21	40308.71
402.40	40289.98
402.59	38731.18
402.78	37165.37
402.97	36776.84
403.17	38319.25
403.36	40360.20
403.55	41757.50
403.74	42146.03
403.93	40343.81
404.13	37254.31
404.32	37268.35
404.51	38506.49
404.70	40989.80
404.89	40411.69
405.09	40603.61
405.28	39028.43
405.47	39196.95
405.66	39105.67
405.85	37933.06
406.05	37359.63
406.24	38052.43
406.43	39234.40
406.62	40055.93
406.81	40685.53
407.00	39524.63
407.20	38520.54
407.39	38845.87
407.58	41022.57
407.77	41750.48
407.96	42705.41
408.15	43356.08
408.34	43576.09
408.54	45773.86
408.73	45551.51
408.92	44669.12
409.11	43763.34
409.30	41577.28
409.49	39358.45
409.68	36872.80
409.87	36933.65
410.07	38773.31
410.26	41706.01
410.45	43730.57
410.64	45455.54
410.83	46045.36
411.02	47264.78
411.21	48205.67
411.40	47407.55
411.59	47232.01
411.78	47629.90
411.98	47107.96
412.17	47463.72
412.36	46742.84
412.55	47239.03
412.74	45925.99
412.93	45247.24
413.12	45432.14
413.31	49092.74
413.50	49209.76
413.69	49368.92
413.88	47866.30
414.07	46859.87
414.26	48203.33
414.45	49350.20
414.64	49162.95
414.83	49607.65
415.02	48968.69
415.22	48467.81
415.41	49586.59
415.60	50593.02
415.79	52079.26
415.98	52163.52
416.17	52287.57
416.36	51367.74
416.55	50806.01
416.74	49710.64
416.93	48083.97
417.12	48495.90
417.31	49633.40
417.50	49881.50
417.69	50817.71
417.88	51171.13
418.07	50522.80
418.26	49972.78
418.45	50314.50
418.64	51505.83
418.83	52711.20
419.02	51952.87
419.21	51707.12
419.39	50216.19
419.58	49141.89
419.77	49535.10
419.96	51089.21
420.15	52182.24
420.34	52980.37
420.53	53930.62
420.72	54370.64
420.91	54136.59
421.10	54131.91
421.29	53829.98
421.48	52935.90
421.67	53904.88
421.86	52755.68
422.05	49790.22
422.24	46829.44
422.43	47012.00
422.61	50684.30
422.80	52739.29
422.99	52793.12
423.18	51484.76
423.37	50791.97
423.56	51320.93
423.75	51592.43
423.94	52435.02
424.13	50415.14
424.32	50609.40
424.50	50834.10
424.69	50075.76
424.88	50728.77
425.07	50707.71
425.26	49940.01
425.45	49874.48
425.64	49600.63
425.83	50127.25
426.01	51416.89
426.20	51957.55
426.39	51676.69
426.58	48814.21
426.77	46026.63
426.96	45385.33
427.15	47236.69
427.33	49907.24
427.52	50738.13
427.71	50747.50
427.90	50370.67
428.09	50115.55
428.28	49165.29
428.46	47632.24
428.65	47917.79
428.84	48912.52
429.03	48900.81
429.22	46443.25
429.40	44016.11
429.59	40694.89
429.78	35959.99
429.97	36961.74
430.16	36870.46
430.34	37537.51
430.53	37766.88
430.72	38843.53
430.91	43002.66
431.10	49368.92
431.28	53886.15
431.47	56016.04
431.66	55690.71
431.85	52774.40
432.03	50232.58
432.22	49223.81
432.41	51271.78
432.60	54113.19
432.79	55356.01
432.97	55281.11
433.16	54445.54
433.35	51676.69
433.54	48018.43
433.72	46747.52
433.91	47763.31
434.10	51646.26
434.28	53581.88
434.47	54951.10
434.66	54225.53
434.85	53895.52
435.03	54080.42
435.22	54518.10
435.41	55931.78
435.59	55884.97
435.78	56629.26
435.97	56860.97
436.16	56671.39
436.34	56685.43
436.53	56191.58
436.72	56053.49
436.90	54443.20
437.09	54948.76
437.28	54485.33
437.46	55281.11
437.65	55070.46
437.84	52617.58
438.02	50698.34
438.21	50464.29
438.40	52292.25
438.58	54485.33
438.77	55278.77
438.96	55496.44
439.14	56987.36
439.33	57202.69
439.52	57546.75
439.70	56942.89
439.89	56170.52
440.08	55491.76
440.26	55664.96
440.45	56774.37
440.63	58279.34
440.82	59332.58
441.01	58946.39
441.19	58780.21
441.38	59796.01
441.57	60271.14
441.75	60114.32
441.94	60229.01
442.12	60381.14
442.31	60608.17
442.50	60711.16
442.68	60186.88
442.87	59852.18
443.05	59711.75
443.24	60540.30
443.43	61003.72
443.61	60893.72
443.80	61176.92
443.98	59810.05
444.17	59662.60
444.35	61137.13
444.54	61528.00
444.73	61289.27
444.91	60292.20
445.10	59105.55
445.28	58330.83
445.47	58031.24
445.65	58375.30
445.84	59018.95
446.02	59765.58
446.21	60327.31
446.39	60289.86
446.58	60481.78
446.77	60811.80
446.95	60893.72
447.14	61748.01
447.32	61953.98
447.51	61467.15
447.69	60371.78
447.88	60456.04
448.06	60849.25
448.25	61160.54
448.43	61289.27
448.62	60795.42
448.80	60699.45
448.99	60839.89
449.17	61078.62
449.36	60818.82
449.54	61535.02
449.73	62007.81
449.91	62794.23
450.10	63353.62
450.28	63391.07
450.46	63388.73
450.65	63208.51
450.83	62838.70
451.02	62588.27
451.20	62239.53
451.39	62485.28
451.57	62569.54
451.76	62546.14
451.94	61993.77
452.13	61525.66
452.31	60760.31
452.49	59199.17
452.68	59676.64
452.86	59833.46
453.05	60409.23
453.23	61247.14
453.42	61481.19
453.60	61900.15
453.78	62026.54
453.97	61958.66
454.15	62031.22
454.34	61565.45
454.52	61825.25
454.70	60949.89
454.89	61181.60
455.07	61528.00
455.26	61740.99
455.44	62370.60
455.62	62899.56
455.81	62749.76
455.99	62855.09
456.17	62555.50
456.36	62656.14
456.54	63503.42
456.73	63664.91
456.91	63891.94
457.09	64184.51
457.28	64409.20
457.46	63252.98
457.64	63032.97
457.83	62305.06
458.01	61766.74
458.19	62740.40
458.38	62843.38
458.56	63419.16
458.74	63079.78
458.93	63185.10
459.11	62887.85
459.29	63016.58
459.48	63051.69
459.66	62897.22
459.84	63224.89
460.03	63297.45
460.21	63238.93
460.39	64224.30
460.57	63440.22
460.76	64261.75
460.94	64062.80
461.12	63671.93
461.31	63915.35
461.49	63973.86
461.67	64067.48
461.85	64811.77
462.04	64205.58
462.22	64563.68
462.40	64346.01
462.59	64275.79
462.77	64126.00
462.95	64102.59
463.13	63992.59
463.32	63580.65
463.50	63538.52
463.68	63803.00
463.86	63908.33
464.05	63419.16
464.23	62864.45
464.41	62775.51
464.59	62768.49
464.78	63845.13
464.96	63693.00
465.14	63557.25
465.32	63987.91
465.50	64594.10
465.69	64947.53
465.87	64210.26
466.05	63746.83
466.23	62511.03
466.41	62244.21
466.60	62663.16
466.78	62700.61
466.96	63290.43
467.14	63524.48
467.32	64039.40
467.51	63847.47
467.69	62614.01
467.87	62920.62
468.05	63398.09
468.23	63337.24
468.41	62885.51
468.60	63348.94
468.78	63564.27
468.96	63575.97
469.14	64257.07
469.32	64266.43
469.50	63091.48
469.69	63323.19
469.87	62974.45
470.05	62810.62
470.23	62726.36
470.41	62850.41
470.59	62986.16
470.77	63145.31
470.95	63522.14
471.14	64025.35
471.32	63943.44
471.50	65535.00
471.68	65263.50
471.86	65434.36
472.04	65509.25
472.22	65535.00
472.40	64568.36
472.58	64214.94
472.77	64011.31
472.95	64608.15
473.13	65333.71
473.31	64699.43
473.49	64732.20
473.67	64980.29
473.85	65396.91
474.03	65535.00
474.21	65535.00
474.39	65535.00
474.57	65535.00
474.75	65535.00
474.93	65535.00
475.12	65396.91
475.30	65387.55
475.48	65535.00
475.66	65535.00
475.84	65535.00
476.02	65535.00
476.20	65322.01
476.38	65535.00
476.56	65535.00
476.74	65535.00
476.92	65535.00
477.10	65535.00
477.28	65535.00
477.46	65535.00
477.64	65535.00
477.82	65535.00
478.00	65535.00
478.18	65535.00
478.36	65535.00
478.54	65535.00
478.72	65535.00
478.90	65535.00
479.08	65535.00
479.26	65535.00
479.44	65535.00
479.62	65535.00
479.80	65535.00
479.98	65535.00
480.16	65535.00
480.34	65535.00
480.52	65535.00
480.70	65535.00
480.88	65535.00
481.06	65535.00
481.24	65535.00
481.41	65535.00
481.59	65535.00
481.77	65535.00
481.95	65535.00
482.13	65535.00
482.31	65535.00
482.49	65535.00
482.67	65535.00
482.85	65535.00
483.03	65535.00
483.21	65535.00
483.39	65535.00
483.57	65535.00
483.74	65535.00
483.92	65535.00
484.10	65535.00
484.28	65535.00
484.46	65535.00
484.64	65535.00
484.82	65535.00
485.00	65535.00
485.18	65535.00
485.35	65535.00
485.53	65535.00
485.71	65535.00
485.89	65535.00
486.07	65535.00
486.25	65535.00
486.43	65535.00
486.61	65535.00
486.78	65535.00
486.96	65535.00
487.14	65535.00
487.32	65535.00
487.50	65535.00
487.68	65535.00
487.85	65535.00
488.03	65535.00
488.21	65535.00
488.39	65535.00
488.57	65535.00
488.75	65535.00
488.92	65535.00
489.10	65535.00
489.28	65535.00
489.46	65535.00
489.64	65535.00
489.81	65535.00
489.99	65535.00
490.17	65535.00
490.35	65535.00
490.53	65535.00
490.70	65535.00
490.88	65535.00
491.06	65535.00
491.24	65535.00
491.41	65535.00
491.59	65535.00
491.77	65535.00
491.95	65535.00
492.13	65535.00
492.30	65535.00
492.48	65535.00
492.66	65535.00
492.84	65535.00
493.01	65535.00
493.19	65535.00
493.37	65535.00
493.54	65535.00
493.72	65535.00
493.90	65535.00
494.08	65535.00
494.25	65535.00
494.43	65535.00
494.61	65535.00
494.79	65535.00
494.96	65535.00
495.14	65535.00
495.32	65535.00
495.49	65535.00
495.67	65535.00
495.85	65535.00
496.02	65535.00
496.20	65535.00
496.38	65535.00
496.55	65535.00
496.73	65535.00
496.91	65535.00
497.09	65535.00
497.26	65535.00
497.44	65535.00
497.62	65535.00
497.79	65535.00
497.97	65535.00
498.14	65535.00
498.32	65535.00
498.50	65535.00
498.67	65535.00
498.85	65535.00
499.03	65535.00
499.20	65535.00
499.38	65535.00
499.56	65535.00
499.73	65535.00
499.91	65535.00
500.08	65535.00
500.26	65535.00
500.44	65535.00
500.61	65535.00
500.79	65535.00
500.97	65535.00
501.14	65535.00
501.32	65535.00
501.49	65535.00
501.67	65535.00
501.84	65535.00
502.02	65535.00
502.20	65535.00
502.37	65535.00
502.55	65535.00
502.72	65535.00
502.90	65535.00
503.07	65535.00
503.25	65535.00
503.43	65535.00
503.60	65535.00
503.78	65535.00
503.95	65535.00
504.13	65535.00
504.30	65535.00
504.48	65535.00
504.65	65535.00
504.83	65535.00
505.01	65535.00
505.18	65535.00
505.36	65535.00
505.53	65535.00
505.71	65535.00
505.88	65535.00
506.06	65535.00
506.23	65535.00
506.41	65535.00
506.58	65535.00
506.76	65535.00
506.93	65535.00
507.11	65535.00
507.28	65535.00
507.46	65535.00
507.63	65535.00
507.81	65535.00
507.98	65535.00
508.16	65535.00
508.33	65535.00
508.50	65535.00
508.68	65535.00
508.85	65535.00
509.03	65535.00
509.20	65535.00
509.38	65535.00
509.55	65535.00
509.73	65535.00
509.90	65535.00
510.08	65535.00
510.25	65535.00
510.42	65535.00
510.60	65535.00
510.77	65535.00
510.95	65535.00
511.12	65535.00
511.30	65535.00
511.47	65535.00
511.64	65535.00
511.82	65535.00
511.99	65535.00
512.17	65535.00
512.34	65535.00
512.51	65535.00
512.69	65535.00
512.86	65535.00
513.04	65535.00
513.21	65535.00
513.38	65535.00
513.56	65535.00
513.73	65535.00
513.90	65535.00
514.08	65535.00
514.25	65535.00
514.43	65535.00
514.60	65535.00
514.77	65535.00
514.95	65535.00
515.12	65535.00
515.29	65535.00
515.47	65535.00
515.64	65535.00
515.81	65535.00
515.99	65535.00
516.16	65535.00
516.33	65535.00
516.51	65535.00
516.68	65535.00
516.85	65535.00
517.03	65535.00
517.20	65535.00
517.37	65535.00
517.54	65535.00
517.72	65535.00
517.89	65535.00
518.06	65535.00
518.24	65535.00
518.41	65535.00
518.58	65535.00
518.75	65535.00
518.93	65535.00
519.10	65535.00
519.27	65535.00
519.45	65535.00
519.62	65535.00
519.79	65535.00
519.96	65535.00
520.14	65535.00
520.31	65535.00
520.48	65535.00
520.65	65535.00
520.83	65535.00
521.00	65535.00
521.17	65535.00
521.34	65535.00
521.52	65535.00
521.69	65535.00
521.86	65535.00
522.03	65535.00
522.20	65535.00
522.38	65535.00
522.55	65535.00
522.72	65535.00
522.89	65535.00
523.07	65535.00
523.24	65535.00
523.41	65535.00
523.58	65535.00
523.75	65535.00
523.92	65535.00
524.10	65535.00
524.27	65535.00
524.44	65535.00
524.61	65535.00
524.78	65535.00
524.96	65535.00
525.13	65535.00
525.30	65535.00
525.47	65535.00
525.64	65535.00
525.81	65535.00
525.98	65535.00
526.16	65535.00
526.33	65535.00
526.50	65535.00
526.67	65535.00
526.84	65535.00
527.01	65535.00
527.18	65535.00
527.36	65535.00
527.53	65535.00
527.70	65535.00
527.87	65535.00
528.04	65535.00
528.21	65535.00
528.38	65535.00
528.55	65535.00
528.72	65535.00
528.89	65535.00
529.07	65535.00
529.24	65535.00
529.41	65535.00
529.58	65535.00
529.75	65535.00
529.92	65535.00
530.09	65535.00
530.26	65535.00
530.43	65535.00
530.60	65535.00
530.77	65535.00
530.94	65535.00
531.11	65535.00
531.28	65535.00
531.46	65535.00
531.63	65535.00
531.80	65535.00
531.97	65535.00
532.14	65535.00
532.31	65535.00
532.48	65535.00
532.65	65535.00
532.82	65535.00
532.99	65535.00
533.16	65535.00
533.33	65535.00
533.50	65535.00
533.67	65535.00
533.84	65535.00
534.01	65535.00
534.18	65535.00
534.35	65535.00
534.52	65535.00
534.69	65535.00
534.86	65535.00
535.03	65535.00
535.20	65535.00
535.37	65535.00
535.54	65535.00
535.71	65535.00
535.88	65535.00
536.05	65535.00
536.22	65535.00
536.38	65535.00
536.55	65535.00
536.72	65535.00
536.89	65535.00
537.06	65535.00
537.23	65535.00
537.40	65535.00
537.57	65535.00
537.74	65535.00
537.91	65535.00
538.08	65535.00
538.25	65535.00
538.42	65535.00
538.59	65535.00
538.75	65535.00
538.92	65535.00
539.09	65535.00
539.26	65535.00
539.43	65535.00
539.60	65535.00
539.77	65535.00
539.94	65535.00
540.11	65535.00
540.28	65535.00
540.44	65535.00
540.61	65535.00
540.78	65535.00
540.95	65535.00
541.12	65535.00
541.29	65535.00
541.46	65535.00
541.62	65535.00
541.79	65535.00
541.96	65535.00
542.13	65535.00
542.30	65535.00
542.47	65535.00
542.63	65535.00
542.80	65535.00
542.97	65535.00
543.14	65535.00
543.31	65535.00
543.48	65535.00
543.64	65535.00
543.81	65535.00
543.98	65535.00
544.15	65535.00
544.32	65535.00
544.48	65535.00
544.65	65535.00
544.82	65535.00
544.99	65535.00
545.16	65535.00
545.32	65535.00
545.49	65535.00
545.66	65535.00
545.83	65535.00
546.00	65535.00
546.16	65535.00
546.33	65535.00
546.50	65535.00
546.67	65535.00
546.83	65535.00
547.00	65535.00
547.17	65535.00
547.34	65535.00
547.50	65535.00
547.67	65535.00
547.84	65535.00
548.00	65535.00
548.17	65535.00
548.34	65535.00
548.51	65535.00
548.67	65535.00
548.84	65535.00
549.01	65535.00
549.18	65535.00
549.34	65535.00
549.51	65535.00
549.68	65535.00
549.84	65535.00
550.01	65535.00
550.18	65535.00
550.34	65535.00
550.51	65535.00
550.68	65535.00
550.84	65535.00
551.01	65535.00
551.18	65535.00
551.34	65535.00
551.51	65535.00
551.68	65535.00
551.84	65535.00
552.01	65535.00
552.18	65535.00
552.34	65535.00
552.51	65535.00
552.68	65535.00
552.84	65535.00
553.01	65535.00
553.18	65535.00
553.34	65535.00
553.51	65535.00
553.67	65535.00
553.84	65535.00
554.01	65535.00
554.17	65535.00
554.34	65535.00
554.51	65535.00
554.67	65535.00
554.84	65535.00
555.00	65535.00
555.17	65535.00
555.33	65535.00
555.50	65535.00
555.67	65535.00
555.83	65535.00
556.00	65535.00
556.16	65535.00
556.33	65535.00
556.50	65535.00
556.66	65535.00
556.83	65535.00
556.99	65535.00
557.16	65535.00
557.32	65535.00
557.49	65535.00
557.65	65535.00
557.82	65535.00
557.98	65535.00
558.15	65535.00
558.32	65535.00
558.48	65535.00
558.65	65535.00
558.81	65535.00
558.98	65535.00
559.14	65535.00
559.31	65535.00
559.47	65535.00
559.64	65535.00
559.80	65535.00
559.97	65535.00
560.13	65535.00
560.30	65535.00
560.46	65535.00
560.63	65535.00
560.79	65535.00
560.96	65535.00
561.12	65535.00
561.29	65535.00
561.45	65535.00
561.61	65535.00
561.78	65535.00
561.94	65535.00
562.11	65535.00
562.27	65535.00
562.44	65535.00
562.60	65535.00
562.77	65535.00
562.93	65535.00
563.10	65535.00
563.26	65535.00
563.42	65535.00
563.59	65535.00
563.75	65535.00
563.92	65535.00
564.08	65535.00
564.24	65535.00
564.41	65535.00
564.57	65535.00
564.74	65535.00
564.90	65535.00
565.07	65535.00
565.23	65535.00
565.39	65535.00
565.56	65535.00
565.72	65535.00
565.88	65535.00
566.05	65535.00
566.21	65535.00
566.38	65535.00
566.54	65535.00
566.70	65535.00
566.87	65535.00
567.03	65535.00
567.19	65535.00
567.36	65535.00
567.52	65535.00
567.68	65535.00
567.85	65535.00
568.01	65535.00
568.17	65535.00
568.34	65535.00
568.50	65535.00
568.66	65535.00
568.83	65535.00
568.99	65535.00
569.15	65535.00
569.32	65535.00
569.48	65535.00
569.64	65535.00
569.81	65535.00
569.97	65535.00
570.13	65535.00
570.30	65535.00
570.46	65535.00
570.62	65535.00
570.78	65535.00
570.95	65535.00
571.11	65535.00
571.27	65535.00
571.43	65535.00
571.60	65535.00
571.76	65535.00
571.92	65535.00
572.09	65535.00
572.25	65535.00
572.41	65535.00
572.57	65535.00
572.74	65535.00
572.90	65535.00
573.06	65535.00
573.22	65535.00
573.38	65535.00
573.55	65535.00
573.71	65535.00
573.87	65535.00
574.03	65535.00
574.20	65535.00
574.36	65535.00
574.52	65535.00
574.68	65535.00
574.84	65535.00
575.01	65535.00
575.17	65535.00
575.33	65535.00
575.49	65535.00
575.65	65535.00
575.82	65535.00
575.98	65535.00
576.14	65535.00
576.30	65535.00
576.46	65535.00
576.62	65535.00
576.79	65535.00
576.95	65535.00
577.11	65535.00
577.27	65535.00
577.43	65535.00
577.59	65535.00
577.75	65535.00
577.92	65535.00
578.08	65535.00
578.24	65535.00
578.40	65535.00
578.56	65535.00
578.72	65535.00
578.88	65535.00
579.04	65535.00
579.21	65535.00
579.37	65535.00
579.53	65535.00
579.69	65535.00
579.85	65535.00
580.01	65535.00
580.17	65535.00
580.33	65535.00
580.49	65535.00
580.65	65535.00
580.82	65535.00
580.98	65535.00
581.14	65535.00
581.30	65535.00
581.46	65535.00
581.62	65535.00
581.78	65535.00
581.94	65535.00
582.10	65535.00
582.26	65535.00
582.42	65535.00
582.58	65535.00
582.74	65535.00
582.90	65535.00
583.06	65535.00
583.22	65535.00
583.38	65535.00
583.54	65535.00
583.70	65535.00
583.86	65535.00
584.02	65535.00
