SpectraSuite Data File
++++++++++++++++++++++++++++++++++++
Date: Mon Oct 07 14:53:41 GMT-05:00 2013
User: price-jones
Dark Spectrum Present: No
Reference Spectrum Present: No
Number of Sampled Component Spectra: 1
Spectrometers: USB2+H05261
Integration Time (usec): 100000 (USB2+H05261)
Spectra Averaged: 1 (USB2+H05261)
Boxcar Smoothing: 0 (USB2+H05261)
Correct for Electrical Dark: No (USB2+H05261)
Strobe/Lamp Enabled: No (USB2+H05261)
Correct for Detector Non-linearity: No (USB2+H05261)
Correct for Stray Light: No (USB2+H05261)
Number of Pixels in Processed Spectrum: 2048
>>>>>Begin Processed Spectral Data<<<<<
365.73	0.00
365.92	0.00
366.12	0.00
366.32	0.00
366.52	0.00
366.72	0.00
366.91	0.00
367.11	0.00
367.31	0.00
367.51	0.00
367.70	0.00
367.90	0.00
368.10	0.00
368.30	0.00
368.49	0.00
368.69	0.00
368.89	0.00
369.09	0.00
369.28	0.00
369.48	0.00
369.68	0.00
369.87	0.00
370.07	0.00
370.27	0.00
370.47	486.83
370.66	2490.33
370.86	2939.71
371.06	3143.34
371.25	3126.96
371.45	2991.20
371.65	2693.96
371.84	2450.54
372.04	2434.16
372.24	2820.35
372.44	3129.30
372.63	3091.85
372.83	2724.38
373.03	2511.39
373.22	2293.72
373.42	2282.02
373.62	2551.18
373.81	3070.78
374.01	2993.55
374.21	2712.68
374.40	2427.14
374.60	2497.35
374.79	2869.50
374.99	3428.88
375.19	3688.68
375.38	3719.11
375.58	3660.60
375.78	3499.10
375.97	3365.69
376.17	3475.70
376.37	3468.67
376.56	3742.52
376.76	3941.46
376.95	4217.65
377.15	4442.34
377.35	4678.73
377.54	4837.89
377.74	5034.49
377.93	4767.67
378.13	4725.54
378.33	4566.39
378.52	4196.58
378.72	3955.51
378.91	3983.59
379.11	3836.14
379.31	3623.15
379.50	3723.79
379.70	3946.14
379.89	4381.48
380.09	4779.37
380.28	4896.40
380.48	4774.69
380.68	4627.24
380.87	4638.94
381.07	4294.88
381.26	3983.59
381.46	3641.87
381.65	3552.93
381.85	3536.55
382.04	3311.86
382.24	3178.45
382.43	2960.78
382.63	2892.90
382.83	2977.16
383.02	2904.60
383.22	2930.35
383.41	3045.04
383.61	3080.14
383.80	3517.83
384.00	4121.68
384.19	4573.41
384.39	4931.51
384.58	4753.63
384.78	4592.13
384.97	4664.69
385.17	4257.43
385.36	4184.88
385.56	4037.42
385.75	3995.29
385.95	4587.45
386.14	4924.49
386.34	4861.29
386.53	4638.94
386.72	4496.17
386.92	4280.84
387.11	4716.18
387.31	4870.65
387.50	4830.87
387.70	4713.84
387.89	4685.75
388.09	4861.29
388.28	4627.24
388.48	4746.61
388.67	5245.14
388.86	5521.32
389.06	6026.88
389.25	6382.64
389.45	6504.35
389.64	6490.31
389.84	6431.79
390.03	6270.30
390.22	6296.04
390.42	6420.09
390.61	6815.64
390.81	7393.75
391.00	7583.34
391.19	7386.73
391.39	7318.86
391.58	6853.09
391.78	6394.34
391.97	6221.14
392.16	5577.50
392.36	5282.59
392.55	4290.20
392.75	3398.46
392.94	2719.70
393.13	2665.87
393.33	3164.40
393.52	4002.32
393.71	5088.32
393.91	5558.77
394.10	6080.71
394.29	6670.53
394.49	7061.40
394.68	7887.61
394.88	7819.73
395.07	8065.49
395.26	8147.40
395.46	7770.58
395.65	7307.15
395.84	6424.77
396.04	5383.23
396.23	4512.55
396.42	3576.34
396.62	3478.04
396.81	4079.55
397.00	5291.95
397.19	6656.48
397.39	7906.33
397.58	8872.97
397.77	9479.17
397.97	9874.72
398.16	9858.34
398.35	10413.04
398.55	10387.30
398.74	11145.63
398.93	11218.19
399.12	11028.60
399.32	10717.31
399.51	11040.31
399.70	11768.21
399.90	11466.28
400.09	11421.81
400.28	11431.18
400.47	11548.20
400.67	12156.74
400.86	12428.24
401.05	12269.09
401.24	12510.16
401.44	12774.64
401.63	12709.11
401.82	12671.66
402.01	12800.39
402.21	12868.27
402.40	12987.63
402.59	12355.69
402.78	11852.47
402.97	11698.00
403.17	12100.57
403.36	12760.60
403.55	13198.28
403.74	13603.19
403.93	13027.42
404.13	11988.22
404.32	11782.26
404.51	11969.50
404.70	13371.48
404.89	13362.12
405.09	13235.73
405.28	12564.00
405.47	12596.76
405.66	12437.61
405.85	12386.12
406.05	12020.99
406.24	12154.40
406.43	12704.43
406.62	12807.41
406.81	13114.02
407.00	12542.93
407.20	12505.48
407.39	12802.73
407.58	13132.75
407.77	13284.88
407.96	14214.07
408.15	14146.20
408.34	14171.94
408.54	14974.75
408.73	14934.96
408.92	14867.08
409.11	14429.40
409.30	13678.09
409.49	12638.89
409.68	12156.74
409.87	11714.38
410.07	12194.19
410.26	13188.92
410.45	14214.07
410.64	14670.48
410.83	15002.83
411.02	15346.89
411.21	15978.84
411.40	15604.35
411.59	16084.16
411.78	15964.79
411.98	15463.92
412.17	15878.19
412.36	15606.69
412.55	15751.81
412.74	15272.00
412.93	15096.46
413.12	15117.52
413.31	16500.78
413.50	16638.87
413.69	16959.52
413.88	16271.40
414.07	15445.20
414.26	15901.60
414.45	16655.25
414.64	16652.91
414.83	16772.28
415.02	16142.67
415.22	16465.67
415.41	16580.36
415.60	17179.53
415.79	17879.35
415.98	18457.46
416.17	18480.87
416.36	18099.36
416.55	17500.19
416.74	17296.56
416.93	16379.07
417.12	16407.16
417.31	16793.34
417.50	16959.52
417.69	17664.02
417.88	17764.67
418.07	17289.54
418.26	17109.32
418.45	17216.98
418.64	17717.86
418.83	18869.40
419.02	18295.97
419.21	18335.76
419.39	17160.81
419.58	16493.76
419.77	16692.70
419.96	17172.51
420.15	18218.73
420.34	18876.42
420.53	19433.47
420.72	19655.82
420.91	19690.93
421.10	19339.85
421.29	19300.06
421.48	18417.68
421.67	19508.37
421.86	18813.23
422.05	17619.55
422.24	16037.35
422.43	15552.86
422.61	17165.49
422.80	18822.59
422.99	18735.99
423.18	18382.57
423.37	17860.63
423.56	17818.50
423.75	18291.29
423.94	18513.64
424.13	17436.99
424.32	17841.90
424.50	17937.87
424.69	17371.46
424.88	17886.37
425.07	17537.63
425.26	17617.21
425.45	17418.27
425.64	17109.32
425.83	17013.35
426.01	18066.60
426.20	18506.62
426.39	18310.01
426.58	16718.45
426.77	15714.36
426.96	14970.07
427.15	15704.99
427.33	17139.74
427.52	17626.57
427.71	17769.35
427.90	17699.13
428.09	17422.95
428.28	17039.10
428.46	16690.36
428.65	16114.59
428.84	16404.81
429.03	16826.11
429.22	15969.48
429.40	15344.55
429.59	13872.36
429.78	12332.28
429.97	12114.61
430.16	12390.80
430.34	12334.62
430.53	12409.52
430.72	12678.68
430.91	13933.21
431.10	16318.22
431.28	19489.64
431.47	20994.61
431.66	21319.94
431.85	19192.39
432.03	17951.91
432.22	17088.25
432.41	17722.54
432.60	19576.24
432.79	20336.91
432.97	20989.92
433.16	20554.58
433.35	18349.80
433.54	16891.65
433.72	15669.89
433.91	16128.63
434.10	18073.62
434.28	19639.44
434.47	20554.58
434.66	20257.34
434.85	19742.42
435.03	19606.67
435.22	20233.93
435.41	21750.60
435.59	21544.63
435.78	21736.56
435.97	22434.03
436.16	21961.25
436.34	21781.03
436.53	21680.38
436.72	21551.65
436.90	20458.62
437.09	20386.07
437.28	20006.90
437.46	20690.34
437.65	20575.65
437.84	19503.68
438.02	17652.32
438.21	17294.22
438.40	18525.34
438.58	20166.06
438.77	20723.10
438.96	20875.24
439.14	21809.11
439.33	22429.35
439.52	23084.70
439.70	21961.25
439.89	21717.83
440.08	20924.39
440.26	21273.13
440.45	21647.61
440.63	23187.69
440.82	24381.36
441.01	24011.56
441.19	24067.73
441.38	24163.69
441.57	24992.24
441.75	25717.81
441.94	25500.14
442.12	25336.30
442.31	25926.11
442.50	25743.55
442.68	25350.34
442.87	25429.92
443.05	25003.94
443.24	24957.13
443.43	26052.50
443.61	26188.25
443.80	26572.10
443.98	25291.83
444.17	24863.51
444.35	26604.87
444.54	26679.77
444.73	26583.80
444.91	25392.47
445.10	24428.17
445.28	23665.16
445.47	23180.67
445.65	23220.45
445.84	24032.62
446.02	24779.25
446.21	25193.53
446.39	25025.01
446.58	25610.14
446.77	25937.82
446.95	26153.15
447.14	27019.14
447.32	26838.92
447.51	26632.96
447.69	25940.16
447.88	25577.37
448.06	25692.06
448.25	26195.28
448.43	26270.17
448.62	25912.07
448.80	25907.39
448.99	26218.68
449.17	26642.32
449.36	26108.68
449.54	27314.05
449.73	27702.58
449.91	28318.14
450.10	28835.40
450.28	29193.50
450.46	29003.92
450.65	29256.70
450.83	28765.18
451.02	27861.74
451.20	28343.89
451.39	27962.38
451.57	27871.10
451.76	28119.20
451.94	27639.39
452.13	27524.70
452.31	26099.31
452.49	24903.30
452.68	25111.61
452.86	25027.35
453.05	25422.90
453.23	26316.98
453.42	26689.13
453.60	27342.14
453.78	27889.82
453.97	27503.64
454.15	27828.97
454.34	26972.33
454.52	27253.20
454.70	26478.48
454.89	27002.76
455.07	26497.20
455.26	27065.96
455.44	28196.43
455.62	28767.52
455.81	28842.42
455.99	28376.66
456.17	28367.29
456.36	28056.00
456.54	29261.38
456.73	29530.54
456.91	29813.74
457.09	29792.68
457.28	30792.09
457.46	29673.31
457.64	29132.65
457.83	28561.56
458.01	27372.57
458.19	28135.58
458.38	28460.91
458.56	29591.39
458.74	29420.53
458.93	28725.39
459.11	28680.92
459.29	28697.31
459.48	28697.31
459.66	28800.29
459.84	28767.52
460.03	29528.20
460.21	29015.62
460.39	29537.56
460.57	29539.90
460.76	30153.12
460.94	30221.00
461.12	30181.21
461.31	30017.37
461.49	30043.12
461.67	29930.77
461.85	30855.28
462.04	31002.74
462.22	30918.48
462.40	30738.26
462.59	30934.86
462.77	30546.33
462.95	31173.60
463.13	30347.39
463.32	30260.79
463.50	29802.04
463.68	29869.92
463.86	30015.03
464.05	29429.90
464.23	28945.41
464.41	28603.69
464.59	28893.91
464.78	29923.75
464.96	29532.88
465.14	29170.10
465.32	30286.53
465.50	31040.18
465.69	31255.51
465.87	30752.30
466.05	29652.25
466.23	28631.77
466.41	27475.55
466.60	28835.40
466.78	28327.50
466.96	29130.31
467.14	29333.93
467.32	30202.27
467.51	30197.59
467.69	28716.03
467.87	29268.40
468.05	29687.36
468.23	29834.81
468.41	29617.14
468.60	30059.50
468.78	30171.85
468.96	29645.23
469.14	30356.75
469.32	30735.92
469.50	29263.72
469.69	29661.61
469.87	28922.00
470.05	28842.42
470.23	28591.98
470.41	29333.93
470.59	29446.28
470.77	29504.79
470.95	29890.98
471.14	30473.78
471.32	30604.84
471.50	32500.68
471.68	32280.67
471.86	32793.25
472.04	32849.42
472.22	32959.42
472.40	31173.60
472.58	30623.57
472.77	30487.82
472.95	31395.95
473.13	31962.36
473.31	30735.92
473.49	31248.49
473.67	31798.52
473.85	31988.10
474.03	33127.94
474.21	32524.08
474.39	33818.40
474.57	33680.31
474.75	33376.04
474.93	33385.40
475.12	32676.22
475.30	32421.10
475.48	32847.08
475.66	32856.44
475.84	32755.80
476.02	32842.40
476.20	32011.51
476.38	32737.07
476.56	34235.02
476.74	34064.16
476.92	34415.24
477.10	34885.68
477.28	36032.55
477.46	35646.36
477.64	36484.27
477.82	36362.56
478.00	36322.77
478.18	35887.43
478.36	35943.61
478.54	35501.25
478.72	36184.68
478.90	37390.06
479.08	38249.03
479.26	38534.58
479.44	38354.36
479.62	38134.35
479.80	38057.11
479.98	38656.29
480.16	38565.01
480.34	37813.70
480.52	38548.62
480.70	38469.04
480.88	38890.34
481.06	39288.23
481.24	39913.16
481.41	40676.17
481.59	41273.01
481.77	40971.08
481.95	39922.52
482.13	40095.72
482.31	40423.39
482.49	41099.81
482.67	40402.33
482.85	41174.70
483.03	41347.90
483.21	41853.46
483.39	41928.36
483.57	41202.79
483.74	41235.56
483.92	41354.93
484.10	41280.03
484.28	42518.17
484.46	43164.16
484.64	43117.35
484.82	42485.40
485.00	41663.88
485.18	41244.92
485.35	39889.75
485.53	37123.24
485.71	33715.42
485.89	32982.83
486.07	34611.84
486.25	37586.66
486.43	40456.16
486.61	40734.68
486.78	40622.34
486.96	40612.98
487.14	42520.51
487.32	43384.17
487.50	44617.63
487.68	45628.74
487.85	46230.26
488.03	46361.33
488.21	45815.99
488.39	44844.66
488.57	44142.50
488.75	43929.51
488.92	45006.16
489.10	47365.42
489.28	48795.49
489.46	50211.51
489.64	49581.91
489.81	49907.24
489.99	49366.58
490.17	49333.81
490.35	49874.48
490.53	49511.69
490.70	48662.08
490.88	48526.33
491.06	49998.52
491.24	50007.89
491.41	48956.99
491.59	46567.30
491.77	45600.66
491.95	46899.65
492.13	48390.58
492.30	49514.03
492.48	50913.67
492.66	51444.98
492.84	51447.32
493.01	51171.13
493.19	50459.61
493.37	50387.05
493.54	49727.02
493.72	50759.20
493.90	51585.41
494.08	52563.75
494.25	52949.94
494.43	53198.04
494.61	53722.32
494.79	53514.01
494.96	53490.60
495.14	52898.45
495.32	51735.20
495.49	50513.44
495.67	52018.41
495.85	53787.85
496.02	54382.35
496.20	54014.88
496.38	53404.00
496.55	53469.54
496.73	54052.33
496.91	54162.34
497.09	54674.91
497.26	54700.66
497.44	54394.05
497.62	53792.53
497.79	52704.18
497.97	51540.94
498.14	51407.53
498.32	52931.22
498.50	54021.90
498.67	54375.33
498.85	54436.18
499.03	54438.52
499.20	54997.91
499.38	54958.12
499.56	54794.28
499.73	54080.42
499.91	53471.88
500.08	53139.52
500.26	52163.52
500.44	52858.66
500.61	53759.76
500.79	53499.97
500.97	53001.43
501.14	53073.99
501.32	52456.09
501.49	52893.77
501.67	52961.64
501.84	53724.66
502.02	53944.67
502.20	54284.04
502.37	54426.82
502.55	54347.24
502.72	55124.30
502.90	55550.27
503.07	54986.21
503.25	54637.47
503.43	53675.51
503.60	53188.67
503.78	52205.65
503.95	52767.38
504.13	54244.26
504.30	55227.28
504.48	55304.52
504.65	54780.24
504.83	54892.58
505.01	55334.95
505.18	55739.86
505.36	56453.72
505.53	56456.06
505.71	56570.75
505.88	56736.93
506.06	56051.15
506.23	55786.67
506.41	55311.54
506.58	55664.96
506.76	55503.46
506.93	55660.28
507.11	55007.27
507.28	55276.43
507.46	54693.64
507.63	54574.27
507.81	54466.61
507.98	54333.20
508.16	55002.59
508.33	55576.02
508.50	55838.16
508.68	56362.44
508.85	56720.54
509.03	56830.55
509.20	56839.91
509.38	55997.32
509.55	55192.17
509.73	55030.68
509.90	55767.94
510.08	56076.90
510.25	56095.62
510.42	55636.87
510.60	55664.96
510.77	56037.11
510.95	56788.42
511.12	56573.09
511.30	57059.92
511.47	57308.02
511.64	57195.67
511.82	56842.25
511.99	55943.48
512.17	55784.33
512.34	55250.69
512.51	55351.33
512.69	55517.51
512.86	55615.81
513.04	55936.46
513.21	56133.07
513.38	55494.10
513.56	55292.82
513.73	54733.43
513.90	54920.67
514.08	55152.38
514.25	55227.28
514.43	55501.12
514.60	55622.83
514.77	55711.77
514.95	55955.19
515.12	55826.46
515.29	55840.50
515.47	56530.96
515.64	56678.41
515.81	56577.77
515.99	55835.82
516.16	54241.92
516.33	51772.65
516.51	49808.94
516.68	48931.24
516.85	48516.96
517.03	49291.68
517.20	52051.17
517.37	54944.08
517.54	55859.23
517.72	55477.72
517.89	52687.80
518.06	50078.10
518.24	50066.40
518.41	53006.11
518.58	54295.75
518.75	54817.69
518.93	54688.96
519.10	54492.35
519.27	55164.09
519.45	55379.42
519.62	56044.13
519.79	56629.26
519.96	56142.43
520.14	55891.99
520.31	54997.91
520.48	54628.10
520.65	55554.96
520.83	56151.79
521.00	56765.01
521.17	56392.87
521.34	55695.39
521.52	56137.75
521.69	56647.99
521.86	57148.86
522.03	56846.93
522.20	55679.00
522.38	54485.33
522.55	54539.16
522.72	55353.67
522.89	55405.16
523.07	55711.77
523.24	55894.33
523.41	56739.27
523.58	57137.16
523.75	57441.43
523.92	57492.92
524.10	57275.25
524.27	57357.17
524.44	57111.41
524.61	56905.44
524.78	56746.29
524.96	56795.44
525.13	56694.80
525.30	56753.31
525.47	57516.32
525.64	57483.56
525.81	56779.06
525.98	55334.95
526.16	53719.98
526.33	52996.75
526.50	52573.11
526.67	52222.03
526.84	52783.76
527.01	53827.64
527.18	54988.55
527.36	55664.96
527.53	56549.68
527.70	56697.14
527.87	56247.75
528.04	55817.10
528.21	56023.06
528.38	56912.47
528.55	57612.29
528.72	57963.37
528.89	57918.90
529.07	57584.20
529.24	56945.23
529.41	56435.00
529.58	55824.12
529.75	55796.03
529.92	56364.78
530.09	56647.99
530.26	57462.49
530.43	57521.01
530.60	57687.18
530.77	57829.96
530.94	57879.11
531.11	57502.28
531.28	57144.18
531.46	57024.81
531.63	56966.30
531.80	56985.02
531.97	56383.51
532.14	55863.91
532.31	54724.07
532.48	54035.95
532.65	54019.56
532.82	54838.75
532.99	56163.50
533.16	56395.21
533.33	57052.90
533.50	56980.34
533.67	56364.78
533.84	55789.01
534.01	56154.13
534.18	56198.60
534.35	56336.69
534.52	56273.50
534.69	56282.86
534.86	56905.44
535.03	57202.69
535.20	57436.75
535.37	57811.23
535.54	57876.77
535.71	57556.11
535.88	57212.06
536.05	56622.24
536.22	56149.45
536.38	55845.18
536.55	55304.52
536.72	54813.01
536.89	54880.88
537.06	55952.85
537.23	56591.81
537.40	56615.22
537.57	56903.10
537.74	56505.21
537.91	56657.35
538.08	56617.56
538.25	56779.06
538.42	56807.14
538.59	56537.98
538.75	55767.94
538.92	55657.94
539.09	55615.81
539.26	55121.96
539.43	54983.86
539.60	55365.37
539.77	55505.80
539.94	55290.48
540.11	54431.50
540.28	54150.63
540.44	54057.01
540.61	54323.83
540.78	54457.24
540.95	55220.26
541.12	55451.97
541.29	55679.00
541.46	55884.97
541.62	56161.15
541.79	55941.14
541.96	55260.05
542.13	55253.03
542.30	55365.37
542.47	55587.72
542.63	55487.08
542.80	55103.23
542.97	55510.49
543.14	55299.84
543.31	55147.70
543.48	55927.10
543.64	56601.18
543.81	56992.04
543.98	56701.82
544.15	55870.93
544.32	55313.88
544.48	55510.49
544.65	56016.04
544.82	56444.36
544.99	55969.23
545.16	55580.70
545.32	55456.65
545.49	56229.03
545.66	56573.09
545.83	55983.27
546.00	55948.17
546.16	55503.46
546.33	55524.53
546.50	55543.25
546.67	56147.11
546.83	55604.11
547.00	55655.60
547.17	54726.41
547.34	54272.34
547.50	54230.21
547.67	54899.61
547.84	54677.25
548.00	55292.82
548.17	55676.66
548.34	55386.44
548.51	55580.70
548.67	55512.83
548.84	55828.80
549.01	55604.11
549.18	55505.80
549.34	55618.15
549.51	55318.56
549.68	55550.27
549.84	54981.52
550.01	54997.91
550.18	54798.96
550.34	55093.87
550.51	55023.65
550.68	55126.64
550.84	54703.00
551.01	54941.74
551.18	54677.25
551.34	54775.56
551.51	55433.25
551.68	55533.89
551.84	55702.41
552.01	55117.28
552.18	55341.97
552.34	54506.40
552.51	54316.81
552.68	53890.83
552.84	54712.36
553.01	54843.43
553.18	54670.23
553.34	54670.23
553.51	54787.26
553.67	55084.51
553.84	55253.03
554.01	55161.75
554.17	55049.40
554.34	54981.52
554.51	55065.78
554.67	55800.71
554.84	55281.11
555.00	54742.79
555.17	54731.09
555.33	54576.61
555.50	54597.68
555.67	54979.18
555.83	54562.57
556.00	54323.83
556.16	54099.14
556.33	53734.02
556.50	53663.80
556.66	53764.45
556.83	53385.28
556.99	53712.95
557.16	53773.81
557.32	54117.87
557.49	54417.46
557.65	54298.09
557.82	54394.05
557.98	53888.49
558.15	53338.47
558.32	52685.46
558.48	51124.32
558.65	51821.80
558.81	52388.21
558.98	52580.13
559.14	52832.91
559.31	52861.00
559.47	52877.38
559.64	52500.56
559.80	52250.12
559.97	52100.32
560.13	52619.92
560.30	53958.71
560.46	54234.89
560.63	54284.04
560.79	54745.13
560.96	54262.98
561.12	53137.18
561.29	52048.83
561.45	52165.86
561.61	52591.84
561.78	53305.70
561.94	53066.97
562.11	52739.29
562.27	52767.38
562.44	53153.57
562.60	53556.14
562.77	53771.47
562.93	53387.62
563.10	53563.16
563.26	52762.70
563.42	52809.51
563.59	52697.16
563.75	52640.99
563.92	52467.79
564.08	52743.97
564.24	52935.90
564.41	53137.18
564.57	52978.03
564.74	52671.42
564.90	52451.41
565.07	52236.08
565.23	52133.09
565.39	51084.53
565.56	51178.15
565.72	50471.31
565.88	51346.67
566.05	51264.75
566.21	51641.58
566.38	51749.24
566.54	52144.80
566.70	52292.25
566.87	52655.03
567.03	52364.81
567.19	52648.01
567.36	52453.75
567.52	52727.59
567.68	51966.91
567.85	51320.93
568.01	50972.19
568.17	50253.64
568.34	50335.56
568.50	50408.12
568.66	50761.54
568.83	51187.52
568.99	51381.78
569.15	51662.64
569.32	51428.59
569.48	51241.35
569.64	50787.28
569.81	50567.27
569.97	50850.48
570.13	50263.00
570.30	49759.79
570.46	49242.53
570.62	49015.50
570.78	48287.59
570.95	48900.81
571.11	49921.29
571.27	49991.50
571.43	50113.21
571.60	50571.96
571.76	50604.72
571.92	51049.42
572.09	51346.67
572.25	51435.61
572.41	51166.45
572.57	50843.46
572.74	51264.75
572.90	50309.82
573.06	50679.62
573.22	50773.24
573.38	50539.19
573.55	50621.11
573.71	50995.59
573.87	50211.51
574.03	50464.29
574.20	50576.64
574.36	49825.32
574.52	49694.25
574.68	49668.51
574.84	49083.37
575.01	48629.31
575.17	48486.54
575.33	49041.24
575.49	49139.55
575.65	49586.59
575.82	49015.50
575.98	48320.36
576.14	49083.37
576.30	49354.88
576.46	49893.20
576.62	50021.93
576.79	49923.63
576.95	49141.89
577.11	49329.13
577.27	49118.48
577.43	49310.41
577.59	48636.33
577.75	48451.43
577.92	47526.92
578.08	47470.75
578.24	47093.92
578.40	47777.36
578.56	47786.72
578.72	48285.25
578.88	48460.79
579.04	48435.05
579.21	48535.69
579.37	48783.79
579.53	49059.97
579.69	48296.95
579.85	48842.30
580.01	48898.47
580.17	47948.21
580.33	47910.77
580.49	48179.93
580.65	48596.54
580.82	48566.12
580.98	48694.85
581.14	48612.93
581.30	48182.27
581.46	48334.40
581.62	48765.06
581.78	48910.17
581.94	49174.66
582.10	48629.31
582.26	48921.88
582.42	48854.00
582.58	48935.92
582.74	49139.55
582.90	48655.06
583.06	49099.76
583.22	48299.30
583.38	48540.37
583.54	48484.20
583.70	48612.93
583.86	48402.28
584.02	48198.65
584.18	48198.65
584.34	48238.44
584.50	48282.91
584.66	48093.33
584.82	47538.62
584.98	47629.90
585.14	47126.69
585.30	46344.95
