SpectraSuite Data File
++++++++++++++++++++++++++++++++++++
Date: Mon Oct 07 14:53:03 GMT-05:00 2013
User: price-jones
Dark Spectrum Present: No
Reference Spectrum Present: No
Number of Sampled Component Spectra: 1
Spectrometers: USB2+H05261
Integration Time (usec): 100000 (USB2+H05261)
Spectra Averaged: 1 (USB2+H05261)
Boxcar Smoothing: 0 (USB2+H05261)
Correct for Electrical Dark: No (USB2+H05261)
Strobe/Lamp Enabled: No (USB2+H05261)
Correct for Detector Non-linearity: No (USB2+H05261)
Correct for Stray Light: No (USB2+H05261)
Number of Pixels in Processed Spectrum: 2048
>>>>>Begin Processed Spectral Data<<<<<
365.73	0.00
365.92	0.00
366.12	0.00
366.32	0.00
366.52	0.00
366.72	0.00
366.91	0.00
367.11	0.00
367.31	0.00
367.51	0.00
367.70	0.00
367.90	0.00
368.10	0.00
368.30	0.00
368.49	0.00
368.69	0.00
368.89	0.00
369.09	0.00
369.28	0.00
369.48	0.00
369.68	0.00
369.87	0.00
370.07	0.00
370.27	0.00
370.47	454.06
370.66	2726.72
370.86	3330.58
371.06	3557.61
371.25	3454.63
371.45	3141.00
371.65	2841.41
371.84	2693.96
372.04	2792.26
372.24	3166.74
372.44	3234.62
372.63	3213.56
372.83	3002.91
373.03	2689.28
373.22	2495.01
373.42	2712.68
373.62	3150.36
373.81	3220.58
374.01	3166.74
374.21	2967.80
374.40	2656.51
374.60	3009.93
374.79	3260.37
374.99	3679.32
375.19	4021.04
375.38	4046.79
375.58	3623.15
375.78	3758.90
375.97	3857.20
376.17	3859.54
376.37	4016.36
376.56	3978.91
376.76	4400.21
376.95	4542.98
377.15	4936.19
377.35	5210.03
377.54	5219.39
377.74	5327.06
377.93	5469.83
378.13	5107.05
378.33	4968.96
378.52	4671.71
378.72	4339.35
378.91	4442.34
379.11	4140.41
379.31	4131.05
379.50	3988.27
379.70	4304.25
379.89	4835.55
380.09	5046.20
380.28	5444.09
380.48	5322.38
380.68	5165.56
380.87	4971.30
381.07	4561.70
381.26	4337.01
381.46	4051.47
381.65	3960.19
381.85	3695.71
382.04	3707.41
382.24	3353.99
382.43	3265.05
382.63	3101.21
382.83	3201.85
383.02	3176.11
383.22	3173.77
383.41	3164.40
383.61	3314.20
383.80	3857.20
384.00	4545.32
384.19	4929.17
384.39	5305.99
384.58	5170.24
384.78	5132.79
384.97	5188.97
385.17	4880.02
385.36	4440.00
385.56	4400.21
385.75	4585.11
385.95	4847.25
386.14	5327.06
386.34	5458.13
386.53	5179.61
386.72	4819.16
386.92	4924.49
387.11	5235.78
387.31	5308.34
387.50	5198.33
387.70	5039.17
387.89	5252.16
388.09	5160.88
388.28	5076.62
388.48	5224.08
388.67	5610.26
388.86	6127.52
389.06	6555.84
389.25	6932.67
389.45	6974.80
389.64	7052.03
389.84	6829.68
390.03	6848.41
390.22	6890.54
390.42	6860.11
390.61	7494.40
390.81	7964.84
391.00	8039.74
391.19	8004.63
391.39	7871.22
391.58	7351.62
391.78	6876.49
391.97	6743.08
392.16	6195.40
392.36	5612.60
392.55	4533.62
392.75	3660.60
392.94	2904.60
393.13	2963.12
393.33	3517.83
393.52	4479.79
393.71	5591.54
393.91	6338.17
394.10	6518.39
394.29	7435.88
394.49	7934.42
394.68	8692.75
394.88	8547.64
395.07	8922.12
395.26	8664.66
395.46	8294.86
395.65	8112.30
395.84	6939.69
396.04	5851.34
396.23	4709.16
396.42	4009.34
396.62	3960.19
396.81	4486.81
397.00	5825.59
397.19	7316.51
397.39	8669.34
397.58	9848.97
397.77	10263.25
397.97	10427.09
398.16	10981.79
398.35	11014.56
398.55	11297.77
398.74	11702.68
398.93	12133.34
399.12	11882.90
399.32	11496.71
399.51	11822.05
399.70	12683.36
399.90	12297.17
400.09	12465.69
400.28	12245.68
400.47	12496.12
400.67	13088.28
400.86	13469.78
401.05	13167.85
401.24	13401.91
401.44	13678.09
401.63	13462.76
401.82	13596.17
402.01	13811.50
402.21	13958.96
402.40	13593.83
402.59	13338.71
402.78	13050.83
402.97	12744.22
403.17	13043.81
403.36	13891.08
403.55	14155.56
403.74	14417.70
403.93	13774.05
404.13	12732.51
404.32	12566.34
404.51	13240.41
404.70	14230.46
404.89	14410.68
405.09	13905.12
405.28	13743.63
405.47	13408.93
405.66	13474.46
405.85	12933.80
406.05	12877.63
406.24	13029.76
406.43	13614.90
406.62	13984.70
406.81	14164.92
407.00	13783.41
407.20	13191.26
407.39	13188.92
407.58	14148.54
407.77	14572.18
407.96	15059.01
408.15	14956.02
408.34	15426.47
408.54	15826.70
408.73	16098.20
408.92	15892.24
409.11	15445.20
409.30	14611.96
409.49	13916.83
409.68	12966.57
409.87	12538.25
410.07	13298.92
410.26	14314.72
410.45	15239.23
410.64	15349.23
410.83	16292.47
411.02	16248.00
411.21	17146.76
411.40	16945.48
411.59	17046.12
411.78	16779.30
411.98	16695.04
412.17	16886.97
412.36	16748.87
412.55	16531.20
412.74	16381.41
412.93	15934.37
413.12	16479.71
413.31	17771.69
413.50	17628.92
413.69	18078.30
413.88	17493.16
414.07	17048.46
414.26	17062.51
414.45	17769.35
414.64	17633.60
414.83	17809.14
415.02	17458.06
415.22	17448.69
415.41	17731.90
415.60	18415.34
415.79	19058.98
415.98	19541.13
416.17	19487.30
416.36	18822.59
416.55	18853.02
416.74	18192.98
416.93	17434.65
417.12	17507.21
417.31	17827.86
417.50	18146.17
417.69	18904.51
417.88	18787.48
418.07	18614.28
418.26	18087.66
418.45	18286.61
418.64	19101.11
418.83	19356.23
419.02	19414.74
419.21	19157.28
419.39	18082.98
419.58	17542.32
419.77	17565.72
419.96	18293.63
420.15	19730.72
420.34	20107.54
420.53	20615.44
420.72	21319.94
420.91	20865.88
421.10	20130.95
421.29	20496.07
421.48	19763.48
421.67	20538.20
421.86	20086.48
422.05	18649.39
422.24	16891.65
422.43	16608.44
422.61	18466.83
422.80	20067.75
422.99	20070.09
423.18	19449.85
423.37	19087.07
423.56	18904.51
423.75	19124.52
423.94	19887.53
424.13	18609.60
424.32	18972.38
424.50	18796.84
424.69	18583.85
424.88	18726.63
425.07	18590.88
425.26	18640.03
425.45	18176.60
425.64	18075.96
425.83	18183.62
426.01	19105.79
426.20	19527.09
426.39	19543.47
426.58	18031.49
426.77	16673.98
426.96	16170.76
427.15	16830.79
427.33	18263.20
427.52	18679.82
427.71	19028.56
427.90	18670.45
428.09	18754.71
428.28	17994.04
428.46	17434.65
428.65	17380.82
428.84	17745.94
429.03	18118.09
429.22	17029.74
429.40	16301.83
429.59	14633.03
429.78	12975.93
429.97	13217.01
430.16	13331.69
430.34	12980.61
430.53	13107.00
430.72	13788.10
430.91	15002.83
431.10	17575.08
431.28	20580.33
431.47	22448.08
431.66	22841.29
431.85	20718.42
432.03	18452.78
432.22	17900.42
432.41	19040.26
432.60	20844.81
432.79	22181.26
432.97	22111.04
433.16	21617.19
433.35	19735.40
433.54	17617.21
433.72	16858.88
433.91	17397.20
434.10	19290.70
434.28	20479.69
434.47	21837.20
434.66	21558.67
434.85	20718.42
435.03	20882.26
435.22	21385.47
435.41	22614.26
435.59	22714.90
435.78	23009.81
435.97	23667.50
436.16	23716.65
436.34	23211.09
436.53	22995.76
436.72	22920.87
436.90	21352.71
437.09	21736.56
437.28	21209.93
437.46	21752.94
437.65	21876.99
437.84	20180.10
438.02	18663.43
438.21	18841.31
438.40	19711.99
438.58	21259.09
438.77	21944.86
438.96	22150.83
439.14	23042.57
439.33	23782.18
439.52	24004.53
439.70	23452.17
439.89	22845.97
440.08	22075.93
440.26	22333.39
440.45	23271.95
440.63	24725.42
440.82	26029.10
441.01	25109.27
441.19	25172.46
441.38	25881.64
441.57	26457.42
441.75	27091.70
441.94	27133.83
442.12	27234.47
442.31	27714.28
442.50	27260.22
442.68	27000.42
442.87	26859.99
443.05	26349.75
443.24	27084.68
443.43	27274.26
443.61	28081.75
443.80	28032.60
443.98	26565.08
444.17	26651.68
444.35	28091.11
444.54	28730.08
444.73	27864.08
444.91	26869.35
445.10	25720.15
445.28	24690.31
445.47	24610.73
445.65	24472.64
445.84	25338.64
446.02	26356.77
446.21	26696.15
446.39	26595.51
446.58	26862.33
446.77	27225.11
446.95	27627.68
447.14	28510.07
447.32	28961.79
447.51	28432.83
447.69	27208.73
447.88	27028.51
448.06	27520.02
448.25	28070.04
448.43	28093.45
448.62	27281.28
448.80	27555.13
448.99	27817.27
449.17	27777.48
449.36	27845.35
449.54	28727.74
449.73	29369.04
449.91	29771.61
450.10	30396.54
450.28	31063.59
450.46	30747.62
450.65	31026.14
450.83	30527.61
451.02	29832.47
451.20	29813.74
451.39	29996.31
451.57	29701.40
451.76	29537.56
451.94	29312.87
452.13	28957.11
452.31	27108.08
452.49	26031.44
452.68	26628.27
452.86	26764.03
453.05	26932.54
453.23	28037.28
453.42	28470.28
453.60	28978.17
453.78	29476.71
453.97	28936.04
454.15	28882.21
454.34	28575.60
454.52	28545.17
454.70	28039.62
454.89	28517.09
455.07	28519.43
455.26	29144.35
455.44	29790.34
455.62	30244.40
455.81	30785.07
455.99	30045.46
456.17	29947.15
456.36	30024.39
456.54	30897.41
456.73	30644.63
456.91	31964.70
457.09	32004.49
457.28	32126.19
457.46	30686.76
457.64	30661.02
457.83	29846.51
458.01	29123.29
458.19	30000.99
458.38	30300.58
458.56	30988.69
458.74	30927.84
458.93	30377.81
459.11	30576.76
459.29	30160.14
459.48	30604.84
459.66	29930.77
459.84	30778.04
460.03	31028.48
460.21	30817.83
460.39	31620.64
460.57	31646.38
460.76	31732.98
460.94	31700.22
461.12	31786.82
461.31	31793.84
461.49	31669.79
461.67	31688.51
461.85	32556.85
462.04	32631.75
462.22	33209.86
462.40	32341.52
462.59	32208.11
462.77	32945.38
462.95	32685.58
463.13	32278.33
463.32	31941.29
463.50	31711.92
463.68	31683.83
463.86	31850.01
464.05	31213.38
464.23	30354.41
464.41	30675.06
464.59	30333.34
464.78	31576.17
464.96	31328.07
465.14	31000.40
465.32	31871.07
465.50	32772.18
465.69	32814.31
465.87	32299.39
466.05	31440.42
466.23	29895.66
466.41	29411.17
466.60	30731.23
466.78	30235.04
466.96	30710.17
467.14	31487.23
467.32	31536.38
467.51	31751.71
467.69	30391.86
467.87	30960.61
468.05	31573.83
468.23	31255.51
468.41	31407.65
468.60	31873.42
468.78	32170.66
468.96	31634.68
469.14	31957.67
469.32	32458.55
469.50	31213.38
469.69	31288.28
469.87	30775.70
470.05	30841.24
470.23	30555.69
470.41	31033.16
470.59	31576.17
470.77	31051.89
470.95	32018.53
471.14	31948.31
471.32	32512.38
471.50	34307.57
471.68	34141.39
471.86	35030.80
472.04	34920.79
472.22	34630.57
472.40	33139.65
472.58	32727.71
472.77	32163.64
472.95	33750.52
473.13	34218.63
473.31	32638.77
473.49	33621.80
473.67	34363.75
473.85	34263.10
474.03	35122.08
474.21	35049.52
474.39	35381.88
474.57	35711.89
474.75	35613.59
474.93	35569.12
475.12	34504.18
475.30	34410.56
475.48	35019.10
475.66	35477.84
475.84	34831.85
476.02	34707.80
476.20	33766.91
476.38	34504.18
476.56	35817.22
476.74	36004.46
476.92	36498.31
477.10	36697.26
477.28	37996.26
477.46	37986.89
477.64	38438.62
477.82	38260.74
478.00	38534.58
478.18	38347.34
478.36	37699.01
478.54	37565.60
478.72	38447.98
478.90	39543.35
479.08	40081.67
479.26	41301.09
479.44	40144.87
479.62	40278.28
479.80	40149.55
479.98	40559.14
480.16	40849.37
480.34	40381.26
480.52	40690.21
480.70	41413.44
480.88	41228.54
481.06	41947.08
481.24	42190.50
481.41	43012.02
481.59	43555.03
481.77	43274.16
481.95	42473.70
482.13	42621.16
482.31	42808.40
482.49	43299.91
482.67	42754.57
482.85	43386.51
483.03	44074.63
483.21	44327.41
483.39	44566.14
483.57	43576.09
483.74	43351.40
483.92	43861.64
484.10	43421.62
484.28	44907.86
484.46	45179.36
484.64	45507.04
484.82	44465.50
485.00	43959.94
485.18	43578.43
485.35	41968.15
485.53	39016.73
485.71	35250.81
485.89	35056.54
486.07	37574.96
486.25	40451.48
486.43	42024.32
486.61	42562.64
486.78	42862.23
486.96	43129.05
487.14	45170.00
487.32	46220.90
487.50	47075.19
487.68	47737.57
487.85	48388.24
488.03	48287.59
488.21	48023.11
488.39	47012.00
488.57	46361.33
488.75	45813.65
488.92	47449.68
489.10	50033.63
489.28	50890.27
489.46	52020.75
489.64	51753.93
489.81	51985.64
489.99	51304.54
490.17	51648.60
490.35	51796.06
490.53	51344.33
490.70	51089.21
490.88	50955.80
491.06	52114.37
491.24	52083.94
491.41	50525.14
491.59	49034.22
491.77	48060.56
491.95	49436.80
492.13	50906.65
492.30	52002.02
492.48	53488.26
492.66	53460.18
492.84	53209.74
493.01	53289.32
493.19	52640.99
493.37	52156.50
493.54	51980.96
493.72	52891.43
493.90	54052.33
494.08	54438.52
494.25	54901.95
494.43	55131.32
494.61	55370.05
494.79	55573.68
494.96	55281.11
495.14	54473.63
495.32	53401.66
495.49	52956.96
495.67	54330.86
495.85	55667.30
496.02	55828.80
496.20	55538.57
496.38	55515.17
496.55	55215.58
496.73	55767.94
496.91	55824.12
497.09	56322.65
497.26	56587.13
497.44	55980.93
497.62	55531.55
497.79	54632.78
497.97	53396.98
498.14	53546.78
498.32	54848.11
498.50	55744.54
498.67	56357.76
498.85	56095.62
499.03	56435.00
499.20	56413.93
499.38	56535.64
499.56	56449.04
499.73	55854.54
499.91	55564.32
500.08	55016.63
500.26	54370.64
500.44	55056.42
500.61	55458.99
500.79	55276.43
500.97	55037.70
501.14	54726.41
501.32	54712.36
501.49	54681.94
501.67	54724.07
501.84	55353.67
502.02	55561.98
502.20	55978.59
502.37	56088.60
502.55	56179.88
502.72	56818.84
502.90	57148.86
503.07	56769.69
503.25	56470.11
503.43	55714.11
503.60	54841.09
503.78	54251.28
503.95	54693.64
504.13	56100.30
504.30	56919.49
504.48	56718.20
504.65	56247.75
504.83	56437.34
505.01	57148.86
505.18	57347.81
505.36	57975.07
505.53	58042.95
505.71	58166.99
505.88	58405.73
506.06	57738.68
506.23	57483.56
506.41	57055.24
506.58	57406.32
506.76	57141.84
506.93	57413.34
507.11	57071.62
507.28	57113.75
507.46	56715.86
507.63	56214.99
507.81	55789.01
507.98	56343.72
508.16	56860.97
508.33	57558.45
508.50	57893.15
508.68	58155.29
508.85	58599.99
509.03	58433.81
509.20	58365.94
509.38	57560.79
509.55	56732.25
509.73	57034.17
509.90	57663.78
510.08	57766.76
510.25	57780.81
510.42	57694.21
510.60	57411.00
510.77	57914.22
510.95	58094.44
511.12	58342.53
511.30	58726.38
511.47	58812.98
511.64	58719.36
511.82	58422.11
511.99	57729.31
512.17	57399.30
512.34	57036.51
512.51	57120.77
512.69	57293.97
512.86	57354.83
513.04	57890.81
513.21	57719.95
513.38	57378.23
513.56	57090.35
513.73	56390.53
513.90	56669.05
514.08	56809.48
514.25	57188.65
514.43	57298.65
514.60	57132.48
514.77	57406.32
514.95	57673.14
515.12	57268.23
515.29	57883.79
515.47	58085.07
515.64	58363.60
515.81	57860.38
515.99	57462.49
516.16	55819.44
516.33	53193.36
516.51	52231.40
516.68	50976.87
516.85	50646.85
517.03	51564.34
517.20	54365.96
517.37	56842.25
517.54	57586.54
517.72	56898.42
517.89	54323.83
518.06	52458.43
518.24	52900.79
518.41	54923.01
518.58	56107.32
518.75	56165.84
518.93	56374.14
519.10	56456.06
519.27	57048.22
519.45	56933.53
519.62	57799.53
519.79	58117.84
519.96	57982.09
520.14	57530.37
520.31	56811.82
520.48	56844.59
520.65	56940.55
520.83	58099.12
521.00	58321.47
521.17	57972.73
521.34	57631.01
521.52	58295.72
521.69	58588.29
521.86	58796.60
522.03	58663.19
522.20	57258.87
522.38	56430.32
522.55	56420.95
522.72	56945.23
522.89	57315.04
523.07	57385.25
523.24	57804.21
523.41	58518.07
523.58	58836.39
523.75	59220.23
523.92	59100.87
524.10	59044.69
524.27	58946.39
524.44	58710.00
524.61	58679.57
524.78	58602.33
524.96	58391.68
525.13	58387.00
525.30	58766.17
525.47	59075.12
525.64	59171.08
525.81	58511.05
525.98	56750.97
526.16	55517.51
526.33	54501.71
526.50	54726.41
526.67	54321.49
526.84	54869.18
527.01	55758.58
527.18	56451.38
527.36	57661.44
527.53	58387.00
527.70	58623.40
527.87	58117.84
528.04	57343.12
528.21	58164.65
528.38	58508.71
528.55	59264.70
528.72	59590.04
528.89	59861.54
529.07	59267.05
529.24	58812.98
529.41	58092.10
529.58	57652.08
529.75	57645.05
529.92	58017.20
530.09	58681.91
530.26	59253.00
530.43	59194.49
530.60	59423.86
530.77	59468.33
530.94	59578.34
531.11	59150.02
531.28	58768.51
531.46	58714.68
531.63	58960.44
531.80	58644.46
531.97	58162.31
532.14	57469.51
532.31	56617.56
532.48	55903.70
532.65	56158.81
532.82	56818.84
532.99	57818.25
533.16	58305.09
533.33	58803.62
533.50	58450.20
533.67	57968.05
533.84	57778.46
534.01	57771.44
534.18	57904.85
534.35	58188.06
534.52	58159.97
534.69	58169.33
534.86	58787.24
535.03	58887.88
535.20	59332.58
535.37	59571.32
535.54	59529.19
535.71	59393.43
535.88	58852.77
536.05	58120.18
536.22	57654.42
536.38	57659.10
536.55	57155.88
536.72	56687.78
536.89	56662.03
537.06	57668.46
537.23	58255.93
537.40	58445.52
537.57	58515.73
537.74	58354.24
537.91	58354.24
538.08	58429.13
538.25	58398.71
538.42	58358.92
538.59	58450.20
538.75	57537.39
538.92	57532.71
539.09	57352.49
539.26	57343.12
539.43	56907.79
539.60	56994.39
539.77	57488.24
539.94	56999.07
540.11	56343.72
540.28	55990.30
540.44	56245.41
540.61	56224.35
540.78	56460.74
540.95	56858.63
541.12	57247.16
541.29	57394.62
541.46	57918.90
541.62	57902.51
541.79	57890.81
541.96	57034.17
542.13	57134.82
542.30	57336.10
542.47	57471.85
542.63	57200.35
542.80	57085.67
542.97	57326.74
543.14	57099.71
543.31	57066.94
543.48	57851.02
543.64	58569.57
543.81	58920.65
543.98	58475.94
544.15	57794.85
544.32	57174.61
544.48	57413.34
544.65	57790.17
544.82	58059.33
544.99	57776.12
545.16	57272.91
545.32	57525.69
545.49	58223.17
545.66	58080.39
545.83	58026.56
546.00	57415.68
546.16	57254.18
546.33	57282.27
546.50	57418.02
546.67	57942.30
546.83	57544.41
547.00	57537.39
547.17	56947.57
547.34	56355.42
547.50	56264.14
547.67	56856.29
547.84	56629.26
548.00	57303.34
548.17	57682.50
548.34	57567.82
548.51	57389.94
548.67	57338.44
548.84	57499.94
549.01	57432.07
549.18	57460.15
549.34	57296.31
549.51	57413.34
549.68	57132.48
549.84	57104.39
550.01	56924.17
550.18	56818.84
550.34	57223.76
550.51	57158.22
550.68	56889.06
550.84	56584.79
551.01	56779.06
551.18	56647.99
551.34	56933.53
551.51	57263.55
551.68	57565.48
551.84	57361.85
552.01	57291.63
552.18	57233.12
552.34	56285.20
552.51	56083.92
552.68	56161.15
552.84	56676.07
553.01	56540.32
553.18	56545.00
553.34	56765.01
553.51	56842.25
553.67	57130.14
553.84	57286.95
554.01	57020.13
554.17	56830.55
554.34	56788.42
554.51	57418.02
554.67	57523.35
554.84	57322.06
555.00	56856.29
555.17	56776.72
555.33	56582.45
555.50	56629.26
555.67	56701.82
555.83	56479.47
556.00	56446.70
556.16	56182.22
556.33	55845.18
556.50	55669.64
556.66	55730.50
556.83	55323.24
556.99	55690.71
557.16	55679.00
557.32	55936.46
557.49	56446.70
557.65	56088.60
557.82	56285.20
557.98	55880.29
558.15	55688.37
558.32	54541.50
558.48	53984.46
558.65	54230.21
558.81	54380.01
558.98	55096.21
559.14	55182.81
559.31	55147.70
559.47	55098.55
559.64	54768.54
559.80	54227.87
559.97	54464.27
560.13	55187.49
560.30	55889.65
560.46	56388.19
560.63	56610.54
560.79	56636.28
560.96	56212.65
561.12	54843.43
561.29	54298.09
561.45	54258.30
561.61	55126.64
561.78	55423.89
561.94	55164.09
562.11	54838.75
562.27	55044.72
562.44	55437.93
562.60	55533.89
562.77	55737.52
562.93	55671.98
563.10	55538.57
563.26	55016.63
563.42	55217.92
563.59	54976.84
563.75	54681.94
563.92	55337.29
564.08	54770.88
564.24	55224.94
564.41	55196.85
564.57	55086.85
564.74	54731.09
564.90	54901.95
565.07	54742.79
565.23	54129.57
565.39	53553.80
565.56	53315.06
565.72	52973.34
565.88	53759.76
566.05	53764.45
566.21	54328.52
566.38	54087.44
566.54	54382.35
566.70	54578.95
566.87	54901.95
567.03	54787.26
567.19	55011.95
567.36	54756.83
567.52	54688.96
567.68	54157.66
567.85	53715.29
568.01	53272.93
568.17	53123.14
568.34	53027.18
568.50	52893.77
568.66	53095.05
568.83	53366.55
568.99	53518.69
569.15	53858.07
569.32	53977.43
569.48	53350.17
569.64	53062.29
569.81	52837.59
569.97	52889.09
570.13	52767.38
570.30	52144.80
570.46	51877.97
570.62	51327.95
570.78	51107.94
570.95	51793.71
571.11	52622.26
571.27	52456.09
571.43	52540.35
571.60	53001.43
571.76	53282.30
571.92	53429.75
572.09	53418.05
572.25	53574.86
572.41	53563.16
572.57	53401.66
572.74	53324.43
572.90	52823.55
573.06	53102.07
573.22	53286.98
573.38	53202.72
573.55	53256.55
573.71	53102.07
573.87	52788.44
574.03	52666.73
574.20	52914.83
574.36	52643.33
574.52	52224.37
574.68	52346.08
574.84	51980.96
575.01	51248.37
575.17	50965.17
575.33	51786.69
575.49	51962.23
575.65	52023.09
575.82	51791.37
575.98	51466.04
576.14	52142.45
576.30	52074.58
576.46	52287.57
576.62	52168.20
576.79	52240.76
576.95	51632.22
577.11	51688.39
577.27	51866.27
577.43	52107.35
577.59	51224.96
577.75	50768.56
577.92	50504.08
578.08	50274.71
578.24	49996.18
578.40	50777.92
578.56	50623.45
578.72	50733.45
578.88	51124.32
579.04	51306.88
579.21	51590.09
579.37	51620.52
579.53	51480.08
579.69	51386.46
579.85	51442.63
580.01	51571.36
580.17	51105.60
580.33	50550.89
580.49	51086.87
580.65	51360.72
580.82	51592.43
580.98	51653.28
581.14	51325.61
581.30	51681.37
581.46	51157.09
581.62	51515.19
581.78	51580.73
581.94	51578.39
582.10	51632.22
582.26	51924.78
582.42	51657.96
582.58	51835.84
582.74	51538.60
582.90	51796.06
583.06	51625.20
583.22	51274.12
583.38	51370.08
583.54	51241.35
583.70	51021.34
583.86	51552.64
584.02	51037.72
584.18	51393.48
584.34	50759.20
584.50	51077.51
584.66	51058.79
584.82	50447.91
584.98	49977.46
585.14	50010.23
585.30	49375.94
