SpectraSuite Data File
++++++++++++++++++++++++++++++++++++
Date: Mon Oct 07 14:53:50 GMT-05:00 2013
User: price-jones
Dark Spectrum Present: No
Reference Spectrum Present: No
Number of Sampled Component Spectra: 1
Spectrometers: USB2+H05261
Integration Time (usec): 100000 (USB2+H05261)
Spectra Averaged: 1 (USB2+H05261)
Boxcar Smoothing: 0 (USB2+H05261)
Correct for Electrical Dark: No (USB2+H05261)
Strobe/Lamp Enabled: No (USB2+H05261)
Correct for Detector Non-linearity: No (USB2+H05261)
Correct for Stray Light: No (USB2+H05261)
Number of Pixels in Processed Spectrum: 2048
>>>>>Begin Processed Spectral Data<<<<<
365.73	0.00
365.92	0.00
366.12	0.00
366.32	0.00
366.52	0.00
366.72	0.00
366.91	0.00
367.11	0.00
367.31	0.00
367.51	0.00
367.70	0.00
367.90	0.00
368.10	0.00
368.30	0.00
368.49	0.00
368.69	0.00
368.89	0.00
369.09	0.00
369.28	0.00
369.48	0.00
369.68	0.00
369.87	0.00
370.07	0.00
370.27	0.00
370.47	685.78
370.66	3164.40
370.86	3632.51
371.06	4028.06
371.25	4011.68
371.45	3674.64
371.65	3335.26
371.84	3054.40
372.04	3246.32
372.24	3538.89
372.44	3667.62
372.63	3770.60
372.83	3494.42
373.03	3117.59
373.22	2888.22
373.42	3040.36
373.62	3438.25
373.81	3564.64
374.01	3749.54
374.21	3419.52
374.40	3234.62
374.60	3316.54
374.79	3527.19
374.99	4435.32
375.19	4547.66
375.38	4568.73
375.58	4362.76
375.78	4280.84
375.97	4224.67
376.17	4514.89
376.37	4477.44
376.56	4587.45
376.76	4896.40
376.95	5212.37
377.15	5345.78
377.35	5724.95
377.54	5884.11
377.74	6087.73
377.93	6160.29
378.13	6069.01
378.33	5682.82
378.52	5191.31
378.72	4973.64
378.91	4915.12
379.11	4861.29
379.31	4606.17
379.50	4645.96
379.70	4854.27
379.89	5406.64
380.09	5930.92
380.28	5830.27
380.48	5942.62
380.68	5692.18
380.87	5727.29
381.07	5298.97
381.26	4966.62
381.46	4669.37
381.65	4582.77
381.85	4320.63
382.04	4056.15
382.24	3833.80
382.43	3744.86
382.63	3562.30
382.83	3646.55
383.02	3599.74
383.22	3618.47
383.41	3719.11
383.61	3885.29
383.80	4493.83
384.00	5085.98
384.19	5710.91
384.39	5963.68
384.58	5970.71
384.78	5806.87
384.97	5907.51
385.17	5582.18
385.36	5284.93
385.56	5102.37
385.75	4997.04
385.95	5788.14
386.14	6057.31
386.34	6085.39
386.53	5820.91
386.72	5441.75
386.92	5465.15
387.11	5827.93
387.31	6190.72
387.50	5907.51
387.70	5891.13
387.89	5607.92
388.09	5834.96
388.28	5605.58
388.48	6008.16
388.67	6492.65
388.86	6932.67
389.06	7536.52
389.25	7868.88
389.45	8044.42
389.64	7770.58
389.84	7908.67
390.03	7726.11
390.22	7779.94
390.42	7943.78
390.61	8545.30
390.81	8887.01
391.00	9474.49
391.19	9191.28
391.39	8755.94
391.58	8248.05
391.78	7761.22
391.97	7733.13
392.16	7084.80
392.36	6478.60
392.55	5135.14
392.75	4131.05
392.94	3309.52
393.13	3452.29
393.33	3810.39
393.52	4931.51
393.71	6232.85
393.91	7117.57
394.10	7489.71
394.29	8255.07
394.49	9121.07
394.68	9603.22
394.88	9813.87
395.07	10024.51
395.26	9933.23
395.46	9596.20
395.65	9181.92
395.84	8126.34
396.04	6707.98
396.23	5483.88
396.42	4713.84
396.62	4475.10
396.81	5071.94
397.00	6476.26
397.19	8367.42
397.39	9579.81
397.58	10930.30
397.77	11501.39
397.97	11960.14
398.16	12329.94
398.35	12807.41
398.55	13132.75
398.74	13528.30
398.93	13813.84
399.12	13664.05
399.32	12992.31
399.51	13205.30
399.70	14195.35
399.90	13987.04
400.09	14097.05
400.28	13968.32
400.47	14338.12
400.67	14766.44
400.86	15470.94
401.05	15269.66
401.24	15499.03
401.44	15606.69
401.63	15480.30
401.82	15459.24
402.01	15669.89
402.21	15754.15
402.40	15999.90
402.59	15499.03
402.78	14703.25
402.97	14258.54
403.17	14794.53
403.36	15906.28
403.55	16348.64
403.74	16755.90
403.93	15723.72
404.13	14815.59
404.32	14279.61
404.51	14916.23
404.70	16285.45
404.89	16060.76
405.09	16100.55
405.28	15667.55
405.47	15431.15
405.66	15527.11
405.85	14789.85
406.05	14771.12
406.24	14920.92
406.43	15353.91
406.62	16322.90
406.81	16203.53
407.00	15396.04
407.20	15360.94
407.39	15353.91
407.58	16051.39
407.77	16716.11
407.96	17003.99
408.15	17233.36
408.34	17266.13
408.54	18270.22
408.73	18593.22
408.92	18188.30
409.11	17453.37
409.30	16758.24
409.49	15812.66
409.68	14562.81
409.87	14422.38
410.07	15047.30
410.26	15932.03
410.45	17518.91
410.64	17715.51
410.83	18244.48
411.02	18637.69
411.21	19360.91
411.40	19295.38
411.59	19314.10
411.78	18941.96
411.98	18717.26
412.17	19309.42
412.36	18794.50
412.55	19136.22
412.74	18204.69
412.93	18298.31
413.12	18417.68
413.31	20210.53
413.50	20357.98
413.69	20638.84
413.88	19899.23
414.07	19241.54
414.26	19747.10
414.45	20182.44
414.64	20044.35
414.83	20257.34
415.02	20229.25
415.22	19812.63
415.41	20393.09
415.60	21010.99
415.79	21610.17
415.98	22113.38
416.17	22422.33
416.36	21699.11
416.55	21516.54
416.74	20755.87
416.93	20065.41
417.12	19936.68
417.31	20243.29
417.50	20573.31
417.69	21198.23
417.88	21476.76
418.07	20992.26
418.26	20599.05
418.45	20900.98
418.64	21528.25
418.83	22403.61
419.02	22143.81
419.21	22005.72
419.39	21256.75
419.58	19765.82
419.77	20311.17
419.96	20662.25
420.15	22153.17
420.34	22644.68
420.53	23332.80
420.72	23899.21
420.91	23950.70
421.10	23606.64
421.29	23325.78
421.48	22387.22
421.67	23168.96
421.86	23009.81
422.05	21603.14
422.24	19323.46
422.43	18918.55
422.61	20968.86
422.80	22871.72
422.99	22857.67
423.18	21839.54
423.37	21359.73
423.56	21596.12
423.75	21935.50
423.94	22494.89
424.13	21165.46
424.32	21074.18
424.50	21488.46
424.69	21207.59
424.88	21060.14
425.07	21432.29
425.26	21025.03
425.45	21102.27
425.64	20711.40
425.83	20367.34
426.01	21968.27
426.20	22387.22
426.39	22256.15
426.58	20648.21
426.77	19040.26
426.96	18354.48
427.15	18822.59
427.33	20493.73
427.52	21483.78
427.71	21476.76
427.90	21338.66
428.09	21231.00
428.28	20615.44
428.46	19882.85
428.65	19576.24
428.84	19875.83
429.03	20416.49
429.22	19147.92
429.40	18431.72
429.59	16671.64
429.78	14764.10
429.97	14719.63
430.16	14808.57
430.34	15019.22
430.53	14696.22
430.72	15180.71
430.91	16706.74
431.10	19749.44
431.28	23197.05
431.47	25282.47
431.66	25268.42
431.85	23360.89
432.03	21797.41
432.22	20173.08
432.41	21343.35
432.60	23768.14
432.79	24353.27
432.97	25216.93
433.16	24807.34
433.35	22588.51
433.54	20203.50
433.72	19016.85
433.91	19707.31
434.10	21490.80
434.28	23585.58
434.47	24601.37
434.66	24266.67
434.85	23641.75
435.03	23271.95
435.22	24142.63
435.41	25565.67
435.59	25577.37
435.78	25937.82
435.97	26361.45
436.16	26532.31
436.34	26103.99
436.53	25661.63
436.72	25614.82
436.90	24758.19
437.09	24404.77
437.28	24016.24
437.46	24659.88
437.65	24847.13
437.84	23360.89
438.02	21149.08
438.21	20964.18
438.40	22295.94
438.58	24030.28
438.77	24790.95
438.96	24793.29
439.14	25872.28
439.33	26831.90
439.52	26918.50
439.70	26415.29
439.89	25736.53
440.08	24940.75
440.26	25092.88
440.45	25846.54
440.63	27843.01
440.82	29097.54
441.01	28622.41
441.19	28205.80
441.38	28437.51
441.57	30008.01
441.75	30541.65
441.94	30307.60
442.12	30328.66
442.31	30764.00
442.50	30883.37
442.68	30459.73
442.87	30000.99
443.05	29509.47
443.24	29909.71
443.43	30522.93
443.61	31002.74
443.80	31641.70
443.98	30253.76
444.17	29495.43
444.35	31695.53
444.54	32032.57
444.73	31527.02
444.91	30845.92
445.10	29022.64
445.28	27555.13
445.47	27417.04
445.65	27585.55
445.84	28783.91
446.02	29350.32
446.21	29844.17
446.39	30321.64
446.58	30450.37
446.77	30775.70
446.95	30906.77
447.14	31711.92
447.32	32549.83
447.51	31852.35
447.69	30768.68
447.88	29827.79
448.06	30380.15
448.25	31108.06
448.43	32013.85
448.62	30981.67
448.80	30654.00
448.99	31185.30
449.17	31531.70
449.36	31253.17
449.54	32563.87
449.73	32811.97
449.91	33649.88
450.10	33984.58
450.28	34670.36
450.46	34539.29
450.65	34253.74
450.83	34333.32
451.02	33247.31
451.20	33565.62
451.39	33125.60
451.57	32765.16
451.76	33125.60
451.94	33024.96
452.13	32449.19
452.31	30876.35
452.49	29074.13
452.68	29851.19
452.86	29766.93
453.05	30118.01
453.23	31267.22
453.42	31786.82
453.60	32870.48
453.78	33134.96
453.97	32701.96
454.15	32360.25
454.34	31885.12
454.52	31974.06
454.70	31599.57
454.89	31735.32
455.07	31791.50
455.26	32694.94
455.44	33333.91
455.62	34143.74
455.81	34075.86
455.99	33940.11
456.17	33764.57
456.36	33544.56
456.54	34866.96
456.73	35084.63
456.91	35351.45
457.09	35257.83
457.28	36123.83
457.46	34618.86
457.64	34312.25
457.83	32877.51
458.01	32741.75
458.19	33689.67
458.38	33551.58
458.56	34543.97
458.74	34513.54
458.93	34274.80
459.11	33750.52
459.29	33352.63
459.48	33624.14
459.66	33408.81
459.84	34286.51
460.03	34504.18
460.21	33970.54
460.39	34998.03
460.57	35363.15
460.76	35721.26
460.94	35732.96
461.12	35213.36
461.31	35461.46
461.49	35503.59
461.67	35311.66
461.85	36587.25
462.04	36332.14
462.22	36385.97
462.40	36219.79
462.59	35763.39
462.77	36067.66
462.95	36187.02
463.13	35821.90
463.32	35651.04
463.50	35079.95
463.68	35304.64
463.86	35393.58
464.05	34574.39
464.23	34422.26
464.41	33968.19
464.59	33198.16
464.78	35077.61
464.96	34902.07
465.14	34197.57
465.32	34995.69
465.50	36250.22
465.69	36566.19
465.87	35835.94
466.05	35000.37
466.23	33523.49
466.41	32573.24
466.60	33432.21
466.78	33652.22
466.96	34377.79
467.14	34675.04
467.32	35178.25
467.51	35363.15
467.69	33787.97
467.87	34469.07
468.05	34789.72
468.23	34857.60
468.41	34775.68
468.60	35021.44
468.78	35473.16
468.96	35061.22
469.14	36091.06
469.32	35721.26
469.50	34174.16
469.69	34450.35
469.87	33914.36
470.05	33621.80
470.23	33731.80
470.41	33951.81
470.59	34424.60
470.77	34653.97
470.95	35438.05
471.14	35622.95
471.32	35908.50
471.50	37326.86
471.68	37790.29
471.86	38293.50
472.04	38546.28
472.22	38242.01
472.40	36598.96
472.58	36172.98
472.77	35861.69
472.95	36613.00
473.13	37523.47
473.31	36830.67
473.49	36830.67
473.67	37600.71
473.85	37509.43
474.03	38667.99
474.21	38724.16
474.39	38770.97
474.57	39182.91
474.75	39229.72
474.93	38506.49
475.12	37968.17
475.30	37848.80
475.48	37989.24
475.66	38768.63
475.84	38157.75
476.02	38068.81
476.20	37862.85
476.38	37958.81
476.56	39353.77
476.74	39784.43
476.92	40212.74
477.10	40776.81
477.28	41834.74
477.46	41801.97
477.64	41867.50
477.82	42436.25
478.00	42546.26
478.18	41684.94
478.36	41607.70
478.54	41560.89
478.72	41956.44
478.90	42672.65
479.08	44065.27
479.26	44514.65
479.44	43973.98
479.62	44095.69
479.80	44083.99
479.98	44083.99
480.16	44390.60
480.34	44027.82
480.52	44718.28
480.70	44868.07
480.88	44832.96
481.06	45647.47
481.24	45752.79
481.41	46548.57
481.59	47290.52
481.77	46932.42
481.95	46459.63
482.13	45825.35
482.31	46340.27
482.49	47290.52
482.67	46770.93
482.85	47016.68
483.03	47590.11
483.21	48406.96
483.39	48172.91
483.57	47299.89
483.74	46892.63
483.92	47154.77
484.10	47547.98
484.28	47976.30
484.46	49198.06
484.64	49272.96
484.82	48189.29
485.00	47894.38
485.18	47323.29
485.35	45855.78
485.53	42398.80
485.71	38895.02
485.89	38555.64
486.07	40692.55
486.25	43665.03
486.43	45918.97
486.61	46787.31
486.78	46927.74
486.96	46848.16
487.14	48561.44
487.32	49560.84
487.50	50518.12
487.68	51239.01
487.85	51381.78
488.03	51695.41
488.21	51318.59
488.39	50511.10
488.57	49766.81
488.75	49528.08
488.92	50642.17
489.10	52985.05
489.28	54127.23
489.46	54543.84
489.64	54475.97
489.81	54588.31
489.99	54450.22
490.17	54419.80
490.35	54543.84
490.53	54302.77
490.70	53855.73
490.88	53560.82
491.06	54766.20
491.24	54768.54
491.41	53560.82
491.59	51803.08
491.77	51655.62
491.95	52296.93
492.13	53572.52
492.30	54574.27
492.48	55805.39
492.66	56142.43
492.84	55859.23
493.01	55590.06
493.19	55086.85
493.37	55114.94
493.54	54707.68
493.72	55400.48
493.90	56259.46
494.08	57151.20
494.25	57277.59
494.43	57542.07
494.61	57851.02
494.79	57729.31
494.96	57422.70
495.14	57073.96
495.32	56245.41
495.49	55466.02
495.67	56507.55
495.85	57659.10
496.02	58190.40
496.20	57649.74
496.38	57581.86
496.55	57549.09
496.73	58106.14
496.91	58223.17
497.09	58564.88
497.26	58841.07
497.44	58379.98
497.62	57836.98
497.79	57125.46
497.97	55948.17
498.14	55917.74
498.32	57188.65
498.50	57893.15
498.67	58597.65
498.85	58333.17
499.03	58543.82
499.20	58702.98
499.38	58756.81
499.56	58607.01
499.73	57996.13
499.91	57792.51
500.08	57296.31
500.26	56989.70
500.44	57148.86
500.61	57588.88
500.79	57701.23
500.97	57141.84
501.14	57106.73
501.32	56750.97
501.49	56729.90
501.67	57148.86
501.84	57581.86
502.02	57762.08
502.20	58251.25
502.37	58424.45
502.55	58288.70
502.72	58871.49
502.90	59185.13
503.07	58974.48
503.25	58653.82
503.43	58073.37
503.60	57340.78
503.78	56479.47
503.95	56912.47
504.13	58372.96
504.30	59351.30
504.48	58922.99
504.65	58372.96
504.83	58527.44
505.01	59154.70
505.18	59449.61
505.36	59957.50
505.53	60179.85
505.71	60385.82
505.88	60362.42
506.06	59707.07
506.23	59522.16
506.41	59175.76
506.58	59281.09
506.76	59220.23
506.93	59283.43
507.11	59164.06
507.28	59180.45
507.46	58885.54
507.63	58440.84
507.81	57825.28
507.98	58115.50
508.16	58965.12
508.33	59355.99
508.50	59973.89
508.68	60163.47
508.85	60430.29
509.03	60472.42
509.20	60303.90
509.38	59700.04
509.55	59028.31
509.73	58937.03
509.90	59552.59
510.08	59821.75
510.25	59760.90
510.42	59505.78
510.60	59442.59
510.77	59676.64
510.95	60069.85
511.12	60339.01
511.30	60427.95
511.47	60884.36
511.64	61015.43
511.82	60584.77
511.99	59704.73
512.17	59512.80
512.34	58922.99
512.51	59042.35
512.69	59288.11
512.86	59377.05
513.04	59908.35
513.21	59833.46
513.38	59458.97
513.56	58925.33
513.73	58403.39
513.90	58635.10
514.08	58637.44
514.25	58899.58
514.43	59208.53
514.60	59281.09
514.77	59538.55
514.95	59482.37
515.12	59288.11
515.29	59714.09
515.47	60067.51
515.64	60250.07
515.81	59999.63
515.99	59363.01
516.16	58054.65
516.33	55831.14
516.51	54419.80
516.68	53518.69
516.85	53102.07
517.03	53602.95
517.20	56095.62
517.37	58342.53
517.54	59489.40
517.72	58946.39
517.89	56802.46
518.06	54490.01
518.24	54611.72
518.41	56793.10
518.58	58000.82
518.75	58234.87
518.93	58394.03
519.10	58344.87
519.27	58775.53
519.45	59009.59
519.62	59477.69
519.79	60329.65
519.96	59669.62
520.14	59435.56
520.31	58459.56
520.48	58578.93
520.65	58787.24
520.83	59515.14
521.00	60123.68
521.17	59737.49
521.34	59538.55
521.52	59716.43
521.69	60282.84
521.86	60764.99
522.03	60432.63
522.20	59103.21
522.38	58298.06
522.55	58176.36
522.72	58827.02
522.89	58948.73
523.07	59208.53
523.24	59384.07
523.41	60280.50
523.58	60692.43
523.75	60985.00
523.92	60680.73
524.10	60697.11
524.27	60767.33
524.44	60610.51
524.61	60498.17
524.78	60072.19
524.96	59999.63
525.13	60182.19
525.30	60549.66
525.47	60748.60
525.64	60762.65
525.81	60079.21
525.98	58501.69
526.16	57563.14
526.33	56743.95
526.50	56243.07
526.67	55856.88
526.84	56633.94
527.01	57621.65
527.18	58239.55
527.36	59086.82
527.53	59906.01
527.70	60229.01
527.87	59779.62
528.04	59440.24
528.21	59723.45
528.38	60589.45
528.55	60718.18
528.72	61256.50
528.89	61403.95
529.07	61087.98
529.24	60362.42
529.41	59805.37
529.58	59128.95
529.75	59217.89
529.92	59711.75
530.09	60144.75
530.26	60474.76
530.43	60975.64
530.60	60896.06
530.77	61167.56
530.94	61277.57
531.11	60903.08
531.28	60481.78
531.46	60254.75
531.63	60493.49
531.80	60439.65
531.97	60016.02
532.14	59260.02
532.31	58424.45
532.48	57628.67
532.65	57621.65
532.82	58522.76
532.99	59442.59
533.16	59978.57
533.33	60512.21
533.50	60126.02
533.67	59515.14
533.84	59100.87
534.01	59456.63
534.18	59695.36
534.35	59868.56
534.52	59587.70
534.69	59728.13
534.86	60020.70
535.03	60245.39
535.20	60919.46
535.37	61207.35
535.54	61141.81
535.71	60781.37
535.88	60339.01
536.05	60013.68
536.22	59423.86
536.38	59341.94
536.55	58810.64
536.72	58433.81
536.89	58075.71
537.06	59044.69
537.23	59969.21
537.40	60055.81
537.57	60039.42
537.74	59985.59
537.91	59966.87
538.08	59849.84
538.25	59847.50
538.42	59786.64
538.59	59863.88
538.75	59203.85
538.92	59077.46
539.09	59140.66
539.26	58810.64
539.43	58525.10
539.60	58532.12
539.77	58759.15
539.94	58607.01
540.11	57965.71
540.28	57420.36
540.44	57499.94
540.61	57794.85
540.78	57968.05
540.95	58482.97
541.12	58731.06
541.29	59114.91
541.46	59168.74
541.62	59384.07
541.79	59325.56
541.96	58220.83
542.13	58635.10
542.30	58922.99
542.47	58913.62
542.63	58604.67
542.80	58433.81
542.97	58777.87
543.14	58499.35
543.31	58602.33
543.48	58855.11
543.64	59887.29
543.81	60074.53
543.98	59721.11
544.15	59281.09
544.32	58642.12
544.48	58756.81
544.65	59196.83
544.82	59625.15
544.99	59091.51
545.16	58798.94
545.32	58773.19
545.49	59241.30
545.66	59746.86
545.83	59463.65
546.00	59185.13
546.16	58815.32
546.33	58890.22
546.50	58993.20
546.67	59255.34
546.83	58824.68
547.00	58913.62
547.17	58225.51
547.34	57729.31
547.50	57764.42
547.67	58150.61
547.84	58166.99
548.00	58576.59
548.17	58972.14
548.34	58897.24
548.51	58930.01
548.67	58745.11
548.84	58887.88
549.01	58852.77
549.18	58873.84
549.34	58731.06
549.51	58574.25
549.68	58628.08
549.84	58466.58
550.01	58450.20
550.18	58260.62
550.34	58195.08
550.51	58309.77
550.68	58461.90
550.84	58134.23
551.01	58073.37
551.18	58134.23
551.34	57970.39
551.51	58632.76
551.68	58908.94
551.84	58944.05
552.01	58588.29
552.18	58623.40
552.34	57860.38
552.51	57490.58
552.68	57237.80
552.84	57979.75
553.01	57895.49
553.18	58064.01
553.34	57975.07
553.51	58108.48
553.67	58314.45
553.84	58733.40
554.01	58464.24
554.17	58136.57
554.34	58241.89
554.51	58286.36
554.67	58637.44
554.84	58447.86
555.00	58284.02
555.17	58054.65
555.33	57886.13
555.50	58164.65
555.67	58096.78
555.83	57848.68
556.00	57591.22
556.16	57633.35
556.33	57022.47
556.50	57350.15
556.66	56982.68
556.83	56774.37
556.99	57097.37
557.16	57127.80
557.32	57254.18
557.49	57673.14
557.65	57317.38
557.82	57595.90
557.98	57448.45
558.15	57036.51
558.32	56027.74
558.48	55217.92
558.65	55604.11
558.81	55828.80
558.98	55870.93
559.14	56409.25
559.31	56587.13
559.47	56601.18
559.64	56114.34
559.80	55791.35
559.97	56032.42
560.13	56119.02
560.30	57043.54
560.46	57453.13
560.63	57963.37
560.79	57916.56
560.96	57570.16
561.12	56458.40
561.29	55496.44
561.45	55409.84
561.61	55959.87
561.78	56388.19
561.94	56364.78
562.11	56317.97
562.27	56226.69
562.44	56608.20
562.60	56755.65
562.77	57076.30
562.93	56783.74
563.10	56650.33
563.26	56142.43
563.42	56245.41
563.59	55906.04
563.75	56004.34
563.92	56086.26
564.08	56245.41
564.24	56449.04
564.41	56257.12
564.57	56163.50
564.74	56217.33
564.90	55899.01
565.07	55805.39
565.23	55363.03
565.39	55021.31
565.56	54576.61
565.72	54319.15
565.88	54904.29
566.05	54834.07
566.21	55220.26
566.38	55498.78
566.54	55470.70
566.70	55849.86
566.87	56144.77
567.03	55941.14
567.19	56161.15
567.36	55863.91
567.52	55821.78
567.68	55798.37
567.85	55068.12
568.01	54515.76
568.17	54188.08
568.34	54494.69
568.50	54251.28
568.66	54326.17
568.83	54843.43
568.99	54717.04
569.15	55185.15
569.32	54911.31
569.48	54532.14
569.64	54578.95
569.81	54096.80
569.97	54160.00
570.13	53925.94
570.30	53492.94
570.46	53179.31
570.62	52449.06
570.78	52437.36
570.95	52645.67
571.11	53668.48
571.27	53719.98
571.43	53963.39
571.60	54101.48
571.76	54349.58
571.92	54644.49
572.09	54625.76
572.25	54805.98
572.41	54777.90
572.57	54426.82
572.74	54639.81
572.90	54066.38
573.06	54033.61
573.22	54204.47
573.38	54202.13
573.55	54199.79
573.71	54241.92
573.87	54342.56
574.03	53904.88
574.20	54120.21
574.36	53698.91
574.52	53469.54
574.68	53490.60
574.84	52947.60
575.01	52559.07
575.17	52233.74
575.33	52772.06
575.49	53045.90
575.65	53366.55
575.82	52919.51
575.98	52631.63
576.14	52963.98
576.30	53375.92
576.46	53359.53
576.62	53186.33
576.79	53205.06
576.95	52865.68
577.11	52678.44
577.27	52996.75
577.43	52907.81
577.59	52521.62
577.75	52172.88
577.92	51810.10
578.08	51253.05
578.24	51419.23
578.40	51945.85
578.56	52191.61
578.72	52030.11
578.88	52200.97
579.04	52507.58
579.21	52456.09
579.37	52514.60
579.53	52390.55
579.69	52781.42
579.85	52956.96
580.01	52849.30
580.17	52140.11
580.33	52058.20
580.49	52032.45
580.65	52428.00
580.82	52556.73
580.98	52495.88
581.14	52357.78
581.30	52200.97
581.46	52151.82
581.62	52638.65
581.78	52711.20
581.94	52704.18
582.10	52816.53
582.26	52839.93
582.42	52985.05
582.58	52835.25
582.74	52315.65
582.90	52788.44
583.06	52610.56
583.22	52587.16
583.38	52521.62
583.54	52563.75
583.70	52444.38
583.86	52432.68
584.02	52112.03
584.18	52301.61
584.34	52332.04
584.50	51980.96
584.66	51786.69
584.82	51562.00
584.98	51672.01
585.14	51267.09
