SpectraSuite Data File
++++++++++++++++++++++++++++++++++++
Date: Mon Oct 07 14:54:55 GMT-05:00 2013
User: price-jones
Dark Spectrum Present: No
Reference Spectrum Present: No
Number of Sampled Component Spectra: 1
Spectrometers: USB2+H05261
Integration Time (usec): 10000 (USB2+H05261)
Spectra Averaged: 1 (USB2+H05261)
Boxcar Smoothing: 0 (USB2+H05261)
Correct for Electrical Dark: No (USB2+H05261)
Strobe/Lamp Enabled: No (USB2+H05261)
Correct for Detector Non-linearity: No (USB2+H05261)
Correct for Stray Light: No (USB2+H05261)
Number of Pixels in Processed Spectrum: 2048
>>>>>Begin Processed Spectral Data<<<<<
365.73	0.00
365.92	0.00
366.12	0.00
366.32	0.00
366.52	0.00
366.72	0.00
366.91	0.00
367.11	0.00
367.31	0.00
367.51	0.00
367.70	0.00
367.90	0.00
368.10	0.00
368.30	0.00
368.49	0.00
368.69	0.00
368.89	0.00
369.09	0.00
369.28	0.00
369.48	0.00
369.68	0.00
369.87	0.00
370.07	0.00
370.27	0.00
370.47	0.00
370.66	0.00
370.86	0.00
371.06	0.00
371.25	0.00
371.45	7.02
371.65	18.72
371.84	0.00
372.04	77.24
372.24	0.00
372.44	0.00
372.63	102.98
372.83	0.00
373.03	0.00
373.22	0.00
373.42	0.00
373.62	0.00
373.81	32.77
374.01	88.94
374.21	25.75
374.40	0.00
374.60	32.77
374.79	0.00
374.99	58.51
375.19	119.37
375.38	126.39
375.58	98.30
375.78	81.92
375.97	98.30
376.17	86.60
376.37	156.82
376.56	119.37
376.76	140.43
376.95	205.97
377.15	210.65
377.35	149.79
377.54	191.92
377.74	266.82
377.93	201.29
378.13	124.05
378.33	114.69
378.52	184.90
378.72	63.19
378.91	112.35
379.11	173.20
379.31	121.71
379.50	119.37
379.70	175.54
379.89	229.37
380.09	74.90
380.28	131.07
380.48	271.50
380.68	264.48
380.87	126.39
381.07	177.88
381.26	217.67
381.46	196.60
381.65	81.92
381.85	105.32
382.04	32.77
382.24	70.22
382.43	79.58
382.63	46.81
382.83	51.49
383.02	0.00
383.22	28.09
383.41	65.54
383.61	81.92
383.80	124.05
384.00	128.73
384.19	180.22
384.39	170.86
384.58	208.31
384.78	102.98
384.97	194.26
385.17	159.16
385.36	102.98
385.56	56.17
385.75	84.26
385.95	215.33
386.14	301.93
386.34	231.71
386.53	220.01
386.72	128.73
386.92	166.18
387.11	166.18
387.31	220.01
387.50	259.80
387.70	170.86
387.89	196.60
388.09	203.63
388.28	220.01
388.48	198.95
388.67	269.16
388.86	290.23
389.06	325.33
389.25	332.36
389.45	318.31
389.64	318.31
389.84	395.55
390.03	454.06
390.22	390.87
390.42	339.38
390.61	425.98
390.81	505.56
391.00	500.87
391.19	472.79
391.39	442.36
391.58	397.89
391.78	283.20
391.97	308.95
392.16	243.42
392.36	250.44
392.55	159.16
392.75	60.85
392.94	84.26
393.13	0.00
393.33	14.04
393.52	95.96
393.71	161.50
393.91	255.12
394.10	362.78
394.29	313.63
394.49	428.32
394.68	472.79
394.88	437.68
395.07	510.24
395.26	451.72
395.46	470.45
395.65	461.09
395.84	318.31
396.04	285.55
396.23	124.05
396.42	105.32
396.62	124.05
396.81	152.13
397.00	241.08
397.19	388.53
397.39	454.06
397.58	564.07
397.77	475.13
397.97	629.60
398.16	631.94
398.35	748.97
398.55	713.86
398.74	678.76
398.93	777.06
399.12	823.87
399.32	765.36
399.51	657.69
399.70	739.61
399.90	739.61
400.09	880.04
400.28	870.68
400.47	851.96
400.67	887.06
400.86	807.48
401.05	936.21
401.24	877.70
401.44	880.04
401.63	990.05
401.82	898.77
402.01	898.77
402.21	826.21
402.40	854.30
402.59	957.28
402.78	844.93
402.97	758.33
403.17	802.80
403.36	954.94
403.55	1004.09
403.74	973.66
403.93	882.38
404.13	807.48
404.32	819.19
404.51	863.66
404.70	952.60
404.89	952.60
405.09	952.60
405.28	877.70
405.47	821.53
405.66	830.89
405.85	793.44
406.05	809.83
406.24	781.74
406.43	854.30
406.62	844.93
406.81	952.60
407.00	931.53
407.20	894.08
407.39	774.72
407.58	919.83
407.77	929.19
407.96	992.39
408.15	1057.92
408.34	1029.84
408.54	994.73
408.73	1128.14
408.92	1015.79
409.11	1006.43
409.30	929.19
409.49	828.55
409.68	837.91
409.87	767.70
410.07	875.36
410.26	940.90
410.45	922.17
410.64	976.00
410.83	1050.90
411.02	1114.10
411.21	1102.39
411.40	1128.14
411.59	1153.88
411.78	1116.44
411.98	1123.46
412.17	1046.22
412.36	1116.44
412.55	1116.44
412.74	1062.60
412.93	964.30
413.12	964.30
413.31	1156.22
413.50	1247.51
413.69	1181.97
413.88	1200.69
414.07	1111.75
414.26	1100.05
414.45	1207.72
414.64	1170.27
414.83	1170.27
415.02	1163.25
415.22	1224.10
415.41	1205.38
415.60	1217.08
415.79	1280.27
415.98	1301.34
416.17	1320.06
416.36	1387.94
416.55	1158.57
416.74	1160.91
416.93	1287.29
417.12	1186.65
417.31	1224.10
417.50	1172.61
417.69	1214.74
417.88	1212.40
418.07	1240.48
418.26	1198.35
418.45	1193.67
418.64	1331.76
418.83	1334.11
419.02	1327.08
419.21	1315.38
419.39	1144.52
419.58	1174.95
419.77	1160.91
419.96	1217.08
420.15	1320.06
420.34	1324.74
420.53	1413.68
420.72	1343.47
420.91	1378.58
421.10	1336.45
421.29	1380.92
421.48	1357.51
421.67	1350.49
421.86	1317.72
422.05	1165.59
422.24	1167.93
422.43	1123.46
422.61	1193.67
422.80	1313.04
422.99	1334.11
423.18	1313.04
423.37	1282.61
423.56	1167.93
423.75	1270.91
423.94	1240.48
424.13	1158.57
424.32	1172.61
424.50	1170.27
424.69	1198.35
424.88	1256.87
425.07	1289.64
425.26	1214.74
425.45	1121.12
425.64	1184.31
425.83	1181.97
426.01	1207.72
426.20	1266.23
426.39	1240.48
426.58	1170.27
426.77	1090.69
426.96	1083.67
427.15	1060.26
427.33	1181.97
427.52	1219.42
427.71	1172.61
427.90	1198.35
428.09	1160.91
428.28	1123.46
428.46	1055.58
428.65	1130.48
428.84	1153.88
429.03	1121.12
429.22	1149.20
429.40	1046.22
429.59	954.94
429.78	777.06
429.97	739.61
430.16	763.01
430.34	702.16
430.53	861.32
430.72	781.74
430.91	919.83
431.10	1149.20
431.28	1179.63
431.47	1455.81
431.66	1500.28
431.85	1301.34
432.03	1294.32
432.22	1221.76
432.41	1284.95
432.60	1376.24
432.79	1441.77
432.97	1526.03
433.16	1430.07
433.35	1247.51
433.54	1132.82
433.72	1006.43
433.91	1109.41
434.10	1217.08
434.28	1275.59
434.47	1331.76
434.66	1329.42
434.85	1308.36
435.03	1327.08
435.22	1469.86
435.41	1420.71
435.59	1394.96
435.78	1493.26
435.97	1493.26
436.16	1561.14
436.34	1654.76
436.53	1593.90
436.72	1563.48
436.90	1366.87
437.09	1409.00
437.28	1291.98
437.46	1434.75
437.65	1490.92
437.84	1313.04
438.02	1217.08
438.21	1123.46
438.40	1301.34
438.58	1303.68
438.77	1455.81
438.96	1547.09
439.14	1612.63
439.33	1598.59
439.52	1526.03
439.70	1647.74
439.89	1575.18
440.08	1439.43
440.26	1404.32
440.45	1549.43
440.63	1612.63
440.82	1813.92
441.01	1647.74
441.19	1661.78
441.38	1682.85
441.57	1856.04
441.75	1774.13
441.94	1795.19
442.12	1790.51
442.31	1802.21
442.50	1767.10
442.68	1799.87
442.87	1757.74
443.05	1696.89
443.24	1804.55
443.43	1816.26
443.61	1853.70
443.80	1907.54
443.98	1764.76
444.17	1692.21
444.35	1792.85
444.54	1912.22
444.73	1926.26
444.91	1748.38
445.10	1739.02
445.28	1549.43
445.47	1680.50
445.65	1652.42
445.84	1675.82
446.02	1720.29
446.21	1802.21
446.39	1820.94
446.58	1781.15
446.77	1820.94
446.95	1902.86
447.14	1806.89
447.32	1804.55
447.51	1851.36
447.69	1767.10
447.88	1762.42
448.06	1753.06
448.25	1827.96
448.43	1872.43
448.62	1785.83
448.80	1856.04
448.99	1832.64
449.17	1891.15
449.36	1865.41
449.54	1853.70
449.73	1886.47
449.91	1968.39
450.10	2026.90
450.28	2092.44
450.46	2019.88
450.65	1914.56
450.83	2005.84
451.02	1956.69
451.20	1891.15
451.39	1975.41
451.57	1888.81
451.76	1837.32
451.94	1816.26
452.13	1987.11
452.31	1860.73
452.49	1600.93
452.68	1795.19
452.86	1776.47
453.05	1795.19
453.23	1809.23
453.42	1818.60
453.60	1739.02
453.78	1895.83
453.97	1994.14
454.15	1799.87
454.34	1771.79
454.52	1802.21
454.70	1820.94
454.89	1825.62
455.07	1900.52
455.26	1853.70
455.44	2003.50
455.62	2026.90
455.81	1947.33
455.99	1916.90
456.17	1933.28
456.36	2017.54
456.54	1980.09
456.73	1991.80
456.91	2045.63
457.09	1996.48
457.28	2129.89
457.46	2024.56
457.64	1968.39
457.83	1870.09
458.01	1858.39
458.19	1940.30
458.38	2024.56
458.56	1961.37
458.74	1994.14
458.93	1914.56
459.11	1860.73
459.29	1888.81
459.48	2038.61
459.66	1994.14
459.84	1956.69
460.03	1949.67
460.21	1947.33
460.39	2019.88
460.57	2047.97
460.76	2101.80
460.94	2122.87
461.12	1980.09
461.31	2104.14
461.49	2113.50
461.67	2017.54
461.85	2104.14
462.04	1977.75
462.22	2127.55
462.40	2031.58
462.59	2069.03
462.77	2108.82
462.95	2043.29
463.13	1998.82
463.32	1956.69
463.50	1942.64
463.68	2024.56
463.86	2047.97
464.05	2045.63
464.23	1980.09
464.41	1930.94
464.59	1818.60
464.78	1949.67
464.96	2050.31
465.14	1954.35
465.32	1973.07
465.50	1991.80
465.69	2069.03
465.87	1998.82
466.05	1907.54
466.23	1879.45
466.41	1867.75
466.60	2040.95
466.78	1921.58
466.96	1975.41
467.14	1949.67
467.32	1921.58
467.51	2054.99
467.69	1975.41
467.87	1926.26
468.05	1987.11
468.23	1989.46
468.41	1980.09
468.60	2033.93
468.78	2090.10
468.96	1994.14
469.14	2092.44
469.32	2073.71
469.50	1937.96
469.69	1881.79
469.87	1942.64
470.05	1968.39
470.23	1895.83
470.41	1977.75
470.59	1961.37
470.77	1947.33
470.95	1977.75
471.14	1984.77
471.32	2024.56
471.50	2129.89
471.68	2207.13
471.86	2230.53
472.04	2272.66
472.22	2092.44
472.40	2045.63
472.58	2017.54
472.77	1996.48
472.95	2031.58
473.13	2127.55
473.31	2024.56
473.49	2054.99
473.67	2129.89
473.85	2218.83
474.03	2108.82
474.21	2183.72
474.39	2218.83
474.57	2214.15
474.75	2235.21
474.93	2197.76
475.12	2146.27
475.30	2202.44
475.48	2195.42
475.66	2214.15
475.84	2146.27
476.02	2176.70
476.20	2153.29
476.38	2256.28
476.56	2153.29
476.74	2303.09
476.92	2279.68
477.10	2265.64
477.28	2385.01
477.46	2448.20
477.64	2345.22
477.82	2361.60
478.00	2422.45
478.18	2345.22
478.36	2349.90
478.54	2445.86
478.72	2396.71
478.90	2511.39
479.08	2455.22
479.26	2602.68
479.44	2635.44
479.62	2637.78
479.80	2548.84
479.98	2422.45
480.16	2649.49
480.34	2459.90
480.52	2431.82
480.70	2539.48
480.88	2668.21
481.06	2703.32
481.24	2679.91
481.41	2621.40
481.59	2782.90
481.77	2684.59
481.95	2668.21
482.13	2616.72
482.31	2651.83
482.49	2654.17
482.67	2722.04
482.85	2607.36
483.03	2764.17
483.21	2787.58
483.39	2881.20
483.57	2736.09
483.74	2789.92
483.92	2799.28
484.10	2684.59
484.28	2818.00
484.46	2871.84
484.64	2808.64
484.82	2860.13
485.00	2942.05
485.18	2785.24
485.35	2658.85
485.53	2462.24
485.71	2139.25
485.89	2176.70
486.07	2181.38
486.25	2518.42
486.43	2663.53
486.61	2827.37
486.78	2607.36
486.96	2750.13
487.14	2857.79
487.32	2995.89
487.50	3019.29
487.68	3070.78
487.85	3045.04
488.03	3087.17
488.21	2949.08
488.39	3026.31
488.57	2832.05
488.75	2867.16
488.92	3038.02
489.10	3290.79
489.28	3405.48
489.46	3499.10
489.64	3433.57
489.81	3396.12
489.99	3342.28
490.17	3384.41
490.35	3459.31
490.53	3337.60
490.70	3447.61
490.88	3398.46
491.06	3442.93
491.24	3361.01
491.41	3440.59
491.59	3206.53
491.77	3070.78
491.95	3281.43
492.13	3281.43
492.30	3396.12
492.48	3503.78
492.66	3702.73
492.84	3611.45
493.01	3478.04
493.19	3517.83
493.37	3482.72
493.54	3471.01
493.72	3508.46
493.90	3597.40
494.08	3817.41
494.25	3714.43
494.43	3693.37
494.61	3775.28
494.79	3899.33
494.96	3826.78
495.14	3798.69
495.32	3506.12
495.49	3536.55
495.67	3585.70
495.85	3733.15
496.02	3882.95
496.20	3873.59
496.38	3796.35
496.55	3679.32
496.73	3819.75
496.91	3852.52
497.09	3967.21
497.26	3918.06
497.44	3964.87
497.62	3756.56
497.79	3681.66
497.97	3522.51
498.14	3506.12
498.32	3604.42
498.50	3726.13
498.67	3826.78
498.85	3840.82
499.03	3985.93
499.20	3974.23
499.38	3950.82
499.56	3997.64
499.73	3873.59
499.91	3922.74
500.08	3672.30
500.26	3564.64
500.44	3770.60
500.61	3784.65
500.79	3648.90
500.97	3698.05
501.14	3552.93
501.32	3700.39
501.49	3597.40
501.67	3637.19
501.84	3744.86
502.02	3812.73
502.20	3904.01
502.37	3957.85
502.55	3845.50
502.72	3990.61
502.90	3936.78
503.07	3957.85
503.25	3939.12
503.43	3681.66
503.60	3784.65
503.78	3627.83
503.95	3786.99
504.13	3887.63
504.30	3894.65
504.48	4049.13
504.65	3995.29
504.83	3997.64
505.01	3866.56
505.18	3971.89
505.36	4102.96
505.53	4315.95
505.71	4198.92
505.88	4135.73
506.06	4114.66
506.23	4044.45
506.41	3955.51
506.58	3925.08
506.76	4044.45
506.93	4156.79
507.11	3868.91
507.28	3997.64
507.46	3873.59
507.63	3744.86
507.81	3716.77
507.98	3801.03
508.16	3941.46
508.33	4016.36
508.50	4093.60
508.68	4046.79
508.85	4315.95
509.03	4269.14
509.20	4194.24
509.38	4093.60
509.55	3925.08
509.73	4049.13
509.90	4051.47
510.08	4030.40
510.25	4124.02
510.42	4067.85
510.60	3978.91
510.77	4131.05
510.95	3992.95
511.12	4236.37
511.30	4196.58
511.47	4318.29
511.64	4168.49
511.82	4133.39
511.99	4147.43
512.17	3997.64
512.34	3955.51
512.51	3852.52
512.69	3927.42
512.86	3889.97
513.04	4037.42
513.21	4138.07
513.38	4114.66
513.56	3974.23
513.73	3838.48
513.90	3817.41
514.08	3875.93
514.25	4067.85
514.43	3847.84
514.60	4063.17
514.77	4053.81
514.95	3969.55
515.12	4063.17
515.29	3929.76
515.47	4138.07
515.64	4053.81
515.81	4060.83
515.99	4037.42
516.16	3833.80
516.33	3499.10
516.51	3302.50
516.68	3145.68
516.85	3206.53
517.03	3056.74
517.20	3506.12
517.37	3882.95
517.54	4018.70
517.72	3948.48
517.89	3606.77
518.06	3363.35
518.24	3293.13
518.41	3557.61
518.58	3749.54
518.75	3786.99
518.93	3819.75
519.10	3723.79
519.27	3868.91
519.45	3826.78
519.62	4023.38
519.79	4109.98
519.96	3969.55
520.14	4007.00
520.31	3915.72
520.48	3772.94
520.65	4018.70
520.83	3969.55
521.00	4095.94
521.17	4051.47
521.34	3868.91
521.52	3999.98
521.69	4105.30
521.86	4121.68
522.03	4051.47
522.20	3819.75
522.38	3779.97
522.55	3868.91
522.72	3735.50
522.89	3894.65
523.07	3836.14
523.24	3906.35
523.41	3992.95
523.58	4128.70
523.75	4212.96
523.92	4224.67
524.10	4198.92
524.27	4222.33
524.44	4138.07
524.61	4142.75
524.78	4187.22
524.96	4227.01
525.13	4182.54
525.30	4102.96
525.47	4234.03
525.64	4147.43
525.81	4067.85
525.98	3808.05
526.16	3662.94
526.33	3548.25
526.50	3674.64
526.67	3520.17
526.84	3449.95
527.01	3672.30
527.18	3712.09
527.36	4063.17
527.53	4018.70
527.70	4245.73
527.87	3875.93
528.04	3882.95
528.21	3880.61
528.38	4079.55
528.55	4142.75
528.72	4196.58
528.89	4287.86
529.07	4208.28
529.24	4121.68
529.41	4063.17
529.58	3953.16
529.75	3859.54
529.92	3960.19
530.09	4114.66
530.26	4175.52
530.43	4145.09
530.60	4175.52
530.77	4278.50
530.94	4297.22
531.11	4217.65
531.28	4070.19
531.46	4133.39
531.63	4067.85
531.80	4182.54
531.97	4035.08
532.14	3939.12
532.31	3894.65
532.48	3665.28
532.65	3758.90
532.82	3808.05
532.99	3922.74
533.16	3960.19
533.33	4109.98
533.50	4058.49
533.67	3915.72
533.84	3943.80
534.01	3906.35
534.18	4044.45
534.35	3845.50
534.52	3927.42
534.69	3894.65
534.86	4079.55
535.03	4100.62
535.20	4140.41
535.37	4140.41
535.54	4203.60
535.71	4255.09
535.88	4098.28
536.05	3999.98
536.22	4018.70
536.38	3845.50
536.55	3782.31
536.72	3808.05
536.89	3735.50
537.06	3707.41
537.23	3925.08
537.40	3864.22
537.57	4042.11
537.74	4023.38
537.91	3969.55
538.08	4002.32
538.25	3932.10
538.42	4051.47
538.59	3922.74
538.75	3854.86
538.92	3742.52
539.09	3709.75
539.26	3756.56
539.43	3796.35
539.60	3857.20
539.77	3779.97
539.94	3705.07
540.11	3686.34
540.28	3648.90
540.44	3588.04
540.61	3630.17
540.78	3655.92
540.95	3716.77
541.12	3768.26
541.29	3784.65
541.46	3831.46
541.62	3831.46
541.79	3719.11
541.96	3873.59
542.13	3679.32
542.30	3904.01
542.47	3768.26
542.63	3838.48
542.80	3740.18
542.97	3721.45
543.14	3775.28
543.31	3679.32
543.48	3796.35
543.64	3882.95
543.81	4021.04
543.98	3976.57
544.15	3960.19
544.32	3826.78
544.48	3833.80
544.65	3901.67
544.82	3920.40
544.99	3957.85
545.16	3740.18
545.32	3721.45
545.49	3904.01
545.66	3901.67
545.83	3772.94
546.00	3826.78
546.16	3749.54
546.33	3957.85
546.50	3786.99
546.67	3918.06
546.83	3782.31
547.00	3803.37
547.17	3691.02
547.34	3679.32
547.50	3655.92
547.67	3763.58
547.84	3684.00
548.00	3744.86
548.17	3817.41
548.34	3779.97
548.51	3632.51
548.67	3758.90
548.84	3854.86
549.01	3758.90
549.18	3777.62
549.34	3761.24
549.51	3864.22
549.68	3789.33
549.84	3747.20
550.01	3665.28
550.18	3571.66
550.34	3733.15
550.51	3786.99
550.68	3723.79
550.84	3653.58
551.01	3620.81
551.18	3571.66
551.34	3742.52
551.51	3826.78
551.68	3812.73
551.84	3782.31
552.01	3786.99
552.18	3740.18
552.34	3517.83
552.51	3672.30
552.68	3508.46
552.84	3662.94
553.01	3585.70
553.18	3716.77
553.34	3679.32
553.51	3728.47
553.67	3637.19
553.84	3761.24
554.01	3700.39
554.17	3583.36
554.34	3592.72
554.51	3763.58
554.67	3719.11
554.84	3686.34
555.00	3634.85
555.17	3595.06
555.33	3630.17
555.50	3688.68
555.67	3543.57
555.83	3480.38
556.00	3662.94
556.16	3372.71
556.33	3562.30
556.50	3510.80
556.66	3517.83
556.83	3403.14
556.99	3478.04
557.16	3431.23
557.32	3501.44
557.49	3534.21
557.65	3700.39
557.82	3494.42
557.98	3489.74
558.15	3496.76
558.32	3361.01
558.48	3229.94
558.65	3157.38
558.81	3398.46
558.98	3356.33
559.14	3428.88
559.31	3297.81
559.47	3372.71
559.64	3286.11
559.80	3365.69
559.97	3204.19
560.13	3276.75
560.30	3578.68
560.46	3426.54
560.63	3632.51
560.79	3602.08
560.96	3496.76
561.12	3389.10
561.29	3248.66
561.45	3389.10
561.61	3255.69
561.78	3283.77
561.94	3396.12
562.11	3361.01
562.27	3255.69
562.44	3386.76
562.60	3524.85
562.77	3391.44
562.93	3398.46
563.10	3323.56
563.26	3393.78
563.42	3400.80
563.59	3384.41
563.75	3243.98
563.92	3265.05
564.08	3311.86
564.24	3300.16
564.41	3281.43
564.57	3241.64
564.74	3342.28
564.90	3414.84
565.07	3190.15
565.23	3297.81
565.39	3218.24
565.56	3023.97
565.72	3096.53
565.88	3288.45
566.05	3201.85
566.21	3061.42
566.38	3136.32
566.54	3211.22
566.70	3155.04
566.87	3363.35
567.03	3349.31
567.19	3421.86
567.36	3239.30
567.52	3232.28
567.68	3183.13
567.85	3145.68
568.01	3098.87
568.17	3129.30
568.34	3068.44
568.50	3049.72
568.66	3103.55
568.83	3243.98
568.99	3201.85
569.15	3321.22
569.32	3049.72
569.48	3215.90
569.64	3087.17
569.81	3068.44
569.97	2979.50
570.13	3122.27
570.30	2967.80
570.46	3014.61
570.62	2888.22
570.78	2885.88
570.95	2951.42
571.11	2946.73
571.27	3110.57
571.43	3131.64
571.60	2932.69
571.76	3068.44
571.92	3150.36
572.09	3159.72
572.25	2946.73
572.41	3159.72
572.57	2986.52
572.74	3068.44
572.90	3047.38
573.06	3094.19
573.22	3054.40
573.38	3103.55
573.55	3094.19
573.71	3077.80
573.87	3157.38
574.03	2958.44
574.20	2977.16
574.36	2892.90
574.52	3019.29
574.68	2935.03
574.84	2951.42
575.01	2944.39
575.17	2853.11
575.33	2939.71
575.49	2958.44
575.65	2920.99
575.82	2771.19
575.98	2979.50
576.14	2881.20
576.30	2984.18
576.46	2860.13
576.62	2958.44
576.79	2951.42
576.95	2813.32
577.11	2867.16
577.27	2853.11
577.43	2911.63
577.59	2857.79
577.75	2726.72
577.92	2750.13
578.08	2733.75
578.24	2752.47
578.40	2820.35
578.56	2871.84
578.72	2869.50
578.88	2913.97
579.04	2895.24
579.21	2871.84
579.37	2963.12
579.53	2834.39
579.69	2904.60
579.85	2890.56
580.01	2810.98
580.17	2867.16
580.33	2888.22
580.49	2944.39
580.65	2878.86
580.82	2935.03
580.98	2818.00
581.14	2820.35
581.30	3052.06
581.46	2867.16
581.62	2855.45
581.78	2799.28
581.94	2946.73
582.10	2855.45
582.26	2970.14
582.42	2857.79
582.58	2871.84
582.74	2920.99
582.90	2881.20
583.06	2853.11
583.22	2918.65
583.38	2843.75
583.54	2855.45
583.70	2881.20
583.86	2904.60
584.02	2885.88
584.18	2778.22
584.34	2806.30
584.50	2885.88
584.66	2815.66
584.82	2834.39
584.98	2754.81
585.14	2801.62
585.30	2656.51
585.46	2569.91
585.62	2668.21
585.78	2729.06
585.94	2757.15
586.10	2679.91
586.26	2754.81
586.42	2736.09
586.58	2829.71
586.74	2794.60
586.90	2761.83
587.06	2705.66
587.22	2761.83
587.38	2661.19
587.54	2581.61
587.70	2663.53
587.86	2551.18
588.02	2637.78
588.18	2520.76
588.34	2347.56
588.49	2258.62
588.65	2193.08
588.81	2267.98
588.97	2183.72
589.13	2172.02
589.29	2115.84
589.45	2153.29
589.61	2338.20
589.77	2385.01
589.93	2518.42
590.08	2438.84
590.24	2502.03
590.40	2572.25
590.56	2656.51
590.72	2581.61
590.88	2483.31
591.04	2466.92
591.20	2492.67
591.35	2438.84
591.51	2544.16
591.67	2492.67
591.83	2415.43
591.99	2485.65
592.15	2532.46
592.31	2363.94
592.46	2450.54
592.62	2445.86
592.78	2537.14
592.94	2434.16
593.10	2513.74
593.26	2539.48
593.41	2504.37
593.57	2544.16
593.73	2492.67
593.89	2466.92
594.05	2434.16
594.20	2485.65
594.36	2436.50
594.52	2310.11
594.68	2319.47
594.84	2373.30
594.99	2331.17
595.15	2408.41
595.31	2401.39
595.47	2399.05
595.62	2335.85
595.78	2532.46
595.94	2410.75
596.10	2457.56
596.25	2530.12
596.41	2455.22
596.57	2333.51
596.73	2420.11
596.88	2551.18
597.04	2396.71
597.20	2462.24
597.36	2354.58
597.51	2361.60
597.67	2420.11
597.83	2457.56
597.99	2403.73
598.14	2307.77
598.30	2319.47
598.46	2246.91
598.61	2401.39
598.77	2328.83
598.93	2415.43
599.09	2209.47
599.24	2342.88
599.40	2338.20
