SpectraSuite Data File
++++++++++++++++++++++++++++++++++++
Date: Mon Oct 07 14:54:02 GMT-05:00 2013
User: price-jones
Dark Spectrum Present: No
Reference Spectrum Present: No
Number of Sampled Component Spectra: 1
Spectrometers: USB2+H05261
Integration Time (usec): 100000 (USB2+H05261)
Spectra Averaged: 1 (USB2+H05261)
Boxcar Smoothing: 0 (USB2+H05261)
Correct for Electrical Dark: No (USB2+H05261)
Strobe/Lamp Enabled: No (USB2+H05261)
Correct for Detector Non-linearity: No (USB2+H05261)
Correct for Stray Light: No (USB2+H05261)
Number of Pixels in Processed Spectrum: 2048
>>>>>Begin Processed Spectral Data<<<<<
365.73	0.00
365.92	0.00
366.12	0.00
366.32	0.00
366.52	0.00
366.72	0.00
366.91	0.00
367.11	0.00
367.31	0.00
367.51	0.00
367.70	0.00
367.90	0.00
368.10	0.00
368.30	0.00
368.49	0.00
368.69	0.00
368.89	0.00
369.09	0.00
369.28	0.00
369.48	0.00
369.68	0.00
369.87	0.00
370.07	0.00
370.27	0.00
370.47	615.56
370.66	3370.37
370.86	3904.01
371.06	4301.90
371.25	4367.44
371.45	4042.11
371.65	3447.61
371.84	3229.94
372.04	3485.06
372.24	3833.80
372.44	4156.79
372.63	3805.71
372.83	3749.54
373.03	3321.22
373.22	3068.44
373.42	3295.47
373.62	3658.26
373.81	3882.95
374.01	4077.21
374.21	3482.72
374.40	3396.12
374.60	3365.69
374.79	3812.73
374.99	4447.02
375.19	4901.08
375.38	4863.63
375.58	4550.00
375.78	4557.02
375.97	4566.39
376.17	4755.97
376.37	4854.27
376.56	4889.38
376.76	5118.75
376.95	5563.45
377.15	5823.25
377.35	6118.16
377.54	6455.20
377.74	6399.02
377.93	6525.41
378.13	6310.08
378.33	6061.99
378.52	5504.94
378.72	5378.55
378.91	5408.98
379.11	5064.92
379.31	4940.87
379.50	4919.81
379.70	5266.21
379.89	5781.12
380.09	6195.40
380.28	6462.22
380.48	6267.95
380.68	6267.95
380.87	6101.78
381.07	5631.33
381.26	5240.46
381.46	4985.34
381.65	4770.01
381.85	4641.28
382.04	4292.54
382.24	4032.74
382.43	3957.85
382.63	3885.29
382.83	3794.01
383.02	3918.06
383.22	3988.27
383.41	4011.68
383.61	4222.33
383.80	4699.80
384.00	5331.74
384.19	6026.88
384.39	6359.24
384.58	6401.37
384.78	6272.64
384.97	6282.00
385.17	5830.27
385.36	5631.33
385.56	5064.92
385.75	5479.19
385.95	5886.45
386.14	6679.89
386.34	6516.05
386.53	6225.82
386.72	5734.31
386.92	5966.03
387.11	6101.78
387.31	6263.27
387.50	6532.44
387.70	6069.01
387.89	5935.60
388.09	6235.19
388.28	6127.52
388.48	6300.72
388.67	6745.42
388.86	7332.90
389.06	8079.53
389.25	8374.44
389.45	8362.73
389.64	8187.19
389.84	8208.26
390.03	8210.60
390.22	8250.39
390.42	8432.95
390.61	9078.94
390.81	9659.39
391.00	9591.52
391.19	9703.86
391.39	9324.69
391.58	8795.73
391.78	8241.03
391.97	8074.85
392.16	7398.43
392.36	6937.35
392.55	5549.41
392.75	4503.19
392.94	3496.76
393.13	3349.31
393.33	4121.68
393.52	5249.82
393.71	6614.35
393.91	7438.22
394.10	7733.13
394.29	8793.39
394.49	9369.16
394.68	10193.03
394.88	10384.96
395.07	10450.49
395.26	10560.50
395.46	10113.45
395.65	9619.60
395.84	8262.09
396.04	7101.19
396.23	5760.06
396.42	4746.61
396.62	4674.05
396.81	5329.40
397.00	6855.43
397.19	8648.28
397.39	10127.50
397.58	11527.14
397.77	12383.77
397.97	12645.91
398.16	12781.67
398.35	13327.01
398.55	13572.77
398.74	14394.29
398.93	14569.83
399.12	14359.19
399.32	13799.80
399.51	13680.43
399.70	15068.37
399.90	14815.59
400.09	14686.86
400.28	14626.01
400.47	15009.86
400.67	15917.98
400.86	15861.81
401.05	15840.75
401.24	16123.95
401.44	16381.41
401.63	16250.34
401.82	16716.11
402.01	16297.15
402.21	16702.06
402.40	16528.86
402.59	16383.75
402.78	15325.83
402.97	14839.00
403.17	15496.69
403.36	16453.97
403.55	17069.53
403.74	17366.78
403.93	16315.87
404.13	15257.95
404.32	15234.55
404.51	15543.50
404.70	16980.59
404.89	16816.75
405.09	16664.61
405.28	16222.25
405.47	16219.91
405.66	16091.18
405.85	15747.12
406.05	15391.36
406.24	15480.30
406.43	15971.82
406.62	16423.54
406.81	16893.99
407.00	16168.42
407.20	16020.97
407.39	16009.26
407.58	16673.98
407.77	17226.34
407.96	17916.80
408.15	18085.32
408.34	18101.70
408.54	19054.30
408.73	19213.46
408.92	18930.25
409.11	18394.27
409.30	17245.07
409.49	16334.60
409.68	15403.07
409.87	14670.48
410.07	15620.74
410.26	16727.81
410.45	17771.69
410.64	18530.02
410.83	19044.94
411.02	19452.19
411.21	20247.97
411.40	19901.58
411.59	20034.99
411.78	19967.11
411.98	19941.36
412.17	19873.49
412.36	19442.83
412.55	19578.58
412.74	19110.47
412.93	18679.82
413.12	19070.68
413.31	20699.70
413.50	20891.62
413.69	21495.48
413.88	20657.57
414.07	19679.22
414.26	20517.14
414.45	20699.70
414.64	20924.39
414.83	20704.38
415.02	20556.93
415.22	21104.61
415.41	21069.50
415.60	21521.23
415.79	22574.47
415.98	22911.50
416.17	23232.16
416.36	22466.80
416.55	22038.48
416.74	21483.78
416.93	20863.54
417.12	20519.48
417.31	21149.08
417.50	21310.58
417.69	22078.27
417.88	21919.12
418.07	21771.66
418.26	21745.92
418.45	21432.29
418.64	22670.43
418.83	23108.11
419.02	22738.30
419.21	22785.12
419.39	21696.77
419.58	20655.23
419.77	20655.23
419.96	21865.28
420.15	22778.09
420.34	23501.32
420.53	24168.37
420.72	24762.87
420.91	24706.70
421.10	24180.07
421.29	23910.91
421.48	23255.56
421.67	24105.18
421.86	23793.89
422.05	22490.21
422.24	20053.71
422.43	19569.22
422.61	21565.70
422.80	23477.91
422.99	23470.89
423.18	22600.21
423.37	22015.08
423.56	22085.30
423.75	22806.18
423.94	23007.47
424.13	21872.31
424.32	21994.01
424.50	22106.36
424.69	21460.37
424.88	21799.75
425.07	21867.63
425.26	21785.71
425.45	21528.25
425.64	21029.71
425.83	21001.63
426.01	22555.74
426.20	22747.67
426.39	22813.20
426.58	20805.02
426.77	19770.51
426.96	18625.98
427.15	19487.30
427.33	21282.49
427.52	21745.92
427.71	22075.93
427.90	22118.06
428.09	21631.23
428.28	21207.59
428.46	20594.37
428.65	20147.33
428.84	20655.23
429.03	20917.37
429.22	19763.48
429.40	19161.97
429.59	16844.84
429.78	15110.50
429.97	15033.26
430.16	15218.16
430.34	15206.46
430.53	15611.37
430.72	15805.64
430.91	17528.27
431.10	20229.25
431.28	23768.14
431.47	25912.07
431.66	26216.34
431.85	23873.46
432.03	22113.38
432.22	20819.07
432.41	22089.98
432.60	24219.86
432.79	24945.43
432.97	25750.57
433.16	25406.52
433.35	23407.70
433.54	20842.47
433.72	19552.84
433.91	20226.91
434.10	22122.74
434.28	23978.79
434.47	25127.99
434.66	24964.15
434.85	23934.32
435.03	23927.30
435.22	25062.46
435.41	26331.03
435.59	26199.96
435.78	26955.95
435.97	26745.30
436.16	27644.07
436.34	27140.85
436.53	26125.06
436.72	26316.98
436.90	25399.49
437.09	24720.74
437.28	24528.81
437.46	25144.38
437.65	25680.36
437.84	23749.42
438.02	21996.35
438.21	21617.19
438.40	22955.97
438.58	24650.52
438.77	25364.39
438.96	25745.89
439.14	26822.54
439.33	27019.14
439.52	27515.34
439.70	26946.59
439.89	26721.90
440.08	25816.11
440.26	25748.23
440.45	26373.16
440.63	28198.77
440.82	29832.47
441.01	29261.38
441.19	28898.59
441.38	29378.40
441.57	30539.31
441.75	30710.17
441.94	31199.34
442.12	30796.77
442.31	31349.14
442.50	31564.46
442.68	31241.47
442.87	30630.59
443.05	30115.67
443.24	30972.31
443.43	31332.75
443.61	31835.97
443.80	32173.00
443.98	30639.95
444.17	30560.37
444.35	32016.19
444.54	32531.11
444.73	32348.54
444.91	31103.38
445.10	29825.45
445.28	28624.75
445.47	27995.15
445.65	28512.41
445.84	28940.72
446.02	30148.44
446.21	30525.27
446.39	30920.82
446.58	30965.29
446.77	31489.57
446.95	31714.26
447.14	32423.44
447.32	32868.14
447.51	32863.46
447.69	31454.46
447.88	30745.28
448.06	31138.49
448.25	31740.00
448.43	32212.79
448.62	31459.14
448.80	31473.18
448.99	31197.00
449.17	32032.57
449.36	32114.49
449.54	33221.56
449.73	33479.02
449.91	34029.05
450.10	34836.53
450.28	35424.01
450.46	34866.96
450.65	35033.14
450.83	34857.60
451.02	34036.07
451.20	34125.01
451.39	33790.31
451.57	33383.06
451.76	33694.35
451.94	33317.53
452.13	32662.18
452.31	31524.68
452.49	29766.93
452.68	30094.61
452.86	30588.46
453.05	30906.77
453.23	31896.82
453.42	32039.59
453.60	33001.55
453.78	33244.97
453.97	32872.82
454.15	33064.75
454.34	31974.06
454.52	32678.56
454.70	31857.03
454.89	32023.21
455.07	32662.18
455.26	33008.58
455.44	33797.34
455.62	34803.77
455.81	34438.64
455.99	34567.37
456.17	34249.06
456.36	33839.47
456.54	34796.74
456.73	35133.78
456.91	35611.25
457.09	35962.33
457.28	36643.43
457.46	34962.92
457.64	34873.98
457.83	33795.00
458.01	33102.20
458.19	33654.56
458.38	33729.46
458.56	35290.60
458.74	35054.20
458.93	34782.70
459.11	34274.80
459.29	34244.38
459.48	34752.27
459.66	34244.38
459.84	34485.45
460.03	35089.31
460.21	35129.10
460.39	35826.58
460.57	35931.90
460.76	36481.93
460.94	35969.35
461.12	35756.36
461.31	35917.86
461.49	35718.92
461.67	36055.95
461.85	36891.52
462.04	36598.96
462.22	36872.80
462.40	36687.90
462.59	36622.36
462.77	37060.04
462.95	37081.11
463.13	36215.11
463.32	35959.99
463.50	35606.57
463.68	35388.90
463.86	35817.22
464.05	34899.73
464.23	34689.08
464.41	34377.79
464.59	33930.75
464.78	35529.33
464.96	35484.86
465.14	34983.99
465.32	36282.98
465.50	36730.03
465.69	36865.78
465.87	35817.22
466.05	35604.23
466.23	34029.05
466.41	33046.02
466.60	34288.85
466.78	34127.35
466.96	34443.32
467.14	35622.95
467.32	35704.87
467.51	35541.03
467.69	33912.02
467.87	34333.32
468.05	35421.67
468.23	35470.82
468.41	35440.39
468.60	35278.89
468.78	35681.47
468.96	34906.75
469.14	36137.87
469.32	36545.12
469.50	35005.05
469.69	34466.73
469.87	34412.90
470.05	34120.33
470.23	33926.07
470.41	33977.56
470.59	34881.00
470.77	35196.98
470.95	35658.06
471.14	36055.95
471.32	35629.98
471.50	37745.82
471.68	38251.38
471.86	38656.29
472.04	38635.22
472.22	38288.82
472.40	37219.20
472.58	36760.45
472.77	35484.86
472.95	36730.03
473.13	37951.79
473.31	36751.09
473.49	36741.73
473.67	37486.02
473.85	37780.93
474.03	38763.95
474.21	38733.53
474.39	39416.96
474.57	39484.84
474.75	40016.14
474.93	39276.53
475.12	38307.55
475.30	38450.32
475.48	38553.30
475.66	38572.03
475.84	38485.43
476.02	38401.17
476.20	37710.71
476.38	38522.88
476.56	39798.47
476.74	40079.33
476.92	40430.41
477.10	40795.54
477.28	42316.89
477.46	41947.08
477.64	42192.84
477.82	42206.88
478.00	42450.30
478.18	41783.24
478.36	41425.14
478.54	41518.76
478.72	42363.70
478.90	43138.41
479.08	44325.07
479.26	45010.84
479.44	44444.43
479.62	43866.32
479.80	44128.46
479.98	44870.41
480.16	44524.01
480.34	44161.23
480.52	44683.17
480.70	45242.56
480.88	44975.73
481.06	45563.21
481.24	46361.33
481.41	47021.36
481.59	47344.36
481.77	47098.60
481.95	46824.76
482.13	46307.50
482.31	46487.72
482.49	47550.32
482.67	47217.97
482.85	47459.04
483.03	47758.63
483.21	48392.92
483.39	48123.75
483.57	47220.31
483.74	47217.97
483.92	47192.22
484.10	47803.10
484.28	48446.75
484.46	48919.54
484.64	49556.16
484.82	48425.68
485.00	47997.37
485.18	47168.82
485.35	46054.72
485.53	43016.71
485.71	38892.68
485.89	38534.58
486.07	40540.42
486.25	43908.45
486.43	46071.10
486.61	46777.95
486.78	46953.49
486.96	46576.66
487.14	48722.93
487.32	49120.82
487.50	50419.82
487.68	51473.06
487.85	51798.40
488.03	51578.39
488.21	51643.92
488.39	50717.07
488.57	49755.11
488.75	49656.81
488.92	50639.83
489.10	52746.31
489.28	54124.89
489.46	54714.70
489.64	54546.18
489.81	54686.62
489.99	54218.51
490.17	54396.39
490.35	54695.98
490.53	54206.81
490.70	53902.54
490.88	53675.51
491.06	54820.03
491.24	54607.04
491.41	53841.68
491.59	52013.73
491.77	51473.06
491.95	52479.49
492.13	53586.57
492.30	54487.67
492.48	55604.11
492.66	55894.33
492.84	56069.87
493.01	55590.06
493.19	55468.36
493.37	55098.55
493.54	54794.28
493.72	55267.07
493.90	56301.59
494.08	56767.35
494.25	57263.55
494.43	57401.64
494.61	57797.19
494.79	57745.70
494.96	57373.55
495.14	57169.93
495.32	56198.60
495.49	55554.96
495.67	56451.38
495.85	57752.72
496.02	58248.91
496.20	58110.82
496.38	57621.65
496.55	57439.09
496.73	58031.24
496.91	58078.05
497.09	58576.59
497.26	58754.47
497.44	58134.23
497.62	57762.08
497.79	57214.40
497.97	55983.27
498.14	56275.84
498.32	57233.12
498.50	57726.97
498.67	58452.54
498.85	58307.43
499.03	58337.85
499.20	58450.20
499.38	58712.34
499.56	58607.01
499.73	58052.31
499.91	57623.99
500.08	57392.28
500.26	56624.58
500.44	57010.77
500.61	57738.68
500.79	57584.20
500.97	56966.30
501.14	56914.81
501.32	56697.14
501.49	56786.08
501.67	57066.94
501.84	57621.65
502.02	57918.90
502.20	58026.56
502.37	58129.54
502.55	58213.80
502.72	58897.24
502.90	59253.00
503.07	58904.26
503.25	58592.97
503.43	57717.61
503.60	56999.07
503.78	56467.76
503.95	56779.06
504.13	58155.29
504.30	59133.63
504.48	58838.73
504.65	58487.65
504.83	58480.63
505.01	59040.01
505.18	59367.69
505.36	60074.53
505.53	60076.87
505.71	60149.43
505.88	60392.84
506.06	59615.79
506.23	59433.22
506.41	58941.71
506.58	59295.13
506.76	59508.12
506.93	59093.85
507.11	59072.78
507.28	59047.04
507.46	58700.64
507.63	58035.92
507.81	57797.19
507.98	58122.52
508.16	58714.68
508.33	59215.55
508.50	59742.17
508.68	59838.14
508.85	60336.67
509.03	60320.29
509.20	60172.83
509.38	59576.00
509.55	58805.96
509.73	58684.25
509.90	59522.16
510.08	59552.59
510.25	59613.44
510.42	59313.86
510.60	58969.80
510.77	59536.21
510.95	59950.48
511.12	60107.30
511.30	60320.29
511.47	60544.98
511.64	60640.94
511.82	60406.89
511.99	59484.72
512.17	59288.11
512.34	58644.46
512.51	58953.41
512.69	58958.09
512.86	59285.77
513.04	59564.29
513.21	59599.40
513.38	59143.00
513.56	58740.42
513.73	58227.85
513.90	58522.76
514.08	58597.65
514.25	58805.96
514.43	58967.46
514.60	59203.85
514.77	59281.09
514.95	59421.52
515.12	59182.79
515.29	59442.59
515.47	59943.46
515.64	60126.02
515.81	59681.32
515.99	59178.10
516.16	57762.08
516.33	55641.56
516.51	54293.41
516.68	53361.87
516.85	52640.99
517.03	53322.08
517.20	56023.06
517.37	58082.73
517.54	59203.85
517.72	58850.43
517.89	56704.16
518.06	54049.99
518.24	54204.47
518.41	56486.49
518.58	57984.43
518.75	58277.00
518.93	58305.09
519.10	58035.92
519.27	58590.63
519.45	58791.92
519.62	59363.01
519.79	59585.36
519.96	59470.67
520.14	59194.49
520.31	58382.32
520.48	58183.38
520.65	58801.28
520.83	59550.25
521.00	59924.74
521.17	59700.04
521.34	58995.54
521.52	59395.77
521.69	60009.00
521.86	60500.51
522.03	60067.51
522.20	58817.66
522.38	58033.58
522.55	58014.86
522.72	58618.72
522.89	58838.73
523.07	58908.94
523.24	59105.55
523.41	60133.04
523.58	60275.82
523.75	60704.13
523.92	60669.03
524.10	60409.23
524.27	60406.89
524.44	60444.33
524.61	60001.97
524.78	59810.05
524.96	60079.21
525.13	59746.86
525.30	60093.25
525.47	60493.49
525.64	60278.16
525.81	59931.76
525.98	58459.56
526.16	57190.99
526.33	56432.66
526.50	56229.03
526.67	55870.93
526.84	56055.83
527.01	57219.08
527.18	57949.32
527.36	58932.35
527.53	59779.62
527.70	59852.18
527.87	59264.70
528.04	59011.93
528.21	59348.96
528.38	60104.96
528.55	60657.32
528.72	60961.59
528.89	61116.07
529.07	60687.75
529.24	60280.50
529.41	59454.29
529.58	58864.47
529.75	59014.27
529.92	59318.54
530.09	60055.81
530.26	60175.17
530.43	60535.62
530.60	60699.45
530.77	60814.14
530.94	60999.04
531.11	60636.26
531.28	60170.49
531.46	59873.24
531.63	60069.85
531.80	60090.91
531.97	59421.52
532.14	58780.21
532.31	57862.72
532.48	57305.68
532.65	57375.89
532.82	58190.40
532.99	58922.99
533.16	59468.33
533.33	60058.15
533.50	59824.09
533.67	59264.70
533.84	58705.32
534.01	59002.56
534.18	59112.57
534.35	59487.06
534.52	59224.92
534.69	59430.88
534.86	59863.88
535.03	60009.00
535.20	60470.08
535.37	60823.50
535.54	60783.71
535.71	60528.59
535.88	60296.88
536.05	59629.83
536.22	59150.02
536.38	59105.55
536.55	58349.56
536.72	57865.06
536.89	58017.20
537.06	58635.10
537.23	59559.61
537.40	59650.89
537.57	59819.41
537.74	59538.55
537.91	59412.16
538.08	59316.20
538.25	59311.52
538.42	59707.07
538.59	59299.81
538.75	59063.42
538.92	58798.94
539.09	58461.90
539.26	58305.09
539.43	57989.11
539.60	58162.31
539.77	58333.17
539.94	58333.17
540.11	57490.58
540.28	57064.60
540.44	57284.61
540.61	57361.85
540.78	57478.88
540.95	58059.33
541.12	58188.06
541.29	58543.82
541.46	58880.86
541.62	59011.93
541.79	58808.30
541.96	58024.22
542.13	58012.52
542.30	58480.63
542.47	58705.32
542.63	58195.08
542.80	58300.40
542.97	58454.88
543.14	58354.24
543.31	57998.48
543.48	58841.07
543.64	59519.82
543.81	59650.89
543.98	59508.12
544.15	58766.17
544.32	58213.80
544.48	58415.09
544.65	58766.17
544.82	59049.38
544.99	58798.94
545.16	58471.26
545.32	58185.72
545.49	58913.62
545.66	59274.07
545.83	59028.31
546.00	58489.99
546.16	58286.36
546.33	58478.28
546.50	58279.34
546.67	58862.13
546.83	58389.34
547.00	58518.07
547.17	57834.64
547.34	57083.33
547.50	57139.50
547.67	57469.51
547.84	57729.31
548.00	58174.02
548.17	58609.35
548.34	58309.77
548.51	58340.19
548.67	58363.60
548.84	58398.71
549.01	58176.36
549.18	58274.66
549.34	58319.13
549.51	58267.64
549.68	58066.35
549.84	57954.00
550.01	57764.42
550.18	57741.02
550.34	57935.28
550.51	57858.04
550.68	57858.04
550.84	57432.07
551.01	57462.49
551.18	57338.44
551.34	57780.81
551.51	58143.59
551.68	58127.20
551.84	58424.45
552.01	57972.73
552.18	58248.91
552.34	57118.43
552.51	56626.92
552.68	56912.47
552.84	57186.31
553.01	57485.90
553.18	57406.32
553.34	57757.40
553.51	57668.46
553.67	57799.53
553.84	58138.91
554.01	58064.01
554.17	57724.63
554.34	57869.75
554.51	57921.24
554.67	58216.14
554.84	58038.26
555.00	57574.84
555.17	57467.17
555.33	57605.26
555.50	57506.96
555.67	57521.01
555.83	57308.02
556.00	57010.77
556.16	56996.73
556.33	56694.80
556.50	56399.89
556.66	56575.43
556.83	56257.12
556.99	56392.87
557.16	56580.11
557.32	56800.12
557.49	56980.34
557.65	57083.33
557.82	56729.90
557.98	56638.62
558.15	56324.99
558.32	55449.63
558.48	54480.65
558.65	54691.30
558.81	55168.77
558.98	55386.44
559.14	55810.07
559.31	55882.63
559.47	55990.30
559.64	55220.26
559.80	55271.75
559.97	55119.62
560.13	55611.13
560.30	56591.81
560.46	57202.69
560.63	57123.11
560.79	56961.62
560.96	56561.39
561.12	55526.87
561.29	54866.84
561.45	55002.59
561.61	55538.57
561.78	55980.93
561.94	55753.90
562.11	55564.32
562.27	55463.67
562.44	55749.22
562.60	56264.14
562.77	56406.91
562.93	56327.33
563.10	56261.80
563.26	55695.39
563.42	55660.28
563.59	55285.79
563.75	55267.07
563.92	55377.08
564.08	55337.29
564.24	55332.60
564.41	55648.58
564.57	55466.02
564.74	55444.95
564.90	55363.03
565.07	55070.46
565.23	54518.10
565.39	54262.98
565.56	53932.96
565.72	53954.03
565.88	54026.59
566.05	54356.60
566.21	54529.80
566.38	54431.50
566.54	54768.54
566.70	54897.27
566.87	55290.48
567.03	55121.96
567.19	55456.65
567.36	55121.96
567.52	55070.46
567.68	54691.30
567.85	53895.52
568.01	54045.31
568.17	53499.97
568.34	53497.62
568.50	53354.85
568.66	53591.25
568.83	53867.43
568.99	53750.40
569.15	53989.14
569.32	53956.37
569.48	53799.55
569.64	53759.76
569.81	53237.83
569.97	53284.64
570.13	53158.25
570.30	52680.78
570.46	52275.87
570.62	51707.12
570.78	51779.67
570.95	52093.30
571.11	52741.63
571.27	52591.84
571.43	53076.33
571.60	53202.72
571.76	53499.97
571.92	53925.94
572.09	53954.03
572.25	53925.94
572.41	53832.32
572.57	53591.25
572.74	53918.92
572.90	53645.08
573.06	53324.43
573.22	53272.93
573.38	53247.19
573.55	53385.28
573.71	53565.50
573.87	53394.64
574.03	53212.08
574.20	53361.87
574.36	52940.58
574.52	52844.62
574.68	52530.98
574.84	52339.06
575.01	51915.42
575.17	51435.61
575.33	51910.74
575.49	52076.92
575.65	52273.52
575.82	51976.28
575.98	51718.82
576.14	51849.89
576.30	52460.77
576.46	52666.73
576.62	52420.98
576.79	52486.51
576.95	51952.87
577.11	51875.63
577.27	51882.66
577.43	52105.01
577.59	51966.91
577.75	51339.65
577.92	50557.91
578.08	50251.30
578.24	50213.85
578.40	50553.23
578.56	50993.25
578.72	51138.36
578.88	51414.55
579.04	51433.27
579.21	51543.28
579.37	51503.49
579.53	51709.46
579.69	51278.80
579.85	51756.27
580.01	51512.85
580.17	50871.54
580.33	51166.45
580.49	51203.90
580.65	51398.16
580.82	51772.65
580.98	51573.70
581.14	51236.67
581.30	51512.85
581.46	51332.63
581.62	51564.34
581.78	51536.26
581.94	51723.50
582.10	51709.46
582.26	51983.30
582.42	51398.16
582.58	51650.94
582.74	51646.26
582.90	51524.55
583.06	51739.88
583.22	51363.06
583.38	51498.81
583.54	51309.22
583.70	51147.73
583.86	51320.93
584.02	50958.14
584.18	51381.78
584.34	50955.80
584.50	50801.33
584.66	50894.95
584.82	50328.54
584.98	50424.50
585.14	50298.11
