SpectraSuite Data File
++++++++++++++++++++++++++++++++++++
Date: Mon Oct 07 14:53:45 GMT-05:00 2013
User: price-jones
Dark Spectrum Present: No
Reference Spectrum Present: No
Number of Sampled Component Spectra: 1
Spectrometers: USB2+H05261
Integration Time (usec): 100000 (USB2+H05261)
Spectra Averaged: 1 (USB2+H05261)
Boxcar Smoothing: 0 (USB2+H05261)
Correct for Electrical Dark: No (USB2+H05261)
Strobe/Lamp Enabled: No (USB2+H05261)
Correct for Detector Non-linearity: No (USB2+H05261)
Correct for Stray Light: No (USB2+H05261)
Number of Pixels in Processed Spectrum: 2048
>>>>>Begin Processed Spectral Data<<<<<
365.73	0.00
365.92	0.00
366.12	0.00
366.32	0.00
366.52	0.00
366.72	0.00
366.91	0.00
367.11	0.00
367.31	0.00
367.51	0.00
367.70	0.00
367.90	0.00
368.10	0.00
368.30	0.00
368.49	0.00
368.69	0.00
368.89	0.00
369.09	0.00
369.28	0.00
369.48	0.00
369.68	0.00
369.87	0.00
370.07	0.00
370.27	0.00
370.47	601.52
370.66	3019.29
370.86	3508.46
371.06	3962.53
371.25	3997.64
371.45	3705.07
371.65	3288.45
371.84	2932.69
372.04	3171.43
372.24	3522.51
372.44	3740.18
372.63	3660.60
372.83	3524.85
373.03	3038.02
373.22	2717.36
373.42	2906.95
373.62	3325.90
373.81	3604.42
374.01	3815.07
374.21	3337.60
374.40	3009.93
374.60	3176.11
374.79	3510.80
374.99	4109.98
375.19	4489.15
375.38	4538.30
375.58	4159.13
375.78	4189.56
375.97	4224.67
376.17	4496.17
376.37	4407.23
376.56	4418.93
376.76	4851.93
376.95	4912.78
377.15	5390.25
377.35	5556.43
377.54	6022.20
377.74	5968.37
377.93	6115.82
378.13	5816.23
378.33	5661.76
378.52	5247.48
378.72	4889.38
378.91	4957.25
379.11	4840.23
379.31	4463.40
379.50	4514.89
379.70	4725.54
379.89	5460.47
380.09	5722.61
380.28	5996.45
380.48	5804.53
380.68	5760.06
380.87	5767.08
381.07	5291.95
381.26	4964.28
381.46	4727.88
381.65	4379.14
381.85	4257.43
382.04	4084.23
382.24	3765.92
382.43	3552.93
382.63	3538.89
382.83	3618.47
383.02	3651.24
383.22	3583.36
383.41	3627.83
383.61	3838.48
383.80	4416.59
384.00	4957.25
384.19	5607.92
384.39	5937.94
384.58	5776.44
384.78	5753.04
384.97	5781.12
385.17	5423.02
385.36	5310.68
385.56	4823.84
385.75	4954.91
385.95	5554.09
386.14	6176.67
386.34	6150.93
386.53	5905.17
386.72	5444.09
386.92	5448.77
387.11	5799.85
387.31	5916.87
387.50	5916.87
387.70	5856.02
387.89	5841.98
388.09	5907.51
388.28	5844.32
388.48	5841.98
388.67	6359.24
388.86	6789.89
389.06	7468.65
389.25	7899.31
389.45	7985.91
389.64	7744.83
389.84	7702.70
390.03	7779.94
390.22	7850.16
390.42	8002.29
390.61	8290.18
390.81	8929.14
391.00	9144.47
391.19	9071.92
391.39	8882.33
391.58	8374.44
391.78	7880.58
391.97	7489.71
392.16	7258.00
392.36	6569.88
392.55	5221.74
392.75	4159.13
392.94	3349.31
393.13	3421.86
393.33	3901.67
393.52	5097.69
393.71	6076.03
393.91	7040.33
394.10	7520.14
394.29	8264.43
394.49	8917.44
394.68	9331.72
394.88	9689.82
395.07	10141.54
395.26	9919.19
395.46	9692.16
395.65	9055.53
395.84	8095.91
396.04	6738.40
396.23	5235.78
396.42	4540.64
396.62	4248.07
396.81	5118.75
397.00	6509.03
397.19	8241.03
397.39	9722.59
397.58	10450.49
397.77	11438.20
397.97	11948.43
398.16	12159.08
398.35	12381.43
398.55	12896.35
398.74	13486.17
398.93	13881.72
399.12	13699.16
399.32	13025.08
399.51	13420.63
399.70	13916.83
399.90	14214.07
400.09	14087.68
400.28	13958.96
400.47	14092.37
400.67	14757.08
400.86	15063.69
401.05	15051.99
401.24	15314.13
401.44	15393.70
401.63	15571.58
401.82	15286.04
402.01	15627.76
402.21	15508.39
402.40	15641.80
402.59	15494.35
402.78	14686.86
402.97	14129.81
403.17	14913.89
403.36	15529.45
403.55	16514.82
403.74	16582.70
403.93	15981.18
404.13	14946.66
404.32	14232.80
404.51	14869.42
404.70	16369.71
404.89	15964.79
405.09	15730.74
405.28	15555.20
405.47	15304.76
405.66	15211.14
405.85	14918.57
406.05	14572.18
406.24	14712.61
406.43	15051.99
406.62	16018.63
406.81	16231.62
407.00	15351.57
407.20	15145.61
407.39	15239.23
407.58	15899.26
407.77	16388.43
407.96	16959.52
408.15	17123.36
408.34	17357.41
408.54	18260.86
408.73	18595.56
408.92	17914.46
409.11	17530.61
409.30	16582.70
409.49	15587.97
409.68	14628.35
409.87	14291.31
410.07	15115.18
410.26	16308.85
410.45	17539.97
410.64	17467.42
410.83	18242.14
411.02	18567.47
411.21	19470.92
411.40	19227.50
411.59	19176.01
411.78	18883.44
411.98	18836.63
412.17	19316.44
412.36	18515.98
412.55	18920.89
412.74	18506.62
412.93	17991.70
413.12	18195.32
413.31	20011.58
413.50	20013.92
413.69	20556.93
413.88	19653.48
414.07	19206.44
414.26	19646.46
414.45	20308.83
414.64	20175.42
414.83	20121.59
415.02	19917.96
415.22	19585.60
415.41	20467.98
415.60	20954.82
415.79	21605.49
415.98	22277.22
416.17	22059.55
416.36	21553.99
416.55	21610.17
416.74	20858.85
416.93	19924.98
417.12	19665.18
417.31	20336.91
417.50	20826.09
417.69	21465.05
417.88	21362.07
418.07	20884.60
418.26	20769.91
418.45	21029.71
418.64	22045.51
418.83	22707.88
419.02	21844.22
419.21	21809.11
419.39	21029.71
419.58	19814.98
419.77	20166.06
419.96	20634.16
420.15	22101.68
420.34	22789.80
420.53	23606.64
420.72	23978.79
420.91	23601.96
421.10	23508.34
421.29	23367.91
421.48	22209.34
421.67	23639.41
421.86	22927.89
422.05	21266.11
422.24	19267.29
422.43	18965.36
422.61	20688.00
422.80	22515.95
422.99	22600.21
423.18	22001.04
423.37	21170.15
423.56	21448.67
423.75	21813.79
423.94	22309.99
424.13	20879.92
424.32	21516.54
424.50	21371.43
424.69	21200.57
424.88	21223.98
425.07	21317.60
425.26	21083.55
425.45	20816.72
425.64	20624.80
425.83	20238.61
426.01	21727.19
426.20	22258.49
426.39	22141.47
426.58	20666.93
426.77	19208.78
426.96	18209.37
427.15	18948.98
427.33	20381.38
427.52	21563.36
427.71	21303.56
427.90	21654.64
428.09	21018.01
428.28	20769.91
428.46	20114.56
428.65	19686.25
428.84	20154.35
429.03	20634.16
429.22	19426.45
429.40	18939.62
429.59	16648.23
429.78	14745.38
429.97	14843.68
430.16	14949.00
430.34	15077.73
430.53	14909.21
430.72	15365.62
430.91	17053.14
431.10	20037.33
431.28	23456.85
431.47	25427.58
431.66	25741.21
431.85	23452.17
432.03	21469.73
432.22	20692.68
432.41	21633.57
432.60	23737.71
432.79	24512.43
432.97	25422.90
433.16	24807.34
433.35	22672.77
433.54	20168.40
433.72	19232.18
433.91	19510.71
434.10	21823.16
434.28	23573.88
434.47	24634.14
434.66	24521.79
434.85	23599.62
435.03	23693.24
435.22	24149.65
435.41	25282.47
435.59	26073.57
435.78	26052.50
435.97	26742.96
436.16	27040.21
436.34	26602.53
436.53	25872.28
436.72	26101.65
436.90	24753.51
437.09	24552.22
437.28	24006.87
437.46	25137.35
437.65	24910.32
437.84	23435.78
438.02	21238.02
438.21	21247.38
438.40	22387.22
438.58	24032.62
438.77	24992.24
438.96	25546.95
439.14	26473.80
439.33	26670.40
439.52	27157.24
439.70	26567.42
439.89	26033.78
440.08	25387.79
440.26	25322.26
440.45	26029.10
440.63	27625.34
440.82	29443.94
441.01	29020.30
441.19	28671.56
441.38	29027.32
441.57	30019.71
441.75	30504.20
441.94	30658.68
442.12	30110.99
442.31	30930.18
442.50	31077.63
442.68	30738.26
442.87	30380.15
443.05	29343.30
443.24	30223.34
443.43	30705.49
443.61	31510.63
443.80	31821.92
443.98	30242.06
444.17	30157.80
444.35	31529.36
444.54	32484.30
444.73	32112.15
444.91	30459.73
445.10	29287.12
445.28	28507.72
445.47	27894.50
445.65	27821.95
445.84	28762.84
446.02	29579.69
446.21	30078.22
446.39	30588.46
446.58	30560.37
446.77	31283.60
446.95	31246.15
447.14	32308.76
447.32	33055.39
447.51	31957.67
447.69	31105.72
447.88	30607.19
448.06	30756.98
448.25	31814.90
448.43	32212.79
448.62	31129.12
448.80	31094.02
448.99	31503.61
449.17	32023.21
449.36	31398.29
449.54	32730.05
449.73	32783.88
449.91	33736.48
450.10	34754.61
450.28	35016.75
450.46	34925.47
450.65	35103.35
450.83	34656.31
451.02	33411.15
451.20	33692.01
451.39	33572.64
451.57	33149.01
451.76	33701.37
451.94	33301.14
452.13	32655.15
452.31	31892.14
452.49	29993.97
452.68	30146.10
452.86	30298.23
453.05	30401.22
453.23	31470.84
453.42	32348.54
453.60	32898.57
453.78	33031.98
453.97	32959.42
454.15	33029.64
454.34	32006.83
454.52	32411.74
454.70	31693.19
454.89	32156.62
455.07	32084.06
455.26	32617.71
455.44	33986.92
455.62	34609.50
455.81	35054.20
455.99	33935.43
456.17	33743.50
456.36	34019.69
456.54	35349.11
456.73	35180.59
456.91	35459.12
457.09	35864.03
457.28	36091.06
457.46	34951.22
457.64	35075.27
457.83	33516.47
458.01	33001.55
458.19	33804.36
458.38	33975.22
458.56	35353.79
458.74	34829.51
458.93	34366.09
459.11	34115.65
459.29	34574.39
459.48	34504.18
459.66	34075.86
459.84	34532.26
460.03	34976.97
460.21	34852.92
460.39	35737.64
460.57	35943.61
460.76	35990.42
460.94	36266.60
461.12	35559.76
461.31	36072.34
461.49	35620.61
461.67	35667.42
461.85	37043.66
462.04	36795.56
462.22	36879.82
462.40	37027.28
462.59	36505.34
462.77	36552.15
462.95	36842.37
463.13	36484.27
463.32	36128.51
463.50	35971.69
463.68	35821.90
463.86	36149.57
464.05	35777.43
464.23	34665.67
464.41	34600.14
464.59	33783.29
464.78	35931.90
464.96	35704.87
465.14	35119.74
465.32	36039.57
465.50	36776.84
465.69	37572.62
465.87	36833.01
466.05	35604.23
466.23	34256.08
466.41	33221.56
466.60	34265.44
466.78	34134.37
466.96	34618.86
467.14	35508.27
467.32	35629.98
467.51	35688.49
467.69	34361.40
467.87	34988.67
468.05	35672.10
468.23	35637.00
468.41	35674.45
468.60	35618.27
468.78	35503.59
468.96	35629.98
469.14	36615.34
469.32	36849.39
469.50	35070.59
469.69	34953.56
469.87	34824.83
470.05	34492.47
470.23	34911.43
470.41	34813.13
470.59	35274.21
470.77	35587.85
470.95	36282.98
471.14	36156.60
471.32	36566.19
471.50	38433.94
471.68	38485.43
471.86	38951.20
472.04	38642.24
472.22	39229.72
472.40	37106.85
472.58	37038.98
472.77	36381.29
472.95	37148.98
473.13	38202.22
473.31	37160.69
473.49	37401.76
473.67	37944.76
473.85	38284.14
474.03	39372.49
474.21	39421.64
474.39	39842.94
474.57	39641.65
474.75	39896.77
474.93	39716.55
475.12	39054.18
475.30	38572.03
475.48	39213.34
475.66	39400.58
475.84	39021.41
476.02	39070.56
476.20	37947.11
476.38	38941.83
476.56	39814.85
476.74	40519.35
476.92	40893.84
477.10	40884.48
477.28	42625.84
477.46	42445.62
477.64	42717.12
477.82	43077.56
478.00	43351.40
478.18	42614.13
478.36	42164.75
478.54	42443.27
478.72	42801.38
478.90	43592.48
479.08	44914.88
479.26	45382.99
479.44	44844.66
479.62	44898.50
479.80	45263.62
479.98	45123.19
480.16	45780.88
480.34	45116.17
480.52	45464.91
480.70	45595.98
480.88	45614.70
481.06	46312.18
481.24	46724.11
481.41	47805.44
481.59	48278.23
481.77	47838.21
481.95	47459.04
482.13	47262.44
482.31	46761.56
482.49	48076.94
482.67	47903.74
482.85	47985.66
483.03	48947.62
483.21	48648.03
483.39	48992.09
483.57	48095.67
483.74	48140.14
483.92	48360.15
484.10	48215.04
484.28	49205.08
484.46	49483.61
484.64	50143.64
484.82	49375.94
485.00	48566.12
485.18	47999.71
485.35	46497.08
485.53	44257.19
485.71	39903.79
485.89	39082.27
486.07	41186.41
486.25	44741.68
486.43	47150.09
486.61	47433.30
486.78	47693.10
486.96	47735.23
487.14	49675.53
487.32	50162.36
487.50	51194.54
487.68	52074.58
487.85	52449.06
488.03	52271.18
488.21	52222.03
488.39	51274.12
488.57	50742.81
488.75	50307.47
488.92	51395.82
489.10	53553.80
489.28	54852.80
489.46	55407.50
489.64	55086.85
489.81	55367.71
489.99	54990.89
490.17	55065.78
490.35	55243.66
490.53	54911.31
490.70	54747.47
490.88	54316.81
491.06	55487.08
491.24	55594.74
491.41	54454.90
491.59	52767.38
491.77	52191.61
491.95	52971.00
492.13	54490.01
492.30	55238.98
492.48	56264.14
492.66	56608.20
492.84	56788.42
493.01	56275.84
493.19	56081.58
493.37	55800.71
493.54	55374.73
493.72	56123.71
493.90	56741.61
494.08	57670.80
494.25	58176.36
494.43	58007.84
494.61	58501.69
494.79	58497.01
494.96	58178.70
495.14	57743.36
495.32	56924.17
495.49	56252.44
495.67	57223.76
495.85	58387.00
496.02	58728.72
496.20	58796.60
496.38	58438.50
496.55	58342.53
496.73	58590.63
496.91	58798.94
497.09	59339.60
497.26	59384.07
497.44	59192.15
497.62	58457.22
497.79	57762.08
497.97	56568.41
498.14	56835.23
498.32	57670.80
498.50	58672.55
498.67	59114.91
498.85	59110.23
499.03	59334.92
499.20	59360.67
499.38	59480.03
499.56	59253.00
499.73	58974.48
499.91	58440.84
500.08	58234.87
500.26	57394.62
500.44	57813.57
500.61	58480.63
500.79	58438.50
500.97	57839.32
501.14	57757.40
501.32	57794.85
501.49	57626.33
501.67	57846.34
501.84	58375.30
502.02	58468.92
502.20	58880.86
502.37	59107.89
502.55	59098.53
502.72	59545.57
502.90	60163.47
503.07	59660.26
503.25	59269.39
503.43	58728.72
503.60	57886.13
503.78	57207.37
503.95	57631.01
504.13	59065.76
504.30	59786.64
504.48	59772.60
504.65	59171.08
504.83	59370.03
505.01	59938.78
505.18	60376.46
505.36	60940.53
505.53	60697.11
505.71	61123.09
505.88	60982.66
506.06	60266.45
506.23	60383.48
506.41	59840.48
506.58	60123.68
506.76	60109.64
506.93	60151.77
507.11	59906.01
507.28	59922.40
507.46	59449.61
507.63	58965.12
507.81	58686.59
507.98	59121.93
508.16	59505.78
508.33	60142.41
508.50	60360.08
508.68	60779.03
508.85	61282.25
509.03	61052.87
509.20	61240.12
509.38	60477.10
509.55	59749.20
509.73	59475.35
509.90	60339.01
510.08	60753.29
510.25	60420.93
510.42	60252.41
510.60	60250.07
510.77	60434.97
510.95	61001.38
511.12	60973.30
511.30	61207.35
511.47	61495.24
511.64	61560.77
511.82	61256.50
511.99	60589.45
512.17	60275.82
512.34	59634.51
512.51	59908.35
512.69	60151.77
512.86	60306.24
513.04	60523.91
513.21	60544.98
513.38	60250.07
513.56	59496.42
513.73	59084.48
513.90	59515.14
514.08	59391.09
514.25	59887.29
514.43	60060.49
514.60	59966.87
514.77	60353.05
514.95	60329.65
515.12	60308.58
515.29	60427.95
515.47	60825.84
515.64	61017.77
515.81	60598.81
515.99	60135.38
516.16	58798.94
516.33	56877.36
516.51	55510.49
516.68	54803.64
516.85	54337.88
517.03	54670.23
517.20	56921.83
517.37	59309.18
517.54	60397.52
517.72	59812.39
517.89	57532.71
518.06	55222.60
518.24	55545.59
518.41	57425.04
518.58	58887.88
518.75	59103.21
518.93	59505.78
519.10	59178.10
519.27	59671.96
519.45	59760.90
519.62	60575.40
519.79	60842.23
519.96	60498.17
520.14	60275.82
520.31	59540.89
520.48	59358.33
520.65	59824.09
520.83	60519.23
521.00	60985.00
521.17	60617.53
521.34	60353.05
521.52	60451.36
521.69	61125.43
521.86	61331.40
522.03	61200.33
522.20	60151.77
522.38	58941.71
522.55	58988.52
522.72	59678.98
522.89	59863.88
523.07	60104.96
523.24	60444.33
523.41	61183.94
523.58	61396.93
523.75	61722.27
523.92	61661.41
524.10	61450.77
524.27	61549.07
524.44	61427.36
524.61	61099.68
524.78	60989.68
524.96	60945.21
525.13	61069.26
525.30	61293.95
525.47	61619.28
525.64	61546.73
525.81	60889.04
525.98	59543.23
526.16	58295.72
526.33	57654.42
526.50	57378.23
526.67	57200.35
526.84	57499.94
527.01	58422.11
527.18	59456.63
527.36	60191.56
527.53	60776.69
527.70	61109.05
527.87	60528.59
528.04	60214.96
528.21	60561.36
528.38	61291.61
528.55	61785.46
528.72	62017.17
528.89	62232.50
529.07	61853.34
529.24	61326.72
529.41	60741.58
529.58	60109.64
529.75	60130.70
529.92	60596.47
530.09	61134.79
530.26	61499.92
530.43	61811.21
530.60	61600.56
530.77	61759.72
530.94	61979.73
531.11	61759.72
531.28	61214.37
531.46	61151.18
531.63	61249.48
531.80	60999.04
531.97	60743.92
532.14	60140.07
532.31	59126.61
532.48	58681.91
532.65	58501.69
532.82	59372.37
532.99	60556.68
533.16	60736.90
533.33	61375.87
533.50	61162.88
533.67	60547.32
533.84	60214.96
534.01	60231.35
534.18	60580.09
534.35	60825.84
534.52	60615.19
534.69	60851.59
534.86	60889.04
535.03	61298.63
535.20	61633.33
535.37	62117.82
535.54	62061.64
535.71	61745.67
535.88	61546.73
536.05	60933.51
536.22	60512.21
536.38	60378.80
536.55	59952.82
536.72	59309.18
536.89	59133.63
537.06	59959.84
537.23	60659.66
537.40	60954.57
537.57	60935.85
537.74	60624.56
537.91	60605.83
538.08	60690.09
538.25	60720.52
538.42	60912.44
538.59	60736.90
538.75	60074.53
538.92	59826.43
539.09	59877.93
539.26	59604.08
539.43	59435.56
539.60	59592.38
539.77	59625.15
539.94	59604.08
540.11	59086.82
540.28	58284.02
540.44	58431.47
540.61	58639.78
540.78	58883.20
540.95	59358.33
541.12	59906.01
541.29	59800.69
541.46	60339.01
541.62	60371.78
541.79	60034.74
541.96	59639.19
542.13	59475.35
542.30	59856.86
542.47	60151.77
542.63	59774.94
542.80	59688.34
542.97	59723.45
543.14	59554.93
543.31	59501.10
543.48	60037.08
543.64	60853.93
543.81	61190.97
543.98	60921.80
544.15	60271.14
544.32	59784.30
544.48	59938.78
544.65	60214.96
544.82	60629.24
544.99	60418.59
545.16	60109.64
545.32	59913.03
545.49	60210.28
545.66	60828.18
545.83	60502.85
546.00	60233.69
546.16	59817.07
546.33	59920.05
546.50	60006.65
546.67	60339.01
546.83	59824.09
547.00	59849.84
547.17	59201.51
547.34	58740.42
547.50	58688.93
547.67	59025.97
547.84	59147.68
548.00	59339.60
548.17	59929.42
548.34	59681.32
548.51	59791.33
548.67	59990.27
548.84	59915.37
549.01	59725.79
549.18	59929.42
549.34	59655.57
549.51	59728.13
549.68	59767.92
549.84	59576.00
550.01	59510.46
550.18	59227.26
550.34	59337.26
550.51	59583.02
550.68	59641.53
550.84	59262.36
551.01	59030.65
551.18	59082.14
551.34	59255.34
551.51	59489.40
551.68	59803.03
551.84	59901.33
552.01	59650.89
552.18	59508.12
552.34	58925.33
552.51	58700.64
552.68	58518.07
552.84	58951.07
553.01	59262.36
553.18	59159.38
553.34	59161.72
553.51	59250.66
553.67	59292.79
553.84	59594.72
554.01	59491.74
554.17	59505.78
554.34	59154.70
554.51	59566.63
554.67	59821.75
554.84	59671.96
555.00	59201.51
555.17	59327.90
555.33	59145.34
555.50	59140.66
555.67	59363.01
555.83	59093.85
556.00	58820.00
556.16	58614.04
556.33	58291.04
556.50	58075.71
556.66	58227.85
556.83	58005.50
556.99	58253.59
557.16	58356.58
557.32	58576.59
557.49	58801.28
557.65	58660.85
557.82	58623.40
557.98	58459.56
558.15	58066.35
558.32	57387.60
558.48	56458.40
558.65	56509.89
558.81	57169.93
558.98	57460.15
559.14	57715.27
559.31	57612.29
559.47	57546.75
559.64	57183.97
559.80	56914.81
559.97	57113.75
560.13	57399.30
560.30	58061.67
560.46	58681.91
560.63	58988.52
560.79	58960.44
560.96	58499.35
561.12	57408.66
561.29	56722.88
561.45	56807.14
561.61	57352.49
561.78	57633.35
561.94	57741.02
562.11	57635.69
562.27	57343.12
562.44	57799.53
562.60	57890.81
562.77	58136.57
562.93	58101.46
563.10	57893.15
563.26	57240.14
563.42	57364.19
563.59	57088.01
563.75	57085.67
563.92	57403.98
564.08	57205.03
564.24	57464.83
564.41	57649.74
564.57	57373.55
564.74	57237.80
564.90	57139.50
565.07	57052.90
565.23	56664.37
565.39	56474.79
565.56	55753.90
565.72	55866.25
565.88	56126.05
566.05	56217.33
566.21	56374.14
566.38	56746.29
566.54	56631.60
566.70	56999.07
566.87	57336.10
567.03	57420.36
567.19	57434.41
567.36	57254.18
567.52	57027.15
567.68	56797.78
567.85	56058.17
568.01	55959.87
568.17	55487.08
568.34	55636.87
568.50	55554.96
568.66	55564.32
568.83	56095.62
568.99	55840.50
569.15	56348.40
569.32	56198.60
569.48	55955.19
569.64	55700.07
569.81	55377.08
569.97	55316.22
570.13	55299.84
570.30	55004.93
570.46	54475.97
570.62	54007.86
570.78	54000.84
570.95	54117.87
571.11	54937.05
571.27	55103.23
571.43	55143.02
571.60	55566.66
571.76	55702.41
571.92	55917.74
572.09	56374.14
572.25	55985.61
572.41	56044.13
572.57	55746.88
572.74	55714.11
572.90	55554.96
573.06	55601.77
573.22	55606.45
573.38	55622.83
573.55	55503.46
573.71	55674.32
573.87	55585.38
574.03	55348.99
574.20	55229.62
574.36	55337.29
574.52	54906.63
574.68	54836.41
574.84	54475.97
575.01	54052.33
575.17	54178.72
575.33	54265.32
575.49	54824.71
575.65	54731.09
575.82	54270.00
575.98	54005.52
576.14	54419.80
576.30	54913.65
576.46	54845.77
576.62	54824.71
576.79	54749.81
576.95	54335.54
577.11	54234.89
577.27	54028.93
577.43	54326.17
577.59	54073.40
577.75	53638.06
577.92	53350.17
578.08	52732.27
578.24	52779.08
578.40	53219.10
578.56	53745.72
578.72	53741.04
578.88	53916.58
579.04	53869.77
579.21	53914.24
579.37	53886.15
579.53	54258.30
579.69	53979.78
579.85	54380.01
580.01	54265.32
580.17	53488.26
580.33	53773.81
580.49	53694.23
580.65	53900.20
580.82	54227.87
580.98	54045.31
581.14	53851.05
581.30	54045.31
581.46	53722.32
581.62	53993.82
581.78	53956.37
581.94	54347.24
582.10	54174.04
582.26	54183.40
582.42	54101.48
582.58	54124.89
582.74	54340.22
582.90	54143.61
583.06	54162.34
583.22	54160.00
583.38	53881.47
583.54	54007.86
583.70	53827.64
583.86	54052.33
584.02	53794.87
584.18	53738.70
584.34	53764.45
584.50	53647.42
584.66	53490.60
584.82	53085.69
584.98	53118.46
585.14	52732.27
