SpectraSuite Data File
++++++++++++++++++++++++++++++++++++
Date: Mon Oct 07 14:53:35 GMT-05:00 2013
User: price-jones
Dark Spectrum Present: No
Reference Spectrum Present: No
Number of Sampled Component Spectra: 1
Spectrometers: USB2+H05261
Integration Time (usec): 100000 (USB2+H05261)
Spectra Averaged: 1 (USB2+H05261)
Boxcar Smoothing: 0 (USB2+H05261)
Correct for Electrical Dark: No (USB2+H05261)
Strobe/Lamp Enabled: No (USB2+H05261)
Correct for Detector Non-linearity: No (USB2+H05261)
Correct for Stray Light: No (USB2+H05261)
Number of Pixels in Processed Spectrum: 2048
>>>>>Begin Processed Spectral Data<<<<<
365.73	0.00
365.92	0.00
366.12	0.00
366.32	0.00
366.52	0.00
366.72	0.00
366.91	0.00
367.11	0.00
367.31	0.00
367.51	0.00
367.70	0.00
367.90	0.00
368.10	0.00
368.30	0.00
368.49	0.00
368.69	0.00
368.89	0.00
369.09	0.00
369.28	0.00
369.48	0.00
369.68	0.00
369.87	0.00
370.07	0.00
370.27	0.00
370.47	617.90
370.66	3281.43
370.86	3904.01
371.06	4170.83
371.25	4545.32
371.45	3964.87
371.65	3646.55
371.84	3358.67
372.04	3564.64
372.24	3859.54
372.44	4124.02
372.63	4072.53
372.83	3733.15
373.03	3389.10
373.22	3038.02
373.42	3297.81
373.62	3850.18
373.81	4051.47
374.01	4056.15
374.21	3609.11
374.40	3318.88
374.60	3527.19
374.79	3740.18
374.99	4603.83
375.19	4849.59
375.38	5008.75
375.58	4744.27
375.78	4486.81
375.97	4624.90
376.17	5078.96
376.37	4861.29
376.56	4975.98
376.76	5383.23
376.95	5699.20
377.15	6033.90
377.35	6171.99
377.54	6504.35
377.74	6698.61
377.93	6775.85
378.13	6588.61
378.33	6342.85
378.52	5748.36
378.72	5612.60
378.91	5493.24
379.11	5184.29
379.31	5008.75
379.50	4997.04
379.70	5476.85
379.89	6026.88
380.09	6312.42
380.28	6525.41
380.48	6539.46
380.68	6457.54
380.87	6321.79
381.07	5802.19
381.26	5479.19
381.46	4905.76
381.65	5069.60
381.85	4842.57
382.04	4484.47
382.24	4210.62
382.43	4025.72
382.63	3913.38
382.83	3920.40
383.02	3899.33
383.22	3894.65
383.41	4028.06
383.61	4250.41
383.80	4685.75
384.00	5359.83
384.19	6277.32
384.39	6380.30
384.58	6448.18
384.78	6464.56
384.97	6279.66
385.17	5975.39
385.36	5767.08
385.56	5570.48
385.75	5600.90
385.95	6153.27
386.14	6780.53
386.34	6717.34
386.53	6258.59
386.72	5989.43
386.92	6122.84
387.11	6509.03
387.31	6750.10
387.50	6623.72
387.70	6352.21
387.89	6239.87
388.09	6457.54
388.28	6375.62
388.48	6516.05
388.67	7054.37
388.86	7463.97
389.06	8313.58
389.25	8739.56
389.45	8877.65
389.64	8564.02
389.84	8629.56
390.03	8461.04
390.22	8423.59
390.42	8821.48
390.61	9516.62
390.81	10003.45
391.00	10076.01
391.19	10040.90
391.39	9568.11
391.58	8980.64
391.78	8730.20
391.97	8437.63
392.16	7812.71
392.36	7082.46
392.55	5771.76
392.75	4414.25
392.94	3597.40
393.13	3716.77
393.33	4266.80
393.52	5540.05
393.71	6736.06
393.91	7665.25
394.10	8170.81
394.29	9116.39
394.49	9582.15
394.68	10415.38
394.88	10647.10
395.07	11061.37
395.26	10988.82
395.46	10434.11
395.65	9944.94
395.84	8957.23
396.04	7375.03
396.23	5959.00
396.42	5144.50
396.62	4809.80
396.81	5713.25
397.00	7136.29
397.19	8779.35
397.39	10441.13
397.58	12006.95
397.77	12910.40
397.97	13205.30
398.16	13247.43
398.35	13570.43
398.55	14054.92
398.74	14757.08
398.93	15063.69
399.12	14633.03
399.32	14066.62
399.51	14544.09
399.70	15939.05
399.90	15517.75
400.09	15417.11
400.28	15374.98
400.47	15419.45
400.67	16528.86
400.86	16854.20
401.05	16788.66
401.24	16795.68
401.44	16901.01
401.63	16952.50
401.82	17174.85
402.01	17324.65
402.21	17135.06
402.40	17696.79
402.59	17167.83
402.78	16233.96
402.97	15805.64
403.17	16212.89
403.36	17172.51
403.55	18075.96
403.74	18328.74
403.93	17638.28
404.13	16123.95
404.32	15410.09
404.51	16449.28
404.70	17949.57
404.89	17848.93
405.09	17598.49
405.28	17020.38
405.47	17186.55
405.66	17144.42
405.85	16706.74
406.05	16013.95
406.24	16390.77
406.43	17041.44
406.62	17563.38
406.81	17633.60
407.00	16889.31
407.20	16636.53
407.39	16746.53
407.58	17914.46
407.77	18237.45
407.96	19075.37
408.15	19023.87
408.34	19192.39
408.54	19913.28
408.73	20009.24
408.92	19688.59
409.11	19201.76
409.30	18417.68
409.49	17249.75
409.68	16170.76
409.87	15396.04
410.07	16650.57
410.26	18003.40
410.45	19061.32
410.64	19578.58
410.83	20126.27
411.02	20470.33
411.21	21652.30
411.40	21048.44
411.59	21310.58
411.78	20779.28
411.98	20805.02
412.17	21333.98
412.36	20800.34
412.55	20659.91
412.74	20339.26
412.93	20046.69
413.12	19913.28
413.31	22188.28
413.50	22118.06
413.69	23026.19
413.88	21898.05
414.07	21076.52
414.26	21287.17
414.45	22532.34
414.64	22101.68
414.83	22146.15
415.02	21902.73
415.22	21937.84
415.41	22380.20
415.60	23246.20
415.79	24030.28
415.98	24863.51
416.17	24702.01
416.36	24247.95
416.55	23545.79
416.74	22995.76
416.93	22066.57
417.12	22412.97
417.31	22675.11
417.50	22895.12
417.69	23576.22
417.88	23536.43
418.07	23166.62
418.26	22780.43
418.45	22890.44
418.64	23917.93
418.83	24992.24
419.02	24720.74
419.21	24547.54
419.39	22948.95
419.58	21954.22
419.77	22054.87
419.96	23005.13
420.15	24219.86
420.34	24879.89
420.53	25766.96
420.72	26443.37
420.91	26244.43
421.10	26136.76
421.29	25745.89
421.48	24624.78
421.67	25919.09
421.86	25560.99
422.05	24056.03
422.24	21350.37
422.43	20896.30
422.61	22831.93
422.80	25104.59
422.99	25329.28
423.18	24346.25
423.37	23821.97
423.56	23672.18
423.75	24175.39
423.94	24599.03
424.13	23414.72
424.32	23639.41
424.50	23618.35
424.69	23396.00
424.88	23697.92
425.07	23321.10
425.26	23269.61
425.45	23047.26
425.64	22890.44
425.83	22319.35
426.01	24016.24
426.20	24261.99
426.39	24610.73
426.58	22665.75
426.77	21102.27
426.96	20273.72
427.15	21216.96
427.33	22937.25
427.52	23613.66
427.71	23623.03
427.90	23433.44
428.09	23421.74
428.28	22710.22
428.46	22108.70
428.65	21621.87
428.84	22319.35
429.03	22721.92
429.22	21656.98
429.40	20079.46
429.59	18506.62
429.78	16444.60
429.97	16540.57
430.16	16730.15
430.34	16617.80
430.53	16800.37
430.72	17149.11
430.91	18546.40
431.10	21874.65
431.28	25902.71
431.47	28388.36
431.66	28519.43
431.85	25912.07
432.03	23976.45
432.22	22724.26
432.41	23634.73
432.60	26249.11
432.79	27154.90
432.97	27747.05
433.16	27229.79
433.35	24664.57
433.54	22328.71
433.72	21118.65
433.91	21518.89
434.10	23971.77
434.28	26136.76
434.47	27505.98
434.66	27068.30
434.85	26302.94
435.03	26752.32
435.22	26892.76
435.41	28533.47
435.59	28357.93
435.78	28666.88
435.97	29406.49
436.16	29881.62
436.34	28898.59
436.53	28774.55
436.72	28634.11
436.90	27360.86
437.09	27330.44
437.28	26670.40
437.46	27585.55
437.65	27707.26
437.84	26216.34
438.02	23793.89
438.21	23302.37
438.40	24961.81
438.58	26923.18
438.77	27278.94
438.96	27690.88
439.14	29060.09
439.33	29600.76
439.52	29841.83
439.70	29830.13
439.89	28877.53
440.08	28084.09
440.26	28336.87
440.45	28994.56
440.63	30740.60
440.82	32093.43
441.01	32177.68
441.19	31906.18
441.38	31747.03
441.57	33198.16
441.75	33750.52
441.94	33989.26
442.12	33659.24
442.31	34445.66
442.50	33998.62
442.68	34047.77
442.87	33556.26
443.05	33137.30
443.24	33591.37
443.43	34279.49
443.61	34897.39
443.80	35861.69
443.98	33333.91
444.17	32924.32
444.35	35267.19
444.54	36037.23
444.73	35159.53
444.91	33879.25
445.10	32524.08
445.28	31173.60
445.47	30637.61
445.65	30719.53
445.84	32020.87
446.02	32687.92
446.21	33301.14
446.39	33493.07
446.58	34052.45
446.77	34223.31
446.95	34230.33
447.14	35854.67
447.32	36224.47
447.51	35166.55
447.69	34249.06
447.88	33624.14
448.06	34068.84
448.25	35288.26
448.43	35482.52
448.62	34679.72
448.80	34761.64
448.99	34810.79
449.17	34937.18
449.36	35079.95
449.54	36133.19
449.73	36877.48
449.91	37170.05
450.10	37956.47
450.28	38733.53
450.46	38192.86
450.65	38246.69
450.83	38192.86
451.02	37345.59
451.20	37436.87
451.39	37120.90
451.57	36884.50
451.76	37186.43
451.94	37015.57
452.13	36184.68
452.31	34714.83
452.49	32868.14
452.68	33385.40
452.86	33495.41
453.05	33666.27
453.23	34590.78
453.42	35400.60
453.60	36156.60
453.78	37270.69
453.97	36549.81
454.15	36414.05
454.34	35941.27
454.52	36158.94
454.70	35154.85
454.89	35480.18
455.07	35945.95
455.26	36149.57
455.44	37518.79
455.62	38029.02
455.81	38548.62
455.99	38089.88
456.17	37479.00
456.36	37741.14
456.54	38749.91
456.73	38799.06
456.91	39849.96
457.09	39519.95
457.28	40240.83
457.46	39215.68
457.64	38410.53
457.83	37287.07
458.01	36325.11
458.19	37610.07
458.38	37809.01
458.56	39100.99
458.74	38698.42
458.93	38071.15
459.11	38146.05
459.29	37563.26
459.48	37996.26
459.66	38103.92
459.84	38387.13
460.03	38756.93
460.21	38410.53
460.39	39777.40
460.57	39695.49
460.76	39646.33
460.94	39835.92
461.12	39667.40
461.31	39641.65
461.49	39990.39
461.67	39770.38
461.85	40875.12
462.04	40451.48
462.22	41324.50
462.40	40594.25
462.59	40446.80
462.77	40783.83
462.95	40292.32
463.13	40261.90
463.32	39826.56
463.50	39470.79
463.68	39594.84
463.86	39377.17
464.05	39445.05
464.23	38199.88
464.41	38003.28
464.59	37949.45
464.78	39690.80
464.96	38831.83
465.14	38838.85
465.32	39606.55
465.50	40479.57
465.69	41228.54
465.87	40261.90
466.05	39161.84
466.23	37605.39
466.41	36353.20
466.60	37937.74
466.78	38007.96
466.96	38251.38
467.14	39096.31
467.32	39477.82
467.51	39646.33
467.69	38141.37
467.87	38513.52
468.05	39344.41
468.23	39658.04
468.41	39274.19
468.60	39318.66
468.78	39688.46
468.96	39208.65
469.14	40067.63
469.32	40299.34
469.50	38710.12
469.69	38906.73
469.87	38204.56
470.05	38204.56
470.23	38246.69
470.41	38043.07
470.59	39084.61
470.77	38911.41
470.95	39920.18
471.14	40308.71
471.32	40446.80
471.50	42405.83
471.68	42705.41
471.86	43227.35
472.04	43007.34
472.22	43016.71
472.40	41345.56
472.58	40872.78
472.77	40362.54
472.95	40950.01
473.13	41841.76
473.31	40856.39
473.49	41312.80
473.67	42344.97
473.85	42237.31
474.03	43248.42
474.21	43470.77
474.39	44210.38
474.57	44233.78
474.75	43894.41
474.93	43622.90
475.12	42436.25
475.30	42983.94
475.48	43384.17
475.66	43428.64
475.84	42955.85
476.02	43292.89
476.20	41984.53
476.38	43070.54
476.56	44048.88
476.74	44706.57
476.92	45001.48
477.10	45324.47
477.28	46543.89
477.46	46850.50
477.64	47105.62
477.82	47255.42
478.00	47346.70
478.18	46906.68
478.36	46663.26
478.54	46536.87
478.72	46925.40
478.90	47868.64
479.08	48952.30
479.26	48987.41
479.44	48938.26
479.62	48839.96
479.80	48947.62
479.98	49291.68
480.16	49712.98
480.34	49071.67
480.52	49205.08
480.70	49258.91
480.88	49649.78
481.06	50115.55
481.24	50321.52
481.41	51459.02
481.59	52076.92
481.77	51751.59
481.95	51019.00
482.13	50911.33
482.31	50791.97
482.49	51887.34
482.67	51526.89
482.85	52032.45
483.03	52048.83
483.21	52659.71
483.39	52332.04
483.57	51840.53
483.74	51594.77
483.92	51622.86
484.10	51704.77
484.28	52800.15
484.46	52999.09
484.64	53677.85
484.82	52821.21
485.00	52629.29
485.18	51744.56
485.35	50504.08
485.53	48065.24
485.71	43976.33
485.89	43533.96
486.07	45324.47
486.25	48629.31
486.43	50967.51
486.61	51562.00
486.78	51494.13
486.96	51447.32
487.14	52949.94
487.32	53464.86
487.50	54555.55
487.68	55260.05
487.85	55718.79
488.03	55538.57
488.21	55145.36
488.39	54471.29
488.57	54012.54
488.75	53839.34
488.92	54763.85
489.10	56493.51
489.28	57530.37
489.46	58108.48
489.64	58019.54
489.81	58206.78
489.99	57687.18
490.17	57797.19
490.35	58277.00
490.53	57893.15
490.70	57310.36
490.88	57469.51
491.06	58241.89
491.24	58284.02
491.41	57375.89
491.59	55943.48
491.77	55281.11
491.95	56388.19
492.13	57200.35
492.30	58171.67
492.48	59199.17
492.66	59358.33
492.84	59437.90
493.01	59281.09
493.19	58618.72
493.37	58429.13
493.54	58150.61
493.72	58829.37
493.90	59643.87
494.08	60444.33
494.25	60559.02
494.43	60802.44
494.61	60996.70
494.79	61233.10
494.96	60959.25
495.14	60360.08
495.32	59674.30
495.49	59068.10
495.67	59957.50
495.85	61197.99
496.02	61605.24
496.20	61317.35
496.38	60973.30
496.55	60907.76
496.73	61197.99
496.91	61366.51
497.09	61984.41
497.26	62052.28
497.44	61453.11
497.62	61127.77
497.79	60591.79
497.97	59456.63
498.14	59554.93
498.32	60603.49
498.50	61263.52
498.67	61790.14
498.85	61787.80
499.03	61745.67
499.20	61925.89
499.38	61984.41
499.56	61958.66
499.73	61628.65
499.91	61123.09
500.08	60706.47
500.26	59891.97
500.44	60434.97
500.61	60860.95
500.79	61020.11
500.97	60500.51
501.14	60605.83
501.32	60282.84
501.49	60362.42
501.67	60411.57
501.84	61050.53
502.02	61322.04
502.20	61565.45
502.37	61705.88
502.55	61640.35
502.72	62223.14
502.90	62379.96
503.07	62354.21
503.25	62089.73
503.43	61207.35
503.60	60739.24
503.78	59969.21
503.95	60367.10
504.13	61684.82
504.30	62321.44
504.48	62176.33
504.65	61836.95
504.83	61867.38
505.01	62452.51
505.18	62775.51
505.36	63208.51
505.53	63351.28
505.71	63554.91
505.88	63819.39
506.06	63182.76
506.23	62763.81
506.41	62426.77
506.58	62581.24
506.76	62717.00
506.93	62707.63
507.11	62396.34
507.28	62492.30
507.46	61897.81
507.63	61593.54
507.81	61286.93
507.98	61666.09
508.16	62124.84
508.33	62822.32
508.50	63149.99
508.68	63288.09
508.85	63639.17
509.03	63648.53
509.20	63451.92
509.38	63023.61
509.55	62255.91
509.73	62284.00
509.90	62899.56
510.08	63077.44
510.25	63154.68
510.42	62740.40
510.60	62614.01
510.77	62948.71
510.95	63463.63
511.12	63650.87
511.30	63894.28
511.47	64118.98
511.64	64224.30
511.82	63831.09
511.99	63142.97
512.17	62693.59
512.34	62305.06
512.51	62452.51
512.69	62660.82
512.86	62712.31
513.04	63182.76
513.21	63107.86
513.38	62894.88
513.56	62379.96
513.73	61867.38
513.90	62089.73
514.08	62276.97
514.25	62326.13
514.43	62445.49
514.60	62667.84
514.77	62827.00
514.95	62836.36
515.12	62665.50
515.29	63110.20
515.47	63220.21
515.64	63592.36
515.81	63098.50
515.99	62862.11
516.16	61666.09
516.33	59379.39
516.51	58138.91
516.68	57584.20
516.85	57223.76
517.03	57361.85
517.20	59648.55
517.37	61858.02
517.54	63004.88
517.72	62459.54
517.89	60516.89
518.06	58239.55
518.24	58258.27
518.41	60552.00
518.58	61666.09
518.75	61839.29
518.93	61886.10
519.10	61647.37
519.27	62122.50
519.45	62489.96
519.62	63035.31
519.79	63346.60
519.96	63171.06
520.14	62878.49
520.31	62033.56
520.48	62042.92
520.65	62244.21
520.83	63255.32
521.00	63737.47
521.17	63384.05
521.34	62969.77
521.52	63185.10
521.69	63650.87
521.86	64004.29
522.03	63763.21
522.20	62653.80
522.38	61696.52
522.55	61612.26
522.72	62394.00
522.89	62499.33
523.07	62578.90
523.24	62908.92
523.41	63643.85
523.58	64062.80
523.75	64306.22
523.92	64069.82
524.10	63920.03
524.27	64086.21
524.44	63784.28
524.61	63812.37
524.78	63674.27
524.96	63533.84
525.13	63468.31
525.30	63842.79
525.47	64228.98
525.64	63983.22
525.81	63487.03
525.98	62269.95
526.16	60865.63
526.33	60427.95
526.50	59973.89
526.67	59695.36
526.84	60247.73
527.01	61132.45
527.18	61904.83
527.36	62686.57
527.53	63288.09
527.70	63709.38
527.87	63241.28
528.04	62705.29
528.21	63290.43
528.38	63814.71
528.55	64425.59
528.72	64477.08
528.89	64685.39
529.07	64500.48
529.24	63877.90
529.41	63306.81
529.58	62663.16
529.75	62927.64
529.92	63337.24
530.09	63650.87
530.26	64133.02
530.43	64268.77
530.60	64448.99
530.77	64437.29
530.94	64671.34
531.11	64292.18
531.28	63908.33
531.46	63852.15
531.63	63819.39
531.80	63800.66
531.97	63454.26
532.14	62873.81
532.31	61956.32
532.48	61315.01
532.65	61237.78
532.82	62082.71
532.99	63175.74
533.16	63281.06
533.33	64004.29
533.50	63777.26
533.67	63096.16
533.84	62756.78
534.01	62798.91
534.18	63154.68
534.35	63281.06
534.52	63203.83
534.69	63351.28
534.86	63580.65
535.03	64079.19
535.20	64163.45
535.37	64636.23
535.54	64591.76
535.71	64383.46
535.88	63903.65
536.05	63613.42
536.22	63175.74
536.38	62871.47
536.55	62321.44
536.72	61951.64
536.89	61853.34
537.06	62672.52
537.23	63559.59
537.40	63540.86
537.57	63664.91
537.74	63398.09
537.91	63290.43
538.08	63386.39
538.25	63412.13
538.42	63517.46
538.59	63470.65
538.75	62794.23
538.92	62628.05
539.09	62632.74
539.26	62173.99
539.43	62103.77
539.60	62305.06
539.77	62506.35
539.94	62433.79
540.11	61481.19
540.28	61165.22
540.44	61256.50
540.61	61375.87
540.78	61673.12
540.95	62082.71
541.12	62496.98
541.29	62702.95
541.46	62831.68
541.62	62958.07
541.79	62763.81
541.96	62276.97
542.13	62265.27
542.30	62543.80
542.47	62745.08
542.63	62571.88
542.80	62197.40
542.97	62347.19
543.14	62307.40
543.31	62211.44
543.48	62810.62
543.64	63465.97
543.81	63828.75
543.98	63657.89
544.15	63039.99
544.32	62274.63
544.48	62602.31
544.65	62761.47
544.82	63231.91
544.99	62817.64
545.16	62597.63
545.32	62087.39
545.49	63002.54
545.66	63573.63
545.83	62904.24
546.00	62852.75
546.16	62457.20
546.33	62543.80
546.50	62487.62
546.67	62913.60
546.83	62602.31
547.00	62436.13
547.17	61968.02
547.34	61453.11
547.50	61373.53
547.67	61797.16
547.84	61815.89
548.00	62138.88
548.17	62508.69
548.34	62560.18
548.51	62508.69
548.67	62513.37
548.84	62550.82
549.01	62656.14
549.18	62468.90
549.34	62452.51
549.51	62398.68
549.68	62501.67
549.84	62199.74
550.01	62178.67
550.18	61953.98
550.34	62085.05
550.51	62195.06
550.68	62241.87
550.84	61715.25
551.01	61680.14
551.18	61764.40
551.34	61963.34
551.51	62319.10
551.68	62506.35
551.84	62595.29
552.01	62391.66
552.18	62335.49
552.34	61635.67
552.51	61408.64
552.68	61160.54
552.84	61724.61
553.01	61925.89
553.18	61661.41
553.34	62033.56
553.51	61825.25
553.67	62082.71
553.84	62368.26
554.01	62087.39
554.17	61923.55
554.34	62260.59
554.51	62117.82
554.67	62518.05
554.84	62258.25
555.00	62040.58
555.17	61757.38
555.33	61724.61
555.50	61694.18
555.67	61811.21
555.83	61764.40
556.00	61612.26
556.16	61385.23
556.33	60889.04
556.50	60851.59
556.66	60931.17
556.83	60699.45
556.99	60844.57
557.16	61095.00
557.32	61151.18
557.49	61420.34
557.65	61371.19
557.82	61345.44
557.98	61247.14
558.15	60662.00
558.32	60196.24
558.48	59398.12
558.65	59611.10
558.81	59819.41
558.98	60142.41
559.14	60594.13
559.31	60341.35
559.47	60395.18
559.64	60048.78
559.80	59798.35
559.97	59828.77
560.13	60315.61
560.30	60853.93
560.46	61448.42
560.63	61520.98
560.79	61668.44
560.96	61209.69
561.12	60519.23
561.29	59550.25
561.45	59583.02
561.61	60072.19
561.78	60523.91
561.94	60367.10
562.11	60320.29
562.27	60217.30
562.44	60444.33
562.60	60692.43
562.77	60867.97
562.93	60809.46
563.10	60659.66
563.26	60004.31
563.42	60343.69
563.59	60069.85
563.75	60102.62
563.92	60238.37
564.08	60079.21
564.24	60362.42
564.41	60252.41
564.57	60301.56
564.74	60137.72
564.90	59920.05
565.07	59805.37
565.23	59360.67
565.39	59143.00
565.56	58887.88
565.72	58688.93
565.88	58932.35
566.05	59238.96
566.21	59140.66
566.38	59618.13
566.54	59428.54
566.70	59859.20
566.87	59873.24
567.03	59948.14
567.19	60245.39
567.36	59976.23
567.52	59877.93
567.68	59732.81
567.85	59145.34
568.01	58880.86
568.17	58466.58
568.34	58663.19
568.50	58454.88
568.66	58623.40
568.83	58712.34
568.99	58911.28
569.15	59119.59
569.32	59196.83
569.48	59047.04
569.64	58679.57
569.81	58532.12
569.97	58728.72
570.13	58422.11
570.30	58110.82
570.46	57401.64
570.62	57048.22
570.78	56947.57
570.95	57160.56
571.11	58045.29
571.27	58164.65
571.43	58255.93
571.60	58377.64
571.76	58705.32
571.92	59079.80
572.09	58932.35
572.25	59089.16
572.41	58939.37
572.57	58859.79
572.74	58705.32
572.90	58440.84
573.06	58429.13
573.22	58548.50
573.38	58733.40
573.55	58354.24
573.71	58857.45
573.87	58618.72
574.03	58436.16
574.20	58518.07
574.36	58103.80
574.52	57982.09
574.68	57890.81
574.84	57460.15
575.01	57258.87
575.17	56926.51
575.33	57118.43
575.49	57712.93
575.65	57588.88
575.82	57516.32
575.98	57249.50
576.14	57574.84
576.30	57696.55
576.46	57818.25
576.62	57729.31
576.79	57886.13
576.95	57403.98
577.11	57504.62
577.27	57647.39
577.43	57598.24
577.59	57385.25
577.75	56910.13
577.92	56287.54
578.08	56147.11
578.24	56144.77
578.40	56491.17
578.56	56849.27
578.72	56629.26
578.88	57027.15
579.04	56940.55
579.21	57106.73
579.37	57045.88
579.53	57219.08
579.69	57134.82
579.85	57205.03
580.01	57439.09
580.17	56743.95
580.33	56715.86
580.49	56823.53
580.65	56975.66
580.82	57205.03
580.98	57249.50
581.14	57043.54
581.30	56982.68
581.46	56985.02
581.62	57099.71
581.78	57279.93
581.94	57268.23
582.10	57008.43
582.26	57230.78
582.42	57272.91
582.58	57284.61
582.74	57160.56
582.90	57485.90
583.06	57378.23
583.22	56968.64
583.38	56762.67
583.54	56982.68
583.70	56996.73
583.86	57095.03
584.02	56718.20
584.18	57020.13
584.34	56750.97
584.50	56624.58
584.66	56629.26
584.82	56381.16
584.98	56388.19
585.14	56203.28
