SpectraSuite Data File
++++++++++++++++++++++++++++++++++++
Date: Mon Oct 07 14:55:00 GMT-05:00 2013
User: price-jones
Dark Spectrum Present: No
Reference Spectrum Present: No
Number of Sampled Component Spectra: 1
Spectrometers: USB2+H05261
Integration Time (usec): 10000 (USB2+H05261)
Spectra Averaged: 1 (USB2+H05261)
Boxcar Smoothing: 0 (USB2+H05261)
Correct for Electrical Dark: No (USB2+H05261)
Strobe/Lamp Enabled: No (USB2+H05261)
Correct for Detector Non-linearity: No (USB2+H05261)
Correct for Stray Light: No (USB2+H05261)
Number of Pixels in Processed Spectrum: 2048
>>>>>Begin Processed Spectral Data<<<<<
365.73	0.00
365.92	0.00
366.12	0.00
366.32	0.00
366.52	0.00
366.72	0.00
366.91	0.00
367.11	0.00
367.31	0.00
367.51	0.00
367.70	0.00
367.90	0.00
368.10	0.00
368.30	0.00
368.49	0.00
368.69	0.00
368.89	0.00
369.09	0.00
369.28	0.00
369.48	0.00
369.68	0.00
369.87	0.00
370.07	0.00
370.27	0.00
370.47	259.80
370.66	2085.42
370.86	2567.57
371.06	2785.24
371.25	2651.83
371.45	2429.48
371.65	2076.06
371.84	2125.21
372.04	2321.81
372.24	2572.25
372.44	2576.93
372.63	2527.78
372.83	2415.43
373.03	2085.42
373.22	1886.47
373.42	2073.71
373.62	2424.80
373.81	2567.57
374.01	2422.45
374.21	2270.32
374.40	2090.10
374.60	2242.23
374.79	2565.23
374.99	3066.10
375.19	3075.46
375.38	3119.93
375.58	2993.55
375.78	2871.84
375.97	3028.65
376.17	3059.08
376.37	3108.23
376.56	3309.52
376.76	3599.74
376.95	3641.87
377.15	3901.67
377.35	4079.55
377.54	4060.83
377.74	4271.48
377.93	4276.16
378.13	4152.11
378.33	3822.09
378.52	3655.92
378.72	3489.74
378.91	3520.17
379.11	3236.96
379.31	3204.19
379.50	3222.92
379.70	3662.94
379.89	4014.02
380.09	4058.49
380.28	4259.78
380.48	4346.37
380.68	4234.03
380.87	3997.64
381.07	3545.91
381.26	3433.57
381.46	3119.93
381.65	3148.02
381.85	3077.80
382.04	2663.53
382.24	2740.77
382.43	2633.10
382.63	2466.92
382.83	2513.74
383.02	2626.08
383.22	2523.10
383.41	2724.38
383.61	2906.95
383.80	3316.54
384.00	3597.40
384.19	4119.34
384.39	4372.12
384.58	4217.65
384.78	4128.70
384.97	4205.94
385.17	3861.88
385.36	3651.24
385.56	3510.80
385.75	3805.71
385.95	4166.15
386.14	4306.59
386.34	4411.91
386.53	4250.41
386.72	3873.59
386.92	4093.60
387.11	4194.24
387.31	4301.90
387.50	4322.97
387.70	4084.23
387.89	4196.58
388.09	4215.30
388.28	4156.79
388.48	4327.65
388.67	4573.41
388.86	5179.61
389.06	5509.62
389.25	5886.45
389.45	5668.78
389.64	5837.30
389.84	5678.14
390.03	5624.31
390.22	5570.48
390.42	5935.60
390.61	6413.07
390.81	6869.47
391.00	6796.92
391.19	6593.29
391.39	6314.77
391.58	5973.05
391.78	5799.85
391.97	5577.50
392.16	5125.77
392.36	4482.13
392.55	3494.42
392.75	2722.04
392.94	2445.86
393.13	2546.50
393.33	3035.67
393.52	3889.97
393.71	4774.69
393.91	5280.25
394.10	5797.51
394.29	6078.37
394.49	6766.49
394.68	7321.20
394.88	7157.36
395.07	7494.40
395.26	7499.08
395.46	7019.27
395.65	6478.60
395.84	5722.61
396.04	4760.65
396.23	3761.24
396.42	3185.47
396.62	3405.48
396.81	4072.53
397.00	5172.58
397.19	6473.92
397.39	7468.65
397.58	8718.50
397.77	8699.77
397.97	9172.56
398.16	9266.18
398.35	9757.69
398.55	9884.08
398.74	10120.48
398.93	10244.52
399.12	10228.14
399.32	9984.73
399.51	10457.51
399.70	10834.34
399.90	10670.50
400.09	10693.91
400.28	10623.69
400.47	10614.33
400.67	11265.00
400.86	11417.13
401.05	11552.88
401.24	11482.67
401.44	11850.13
401.63	11836.09
401.82	11712.04
402.01	12018.65
402.21	11747.15
402.40	12121.63
402.59	11265.00
402.78	10916.26
402.97	10792.21
403.17	11363.30
403.36	12273.77
403.55	12348.67
403.74	12875.29
403.93	11946.09
404.13	10878.81
404.32	10984.13
404.51	11847.79
404.70	12727.83
404.89	12187.17
405.09	11892.26
405.28	11847.79
405.47	11651.19
405.66	12035.03
405.85	11213.51
406.05	11176.06
406.24	11295.43
406.43	11875.88
406.62	12184.83
406.81	12294.83
407.00	11798.64
407.20	11700.34
407.39	11770.55
407.58	12444.63
407.77	12861.24
407.96	13308.29
408.15	13355.10
408.34	13778.73
408.54	14005.77
408.73	13729.58
408.92	13762.35
409.11	13359.78
409.30	12793.37
409.49	11854.81
409.68	11035.63
409.87	11044.99
410.07	12161.42
410.26	12802.73
410.45	13455.74
410.64	13933.21
410.83	14431.74
411.02	14820.27
411.21	15035.60
411.40	14628.35
411.59	15070.71
411.78	14958.36
411.98	14789.85
412.17	14939.64
412.36	14635.37
412.55	14541.75
412.74	14394.29
412.93	14326.42
413.12	14705.59
413.31	16004.58
413.50	15850.11
413.69	16002.24
413.88	15145.61
414.07	14995.81
414.26	15501.37
414.45	16088.84
414.64	15693.29
414.83	15700.31
415.02	15681.59
415.22	15726.06
415.41	15824.36
415.60	16776.96
415.79	17289.54
415.98	17558.70
416.17	17348.05
416.36	16865.90
416.55	17018.04
416.74	16496.10
416.93	16035.01
417.12	15962.45
417.31	16238.64
417.50	16510.14
417.69	16926.75
417.88	16917.39
418.07	16901.01
418.26	16521.84
418.45	16444.60
418.64	17291.88
418.83	17912.12
419.02	17734.24
419.21	17422.95
419.39	16589.72
419.58	15910.96
419.77	15726.06
419.96	16908.03
420.15	17649.98
420.34	18192.98
420.53	18651.73
420.72	19250.91
420.91	18621.30
421.10	18572.15
421.29	18801.52
421.48	18291.29
421.67	19314.10
421.86	18064.25
422.05	16795.68
422.24	15300.08
422.43	15611.37
422.61	17202.94
422.80	18293.63
422.99	17951.91
423.18	17259.11
423.37	16975.91
423.56	17881.69
423.75	17598.49
423.94	17965.95
424.13	17055.48
424.32	17057.82
424.50	17497.84
424.69	17448.69
424.88	16947.82
425.07	17418.27
425.26	17193.58
425.45	16617.80
425.64	16652.91
425.83	16896.33
426.01	17855.95
426.20	18415.34
426.39	17710.83
426.58	16100.55
426.77	15185.40
426.96	14988.79
427.15	15618.39
427.33	16982.93
427.52	17163.15
427.71	17462.74
427.90	17013.35
428.09	16933.78
428.28	16922.07
428.46	15974.16
428.65	15988.20
428.84	16819.09
429.03	16290.13
429.22	15482.64
429.40	14516.00
429.59	12908.05
429.78	11791.62
429.97	12084.19
430.16	12025.67
430.34	12198.87
430.53	12123.98
430.72	12643.57
430.91	14396.64
431.10	17219.32
431.28	19503.68
431.47	20711.40
431.66	20491.39
431.85	18256.18
432.03	16861.22
432.22	16798.02
432.41	18141.49
432.60	19805.61
432.79	20709.06
432.97	20762.89
433.16	19679.22
433.35	17589.13
433.54	16341.62
433.72	15683.93
433.91	16507.80
434.10	18544.06
434.28	20042.01
434.47	20484.37
434.66	20018.60
434.85	19824.34
435.03	19894.55
435.22	20191.80
435.41	20833.11
435.59	21231.00
435.78	21778.68
435.97	21947.20
436.16	21820.81
436.34	21668.68
436.53	21043.76
436.72	21113.97
436.90	20217.55
437.09	20372.02
437.28	20060.73
437.46	20790.98
437.65	20233.93
437.84	18403.63
438.02	17462.74
438.21	18113.41
438.40	18768.76
438.58	20049.03
438.77	20489.05
438.96	21205.25
439.14	21820.81
439.33	22553.40
439.52	22679.79
439.70	21970.61
439.89	21516.54
440.08	20926.73
440.26	21259.09
440.45	21991.67
440.63	23686.22
440.82	24128.58
441.01	23709.63
441.19	23665.16
441.38	24652.86
441.57	24999.26
441.75	25509.50
441.94	26073.57
442.12	25708.44
442.31	26345.07
442.50	26244.43
442.68	25879.30
442.87	25497.80
443.05	25125.65
443.24	25778.66
443.43	26071.23
443.61	26253.79
443.80	26661.04
443.98	25385.45
444.17	25717.81
444.35	26955.95
444.54	27129.15
444.73	26448.05
444.91	25205.23
445.10	24479.66
445.28	23070.66
445.47	23658.14
445.65	23737.71
445.84	24472.64
446.02	25537.59
446.21	25460.35
446.39	25476.73
446.58	25600.78
446.77	26604.87
446.95	26698.49
447.14	27229.79
447.32	27974.08
447.51	27122.13
447.69	25968.24
447.88	26309.96
448.06	27096.38
448.25	26920.84
448.43	26827.22
448.62	26544.02
448.80	26672.74
448.99	26705.51
449.17	26691.47
449.36	27419.38
449.54	27957.70
449.73	27852.38
449.91	28631.77
450.10	29364.36
450.28	29699.06
450.46	29649.91
450.65	29816.08
450.83	29504.79
451.02	29497.77
451.20	28872.85
451.39	28671.56
451.57	28444.53
451.76	28086.43
451.94	27646.41
452.13	26766.37
452.31	25902.71
452.49	24765.21
452.68	25844.20
452.86	26113.36
453.05	26338.05
453.23	27356.18
453.42	28224.52
453.60	28503.04
453.78	28727.74
453.97	28301.76
454.15	27882.80
454.34	27491.93
454.52	27594.92
454.70	26920.84
454.89	27098.72
455.07	27569.17
455.26	28119.20
455.44	29254.36
455.62	29792.68
455.81	29738.85
455.99	29546.92
456.17	29226.27
456.36	29523.52
456.54	29909.71
456.73	30029.07
456.91	30527.61
457.09	30773.36
457.28	31578.51
457.46	29654.59
457.64	28603.69
457.83	28346.23
458.01	28058.34
458.19	29392.45
458.38	29624.16
458.56	29865.24
458.74	30139.08
458.93	29825.45
459.11	29518.84
459.29	29172.44
459.48	29071.79
459.66	29083.50
459.84	29507.13
460.03	29991.62
460.21	29937.79
460.39	31021.46
460.57	30813.15
460.76	31051.89
460.94	31555.10
461.12	30850.60
461.31	30988.69
461.49	30932.52
461.67	31236.79
461.85	31742.35
462.04	31459.14
462.22	32011.51
462.40	31594.89
462.59	31543.40
462.77	31690.85
462.95	31660.43
463.13	31498.93
463.32	31192.32
463.50	31012.10
463.68	31161.89
463.86	31112.74
464.05	30689.10
464.23	29958.86
464.41	30340.36
464.59	29963.54
464.78	31218.07
464.96	30663.36
465.14	30213.98
465.32	31421.69
465.50	32046.62
465.69	32432.80
465.87	31402.97
466.05	30370.79
466.23	28781.57
466.41	28519.43
466.60	29818.42
466.78	29851.19
466.96	30146.10
467.14	30244.40
467.32	31583.19
467.51	31316.37
467.69	29640.54
467.87	30518.25
468.05	30813.15
468.23	31379.56
468.41	30487.82
468.60	30787.41
468.78	31459.14
468.96	31173.60
469.14	31634.68
469.32	32070.02
469.50	30473.78
469.69	30869.33
469.87	30125.04
470.05	30160.14
470.23	30513.56
470.41	30167.16
470.59	30993.37
470.77	30307.60
470.95	31269.56
471.14	31768.09
471.32	32680.90
471.50	33780.95
471.68	33235.61
471.86	33890.96
472.04	33694.35
472.22	33839.47
472.40	32224.50
472.58	32313.44
472.77	32247.90
472.95	32685.58
473.13	33212.20
473.31	32659.84
473.49	32992.19
473.67	33916.70
473.85	33715.42
474.03	34553.33
474.21	34754.61
474.39	34586.10
474.57	35316.34
474.75	35033.14
474.93	34129.69
475.12	33413.49
475.30	34958.24
475.48	34651.63
475.66	34834.19
475.84	34258.42
476.02	34359.06
476.20	33806.70
476.38	34824.83
476.56	35990.42
476.74	35826.58
476.92	36493.63
477.10	36470.23
477.28	37383.04
477.46	36996.85
477.64	37317.50
477.82	37261.33
478.00	37490.70
478.18	37221.54
478.36	36762.79
478.54	36809.61
478.72	37514.11
478.90	38614.16
479.08	39658.04
479.26	39845.28
479.44	40076.99
479.62	39922.52
479.80	40102.74
479.98	39875.71
480.16	40208.06
480.34	39723.57
480.52	41366.63
480.70	41631.11
480.88	40584.89
481.06	41177.04
481.24	40959.38
481.41	42110.92
481.59	42457.32
481.77	42501.79
481.95	41998.57
482.13	42106.24
482.31	42396.46
482.49	42958.19
482.67	42902.02
482.85	43068.20
483.03	43028.41
483.21	44320.38
483.39	44598.91
483.57	43634.61
483.74	43189.91
483.92	43192.25
484.10	44062.93
484.28	44430.39
484.46	44837.64
484.64	45696.62
484.82	44774.45
485.00	44252.51
485.18	42377.74
485.35	40418.71
485.53	36957.06
485.71	34766.32
485.89	34855.26
486.07	36980.46
486.25	40275.94
486.43	42831.80
486.61	43213.31
486.78	43608.86
486.96	43288.21
487.14	45076.38
487.32	45858.12
487.50	46918.38
487.68	47475.43
487.85	47744.59
488.03	47657.99
488.21	46986.25
488.39	46700.71
488.57	45446.18
488.75	46368.35
488.92	47358.40
489.10	50003.20
489.28	50115.55
489.46	51264.75
489.64	51325.61
489.81	51760.95
489.99	51585.41
490.17	51852.23
490.35	51980.96
490.53	51257.73
490.70	50440.89
490.88	50845.80
491.06	52872.70
491.24	51854.57
491.41	49982.14
491.59	48755.70
491.77	48612.93
491.95	50328.54
492.13	51026.02
492.30	51789.03
492.48	53331.45
492.66	53710.61
492.84	53015.47
493.01	53003.77
493.19	53102.07
493.37	52051.17
493.54	51997.34
493.72	52940.58
493.90	53581.88
494.08	54798.96
494.25	55264.73
494.43	54976.84
494.61	55217.92
494.79	55112.59
494.96	55072.81
495.14	54522.78
495.32	53076.33
495.49	53404.00
495.67	54436.18
495.85	55086.85
496.02	55957.53
496.20	56016.04
496.38	55402.82
496.55	55772.63
496.73	56250.09
496.91	55884.97
497.09	56184.56
497.26	56348.40
497.44	56044.13
497.62	54983.86
497.79	54085.10
497.97	53516.35
498.14	54539.16
498.32	55540.91
498.50	55835.82
498.67	56151.79
498.85	56385.85
499.03	56341.38
499.20	56938.21
499.38	56161.15
499.56	56156.47
499.73	55671.98
499.91	55515.17
500.08	55028.34
500.26	55346.65
500.44	55487.08
500.61	55536.23
500.79	55505.80
500.97	55440.27
501.14	54698.32
501.32	54349.58
501.49	54543.84
501.67	55105.57
501.84	55166.43
502.02	55772.63
502.20	56294.56
502.37	56271.16
502.55	56615.22
502.72	57289.29
502.90	57556.11
503.07	56486.49
503.25	55639.22
503.43	54965.14
503.60	55260.05
503.78	54801.30
503.95	55758.58
504.13	56900.76
504.30	57408.66
504.48	56666.71
504.65	56582.45
504.83	56474.79
505.01	56676.07
505.18	57382.91
505.36	58234.87
505.53	58293.38
505.71	58658.51
505.88	58691.27
506.06	58171.67
506.23	57563.14
506.41	56870.34
506.58	56676.07
506.76	57396.96
506.93	57333.76
507.11	57158.22
507.28	56814.16
507.46	56409.25
507.63	56430.32
507.81	56495.85
507.98	56547.34
508.16	57230.78
508.33	57169.93
508.50	58375.30
508.68	58511.05
508.85	59257.68
509.03	59047.04
509.20	58464.24
509.38	57366.53
509.55	56912.47
509.73	57036.51
509.90	57979.75
510.08	57996.13
510.25	57759.74
510.42	57069.28
510.60	56846.93
510.77	57542.07
510.95	58230.19
511.12	58000.82
511.30	58529.78
511.47	59131.29
511.64	59201.51
511.82	58946.39
511.99	57841.66
512.17	57289.29
512.34	57132.48
512.51	57591.22
512.69	57521.01
512.86	57141.84
513.04	57925.92
513.21	57591.22
513.38	56809.48
513.56	56474.79
513.73	56479.47
513.90	56493.51
514.08	56762.67
514.25	57148.86
514.43	57373.55
514.60	57109.07
514.77	57682.50
514.95	58260.62
515.12	58820.00
515.29	58883.20
515.47	58721.70
515.64	58740.42
515.81	58494.67
515.99	57301.00
516.16	55536.23
516.33	53514.01
516.51	52633.97
516.68	50932.40
516.85	50115.55
517.03	51416.89
517.20	54777.90
517.37	57162.90
517.54	57858.04
517.72	56830.55
517.89	54052.33
518.06	52570.77
518.24	54108.50
518.41	56090.94
518.58	57013.11
518.75	56694.80
518.93	56762.67
519.10	56186.90
519.27	56748.63
519.45	57172.27
519.62	57839.32
519.79	57729.31
519.96	57352.49
520.14	57558.45
520.31	56662.03
520.48	56875.02
520.65	56863.32
520.83	57848.68
521.00	57909.53
521.17	57518.67
521.34	57647.39
521.52	58422.11
521.69	58567.23
521.86	59297.47
522.03	58721.70
522.20	57233.12
522.38	56605.86
522.55	56212.65
522.72	56561.39
522.89	57106.73
523.07	57715.27
523.24	58014.86
523.41	58487.65
523.58	59409.82
523.75	59281.09
523.92	59082.14
524.10	59421.52
524.27	59508.12
524.44	58447.86
524.61	58363.60
524.78	59047.04
524.96	58845.75
525.13	59075.12
525.30	59786.64
525.47	59941.12
525.64	59788.98
525.81	58857.45
525.98	57202.69
526.16	55278.77
526.33	55180.47
526.50	54251.28
526.67	54607.04
526.84	55313.88
527.01	56074.55
527.18	56734.59
527.36	58092.10
527.53	58812.98
527.70	58754.47
527.87	57815.91
528.04	58075.71
528.21	58719.36
528.38	59224.92
528.55	59547.91
528.72	59515.14
528.89	60100.28
529.07	59749.20
529.24	58686.59
529.41	58115.50
529.58	58403.39
529.75	58255.93
529.92	58808.30
530.09	59112.57
530.26	58616.38
530.43	58803.62
530.60	59573.66
530.77	59283.43
530.94	58969.80
531.11	58679.57
531.28	58864.47
531.46	59206.19
531.63	59248.32
531.80	58321.47
531.97	58157.63
532.14	57544.41
532.31	56292.22
532.48	55810.07
532.65	56486.49
532.82	56954.60
532.99	58927.67
533.16	58990.86
533.33	58623.40
533.50	58883.20
533.67	58171.67
533.84	57984.43
534.01	57539.73
534.18	58241.89
534.35	58548.50
534.52	57942.30
534.69	58667.87
534.86	58389.34
535.03	59110.23
535.20	59650.89
535.37	59632.17
535.54	59962.18
535.71	59327.90
535.88	59185.13
536.05	58487.65
536.22	57574.84
536.38	57815.91
536.55	57242.48
536.72	57282.27
536.89	57200.35
537.06	57989.11
537.23	58710.00
537.40	59044.69
537.57	59545.57
537.74	58915.96
537.91	58319.13
538.08	58482.97
538.25	59072.78
538.42	58721.70
538.59	58501.69
538.75	57755.06
538.92	57918.90
539.09	57757.40
539.26	57813.57
539.43	57846.34
539.60	57535.05
539.77	57963.37
539.94	57151.20
540.11	56266.48
540.28	56027.74
540.44	56292.22
540.61	57389.94
540.78	57120.77
540.95	57167.58
541.12	56364.78
541.29	58071.03
541.46	58106.14
541.62	58742.77
541.79	57041.20
541.96	56577.77
542.13	57455.47
542.30	58045.29
542.47	57640.37
542.63	57631.01
542.80	57513.98
542.97	57574.84
543.14	57190.99
543.31	57415.68
543.48	58497.01
543.64	58951.07
543.81	59166.40
543.98	59100.87
544.15	58171.67
544.32	57815.91
544.48	57808.89
544.65	58382.32
544.82	58876.18
544.99	57888.47
545.16	57846.34
545.32	57691.86
545.49	58557.86
545.66	58321.47
545.83	58000.82
546.00	58321.47
546.16	58141.25
546.33	58066.35
546.50	57516.32
546.67	58024.22
546.83	58412.75
547.00	58010.18
547.17	56580.11
547.34	56458.40
547.50	56727.56
547.67	56851.61
547.84	57109.07
548.00	57888.47
548.17	57509.30
548.34	58035.92
548.51	58148.27
548.67	57635.69
548.84	57780.81
549.01	57387.60
549.18	57764.42
549.34	57162.90
549.51	57848.68
549.68	57062.26
549.84	56947.57
550.01	56516.92
550.18	56699.48
550.34	56823.53
550.51	57673.14
550.68	57272.91
550.84	57254.18
551.01	57553.77
551.18	57120.77
551.34	57556.11
551.51	57874.43
551.68	57291.63
551.84	57897.83
552.01	57811.23
552.18	56570.75
552.34	56390.53
552.51	56559.05
552.68	56559.05
552.84	56383.51
553.01	57015.45
553.18	55859.23
553.34	56603.52
553.51	56942.89
553.67	56846.93
553.84	57207.37
554.01	57492.92
554.17	56748.63
554.34	56753.31
554.51	57308.02
554.67	57359.51
554.84	56699.48
555.00	56500.53
555.17	56533.30
555.33	56882.04
555.50	56858.63
555.67	57598.24
555.83	57092.69
556.00	56374.14
556.16	56303.93
556.33	56416.27
556.50	55833.48
556.66	56519.26
556.83	56273.50
556.99	56736.93
557.16	56451.38
557.32	56832.89
557.49	56725.22
557.65	56711.18
557.82	57003.75
557.98	56329.67
558.15	56135.41
558.32	55285.79
558.48	54820.03
558.65	54674.91
558.81	54667.89
558.98	54990.89
559.14	54248.94
559.31	54869.18
559.47	55196.85
559.64	54337.88
559.80	54248.94
559.97	54766.20
560.13	55833.48
560.30	56315.63
560.46	57464.83
560.63	57474.20
560.79	58405.73
560.96	56456.06
561.12	55819.44
561.29	55234.30
561.45	54581.29
561.61	56114.34
561.78	56238.39
561.94	55819.44
562.11	55070.46
562.27	54309.79
562.44	55426.23
562.60	56006.68
562.77	55845.18
562.93	55437.93
563.10	55704.75
563.26	55957.53
563.42	55664.96
563.59	54944.08
563.75	54948.76
563.92	55618.15
564.08	56009.02
564.24	55765.60
564.41	55220.26
564.57	55482.40
564.74	54761.51
564.90	55400.48
565.07	54754.49
565.23	54443.20
565.39	53750.40
565.56	54115.53
565.72	53738.70
565.88	53935.30
566.05	55377.08
566.21	54246.60
566.38	54162.34
566.54	54986.21
566.70	54644.49
566.87	55136.00
567.03	55337.29
567.19	55608.79
567.36	55084.51
567.52	55103.23
567.68	55100.89
567.85	54319.15
568.01	54279.36
568.17	54230.21
568.34	53766.79
568.50	53612.31
568.66	52872.70
568.83	52910.15
568.99	53127.82
569.15	53546.78
569.32	54508.74
569.48	53631.04
569.64	53661.46
569.81	54190.42
569.97	53832.32
570.13	52594.18
570.30	52423.32
570.46	52306.29
570.62	50946.44
570.78	51868.61
570.95	52720.57
571.11	53076.33
571.27	52816.53
571.43	53382.94
571.60	53783.17
571.76	53343.15
571.92	54223.19
572.09	53680.19
572.25	53626.35
572.41	54267.66
572.57	53937.65
572.74	54092.12
572.90	53336.13
573.06	53982.12
573.22	54227.87
573.38	53832.32
573.55	54178.72
573.71	53712.95
573.87	53488.26
574.03	53792.53
574.20	53703.59
574.36	52715.89
574.52	53003.77
574.68	52191.61
574.84	51983.30
575.01	51866.27
575.17	52376.51
575.33	52018.41
575.49	53125.48
575.65	53043.56
575.82	52697.16
575.98	52041.81
576.14	52774.40
576.30	53567.84
576.46	53109.10
576.62	52669.08
576.79	52376.51
576.95	52397.57
577.11	51592.43
577.27	52580.13
577.43	51798.40
577.59	52217.35
577.75	52430.34
577.92	51625.20
578.08	50752.18
578.24	51482.42
578.40	51227.31
578.56	50857.50
578.72	51753.93
578.88	51765.63
579.04	52130.75
579.21	51473.06
579.37	51452.00
579.53	50838.78
579.69	51550.30
579.85	51440.29
580.01	51536.26
580.17	51000.27
580.33	52559.07
580.49	52074.58
580.65	52329.70
580.82	52296.93
580.98	52032.45
581.14	51751.59
581.30	51875.63
581.46	51749.24
581.62	51845.21
581.78	52163.52
581.94	52292.25
582.10	51791.37
582.26	51140.71
582.42	51033.04
582.58	52219.69
582.74	51877.97
582.90	51718.82
583.06	52861.00
583.22	52123.73
583.38	52432.68
583.54	52051.17
583.70	51772.65
583.86	51042.40
584.02	51569.02
584.18	52327.36
584.34	51978.62
584.50	51114.96
584.66	51695.41
584.82	51257.73
584.98	51660.30
585.14	50824.73
585.30	50232.58
