SpectraSuite Data File
++++++++++++++++++++++++++++++++++++
Date: Mon Oct 07 14:53:53 GMT-05:00 2013
User: price-jones
Dark Spectrum Present: No
Reference Spectrum Present: No
Number of Sampled Component Spectra: 1
Spectrometers: USB2+H05261
Integration Time (usec): 100000 (USB2+H05261)
Spectra Averaged: 1 (USB2+H05261)
Boxcar Smoothing: 0 (USB2+H05261)
Correct for Electrical Dark: No (USB2+H05261)
Strobe/Lamp Enabled: No (USB2+H05261)
Correct for Detector Non-linearity: No (USB2+H05261)
Correct for Stray Light: No (USB2+H05261)
Number of Pixels in Processed Spectrum: 2048
>>>>>Begin Processed Spectral Data<<<<<
365.73	0.00
365.92	0.00
366.12	0.00
366.32	0.00
366.52	0.00
366.72	0.00
366.91	0.00
367.11	0.00
367.31	0.00
367.51	0.00
367.70	0.00
367.90	0.00
368.10	0.00
368.30	0.00
368.49	0.00
368.69	0.00
368.89	0.00
369.09	0.00
369.28	0.00
369.48	0.00
369.68	0.00
369.87	0.00
370.07	0.00
370.27	0.00
370.47	580.45
370.66	2918.65
370.86	3400.80
371.06	3789.33
371.25	3906.35
371.45	3403.14
371.65	3190.15
371.84	2850.77
372.04	3000.57
372.24	3438.25
372.44	3370.37
372.63	3595.06
372.83	3342.28
373.03	2911.63
373.22	2548.84
373.42	2913.97
373.62	3133.98
373.81	3496.76
374.01	3569.32
374.21	3122.27
374.40	2970.14
374.60	3030.99
374.79	3449.95
374.99	3953.16
375.19	4404.89
375.38	4402.55
375.58	4135.73
375.78	4191.90
375.97	3983.59
376.17	4271.48
376.37	4177.86
376.56	4358.08
376.76	4645.96
376.95	4901.08
377.15	5362.17
377.35	5448.77
377.54	5502.60
377.74	5785.80
377.93	5895.81
378.13	5631.33
378.33	5320.04
378.52	5041.51
378.72	4760.65
378.91	4762.99
379.11	4620.22
379.31	4463.40
379.50	4322.97
379.70	4751.29
379.89	5114.07
380.09	5488.56
380.28	5722.61
380.48	5809.21
380.68	5547.07
380.87	5530.69
381.07	5046.20
381.26	4638.94
381.46	4369.78
381.65	4255.09
381.85	4187.22
382.04	3822.09
382.24	3693.37
382.43	3454.63
382.63	3445.27
382.83	3435.91
383.02	3564.64
383.22	3459.31
383.41	3520.17
383.61	3714.43
383.80	4280.84
384.00	4629.58
384.19	5364.51
384.39	5638.35
384.58	5542.39
384.78	5291.95
384.97	5540.05
385.17	5125.77
385.36	4858.95
385.56	4765.33
385.75	4919.81
385.95	5390.25
386.14	5825.59
386.34	5764.74
386.53	5687.50
386.72	5322.38
386.92	5273.23
387.11	5383.23
387.31	5760.06
387.50	5853.68
387.70	5490.90
387.89	5486.22
388.09	5404.30
388.28	5448.77
388.48	5483.88
388.67	6001.13
388.86	6375.62
389.06	7066.08
389.25	7424.18
389.45	7463.97
389.64	7384.39
389.84	7412.48
390.03	7192.47
390.22	7218.21
390.42	7578.65
390.61	8084.21
390.81	8517.21
391.00	8730.20
391.19	8557.00
391.39	8329.97
391.58	7707.38
391.78	7559.93
391.97	7185.44
392.16	6551.16
392.36	6251.57
392.55	5022.79
392.75	3868.91
392.94	3112.91
393.13	3180.79
393.33	3688.68
393.52	4774.69
393.71	5898.15
393.91	6619.04
394.10	7129.27
394.29	7742.49
394.49	8322.94
394.68	9020.42
394.88	9231.07
395.07	9598.54
395.26	9458.10
395.46	9294.27
395.65	8386.14
395.84	7447.58
396.04	6392.00
396.23	5217.05
396.42	4201.26
396.62	4046.79
396.81	4835.55
397.00	6190.72
397.19	7702.70
397.39	9001.70
397.58	10291.34
397.77	10850.72
397.97	11297.77
398.16	11447.56
398.35	11798.64
398.55	12208.23
398.74	12699.75
398.93	12851.88
399.12	12835.50
399.32	12301.86
399.51	12681.02
399.70	13476.80
399.90	13338.71
400.09	13317.65
400.28	13221.69
400.47	13224.03
400.67	13970.66
400.86	14298.33
401.05	14260.88
401.24	14260.88
401.44	14712.61
401.63	14368.55
401.82	14831.97
402.01	14810.91
402.21	14878.79
402.40	14979.43
402.59	14480.89
402.78	13668.73
402.97	13614.90
403.17	13851.29
403.36	14593.24
403.55	15164.33
403.74	15686.27
403.93	14710.27
404.13	13813.84
404.32	13451.06
404.51	13984.70
404.70	15201.78
404.89	15276.68
405.09	14815.59
405.28	14597.92
405.47	14534.73
405.66	14733.67
405.85	14083.00
406.05	13570.43
406.24	13907.46
406.43	14621.33
406.62	14944.32
406.81	15290.72
407.00	14398.98
407.20	14169.60
407.39	14214.07
407.58	14920.92
407.77	15618.39
407.96	16236.30
408.15	16198.85
408.34	16449.28
408.54	17214.64
408.73	17121.02
408.92	17219.32
409.11	16360.34
409.30	15377.32
409.49	14850.70
409.68	13748.31
409.87	13298.92
410.07	13991.72
410.26	15349.23
410.45	16339.28
410.64	16624.83
410.83	16950.16
411.02	17790.41
411.21	18064.25
411.40	18164.90
411.59	18338.10
411.78	17907.44
411.98	18026.81
412.17	18200.01
412.36	17680.41
412.55	17823.18
412.74	17308.26
412.93	16805.05
413.12	17163.15
413.31	18588.53
413.50	18981.74
413.69	19328.14
413.88	18405.97
414.07	18050.21
414.26	18239.79
414.45	18946.64
414.64	18698.54
414.83	18909.19
415.02	18822.59
415.22	18801.52
415.41	19035.58
415.60	19531.77
415.79	20568.63
415.98	20910.35
416.17	20886.94
416.36	20311.17
416.55	20329.89
416.74	19374.95
416.93	18864.72
417.12	18775.78
417.31	19042.60
417.50	19260.27
417.69	19740.08
417.88	19939.02
418.07	19719.01
418.26	19674.54
418.45	19716.67
418.64	20203.50
418.83	21223.98
419.02	20741.83
419.21	20540.54
419.39	19426.45
419.58	18988.77
419.77	18913.87
419.96	19323.46
420.15	20535.86
420.34	21511.86
420.53	22015.08
420.72	22572.13
420.91	22207.00
421.10	21649.96
421.29	21724.85
421.48	20929.07
421.67	22235.09
421.86	21458.03
422.05	20084.14
422.24	17839.56
422.43	17436.99
422.61	19613.69
422.80	21603.14
422.99	21385.47
423.18	20493.73
423.37	19878.17
423.56	20168.40
423.75	20446.92
423.94	20769.91
424.13	19655.82
424.32	19924.98
424.50	20004.56
424.69	19592.62
424.88	19637.09
425.07	19864.13
425.26	19707.31
425.45	19494.32
425.64	19295.38
425.83	19342.19
426.01	20063.07
426.20	20889.28
426.39	20973.54
426.58	19225.16
426.77	17539.97
426.96	16828.45
427.15	17832.54
427.33	18993.45
427.52	19819.66
427.71	19927.32
427.90	19791.57
428.09	19442.83
428.28	19246.23
428.46	18630.66
428.65	18178.94
428.84	18656.41
429.03	18897.49
429.22	17914.46
429.40	17315.28
429.59	15403.07
429.78	13462.76
429.97	13750.65
430.16	13905.12
430.34	13923.85
430.53	13923.85
430.72	14080.66
430.91	15857.13
431.10	18499.59
431.28	21671.02
431.47	23655.79
431.66	23941.34
431.85	21736.56
432.03	20042.01
432.22	19417.08
432.41	19824.34
432.60	22066.57
432.79	22754.69
432.97	23686.22
433.16	23030.87
433.35	20872.90
433.54	18843.65
433.72	17675.73
433.91	18188.30
434.10	20414.15
434.28	21572.72
434.47	22860.01
434.66	22937.25
434.85	22281.90
435.03	21722.51
435.22	22677.45
435.41	23988.15
435.59	23943.68
435.78	24182.42
435.97	24828.40
436.16	24992.24
436.34	24769.89
436.53	24041.98
436.72	24114.54
436.90	22689.15
437.09	22984.06
437.28	22146.15
437.46	23204.07
437.65	23084.70
437.84	21223.98
438.02	19676.88
438.21	19536.45
438.40	20592.03
438.58	22511.27
438.77	22834.27
438.96	23534.09
439.14	24290.08
439.33	24730.10
439.52	25298.85
439.70	24800.32
439.89	24245.61
440.08	23531.75
440.26	23527.06
440.45	23953.04
440.63	25816.11
440.82	27101.06
441.01	27185.32
441.19	26675.09
441.38	27220.43
441.57	27751.73
441.75	28425.81
441.94	28554.54
442.12	28205.80
442.31	28720.71
442.50	28521.77
442.68	28285.37
442.87	28039.62
443.05	27756.41
443.24	27934.29
443.43	28709.01
443.61	29252.02
443.80	29521.18
443.98	27716.62
444.17	27580.87
444.35	29249.67
444.54	29827.79
444.73	29652.25
444.91	28313.46
445.10	26988.72
445.28	25982.29
445.47	25607.80
445.65	25937.82
445.84	26728.92
446.02	27620.66
446.21	28030.26
446.39	28060.68
446.58	28479.64
446.77	28929.02
446.95	28987.53
447.14	29579.69
447.32	30382.49
447.51	29736.51
447.69	28121.54
447.88	28233.88
448.06	28360.27
448.25	29310.53
448.43	29556.28
448.62	28730.08
448.80	28694.97
448.99	28865.83
449.17	28868.17
449.36	28985.19
449.54	29944.81
449.73	30265.47
449.91	31091.68
450.10	31725.96
450.28	32264.28
450.46	31817.24
450.65	32046.62
450.83	31756.39
451.02	31033.16
451.20	31122.10
451.39	31133.81
451.57	30733.57
451.76	30834.22
451.94	30611.87
452.13	30146.10
452.31	28507.72
452.49	27220.43
452.68	27730.67
452.86	27924.93
453.05	28013.87
453.23	28807.31
453.42	29446.28
453.60	30057.16
453.78	30195.25
453.97	30316.96
454.15	30225.68
454.34	29296.49
454.52	29404.15
454.70	29535.22
454.89	29539.90
455.07	29448.62
455.26	30050.14
455.44	30965.29
455.62	31524.68
455.81	31796.18
455.99	31763.41
456.17	31440.42
456.36	31295.30
456.54	32231.52
456.73	32135.56
456.91	32687.92
457.09	32634.09
457.28	33315.19
457.46	32493.66
457.64	31945.97
457.83	31143.17
458.01	30110.99
458.19	31243.81
458.38	31482.55
458.56	32549.83
458.74	32287.69
458.93	31800.86
459.11	31578.51
459.29	30967.63
459.48	31456.80
459.66	31515.31
459.84	31571.49
460.03	31786.82
460.21	31910.86
460.39	32940.70
460.57	32598.98
460.76	32891.55
460.94	33567.96
461.12	32762.82
461.31	32753.46
461.49	32697.28
461.67	33003.89
461.85	34302.89
462.04	33472.00
462.22	33968.19
462.40	33558.60
462.59	33280.08
462.77	33736.48
462.95	33692.01
463.13	32858.78
463.32	32982.83
463.50	32680.90
463.68	32739.41
463.86	32449.19
464.05	32154.28
464.23	31541.06
464.41	31622.98
464.59	30808.47
464.78	32531.11
464.96	32383.65
465.14	32121.51
465.32	33160.71
465.50	33490.73
465.69	34209.27
465.87	33235.61
466.05	32339.18
466.23	31152.53
466.41	30199.93
466.60	31519.99
466.78	31056.57
466.96	31426.37
467.14	32161.30
467.32	32694.94
467.51	32737.07
467.69	30726.55
467.87	31807.88
468.05	32374.29
468.23	32472.59
468.41	32311.10
468.60	32180.03
468.78	32851.76
468.96	32692.60
469.14	32992.19
469.32	33158.37
469.50	31299.98
469.69	31866.39
469.87	31276.58
470.05	31285.94
470.23	31393.61
470.41	31407.65
470.59	32084.06
470.77	32297.05
470.95	32601.32
471.14	33251.99
471.32	32608.34
471.50	35096.33
471.68	35157.19
471.86	35449.75
472.04	35644.02
472.22	35681.47
472.40	33961.17
472.58	33689.67
472.77	32910.27
472.95	34050.11
473.13	34639.93
473.31	33832.44
473.49	34078.20
473.67	34733.55
473.85	35215.70
474.03	35927.22
474.21	35997.44
474.39	36540.44
474.57	36692.58
474.75	36147.23
474.93	36055.95
475.12	35192.30
475.30	35353.79
475.48	35693.17
475.66	35969.35
475.84	35718.92
476.02	35164.21
476.20	34651.63
476.38	35365.49
476.56	36336.82
476.74	36926.63
476.92	37205.16
477.10	37619.43
477.28	38785.02
477.46	38686.71
477.64	39269.51
477.82	39416.96
478.00	38948.85
478.18	38600.12
478.36	38543.94
478.54	38684.37
478.72	38913.75
478.90	39620.59
479.08	40870.43
479.26	41869.84
479.44	41621.75
479.62	40921.93
479.80	40987.46
479.98	41565.57
480.16	41163.00
480.34	41163.00
480.52	41593.66
480.70	41432.16
480.88	41373.65
481.06	42429.23
481.24	42447.96
481.41	43679.08
481.59	44081.65
481.77	44348.47
481.95	43360.76
482.13	43070.54
482.31	43262.46
482.49	43943.56
482.67	43817.17
482.85	44093.35
483.03	44634.02
483.21	45027.23
483.39	45034.25
483.57	44348.47
483.74	44320.38
483.92	44098.03
484.10	44425.71
484.28	45371.28
484.46	45963.44
484.64	46234.94
484.82	45076.38
485.00	44547.42
485.18	43988.03
485.35	42412.85
485.53	39541.01
485.71	36285.33
485.89	35667.42
486.07	36879.82
486.25	40641.06
486.43	42986.28
486.61	43648.65
486.78	43409.92
486.96	43885.04
487.14	44945.31
487.32	46295.80
487.50	47489.47
487.68	48327.38
487.85	48870.39
488.03	49172.31
488.21	48388.24
488.39	47821.83
488.57	47016.68
488.75	46536.87
488.92	47964.60
489.10	50211.51
489.28	51515.19
489.46	52004.36
489.64	52072.24
489.81	52137.77
489.99	51643.92
490.17	51852.23
490.35	52140.11
490.53	51592.43
490.70	51217.94
490.88	51351.35
491.06	52294.59
491.24	52327.36
491.41	51096.24
491.59	49490.63
491.77	48437.39
491.95	49315.09
492.13	50866.86
492.30	52168.20
492.48	53368.90
492.66	53572.52
492.84	53727.00
493.01	53326.77
493.19	52858.66
493.37	52491.19
493.54	52140.11
493.72	53137.18
493.90	53895.52
494.08	54728.75
494.25	55136.00
494.43	55009.61
494.61	55531.55
494.79	55395.80
494.96	55192.17
495.14	54824.71
495.32	53773.81
495.49	53226.12
495.67	54244.26
495.85	55606.45
496.02	55992.64
496.20	55847.52
496.38	55503.46
496.55	55224.94
496.73	55744.54
496.91	55828.80
497.09	56516.92
497.26	56643.30
497.44	56474.79
497.62	55653.26
497.79	54941.74
497.97	53694.23
498.14	53708.27
498.32	54803.64
498.50	55594.74
498.67	56367.12
498.85	56104.98
499.03	56458.40
499.20	56624.58
499.38	56622.24
499.56	56289.88
499.73	55695.39
499.91	55620.49
500.08	55150.04
500.26	54424.48
500.44	54651.51
500.61	55468.36
500.79	55421.55
500.97	54897.27
501.14	54703.00
501.32	54370.64
501.49	54459.58
501.67	54923.01
501.84	55491.76
502.02	55543.25
502.20	55884.97
502.37	56097.96
502.55	56245.41
502.72	56865.66
502.90	57036.51
503.07	56762.67
503.25	56568.41
503.43	55608.79
503.60	54969.82
503.78	54349.58
503.95	54831.73
504.13	56287.54
504.30	56884.38
504.48	57041.20
504.65	56310.95
504.83	56554.36
505.01	56875.02
505.18	57216.74
505.36	58122.52
505.53	57656.76
505.71	58302.74
505.88	58241.89
506.06	57687.18
506.23	57319.72
506.41	56933.53
506.58	57116.09
506.76	57209.71
506.93	57275.25
507.11	56924.17
507.28	56889.06
507.46	56530.96
507.63	56273.50
507.81	55847.52
507.98	55852.20
508.16	56781.40
508.33	57343.12
508.50	57717.61
508.68	57972.73
508.85	58326.15
509.03	58368.28
509.20	58211.46
509.38	57490.58
509.55	56863.32
509.73	56823.53
509.90	57336.10
510.08	57661.44
510.25	57528.03
510.42	57223.76
510.60	57073.96
510.77	57432.07
510.95	58211.46
511.12	58391.68
511.30	58546.16
511.47	58649.14
511.64	58585.95
511.82	58218.49
511.99	57537.39
512.17	57249.50
512.34	56793.10
512.51	57062.26
512.69	57027.15
512.86	57275.25
513.04	57563.14
513.21	57460.15
513.38	57375.89
513.56	56722.88
513.73	56090.94
513.90	56182.22
514.08	56753.31
514.25	56743.95
514.43	57165.24
514.60	57029.49
514.77	57347.81
514.95	57282.27
515.12	57256.53
515.29	57495.26
515.47	57818.25
515.64	58087.42
515.81	57968.05
515.99	57209.71
516.16	55683.69
516.33	53364.21
516.51	51751.59
516.68	50974.53
516.85	50637.49
517.03	50834.10
517.20	53553.80
517.37	56322.65
517.54	57387.60
517.72	56917.15
517.89	54515.76
518.06	51908.40
518.24	51971.60
518.41	54351.92
518.58	56048.81
518.75	55992.64
518.93	56135.41
519.10	56079.24
519.27	56657.35
519.45	56842.25
519.62	57619.31
519.79	57954.00
519.96	57621.65
520.14	57223.76
520.31	56205.62
520.48	56376.48
520.65	56458.40
520.83	57652.08
521.00	58162.31
521.17	57495.26
521.34	57183.97
521.52	57389.94
521.69	58197.42
521.86	58766.17
522.03	58155.29
522.20	57116.09
522.38	55997.32
522.55	55884.97
522.72	56755.65
522.89	56884.38
523.07	56907.79
523.24	57277.59
523.41	58363.60
523.58	58536.80
523.75	58686.59
523.92	58592.97
524.10	58560.20
524.27	58599.99
524.44	58534.46
524.61	58246.57
524.78	58078.05
524.96	58014.86
525.13	58031.24
525.30	58202.10
525.47	58632.76
525.64	58546.16
525.81	57961.03
525.98	56376.48
526.16	54878.54
526.33	54232.55
526.50	53907.22
526.67	53701.25
526.84	54466.61
527.01	55030.68
527.18	55817.10
527.36	56989.70
527.53	57942.30
527.70	58202.10
527.87	57745.70
528.04	57155.88
528.21	57556.11
528.38	58178.70
528.55	58782.55
528.72	58981.50
528.89	59332.58
529.07	59164.06
529.24	58363.60
529.41	57780.81
529.58	57088.01
529.75	56999.07
529.92	57509.30
530.09	58145.93
530.26	58499.35
530.43	58522.76
530.60	58805.96
530.77	58983.84
530.94	59201.51
531.11	58560.20
531.28	58262.96
531.46	57979.75
531.63	58211.46
531.80	58115.50
531.97	57748.04
532.14	56821.19
532.31	56060.51
532.48	55189.83
532.65	55297.50
532.82	56353.08
532.99	57359.51
533.16	57586.54
533.33	58230.19
533.50	57893.15
533.67	57172.27
533.84	56947.57
534.01	57172.27
534.18	57387.60
534.35	57518.67
534.52	57588.88
534.69	57705.91
534.86	58014.86
535.03	58234.87
535.20	58731.06
535.37	59147.68
535.54	58901.92
535.71	58707.66
535.88	58379.98
536.05	57661.44
536.22	57450.79
536.38	57198.01
536.55	56516.92
536.72	56067.53
536.89	56119.02
537.06	56823.53
537.23	57619.31
537.40	58040.60
537.57	57925.92
537.74	57656.76
537.91	57647.39
538.08	57511.64
538.25	57539.73
538.42	57787.83
538.59	57502.28
538.75	56903.10
538.92	56788.42
539.09	56636.28
539.26	56435.00
539.43	56332.01
539.60	56179.88
539.77	56495.85
539.94	56502.87
540.11	55587.72
540.28	54927.69
540.44	55030.68
540.61	55222.60
540.78	55559.64
540.95	56116.68
541.12	56486.49
541.29	56594.15
541.46	56963.96
541.62	57134.82
541.79	56877.36
541.96	56369.46
542.13	56222.01
542.30	56556.70
542.47	56624.58
542.63	56236.05
542.80	56245.41
542.97	56523.94
543.14	56336.69
543.31	56374.14
543.48	56889.06
543.64	57649.74
543.81	57965.71
543.98	57640.37
544.15	57148.86
544.32	56425.64
544.48	56694.80
544.65	56844.59
544.82	57291.63
544.99	56968.64
545.16	56528.62
545.32	56144.77
545.49	57315.04
545.66	57656.76
545.83	57109.07
546.00	56734.59
546.16	56610.54
546.33	56383.51
546.50	56486.49
546.67	57062.26
546.83	56512.23
547.00	56568.41
547.17	55756.24
547.34	55370.05
547.50	55236.64
547.67	55597.09
547.84	55938.80
548.00	55990.30
548.17	56542.66
548.34	56601.18
548.51	56610.54
548.67	56570.75
548.84	56442.02
549.01	56633.94
549.18	56449.04
549.34	56254.78
549.51	56559.05
549.68	56463.08
549.84	56062.85
550.01	56165.84
550.18	55798.37
550.34	56123.71
550.51	56027.74
550.68	56006.68
550.84	55683.69
551.01	55552.62
551.18	55487.08
551.34	55983.27
551.51	56053.49
551.68	56523.94
551.84	56685.43
552.01	56339.04
552.18	56151.79
552.34	55330.26
552.51	54983.86
552.68	54789.60
552.84	55501.12
553.01	55536.23
553.18	55835.82
553.34	55772.63
553.51	55859.23
553.67	56037.11
553.84	56182.22
554.01	56058.17
554.17	55840.50
554.34	55774.97
554.51	56135.41
554.67	56388.19
554.84	56254.78
555.00	55746.88
555.17	55391.12
555.33	55426.23
555.50	55494.10
555.67	55487.08
555.83	55388.78
556.00	55159.41
556.16	54864.50
556.33	54770.88
556.50	54569.59
556.66	54616.40
556.83	54174.04
556.99	54316.81
557.16	54490.01
557.32	54930.03
557.49	55103.23
557.65	54852.80
557.82	54810.67
557.98	54803.64
558.15	54272.34
558.32	53516.35
558.48	52388.21
558.65	52954.62
558.81	53209.74
558.98	53471.88
559.14	53680.19
559.31	53719.98
559.47	53797.21
559.64	53495.28
559.80	53216.76
559.97	53212.08
560.13	53624.01
560.30	54635.13
560.46	55143.02
560.63	55262.39
560.79	55234.30
560.96	54897.27
561.12	54057.01
561.29	52662.05
561.45	52776.74
561.61	53492.94
561.78	53829.98
561.94	53921.26
562.11	53865.09
562.27	53375.92
562.44	53780.83
562.60	54174.04
562.77	54560.23
562.93	54190.42
563.10	54071.06
563.26	53860.41
563.42	53673.16
563.59	53441.45
563.75	53312.72
563.92	53207.40
564.08	53528.05
564.24	53844.02
564.41	53724.66
564.57	53502.31
564.74	53340.81
564.90	53364.21
565.07	53050.58
565.23	52809.51
565.39	52348.42
565.56	51554.98
565.72	51751.59
565.88	52362.46
566.05	52130.75
566.21	52580.13
566.38	52523.96
566.54	52790.78
566.70	53050.58
566.87	53277.61
567.03	53303.36
567.19	53345.49
567.36	53432.09
567.52	52891.43
567.68	52659.71
567.85	52278.21
568.01	51526.89
568.17	51222.62
568.34	51564.34
568.50	51482.42
568.66	51360.72
568.83	51824.14
568.99	51791.37
569.15	52296.93
569.32	51870.95
569.48	51646.26
569.64	51735.20
569.81	51253.05
569.97	51114.96
570.13	51325.61
570.30	50454.93
570.46	49970.44
570.62	49558.50
570.78	49144.23
570.95	49806.60
571.11	50302.79
571.27	50623.45
571.43	51147.73
571.60	51292.84
571.76	51426.25
571.92	51899.04
572.09	52055.85
572.25	51765.63
572.41	51742.22
572.57	51753.93
572.74	51416.89
572.90	51180.49
573.06	51168.79
573.22	51423.91
573.38	51569.02
573.55	51505.83
573.71	51463.70
573.87	51332.63
574.03	50677.28
574.20	51093.89
574.36	50548.55
574.52	50625.79
574.68	50450.25
574.84	49921.29
575.01	49322.11
575.17	49319.77
575.33	49696.59
575.49	49521.05
575.65	50127.25
575.82	49991.50
575.98	49598.29
576.14	49705.96
576.30	50160.02
576.46	50609.40
576.62	50288.75
576.79	50354.29
576.95	49764.47
577.11	49703.62
577.27	49897.88
577.43	50169.38
577.59	49624.04
577.75	48772.08
577.92	48067.58
578.08	48100.35
578.24	47835.87
578.40	48423.34
578.56	48694.85
578.72	48861.02
578.88	48713.57
579.04	49102.10
579.21	49301.04
579.37	49581.91
579.53	49633.40
579.69	49801.92
579.85	49586.59
580.01	49394.67
580.17	48655.06
580.33	49074.01
580.49	49043.59
580.65	48921.88
580.82	49345.51
580.98	49546.80
581.14	49041.24
581.30	49200.40
581.46	49085.72
581.62	49385.30
581.78	49141.89
581.94	49237.85
582.10	49560.84
582.26	49635.74
582.42	49633.40
582.58	49900.22
582.74	49282.32
582.90	49258.91
583.06	49354.88
583.22	49200.40
583.38	49099.76
583.54	48816.55
583.70	49160.61
583.86	49092.74
584.02	48926.56
584.18	49127.84
584.34	48577.82
584.50	48907.83
584.66	48484.20
584.82	48058.22
584.98	48142.48
585.14	47304.57
585.30	46265.37
