SpectraSuite Data File
++++++++++++++++++++++++++++++++++++
Date: Mon Oct 07 14:54:56 GMT-05:00 2013
User: price-jones
Dark Spectrum Present: No
Reference Spectrum Present: No
Number of Sampled Component Spectra: 1
Spectrometers: USB2+H05261
Integration Time (usec): 10000 (USB2+H05261)
Spectra Averaged: 1 (USB2+H05261)
Boxcar Smoothing: 0 (USB2+H05261)
Correct for Electrical Dark: No (USB2+H05261)
Strobe/Lamp Enabled: No (USB2+H05261)
Correct for Detector Non-linearity: No (USB2+H05261)
Correct for Stray Light: No (USB2+H05261)
Number of Pixels in Processed Spectrum: 2048
>>>>>Begin Processed Spectral Data<<<<<
365.73	0.00
365.92	0.00
366.12	0.00
366.32	0.00
366.52	0.00
366.72	0.00
366.91	0.00
367.11	0.00
367.31	0.00
367.51	0.00
367.70	0.00
367.90	0.00
368.10	0.00
368.30	0.00
368.49	0.00
368.69	0.00
368.89	0.00
369.09	0.00
369.28	0.00
369.48	0.00
369.68	0.00
369.87	0.00
370.07	0.00
370.27	0.00
370.47	0.00
370.66	110.01
370.86	124.05
371.06	212.99
371.25	191.92
371.45	126.39
371.65	142.77
371.84	217.67
372.04	168.52
372.24	252.78
372.44	271.50
372.63	266.82
372.83	259.80
373.03	168.52
373.22	124.05
373.42	98.30
373.62	107.66
373.81	224.69
374.01	229.37
374.21	259.80
374.40	248.10
374.60	177.88
374.79	266.82
374.99	362.78
375.19	430.66
375.38	367.46
375.58	404.91
375.78	304.27
375.97	411.93
376.17	266.82
376.37	308.95
376.56	402.57
376.76	430.66
376.95	395.55
377.15	475.13
377.35	503.22
377.54	554.71
377.74	486.83
377.93	484.49
378.13	557.05
378.33	393.21
378.52	425.98
378.72	273.84
378.91	362.78
379.11	304.27
379.31	344.06
379.50	393.21
379.70	379.17
379.89	440.02
380.09	400.23
380.28	540.66
380.48	543.00
380.68	568.75
380.87	550.03
381.07	444.70
381.26	421.30
381.46	306.61
381.65	299.59
381.85	283.20
382.04	257.46
382.24	224.69
382.43	163.84
382.63	182.56
382.83	215.33
383.02	187.24
383.22	177.88
383.41	175.54
383.61	257.46
383.80	294.91
384.00	390.87
384.19	451.72
384.39	489.17
384.58	475.13
384.78	440.02
384.97	437.68
385.17	344.06
385.36	367.46
385.56	425.98
385.75	264.48
385.95	526.62
386.14	521.94
386.34	603.86
386.53	395.55
386.72	458.74
386.92	416.62
387.11	493.85
387.31	428.32
387.50	512.58
387.70	528.96
387.89	493.85
388.09	416.62
388.28	393.21
388.48	521.94
388.67	479.81
388.86	660.03
389.06	575.77
389.25	613.22
389.45	683.44
389.64	746.63
389.84	699.82
390.03	720.88
390.22	741.95
390.42	695.14
390.61	779.40
390.81	837.91
391.00	837.91
391.19	861.32
391.39	802.80
391.58	791.10
391.78	720.88
391.97	667.05
392.16	601.52
392.36	533.64
392.55	365.12
392.75	156.82
392.94	121.71
393.13	191.92
393.33	250.44
393.52	372.15
393.71	458.74
393.91	517.26
394.10	496.19
394.29	725.57
394.49	819.19
394.68	863.66
394.88	889.40
395.07	954.94
395.26	999.41
395.46	903.45
395.65	809.83
395.84	784.08
396.04	521.94
396.23	428.32
396.42	294.91
396.62	257.46
396.81	390.87
397.00	442.36
397.19	730.25
397.39	877.70
397.58	1088.35
397.77	999.41
397.97	1196.01
398.16	1198.35
398.35	1184.31
398.55	1336.45
398.74	1331.76
398.93	1409.00
399.12	1348.15
399.32	1214.74
399.51	1284.95
399.70	1331.76
399.90	1366.87
400.09	1401.98
400.28	1378.58
400.47	1355.17
400.67	1495.60
400.86	1521.35
401.05	1488.58
401.24	1467.52
401.44	1504.96
401.63	1507.30
401.82	1465.18
402.01	1558.80
402.21	1528.37
402.40	1467.52
402.59	1495.60
402.78	1488.58
402.97	1350.49
403.17	1427.73
403.36	1481.56
403.55	1636.03
403.74	1694.55
403.93	1633.69
404.13	1390.28
404.32	1366.87
404.51	1390.28
404.70	1561.14
404.89	1598.59
405.09	1490.92
405.28	1490.92
405.47	1495.60
405.66	1465.18
405.85	1507.30
406.05	1420.71
406.24	1376.24
406.43	1610.29
406.62	1572.84
406.81	1589.22
407.00	1575.18
407.20	1519.01
407.39	1575.18
407.58	1561.14
407.77	1614.97
407.96	1600.93
408.15	1680.50
408.34	1664.12
408.54	1783.49
408.73	1778.81
408.92	1708.59
409.11	1753.06
409.30	1678.16
409.49	1533.05
409.68	1434.75
409.87	1343.47
410.07	1476.88
410.26	1558.80
410.45	1743.70
410.64	1771.79
410.83	1746.04
411.02	1842.00
411.21	1867.75
411.40	1902.86
411.59	1891.15
411.78	1834.98
411.98	1757.74
412.17	1804.55
412.36	1757.74
412.55	1771.79
412.74	1774.13
412.93	1877.11
413.12	1661.78
413.31	1849.02
413.50	1914.56
413.69	2033.93
413.88	1886.47
414.07	1774.13
414.26	1879.45
414.45	2057.33
414.64	2057.33
414.83	1994.14
415.02	1912.22
415.22	1980.09
415.41	2033.93
415.60	1928.60
415.79	2078.40
415.98	2148.61
416.17	2186.06
416.36	2057.33
416.55	2157.97
416.74	1935.62
416.93	1844.34
417.12	1961.37
417.31	1949.67
417.50	1973.07
417.69	1982.43
417.88	2064.35
418.07	2017.54
418.26	1963.71
418.45	2059.67
418.64	1944.99
418.83	2125.21
419.02	2087.76
419.21	2073.71
419.39	1921.58
419.58	1926.26
419.77	2012.86
419.96	2083.08
420.15	2188.40
420.34	2251.60
420.53	2237.55
420.72	2200.10
420.91	2340.54
421.10	2190.74
421.29	2284.36
421.48	2136.91
421.67	2197.76
421.86	2258.62
422.05	2001.16
422.24	1764.76
422.43	1666.46
422.61	2024.56
422.80	2069.03
422.99	2190.74
423.18	2090.10
423.37	2015.20
423.56	2033.93
423.75	2172.02
423.94	2099.46
424.13	2031.58
424.32	2146.27
424.50	2092.44
424.69	2087.76
424.88	1987.11
425.07	1949.67
425.26	2010.52
425.45	2036.27
425.64	1966.05
425.83	1942.64
426.01	2024.56
426.20	2043.29
426.39	2090.10
426.58	1898.17
426.77	1863.07
426.96	1645.40
427.15	1692.21
427.33	1954.35
427.52	2036.27
427.71	1947.33
427.90	1980.09
428.09	1984.77
428.28	1874.77
428.46	1942.64
428.65	1856.04
428.84	1863.07
429.03	1895.83
429.22	1680.50
429.40	1825.62
429.59	1453.47
429.78	1270.91
429.97	1423.05
430.16	1338.79
430.34	1334.11
430.53	1401.98
430.72	1334.11
430.91	1521.35
431.10	1874.77
431.28	2251.60
431.47	2359.26
431.66	2485.65
431.85	2237.55
432.03	1923.92
432.22	1905.20
432.41	2094.78
432.60	2239.89
432.79	2267.98
432.97	2267.98
433.16	2361.60
433.35	2024.56
433.54	1872.43
433.72	1720.29
433.91	1724.97
434.10	1944.99
434.28	2148.61
434.47	2338.20
434.66	2293.72
434.85	2221.17
435.03	2111.16
435.22	2263.30
435.41	2520.76
435.59	2403.73
435.78	2429.48
435.97	2438.84
436.16	2551.18
436.34	2502.03
436.53	2466.92
436.72	2342.88
436.90	2289.04
437.09	2382.67
437.28	2284.36
437.46	2312.45
437.65	2312.45
437.84	2143.93
438.02	2017.54
438.21	2031.58
438.40	1912.22
438.58	2251.60
438.77	2218.83
438.96	2293.72
439.14	2314.79
439.33	2422.45
439.52	2558.21
439.70	2420.11
439.89	2445.86
440.08	2298.41
440.26	2272.66
440.45	2354.58
440.63	2691.62
440.82	2691.62
441.01	2733.75
441.19	2626.08
441.38	2717.36
441.57	2836.73
441.75	2810.98
441.94	2876.52
442.12	2796.94
442.31	2963.12
442.50	2857.79
442.68	2752.47
442.87	2820.35
443.05	2895.24
443.24	2839.07
443.43	2862.48
443.61	3091.85
443.80	2956.10
443.98	2619.06
444.17	2825.03
444.35	2958.44
444.54	3066.10
444.73	2836.73
444.91	2904.60
445.10	2803.96
445.28	2448.20
445.47	2593.31
445.65	2544.16
445.84	2527.78
446.02	2813.32
446.21	2750.13
446.39	2944.39
446.58	2883.54
446.77	2843.75
446.95	2813.32
447.14	2956.10
447.32	3038.02
447.51	3033.33
447.69	2895.24
447.88	2738.43
448.06	2764.17
448.25	2928.01
448.43	2956.10
448.62	2832.05
448.80	3019.29
448.99	2810.98
449.17	2874.18
449.36	2913.97
449.54	3012.27
449.73	3002.91
449.91	3002.91
450.10	3105.89
450.28	3157.38
450.46	3232.28
450.65	3063.76
450.83	3133.98
451.02	3012.27
451.20	3098.87
451.39	3101.21
451.57	2965.46
451.76	3141.00
451.94	2935.03
452.13	3026.31
452.31	2853.11
452.49	2766.51
452.68	2939.71
452.86	2810.98
453.05	2806.30
453.23	2862.48
453.42	2939.71
453.60	3014.61
453.78	3012.27
453.97	3077.80
454.15	3063.76
454.34	2998.23
454.52	2949.08
454.70	2888.22
454.89	2829.71
455.07	2906.95
455.26	2885.88
455.44	3035.67
455.62	3204.19
455.81	3112.91
455.99	3152.70
456.17	3094.19
456.36	3126.96
456.54	3173.77
456.73	3225.26
456.91	3279.09
457.09	3239.30
457.28	3379.73
457.46	3267.39
457.64	3103.55
457.83	3091.85
458.01	2923.33
458.19	2951.42
458.38	3016.95
458.56	3105.89
458.74	3236.96
458.93	3126.96
459.11	3096.53
459.29	3164.40
459.48	3110.57
459.66	3155.04
459.84	3152.70
460.03	3098.87
460.21	3173.77
460.39	3166.74
460.57	3166.74
460.76	3183.13
460.94	3194.83
461.12	3236.96
461.31	3138.66
461.49	3164.40
461.67	3276.75
461.85	3239.30
462.04	3173.77
462.22	3309.52
462.40	3391.44
462.59	3389.10
462.77	3297.81
462.95	3361.01
463.13	3447.61
463.32	3243.98
463.50	3290.79
463.68	3063.76
463.86	3045.04
464.05	3148.02
464.23	2977.16
464.41	3005.25
464.59	2984.18
464.78	3087.17
464.96	3232.28
465.14	3248.66
465.32	3141.00
465.50	3267.39
465.69	3344.63
465.87	3236.96
466.05	3178.45
466.23	3070.78
466.41	2944.39
466.60	2993.55
466.78	3159.72
466.96	3162.06
467.14	3225.26
467.32	3171.43
467.51	3089.51
467.69	2998.23
467.87	3133.98
468.05	3119.93
468.23	3269.73
468.41	3131.64
468.60	3164.40
468.78	3143.34
468.96	3162.06
469.14	3225.26
469.32	3162.06
469.50	3084.83
469.69	3171.43
469.87	2951.42
470.05	3094.19
470.23	3019.29
470.41	3075.46
470.59	3152.70
470.77	3150.36
470.95	3208.87
471.14	3248.66
471.32	3173.77
471.50	3557.61
471.68	3466.33
471.86	3365.69
472.04	3482.72
472.22	3403.14
472.40	3454.63
472.58	3190.15
472.77	3222.92
472.95	3255.69
473.13	3361.01
473.31	3276.75
473.49	3307.18
473.67	3344.63
473.85	3449.95
474.03	3536.55
474.21	3578.68
474.39	3559.95
474.57	3618.47
474.75	3569.32
474.93	3524.85
475.12	3482.72
475.30	3445.27
475.48	3426.54
475.66	3456.97
475.84	3494.42
476.02	3393.78
476.20	3403.14
476.38	3508.46
476.56	3684.00
476.74	3655.92
476.92	3545.91
477.10	3637.19
477.28	3730.81
477.46	3836.14
477.64	3798.69
477.82	3843.16
478.00	3927.42
478.18	3833.80
478.36	3716.77
478.54	3742.52
478.72	3864.22
478.90	3847.84
479.08	3936.78
479.26	3992.95
479.44	4025.72
479.62	4032.74
479.80	4245.73
479.98	4014.02
480.16	4074.87
480.34	3889.97
480.52	3981.25
480.70	4037.42
480.88	3904.01
481.06	4004.66
481.24	4215.30
481.41	4344.03
481.59	4322.97
481.77	4346.37
481.95	4177.86
482.13	4299.56
482.31	4276.16
482.49	4432.97
482.67	4414.25
482.85	4264.46
483.03	4283.18
483.21	4416.59
483.39	4372.12
483.57	4262.12
483.74	4320.63
483.92	4409.57
484.10	4503.19
484.28	4477.44
484.46	4531.28
484.64	4568.73
484.82	4575.75
485.00	4521.92
485.18	4458.72
485.35	4210.62
485.53	3843.16
485.71	3574.00
485.89	3356.33
486.07	3534.21
486.25	3899.33
486.43	4107.64
486.61	4294.88
486.78	4341.69
486.96	4290.20
487.14	4409.57
487.32	4535.96
487.50	4762.99
487.68	4638.94
487.85	4814.48
488.03	4929.17
488.21	4629.58
488.39	4732.56
488.57	4606.17
488.75	4587.45
488.92	4770.01
489.10	5085.98
489.28	5200.67
489.46	5231.10
489.64	5235.78
489.81	5348.12
489.99	5296.63
490.17	5345.78
490.35	5289.61
490.53	5341.10
490.70	5462.81
490.88	5280.25
491.06	5355.15
491.24	5570.48
491.41	5111.73
491.59	4884.70
491.77	4863.63
491.95	4957.25
492.13	5317.70
492.30	5427.70
492.48	5523.66
492.66	5671.12
492.84	5678.14
493.01	5664.10
493.19	5533.03
493.37	5434.72
493.54	5448.77
493.72	5518.98
493.90	5753.04
494.08	5912.19
494.25	5858.36
494.43	5970.71
494.61	6071.35
494.79	6258.59
494.96	5996.45
495.14	5959.00
495.32	5640.69
495.49	5664.10
495.67	5832.62
495.85	5994.11
496.02	6122.84
496.20	6061.99
496.38	5809.21
496.55	5940.28
496.73	5984.75
496.91	6179.01
497.09	6097.10
497.26	6279.66
497.44	6036.24
497.62	6008.16
497.79	5720.27
497.97	5652.39
498.14	5600.90
498.32	5942.62
498.50	5956.66
498.67	6139.23
498.85	5991.77
499.03	6169.65
499.20	6197.74
499.38	6106.46
499.56	6141.57
499.73	6069.01
499.91	6054.97
500.08	5858.36
500.26	5748.36
500.44	5888.79
500.61	5881.77
500.79	5851.34
500.97	5982.41
501.14	5741.33
501.32	5664.10
501.49	5750.70
501.67	5940.28
501.84	6003.47
502.02	6118.16
502.20	6136.88
502.37	6167.31
502.55	6029.22
502.72	6071.35
502.90	6155.61
503.07	6162.63
503.25	6307.74
503.43	6024.54
503.60	5982.41
503.78	5628.99
503.95	5685.16
504.13	6282.00
504.30	6417.75
504.48	6216.46
504.65	6078.37
504.83	6239.87
505.01	6289.02
505.18	6258.59
505.36	6459.88
505.53	6525.41
505.71	6609.67
505.88	6677.55
506.06	6445.84
506.23	6305.40
506.41	6345.19
506.58	6328.81
506.76	6354.55
506.93	6193.06
507.11	6314.77
507.28	6314.77
507.46	6008.16
507.63	6045.60
507.81	6015.18
507.98	5982.41
508.16	6150.93
508.33	6249.23
508.50	6581.59
508.68	6619.04
508.85	6651.80
509.03	6523.07
509.20	6588.61
509.38	6445.84
509.55	6237.53
509.73	6368.60
509.90	6401.37
510.08	6291.36
510.25	6321.79
510.42	6310.08
510.60	6321.79
510.77	6455.20
510.95	6504.35
511.12	6530.09
511.30	6516.05
511.47	6579.25
511.64	6558.18
511.82	6509.03
511.99	6340.51
512.17	6181.35
512.34	6153.27
512.51	6190.72
512.69	6202.42
512.86	6331.15
513.04	6289.02
513.21	6328.81
513.38	6410.73
513.56	6242.21
513.73	5991.77
513.90	6040.92
514.08	6139.23
514.25	6211.78
514.43	6186.04
514.60	6349.87
514.77	6347.53
514.95	6394.34
515.12	6253.91
515.29	6279.66
515.47	6408.39
515.64	6637.76
515.81	6413.07
515.99	6373.28
516.16	5837.30
516.33	5345.78
516.51	5118.75
516.68	5022.79
516.85	5027.47
517.03	4908.10
517.20	5493.24
517.37	5841.98
517.54	6183.70
517.72	6228.17
517.89	5738.99
518.06	5198.33
518.24	5125.77
518.41	5750.70
518.58	5802.19
518.75	5951.98
518.93	5944.96
519.10	6064.33
519.27	6108.80
519.45	6024.54
519.62	6307.74
519.79	6382.64
519.96	6377.96
520.14	6139.23
520.31	5968.37
520.48	5937.94
520.65	6069.01
520.83	6258.59
521.00	6478.60
521.17	6333.49
521.34	6251.57
521.52	6249.23
521.69	6328.81
521.86	6335.83
522.03	6401.37
522.20	6115.82
522.38	6043.26
522.55	5951.98
522.72	6080.71
522.89	6125.18
523.07	6099.44
523.24	6246.89
523.41	6338.17
523.58	6504.35
523.75	6551.16
523.92	6569.88
524.10	6717.34
524.27	6558.18
524.44	6413.07
524.61	6509.03
524.78	6541.80
524.96	6544.14
525.13	6291.36
525.30	6415.41
525.47	6693.93
525.64	6539.46
525.81	6143.91
525.98	5984.75
526.16	5713.25
526.33	5495.58
526.50	5472.17
526.67	5469.83
526.84	5678.14
527.01	5809.21
527.18	5893.47
527.36	6090.07
527.53	6307.74
527.70	6457.54
527.87	6324.13
528.04	6284.34
528.21	6282.00
528.38	6424.77
528.55	6513.71
528.72	6642.44
528.89	6759.47
529.07	6642.44
529.24	6415.41
529.41	6277.32
529.58	6143.91
529.75	6136.88
529.92	6384.98
530.09	6661.16
530.26	6546.48
530.43	6787.55
530.60	6597.97
530.77	6619.04
530.94	6689.25
531.11	6424.77
531.28	6448.18
531.46	6457.54
531.63	6401.37
531.80	6282.00
531.97	6146.25
532.14	6076.03
532.31	5858.36
532.48	5851.34
532.65	5865.38
532.82	5874.74
532.99	6272.64
533.16	6282.00
533.33	6473.92
533.50	6321.79
533.67	6092.41
533.84	6005.81
534.01	6188.38
534.18	6078.37
534.35	6214.12
534.52	6174.33
534.69	6183.70
534.86	6218.80
535.03	6370.94
535.20	6448.18
535.37	6499.67
535.54	6609.67
535.71	6555.84
535.88	6614.35
536.05	6249.23
536.22	6104.12
536.38	6136.88
536.55	5849.00
536.72	5818.57
536.89	5951.98
537.06	6101.78
537.23	6171.99
537.40	6246.89
537.57	6249.23
537.74	6176.67
537.91	6179.01
538.08	6244.55
538.25	6197.74
538.42	6139.23
538.59	6305.40
538.75	6108.80
538.92	6073.69
539.09	5980.07
539.26	5827.93
539.43	5769.42
539.60	5825.59
539.77	6080.71
539.94	5998.79
540.11	5753.04
540.28	5734.31
540.44	5640.69
540.61	5617.29
540.78	5811.55
540.95	5874.74
541.12	5921.56
541.29	6146.25
541.46	6101.78
541.62	6015.18
541.79	6054.97
541.96	5977.73
542.13	5792.83
542.30	6092.41
542.47	6078.37
542.63	5982.41
542.80	5884.11
542.97	5774.10
543.14	5928.58
543.31	5823.25
543.48	6094.76
543.64	6258.59
543.81	6209.44
543.98	6190.72
544.15	5987.09
544.32	5844.32
544.48	5994.11
544.65	5951.98
544.82	5930.92
544.99	6122.84
545.16	5966.03
545.32	5856.02
545.49	5968.37
545.66	6148.59
545.83	6033.90
546.00	5947.30
546.16	5895.81
546.33	5895.81
546.50	5907.51
546.67	6005.81
546.83	5994.11
547.00	5900.49
547.17	5701.54
547.34	5692.18
547.50	5893.47
547.67	5905.17
547.84	5809.21
548.00	5951.98
548.17	5902.83
548.34	5858.36
548.51	5937.94
548.67	5921.56
548.84	5919.21
549.01	6040.92
549.18	5926.24
549.34	6059.65
549.51	5954.32
549.68	5907.51
549.84	5633.67
550.01	5940.28
550.18	5769.42
550.34	5830.27
550.51	5834.96
550.68	5853.68
550.84	5713.25
551.01	5811.55
551.18	5675.80
551.34	5818.57
551.51	5893.47
551.68	5951.98
551.84	5916.87
552.01	5956.66
552.18	5668.78
552.34	5570.48
552.51	5664.10
552.68	5465.15
552.84	5720.27
553.01	5678.14
553.18	5706.23
553.34	5851.34
553.51	5827.93
553.67	5844.32
553.84	5764.74
554.01	5820.91
554.17	5907.51
554.34	5689.84
554.51	5633.67
554.67	5764.74
554.84	6012.84
555.00	5703.89
555.17	5638.35
555.33	5687.50
555.50	5799.85
555.67	5685.16
555.83	5628.99
556.00	5350.46
556.16	5687.50
556.33	5394.93
556.50	5523.66
556.66	5446.43
556.83	5423.02
556.99	5432.38
557.16	5526.00
557.32	5610.26
557.49	5607.92
557.65	5458.13
557.82	5558.77
557.98	5687.50
558.15	5479.19
558.32	5345.78
558.48	5125.77
558.65	5139.82
558.81	5298.97
558.98	5186.63
559.14	5282.59
559.31	5322.38
559.47	5214.71
559.64	5280.25
559.80	5228.76
559.97	5238.12
560.13	5291.95
560.30	5495.58
560.46	5617.29
560.63	5643.03
560.79	5565.79
560.96	5643.03
561.12	5235.78
561.29	5231.10
561.45	5210.03
561.61	5437.06
561.78	5355.15
561.94	5135.14
562.11	5191.31
562.27	5472.17
562.44	5268.55
562.60	5252.16
562.77	5444.09
562.93	5341.10
563.10	5401.96
563.26	5280.25
563.42	5334.08
563.59	5308.34
563.75	5287.27
563.92	5336.42
564.08	5193.65
564.24	5212.37
564.41	5298.97
564.57	5338.76
564.74	5212.37
564.90	5207.69
565.07	5076.62
565.23	5018.11
565.39	4999.38
565.56	4819.16
565.72	4856.61
565.88	4917.47
566.05	4978.32
566.21	5004.07
566.38	5078.96
566.54	5172.58
566.70	5240.46
566.87	5179.61
567.03	5125.77
567.19	5163.22
567.36	5081.30
567.52	5062.58
567.68	5053.22
567.85	4767.67
568.01	4922.15
568.17	4880.02
568.34	4882.36
568.50	4788.74
568.66	4983.00
568.83	4903.42
568.99	5097.69
569.15	5018.11
569.32	5046.20
569.48	4940.87
569.64	4833.21
569.81	4858.95
569.97	4627.24
570.13	4847.25
570.30	4741.93
570.46	4676.39
570.62	4601.49
570.78	4571.07
570.95	4587.45
571.11	4751.29
571.27	4737.24
571.43	4823.84
571.60	4940.87
571.76	4997.04
571.92	4959.60
572.09	4978.32
572.25	5011.09
572.41	4999.38
572.57	4990.02
572.74	4940.87
572.90	4908.10
573.06	4887.04
573.22	4912.78
573.38	4828.53
573.55	4755.97
573.71	4875.34
573.87	4809.80
574.03	4699.80
574.20	4882.36
574.36	4844.91
574.52	4753.63
574.68	4664.69
574.84	4751.29
575.01	4599.15
575.17	4409.57
575.33	4472.76
575.49	4716.18
575.65	4589.79
575.82	4732.56
575.98	4608.51
576.14	4678.73
576.30	4732.56
576.46	4678.73
576.62	4582.77
576.79	4826.18
576.95	4695.11
577.11	4514.89
577.27	4627.24
577.43	4716.18
577.59	4444.68
577.75	4449.36
577.92	4428.29
578.08	4397.87
578.24	4524.26
578.40	4444.68
578.56	4468.08
578.72	4491.49
578.88	4554.68
579.04	4503.19
579.21	4468.08
579.37	4528.94
579.53	4519.57
579.69	4580.43
579.85	4638.94
580.01	4578.09
580.17	4564.04
580.33	4550.00
580.49	4475.10
580.65	4475.10
580.82	4592.13
580.98	4587.45
581.14	4683.41
581.30	4447.02
581.46	4535.96
581.62	4512.55
581.78	4507.87
581.94	4608.51
582.10	4472.76
582.26	4564.04
582.42	4362.76
582.58	4559.36
582.74	4505.53
582.90	4575.75
583.06	4442.34
583.22	4617.88
583.38	4407.23
583.54	4519.57
583.70	4482.13
583.86	4568.73
584.02	4617.88
584.18	4564.04
584.34	4451.70
584.50	4531.28
584.66	4561.70
584.82	4278.50
584.98	4510.21
585.14	4367.44
585.30	4322.97
585.46	4142.75
585.62	4285.52
585.78	4138.07
585.94	4301.90
586.10	4390.84
586.26	4189.56
586.42	4154.45
586.58	4428.29
586.74	4322.97
586.90	4257.43
587.06	4280.84
587.22	4416.59
587.38	4306.59
587.54	4346.37
587.70	4187.22
587.86	4100.62
588.02	4227.01
588.18	4147.43
588.34	3911.04
588.49	3707.41
588.65	3588.04
588.81	3571.66
588.97	3616.13
589.13	3562.30
589.29	3655.92
589.45	3566.98
589.61	3515.48
589.77	3721.45
589.93	3964.87
590.08	3957.85
590.24	4145.09
590.40	4084.23
590.56	4093.60
590.72	4098.28
590.88	4028.06
591.04	4088.92
591.20	3913.38
591.35	3918.06
591.51	3950.82
591.67	3929.76
591.83	3871.25
591.99	4149.77
592.15	4093.60
592.31	4037.42
592.46	4084.23
592.62	3992.95
592.78	3836.14
592.94	3915.72
593.10	3962.53
593.26	4037.42
593.41	3992.95
593.57	3960.19
593.73	3960.19
593.89	3885.29
594.05	3859.54
594.20	3777.62
594.36	3826.78
594.52	3679.32
594.68	3669.96
594.84	3789.33
594.99	3796.35
595.15	3662.94
595.31	3829.12
595.47	3815.07
595.62	3859.54
595.78	3892.31
595.94	3925.08
596.10	3920.40
596.25	4004.66
596.41	3868.91
596.57	3920.40
596.73	3864.22
596.88	3882.95
597.04	3770.60
597.20	3864.22
597.36	3742.52
597.51	3707.41
597.67	3824.44
597.83	3754.22
597.99	3824.44
