SpectraSuite Data File
++++++++++++++++++++++++++++++++++++
Date: Mon Oct 07 14:54:54 GMT-05:00 2013
User: price-jones
Dark Spectrum Present: No
Reference Spectrum Present: No
Number of Sampled Component Spectra: 1
Spectrometers: USB2+H05261
Integration Time (usec): 10000 (USB2+H05261)
Spectra Averaged: 1 (USB2+H05261)
Boxcar Smoothing: 0 (USB2+H05261)
Correct for Electrical Dark: No (USB2+H05261)
Strobe/Lamp Enabled: No (USB2+H05261)
Correct for Detector Non-linearity: No (USB2+H05261)
Correct for Stray Light: No (USB2+H05261)
Number of Pixels in Processed Spectrum: 2048
>>>>>Begin Processed Spectral Data<<<<<
365.73	0.00
365.92	0.00
366.12	0.00
366.32	0.00
366.52	0.00
366.72	0.00
366.91	0.00
367.11	0.00
367.31	0.00
367.51	0.00
367.70	0.00
367.90	0.00
368.10	0.00
368.30	0.00
368.49	0.00
368.69	0.00
368.89	0.00
369.09	0.00
369.28	0.00
369.48	0.00
369.68	0.00
369.87	0.00
370.07	0.00
370.27	0.00
370.47	0.00
370.66	0.00
370.86	0.00
371.06	77.24
371.25	23.41
371.45	0.00
371.65	0.00
371.84	0.00
372.04	4.68
372.24	0.00
372.44	35.11
372.63	2.34
372.83	0.00
373.03	49.15
373.22	0.00
373.42	0.00
373.62	9.36
373.81	0.00
374.01	49.15
374.21	0.00
374.40	0.00
374.60	18.72
374.79	32.77
374.99	46.81
375.19	51.49
375.38	107.66
375.58	74.90
375.78	107.66
375.97	138.09
376.17	81.92
376.37	142.77
376.56	105.32
376.76	114.69
376.95	189.58
377.15	220.01
377.35	142.77
377.54	203.63
377.74	220.01
377.93	163.84
378.13	184.90
378.33	191.92
378.52	138.09
378.72	138.09
378.91	131.07
379.11	180.22
379.31	63.19
379.50	16.38
379.70	70.22
379.89	180.22
380.09	170.86
380.28	224.69
380.48	173.20
380.68	182.56
380.87	184.90
381.07	173.20
381.26	121.71
381.46	100.64
381.65	79.58
381.85	91.28
382.04	60.85
382.24	95.96
382.43	0.00
382.63	0.00
382.83	0.00
383.02	16.38
383.22	0.00
383.41	21.06
383.61	23.41
383.80	67.88
384.00	95.96
384.19	110.01
384.39	124.05
384.58	147.45
384.78	184.90
384.97	299.59
385.17	175.54
385.36	88.94
385.56	177.88
385.75	81.92
385.95	138.09
386.14	264.48
386.34	159.16
386.53	142.77
386.72	95.96
386.92	138.09
387.11	191.92
387.31	159.16
387.50	205.97
387.70	231.71
387.89	142.77
388.09	184.90
388.28	152.13
388.48	255.12
388.67	266.82
388.86	297.25
389.06	348.74
389.25	243.42
389.45	304.27
389.64	311.29
389.84	358.10
390.03	276.18
390.22	257.46
390.42	311.29
390.61	372.15
390.81	351.08
391.00	367.46
391.19	351.08
391.39	353.42
391.58	369.80
391.78	250.44
391.97	360.44
392.16	269.16
392.36	250.44
392.55	74.90
392.75	0.00
392.94	0.00
393.13	16.38
393.33	0.00
393.52	119.37
393.71	238.73
393.91	280.86
394.10	376.83
394.29	379.17
394.49	337.04
394.68	437.68
394.88	428.32
395.07	479.81
395.26	463.43
395.46	475.13
395.65	409.59
395.84	287.89
396.04	292.57
396.23	107.66
396.42	65.54
396.62	39.79
396.81	121.71
397.00	210.65
397.19	297.25
397.39	423.64
397.58	482.15
397.77	554.71
397.97	613.22
398.16	526.62
398.35	526.62
398.55	655.35
398.74	664.71
398.93	690.46
399.12	671.73
399.32	645.99
399.51	732.59
399.70	727.91
399.90	720.88
400.09	704.50
400.28	751.31
400.47	690.46
400.67	727.91
400.86	791.10
401.05	793.44
401.24	837.91
401.44	713.86
401.63	830.89
401.82	791.10
402.01	774.72
402.21	851.96
402.40	816.85
402.59	828.55
402.78	676.41
402.97	709.18
403.17	830.89
403.36	732.59
403.55	875.36
403.74	912.81
403.93	807.48
404.13	833.23
404.32	791.10
404.51	781.74
404.70	741.95
404.89	847.27
405.09	861.32
405.28	758.33
405.47	887.06
405.66	798.12
405.85	807.48
406.05	774.72
406.24	777.06
406.43	795.78
406.62	823.87
406.81	903.45
407.00	704.50
407.20	734.93
407.39	788.76
407.58	849.61
407.77	819.19
407.96	828.55
408.15	938.55
408.34	924.51
408.54	966.64
408.73	973.66
408.92	929.19
409.11	901.11
409.30	765.36
409.49	805.14
409.68	636.63
409.87	648.33
410.07	802.80
410.26	880.04
410.45	894.08
410.64	1020.47
410.83	943.24
411.02	1093.03
411.21	1036.86
411.40	1034.52
411.59	1027.50
411.78	954.94
411.98	945.58
412.17	887.06
412.36	1029.84
412.55	1022.81
412.74	978.34
412.93	1018.13
413.12	889.40
413.31	1020.47
413.50	1041.54
413.69	1057.92
413.88	1004.09
414.07	1048.56
414.26	961.96
414.45	994.73
414.64	992.39
414.83	1071.97
415.02	1022.81
415.22	1067.28
415.41	1048.56
415.60	1083.67
415.79	1247.51
415.98	1184.31
416.17	1200.69
416.36	1139.84
416.55	1137.50
416.74	1090.69
416.93	933.87
417.12	1074.31
417.31	1149.20
417.50	1029.84
417.69	1149.20
417.88	1107.07
418.07	1102.39
418.26	1100.05
418.45	1135.16
418.64	1100.05
418.83	1198.35
419.02	1247.51
419.21	1088.35
419.39	1081.33
419.58	990.05
419.77	1102.39
419.96	1107.07
420.15	1205.38
420.34	1116.44
420.53	1336.45
420.72	1233.46
420.91	1226.44
421.10	1261.55
421.29	1273.25
421.48	1144.52
421.67	1287.29
421.86	1156.22
422.05	1090.69
422.24	983.02
422.43	952.60
422.61	1090.69
422.80	1280.27
422.99	1081.33
423.18	1149.20
423.37	1205.38
423.56	1046.22
423.75	1167.93
423.94	1184.31
424.13	1205.38
424.32	1160.91
424.50	1114.10
424.69	1125.80
424.88	1043.88
425.07	1020.47
425.26	1053.24
425.45	1130.48
425.64	1050.90
425.83	1144.52
426.01	1081.33
426.20	1212.40
426.39	1238.14
426.58	1083.67
426.77	992.39
426.96	896.43
427.15	1032.18
427.33	1008.77
427.52	1111.75
427.71	1242.82
427.90	1177.29
428.09	1086.01
428.28	1013.45
428.46	1071.97
428.65	980.68
428.84	1039.20
429.03	1032.18
429.22	1055.58
429.40	940.90
429.59	901.11
429.78	634.29
429.97	664.71
430.16	828.55
430.34	657.69
430.53	697.48
430.72	697.48
430.91	844.93
431.10	1020.47
431.28	1170.27
431.47	1341.13
431.66	1348.15
431.85	1240.48
432.03	1104.73
432.22	1128.14
432.41	1064.94
432.60	1114.10
432.79	1212.40
432.97	1310.70
433.16	1174.95
433.35	1221.76
433.54	1078.99
433.72	952.60
433.91	1029.84
434.10	1177.29
434.28	1163.25
434.47	1263.89
434.66	1310.70
434.85	1207.72
435.03	1249.85
435.22	1214.74
435.41	1350.49
435.59	1383.26
435.78	1387.94
435.97	1362.19
436.16	1376.24
436.34	1364.53
436.53	1390.28
436.72	1329.42
436.90	1406.66
437.09	1299.00
437.28	1256.87
437.46	1376.24
437.65	1404.32
437.84	1146.86
438.02	1064.94
438.21	1088.35
438.40	1069.62
438.58	1228.78
438.77	1291.98
438.96	1352.83
439.14	1411.34
439.33	1383.26
439.52	1369.21
439.70	1394.96
439.89	1214.74
440.08	1324.74
440.26	1261.55
440.45	1380.92
440.63	1439.43
440.82	1603.27
441.01	1540.07
441.19	1446.45
441.38	1444.11
441.57	1521.35
441.75	1605.61
441.94	1530.71
442.12	1621.99
442.31	1554.12
442.50	1750.72
442.68	1631.35
442.87	1572.84
443.05	1575.18
443.24	1540.07
443.43	1678.16
443.61	1654.76
443.80	1741.36
443.98	1610.29
444.17	1577.52
444.35	1650.08
444.54	1720.29
444.73	1645.40
444.91	1610.29
445.10	1589.22
445.28	1444.11
445.47	1345.81
445.65	1434.75
445.84	1526.03
446.02	1575.18
446.21	1678.16
446.39	1558.80
446.58	1643.06
446.77	1657.10
446.95	1701.57
447.14	1645.40
447.32	1750.72
447.51	1722.63
447.69	1537.73
447.88	1638.38
448.06	1626.67
448.25	1645.40
448.43	1535.39
448.62	1596.25
448.80	1593.90
448.99	1694.55
449.17	1696.89
449.36	1657.10
449.54	1783.49
449.73	1706.25
449.91	1795.19
450.10	1818.60
450.28	1877.11
450.46	1748.38
450.65	1774.13
450.83	1863.07
451.02	1748.38
451.20	1818.60
451.39	1748.38
451.57	1703.91
451.76	1706.25
451.94	1769.44
452.13	1612.63
452.31	1533.05
452.49	1551.78
452.68	1441.77
452.86	1612.63
453.05	1603.27
453.23	1652.42
453.42	1689.87
453.60	1717.95
453.78	1774.13
453.97	1729.66
454.15	1689.87
454.34	1701.57
454.52	1640.72
454.70	1598.59
454.89	1654.76
455.07	1666.46
455.26	1643.06
455.44	1699.23
455.62	1783.49
455.81	1750.72
455.99	1647.74
456.17	1743.70
456.36	1769.44
456.54	1832.64
456.73	1764.76
456.91	1741.36
457.09	1905.20
457.28	1813.92
457.46	1839.66
457.64	1762.42
457.83	1895.83
458.01	1692.21
458.19	1750.72
458.38	1680.50
458.56	1802.21
458.74	1823.28
458.93	1757.74
459.11	1699.23
459.29	1825.62
459.48	1839.66
459.66	1811.57
459.84	1783.49
460.03	1743.70
460.21	1685.19
460.39	1839.66
460.57	1710.93
460.76	1809.23
460.94	1961.37
461.12	1905.20
461.31	1867.75
461.49	1750.72
461.67	1837.32
461.85	1891.15
462.04	1963.71
462.22	1928.60
462.40	1930.94
462.59	1902.86
462.77	1837.32
462.95	1827.96
463.13	1900.52
463.32	1811.57
463.50	1863.07
463.68	1870.09
463.86	1820.94
464.05	1785.83
464.23	1727.32
464.41	1736.68
464.59	1687.53
464.78	1736.68
464.96	1879.45
465.14	1809.23
465.32	1834.98
465.50	1809.23
465.69	1942.64
465.87	1818.60
466.05	1788.17
466.23	1717.95
466.41	1549.43
466.60	1729.66
466.78	1645.40
466.96	1842.00
467.14	1783.49
467.32	1767.10
467.51	1804.55
467.69	1596.25
467.87	1774.13
468.05	1790.51
468.23	1788.17
468.41	1891.15
468.60	1886.47
468.78	1727.32
468.96	1743.70
469.14	1888.81
469.32	1895.83
469.50	1804.55
469.69	1856.04
469.87	1785.83
470.05	1720.29
470.23	1696.89
470.41	1760.08
470.59	1783.49
470.77	1760.08
470.95	1837.32
471.14	1877.11
471.32	1778.81
471.50	1994.14
471.68	2008.18
471.86	2022.22
472.04	2003.50
472.22	2001.16
472.40	1827.96
472.58	1928.60
472.77	1816.26
472.95	1834.98
473.13	1930.94
473.31	1973.07
473.49	1804.55
473.67	1933.28
473.85	1949.67
474.03	1919.24
474.21	1973.07
474.39	2029.24
474.57	2071.37
474.75	2038.61
474.93	2036.27
475.12	2015.20
475.30	1912.22
475.48	1942.64
475.66	2043.29
475.84	1961.37
476.02	1907.54
476.20	1963.71
476.38	1905.20
476.56	1982.43
476.74	2057.33
476.92	2209.47
477.10	2146.27
477.28	2062.01
477.46	2216.49
477.64	2160.31
477.82	2174.36
478.00	2298.41
478.18	2146.27
478.36	2143.93
478.54	2094.78
478.72	2127.55
478.90	2167.34
479.08	2225.85
479.26	2352.24
479.44	2267.98
479.62	2385.01
479.80	2305.43
479.98	2272.66
480.16	2246.91
480.34	2282.02
480.52	2417.77
480.70	2349.90
480.88	2389.69
481.06	2431.82
481.24	2415.43
481.41	2546.50
481.59	2448.20
481.77	2394.37
481.95	2401.39
482.13	2394.37
482.31	2466.92
482.49	2417.77
482.67	2340.54
482.85	2495.01
483.03	2516.08
483.21	2621.40
483.39	2450.54
483.57	2581.61
483.74	2492.67
483.92	2462.24
484.10	2544.16
484.28	2532.46
484.46	2565.23
484.64	2576.93
484.82	2555.86
485.00	2583.95
485.18	2516.08
485.35	2443.52
485.53	2204.78
485.71	1968.39
485.89	1968.39
486.07	2073.71
486.25	2230.53
486.43	2443.52
486.61	2558.21
486.78	2588.63
486.96	2431.82
487.14	2562.89
487.32	2504.37
487.50	2726.72
487.68	2813.32
487.85	2848.43
488.03	2818.00
488.21	2818.00
488.39	2708.00
488.57	2689.28
488.75	2586.29
488.92	2813.32
489.10	2932.69
489.28	2984.18
489.46	3143.34
489.64	3136.32
489.81	3112.91
489.99	3073.12
490.17	3087.17
490.35	3080.14
490.53	3082.49
490.70	2951.42
490.88	2932.69
491.06	3040.36
491.24	3084.83
491.41	2932.69
491.59	2796.94
491.77	2715.02
491.95	2836.73
492.13	3045.04
492.30	3045.04
492.48	3133.98
492.66	3148.02
492.84	3218.24
493.01	3253.34
493.19	3220.58
493.37	3129.30
493.54	3084.83
493.72	3201.85
493.90	3180.79
494.08	3440.59
494.25	3363.35
494.43	3428.88
494.61	3396.12
494.79	3552.93
494.96	3482.72
495.14	3321.22
495.32	3197.17
495.49	3155.04
495.67	3311.86
495.85	3588.04
496.02	3538.89
496.20	3585.70
496.38	3480.38
496.55	3452.29
496.73	3435.91
496.91	3496.76
497.09	3534.21
497.26	3623.15
497.44	3473.36
497.62	3487.40
497.79	3351.65
497.97	3201.85
498.14	3232.28
498.32	3225.26
498.50	3602.08
498.67	3475.70
498.85	3468.67
499.03	3634.85
499.20	3562.30
499.38	3639.53
499.56	3531.87
499.73	3419.52
499.91	3389.10
500.08	3426.54
500.26	3150.36
500.44	3260.37
500.61	3501.44
500.79	3349.31
500.97	3449.95
501.14	3428.88
501.32	3361.01
501.49	3375.05
501.67	3414.84
501.84	3440.59
502.02	3353.99
502.20	3482.72
502.37	3473.36
502.55	3634.85
502.72	3534.21
502.90	3730.81
503.07	3660.60
503.25	3592.72
503.43	3463.99
503.60	3433.57
503.78	3080.14
503.95	3248.66
504.13	3424.20
504.30	3623.15
504.48	3564.64
504.65	3515.48
504.83	3492.08
505.01	3592.72
505.18	3616.13
505.36	3709.75
505.53	3644.21
505.71	3847.84
505.88	3653.58
506.06	3754.22
506.23	3721.45
506.41	3709.75
506.58	3548.25
506.76	3634.85
506.93	3609.11
507.11	3592.72
507.28	3555.27
507.46	3421.86
507.63	3506.12
507.81	3496.76
507.98	3520.17
508.16	3496.76
508.33	3602.08
508.50	3714.43
508.68	3779.97
508.85	3758.90
509.03	3981.25
509.20	3845.50
509.38	3648.90
509.55	3578.68
509.73	3613.79
509.90	3667.62
510.08	3691.02
510.25	3625.49
510.42	3651.24
510.60	3616.13
510.77	3730.81
510.95	3714.43
511.12	3789.33
511.30	3747.20
511.47	3850.18
511.64	3801.03
511.82	3892.31
511.99	3658.26
512.17	3606.77
512.34	3510.80
512.51	3644.21
512.69	3674.64
512.86	3536.55
513.04	3541.23
513.21	3639.53
513.38	3569.32
513.56	3550.59
513.73	3370.37
513.90	3510.80
514.08	3555.27
514.25	3581.02
514.43	3559.95
514.60	3634.85
514.77	3515.48
514.95	3794.01
515.12	3665.28
515.29	3599.74
515.47	3782.31
515.64	3684.00
515.81	3655.92
515.99	3480.38
516.16	3562.30
516.33	3169.09
516.51	3002.91
516.68	2897.58
516.85	2698.64
517.03	2860.13
517.20	3129.30
517.37	3428.88
517.54	3672.30
517.72	3489.74
517.89	3218.24
518.06	2942.05
518.24	2956.10
518.41	3169.09
518.58	3339.94
518.75	3379.73
518.93	3473.36
519.10	3403.14
519.27	3566.98
519.45	3475.70
519.62	3639.53
519.79	3719.11
519.96	3569.32
520.14	3662.94
520.31	3564.64
520.48	3424.20
520.65	3585.70
520.83	3588.04
521.00	3674.64
521.17	3751.88
521.34	3592.72
521.52	3581.02
521.69	3740.18
521.86	3712.09
522.03	3691.02
522.20	3524.85
522.38	3389.10
522.55	3403.14
522.72	3419.52
522.89	3583.36
523.07	3503.78
523.24	3496.76
523.41	3702.73
523.58	3723.79
523.75	3887.63
523.92	3801.03
524.10	3707.41
524.27	3740.18
524.44	3779.97
524.61	3669.96
524.78	3676.98
524.96	3590.38
525.13	3569.32
525.30	3712.09
525.47	3819.75
525.64	3676.98
525.81	3557.61
525.98	3433.57
526.16	3243.98
526.33	3094.19
526.50	3073.12
526.67	3094.19
526.84	3075.46
527.01	3218.24
527.18	3346.97
527.36	3655.92
527.53	3581.02
527.70	3698.05
527.87	3597.40
528.04	3517.83
528.21	3447.61
528.38	3857.20
528.55	3850.18
528.72	3733.15
528.89	3878.27
529.07	3660.60
529.24	3665.28
529.41	3641.87
529.58	3442.93
529.75	3494.42
529.92	3686.34
530.09	3590.38
530.26	3723.79
530.43	3845.50
530.60	3880.61
530.77	3740.18
530.94	3904.01
531.11	3695.71
531.28	3602.08
531.46	3698.05
531.63	3705.07
531.80	3716.77
531.97	3695.71
532.14	3574.00
532.31	3304.84
532.48	3368.03
532.65	3192.49
532.82	3391.44
532.99	3478.04
533.16	3524.85
533.33	3599.74
533.50	3632.51
533.67	3545.91
533.84	3536.55
534.01	3562.30
534.18	3611.45
534.35	3632.51
534.52	3536.55
534.69	3581.02
534.86	3604.42
535.03	3688.68
535.20	3854.86
535.37	3772.94
535.54	3754.22
535.71	3669.96
535.88	3637.19
536.05	3513.14
536.22	3431.23
536.38	3562.30
536.55	3300.16
536.72	3283.77
536.89	3414.84
537.06	3431.23
537.23	3602.08
537.40	3597.40
537.57	3569.32
537.74	3555.27
537.91	3531.87
538.08	3541.23
538.25	3431.23
538.42	3641.87
538.59	3557.61
538.75	3377.39
538.92	3321.22
539.09	3384.41
539.26	3375.05
539.43	3449.95
539.60	3351.65
539.77	3382.07
539.94	3302.50
540.11	3342.28
540.28	3150.36
540.44	3225.26
540.61	3255.69
540.78	3297.81
540.95	3339.94
541.12	3445.27
541.29	3410.16
541.46	3541.23
541.62	3398.46
541.79	3356.33
541.96	3454.63
542.13	3351.65
542.30	3494.42
542.47	3412.50
542.63	3520.17
542.80	3384.41
542.97	3309.52
543.14	3325.90
543.31	3346.97
543.48	3494.42
543.64	3517.83
543.81	3522.51
543.98	3494.42
544.15	3487.40
544.32	3281.43
544.48	3393.78
544.65	3449.95
544.82	3541.23
544.99	3407.82
545.16	3370.37
545.32	3309.52
545.49	3377.39
545.66	3506.12
545.83	3536.55
546.00	3389.10
546.16	3456.97
546.33	3351.65
546.50	3353.99
546.67	3459.31
546.83	3288.45
547.00	3300.16
547.17	3246.32
547.34	3311.86
547.50	3241.64
547.67	3251.00
547.84	3300.16
548.00	3375.05
548.17	3269.73
548.34	3307.18
548.51	3382.07
548.67	3368.03
548.84	3471.01
549.01	3431.23
549.18	3365.69
549.34	3157.38
549.51	3265.05
549.68	3346.97
549.84	3351.65
550.01	3258.03
550.18	3236.96
550.34	3286.11
550.51	3370.37
550.68	3314.20
550.84	3251.00
551.01	3265.05
551.18	3180.79
551.34	3290.79
551.51	3323.56
551.68	3234.62
551.84	3435.91
552.01	3361.01
552.18	3363.35
552.34	3269.73
552.51	3164.40
552.68	3180.79
552.84	3222.92
553.01	3351.65
553.18	3215.90
553.34	3276.75
553.51	3206.53
553.67	3286.11
553.84	3370.37
554.01	3185.47
554.17	3309.52
554.34	3201.85
554.51	3213.56
554.67	3337.60
554.84	3342.28
555.00	3349.31
555.17	3302.50
555.33	3267.39
555.50	3206.53
555.67	3192.49
555.83	3152.70
556.00	3286.11
556.16	3183.13
556.33	2923.33
556.50	3000.57
556.66	3028.65
556.83	3105.89
556.99	3073.12
557.16	2937.37
557.32	3173.77
557.49	3021.63
557.65	3162.06
557.82	3115.25
557.98	3157.38
558.15	3122.27
558.32	3049.72
558.48	2909.29
558.65	2883.54
558.81	2925.67
558.98	2998.23
559.14	2993.55
559.31	2963.12
559.47	3033.33
559.64	2949.08
559.80	2970.14
559.97	2832.05
560.13	3009.93
560.30	3155.04
560.46	3073.12
560.63	3274.41
560.79	3272.07
560.96	3112.91
561.12	3030.99
561.29	2810.98
561.45	2935.03
561.61	3000.57
561.78	2937.37
561.94	2963.12
562.11	2904.60
562.27	3080.14
562.44	3089.51
562.60	3122.27
562.77	3171.43
562.93	3077.80
563.10	3021.63
563.26	2949.08
563.42	3000.57
563.59	2944.39
563.75	2834.39
563.92	2895.24
564.08	2871.84
564.24	2963.12
564.41	3052.06
564.57	3030.99
564.74	2995.89
564.90	2932.69
565.07	2909.29
565.23	2874.18
565.39	2799.28
565.56	2810.98
565.72	2752.47
565.88	2902.26
566.05	2801.62
566.21	2920.99
566.38	2796.94
566.54	2951.42
566.70	2867.16
566.87	2967.80
567.03	2928.01
567.19	3038.02
567.36	2853.11
567.52	2778.22
567.68	2878.86
567.85	2738.43
568.01	2778.22
568.17	2661.19
568.34	2703.32
568.50	2787.58
568.66	2883.54
568.83	2796.94
568.99	2850.77
569.15	2991.20
569.32	2825.03
569.48	2843.75
569.64	2832.05
569.81	2743.11
569.97	2726.72
570.13	2677.57
570.30	2663.53
570.46	2605.02
570.62	2649.49
570.78	2490.33
570.95	2612.04
571.11	2708.00
571.27	2672.89
571.43	2745.45
571.60	2675.23
571.76	2651.83
571.92	2869.50
572.09	2705.66
572.25	2750.13
572.41	2775.88
572.57	2750.13
572.74	2759.49
572.90	2579.27
573.06	2752.47
573.22	2825.03
573.38	2794.60
573.55	2766.51
573.71	2712.68
573.87	2661.19
574.03	2693.96
574.20	2654.17
574.36	2633.10
574.52	2651.83
574.68	2637.78
574.84	2466.92
575.01	2569.91
575.17	2605.02
575.33	2438.84
575.49	2597.99
575.65	2537.14
575.82	2562.89
575.98	2651.83
576.14	2668.21
576.30	2698.64
576.46	2677.57
576.62	2696.30
576.79	2555.86
576.95	2560.55
577.11	2539.48
577.27	2597.99
577.43	2612.04
577.59	2605.02
577.75	2670.55
577.92	2513.74
578.08	2546.50
578.24	2539.48
578.40	2457.56
578.56	2565.23
578.72	2499.69
578.88	2518.42
579.04	2616.72
579.21	2513.74
579.37	2562.89
579.53	2607.36
579.69	2715.02
579.85	2504.37
580.01	2537.14
580.17	2565.23
580.33	2576.93
580.49	2551.18
580.65	2602.68
580.82	2555.86
580.98	2485.65
581.14	2607.36
581.30	2642.46
581.46	2387.35
581.62	2499.69
581.78	2555.86
581.94	2541.82
582.10	2546.50
582.26	2480.97
582.42	2572.25
582.58	2635.44
582.74	2452.88
582.90	2560.55
583.06	2593.31
583.22	2478.63
583.38	2438.84
583.54	2579.27
583.70	2469.27
583.86	2551.18
584.02	2478.63
584.18	2485.65
584.34	2487.99
584.50	2516.08
584.66	2476.29
584.82	2445.86
584.98	2387.35
585.14	2509.05
585.30	2352.24
585.46	2361.60
585.62	2331.17
585.78	2298.41
585.94	2387.35
586.10	2389.69
586.26	2394.37
586.42	2436.50
586.58	2483.31
586.74	2401.39
586.90	2352.24
587.06	2382.67
587.22	2417.77
587.38	2345.22
587.54	2345.22
587.70	2260.96
587.86	2394.37
588.02	2239.89
588.18	2225.85
588.34	2251.60
588.49	2157.97
588.65	1851.36
588.81	1961.37
588.97	2040.95
589.13	2094.78
589.29	1989.46
589.45	1937.96
589.61	1949.67
589.77	2097.12
589.93	2132.23
590.08	2179.04
590.24	2277.34
590.40	2209.47
590.56	2083.08
590.72	2251.60
590.88	2244.57
591.04	2237.55
591.20	2216.49
591.35	2186.06
591.51	2293.72
591.67	2197.76
591.83	2214.15
591.99	2279.68
592.15	2172.02
592.31	2190.74
592.46	2174.36
592.62	2260.96
592.78	2127.55
592.94	2223.51
593.10	2216.49
593.26	2239.89
593.41	2204.78
593.57	2298.41
593.73	2190.74
593.89	2321.81
594.05	2162.66
594.20	2190.74
594.36	2040.95
594.52	2113.50
594.68	2080.74
594.84	2118.18
594.99	2148.61
595.15	2111.16
595.31	2211.81
595.47	2211.81
595.62	2188.40
595.78	2256.28
595.94	2230.53
596.10	2244.57
596.25	2218.83
596.41	2120.53
596.57	2127.55
596.73	2188.40
596.88	2167.34
597.04	2214.15
597.20	2045.63
597.36	2111.16
597.51	2183.72
597.67	2221.17
597.83	2062.01
597.99	2139.25
598.14	2087.76
598.30	2186.06
598.46	2150.95
598.61	2132.23
598.77	2183.72
598.93	2059.67
599.09	2174.36
599.24	2125.21
599.40	2040.95
599.56	2155.63
599.71	2136.91
