SpectraSuite Data File
++++++++++++++++++++++++++++++++++++
Date: Mon Oct 07 14:53:59 GMT-05:00 2013
User: price-jones
Dark Spectrum Present: No
Reference Spectrum Present: No
Number of Sampled Component Spectra: 1
Spectrometers: USB2+H05261
Integration Time (usec): 100000 (USB2+H05261)
Spectra Averaged: 1 (USB2+H05261)
Boxcar Smoothing: 0 (USB2+H05261)
Correct for Electrical Dark: No (USB2+H05261)
Strobe/Lamp Enabled: No (USB2+H05261)
Correct for Detector Non-linearity: No (USB2+H05261)
Correct for Stray Light: No (USB2+H05261)
Number of Pixels in Processed Spectrum: 2048
>>>>>Begin Processed Spectral Data<<<<<
365.73	0.00
365.92	0.00
366.12	0.00
366.32	0.00
366.52	0.00
366.72	0.00
366.91	0.00
367.11	0.00
367.31	0.00
367.51	0.00
367.70	0.00
367.90	0.00
368.10	0.00
368.30	0.00
368.49	0.00
368.69	0.00
368.89	0.00
369.09	0.00
369.28	0.00
369.48	0.00
369.68	0.00
369.87	0.00
370.07	0.00
370.27	0.00
370.47	814.51
370.66	3419.52
370.86	4149.77
371.06	4339.35
371.25	4400.21
371.45	4037.42
371.65	3681.66
371.84	3382.07
372.04	3545.91
372.24	3976.57
372.44	4049.13
372.63	4049.13
372.83	3845.50
373.03	3358.67
373.22	3164.40
373.42	3262.71
373.62	3779.97
373.81	4250.41
374.01	4058.49
374.21	3775.28
374.40	3375.05
374.60	3485.06
374.79	3899.33
374.99	4755.97
375.19	5095.35
375.38	4917.47
375.58	4716.18
375.78	4573.41
375.97	4793.42
376.17	4868.31
376.37	4830.87
376.56	5104.71
376.76	5343.44
376.95	5797.51
377.15	6015.18
377.35	6340.51
377.54	6679.89
377.74	6588.61
377.93	6679.89
378.13	6436.47
378.33	6214.12
378.52	5673.46
378.72	5537.71
378.91	5371.53
379.11	5205.35
379.31	5043.85
379.50	5074.28
379.70	5542.39
379.89	6083.05
380.09	6459.88
380.28	6604.99
380.48	6572.22
380.68	6476.26
380.87	6230.51
381.07	5830.27
381.26	5462.81
381.46	5163.22
381.65	4926.83
381.85	4833.21
382.04	4479.79
382.24	4238.71
382.43	4063.17
382.63	4046.79
382.83	4084.23
383.02	4021.04
383.22	3967.21
383.41	3932.10
383.61	4451.70
383.80	4877.68
384.00	5448.77
384.19	6232.85
384.39	6401.37
384.58	6710.32
384.78	6349.87
384.97	6324.13
385.17	5926.24
385.36	5783.46
385.56	5446.43
385.75	5589.20
385.95	6122.84
386.14	6612.01
386.34	6743.08
386.53	6392.00
386.72	5881.77
386.92	6083.05
387.11	6427.11
387.31	6778.19
387.50	6462.22
387.70	6399.02
387.89	6298.38
388.09	6335.83
388.28	6438.81
388.48	6380.30
388.67	6862.45
388.86	7494.40
389.06	8166.13
389.25	8524.23
389.45	8601.47
389.64	8528.91
389.84	8461.04
390.03	8344.01
390.22	8465.72
390.42	8638.92
390.61	9221.71
390.81	9703.86
391.00	10064.30
391.19	9877.06
391.39	9537.68
391.58	9046.17
391.78	8346.35
391.97	8395.50
392.16	7730.79
392.36	7117.57
392.55	5577.50
392.75	4650.64
392.94	3679.32
393.13	3698.05
393.33	4285.52
393.52	5540.05
393.71	6700.95
393.91	7662.91
394.10	8339.33
394.29	9029.79
394.49	9696.84
394.68	10537.09
394.88	10298.36
395.07	11014.56
395.26	10635.39
395.46	10366.23
395.65	9813.87
395.84	8566.36
396.04	7288.43
396.23	5823.25
396.42	4933.85
396.62	4737.24
396.81	5619.63
397.00	7019.27
397.19	8805.10
397.39	10579.22
397.58	11808.00
397.77	12610.81
397.97	13205.30
398.16	13008.70
398.35	13603.19
398.55	13865.33
398.74	14719.63
398.93	14817.93
399.12	14736.01
399.32	14237.48
399.51	14539.41
399.70	15538.82
399.90	15033.26
400.09	15360.94
400.28	14911.55
400.47	15267.31
400.67	15915.64
400.86	16376.73
401.05	16528.86
401.24	16444.60
401.44	16699.72
401.63	16798.02
401.82	17036.76
402.01	16844.84
402.21	16837.81
402.40	17219.32
402.59	16489.07
402.78	15922.66
402.97	15342.21
403.17	16126.29
403.36	16741.85
403.55	17762.33
403.74	17865.31
403.93	17125.70
404.13	15896.92
404.32	15297.74
404.51	16112.25
404.70	17586.79
404.89	17252.09
405.09	17245.07
405.28	16549.93
405.47	16519.50
405.66	16484.39
405.85	16009.26
406.05	15634.78
406.24	15777.55
406.43	16617.80
406.62	17334.01
406.81	17282.52
407.00	16631.85
407.20	16226.93
407.39	16369.71
407.58	16910.37
407.77	17476.78
407.96	18148.51
408.15	18494.91
408.34	18562.79
408.54	19281.33
408.73	19513.05
408.92	19419.42
409.11	18984.09
409.30	17795.09
409.49	16690.36
409.68	15939.05
409.87	15346.89
410.07	16365.03
410.26	17764.67
410.45	18520.66
410.64	19143.24
410.83	19564.54
411.02	20006.90
411.21	20980.56
411.40	20587.35
411.59	20685.65
411.78	20594.37
411.98	20163.72
412.17	20587.35
412.36	20023.28
412.55	20259.68
412.74	19711.99
412.93	19449.85
413.12	19363.25
413.31	21542.29
413.50	21523.57
413.69	22108.70
413.88	21160.78
414.07	20255.00
414.26	20702.04
414.45	21788.05
414.64	21717.83
414.83	21830.18
415.02	21228.66
415.22	21001.63
415.41	21575.06
415.60	22169.55
415.79	23321.10
415.98	23791.55
416.17	23716.65
416.36	23000.44
416.55	22869.37
416.74	21996.35
416.93	21483.78
417.12	20919.71
417.31	21724.85
417.50	22302.96
417.69	22377.86
417.88	22555.74
418.07	22618.94
418.26	22422.33
418.45	22209.34
418.64	23019.17
418.83	24018.58
419.02	23482.59
419.21	23508.34
419.39	22431.69
419.58	20875.24
419.77	21294.19
419.96	22146.15
420.15	23807.93
420.34	24463.28
420.53	25010.96
420.72	25565.67
420.91	25256.72
421.10	24575.62
421.29	24613.07
421.48	23828.99
421.67	24915.00
421.86	24465.62
422.05	22712.56
422.24	20521.82
422.43	20030.30
422.61	22202.32
422.80	24257.31
422.99	24472.64
423.18	23391.31
423.37	22684.47
423.56	22742.99
423.75	23309.40
423.94	23728.35
424.13	22630.64
424.32	22387.22
424.50	22586.17
424.69	22216.36
424.88	22483.19
425.07	22398.93
425.26	22120.40
425.45	22087.64
425.64	21596.12
425.83	21598.46
426.01	22974.70
426.20	23623.03
426.39	23482.59
426.58	21673.36
426.77	20294.79
426.96	19487.30
427.15	19899.23
427.33	21902.73
427.52	22562.76
427.71	22820.22
427.90	22129.77
428.09	22075.93
428.28	21701.45
428.46	21006.31
428.65	20514.80
428.84	21074.18
429.03	21343.35
429.22	20620.12
429.40	19515.39
429.59	17867.65
429.78	15452.22
429.97	15688.61
430.16	15639.46
430.34	15882.88
430.53	15894.58
430.72	16137.99
430.91	17884.03
431.10	20945.45
431.28	24779.25
431.47	26810.84
431.66	27140.85
431.85	24727.76
432.03	22625.96
432.22	21277.81
432.41	22665.75
432.60	24835.42
432.79	26010.37
432.97	26623.59
433.16	26155.49
433.35	23658.14
433.54	21226.32
433.72	20224.57
433.91	20453.94
434.10	22930.23
434.28	24519.45
434.47	25837.17
434.66	25638.23
434.85	24783.93
435.03	24563.92
435.22	25582.06
435.41	26806.16
435.59	26532.31
435.78	27410.01
435.97	28142.60
436.16	28299.42
436.34	27786.84
436.53	27005.10
436.72	27367.88
436.90	25673.34
437.09	25881.64
437.28	25219.27
437.46	25965.90
437.65	26092.29
437.84	24788.61
438.02	22574.47
438.21	22221.05
438.40	23269.61
438.58	24999.26
438.77	26148.46
438.96	26663.38
439.14	27594.92
439.33	27737.69
439.52	28847.10
439.70	27660.45
439.89	27569.17
440.08	26354.43
440.26	26230.38
440.45	27438.10
440.63	29053.07
440.82	30455.05
441.01	30347.39
441.19	30022.05
441.38	30155.46
441.57	31213.38
441.75	31824.26
441.94	31838.31
442.12	31608.93
442.31	32264.28
442.50	32027.89
442.68	31730.64
442.87	31805.54
443.05	31150.19
443.24	31314.03
443.43	32128.53
443.61	33130.28
443.80	33095.18
443.98	31103.38
444.17	31054.23
444.35	33172.41
444.54	33663.93
444.73	33195.82
444.91	31835.97
445.10	30424.62
445.28	29268.40
445.47	28819.02
445.65	29392.45
445.84	29848.85
446.02	30981.67
446.21	31365.52
446.39	31349.14
446.58	31550.42
446.77	32318.12
446.95	32531.11
447.14	33481.36
447.32	34164.80
447.51	33359.66
447.69	32196.41
447.88	31697.88
448.06	31990.44
448.25	32795.59
448.43	33083.47
448.62	32215.13
448.80	32203.43
448.99	32428.12
449.17	33024.96
449.36	32844.74
449.54	33905.00
449.73	34403.53
449.91	35007.39
450.10	35723.60
450.28	36243.20
450.46	36070.00
450.65	36081.70
450.83	35721.26
451.02	35117.40
451.20	34778.02
451.39	34588.44
451.57	34455.03
451.76	34581.42
451.94	34550.99
452.13	33455.62
452.31	32053.64
452.49	30583.78
452.68	31199.34
452.86	31201.68
453.05	31171.25
453.23	32687.92
453.42	33078.79
453.60	33914.36
453.78	34188.21
453.97	33495.41
454.15	34485.45
454.34	33558.60
454.52	33354.97
454.70	32762.82
454.89	33495.41
455.07	33013.26
455.26	34012.66
455.44	35236.77
455.62	35449.75
455.81	35868.71
455.99	35454.44
456.17	34904.41
456.36	35005.05
456.54	36273.62
456.73	36079.36
456.91	36615.34
457.09	36772.16
457.28	37769.22
457.46	36400.01
457.64	35644.02
457.83	34857.60
458.01	34054.79
458.19	34813.13
458.38	34883.34
458.56	35976.37
458.74	35892.12
458.93	35639.34
459.11	35620.61
459.29	34895.05
459.48	35208.68
459.66	35250.81
459.84	35498.91
460.03	35531.67
460.21	35992.76
460.39	36561.51
460.57	36418.74
460.76	37109.19
460.94	36973.44
461.12	36718.32
461.31	36774.50
461.49	36409.37
461.67	36797.90
461.85	38024.34
462.04	37741.14
462.22	38553.30
462.40	37979.87
462.59	37453.25
462.77	37619.43
462.95	37399.42
463.13	37188.77
463.32	36648.11
463.50	36821.31
463.68	36704.28
463.86	36577.89
464.05	35899.14
464.23	35555.08
464.41	35208.68
464.59	34668.02
464.78	36264.26
464.96	36261.92
465.14	35962.33
465.32	37102.17
465.50	37736.46
465.69	37888.59
465.87	37092.81
466.05	36596.62
466.23	34876.32
466.41	33935.43
466.60	34796.74
466.78	35049.52
466.96	35431.03
467.14	36194.04
467.32	36877.48
467.51	36720.66
467.69	34869.30
467.87	35615.93
468.05	36027.87
468.23	36409.37
468.41	36252.56
468.60	36512.36
468.78	36685.56
468.96	36107.44
469.14	36945.36
469.32	37123.24
469.50	35267.19
469.69	36180.00
469.87	35239.11
470.05	35232.08
470.23	35278.89
470.41	35154.85
470.59	35721.26
470.77	36051.27
470.95	36793.22
471.14	37195.79
471.32	37069.40
471.50	39068.22
471.68	39295.25
471.86	39203.97
472.04	39468.45
472.22	39592.50
472.40	37556.24
472.58	37174.73
472.77	37132.60
472.95	37886.25
473.13	39037.80
473.31	37855.82
473.49	38061.79
473.67	38983.96
473.85	38927.79
474.03	39938.90
474.21	39908.47
474.39	40931.29
474.57	40868.09
474.75	40430.41
474.93	40032.52
475.12	39835.92
475.30	39461.43
475.48	39161.84
475.66	40023.16
475.84	39913.16
476.02	39711.87
476.20	38724.16
476.38	39620.59
476.56	40432.75
476.74	41003.85
476.92	41045.97
477.10	41715.37
477.28	43154.80
477.46	43007.34
477.64	43405.23
477.82	44116.76
478.00	43992.71
478.18	43086.92
478.36	42813.08
478.54	42513.49
478.72	43264.80
478.90	44257.19
479.08	45467.25
479.26	45757.47
479.44	45558.53
479.62	45308.09
479.80	45560.87
479.98	45743.43
480.16	46183.45
480.34	45301.07
480.52	45858.12
480.70	46452.61
480.88	46043.02
481.06	46635.17
481.24	47299.89
481.41	47992.68
481.59	48296.95
481.77	48413.98
481.95	47964.60
482.13	47739.91
482.31	47154.77
482.49	47976.30
482.67	48395.26
482.85	48509.94
483.03	48772.08
483.21	49621.70
483.39	49322.11
483.57	48430.36
483.74	48147.16
483.92	48170.57
484.10	48598.88
484.28	49766.81
484.46	50000.86
484.64	50302.79
484.82	49289.34
485.00	48987.41
485.18	48421.00
485.35	47007.32
485.53	44062.93
485.71	39983.37
485.89	39643.99
486.07	41675.58
486.25	45088.08
486.43	47517.56
486.61	48502.92
486.78	48074.60
486.96	47995.03
487.14	49544.46
487.32	50450.25
487.50	51351.35
487.68	52322.68
487.85	52732.27
488.03	52734.61
488.21	52376.51
488.39	51620.52
488.57	51098.58
488.75	50728.77
488.92	51758.61
489.10	53565.50
489.28	54930.03
489.46	55547.93
489.64	55402.82
489.81	55728.16
489.99	55143.02
490.17	54960.46
490.35	55458.99
490.53	55061.10
490.70	54600.02
490.88	54885.56
491.06	55636.87
491.24	55519.85
491.41	54672.57
491.59	53132.50
491.77	52175.22
491.95	53570.18
492.13	54494.69
492.30	55543.25
492.48	56219.67
492.66	56978.00
492.84	56877.36
493.01	56598.83
493.19	56226.69
493.37	55798.37
493.54	55674.32
493.72	56172.86
493.90	56985.02
494.08	57684.84
494.25	58117.84
494.43	58035.92
494.61	58459.56
494.79	58660.85
494.96	58452.54
495.14	57726.97
495.32	56760.33
495.49	56336.69
495.67	57254.18
495.85	58637.44
496.02	58749.79
496.20	58677.23
496.38	58307.43
496.55	58178.70
496.73	58775.53
496.91	58754.47
497.09	59423.86
497.26	59547.91
497.44	58901.92
497.62	58466.58
497.79	57748.04
497.97	56711.18
498.14	56877.36
498.32	57836.98
498.50	58581.27
498.67	59126.61
498.85	58976.82
499.03	59203.85
499.20	59451.95
499.38	59320.88
499.56	59049.38
499.73	58866.81
499.91	58375.30
500.08	58026.56
500.26	57270.57
500.44	57581.86
500.61	58452.54
500.79	58419.77
500.97	57930.60
501.14	57733.99
501.32	57612.29
501.49	57724.63
501.67	57907.19
501.84	58375.30
502.02	58595.31
502.20	58693.61
502.37	59016.61
502.55	58934.69
502.72	59231.94
502.90	59788.98
503.07	59702.38
503.25	59178.10
503.43	58485.31
503.60	57733.99
503.78	57462.49
503.95	57666.12
504.13	58922.99
504.30	59845.16
504.48	59646.21
504.65	59391.09
504.83	59238.96
505.01	59805.37
505.18	59964.52
505.36	60636.26
505.53	60697.11
505.71	61029.47
505.88	61120.75
506.06	60418.59
506.23	60074.53
506.41	59568.97
506.58	59891.97
506.76	59915.37
506.93	59849.84
507.11	59505.78
507.28	59786.64
507.46	59449.61
507.63	58869.15
507.81	58557.86
507.98	58546.16
508.16	59536.21
508.33	60074.53
508.50	60261.77
508.68	60654.98
508.85	60996.70
509.03	60952.23
509.20	60683.07
509.38	60210.28
509.55	59344.28
509.73	59643.87
509.90	60236.03
510.08	60273.48
510.25	60088.57
510.42	59894.31
510.60	60233.69
510.77	60189.22
510.95	60874.99
511.12	60870.31
511.30	61240.12
511.47	61272.88
511.64	61518.64
511.82	61251.82
511.99	60376.46
512.17	60004.31
512.34	59629.83
512.51	59611.10
512.69	59847.50
512.86	59730.47
513.04	60261.77
513.21	60207.94
513.38	59983.25
513.56	59473.01
513.73	58740.42
513.90	59079.80
514.08	59309.18
514.25	59576.00
514.43	59564.29
514.60	59711.75
514.77	60004.31
514.95	60062.83
515.12	60170.49
515.29	60093.25
515.47	60612.85
515.64	60704.13
515.81	60254.75
515.99	59763.24
516.16	58567.23
516.33	56397.55
516.51	54834.07
516.68	54178.72
516.85	53764.45
517.03	54007.86
517.20	56793.10
517.37	59075.12
517.54	60067.51
517.72	59566.63
517.89	57308.02
518.06	54901.95
518.24	55253.03
518.41	57354.83
518.58	58571.91
518.75	58775.53
518.93	58958.09
519.10	58719.36
519.27	59367.69
519.45	59615.79
519.62	60238.37
519.79	60537.96
519.96	60280.50
520.14	60027.72
520.31	59107.89
520.48	59128.95
520.65	59381.73
520.83	60516.89
521.00	60720.52
521.17	60285.18
521.34	59924.74
521.52	60196.24
521.69	60734.56
521.86	61289.27
522.03	60701.79
522.20	59732.81
522.38	58539.14
522.55	58728.72
522.72	59203.85
522.89	59341.94
523.07	59594.72
523.24	60079.21
523.41	60732.22
523.58	61102.03
523.75	61322.04
523.92	61013.08
524.10	61172.24
524.27	61251.82
524.44	61176.92
524.61	60860.95
524.78	60683.07
524.96	60523.91
525.13	60608.17
525.30	60727.54
525.47	61050.53
525.64	61132.45
525.81	60521.57
525.98	59061.08
526.16	57893.15
526.33	57214.40
526.50	56849.27
526.67	56568.41
526.84	57106.73
527.01	58012.52
527.18	58780.21
527.36	59620.47
527.53	60472.42
527.70	60750.94
527.87	60221.98
528.04	59908.35
528.21	59990.27
528.38	60647.96
528.55	61249.48
528.72	61715.25
528.89	61705.88
529.07	61345.44
529.24	60720.52
529.41	60156.45
529.58	59760.90
529.75	59695.36
529.92	60264.11
530.09	60662.00
530.26	61207.35
530.43	61345.44
530.60	61371.19
530.77	61638.01
530.94	61528.00
531.11	61059.90
531.28	60671.37
531.46	60793.07
531.63	60753.29
531.80	60767.33
531.97	60243.05
532.14	59765.58
532.31	58789.58
532.48	58049.97
532.65	57951.66
532.82	58913.62
532.99	60030.06
533.16	60280.50
533.33	60788.39
533.50	60643.28
533.67	59976.23
533.84	59564.29
534.01	59856.86
534.18	59966.87
534.35	60214.96
534.52	59922.40
534.69	60271.14
534.86	60500.51
535.03	60680.73
535.20	61235.44
535.37	61530.34
535.54	61401.61
535.71	61235.44
535.88	60863.29
536.05	60313.26
536.22	60086.23
536.38	59784.30
536.55	59206.19
536.72	58658.51
536.89	58459.56
537.06	59320.88
537.23	60264.11
537.40	60310.92
537.57	60388.16
537.74	60039.42
537.91	60051.12
538.08	60079.21
538.25	60362.42
538.42	60362.42
538.59	60278.16
538.75	59489.40
538.92	59451.95
539.09	59260.02
539.26	59089.16
539.43	58805.96
539.60	58808.30
539.77	59025.97
539.94	59091.51
540.11	58183.38
540.28	57680.16
540.44	57872.09
540.61	58082.73
540.78	58305.09
540.95	58777.87
541.12	59285.77
541.29	59332.58
541.46	59601.74
541.62	59749.20
541.79	59536.21
541.96	58810.64
542.13	58810.64
542.30	59173.42
542.47	59292.79
542.63	59042.35
542.80	58887.88
542.97	58752.13
543.14	58803.62
543.31	58908.94
543.48	59341.94
543.64	60111.98
543.81	60530.93
543.98	60229.01
544.15	59391.09
544.32	58789.58
544.48	59030.65
544.65	59529.19
544.82	59800.69
544.99	59597.06
545.16	59021.29
545.32	59082.14
545.49	59608.76
545.66	60058.15
545.83	59629.83
546.00	59348.96
546.16	59180.45
546.33	59208.53
546.50	58995.54
546.67	59615.79
546.83	59182.79
547.00	59147.68
547.17	58588.29
547.34	58005.50
547.50	57979.75
547.67	58464.24
547.84	58667.87
548.00	58794.26
548.17	59164.06
548.34	59091.51
548.51	59180.45
548.67	58979.16
548.84	59334.92
549.01	59187.47
549.18	58815.32
549.34	58908.94
549.51	58885.54
549.68	58880.86
549.84	58653.82
550.01	58672.55
550.18	58185.72
550.34	58618.72
550.51	58578.93
550.68	58848.09
550.84	58157.63
551.01	58138.91
551.18	58159.97
551.34	58492.33
551.51	58845.75
551.68	59093.85
551.84	59199.17
552.01	58803.62
552.18	58686.59
552.34	57965.71
552.51	57783.15
552.68	57485.90
552.84	58124.86
553.01	58197.42
553.18	58120.18
553.34	58487.65
553.51	58494.67
553.67	58639.78
553.84	58658.51
554.01	58770.85
554.17	58429.13
554.34	58396.37
554.51	58599.99
554.67	59070.44
554.84	58553.18
555.00	58398.71
555.17	58305.09
555.33	58347.21
555.50	58131.89
555.67	58291.04
555.83	57822.93
556.00	57724.63
556.16	57733.99
556.33	57169.93
556.50	57137.16
556.66	57298.65
556.83	56982.68
556.99	57202.69
557.16	57045.88
557.32	57549.09
557.49	57652.08
557.65	57731.65
557.82	57654.42
557.98	57439.09
558.15	56884.38
558.32	55969.23
558.48	55330.26
558.65	55730.50
558.81	55950.51
558.98	56151.79
559.14	56430.32
559.31	56542.66
559.47	56563.73
559.64	56268.82
559.80	56072.21
559.97	55983.27
560.13	56362.44
560.30	57111.41
560.46	57605.26
560.63	57956.35
560.79	57923.58
560.96	57549.09
561.12	56451.38
561.29	55669.64
561.45	55884.97
561.61	56336.69
561.78	56697.14
561.94	56456.06
562.11	56308.61
562.27	56198.60
562.44	56734.59
562.60	56992.04
562.77	57008.43
562.93	57071.62
563.10	56914.81
563.26	56231.37
563.42	56423.29
563.59	56034.77
563.75	56289.88
563.92	56519.26
564.08	56069.87
564.24	56488.83
564.41	56498.19
564.57	56694.80
564.74	56165.84
564.90	55789.01
565.07	56240.73
565.23	55435.59
565.39	54845.77
565.56	54894.92
565.72	54557.89
565.88	55161.75
566.05	55171.11
566.21	55482.40
566.38	55487.08
566.54	55538.57
566.70	55814.76
566.87	56254.78
567.03	56193.92
567.19	56280.52
567.36	55763.26
567.52	55964.55
567.68	55880.29
567.85	55171.11
568.01	54768.54
568.17	54206.81
568.34	54527.46
568.50	54440.86
568.66	54473.63
568.83	54686.62
568.99	54841.09
569.15	54813.01
569.32	55075.15
569.48	54628.10
569.64	54410.43
569.81	54150.63
569.97	54164.68
570.13	53923.60
570.30	53640.40
570.46	53127.82
570.62	52608.22
570.78	52657.37
570.95	52938.24
571.11	53574.86
571.27	53961.05
571.43	53986.80
571.60	54499.37
571.76	54368.30
571.92	54616.40
572.09	54688.96
572.25	54827.05
572.41	54766.20
572.57	54578.95
572.74	54747.47
572.90	54096.80
573.06	54443.20
573.22	54284.04
573.38	54160.00
573.55	54307.45
573.71	54377.67
573.87	54171.70
574.03	54202.13
574.20	53806.58
574.36	53741.04
574.52	53584.22
574.68	53579.54
574.84	53247.19
575.01	52584.82
575.17	52535.66
575.33	52945.26
575.49	53139.52
575.65	53436.77
575.82	53057.60
575.98	52807.17
576.14	53319.74
576.30	53521.03
576.46	53495.28
576.62	53382.94
576.79	53268.25
576.95	52842.27
577.11	53207.40
577.27	52846.96
577.43	53277.61
577.59	52669.08
577.75	52509.92
577.92	51590.09
578.08	51672.01
578.24	51480.08
578.40	51662.64
578.56	52062.88
578.72	52074.58
578.88	52168.20
579.04	52577.79
579.21	52575.45
579.37	52425.66
579.53	52624.60
579.69	52804.83
579.85	52987.39
580.01	52547.37
580.17	51962.23
580.33	52210.33
580.49	52030.11
580.65	52449.06
580.82	52790.78
580.98	52493.54
581.14	52320.34
581.30	52566.09
581.46	52549.71
581.62	52568.43
581.78	52680.78
581.94	52978.03
582.10	52842.27
582.26	52825.89
582.42	52559.07
582.58	52659.71
582.74	52388.21
582.90	52458.43
583.06	52645.67
583.22	52385.87
583.38	52308.63
583.54	52041.81
583.70	52348.42
583.86	52252.46
584.02	52044.15
584.18	52273.52
584.34	51695.41
584.50	52025.43
584.66	52182.24
584.82	51384.12
584.98	51180.49
585.14	51021.34
