SpectraSuite Data File
++++++++++++++++++++++++++++++++++++
Date: Mon Oct 07 14:53:57 GMT-05:00 2013
User: price-jones
Dark Spectrum Present: No
Reference Spectrum Present: No
Number of Sampled Component Spectra: 1
Spectrometers: USB2+H05261
Integration Time (usec): 100000 (USB2+H05261)
Spectra Averaged: 1 (USB2+H05261)
Boxcar Smoothing: 0 (USB2+H05261)
Correct for Electrical Dark: No (USB2+H05261)
Strobe/Lamp Enabled: No (USB2+H05261)
Correct for Detector Non-linearity: No (USB2+H05261)
Correct for Stray Light: No (USB2+H05261)
Number of Pixels in Processed Spectrum: 2048
>>>>>Begin Processed Spectral Data<<<<<
365.73	0.00
365.92	0.00
366.12	0.00
366.32	0.00
366.52	0.00
366.72	0.00
366.91	0.00
367.11	0.00
367.31	0.00
367.51	0.00
367.70	0.00
367.90	0.00
368.10	0.00
368.30	0.00
368.49	0.00
368.69	0.00
368.89	0.00
369.09	0.00
369.28	0.00
369.48	0.00
369.68	0.00
369.87	0.00
370.07	0.00
370.27	0.00
370.47	1242.82
370.66	5551.75
370.86	6663.51
371.06	6993.52
371.25	7012.24
371.45	6296.04
371.65	5598.56
371.84	5462.81
372.04	5710.91
372.24	6176.67
372.44	6462.22
372.63	6413.07
372.83	5891.13
373.03	5287.27
373.22	4873.00
373.42	5125.77
373.62	5713.25
373.81	6473.92
374.01	6169.65
374.21	5404.30
374.40	5371.53
374.60	5514.30
374.79	6244.55
374.99	7206.51
375.19	7552.91
375.38	7543.55
375.58	7222.89
375.78	7112.89
375.97	7211.19
376.17	7452.27
376.37	7260.34
376.56	7669.94
376.76	8182.51
376.95	8505.51
377.15	8990.00
377.35	9284.91
377.54	9657.05
377.74	10059.62
377.93	10366.23
378.13	9682.80
378.33	9303.63
378.52	8589.77
378.72	8039.74
378.91	7999.95
379.11	7742.49
379.31	7461.63
379.50	7592.70
379.70	8402.52
379.89	8865.95
380.09	9399.59
380.28	9713.22
380.48	9757.69
380.68	9533.00
380.87	9078.94
381.07	8528.91
381.26	8013.99
381.46	7463.97
381.65	7112.89
381.85	6897.56
382.04	6722.02
382.24	6279.66
382.43	6029.22
382.63	5783.46
382.83	5902.83
383.02	5783.46
383.22	5891.13
383.41	5980.07
383.61	6118.16
383.80	7293.11
384.00	8205.92
384.19	9092.98
384.39	9469.81
384.58	9408.95
384.78	9188.94
384.97	9078.94
385.17	8676.37
385.36	7999.95
385.56	7868.88
385.75	8133.36
385.95	8755.94
386.14	9500.23
386.34	9675.77
386.53	9198.31
386.72	8451.67
386.92	8657.64
387.11	9149.15
387.31	9565.77
387.50	9301.29
387.70	9104.68
387.89	9078.94
388.09	8936.17
388.28	9135.11
388.48	9114.05
388.67	9832.59
388.86	10899.87
389.06	11452.24
389.25	12322.92
389.45	12432.93
389.64	12208.23
389.84	11939.07
390.03	11648.85
390.22	11913.33
390.42	12409.52
390.61	13015.72
390.81	13984.70
391.00	14324.08
391.19	13970.66
391.39	13572.77
391.58	12748.90
391.78	11817.36
391.97	11501.39
392.16	10588.58
392.36	9673.43
392.55	7665.25
392.75	6127.52
392.94	5252.16
393.13	5135.14
393.33	6150.93
393.52	7688.66
393.71	9652.37
393.91	10621.35
394.10	11375.00
394.29	12917.42
394.49	13530.64
394.68	14541.75
394.88	14555.79
395.07	15037.94
395.26	14925.60
395.46	14317.06
395.65	13598.51
395.84	11702.68
396.04	9881.74
396.23	8072.51
396.42	6820.32
396.62	6607.33
396.81	7941.44
397.00	10005.79
397.19	12418.88
397.39	14757.08
397.58	16409.50
397.77	17446.35
397.97	17991.70
398.16	18328.74
398.35	18864.72
398.55	19330.48
398.74	19976.47
398.93	20610.76
399.12	19974.13
399.32	19447.51
399.51	20020.94
399.70	21261.43
399.90	21062.48
400.09	20868.22
400.28	20585.01
400.47	20882.26
400.67	21673.36
400.86	22354.46
401.05	22403.61
401.24	22817.88
401.44	23049.60
401.63	22466.80
401.82	23033.21
402.01	22958.31
402.21	23065.98
402.40	23070.66
402.59	22656.39
402.78	21341.00
402.97	21053.12
403.17	21750.60
403.36	22888.10
403.55	23931.98
403.74	24535.84
403.93	22726.60
404.13	21081.21
404.32	20587.35
404.51	21862.94
404.70	23447.49
404.89	23468.55
405.09	22902.14
405.28	22291.26
405.47	22803.84
405.66	22356.80
405.85	22052.53
406.05	21495.48
406.24	21586.76
406.43	22347.44
406.62	22897.46
406.81	23297.69
407.00	22251.47
407.20	21785.71
407.39	22097.00
407.58	23147.90
407.77	24229.23
407.96	24727.76
408.15	24863.51
408.34	25383.11
408.54	26307.62
408.73	26218.68
408.92	25715.47
409.11	24954.79
409.30	23702.61
409.49	22546.38
409.68	21348.03
409.87	20507.77
410.07	21827.84
410.26	23461.53
410.45	25053.09
410.64	25422.90
410.83	26214.00
411.02	26352.09
411.21	27634.71
411.40	27351.50
411.59	27550.45
411.78	27365.54
411.98	27372.57
412.17	27498.95
412.36	27063.61
412.55	26843.60
412.74	26225.70
412.93	25617.16
413.12	26253.79
413.31	28240.90
413.50	28641.14
413.69	29385.43
413.88	27943.66
414.07	27044.89
414.26	27969.40
414.45	28584.96
414.64	28933.70
414.83	28606.03
415.02	28119.20
415.22	28386.02
415.41	28819.02
415.60	29745.87
415.79	30672.72
415.98	31536.38
416.17	31496.59
416.36	30960.61
416.55	29970.56
416.74	28903.28
416.93	28114.52
417.12	28231.54
417.31	28783.91
417.50	29139.67
417.69	29778.64
417.88	29940.13
418.07	29970.56
418.26	29387.77
418.45	29659.27
418.64	30693.79
418.83	31831.29
419.02	31246.15
419.21	31129.12
419.39	29481.39
419.58	28079.41
419.77	28535.81
419.96	29270.74
420.15	31084.65
420.34	31641.70
420.53	32858.78
420.72	33266.03
420.91	33289.44
421.10	32938.36
421.29	32079.38
421.48	31243.81
421.67	33055.39
421.86	32182.37
422.05	30176.53
422.24	26904.46
422.43	26698.49
422.61	29305.85
422.80	32254.92
422.99	32411.74
423.18	30471.43
423.37	29888.64
423.56	30164.82
423.75	30536.97
423.94	31150.19
424.13	29640.54
424.32	29795.02
424.50	30045.46
424.69	29617.14
424.88	29748.21
425.07	29811.40
425.26	29577.35
425.45	29500.11
425.64	28723.05
425.83	29036.69
426.01	30532.29
426.20	30892.73
426.39	30710.17
426.58	28290.06
426.77	26511.25
426.96	25383.11
427.15	26534.65
427.33	28666.88
427.52	29998.65
427.71	29968.22
427.90	29947.15
428.09	29298.83
428.28	28739.44
428.46	27981.10
428.65	26960.63
428.84	27810.25
429.03	28201.11
429.22	26930.20
429.40	25181.82
429.59	22930.23
429.78	20311.17
429.97	20606.08
430.16	20627.14
430.34	20886.94
430.53	20629.48
430.72	21413.56
430.91	23903.89
431.10	27857.06
431.28	32465.57
431.47	35143.14
431.66	35360.81
431.85	32093.43
432.03	29708.42
432.22	28388.36
432.41	29872.26
432.60	32336.84
432.79	34052.45
432.97	34937.18
433.16	33970.54
433.35	31206.36
433.54	27585.55
433.72	26274.85
433.91	27040.21
434.10	30050.14
434.28	32063.00
434.47	33376.04
434.66	33109.22
434.85	32725.37
435.03	32641.11
435.22	33106.88
435.41	35000.37
435.59	35178.25
435.78	35400.60
435.97	36432.78
436.16	36488.95
436.34	36292.35
436.53	35185.27
436.72	35349.11
436.90	33647.54
437.09	33448.60
437.28	32718.35
437.46	33727.12
437.65	33701.37
437.84	31730.64
438.02	29465.00
438.21	29436.92
438.40	30232.70
438.58	33436.89
438.77	33834.78
438.96	34354.38
439.14	35679.13
439.33	36360.22
439.52	36701.94
439.70	36081.70
439.89	35021.44
440.08	34682.06
440.26	34265.44
440.45	35496.56
440.63	37809.01
440.82	39639.31
441.01	38892.68
441.19	38845.87
441.38	39068.22
441.57	40201.04
441.75	41375.99
441.94	41354.93
442.12	41127.89
442.31	41865.16
442.50	41804.31
442.68	41102.15
442.87	40811.92
443.05	40154.23
443.24	40730.00
443.43	41495.36
443.61	42366.04
443.80	42419.87
443.98	40282.96
444.17	40479.57
444.35	42499.45
444.54	42988.62
444.73	42745.20
444.91	40460.84
445.10	39299.94
445.28	37383.04
445.47	37312.82
445.65	37542.19
445.84	38401.17
446.02	40147.21
446.21	40285.30
446.39	40425.73
446.58	40790.86
446.77	41708.35
446.95	41638.13
447.14	42796.70
447.32	43522.26
447.51	42590.73
447.69	41368.97
447.88	40849.37
448.06	41151.30
448.25	42096.88
448.43	42728.82
448.62	41336.20
448.80	40748.73
448.99	41064.70
449.17	42099.22
449.36	41844.10
449.54	43430.98
449.73	43709.50
449.91	44208.04
450.10	45104.46
450.28	45879.18
450.46	45375.97
450.65	45790.24
450.83	45202.77
451.02	44758.06
451.20	44165.91
451.39	44332.09
451.57	44112.08
451.76	44252.51
451.94	44072.29
452.13	42962.87
452.31	41291.73
452.49	39117.37
452.68	39704.85
452.86	40053.59
453.05	40528.72
453.23	41710.69
453.42	42773.29
453.60	43489.49
453.78	43920.15
453.97	43732.91
454.15	43807.81
454.34	42822.44
454.52	42803.72
454.70	41808.99
454.89	42321.57
455.07	42761.59
455.26	42651.58
455.44	44495.92
455.62	45240.21
455.81	45340.86
455.99	44540.39
456.17	44533.37
456.36	44694.87
456.54	45942.38
456.73	45638.11
456.91	46452.61
457.09	46742.84
457.28	47510.53
457.46	46106.21
457.64	45085.74
457.83	44161.23
458.01	43054.15
458.19	44514.65
458.38	44509.97
458.56	45577.25
458.74	45783.22
458.93	44701.89
459.11	44809.56
459.29	44545.08
459.48	44479.54
459.66	44634.02
459.84	45076.38
460.03	45083.40
460.21	45223.83
460.39	46216.22
460.57	46328.56
460.76	46527.51
460.94	46909.02
461.12	46202.18
461.31	46349.63
461.49	45858.12
461.67	46206.86
461.85	47807.78
462.04	47655.65
462.22	47943.53
462.40	47552.66
462.59	47288.18
462.77	47133.71
462.95	47257.76
463.13	46735.82
463.32	46480.70
463.50	46234.94
463.68	46246.65
463.86	45820.67
464.05	45455.54
464.23	44685.51
464.41	44524.01
464.59	44137.82
464.78	45921.31
464.96	45226.17
465.14	45354.90
465.32	46164.73
465.50	47505.85
465.69	47613.52
465.87	46696.03
466.05	45504.70
466.23	44308.68
466.41	42932.45
466.60	43828.87
466.78	44383.58
466.96	44973.39
467.14	45755.13
467.32	45305.75
467.51	45769.18
467.69	44327.41
467.87	44788.49
468.05	45914.29
468.23	45818.33
468.41	45787.90
468.60	45287.03
468.78	46024.29
468.96	45247.24
469.14	46241.96
469.32	46609.43
469.50	44783.81
469.69	45041.27
469.87	44931.26
470.05	44198.68
470.23	44329.75
470.41	44877.43
470.59	44914.88
470.77	45476.61
470.95	45984.51
471.14	46440.91
471.32	46436.23
471.50	48231.42
471.68	48547.39
471.86	48905.49
472.04	49071.67
472.22	49043.59
472.40	46925.40
472.58	46698.37
472.77	46202.18
472.95	47255.42
473.13	48664.42
473.31	47283.50
473.49	47676.71
473.67	48224.40
473.85	48282.91
474.03	49106.78
474.21	49144.23
474.39	49521.05
474.57	49773.83
474.75	49855.75
474.93	49815.96
475.12	48399.94
475.30	48577.82
475.48	48428.02
475.66	49631.06
475.84	48935.92
476.02	48528.67
476.20	47718.84
476.38	48985.07
476.56	49886.18
476.74	50176.40
476.92	50426.84
477.10	50773.24
477.28	52119.05
477.46	51847.55
477.64	52322.68
477.82	52538.01
478.00	52472.47
478.18	51962.23
478.36	51744.56
478.54	51870.95
478.72	52261.82
478.90	52772.06
479.08	53572.52
479.26	53925.94
479.44	53888.49
479.62	53851.05
479.80	53701.25
479.98	53881.47
480.16	54007.86
480.34	53825.30
480.52	54202.13
480.70	54223.19
480.88	54272.34
481.06	54951.10
481.24	55114.94
481.41	55693.05
481.59	55877.95
481.77	55613.47
481.95	55625.17
482.13	55470.70
482.31	55068.12
482.49	55894.33
482.67	55533.89
482.85	55866.25
483.03	56128.39
483.21	56502.87
483.39	56275.84
483.57	56203.28
483.74	55735.18
483.92	56023.06
484.10	55875.61
484.28	56598.83
484.46	56846.93
484.64	57195.67
484.82	56521.60
485.00	56245.41
485.18	55786.67
485.35	54787.26
485.53	52467.79
485.71	49483.61
485.89	49050.61
486.07	50738.13
486.25	53425.07
486.43	55253.03
486.61	55601.77
486.78	55552.62
486.96	55583.04
487.14	56779.06
487.32	57298.65
487.50	58017.20
487.68	58805.96
487.85	58939.37
488.03	58995.54
488.21	58590.63
488.39	58269.98
488.57	57736.34
488.75	57490.58
488.92	58113.16
489.10	60149.43
489.28	60865.63
489.46	61544.39
489.64	61174.58
489.81	61148.84
489.99	60945.21
490.17	61020.11
490.35	61373.53
490.53	60928.83
490.70	60605.83
490.88	60664.35
491.06	61469.49
491.24	61350.12
491.41	60636.26
491.59	59206.19
491.77	58880.86
491.95	59561.95
492.13	60282.84
492.30	61368.85
492.48	62195.06
492.66	62508.69
492.84	62239.53
493.01	62262.93
493.19	61750.35
493.37	61598.22
493.54	61410.98
493.72	61944.62
493.90	62808.28
494.08	63447.24
494.25	63580.65
494.43	63470.65
494.61	63746.83
494.79	63770.24
494.96	63824.07
495.14	63227.23
495.32	62522.73
495.49	61944.62
495.67	62983.82
495.85	64079.19
496.02	64418.56
496.20	64198.55
496.38	63927.05
496.55	63728.11
496.73	64067.48
496.91	64161.11
497.09	64865.61
497.26	64793.05
497.44	64357.71
497.62	64118.98
497.79	63531.50
497.97	62391.66
498.14	62377.62
498.32	63243.62
498.50	64074.51
498.67	64657.30
498.85	64369.41
499.03	64622.19
499.20	64708.79
499.38	64725.17
499.56	64589.42
499.73	64090.89
499.91	63913.01
500.08	63590.01
500.26	63011.90
500.44	63391.07
500.61	63966.84
500.79	63641.51
500.97	63372.34
501.14	63175.74
501.32	63002.54
501.49	63068.08
501.67	63435.54
501.84	63807.68
502.02	64037.06
502.20	64212.60
502.37	64357.71
502.55	64214.94
502.72	64893.69
502.90	65219.03
503.07	65125.41
503.25	64554.32
503.43	63898.97
503.60	63114.89
503.78	62836.36
503.95	63241.28
504.13	64317.92
504.30	65031.78
504.48	64830.50
504.65	64425.59
504.83	64671.34
505.01	65062.21
505.18	65535.00
505.36	65535.00
505.53	65535.00
505.71	65535.00
505.88	65535.00
506.06	65535.00
506.23	65535.00
506.41	64977.95
506.58	65202.64
506.76	65073.91
506.93	65052.85
507.11	64905.40
507.28	64940.50
507.46	64584.74
507.63	64001.95
507.81	63978.54
507.98	64381.12
508.16	64741.56
508.33	65226.05
508.50	65535.00
508.68	65535.00
508.85	65535.00
509.03	65535.00
509.20	65535.00
509.38	65495.21
509.55	64832.84
509.73	64917.10
509.90	65535.00
510.08	65535.00
510.25	65429.68
510.42	65298.61
510.60	65027.10
510.77	65530.32
510.95	65535.00
511.12	65535.00
511.30	65535.00
511.47	65535.00
511.64	65535.00
511.82	65535.00
511.99	65523.30
512.17	65190.94
512.34	64690.07
512.51	65052.85
512.69	65038.81
512.86	65233.07
513.04	65441.38
513.21	65462.44
513.38	65256.48
513.56	64769.64
513.73	64184.51
513.90	64257.07
514.08	64308.56
514.25	64671.34
514.43	64849.22
514.60	64711.13
514.77	65125.41
514.95	65132.43
515.12	65069.23
515.29	65424.99
515.47	65535.00
515.64	65535.00
515.81	65535.00
515.99	65158.17
516.16	63964.50
516.33	61860.36
516.51	60659.66
516.68	60196.24
516.85	59870.90
517.03	60381.14
517.20	62494.64
517.37	64521.55
517.54	65336.05
517.72	64697.09
517.89	62700.61
518.06	60757.97
518.24	61055.21
518.41	62845.72
518.58	63929.39
518.75	64133.02
518.93	64303.88
519.10	64280.47
519.27	64708.79
519.45	64825.82
519.62	65375.84
519.79	65535.00
519.96	65497.55
520.14	65064.55
520.31	64338.99
520.48	64310.90
520.65	64786.03
520.83	65436.70
521.00	65535.00
521.17	65471.81
521.34	65195.62
521.52	65460.10
521.69	65535.00
521.86	65535.00
522.03	65535.00
522.20	64975.61
522.38	64140.04
522.55	64034.72
522.72	64608.15
522.89	64680.70
523.07	64743.90
523.24	65153.49
523.41	65535.00
523.58	65535.00
523.75	65535.00
523.92	65535.00
524.10	65535.00
524.27	65535.00
524.44	65535.00
524.61	65535.00
524.78	65535.00
524.96	65535.00
525.13	65535.00
525.30	65535.00
525.47	65535.00
525.64	65535.00
525.81	65535.00
525.98	64521.55
526.16	63135.95
526.33	62628.05
526.50	62288.68
526.67	62040.58
526.84	62567.20
527.01	63360.64
527.18	64034.72
527.36	65020.08
527.53	65535.00
527.70	65535.00
527.87	65410.95
528.04	64849.22
528.21	65413.29
528.38	65535.00
528.55	65535.00
528.72	65535.00
528.89	65535.00
529.07	65535.00
529.24	65535.00
529.41	65535.00
529.58	64821.14
529.75	65160.51
529.92	65361.80
530.09	65535.00
530.26	65535.00
530.43	65535.00
530.60	65535.00
530.77	65535.00
530.94	65535.00
531.11	65535.00
531.28	65535.00
531.46	65535.00
531.63	65535.00
531.80	65535.00
531.97	65513.94
532.14	64839.86
532.31	63973.86
532.48	63552.57
532.65	63554.91
532.82	64212.60
532.99	65078.60
533.16	65289.24
533.33	65535.00
533.50	65478.83
533.67	64921.78
533.84	64528.57
534.01	64795.39
534.18	64987.31
534.35	65160.51
534.52	65036.47
534.69	65256.48
534.86	65535.00
535.03	65535.00
535.20	65535.00
535.37	65535.00
535.54	65535.00
535.71	65535.00
535.88	65535.00
536.05	65520.96
536.22	65146.47
536.38	64788.37
536.55	64306.22
536.72	63966.84
536.89	64027.70
537.06	64423.25
537.23	65322.01
537.40	65471.81
537.57	65490.53
537.74	65223.71
537.91	65275.20
538.08	65272.86
538.25	65345.42
538.42	65291.58
538.59	65214.35
538.75	64577.72
538.92	64411.54
539.09	64390.48
539.26	64362.39
539.43	64238.34
539.60	64034.72
539.77	64172.81
539.94	64268.77
540.11	63510.44
540.28	62995.52
540.44	63140.63
540.61	63215.53
540.78	63564.27
540.95	64037.06
541.12	64282.81
541.29	64374.09
541.46	64612.83
541.62	64725.17
541.79	64556.66
541.96	64182.17
542.13	63999.61
542.30	64390.48
542.47	64551.98
542.63	64238.34
542.80	63976.20
542.97	64123.66
543.14	63924.71
543.31	63927.05
543.48	64596.45
543.64	65244.77
543.81	65535.00
543.98	65389.89
544.15	64821.14
544.32	64123.66
544.48	64308.56
544.65	64725.17
544.82	64970.93
544.99	64734.54
545.16	64346.01
545.32	64200.89
545.49	64626.87
545.66	64992.00
545.83	64814.12
546.00	64331.96
546.16	64048.76
546.33	64320.26
546.50	64280.47
546.67	64671.34
546.83	64212.60
547.00	64343.67
547.17	63898.97
547.34	63248.30
547.50	63203.83
547.67	63671.93
547.84	63671.93
548.00	64090.89
548.17	64411.54
548.34	64261.75
548.51	64212.60
548.67	64292.18
548.84	64465.38
549.01	64296.86
549.18	64231.32
549.34	64060.46
549.51	64301.54
549.68	64203.24
549.84	63856.84
550.01	63831.09
550.18	63753.85
550.34	63849.81
550.51	63863.86
550.68	63863.86
550.84	63475.33
551.01	63702.36
551.18	63470.65
551.34	63597.04
551.51	63959.82
551.68	64282.81
551.84	64498.14
552.01	64065.14
552.18	63969.18
552.34	63332.56
552.51	63098.50
552.68	63164.04
552.84	63458.94
553.01	63786.62
553.18	63449.58
553.34	63767.90
553.51	63716.40
553.67	63997.27
553.84	63880.24
554.01	63861.52
554.17	63800.66
554.34	63582.99
554.51	63866.20
554.67	64315.58
554.84	64193.87
555.00	63866.20
555.17	63487.03
555.33	63491.71
555.50	63313.83
555.67	63421.50
555.83	63505.76
556.00	63288.09
556.16	63217.87
556.33	62838.70
556.50	62742.74
556.66	62822.32
556.83	62358.89
556.99	62541.45
557.16	62539.11
557.32	62834.02
557.49	62941.69
557.65	62908.92
557.82	63007.22
557.98	62834.02
558.15	62424.43
558.32	61869.72
558.48	61310.33
558.65	61389.91
558.81	61642.69
558.98	61801.85
559.14	61961.00
559.31	61984.41
559.47	62145.90
559.64	61806.53
559.80	61462.47
559.97	61675.46
560.13	61843.98
560.30	62780.19
560.46	63276.38
560.63	63405.11
560.79	63362.98
560.96	63028.29
561.12	61879.08
561.29	61443.74
561.45	61446.08
561.61	61914.19
561.78	62237.19
561.94	61888.45
562.11	61865.04
562.27	61717.59
562.44	61982.07
562.60	62321.44
562.77	62382.30
562.93	62344.85
563.10	62279.31
563.26	61977.39
563.42	61834.61
563.59	61691.84
563.75	61553.75
563.92	61719.93
564.08	61879.08
564.24	62073.35
564.41	62066.33
564.57	62010.15
564.74	61836.95
564.90	61834.61
565.07	61593.54
565.23	61289.27
565.39	60715.84
565.56	60692.43
565.72	60432.63
565.88	60629.24
566.05	60685.41
566.21	60973.30
566.38	61179.26
566.54	61104.37
566.70	61556.09
566.87	61858.02
567.03	61652.05
567.19	61855.68
567.36	61748.01
567.52	61591.20
567.68	61310.33
567.85	60725.20
568.01	60479.44
568.17	60137.72
568.34	59957.50
568.50	60172.83
568.66	60144.75
568.83	60317.95
568.99	60669.03
569.15	60760.31
569.32	60694.77
569.48	60591.79
569.64	60257.09
569.81	60128.36
569.97	59997.29
570.13	59728.13
570.30	59545.57
570.46	59367.69
570.62	58920.65
570.78	58796.60
570.95	59140.66
571.11	59538.55
571.27	59725.79
571.43	59774.94
571.60	60236.03
571.76	60439.65
571.92	60601.15
572.09	60589.45
572.25	60568.38
572.41	60374.12
572.57	60252.41
572.74	60238.37
572.90	60069.85
573.06	60020.70
573.22	59978.57
573.38	60006.65
573.55	60076.87
573.71	60212.62
573.87	59861.54
574.03	59950.48
574.20	59966.87
574.36	59604.08
574.52	59730.47
574.68	59393.43
574.84	59283.43
575.01	58962.78
575.17	58511.05
575.33	59105.55
575.49	59304.49
575.65	59014.27
575.82	59103.21
575.98	58848.09
576.14	59121.93
576.30	59306.83
576.46	59255.34
576.62	59285.77
576.79	59323.22
576.95	59063.42
577.11	58834.05
577.27	59114.91
577.43	59150.02
577.59	58731.06
577.75	58504.03
577.92	57804.21
578.08	57839.32
578.24	58010.18
578.40	58071.03
578.56	58372.96
578.72	58415.09
578.88	58653.82
579.04	58454.88
579.21	58564.88
579.37	58817.66
579.53	59025.97
579.69	58534.46
579.85	58913.62
580.01	58745.11
580.17	58426.79
580.33	58394.03
580.49	58337.85
580.65	58468.92
580.82	58969.80
580.98	58773.19
581.14	58644.46
581.30	58829.37
581.46	58564.88
581.62	58820.00
581.78	58761.49
581.94	58810.64
582.10	58787.24
582.26	58726.38
582.42	58787.24
582.58	58812.98
582.74	58511.05
582.90	58658.51
583.06	58614.04
583.22	58305.09
583.38	58286.36
583.54	58281.68
583.70	58419.77
583.86	58506.37
584.02	58141.25
584.18	58429.13
584.34	58326.15
584.50	58141.25
584.66	58096.78
584.82	57918.90
