SpectraSuite Data File
++++++++++++++++++++++++++++++++++++
Date: Mon Oct 07 14:55:01 GMT-05:00 2013
User: price-jones
Dark Spectrum Present: No
Reference Spectrum Present: No
Number of Sampled Component Spectra: 1
Spectrometers: USB2+H05261
Integration Time (usec): 10000 (USB2+H05261)
Spectra Averaged: 1 (USB2+H05261)
Boxcar Smoothing: 0 (USB2+H05261)
Correct for Electrical Dark: No (USB2+H05261)
Strobe/Lamp Enabled: No (USB2+H05261)
Correct for Detector Non-linearity: No (USB2+H05261)
Correct for Stray Light: No (USB2+H05261)
Number of Pixels in Processed Spectrum: 2048
>>>>>Begin Processed Spectral Data<<<<<
365.73	0.00
365.92	0.00
366.12	0.00
366.32	0.00
366.52	0.00
366.72	0.00
366.91	0.00
367.11	0.00
367.31	0.00
367.51	0.00
367.70	0.00
367.90	0.00
368.10	0.00
368.30	0.00
368.49	0.00
368.69	0.00
368.89	0.00
369.09	0.00
369.28	0.00
369.48	0.00
369.68	0.00
369.87	0.00
370.07	0.00
370.27	0.00
370.47	322.99
370.66	2427.14
370.86	2708.00
371.06	2956.10
371.25	2937.37
371.45	2801.62
371.65	2424.80
371.84	2377.98
372.04	2509.05
372.24	2862.48
372.44	2841.41
372.63	2836.73
372.83	2417.77
373.03	2176.70
373.22	2080.74
373.42	2246.91
373.62	2738.43
373.81	2752.47
374.01	2766.51
374.21	2415.43
374.40	2235.21
374.60	2434.16
374.79	2909.29
374.99	3328.24
375.19	3335.26
375.38	3440.59
375.58	3094.19
375.78	3096.53
375.97	3166.74
376.17	3337.60
376.37	3449.95
376.56	3548.25
376.76	3761.24
376.95	4030.40
377.15	4189.56
377.35	4297.22
377.54	4594.47
377.74	4667.03
377.93	4727.88
378.13	4353.40
378.33	4210.62
378.52	3833.80
378.72	3873.59
378.91	3604.42
379.11	3571.66
379.31	3536.55
379.50	3501.44
379.70	3794.01
379.89	4257.43
380.09	4374.46
380.28	4741.93
380.48	4430.63
380.68	4454.04
380.87	4255.09
381.07	3929.76
381.26	3667.62
381.46	3365.69
381.65	3407.82
381.85	3323.56
382.04	3035.67
382.24	2860.13
382.43	2789.92
382.63	2642.46
382.83	2736.09
383.02	2731.41
383.22	2717.36
383.41	2745.45
383.61	3000.57
383.80	3660.60
384.00	3894.65
384.19	4550.00
384.39	4601.49
384.58	4561.70
384.78	4449.36
384.97	4482.13
385.17	4056.15
385.36	3990.61
385.56	3721.45
385.75	3946.14
385.95	4365.10
386.14	4770.01
386.34	4636.60
386.53	4451.70
386.72	4234.03
386.92	4231.69
387.11	4655.33
387.31	4744.27
387.50	4784.06
387.70	4362.76
387.89	4496.17
388.09	4578.09
388.28	4610.86
388.48	4702.14
388.67	5123.43
388.86	5465.15
389.06	5919.21
389.25	6132.20
389.45	6139.23
389.64	6157.95
389.84	6040.92
390.03	5839.64
390.22	5947.30
390.42	6380.30
390.61	6649.46
390.81	7009.90
391.00	7213.53
391.19	7059.06
391.39	6794.58
391.58	6494.99
391.78	6069.01
391.97	5905.17
392.16	5458.13
392.36	4657.67
392.55	3688.68
392.75	3040.36
392.94	2471.61
393.13	2726.72
393.33	3454.63
393.52	4231.69
393.71	5102.37
393.91	5643.03
394.10	6230.51
394.29	6876.49
394.49	7253.32
394.68	7782.28
394.88	7819.73
395.07	7911.01
395.26	7648.87
395.46	7435.88
395.65	6916.28
395.84	5935.60
396.04	4870.65
396.23	4060.83
396.42	3389.10
396.62	3538.89
396.81	4442.34
397.00	5568.13
397.19	6897.56
397.39	7934.42
397.58	8872.97
397.77	9291.93
397.97	9607.90
398.16	9825.57
398.35	10143.88
398.55	10186.01
398.74	10888.17
398.93	10878.81
399.12	10721.99
399.32	10078.35
399.51	10485.60
399.70	11335.21
399.90	11166.70
400.09	11068.39
400.28	11089.46
400.47	11265.00
400.67	11836.09
400.86	12266.75
401.05	12161.42
401.24	12149.72
401.44	12332.28
401.63	12676.34
401.82	12489.10
402.01	12336.96
402.21	12861.24
402.40	12641.23
402.59	12060.78
402.78	11585.65
402.97	11433.52
403.17	12046.74
403.36	12868.27
403.55	13146.79
403.74	13233.39
403.93	12552.29
404.13	11297.77
404.32	11679.27
404.51	12339.30
404.70	12805.07
404.89	12664.64
405.09	12652.94
405.28	12414.20
405.47	12271.43
405.66	12257.39
405.85	12002.27
406.05	11688.64
406.24	12102.91
406.43	12372.07
406.62	12889.33
406.81	13006.36
407.00	12549.95
407.20	12102.91
407.39	12306.54
407.58	13130.41
407.77	13582.13
407.96	13806.82
408.15	14265.57
408.34	14092.37
408.54	14801.55
408.73	14733.67
408.92	14572.18
409.11	13942.57
409.30	12999.34
409.49	12308.88
409.68	11936.73
409.87	11777.58
410.07	12638.89
410.26	13617.24
410.45	14310.04
410.64	14387.27
410.83	14555.79
411.02	15021.56
411.21	15655.84
411.40	15279.02
411.59	15878.19
411.78	15798.62
411.98	15566.90
412.17	15941.39
412.36	15683.93
412.55	15351.57
412.74	15066.03
412.93	14562.81
413.12	15232.21
413.31	16568.65
413.50	16596.74
413.69	16973.56
413.88	15887.56
414.07	15969.48
414.26	16659.93
414.45	16329.92
414.64	16287.79
414.83	16505.46
415.02	16343.96
415.22	16393.11
415.41	17053.14
415.60	17406.56
415.79	17947.23
415.98	18249.16
416.17	18040.85
416.36	17898.08
416.55	17638.28
416.74	16624.83
416.93	16603.76
417.12	16662.27
417.31	16826.11
417.50	17025.06
417.69	17804.46
417.88	17390.18
418.07	17319.96
418.26	17088.25
418.45	17301.24
418.64	18099.36
418.83	19234.52
419.02	18286.61
419.21	17745.94
419.39	16915.05
419.58	16428.22
419.77	16980.59
419.96	17965.95
420.15	18768.76
420.34	19061.32
420.53	19482.62
420.72	19971.79
420.91	19548.15
421.10	19456.87
421.29	19159.63
421.48	18857.70
421.67	19737.74
421.86	18799.18
422.05	17050.80
422.24	15791.59
422.43	16353.32
422.61	18412.99
422.80	18963.02
422.99	18499.59
423.18	18104.04
423.37	18209.37
423.56	17994.04
423.75	18841.31
423.94	18890.46
424.13	17631.26
424.32	17802.11
424.50	17893.40
424.69	17701.47
424.88	18001.06
425.07	18111.07
425.26	17839.56
425.45	17198.26
425.64	17153.79
425.83	17626.57
426.01	18218.73
426.20	18581.51
426.39	18347.46
426.58	16559.29
426.77	15819.68
426.96	15838.41
427.15	16484.39
427.33	17600.83
427.52	18040.85
427.71	18345.12
427.90	18010.42
428.09	17605.51
428.28	17254.43
428.46	16486.73
428.65	16746.53
428.84	17240.39
429.03	16872.92
429.22	16020.97
429.40	15201.78
429.59	13668.73
429.78	12252.70
429.97	12554.63
430.16	12624.85
430.34	12538.25
430.53	12865.92
430.72	13502.55
430.91	14944.32
431.10	17598.49
431.28	20095.84
431.47	21692.08
431.66	21205.25
431.85	19096.43
432.03	17572.74
432.22	17528.27
432.41	19021.53
432.60	20573.31
432.79	20978.22
432.97	21558.67
433.16	20601.40
433.35	18347.46
433.54	16580.36
433.72	16301.83
433.91	17324.65
434.10	19374.95
434.28	20435.22
434.47	21167.80
434.66	20365.00
434.85	19857.10
435.03	20306.49
435.22	20744.17
435.41	21558.67
435.59	22066.57
435.78	22136.79
435.97	22693.83
436.16	22827.24
436.34	22391.91
436.53	21851.24
436.72	22122.74
436.90	20758.21
437.09	21095.25
437.28	20837.79
437.46	21790.39
437.65	20706.72
437.84	19192.39
438.02	18068.94
438.21	18307.67
438.40	18937.27
438.58	20671.61
438.77	21305.90
438.96	21504.84
439.14	22951.29
439.33	22967.68
439.52	23201.73
439.70	22534.68
439.89	21572.72
440.08	21177.17
440.26	21741.24
440.45	22361.48
440.63	24514.77
440.82	25041.39
441.01	24622.44
441.19	24343.91
441.38	25113.95
441.57	26022.08
441.75	25862.92
441.94	26192.94
442.12	26157.83
442.31	26459.76
442.50	26347.41
442.68	25762.28
442.87	25855.90
443.05	25439.28
443.24	26260.81
443.43	26579.12
443.61	26749.98
443.80	27218.09
443.98	26274.85
444.17	25563.33
444.35	26969.99
444.54	28168.35
444.73	27332.78
444.91	25535.24
445.10	24692.65
445.28	23976.45
445.47	23683.88
445.65	24105.18
445.84	24926.71
446.02	25436.94
446.21	26239.75
446.39	26005.69
446.58	26635.30
446.77	27122.13
446.95	27131.49
447.14	27845.35
447.32	27796.20
447.51	27658.11
447.69	26141.44
447.88	26745.30
448.06	27005.10
448.25	27115.11
448.43	26773.39
448.62	27159.58
448.80	26506.57
448.99	26513.59
449.17	27295.33
449.36	27700.24
449.54	28095.79
449.73	28723.05
449.91	28982.85
450.10	29874.60
450.28	29923.75
450.46	29989.28
450.65	30054.82
450.83	29848.85
451.02	29067.11
451.20	29366.70
451.39	29244.99
451.57	28882.21
451.76	29120.95
451.94	28507.72
452.13	27601.94
452.31	26181.23
452.49	25130.33
452.68	25905.05
452.86	26345.07
453.05	26333.37
453.23	27648.75
453.42	28357.93
453.60	28751.14
453.78	28699.65
453.97	28051.32
454.15	28177.71
454.34	27311.71
454.52	27253.20
454.70	27641.73
454.89	27903.87
455.07	28140.26
455.26	28369.63
455.44	29567.99
455.62	30120.35
455.81	29556.28
455.99	29598.41
456.17	29628.84
456.36	30656.34
456.54	31061.25
456.73	30363.77
456.91	30628.25
457.09	30831.88
457.28	31524.68
457.46	29689.70
457.64	29502.45
457.83	29223.93
458.01	29127.97
458.19	29626.50
458.38	30085.25
458.56	30859.96
458.74	30366.11
458.93	30029.07
459.11	29420.53
459.29	28971.15
459.48	29956.52
459.66	29450.96
459.84	29813.74
460.03	30230.36
460.21	30574.42
460.39	31285.94
460.57	31051.89
460.76	31161.89
460.94	31122.10
461.12	31288.28
461.31	31199.34
461.49	31477.86
461.67	31395.95
461.85	31878.10
462.04	32088.74
462.22	31686.17
462.40	31585.53
462.59	31438.08
462.77	31482.55
462.95	31716.60
463.13	31330.41
463.32	30920.82
463.50	30712.51
463.68	31395.95
463.86	31529.36
464.05	30466.75
464.23	29472.03
464.41	30108.65
464.59	29844.17
464.78	31159.55
464.96	31178.28
465.14	30160.14
465.32	31646.38
465.50	32673.88
465.69	32992.19
465.87	31758.73
466.05	30342.70
466.23	29399.47
466.41	28671.56
466.60	29919.07
466.78	29844.17
466.96	30443.35
467.14	30834.22
467.32	31098.70
467.51	31138.49
467.69	29462.66
467.87	30349.73
468.05	30969.97
468.23	31236.79
468.41	30869.33
468.60	31243.81
468.78	32301.73
468.96	31325.73
469.14	31356.16
469.32	31908.52
469.50	29982.26
469.69	30394.20
469.87	30361.43
470.05	29940.13
470.23	30857.62
470.41	30607.19
470.59	31236.79
470.77	30794.43
470.95	31693.19
471.14	31938.95
471.32	32271.31
471.50	33621.80
471.68	33661.58
471.86	34380.13
472.04	33830.10
472.22	33979.90
472.40	32491.32
472.58	32285.35
472.77	32231.52
472.95	32877.51
473.13	33750.52
473.31	32322.80
473.49	32294.71
473.67	33123.26
473.85	33963.51
474.03	35189.95
474.21	35646.36
474.39	35086.97
474.57	35037.82
474.75	34939.52
474.93	34703.12
475.12	34370.77
475.30	34096.92
475.48	33876.91
475.66	33944.79
475.84	33209.86
476.02	33600.73
476.20	33928.41
476.38	34213.95
476.56	35306.98
476.74	36170.64
476.92	36154.26
477.10	36077.02
477.28	37479.00
477.46	37146.64
477.64	38045.41
477.82	38405.85
478.00	38410.53
478.18	37280.05
478.36	36648.11
478.54	37591.34
478.72	38043.07
478.90	39564.42
479.08	41132.57
479.26	40837.67
479.44	40596.59
479.62	39372.49
479.80	40760.43
479.98	40364.88
480.16	41120.87
480.34	39821.87
480.52	41043.63
480.70	41614.72
480.88	40477.22
481.06	41633.45
481.24	41933.04
481.41	42873.93
481.59	43821.85
481.77	42969.90
481.95	42045.38
482.13	41471.95
482.31	42092.19
482.49	43072.88
482.67	42206.88
482.85	42548.60
483.03	42581.37
483.21	43681.42
483.39	43599.50
483.57	42660.94
483.74	43122.03
483.92	43915.47
484.10	43835.89
484.28	43629.93
484.46	43723.55
484.64	45591.30
484.82	44172.93
485.00	43332.68
485.18	42712.44
485.35	41013.21
485.53	36020.84
485.71	34061.82
485.89	34630.57
486.07	37315.16
486.25	39901.45
486.43	42082.83
486.61	42298.16
486.78	41961.12
486.96	43260.12
487.14	44748.70
487.32	45455.54
487.50	46368.35
487.68	47597.13
487.85	48484.20
488.03	47463.72
488.21	47206.26
488.39	47026.04
488.57	45600.66
488.75	45308.09
488.92	47484.79
489.10	49481.27
489.28	50450.25
489.46	51999.68
489.64	51281.14
489.81	51519.87
489.99	50564.93
490.17	50656.21
490.35	50969.85
490.53	50466.63
490.70	49865.11
490.88	50307.47
491.06	51512.85
491.24	51484.76
491.41	50227.90
491.59	48378.87
491.77	48580.16
491.95	50307.47
492.13	51381.78
492.30	51906.06
492.48	52762.70
492.66	53006.11
492.84	52905.47
493.01	52493.54
493.19	52446.72
493.37	51608.81
493.54	52561.41
493.72	53155.91
493.90	53394.64
494.08	53862.75
494.25	53993.82
494.43	54864.50
494.61	55061.10
494.79	55203.88
494.96	55348.99
495.14	54852.80
495.32	53361.87
495.49	53661.46
495.67	54536.82
495.85	55552.62
496.02	56214.99
496.20	55889.65
496.38	55503.46
496.55	55182.81
496.73	56360.10
496.91	56154.13
497.09	55891.99
497.26	56016.04
497.44	55779.65
497.62	54745.13
497.79	53872.11
497.97	53235.48
498.14	54103.82
498.32	55405.16
498.50	55468.36
498.67	55444.95
498.85	55824.12
499.03	56369.46
499.20	56706.50
499.38	56100.30
499.56	55276.43
499.73	55367.71
499.91	54904.29
500.08	54585.97
500.26	53937.65
500.44	54934.71
500.61	55234.30
500.79	54965.14
500.97	54967.48
501.14	53965.73
501.32	53858.07
501.49	54167.02
501.67	54890.24
501.84	55009.61
502.02	55257.71
502.20	56123.71
502.37	56397.55
502.55	56479.47
502.72	56704.16
502.90	57176.95
503.07	56868.00
503.25	55772.63
503.43	54695.98
503.60	54389.37
503.78	54028.93
503.95	54553.21
504.13	55604.11
504.30	56507.55
504.48	55924.76
504.65	56109.66
504.83	56142.43
505.01	56992.04
505.18	57176.95
505.36	57492.92
505.53	57574.84
505.71	58061.67
505.88	58047.63
506.06	57420.36
506.23	56868.00
506.41	56713.52
506.58	57401.64
506.76	57312.70
506.93	56449.04
507.11	56458.40
507.28	56760.33
507.46	55997.32
507.63	56072.21
507.81	55164.09
507.98	56083.92
508.16	57055.24
508.33	57207.37
508.50	57263.55
508.68	58042.95
508.85	58106.14
509.03	58436.16
509.20	57600.58
509.38	56521.60
509.55	56367.12
509.73	56694.80
509.90	57080.98
510.08	57347.81
510.25	56713.52
510.42	56851.61
510.60	57317.38
510.77	57565.48
510.95	57668.46
511.12	57900.17
511.30	58459.56
511.47	58614.04
511.64	58590.63
511.82	58614.04
511.99	57310.36
512.17	57485.90
512.34	56846.93
512.51	56886.72
512.69	57612.29
512.86	57153.54
513.04	57565.48
513.21	57317.38
513.38	56107.32
513.56	55976.25
513.73	55306.86
513.90	56198.60
514.08	56509.89
514.25	55903.70
514.43	56610.54
514.60	57062.26
514.77	57261.21
514.95	57415.68
515.12	57345.47
515.29	57776.12
515.47	58328.49
515.64	58010.18
515.81	57530.37
515.99	56610.54
516.16	54508.74
516.33	52027.77
516.51	52109.69
516.68	50607.06
516.85	49794.90
517.03	52154.16
517.20	54485.33
517.37	56573.09
517.54	57471.85
517.72	55922.42
517.89	52697.16
518.06	51196.88
518.24	52830.57
518.41	55093.87
518.58	55725.81
518.75	55945.83
518.93	56081.58
519.10	55288.13
519.27	56479.47
519.45	57006.09
519.62	57432.07
519.79	57738.68
519.96	57268.23
520.14	56708.84
520.31	55552.62
520.48	55796.03
520.65	56832.89
520.83	57324.40
521.00	57588.88
521.17	56942.89
521.34	57183.97
521.52	57696.55
521.69	57712.93
521.86	58185.72
522.03	58145.93
522.20	56413.93
522.38	55906.04
522.55	56512.23
522.72	57008.43
522.89	56254.78
523.07	57319.72
523.24	57340.78
523.41	58656.17
523.58	58897.24
523.75	59126.61
523.92	58681.91
524.10	58300.40
524.27	57986.77
524.44	57733.99
524.61	57537.39
524.78	58291.04
524.96	58089.76
525.13	57918.90
525.30	58665.53
525.47	58487.65
525.64	58499.35
525.81	57551.43
525.98	55664.96
526.16	54688.96
526.33	54789.60
526.50	54274.68
526.67	54358.94
526.84	54726.41
527.01	55688.37
527.18	56395.21
527.36	57284.61
527.53	58232.53
527.70	57420.36
527.87	56123.71
528.04	57502.28
528.21	57799.53
528.38	58515.73
528.55	59416.84
528.72	58904.26
528.89	58564.88
529.07	58178.70
529.24	57050.56
529.41	56650.33
529.58	57109.07
529.75	57766.76
529.92	58033.58
530.09	58017.20
530.26	58607.01
530.43	59306.83
530.60	58532.12
530.77	58702.98
530.94	58852.77
531.11	58372.96
531.28	58511.05
531.46	58597.65
531.63	58382.32
531.80	57638.03
531.97	57083.33
532.14	57183.97
532.31	55796.03
532.48	55292.82
532.65	55594.74
532.82	56203.28
532.99	57701.23
533.16	58113.16
533.33	57794.85
533.50	58419.77
533.67	58092.10
533.84	57015.45
534.01	57766.76
534.18	57921.24
534.35	57785.49
534.52	56844.59
534.69	57666.12
534.86	58277.00
535.03	58482.97
535.20	57954.00
535.37	59100.87
535.54	59173.42
535.71	58993.20
535.88	59278.75
536.05	57989.11
536.22	57148.86
536.38	56828.21
536.55	56023.06
536.72	55833.48
536.89	56795.44
537.06	56912.47
537.23	57483.56
537.40	57509.30
537.57	57286.95
537.74	57708.25
537.91	57638.03
538.08	57378.23
538.25	57378.23
538.42	58176.36
538.59	57586.54
538.75	56484.15
538.92	55983.27
539.09	56348.40
539.26	56383.51
539.43	56219.67
539.60	56570.75
539.77	57139.50
539.94	56722.88
540.11	55798.37
540.28	55688.37
540.44	55114.94
540.61	54972.16
540.78	55810.07
540.95	56584.79
541.12	56762.67
541.29	57153.54
541.46	57570.16
541.62	57418.02
541.79	56610.54
541.96	55826.46
542.13	55964.55
542.30	56158.81
542.47	56842.25
542.63	56355.42
542.80	56392.87
542.97	55828.80
543.14	55594.74
543.31	56020.72
543.48	57235.46
543.64	57420.36
543.81	58646.80
543.98	58171.67
544.15	56376.48
544.32	57139.50
544.48	56851.61
544.65	56736.93
544.82	57242.48
544.99	55739.86
545.16	55124.30
545.32	55828.80
545.49	56556.70
545.66	56741.61
545.83	56554.36
546.00	57116.09
546.16	56823.53
546.33	56584.79
546.50	56753.31
546.67	57169.93
546.83	56222.01
547.00	56975.66
547.17	55735.18
547.34	55018.97
547.50	54967.48
547.67	56044.13
547.84	57041.20
548.00	56652.67
548.17	56547.34
548.34	56856.29
548.51	57076.30
548.67	57373.55
548.84	57340.78
549.01	57083.33
549.18	56191.58
549.34	56657.35
549.51	56772.03
549.68	56699.48
549.84	56303.93
550.01	55943.48
550.18	55353.67
550.34	55903.70
550.51	56179.88
550.68	56601.18
550.84	56402.23
551.01	55543.25
551.18	55356.01
551.34	55093.87
551.51	56587.13
551.68	56093.28
551.84	56193.92
552.01	56114.34
552.18	55721.13
552.34	54892.58
552.51	55229.62
552.68	54798.96
552.84	55007.27
553.01	55175.79
553.18	56472.45
553.34	56013.70
553.51	56353.08
553.67	55894.33
553.84	55398.14
554.01	56133.07
554.17	55379.42
554.34	55955.19
554.51	55959.87
554.67	55143.02
554.84	55194.51
555.00	55168.77
555.17	55510.49
555.33	54899.61
555.50	54284.04
555.67	55526.87
555.83	55356.01
556.00	54965.14
556.16	54176.38
556.33	54073.40
556.50	54937.05
556.66	54908.97
556.83	54581.29
556.99	54110.85
557.16	54513.42
557.32	54216.17
557.49	54415.11
557.65	54265.32
557.82	55344.31
557.98	55590.06
558.15	54199.79
558.32	52921.85
558.48	52530.98
558.65	52680.78
558.81	53315.06
558.98	53734.02
559.14	54265.32
559.31	53766.79
559.47	53394.64
559.64	53020.16
559.80	52610.56
559.97	53722.32
560.13	54649.17
560.30	55725.81
560.46	56112.00
560.63	56369.46
560.79	56062.85
560.96	55203.88
561.12	53703.59
561.29	53097.39
561.45	53289.32
561.61	54649.17
561.78	54080.42
561.94	54784.92
562.11	54557.89
562.27	53689.55
562.44	54506.40
562.60	54724.07
562.77	54906.63
562.93	53759.76
563.10	53689.55
563.26	53731.68
563.42	54354.26
563.59	53394.64
563.75	53532.73
563.92	53499.97
564.08	52715.89
564.24	53876.79
564.41	53331.45
564.57	54120.21
564.74	53701.25
564.90	52884.40
565.07	53198.04
565.23	51999.68
565.39	51917.76
565.56	52296.93
565.72	52495.88
565.88	50766.22
566.05	53195.70
566.21	53928.28
566.38	53130.16
566.54	53134.84
566.70	53776.15
566.87	53600.61
567.03	52825.89
567.19	54085.10
567.36	54506.40
567.52	52975.69
567.68	52676.10
567.85	52079.26
568.01	51896.70
568.17	52355.44
568.34	52765.04
568.50	52645.67
568.66	52612.90
568.83	51971.60
568.99	51433.27
569.15	51789.03
569.32	52200.97
569.48	51672.01
569.64	51737.54
569.81	51585.41
569.97	51381.78
570.13	50089.80
570.30	50384.71
570.46	49741.06
570.62	48755.70
570.78	49050.61
570.95	50078.10
571.11	49710.64
571.27	49638.08
571.43	50075.76
571.60	49670.85
571.76	51372.42
571.92	51578.39
572.09	51896.70
572.25	51959.89
572.41	53029.52
572.57	52516.94
572.74	52648.01
572.90	53223.78
573.06	52371.83
573.22	52587.16
573.38	52116.71
573.55	53628.69
573.71	52060.54
573.87	52243.10
574.03	52252.46
574.20	51554.98
574.36	51632.22
574.52	50831.75
574.68	50480.67
574.84	49879.16
575.01	49766.81
575.17	50679.62
575.33	50578.98
575.49	50632.81
575.65	50164.70
575.82	50557.91
575.98	49883.84
576.14	50897.29
576.30	51592.43
576.46	49698.94
576.62	50234.92
576.79	50480.67
576.95	50508.76
577.11	50487.70
577.27	50532.17
577.43	50501.74
577.59	49935.33
577.75	48687.82
577.92	48523.99
578.08	48996.77
578.24	49839.37
578.40	49364.24
578.56	48722.93
578.72	48992.09
578.88	48921.88
579.04	49134.87
579.21	48582.50
579.37	49385.30
579.53	49893.20
579.69	49198.06
579.85	49144.23
580.01	49382.96
580.17	48956.99
580.33	49956.39
580.49	50057.04
580.65	48016.09
580.82	48591.86
580.98	50047.68
581.14	50178.75
581.30	49495.31
581.46	49296.36
581.62	49518.71
581.78	50150.66
581.94	49975.12
582.10	50768.56
582.26	50534.51
582.42	50244.28
582.58	48491.22
582.74	48505.26
582.90	48793.15
583.06	49139.55
583.22	49326.79
583.38	49382.96
583.54	49925.97
583.70	50143.64
583.86	49322.11
584.02	49378.28
584.18	48898.47
584.34	48191.63
584.50	48168.22
584.66	47810.12
584.82	48598.88
584.98	48439.73
585.14	48041.84
585.30	48158.86
