SpectraSuite Data File
++++++++++++++++++++++++++++++++++++
Date: Mon Oct 07 14:54:03 GMT-05:00 2013
User: price-jones
Dark Spectrum Present: No
Reference Spectrum Present: No
Number of Sampled Component Spectra: 1
Spectrometers: USB2+H05261
Integration Time (usec): 100000 (USB2+H05261)
Spectra Averaged: 1 (USB2+H05261)
Boxcar Smoothing: 0 (USB2+H05261)
Correct for Electrical Dark: No (USB2+H05261)
Strobe/Lamp Enabled: No (USB2+H05261)
Correct for Detector Non-linearity: No (USB2+H05261)
Correct for Stray Light: No (USB2+H05261)
Number of Pixels in Processed Spectrum: 2048
>>>>>Begin Processed Spectral Data<<<<<
365.73	0.00
365.92	0.00
366.12	0.00
366.32	0.00
366.52	0.00
366.72	0.00
366.91	0.00
367.11	0.00
367.31	0.00
367.51	0.00
367.70	0.00
367.90	0.00
368.10	0.00
368.30	0.00
368.49	0.00
368.69	0.00
368.89	0.00
369.09	0.00
369.28	0.00
369.48	0.00
369.68	0.00
369.87	0.00
370.07	0.00
370.27	0.00
370.47	662.37
370.66	3318.88
370.86	3913.38
371.06	4152.11
371.25	4238.71
371.45	3824.44
371.65	3393.78
371.84	3248.66
372.04	3527.19
372.24	3896.99
372.44	4170.83
372.63	3908.69
372.83	3569.32
373.03	3447.61
373.22	2988.86
373.42	3080.14
373.62	3536.55
373.81	3899.33
374.01	3922.74
374.21	3536.55
374.40	3274.41
374.60	3461.65
374.79	3864.22
374.99	4381.48
375.19	4887.04
375.38	4863.63
375.58	4500.85
375.78	4669.37
375.97	4519.57
376.17	4737.24
376.37	4683.41
376.56	4858.95
376.76	5186.63
376.95	5235.78
377.15	5685.16
377.35	6031.56
377.54	6265.61
377.74	6410.73
377.93	6565.20
378.13	6392.00
378.33	5912.19
378.52	5551.75
378.72	5240.46
378.91	5181.95
379.11	5060.24
379.31	4908.10
379.50	4863.63
379.70	5256.84
379.89	5933.26
380.09	6171.99
380.28	6431.79
380.48	6326.47
380.68	6111.14
380.87	6104.12
381.07	5563.45
381.26	5170.24
381.46	4870.65
381.65	4538.30
381.85	4599.15
382.04	4257.43
382.24	3911.04
382.43	3929.76
382.63	3836.14
382.83	3784.65
383.02	3878.27
383.22	3749.54
383.41	3899.33
383.61	4241.05
383.80	4580.43
384.00	5277.91
384.19	5851.34
384.39	6310.08
384.58	6265.61
384.78	6349.87
384.97	6202.42
385.17	5741.33
385.36	5511.96
385.56	5081.30
385.75	5490.90
385.95	5912.19
386.14	6544.14
386.34	6569.88
386.53	6127.52
386.72	5743.67
386.92	5755.38
387.11	6272.64
387.31	6565.20
387.50	6300.72
387.70	6183.70
387.89	6155.61
388.09	6188.38
388.28	6038.58
388.48	6162.63
388.67	6630.74
388.86	7136.29
389.06	7742.49
389.25	8224.64
389.45	8524.23
389.64	8119.32
389.84	8236.35
390.03	8163.79
390.22	8138.04
390.42	8463.38
390.61	8833.18
390.81	9434.70
391.00	9544.70
391.19	9598.54
391.39	9275.54
391.58	8624.87
391.78	8133.36
391.97	7873.56
392.16	7309.49
392.36	6967.77
392.55	5256.84
392.75	4276.16
392.94	3585.70
393.13	3407.82
393.33	4086.58
393.52	5123.43
393.71	6487.96
393.91	7222.89
394.10	7957.82
394.29	8645.94
394.49	9364.48
394.68	9940.26
394.88	9961.32
395.07	10555.82
395.26	10317.08
395.46	10148.56
395.65	9521.30
395.84	8320.60
396.04	6953.73
396.23	5830.27
396.42	4770.01
396.62	4491.49
396.81	5284.93
397.00	6796.92
397.19	8486.78
397.39	10104.09
397.58	11138.61
397.77	12351.01
397.97	12444.63
398.16	12580.38
398.35	13261.48
398.55	13650.00
398.74	14178.97
398.93	14293.65
399.12	13951.93
399.32	13591.49
399.51	13996.40
399.70	14956.02
399.90	14677.50
400.09	14691.54
400.28	14567.49
400.47	14539.41
400.67	15543.50
400.86	15934.37
401.05	15747.12
401.24	15932.03
401.44	16418.86
401.63	16030.33
401.82	16180.12
402.01	16191.83
402.21	16189.49
402.40	16709.08
402.59	15932.03
402.78	15286.04
402.97	14600.26
403.17	15438.17
403.36	16358.00
403.55	16943.14
403.74	17085.91
403.93	16166.08
404.13	15440.51
404.32	15089.43
404.51	15470.94
404.70	16615.46
404.89	16685.68
405.09	16482.05
405.28	15964.79
405.47	16002.24
405.66	15969.48
405.85	15456.90
406.05	15014.54
406.24	15176.03
406.43	15913.30
406.62	16821.43
406.81	16840.15
407.00	15875.85
407.20	15510.73
407.39	15810.32
407.58	16322.90
407.77	17039.10
407.96	17642.96
408.15	17743.60
408.34	17666.36
408.54	19012.17
408.73	18967.70
408.92	18597.90
409.11	17790.41
409.30	17130.38
409.49	16222.25
409.68	14939.64
409.87	14647.07
410.07	15667.55
410.26	16783.98
410.45	17905.10
410.64	18113.41
410.83	18548.75
411.02	19520.07
411.21	20210.53
411.40	19964.77
411.59	19740.08
411.78	19779.87
411.98	19651.14
412.17	19978.81
412.36	19222.82
412.55	19496.66
412.74	19183.03
412.93	18637.69
413.12	18944.30
413.31	20491.39
413.50	20783.96
413.69	21266.11
413.88	20255.00
414.07	19592.62
414.26	20016.26
414.45	20594.37
414.64	20779.28
414.83	21135.04
415.02	20311.17
415.22	20552.24
415.41	20872.90
415.60	21406.54
415.79	22225.73
415.98	22623.62
416.17	22532.34
416.36	22274.88
416.55	22171.89
416.74	21212.28
416.93	20631.82
417.12	20690.34
417.31	21135.04
417.50	21303.56
417.69	21809.11
417.88	21764.64
418.07	21441.65
418.26	21076.52
418.45	21729.53
418.64	22408.29
418.83	23049.60
419.02	22661.07
419.21	22794.48
419.39	21443.99
419.58	20582.67
419.77	20470.33
419.96	21429.94
420.15	22504.25
420.34	23096.41
420.53	24313.48
420.72	24608.39
420.91	24159.01
421.10	23756.44
421.29	23653.45
421.48	23173.64
421.67	24175.39
421.86	23173.64
422.05	22087.64
422.24	19625.39
422.43	19379.64
422.61	21034.39
422.80	23213.43
422.99	23201.73
423.18	22766.39
423.37	21792.73
423.56	21900.39
423.75	22171.89
423.94	22609.58
424.13	21429.94
424.32	21886.35
424.50	21879.33
424.69	21734.21
424.88	21689.74
425.07	21474.42
425.26	21582.08
425.45	21628.89
425.64	20741.83
425.83	21071.84
426.01	22087.64
426.20	22703.20
426.39	22483.19
426.58	21081.21
426.77	19372.61
426.96	18764.07
427.15	19168.99
427.33	21010.99
427.52	21731.87
427.71	21774.00
427.90	21797.41
428.09	21507.18
428.28	21261.43
428.46	20205.84
428.65	19793.91
428.84	20369.68
429.03	20814.38
429.22	19892.21
429.40	18705.56
429.59	16666.95
429.78	15044.96
429.97	14934.96
430.16	15112.84
430.34	15428.81
430.53	15304.76
430.72	15234.55
430.91	17092.93
431.10	20009.24
431.28	23679.20
431.47	25848.88
431.66	26199.96
431.85	23487.28
432.03	21752.94
432.22	20643.52
432.41	21287.17
432.60	23737.71
432.79	25235.66
432.97	25277.79
433.16	25039.05
433.35	22707.88
433.54	20156.69
433.72	19131.54
433.91	19981.15
434.10	22136.79
434.28	23791.55
434.47	25254.38
434.66	24643.50
434.85	24254.97
435.03	23508.34
435.22	24126.24
435.41	25862.92
435.59	26122.72
435.78	26405.92
435.97	27274.26
436.16	27590.24
436.34	26878.71
436.53	26347.41
436.72	26511.25
436.90	24898.62
437.09	24765.21
437.28	24217.52
437.46	25310.55
437.65	24788.61
437.84	23517.70
438.02	21666.34
438.21	21338.66
438.40	22445.74
438.58	24383.70
438.77	25053.09
438.96	25469.71
439.14	26272.51
439.33	26658.70
439.52	27218.09
439.70	26988.72
439.89	26515.93
440.08	25617.16
440.26	25532.90
440.45	26576.78
440.63	28018.55
440.82	29500.11
441.01	29139.67
441.19	29078.82
441.38	28952.43
441.57	30426.96
441.75	30820.17
441.94	30925.50
442.12	30312.28
442.31	30618.89
442.50	31590.21
442.68	30581.44
442.87	30494.84
443.05	29879.28
443.24	30323.98
443.43	30677.40
443.61	31555.10
443.80	31889.80
443.98	30448.03
444.17	30272.49
444.35	31417.01
444.54	32514.72
444.73	32142.58
444.91	30455.05
445.10	29745.87
445.28	28266.65
445.47	27915.57
445.65	28140.26
445.84	28863.49
446.02	29914.39
446.21	30071.20
446.39	30270.15
446.58	30635.27
446.77	30897.41
446.95	31459.14
447.14	31878.10
447.32	33188.80
447.51	32093.43
447.69	31302.32
447.88	30541.65
448.06	30565.06
448.25	31901.50
448.43	32039.59
448.62	31215.72
448.80	30993.37
448.99	31367.86
449.17	31075.29
449.36	31569.15
449.54	32598.98
449.73	32954.74
449.91	33546.90
450.10	34307.57
450.28	35288.26
450.46	34773.34
450.65	34806.11
450.83	34466.73
451.02	33642.86
451.20	33338.59
451.39	33432.21
451.57	33390.08
451.76	32971.13
451.94	33022.62
452.13	32587.28
452.31	31295.30
452.49	29837.15
452.68	30213.98
452.86	30134.40
453.05	30305.26
453.23	31276.58
453.42	32243.22
453.60	33174.75
453.78	32931.34
453.97	33141.99
454.15	32718.35
454.34	31995.12
454.52	32151.94
454.70	31552.76
454.89	32023.21
455.07	31868.73
455.26	32488.98
455.44	33923.72
455.62	34199.91
455.81	34672.70
455.99	34003.30
456.17	33560.94
456.36	33748.18
456.54	35096.33
456.73	35082.29
456.91	35040.16
457.09	35814.88
457.28	36170.64
457.46	34813.13
457.64	34857.60
457.83	33603.07
458.01	32842.40
458.19	33699.03
458.38	33469.66
458.56	35005.05
458.74	34979.31
458.93	34480.77
459.11	33991.60
459.29	33684.99
459.48	33823.08
459.66	33715.42
459.84	34305.23
460.03	34637.59
460.21	34419.92
460.39	35468.48
460.57	35880.41
460.76	35779.77
460.94	35756.36
461.12	35201.66
461.31	35257.83
461.49	35374.86
461.67	35297.62
461.85	36350.86
462.04	36374.27
462.22	36748.75
462.40	36135.53
462.59	36418.74
462.77	36603.64
462.95	36290.01
463.13	35566.78
463.32	35428.69
463.50	35239.11
463.68	34733.55
463.86	35211.02
464.05	35143.14
464.23	34668.02
464.41	34005.64
464.59	33254.33
464.78	35381.88
464.96	34794.40
465.14	34426.94
465.32	35711.89
465.50	36376.61
465.69	36549.81
465.87	35908.50
466.05	35000.37
466.23	33284.76
466.41	32961.76
466.60	33593.71
466.78	33336.25
466.96	33905.00
467.14	34988.67
467.32	35445.07
467.51	35299.96
467.69	33469.66
467.87	34478.43
468.05	34960.58
468.23	34623.54
468.41	35145.48
468.60	35044.84
468.78	35613.59
468.96	34944.20
469.14	35917.86
469.32	35866.37
469.50	34597.80
469.69	34436.30
469.87	33741.16
470.05	34043.09
470.23	34019.69
470.41	33743.50
470.59	34361.40
470.77	34923.13
470.95	35512.95
471.14	35515.29
471.32	35704.87
471.50	37670.92
471.68	37881.57
471.86	38569.69
472.04	38232.65
472.22	38359.04
472.40	36378.95
472.58	36107.44
472.77	35653.38
472.95	36605.98
473.13	37469.64
473.31	36109.78
473.49	36844.71
473.67	37567.94
473.85	37324.52
474.03	38546.28
474.21	38307.55
474.39	39093.97
474.57	39077.58
474.75	38873.96
474.93	38473.73
475.12	37790.29
475.30	38209.25
475.48	38225.63
475.66	38225.63
475.84	38389.47
476.02	38061.79
476.20	37420.48
476.38	37998.60
476.56	39105.67
476.74	39435.69
476.92	39737.62
477.10	40561.48
477.28	41827.71
477.46	41752.82
477.64	41951.76
477.82	42279.44
478.00	42382.42
478.18	41598.34
478.36	41684.94
478.54	41368.97
478.72	41675.58
478.90	43077.56
479.08	43594.82
479.26	44350.81
479.44	43997.39
479.62	44170.59
479.80	43730.57
479.98	44062.93
480.16	44584.86
480.34	43405.23
480.52	44673.81
480.70	44596.57
480.88	44648.06
481.06	45453.20
481.24	45556.19
481.41	46791.99
481.59	47393.51
481.77	47049.45
481.95	46307.50
482.13	46003.23
482.31	46232.60
482.49	46759.22
482.67	46384.74
482.85	46738.16
483.03	47475.43
483.21	48060.56
483.39	48011.41
483.57	47145.41
483.74	46731.14
483.92	46930.08
484.10	47119.66
484.28	48083.97
484.46	48921.88
484.64	49158.27
484.82	48226.74
485.00	47168.82
485.18	46724.11
485.35	45495.33
485.53	42642.22
485.71	38689.06
485.89	38113.28
486.07	40177.64
486.25	43650.99
486.43	45935.35
486.61	46541.55
486.78	46389.42
486.96	46752.20
487.14	48280.57
487.32	49158.27
487.50	49998.52
487.68	50901.97
487.85	51381.78
488.03	51379.44
488.21	51016.66
488.39	50171.72
488.57	49647.44
488.75	49144.23
488.92	50478.33
489.10	52538.01
489.28	53766.79
489.46	54541.50
489.64	54279.36
489.81	54267.66
489.99	54033.61
490.17	53848.71
490.35	54508.74
490.53	54078.08
490.70	53616.99
490.88	53602.95
491.06	54525.12
491.24	54218.51
491.41	53427.41
491.59	51847.55
491.77	50993.25
491.95	52161.18
492.13	53256.55
492.30	54419.80
492.48	55339.63
492.66	55854.54
492.84	55676.66
493.01	55475.38
493.19	55222.60
493.37	54841.09
493.54	54424.48
493.72	55124.30
493.90	56062.85
494.08	56807.14
494.25	57146.52
494.43	57230.78
494.61	57443.77
494.79	57516.32
494.96	57574.84
495.14	56809.48
495.32	55941.14
495.49	55370.05
495.67	56334.35
495.85	57415.68
496.02	57895.49
496.20	57855.70
496.38	57403.98
496.55	57167.58
496.73	57715.27
496.91	57972.73
497.09	58363.60
497.26	58534.46
497.44	57944.64
497.62	57506.96
497.79	56917.15
497.97	55627.51
498.14	55632.19
498.32	56825.87
498.50	57785.49
498.67	58227.85
498.85	57991.45
499.03	58220.83
499.20	58344.87
499.38	58578.93
499.56	58195.08
499.73	57897.83
499.91	57415.68
500.08	57188.65
500.26	56130.73
500.44	56879.70
500.61	57350.15
500.79	57160.56
500.97	56980.34
501.14	56718.20
501.32	56575.43
501.49	56294.56
501.67	56615.22
501.84	57331.42
502.02	57820.59
502.20	58035.92
502.37	57998.48
502.55	57942.30
502.72	58520.41
502.90	59037.67
503.07	58850.43
503.25	58209.12
503.43	57570.16
503.60	57052.90
503.78	56420.95
503.95	56800.12
504.13	57984.43
504.30	58838.73
504.48	58637.44
504.65	58258.27
504.83	58333.17
505.01	58717.02
505.18	59054.06
505.36	59711.75
505.53	59735.15
505.71	59842.82
505.88	60165.81
506.06	59405.14
506.23	59082.14
506.41	58827.02
506.58	59032.99
506.76	59037.67
506.93	58885.54
507.11	58820.00
507.28	58897.24
507.46	58438.50
507.63	57523.35
507.81	57719.95
507.98	57811.23
508.16	58527.44
508.33	59103.21
508.50	59363.01
508.68	59686.00
508.85	59861.54
509.03	60025.38
509.20	59938.78
509.38	59306.83
509.55	58436.16
509.73	58546.16
509.90	59194.49
510.08	59363.01
510.25	59203.85
510.42	59042.35
510.60	58976.82
510.77	59302.15
510.95	59686.00
511.12	59814.73
511.30	60123.68
511.47	60266.45
511.64	60240.71
511.82	60133.04
511.99	59278.75
512.17	58922.99
512.34	58436.16
512.51	58754.47
512.69	58810.64
512.86	59082.14
513.04	59304.49
513.21	59428.54
513.38	58930.01
513.56	58478.28
513.73	57846.34
513.90	58195.08
514.08	58017.20
514.25	58550.84
514.43	58719.36
514.60	58901.92
514.77	58885.54
514.95	58974.48
515.12	59105.55
515.29	59079.80
515.47	59552.59
515.64	59859.20
515.81	59381.73
515.99	58920.65
516.16	57563.14
516.33	55442.61
516.51	53909.56
516.68	53212.08
516.85	52577.79
517.03	53010.79
517.20	55657.94
517.37	57956.35
517.54	58899.58
517.72	58384.66
517.89	56264.14
518.06	53918.92
518.24	53961.05
518.41	56502.87
518.58	57614.63
518.75	57635.69
518.93	57846.34
519.10	57963.37
519.27	58255.93
519.45	58592.97
519.62	59093.85
519.79	59501.10
519.96	59430.88
520.14	58927.67
520.31	58122.52
520.48	57942.30
520.65	58295.72
520.83	59253.00
521.00	59568.97
521.17	59449.61
521.34	58995.54
521.52	59297.47
521.69	59639.19
521.86	60116.66
522.03	59812.39
522.20	58688.93
522.38	57853.36
522.55	57696.55
522.72	58398.71
522.89	58302.74
523.07	58642.12
523.24	58918.31
523.41	59852.18
523.58	60079.21
523.75	60219.64
523.92	60449.02
524.10	60310.92
524.27	60236.03
524.44	59985.59
524.61	59627.49
524.78	59681.32
524.96	59767.92
525.13	59529.19
525.30	59770.26
525.47	60257.09
525.64	60282.84
525.81	59540.89
525.98	58202.10
526.16	56781.40
526.33	56296.91
526.50	56020.72
526.67	55278.77
526.84	56062.85
527.01	56938.21
527.18	57600.58
527.36	58672.55
527.53	59400.46
527.70	59784.30
527.87	59150.02
528.04	58726.38
528.21	59175.76
528.38	59992.61
528.55	60402.21
528.72	60582.43
528.89	60673.71
529.07	60493.49
529.24	59910.69
529.41	59414.50
529.58	58571.91
529.75	58686.59
529.92	59339.60
530.09	59465.99
530.26	60032.40
530.43	60299.22
530.60	60182.19
530.77	60624.56
530.94	60643.28
531.11	60266.45
531.28	59777.28
531.46	59863.88
531.63	59898.99
531.80	59735.15
531.97	59454.29
532.14	58639.78
532.31	57698.89
532.48	57083.33
532.65	56875.02
532.82	57918.90
532.99	58843.41
533.16	59206.19
533.33	59568.97
533.50	59561.95
533.67	58918.31
533.84	58522.76
534.01	58815.32
534.18	58873.84
534.35	59215.55
534.52	59105.55
534.69	59131.29
534.86	59613.44
535.03	59625.15
535.20	60210.28
535.37	60367.10
535.54	60420.93
535.71	60205.60
535.88	59835.80
536.05	59274.07
536.22	59011.93
536.38	58557.86
536.55	58052.31
536.72	57745.70
536.89	57752.72
537.06	58267.64
537.23	59426.20
537.40	59517.48
537.57	59346.62
537.74	59035.33
537.91	59028.31
538.08	59267.05
538.25	59185.13
538.42	59351.30
538.59	59035.33
538.75	58789.58
538.92	58188.06
539.09	58443.18
539.26	57832.30
539.43	57925.92
539.60	57982.09
539.77	58260.62
539.94	58028.90
540.11	57272.91
540.28	56802.46
540.44	56790.76
540.61	57153.54
540.78	57120.77
540.95	57659.10
541.12	57961.03
541.29	58464.24
541.46	58642.12
541.62	58443.18
541.79	58548.50
541.96	57935.28
542.13	57858.04
542.30	58218.49
542.47	58122.52
542.63	58138.91
542.80	58005.50
542.97	57928.26
543.14	57958.69
543.31	58019.54
543.48	58351.90
543.64	59341.94
543.81	59477.69
543.98	59196.83
544.15	58632.76
544.32	57883.79
544.48	58000.82
544.65	58621.06
544.82	58885.54
544.99	58522.76
545.16	58171.67
545.32	57970.39
545.49	58553.18
545.66	59070.44
545.83	58616.38
546.00	58312.11
546.16	58124.86
546.33	58166.99
546.50	58274.66
546.67	58527.44
546.83	58059.33
547.00	58459.56
547.17	57462.49
547.34	56956.94
547.50	56882.04
547.67	57413.34
547.84	57591.22
548.00	57794.85
548.17	58026.56
548.34	58174.02
548.51	58010.18
548.67	58059.33
548.84	58351.90
549.01	58347.21
549.18	58209.12
549.34	58040.60
549.51	57932.94
549.68	57825.28
549.84	57726.97
550.01	57556.11
550.18	57537.39
550.34	57609.95
550.51	57930.60
550.68	57689.52
550.84	57331.42
551.01	57279.93
551.18	57172.27
551.34	57385.25
551.51	57677.82
551.68	58183.38
551.84	58014.86
552.01	57998.48
552.18	57853.36
552.34	57090.35
552.51	56470.11
552.68	56362.44
552.84	57031.83
553.01	57153.54
553.18	57284.61
553.34	57116.09
553.51	57387.60
553.67	57602.92
553.84	57666.12
554.01	57748.04
554.17	57446.11
554.34	57560.79
554.51	57619.31
554.67	57691.86
554.84	57694.21
555.00	57345.47
555.17	57155.88
555.33	56954.60
555.50	57230.78
555.67	57193.33
555.83	57179.29
556.00	56823.53
556.16	56713.52
556.33	56357.76
556.50	56168.18
556.66	56327.33
556.83	56006.68
556.99	56196.26
557.16	56156.47
557.32	56355.42
557.49	56968.64
557.65	56514.58
557.82	56498.19
557.98	56364.78
558.15	56163.50
558.32	55229.62
558.48	54202.13
558.65	54370.64
558.81	55040.04
558.98	55133.66
559.14	55533.89
559.31	55454.31
559.47	55508.14
559.64	55206.22
559.80	54775.56
559.97	55009.61
560.13	55051.74
560.30	55978.59
560.46	56858.63
560.63	56844.59
560.79	56924.17
560.96	56664.37
561.12	55281.11
561.29	54766.20
561.45	54412.77
561.61	55271.75
561.78	55320.90
561.94	55409.84
562.11	55381.76
562.27	55250.69
562.44	55625.17
562.60	55845.18
562.77	56137.75
562.93	55730.50
563.10	55620.49
563.26	55297.50
563.42	55058.76
563.59	55000.25
563.75	55262.39
563.92	55159.41
564.08	54866.84
564.24	55246.00
564.41	55437.93
564.57	55030.68
564.74	54925.35
564.90	55196.85
565.07	54780.24
565.23	54316.81
565.39	53848.71
565.56	53504.65
565.72	53593.59
565.88	53820.62
566.05	53937.65
566.21	54024.25
566.38	54328.52
566.54	54447.88
566.70	54621.08
566.87	54993.23
567.03	55033.02
567.19	55196.85
567.36	54878.54
567.52	54539.16
567.68	54504.06
567.85	53593.59
568.01	53649.76
568.17	53001.43
568.34	52919.51
568.50	53059.94
568.66	53223.78
568.83	53490.60
568.99	53813.60
569.15	53958.71
569.32	53759.76
569.48	53408.68
569.64	53244.85
569.81	52781.42
569.97	53102.07
570.13	52982.71
570.30	52079.26
570.46	52016.07
570.62	51449.66
570.78	51168.79
570.95	51363.06
571.11	52617.58
571.27	52608.22
571.43	52802.49
571.60	53120.80
571.76	53090.37
571.92	53448.47
572.09	53647.42
572.25	53450.81
572.41	53511.67
572.57	53301.02
572.74	53413.37
572.90	52842.27
573.06	52933.56
573.22	53153.57
573.38	53137.18
573.55	52975.69
573.71	53394.64
573.87	53176.97
574.03	52905.47
574.20	52804.83
574.36	52523.96
574.52	52341.40
574.68	52266.50
574.84	51693.07
575.01	51309.22
575.17	51126.66
575.33	51337.31
575.49	51957.55
575.65	51840.53
575.82	51770.31
575.98	51466.04
576.14	51341.99
576.30	52158.84
576.46	52205.65
576.62	52144.80
576.79	51744.56
576.95	51697.75
577.11	51557.32
577.27	51625.20
577.43	51894.36
577.59	51625.20
577.75	50979.21
577.92	49993.84
578.08	49832.35
578.24	50047.68
578.40	50078.10
578.56	50759.20
578.72	50798.99
578.88	50932.40
579.04	51072.83
579.21	51000.27
579.37	51482.42
579.53	51316.25
579.69	51344.33
579.85	51255.39
580.01	51360.72
580.17	50555.57
580.33	50960.48
580.49	50815.37
580.65	50974.53
580.82	51009.64
580.98	51210.92
581.14	50920.70
581.30	51164.11
581.46	51222.62
581.62	51189.86
581.78	51072.83
581.94	51510.51
582.10	51091.55
582.26	51398.16
582.42	51292.84
582.58	51337.31
582.74	51133.68
582.90	51035.38
583.06	51320.93
583.22	51023.68
583.38	51154.75
583.54	51033.04
583.70	51065.81
583.86	51178.15
584.02	50672.60
584.18	50864.52
584.34	50609.40
584.50	50717.07
584.66	50571.96
584.82	49888.52
584.98	50176.40
585.14	49633.40
