SpectraSuite Data File
++++++++++++++++++++++++++++++++++++
Date: Mon Oct 07 14:53:07 GMT-05:00 2013
User: price-jones
Dark Spectrum Present: No
Reference Spectrum Present: No
Number of Sampled Component Spectra: 1
Spectrometers: USB2+H05261
Integration Time (usec): 100000 (USB2+H05261)
Spectra Averaged: 1 (USB2+H05261)
Boxcar Smoothing: 0 (USB2+H05261)
Correct for Electrical Dark: No (USB2+H05261)
Strobe/Lamp Enabled: No (USB2+H05261)
Correct for Detector Non-linearity: No (USB2+H05261)
Correct for Stray Light: No (USB2+H05261)
Number of Pixels in Processed Spectrum: 2048
>>>>>Begin Processed Spectral Data<<<<<
365.73	0.00
365.92	0.00
366.12	0.00
366.32	0.00
366.52	0.00
366.72	0.00
366.91	0.00
367.11	0.00
367.31	0.00
367.51	0.00
367.70	0.00
367.90	0.00
368.10	0.00
368.30	0.00
368.49	0.00
368.69	0.00
368.89	0.00
369.09	0.00
369.28	0.00
369.48	0.00
369.68	0.00
369.87	0.00
370.07	0.00
370.27	0.00
370.47	678.76
370.66	3159.72
370.86	3695.71
371.06	4032.74
371.25	4201.26
371.45	3751.88
371.65	3330.58
371.84	3035.67
372.04	3358.67
372.24	3634.85
372.44	3850.18
372.63	3824.44
372.83	3440.59
373.03	3141.00
373.22	2979.50
373.42	3002.91
373.62	3461.65
373.81	3798.69
374.01	3864.22
374.21	3337.60
374.40	3023.97
374.60	3171.43
374.79	3630.17
374.99	4273.82
375.19	4629.58
375.38	4788.74
375.58	4414.25
375.78	4280.84
375.97	4390.84
376.17	4463.40
376.37	4587.45
376.56	4767.67
376.76	5081.30
376.95	5233.44
377.15	5596.22
377.35	5970.71
377.54	6040.92
377.74	6300.72
377.93	6314.77
378.13	6038.58
378.33	5717.93
378.52	5432.38
378.72	5111.73
378.91	5029.81
379.11	4903.42
379.31	4795.76
379.50	4624.90
379.70	5240.46
379.89	5624.31
380.09	5813.89
380.28	6022.20
380.48	5963.68
380.68	6008.16
380.87	5767.08
381.07	5322.38
381.26	4978.32
381.46	4582.77
381.65	4528.94
381.85	4428.29
382.04	4161.47
382.24	3775.28
382.43	3763.58
382.63	3700.39
382.83	3684.00
383.02	3709.75
383.22	3627.83
383.41	3653.58
383.61	4065.51
383.80	4491.49
384.00	5083.64
384.19	5703.89
384.39	5975.39
384.58	6108.80
384.78	5947.30
384.97	5834.96
385.17	5481.53
385.36	5238.12
385.56	5144.50
385.75	5198.33
385.95	5692.18
386.14	6260.93
386.34	6366.26
386.53	6083.05
386.72	5668.78
386.92	5738.99
387.11	5944.96
387.31	6132.20
387.50	6331.15
387.70	5900.49
387.89	5984.75
388.09	5954.32
388.28	6050.28
388.48	6052.63
388.67	6466.90
388.86	7218.21
389.06	7702.70
389.25	8032.72
389.45	8147.40
389.64	7990.59
389.84	7969.52
390.03	8006.97
390.22	7777.60
390.42	8173.15
390.61	8512.53
390.81	9320.01
391.00	9425.34
391.19	9380.87
391.39	9057.87
391.58	8369.76
391.78	7939.10
391.97	7674.62
392.16	7190.13
392.36	6614.35
392.55	5380.89
392.75	4156.79
392.94	3435.91
393.13	3393.78
393.33	4074.87
393.52	5397.28
393.71	6392.00
393.91	7258.00
394.10	7637.17
394.29	8643.60
394.49	8982.98
394.68	9802.16
394.88	9848.97
395.07	10312.40
395.26	10127.50
395.46	9856.00
395.65	9371.50
395.84	8100.59
396.04	6949.05
396.23	5455.79
396.42	4685.75
396.62	4475.10
396.81	5163.22
397.00	6698.61
397.19	8409.54
397.39	10022.17
397.58	11269.68
397.77	11950.78
397.97	12217.60
398.16	12599.10
398.35	12968.91
398.55	13291.90
398.74	13853.63
398.93	14284.29
399.12	13928.53
399.32	13439.36
399.51	13736.60
399.70	14693.88
399.90	14314.72
400.09	14476.21
400.28	14335.78
400.47	14534.73
400.67	15124.54
400.86	15651.16
401.05	15466.26
401.24	15576.27
401.44	15927.35
401.63	16037.35
401.82	16135.65
402.01	15929.69
402.21	16320.56
402.40	16051.39
402.59	15939.05
402.78	15119.86
402.97	14958.36
403.17	15105.82
403.36	16053.73
403.55	16957.18
403.74	17184.21
403.93	16229.27
404.13	15070.71
404.32	14611.96
404.51	15424.13
404.70	16533.54
404.89	16369.71
405.09	16081.82
405.28	15990.54
405.47	15807.98
405.66	15861.81
405.85	15201.78
406.05	14946.66
406.24	15176.03
406.43	15861.81
406.62	16414.18
406.81	16547.59
407.00	15871.17
407.20	15492.01
407.39	15690.95
407.58	16484.39
407.77	16840.15
407.96	17799.77
408.15	17855.95
408.34	17982.34
408.54	19122.18
408.73	18412.99
408.92	18532.36
409.11	17919.14
409.30	17312.94
409.49	15985.86
409.68	15232.21
409.87	14803.89
410.07	15522.43
410.26	16575.67
410.45	17909.78
410.64	18183.62
410.83	18611.94
411.02	19309.42
411.21	20292.44
411.40	19953.07
411.59	19906.26
411.78	19929.66
411.98	19609.01
412.17	20077.12
412.36	19264.95
412.55	19569.22
412.74	19042.60
412.93	18642.37
413.12	19002.81
413.31	20730.12
413.50	20496.07
413.69	20933.75
413.88	20182.44
414.07	19770.51
414.26	20301.81
414.45	20683.31
414.64	21025.03
414.83	21001.63
415.02	20634.16
415.22	20671.61
415.41	20903.32
415.60	21722.51
415.79	22522.98
415.98	22829.59
416.17	23122.15
416.36	22394.25
416.55	22040.82
416.74	21518.89
416.93	20765.23
417.12	20650.55
417.31	21128.02
417.50	21357.39
417.69	21799.75
417.88	22127.42
418.07	21848.90
418.26	21312.92
418.45	21858.26
418.64	22480.85
418.83	23075.34
419.02	23063.64
419.21	22670.43
419.39	21680.38
419.58	20697.36
419.77	20870.56
419.96	22202.32
420.15	23117.47
420.34	23374.93
420.53	24109.86
420.72	24765.21
420.91	24769.89
421.10	24184.76
421.29	24189.44
421.48	23246.20
421.67	24725.42
421.86	23599.62
422.05	22120.40
422.24	19686.25
422.43	19740.08
422.61	22038.48
422.80	23545.79
422.99	23578.56
423.18	22710.22
423.37	22265.52
423.56	22309.99
423.75	22689.15
423.94	22960.66
424.13	21893.37
424.32	22429.35
424.50	22134.45
424.69	21706.13
424.88	22155.51
425.07	22064.23
425.26	21696.77
425.45	21774.00
425.64	21291.85
425.83	21488.46
426.01	22401.27
426.20	22972.36
426.39	22775.75
426.58	21497.82
426.77	19613.69
426.96	19171.33
427.15	19721.35
427.33	21521.23
427.52	22260.84
427.71	22459.78
427.90	22125.08
428.09	21944.86
428.28	21371.43
428.46	20760.55
428.65	20404.79
428.84	21057.80
429.03	21397.18
429.22	19679.22
429.40	18988.77
429.59	17312.94
429.78	15222.84
429.97	15374.98
430.16	15396.04
430.34	15463.92
430.53	15831.38
430.72	16051.39
430.91	17727.22
431.10	20947.79
431.28	24662.22
431.47	26693.81
431.66	26366.13
431.85	24194.12
432.03	22188.28
432.22	21397.18
432.41	22511.27
432.60	24706.70
432.79	25804.41
432.97	26061.87
433.16	25591.42
433.35	23538.77
433.54	21139.72
433.72	19861.79
433.91	20484.37
434.10	23150.24
434.28	24648.18
434.47	25781.00
434.66	25230.98
434.85	24702.01
435.03	24755.85
435.22	25500.14
435.41	26717.22
435.59	26707.85
435.78	26974.67
435.97	27733.01
436.16	28027.92
436.34	27758.75
436.53	27117.45
436.72	27124.47
436.90	25570.35
437.09	25385.45
437.28	25074.16
437.46	26267.83
437.65	25926.11
437.84	24226.89
438.02	22225.73
438.21	22522.98
438.40	23452.17
438.58	25628.87
438.77	25764.62
438.96	26340.39
439.14	27618.32
439.33	27887.48
439.52	28418.78
439.70	27744.71
439.89	27154.90
440.08	26429.33
440.26	26600.19
440.45	27431.08
440.63	29205.20
440.82	30754.64
441.01	30335.68
441.19	29813.74
441.38	30473.78
441.57	31779.79
441.75	32121.51
441.94	32135.56
442.12	31859.37
442.31	32496.00
442.50	32463.23
442.68	31768.09
442.87	31475.52
443.05	30768.68
443.24	31814.90
443.43	32463.23
443.61	33200.50
443.80	33221.56
443.98	31775.11
444.17	31480.21
444.35	33214.54
444.54	33464.98
444.73	33432.21
444.91	32205.77
445.10	30567.40
445.28	29345.64
445.47	28996.90
445.65	29486.07
445.84	29900.34
446.02	31108.06
446.21	31735.32
446.39	31424.03
446.58	32018.53
446.77	32676.22
446.95	32697.28
447.14	34141.39
447.32	34258.42
447.51	33795.00
447.69	32198.75
447.88	32027.89
448.06	32760.48
448.25	33050.70
448.43	33275.40
448.62	32233.86
448.80	32669.20
448.99	32783.88
449.17	33427.53
449.36	33263.69
449.54	34251.40
449.73	34836.53
449.91	35765.73
450.10	35985.74
450.28	36938.33
450.46	36428.10
450.65	36306.39
450.83	36051.27
451.02	35243.79
451.20	35498.91
451.39	35213.36
451.57	34960.58
451.76	35126.76
451.94	34569.71
452.13	34199.91
452.31	32601.32
452.49	31037.84
452.68	31688.51
452.86	31737.66
453.05	31887.46
453.23	32924.32
453.42	33949.47
453.60	34541.63
453.78	34902.07
453.97	34761.64
454.15	34501.84
454.34	33787.97
454.52	34047.77
454.70	33464.98
454.89	33949.47
455.07	33626.48
455.26	34139.05
455.44	35435.71
455.62	36746.41
455.81	36657.47
455.99	36364.90
456.17	35803.17
456.36	36060.63
456.54	37139.62
456.73	36659.81
456.91	37537.51
457.09	37944.76
457.28	38349.68
457.46	36950.04
457.64	36774.50
457.83	35407.62
458.01	35077.61
458.19	35494.22
458.38	36032.55
458.56	37001.53
458.74	36828.33
458.93	36474.91
459.11	36088.72
459.29	36018.50
459.48	36285.33
459.66	35840.62
459.84	36460.87
460.03	36823.65
460.21	36847.05
460.39	37841.78
460.57	37715.39
460.76	38176.48
460.94	38300.53
461.12	37991.58
461.31	37500.06
461.49	37659.22
461.67	37886.25
461.85	39377.17
462.04	38539.26
462.22	39241.42
462.40	38895.02
462.59	38314.57
462.77	38532.24
462.95	38780.34
463.13	38717.14
463.32	37654.54
463.50	37806.67
463.68	37422.83
463.86	38192.86
464.05	37308.14
464.23	36535.76
464.41	36493.63
464.59	36074.68
464.78	37507.08
464.96	37020.25
465.14	37006.21
465.32	37663.90
465.50	39019.07
465.69	39302.28
465.87	38274.78
466.05	37219.20
466.23	35784.45
466.41	34852.92
466.60	36575.55
466.78	35637.00
466.96	36863.44
467.14	37329.20
467.32	38277.12
467.51	37762.20
467.69	36421.08
467.87	36727.69
468.05	37982.21
468.23	37144.30
468.41	37846.46
468.60	37537.51
468.78	37879.23
468.96	37769.22
469.14	38480.75
469.32	38583.73
469.50	37099.83
469.69	37099.83
469.87	36271.28
470.05	36378.95
470.23	36655.13
470.41	36615.34
470.59	37055.36
470.77	37408.78
470.95	37921.36
471.14	38845.87
471.32	38761.61
471.50	40720.64
471.68	40870.43
471.86	41202.79
472.04	41289.39
472.22	41006.19
472.40	39594.84
472.58	38712.46
472.77	38323.93
472.95	39358.45
473.13	40528.72
473.31	39402.92
473.49	39438.03
473.67	40414.03
473.85	40760.43
474.03	41855.80
474.21	41460.25
474.39	41961.12
474.57	42483.06
474.75	42164.75
474.93	41918.99
475.12	40378.92
475.30	41329.18
475.48	41434.50
475.66	41820.69
475.84	41661.54
476.02	41319.82
476.20	40631.70
476.38	41254.28
476.56	42518.17
476.74	43138.41
476.92	42803.72
477.10	43999.73
477.28	45043.61
477.46	45258.94
477.64	45762.15
477.82	45492.99
478.00	45572.57
478.18	44975.73
478.36	44861.05
478.54	44641.04
478.72	45228.51
478.90	46600.07
479.08	47370.10
479.26	47826.51
479.44	47629.90
479.62	47316.27
479.80	47384.15
479.98	47423.93
480.16	47793.74
480.34	47365.42
480.52	48055.88
480.70	47901.40
480.88	47952.90
481.06	48828.26
481.24	49141.89
481.41	49710.64
481.59	50375.35
481.77	50085.12
481.95	49478.92
482.13	49750.43
482.31	49752.77
482.49	50225.56
482.67	49633.40
482.85	50405.78
483.03	51026.02
483.21	50979.21
483.39	51140.71
483.57	50574.30
483.74	50150.66
483.92	50471.31
484.10	50604.72
484.28	51512.85
484.46	51569.02
484.64	52170.54
484.82	51461.36
485.00	51304.54
485.18	50419.82
485.35	48898.47
485.53	45989.19
485.71	42178.79
485.89	42064.11
486.07	44130.80
486.25	47473.09
486.43	49717.66
486.61	50258.32
486.78	50031.29
486.96	50314.50
487.14	51753.93
487.32	52507.58
487.50	53621.67
487.68	54262.98
487.85	54377.67
488.03	54593.00
488.21	53944.67
488.39	53357.19
488.57	52863.34
488.75	53172.29
488.92	53853.39
489.10	55496.44
489.28	56612.88
489.46	57310.36
489.64	56928.85
489.81	57010.77
489.99	56828.21
490.17	57010.77
490.35	57336.10
490.53	56530.96
490.70	56624.58
490.88	56353.08
491.06	57403.98
491.24	57226.10
491.41	56119.02
491.59	54979.18
491.77	54494.69
491.95	55145.36
492.13	56182.22
492.30	57256.53
492.48	58241.89
492.66	58300.40
492.84	58506.37
493.01	58061.67
493.19	57553.77
493.37	57382.91
493.54	57420.36
493.72	58000.82
493.90	58976.82
494.08	59330.24
494.25	59461.31
494.43	59866.22
494.61	60053.47
494.79	60273.48
494.96	60046.44
495.14	59381.73
495.32	58705.32
495.49	58176.36
495.67	59206.19
495.85	60346.03
496.02	60750.94
496.20	60638.60
496.38	60046.44
496.55	59934.10
496.73	60231.35
496.91	60584.77
497.09	60949.89
497.26	61130.11
497.44	60687.75
497.62	60299.22
497.79	59487.06
497.97	58609.35
498.14	58855.11
498.32	59480.03
498.50	60320.29
498.67	60928.83
498.85	60825.84
499.03	61020.11
499.20	60987.34
499.38	61247.14
499.56	61034.15
499.73	60495.83
499.91	60327.31
500.08	59966.87
500.26	59271.73
500.44	59800.69
500.61	60355.39
500.79	60107.30
500.97	59730.47
501.14	59657.91
501.32	59423.86
501.49	59611.10
501.67	59913.03
501.84	60200.92
502.02	60310.92
502.20	60893.72
502.37	60774.35
502.55	61071.60
502.72	61497.58
502.90	61708.22
503.07	61422.68
503.25	61174.58
503.43	60474.76
503.60	59870.90
503.78	59379.39
503.95	59599.40
504.13	60935.85
504.30	61593.54
504.48	61322.04
504.65	61020.11
504.83	61329.06
505.01	61825.25
505.18	62035.90
505.36	62681.89
505.53	62618.69
505.71	62958.07
505.88	62796.57
506.06	62312.08
506.23	61930.58
506.41	61722.27
506.58	61993.77
506.76	61539.71
506.93	61897.81
507.11	61762.06
507.28	61815.89
507.46	61434.38
507.63	60849.25
507.81	60811.80
507.98	61017.77
508.16	61577.15
508.33	62075.69
508.50	62305.06
508.68	62513.37
508.85	62871.47
509.03	63011.90
509.20	62969.77
509.38	62195.06
509.55	61591.20
509.73	61602.90
509.90	62232.50
510.08	62368.26
510.25	62206.76
510.42	62155.27
510.60	62026.54
510.77	62204.42
510.95	62841.04
511.12	62845.72
511.30	63072.76
511.47	63222.55
511.64	63164.04
511.82	63149.99
511.99	62394.00
512.17	61853.34
512.34	61663.75
512.51	61874.40
512.69	61956.32
512.86	61977.39
513.04	62667.84
513.21	62391.66
513.38	62101.43
513.56	61600.56
513.73	60938.19
513.90	61200.33
514.08	61408.64
514.25	61792.48
514.43	61799.50
514.60	61937.60
514.77	62176.33
514.95	62269.95
515.12	62061.64
515.29	62253.57
515.47	62829.34
515.64	63009.56
515.81	62674.87
515.99	61953.98
516.16	60694.77
516.33	58993.20
516.51	57378.23
516.68	56767.35
516.85	56449.04
517.03	56865.66
517.20	59327.90
517.37	61418.00
517.54	62307.40
517.72	61738.65
517.89	59487.06
518.06	57869.75
518.24	57799.53
518.41	59929.42
518.58	60858.61
518.75	61076.28
518.93	61057.56
519.10	61123.09
519.27	61478.85
519.45	61932.92
519.62	62405.70
519.79	62859.77
519.96	62555.50
520.14	62171.65
520.31	61373.53
520.48	61371.19
520.65	61675.46
520.83	62667.84
521.00	62969.77
521.17	62529.75
521.34	62166.97
521.52	62487.62
521.69	63175.74
521.86	63526.82
522.03	63063.39
522.20	61979.73
522.38	60987.34
522.55	61357.14
522.72	61708.22
522.89	61719.93
523.07	61834.61
523.24	62534.43
523.41	63171.06
523.58	63201.49
523.75	63622.78
523.92	63561.93
524.10	63470.65
524.27	63524.48
524.44	63311.49
524.61	63299.79
524.78	63004.88
524.96	62986.16
525.13	63084.46
525.30	63213.19
525.47	63814.71
525.64	63608.74
525.81	62789.55
525.98	61572.47
526.16	60329.65
526.33	59777.28
526.50	59496.42
526.67	59283.43
526.84	59835.80
527.01	60652.64
527.18	61354.80
527.36	62049.94
527.53	63025.95
527.70	63227.23
527.87	62473.58
528.04	62361.23
528.21	62815.30
528.38	63332.56
528.55	63887.26
528.72	64025.35
528.89	64212.60
529.07	63824.07
529.24	63295.11
529.41	62801.25
529.58	62307.40
529.75	62288.68
529.92	62693.59
530.09	63173.40
530.26	63634.48
530.43	63707.04
530.60	63950.46
530.77	64067.48
530.94	64114.29
531.11	63653.21
531.28	63365.32
531.46	63072.76
531.63	63477.67
531.80	63199.15
531.97	62876.15
532.14	62227.82
532.31	61242.46
532.48	60582.43
532.65	60849.25
532.82	61733.97
532.99	62719.34
533.16	63030.63
533.33	63400.43
533.50	63133.61
533.67	62649.12
533.84	62267.61
534.01	62403.36
534.18	62506.35
534.35	62822.32
534.52	62735.72
534.69	62997.86
534.86	63295.11
535.03	63531.50
535.20	63714.06
535.37	64315.58
535.54	64088.55
535.71	63943.44
535.88	63545.54
536.05	62812.96
536.22	62614.01
536.38	62267.61
536.55	62038.24
536.72	61474.17
536.89	61549.07
537.06	62295.70
537.23	63049.35
537.40	63337.24
537.57	63124.25
537.74	62752.10
537.91	62836.36
538.08	62810.62
538.25	62986.16
538.42	63206.17
538.59	62965.09
538.75	62309.74
538.92	62260.59
539.09	62159.95
539.26	61930.58
539.43	61670.78
539.60	61923.55
539.77	62021.86
539.94	61928.23
540.11	61186.28
540.28	60603.49
540.44	60755.63
540.61	61226.07
540.78	61258.84
540.95	61638.01
541.12	61935.26
541.29	62286.34
541.46	62426.77
541.62	62635.08
541.79	62504.01
541.96	61855.68
542.13	62152.93
542.30	62192.72
542.47	62110.80
542.63	62054.62
542.80	61839.29
542.97	62049.94
543.14	61846.32
543.31	61689.50
543.48	62436.13
543.64	63210.85
543.81	63372.34
543.98	63182.76
544.15	62436.13
544.32	61876.74
544.48	62248.89
544.65	62475.92
544.82	62822.32
544.99	62405.70
545.16	62143.56
545.32	62061.64
545.49	62810.62
545.66	62955.73
545.83	62550.82
546.00	62279.31
546.16	62056.96
546.33	62145.90
546.50	62309.74
546.67	62592.95
546.83	62269.95
547.00	62211.44
547.17	61499.92
547.34	61109.05
547.50	60968.61
547.67	61455.45
547.84	61528.00
548.00	62059.30
548.17	62340.17
548.34	62190.37
548.51	62108.46
548.67	62293.36
548.84	62379.96
549.01	62342.51
549.18	62124.84
549.34	62054.62
549.51	62099.09
549.68	61998.45
549.84	61982.07
550.01	61820.57
550.18	61794.82
550.34	61818.23
550.51	61801.85
550.68	61738.65
550.84	61565.45
551.01	61336.08
551.18	61434.38
551.34	61654.39
551.51	61949.30
551.68	62209.10
551.84	62190.37
552.01	62071.01
552.18	62042.92
552.34	61045.85
552.51	60816.48
552.68	60928.83
552.84	61408.64
553.01	61450.77
553.18	61506.94
553.34	61621.62
553.51	61668.44
553.67	61869.72
553.84	62021.86
554.01	61888.45
554.17	61722.27
554.34	61855.68
554.51	62024.20
554.67	62340.17
554.84	62063.99
555.00	61769.08
555.17	61413.32
555.33	61509.28
555.50	61462.47
555.67	61579.49
555.83	61277.57
556.00	61275.22
556.16	61024.79
556.33	60849.25
556.50	60678.39
556.66	60870.31
556.83	60535.62
556.99	60537.96
557.16	60657.32
557.32	61034.15
557.49	61249.48
557.65	61111.39
557.82	61207.35
557.98	60968.61
558.15	60411.57
558.32	59803.03
558.48	59185.13
558.65	59203.85
558.81	59517.48
558.98	59955.16
559.14	59969.21
559.31	60048.78
559.47	60191.56
559.64	59838.14
559.80	59407.48
559.97	59742.17
560.13	60032.40
560.30	60767.33
560.46	61116.07
560.63	61549.07
560.79	61464.81
560.96	61169.90
561.12	60102.62
561.29	59236.62
561.45	59456.63
561.61	59943.46
561.78	60149.43
561.94	60004.31
562.11	60060.49
562.27	59927.08
562.44	60144.75
562.60	60315.61
562.77	60739.24
562.93	60552.00
563.10	60566.04
563.26	60055.81
563.42	60224.32
563.59	59999.63
563.75	59852.18
563.92	60025.38
564.08	59903.67
564.24	60147.09
564.41	60109.64
564.57	60184.54
564.74	59945.80
564.90	59917.71
565.07	59592.38
565.23	59274.07
565.39	58843.41
565.56	58686.59
565.72	58553.18
565.88	58801.28
566.05	59161.72
566.21	59238.96
566.38	59337.26
566.54	59381.73
566.70	59657.91
566.87	59971.55
567.03	59849.84
567.19	60093.25
567.36	59934.10
567.52	59683.66
567.68	59454.29
567.85	58843.41
568.01	58812.98
568.17	58314.45
568.34	58211.46
568.50	58232.53
568.66	58461.90
568.83	58908.94
568.99	58663.19
569.15	58986.18
569.32	58890.22
569.48	58766.17
569.64	58609.35
569.81	58504.03
569.97	58347.21
570.13	58216.14
570.30	57703.57
570.46	57310.36
570.62	56975.66
570.78	57027.15
570.95	57205.03
571.11	58068.69
571.27	58040.60
571.43	58059.33
571.60	58471.26
571.76	58508.71
571.92	58560.20
572.09	58988.52
572.25	58756.81
572.41	58965.12
572.57	58749.79
572.74	58740.42
572.90	58333.17
573.06	58384.66
573.22	58122.52
573.38	58342.53
573.55	58262.96
573.71	58546.16
573.87	58527.44
574.03	58396.37
574.20	58319.13
574.36	57918.90
574.52	57949.32
574.68	57815.91
574.84	57336.10
575.01	57097.37
575.17	56900.76
575.33	57223.76
575.49	57319.72
575.65	57612.29
575.82	57521.01
575.98	57102.05
576.14	57506.96
576.30	57579.52
576.46	57949.32
576.62	57609.95
576.79	57701.23
576.95	57425.04
577.11	57275.25
577.27	57322.06
577.43	57488.24
577.59	57106.73
577.75	56566.07
577.92	56289.88
578.08	56013.70
578.24	56149.45
578.40	56678.41
578.56	56549.68
578.72	56750.97
578.88	56755.65
579.04	57155.88
579.21	57153.54
579.37	57015.45
579.53	57027.15
579.69	57066.94
579.85	57080.98
580.01	56973.32
580.17	56662.03
580.33	56465.42
580.49	56795.44
580.65	56975.66
580.82	56942.89
580.98	57003.75
581.14	56963.96
581.30	57071.62
581.46	56743.95
581.62	57202.69
581.78	56996.73
581.94	57495.26
582.10	57155.88
582.26	57350.15
582.42	57476.54
582.58	57228.44
582.74	57144.18
582.90	57371.21
583.06	57254.18
583.22	57200.35
583.38	57158.22
583.54	56959.28
583.70	56858.63
583.86	56980.34
584.02	56898.42
584.18	57123.11
584.34	56914.81
584.50	56781.40
584.66	56549.68
584.82	56207.97
584.98	56320.31
585.14	56278.18
