SpectraSuite Data File
++++++++++++++++++++++++++++++++++++
Date: Mon Oct 07 14:53:21 GMT-05:00 2013
User: price-jones
Dark Spectrum Present: No
Reference Spectrum Present: No
Number of Sampled Component Spectra: 1
Spectrometers: USB2+H05261
Integration Time (usec): 100000 (USB2+H05261)
Spectra Averaged: 1 (USB2+H05261)
Boxcar Smoothing: 0 (USB2+H05261)
Correct for Electrical Dark: No (USB2+H05261)
Strobe/Lamp Enabled: No (USB2+H05261)
Correct for Detector Non-linearity: No (USB2+H05261)
Correct for Stray Light: No (USB2+H05261)
Number of Pixels in Processed Spectrum: 2048
>>>>>Begin Processed Spectral Data<<<<<
365.73	0.00
365.92	0.00
366.12	0.00
366.32	0.00
366.52	0.00
366.72	0.00
366.91	0.00
367.11	0.00
367.31	0.00
367.51	0.00
367.70	0.00
367.90	0.00
368.10	0.00
368.30	0.00
368.49	0.00
368.69	0.00
368.89	0.00
369.09	0.00
369.28	0.00
369.48	0.00
369.68	0.00
369.87	0.00
370.07	0.00
370.27	0.00
370.47	587.47
370.66	2946.73
370.86	3492.08
371.06	3714.43
371.25	3728.47
371.45	3471.01
371.65	3012.27
371.84	2902.26
372.04	2974.82
372.24	3300.16
372.44	3538.89
372.63	3496.76
372.83	3124.62
373.03	3045.04
373.22	2597.99
373.42	2663.53
373.62	3143.34
373.81	3473.36
374.01	3452.29
374.21	3045.04
374.40	2855.45
374.60	3009.93
374.79	3398.46
374.99	3889.97
375.19	4318.29
375.38	4292.54
375.58	3969.55
375.78	4037.42
375.97	3929.76
376.17	4243.39
376.37	4117.00
376.56	4430.63
376.76	4517.23
376.95	4919.81
377.15	5111.73
377.35	5231.10
377.54	5654.73
377.74	5891.13
377.93	5664.10
378.13	5486.22
378.33	5366.85
378.52	4917.47
378.72	4784.06
378.91	4573.41
379.11	4545.32
379.31	4400.21
379.50	4264.46
379.70	4664.69
379.89	5254.50
380.09	5584.52
380.28	5736.65
380.48	5757.72
380.68	5563.45
380.87	5425.36
381.07	4924.49
381.26	4737.24
381.46	4315.95
381.65	4154.45
381.85	4159.13
382.04	3892.31
382.24	3552.93
382.43	3475.70
382.63	3424.20
382.83	3353.99
383.02	3379.73
383.22	3468.67
383.41	3309.52
383.61	3639.53
383.80	4215.30
384.00	4702.14
384.19	5240.46
384.39	5495.58
384.58	5544.73
384.78	5441.75
384.97	5345.78
385.17	5013.43
385.36	4931.51
385.56	4816.82
385.75	4858.95
385.95	5270.89
386.14	5860.70
386.34	5818.57
386.53	5441.75
386.72	5069.60
386.92	5151.52
387.11	5668.78
387.31	5547.07
387.50	5692.18
387.70	5448.77
387.89	5256.84
388.09	5380.89
388.28	5434.72
388.48	5610.26
388.67	5935.60
388.86	6628.40
389.06	7049.69
389.25	7515.46
389.45	7461.63
389.64	7461.63
389.84	7522.48
390.03	7386.73
390.22	7370.35
390.42	7379.71
390.61	7985.91
390.81	8568.70
391.00	8685.73
391.19	8596.79
391.39	8329.97
391.58	7735.47
391.78	7552.91
391.97	7328.22
392.16	6604.99
392.36	5888.79
392.55	4833.21
392.75	3810.39
392.94	3131.64
393.13	3171.43
393.33	3763.58
393.52	4739.58
393.71	5944.96
393.91	6565.20
394.10	7185.44
394.29	7756.54
394.49	8451.67
394.68	9200.65
394.88	9067.24
395.07	9479.17
395.26	9434.70
395.46	9085.96
395.65	8601.47
395.84	7356.30
396.04	6403.71
396.23	5088.32
396.42	4341.69
396.62	4124.02
396.81	4692.77
397.00	6249.23
397.19	7758.88
397.39	9214.69
397.58	10319.42
397.77	11044.99
397.97	11044.99
398.16	11426.50
398.35	11721.40
398.55	12140.36
398.74	12435.27
398.93	12858.90
399.12	12791.03
399.32	12486.76
399.51	12554.63
399.70	13378.50
399.90	13097.64
400.09	13446.38
400.28	13160.83
400.47	13504.89
400.67	14090.02
400.86	14321.74
401.05	14200.03
401.24	14200.03
401.44	14799.21
401.63	14562.81
401.82	14651.75
402.01	14548.77
402.21	14602.60
402.40	14794.53
402.59	14410.68
402.78	13781.07
402.97	13266.16
403.17	14003.43
403.36	14857.72
403.55	15300.08
403.74	15578.61
403.93	14794.53
404.13	13745.97
404.32	13516.59
404.51	13926.19
404.70	15321.15
404.89	15108.16
405.09	15014.54
405.28	14260.88
405.47	14614.30
405.66	14553.45
405.85	14286.63
406.05	13781.07
406.24	13748.31
406.43	14530.05
406.62	15204.12
406.81	14956.02
407.00	14511.32
407.20	14171.94
407.39	14251.52
407.58	15023.90
407.77	15651.16
407.96	16105.23
408.15	16065.44
408.34	16149.70
408.54	17160.81
408.73	17254.43
408.92	16800.37
409.11	16428.22
409.30	15786.91
409.49	14946.66
409.68	13926.19
409.87	13404.25
410.07	14310.04
410.26	15243.91
410.45	16210.55
410.64	16718.45
410.83	17341.03
411.02	17717.86
411.21	18518.32
411.40	18120.43
411.59	18010.42
411.78	17743.60
411.98	17717.86
412.17	18099.36
412.36	18017.44
412.55	17825.52
412.74	17392.52
412.93	16809.73
413.12	17371.46
413.31	18944.30
413.50	19096.43
413.69	19454.53
413.88	18754.71
414.07	18150.85
414.26	18523.00
414.45	18925.57
414.64	18906.85
414.83	19227.50
415.02	18630.66
415.22	18799.18
415.41	19143.24
415.60	19639.44
415.79	20659.91
415.98	20910.35
416.17	21039.08
416.36	20339.26
416.55	20079.46
416.74	19328.14
416.93	18796.84
417.12	18831.95
417.31	19101.11
417.50	19281.33
417.69	20402.45
417.88	19962.43
418.07	19618.37
418.26	19641.78
418.45	19562.20
418.64	20374.36
418.83	21081.21
419.02	20512.46
419.21	20629.48
419.39	19742.42
419.58	18986.43
419.77	19058.98
419.96	19520.07
420.15	20769.91
420.34	21373.77
420.53	21900.39
420.72	22752.35
420.91	22422.33
421.10	21891.03
421.29	22225.73
421.48	21013.33
421.67	22265.52
421.86	21369.09
422.05	20095.84
422.24	17891.06
422.43	17848.93
422.61	19763.48
422.80	21359.73
422.99	21336.32
423.18	20659.91
423.37	19995.20
423.56	20130.95
423.75	20973.54
423.94	20989.92
424.13	19990.52
424.32	20147.33
424.50	20329.89
424.69	20018.60
424.88	20088.82
425.07	20065.41
425.26	19522.41
425.45	19550.49
425.64	19267.29
425.83	19414.74
426.01	20643.52
426.20	21195.89
426.39	21062.48
426.58	19365.59
426.77	18113.41
426.96	16901.01
427.15	17919.14
427.33	19410.06
427.52	20102.86
427.71	20245.63
427.90	19927.32
428.09	19847.74
428.28	19410.06
428.46	18934.93
428.65	18548.75
428.84	18897.49
429.03	19400.70
429.22	18221.07
429.40	17179.53
429.59	15800.96
429.78	13827.88
429.97	13839.59
430.16	14380.25
430.34	14214.07
430.53	14139.18
430.72	14441.11
430.91	16023.31
431.10	18897.49
431.28	21991.67
431.47	24006.87
431.66	24280.72
431.85	21848.90
432.03	20311.17
432.22	19257.93
432.41	20304.15
432.60	22115.72
432.79	23257.90
432.97	23793.89
433.16	23126.83
433.35	21336.32
433.54	19145.58
433.72	17748.28
433.91	18466.83
434.10	20692.68
434.28	22068.91
434.47	23150.24
434.66	22979.38
434.85	22632.98
435.03	22380.20
435.22	23016.83
435.41	24175.39
435.59	24142.63
435.78	24500.73
435.97	25329.28
436.16	25738.87
436.34	24975.86
436.53	24666.91
436.72	24350.93
436.90	23400.68
437.09	23145.56
437.28	22249.13
437.46	23321.10
437.65	23300.03
437.84	21818.47
438.02	19826.68
438.21	20123.93
438.40	20973.54
438.58	22916.19
438.77	23646.43
438.96	23826.65
439.14	24505.41
439.33	25523.54
439.52	25673.34
439.70	25149.06
439.89	24292.42
440.08	23971.77
440.26	23948.36
440.45	24603.71
440.63	26279.54
440.82	27611.30
441.01	27140.85
441.19	27260.22
441.38	27035.53
441.57	28353.25
441.75	28734.76
441.94	29069.45
442.12	28505.38
442.31	29387.77
442.50	29034.35
442.68	28975.83
442.87	28575.60
443.05	28044.30
443.24	28964.13
443.43	29174.78
443.61	29509.47
443.80	29937.79
443.98	28198.77
444.17	28226.86
444.35	29851.19
444.54	30923.16
444.73	30267.81
444.91	28755.82
445.10	27693.22
445.28	26497.20
445.47	25860.58
445.65	26082.93
445.84	26932.54
446.02	28023.23
446.21	28542.83
446.39	28566.24
446.58	28772.21
446.77	29750.55
446.95	29605.44
447.14	30595.48
447.32	30848.26
447.51	30164.82
447.69	29399.47
447.88	28779.23
448.06	28802.63
448.25	30052.48
448.43	30125.04
448.62	29364.36
448.80	29256.70
448.99	29465.00
449.17	29797.36
449.36	29635.86
449.54	30852.94
449.73	31255.51
449.91	31941.29
450.10	32655.15
450.28	33104.54
450.46	32737.07
450.65	32730.05
450.83	32613.02
451.02	32123.85
451.20	31735.32
451.39	31737.66
451.57	31505.95
451.76	31704.90
451.94	31253.17
452.13	30761.66
452.31	29268.40
452.49	27821.95
452.68	28357.93
452.86	28362.61
453.05	28739.44
453.23	29645.23
453.42	30527.61
453.60	31042.53
453.78	31445.10
453.97	30735.92
454.15	30923.16
454.34	30443.35
454.52	30661.02
454.70	29656.93
454.89	30628.25
455.07	30417.60
455.26	30796.77
455.44	31756.39
455.62	32535.79
455.81	32613.02
455.99	32009.17
456.17	31871.07
456.36	32261.94
456.54	32961.76
456.73	32957.08
456.91	33064.75
457.09	33769.25
457.28	34611.84
457.46	32966.45
457.64	32774.52
457.83	31927.25
458.01	30965.29
458.19	31821.92
458.38	32481.95
458.56	33017.94
458.74	33069.43
458.93	32671.54
459.11	32299.39
459.29	32191.73
459.48	32481.95
459.66	31864.05
459.84	32437.48
460.03	32816.65
460.21	32673.88
460.39	33841.81
460.57	33677.97
460.76	34691.42
460.94	34473.75
461.12	33572.64
461.31	33872.23
461.49	33621.80
461.67	33839.47
461.85	34424.60
462.04	34555.67
462.22	35079.95
462.40	34771.00
462.59	34731.21
462.77	34787.38
462.95	34937.18
463.13	34553.33
463.32	33687.33
463.50	33441.57
463.68	33479.02
463.86	33890.96
464.05	33277.74
464.23	32856.44
464.41	32657.49
464.59	32102.79
464.78	33500.09
464.96	33366.68
465.14	33097.52
465.32	34047.77
465.50	34845.90
465.69	34548.65
465.87	33956.49
466.05	33046.02
466.23	32397.70
466.41	31143.17
466.60	32121.51
466.78	32158.96
466.96	32929.00
467.14	33130.28
467.32	33900.32
467.51	33670.95
467.69	32357.91
467.87	33090.49
468.05	33799.68
468.23	33530.51
468.41	33296.46
468.60	33647.54
468.78	33935.43
468.96	33207.52
469.14	34164.80
469.32	34117.99
469.50	32985.17
469.69	33029.64
469.87	32283.01
470.05	32701.96
470.23	32381.31
470.41	32397.70
470.59	32961.76
470.77	33457.96
470.95	33607.75
471.14	34113.31
471.32	34164.80
471.50	36084.04
471.68	36514.70
471.86	36964.08
472.04	36818.97
472.22	36765.14
472.40	35306.98
472.58	34635.25
472.77	34206.93
472.95	34885.68
473.13	36070.00
473.31	34958.24
473.49	35077.61
473.67	36006.80
473.85	36133.19
474.03	36917.27
474.21	37036.64
474.39	37479.00
474.57	37572.62
474.75	37935.40
474.93	37481.34
475.12	36687.90
475.30	36842.37
475.48	36811.95
475.66	37034.30
475.84	36732.37
476.02	36774.50
476.20	35952.97
476.38	37151.32
476.56	37879.23
476.74	38246.69
476.92	38223.29
477.10	38649.27
477.28	40100.40
477.46	40018.48
477.64	40273.60
477.82	40540.42
478.00	41230.88
478.18	40428.07
478.36	39768.04
478.54	39974.01
478.72	40231.47
478.90	41118.53
479.08	42429.23
479.26	42611.79
479.44	42775.63
479.62	42429.23
479.80	42424.55
479.98	42380.08
480.16	43082.24
480.34	42548.60
480.52	42745.20
480.70	43117.35
480.88	43281.19
481.06	44128.46
481.24	44809.56
481.41	45256.60
481.59	45792.58
481.77	45420.44
481.95	44568.48
482.13	44804.88
482.31	45031.91
482.49	45848.75
482.67	45237.87
482.85	45773.86
483.03	46038.34
483.21	46789.65
483.39	46543.89
483.57	46024.29
483.74	45443.84
483.92	46155.36
484.10	45944.72
484.28	46962.85
484.46	47447.34
484.64	47863.96
484.82	46670.28
485.00	46487.72
485.18	45436.82
485.35	44257.19
485.53	41085.76
485.71	37525.81
485.89	37165.37
486.07	39044.82
486.25	42040.70
486.43	45008.50
486.61	45382.99
486.78	44994.46
486.96	45074.04
487.14	47199.24
487.32	47992.68
487.50	48921.88
487.68	49708.30
487.85	50314.50
488.03	50241.94
488.21	50258.32
488.39	49263.60
488.57	48676.12
488.75	48287.59
488.92	49233.17
489.10	51578.39
489.28	52945.26
489.46	53584.22
489.64	53443.79
489.81	53488.26
489.99	53146.54
490.17	53172.29
490.35	53586.57
490.53	53057.60
490.70	52612.90
490.88	52795.46
491.06	53687.21
491.24	53471.88
491.41	52484.17
491.59	50681.96
491.77	50115.55
491.95	51058.79
492.13	52568.43
492.30	53647.42
492.48	54831.73
492.66	55131.32
492.84	55023.65
493.01	54672.57
493.19	54164.68
493.37	53902.54
493.54	53780.83
493.72	54422.14
493.90	55334.95
494.08	56093.28
494.25	56184.56
494.43	56444.36
494.61	56699.48
494.79	56903.10
494.96	56694.80
495.14	56037.11
495.32	55234.30
495.49	54281.70
495.67	55594.74
495.85	56793.10
496.02	57162.90
496.20	57251.84
496.38	56715.86
496.55	56540.32
496.73	56942.89
496.91	56914.81
497.09	57689.52
497.26	57956.35
497.44	57462.49
497.62	56966.30
497.79	56030.08
497.97	54651.51
498.14	54972.16
498.32	56264.14
498.50	57083.33
498.67	57708.25
498.85	57291.63
499.03	57726.97
499.20	57874.43
499.38	57883.79
499.56	57539.73
499.73	57144.18
499.91	56842.25
500.08	56404.57
500.26	55512.83
500.44	56121.37
500.61	56786.08
500.79	56711.18
500.97	56004.34
501.14	56086.26
501.32	56114.34
501.49	55899.01
501.67	56303.93
501.84	56526.28
502.02	57179.29
502.20	57331.42
502.37	57265.89
502.55	57467.17
502.72	57776.12
502.90	58482.97
503.07	57869.75
503.25	57907.19
503.43	56924.17
503.60	56275.84
503.78	55650.92
503.95	56243.07
504.13	57315.04
504.30	58340.19
504.48	58174.02
504.65	57726.97
504.83	57846.34
505.01	58351.90
505.18	58780.21
505.36	59196.83
505.53	59150.02
505.71	59487.06
505.88	59512.80
506.06	58841.07
506.23	58489.99
506.41	58267.64
506.58	58562.54
506.76	58248.91
506.93	58401.05
507.11	57946.98
507.28	58220.83
507.46	57771.44
507.63	57336.10
507.81	56975.66
507.98	57415.68
508.16	58150.61
508.33	58497.01
508.50	58913.62
508.68	59231.94
508.85	59641.53
509.03	59543.23
509.20	59484.72
509.38	58838.73
509.55	58204.44
509.73	58099.12
509.90	58735.74
510.08	58983.84
510.25	58848.09
510.42	58616.38
510.60	58520.41
510.77	58791.92
510.95	59402.80
511.12	59592.38
511.30	59700.04
511.47	60083.89
511.64	59891.97
511.82	59660.26
511.99	58857.45
512.17	58562.54
512.34	58061.67
512.51	58356.58
512.69	58599.99
512.86	58684.25
513.04	58976.82
513.21	59044.69
513.38	58717.02
513.56	58197.42
513.73	57495.26
513.90	57914.22
514.08	57659.10
514.25	58354.24
514.43	58195.08
514.60	58543.82
514.77	58628.08
514.95	58611.70
515.12	58375.30
515.29	58944.05
515.47	59292.79
515.64	59798.35
515.81	59128.95
515.99	58663.19
516.16	57095.03
516.33	55105.57
516.51	53324.43
516.68	52765.04
516.85	52240.76
517.03	52463.11
517.20	55400.48
517.37	57827.62
517.54	58817.66
517.72	58099.12
517.89	55896.67
518.06	53565.50
518.24	53886.15
518.41	56079.24
518.58	57537.39
518.75	57560.79
518.93	57696.55
519.10	57471.85
519.27	58239.55
519.45	58365.94
519.62	58901.92
519.79	59384.07
519.96	59267.05
520.14	58695.95
520.31	57766.76
520.48	57654.42
520.65	58204.44
520.83	59173.42
521.00	59585.36
521.17	59117.25
521.34	58738.08
521.52	59131.29
521.69	59524.50
521.86	59859.20
522.03	59576.00
522.20	58461.90
522.38	57513.98
522.55	57612.29
522.72	58061.67
522.89	58377.64
523.07	58354.24
523.24	58845.75
523.41	59578.34
523.58	59674.30
523.75	60285.18
523.92	60020.70
524.10	59852.18
524.27	60198.58
524.44	59931.76
524.61	59650.89
524.78	59433.22
524.96	59444.93
525.13	59473.01
525.30	59840.48
525.47	60149.43
525.64	60109.64
525.81	59306.83
525.98	58010.18
526.16	56619.90
526.33	55828.80
526.50	55889.65
526.67	55409.84
526.84	55870.93
527.01	57055.24
527.18	57663.78
527.36	58775.53
527.53	59503.44
527.70	59597.06
527.87	59217.89
528.04	58660.85
528.21	59121.93
528.38	59875.58
528.55	60261.77
528.72	60561.36
528.89	60774.35
529.07	60451.36
529.24	59788.98
529.41	59299.81
529.58	58422.11
529.75	58794.26
529.92	59222.58
530.09	59735.15
530.26	60058.15
530.43	60308.58
530.60	60364.76
530.77	60659.66
530.94	60685.41
531.11	60072.19
531.28	59636.85
531.46	59634.51
531.63	59683.66
531.80	59751.54
531.97	59201.51
532.14	58518.07
532.31	57481.22
532.48	56912.47
532.65	57029.49
532.82	57776.12
532.99	59063.42
533.16	59128.95
533.33	59842.82
533.50	59597.06
533.67	58820.00
533.84	58468.92
534.01	58745.11
534.18	58937.03
534.35	59086.82
534.52	59058.74
534.69	59037.67
534.86	59599.40
535.03	59943.46
535.20	60196.24
535.37	60453.70
535.54	60563.70
535.71	60434.97
535.88	59976.23
536.05	59306.83
536.22	59075.12
536.38	58820.00
536.55	58202.10
536.72	57656.76
536.89	57673.14
537.06	58508.71
537.23	59236.62
537.40	59557.27
537.57	59468.33
537.74	59358.33
537.91	59288.11
538.08	59250.66
538.25	59253.00
538.42	59449.61
538.59	59037.67
538.75	58501.69
538.92	58473.60
539.09	58272.32
539.26	58124.86
539.43	57881.45
539.60	57937.62
539.77	58518.07
539.94	57893.15
540.11	57333.76
540.28	56772.03
540.44	56970.98
540.61	57167.58
540.78	57265.89
540.95	57792.51
541.12	58197.42
541.29	58291.04
541.46	58768.51
541.62	58834.05
541.79	58599.99
541.96	57701.23
542.13	58120.18
542.30	58195.08
542.47	58501.69
542.63	58321.47
542.80	57897.83
542.97	58117.84
543.14	57996.13
543.31	57858.04
543.48	58623.40
543.64	59419.18
543.81	59475.35
543.98	59299.81
544.15	58878.52
544.32	58106.14
544.48	58204.44
544.65	58560.20
544.82	58901.92
544.99	58735.74
545.16	58403.39
545.32	58166.99
545.49	59079.80
545.66	59236.62
545.83	58752.13
546.00	58485.31
546.16	58185.72
546.33	58174.02
546.50	58298.06
546.67	58866.81
546.83	58269.98
547.00	58302.74
547.17	57741.02
547.34	57102.05
547.50	56954.60
547.67	57462.49
547.84	57673.14
548.00	58066.35
548.17	58361.26
548.34	58251.25
548.51	58298.06
548.67	58213.80
548.84	58122.52
549.01	58450.20
549.18	58211.46
549.34	58054.65
549.51	57968.05
549.68	58089.76
549.84	57748.04
550.01	57748.04
550.18	57647.39
550.34	57881.45
550.51	57855.70
550.68	57946.98
550.84	57230.78
551.01	57567.82
551.18	57483.56
551.34	57698.89
551.51	57979.75
551.68	58206.78
551.84	58419.77
552.01	57972.73
552.18	57986.77
552.34	57242.48
552.51	56802.46
552.68	56800.12
552.84	57333.76
553.01	57748.04
553.18	57343.12
553.34	57675.48
553.51	57544.41
553.67	57944.64
553.84	58101.46
554.01	57935.28
554.17	57535.05
554.34	57888.47
554.51	57993.79
554.67	58372.96
554.84	57900.17
555.00	57792.51
555.17	57546.75
555.33	57439.09
555.50	57698.89
555.67	57347.81
555.83	57396.96
556.00	56938.21
556.16	57116.09
556.33	56781.40
556.50	56446.70
556.66	56664.37
556.83	56355.42
556.99	56357.76
557.16	56629.26
557.32	56809.48
557.49	56989.70
557.65	57041.20
557.82	56914.81
557.98	56727.56
558.15	56388.19
558.32	55515.17
558.48	54894.92
558.65	54873.86
558.81	55379.42
558.98	55550.27
559.14	55994.98
559.31	56243.07
559.47	55856.88
559.64	55519.85
559.80	55152.38
559.97	55302.18
560.13	55884.97
560.30	56839.91
560.46	57237.80
560.63	57244.82
560.79	57354.83
560.96	56650.33
561.12	55702.41
561.29	55196.85
561.45	55042.38
561.61	55753.90
561.78	56133.07
561.94	55957.53
562.11	55934.12
562.27	55781.99
562.44	56058.17
562.60	56233.71
562.77	56324.99
562.93	56355.42
563.10	56376.48
563.26	55676.66
563.42	55634.53
563.59	55683.69
563.75	55718.79
563.92	55512.83
564.08	55583.04
564.24	55767.94
564.41	55969.23
564.57	55594.74
564.74	55515.17
564.90	55664.96
565.07	55288.13
565.23	54955.78
565.39	54319.15
565.56	54237.23
565.72	53736.36
565.88	54337.88
566.05	54543.84
566.21	54768.54
566.38	54857.48
566.54	55037.70
566.70	55433.25
566.87	55615.81
567.03	55702.41
567.19	55901.36
567.36	55484.74
567.52	55306.86
567.68	54908.97
567.85	54482.99
568.01	54316.81
568.17	53670.82
568.34	53764.45
568.50	53368.90
568.66	53778.49
568.83	53991.48
568.99	54248.94
569.15	54380.01
569.32	54429.16
569.48	53783.17
569.64	53846.36
569.81	53626.35
569.97	53612.31
570.13	53380.60
570.30	52938.24
570.46	52790.78
570.62	52149.48
570.78	51896.70
570.95	52025.43
571.11	52914.83
571.27	53134.84
571.43	53710.61
571.60	53577.20
571.76	53455.50
571.92	54342.56
572.09	54288.73
572.25	54141.27
572.41	54157.66
572.57	54071.06
572.74	54188.08
572.90	53581.88
573.06	53593.59
573.22	53628.69
573.38	53890.83
573.55	53743.38
573.71	53972.75
573.87	53467.20
574.03	53570.18
574.20	53312.72
574.36	52940.58
574.52	52837.59
574.68	53017.82
574.84	52432.68
575.01	52168.20
575.17	51833.50
575.33	52112.03
575.49	52624.60
575.65	52392.89
575.82	52521.62
575.98	52280.55
576.14	52437.36
576.30	52893.77
576.46	53041.22
576.62	52760.36
576.79	52851.64
576.95	52526.30
577.11	52310.97
577.27	52418.64
577.43	52587.16
577.59	52088.62
577.75	51889.68
577.92	50993.25
578.08	50869.20
578.24	50948.78
578.40	51161.77
578.56	51405.19
578.72	51271.78
578.88	51875.63
579.04	52172.88
579.21	52004.36
579.37	52158.84
579.53	52062.88
579.69	51910.74
579.85	52280.55
580.01	52116.71
580.17	51854.57
580.33	51356.03
580.49	51576.04
580.65	51772.65
580.82	52083.94
580.98	52018.41
581.14	52095.64
581.30	51950.53
581.46	51892.02
581.62	52168.20
581.78	52058.20
581.94	52598.86
582.10	52322.68
582.26	51966.91
582.42	52198.63
582.58	52273.52
582.74	51985.64
582.90	52172.88
583.06	52182.24
583.22	51725.84
583.38	51866.27
583.54	51971.60
583.70	51889.68
583.86	51737.54
584.02	51732.86
584.18	51540.94
584.34	51562.00
584.50	51260.07
584.66	51494.13
584.82	51026.02
584.98	51126.66
585.14	50754.52
585.30	50103.85
