SpectraSuite Data File
++++++++++++++++++++++++++++++++++++
Date: Mon Oct 07 14:54:55 GMT-05:00 2013
User: price-jones
Dark Spectrum Present: No
Reference Spectrum Present: No
Number of Sampled Component Spectra: 1
Spectrometers: USB2+H05261
Integration Time (usec): 10000 (USB2+H05261)
Spectra Averaged: 1 (USB2+H05261)
Boxcar Smoothing: 0 (USB2+H05261)
Correct for Electrical Dark: No (USB2+H05261)
Strobe/Lamp Enabled: No (USB2+H05261)
Correct for Detector Non-linearity: No (USB2+H05261)
Correct for Stray Light: No (USB2+H05261)
Number of Pixels in Processed Spectrum: 2048
>>>>>Begin Processed Spectral Data<<<<<
365.73	0.00
365.92	0.00
366.12	0.00
366.32	0.00
366.52	0.00
366.72	0.00
366.91	0.00
367.11	0.00
367.31	0.00
367.51	0.00
367.70	0.00
367.90	0.00
368.10	0.00
368.30	0.00
368.49	0.00
368.69	0.00
368.89	0.00
369.09	0.00
369.28	0.00
369.48	0.00
369.68	0.00
369.87	0.00
370.07	0.00
370.27	0.00
370.47	0.00
370.66	0.00
370.86	4.68
371.06	0.00
371.25	30.43
371.45	0.00
371.65	0.00
371.84	0.00
372.04	2.34
372.24	0.00
372.44	0.00
372.63	4.68
372.83	23.41
373.03	0.00
373.22	0.00
373.42	0.00
373.62	0.00
373.81	28.09
374.01	63.19
374.21	0.00
374.40	25.75
374.60	0.00
374.79	49.15
374.99	0.00
375.19	107.66
375.38	58.51
375.58	72.56
375.78	21.06
375.97	51.49
376.17	119.37
376.37	93.62
376.56	28.09
376.76	112.35
376.95	88.94
377.15	147.45
377.35	229.37
377.54	250.44
377.74	285.55
377.93	194.26
378.13	147.45
378.33	161.50
378.52	135.75
378.72	142.77
378.91	81.92
379.11	112.35
379.31	72.56
379.50	166.18
379.70	67.88
379.89	152.13
380.09	91.28
380.28	194.26
380.48	191.92
380.68	131.07
380.87	194.26
381.07	58.51
381.26	100.64
381.46	79.58
381.65	23.41
381.85	98.30
382.04	46.81
382.24	32.77
382.43	44.47
382.63	4.68
382.83	72.56
383.02	79.58
383.22	56.17
383.41	42.13
383.61	0.00
383.80	42.13
384.00	128.73
384.19	133.41
384.39	191.92
384.58	166.18
384.78	191.92
384.97	142.77
385.17	142.77
385.36	126.39
385.56	140.43
385.75	140.43
385.95	105.32
386.14	208.31
386.34	107.66
386.53	201.29
386.72	173.20
386.92	124.05
387.11	201.29
387.31	168.52
387.50	224.69
387.70	156.82
387.89	191.92
388.09	168.52
388.28	131.07
388.48	170.86
388.67	147.45
388.86	182.56
389.06	196.60
389.25	308.95
389.45	271.50
389.64	374.49
389.84	255.12
390.03	273.84
390.22	294.91
390.42	227.03
390.61	351.08
390.81	355.76
391.00	404.91
391.19	362.78
391.39	428.32
391.58	393.21
391.78	330.02
391.97	252.78
392.16	231.71
392.36	315.97
392.55	124.05
392.75	67.88
392.94	23.41
393.13	16.38
393.33	28.09
393.52	149.79
393.71	208.31
393.91	248.10
394.10	325.33
394.29	365.12
394.49	376.83
394.68	390.87
394.88	416.62
395.07	465.77
395.26	397.89
395.46	360.44
395.65	400.23
395.84	327.68
396.04	257.46
396.23	138.09
396.42	93.62
396.62	53.83
396.81	168.52
397.00	285.55
397.19	339.38
397.39	493.85
397.58	535.98
397.77	594.50
397.97	613.22
398.16	610.88
398.35	603.86
398.55	643.65
398.74	805.14
398.93	744.29
399.12	737.27
399.32	641.31
399.51	727.91
399.70	734.93
399.90	713.86
400.09	723.23
400.28	732.59
400.47	802.80
400.67	795.78
400.86	706.84
401.05	784.08
401.24	819.19
401.44	844.93
401.63	802.80
401.82	812.17
402.01	851.96
402.21	786.42
402.40	950.26
402.59	823.87
402.78	753.65
402.97	748.97
403.17	767.70
403.36	936.21
403.55	891.74
403.74	896.43
403.93	816.85
404.13	788.76
404.32	774.72
404.51	709.18
404.70	896.43
404.89	791.10
405.09	833.23
405.28	763.01
405.47	798.12
405.66	819.19
405.85	770.04
406.05	795.78
406.24	697.48
406.43	840.25
406.62	835.57
406.81	910.47
407.00	837.91
407.20	849.61
407.39	805.14
407.58	844.93
407.77	968.98
407.96	990.05
408.15	945.58
408.34	933.87
408.54	1050.90
408.73	1006.43
408.92	1013.45
409.11	866.00
409.30	887.06
409.49	863.66
409.68	758.33
409.87	723.23
410.07	755.99
410.26	793.44
410.45	856.64
410.64	931.53
410.83	978.34
411.02	1025.15
411.21	1118.78
411.40	1057.92
411.59	1011.11
411.78	990.05
411.98	1086.01
412.17	1074.31
412.36	1109.41
412.55	1036.86
412.74	1039.20
412.93	966.64
413.12	889.40
413.31	1095.37
413.50	1015.79
413.69	1139.84
413.88	973.66
414.07	1083.67
414.26	1029.84
414.45	1174.95
414.64	1228.78
414.83	1095.37
415.02	1163.25
415.22	1050.90
415.41	1146.86
415.60	1057.92
415.79	1231.12
415.98	1303.68
416.17	1284.95
416.36	1146.86
416.55	1163.25
416.74	1146.86
416.93	1203.04
417.12	1177.29
417.31	1107.07
417.50	1123.46
417.69	1224.10
417.88	1170.27
418.07	1114.10
418.26	1095.37
418.45	1167.93
418.64	1153.88
418.83	1343.47
419.02	1273.25
419.21	1249.85
419.39	1146.86
419.58	1086.01
419.77	983.02
419.96	1135.16
420.15	1165.59
420.34	1261.55
420.53	1270.91
420.72	1299.00
420.91	1219.42
421.10	1289.64
421.29	1275.59
421.48	1203.04
421.67	1313.04
421.86	1291.98
422.05	1191.33
422.24	1050.90
422.43	994.73
422.61	1114.10
422.80	1245.16
422.99	1282.61
423.18	1109.41
423.37	1102.39
423.56	1172.61
423.75	1170.27
423.94	1196.01
424.13	1076.65
424.32	1163.25
424.50	1139.84
424.69	1167.93
424.88	1153.88
425.07	1217.08
425.26	1207.72
425.45	1135.16
425.64	1050.90
425.83	1144.52
426.01	1146.86
426.20	1142.18
426.39	1146.86
426.58	1062.60
426.77	1011.11
426.96	973.66
427.15	954.94
427.33	1032.18
427.52	1090.69
427.71	1086.01
427.90	1212.40
428.09	1137.50
428.28	1088.35
428.46	987.71
428.65	1025.15
428.84	1050.90
429.03	1020.47
429.22	1074.31
429.40	954.94
429.59	887.06
429.78	758.33
429.97	699.82
430.16	753.65
430.34	741.95
430.53	748.97
430.72	695.14
430.91	880.04
431.10	1050.90
431.28	1352.83
431.47	1371.55
431.66	1446.45
431.85	1231.12
432.03	1217.08
432.22	1153.88
432.41	1146.86
432.60	1263.89
432.79	1329.42
432.97	1448.79
433.16	1315.38
433.35	1203.04
433.54	1100.05
433.72	990.05
433.91	1015.79
434.10	1165.59
434.28	1268.57
434.47	1444.11
434.66	1277.93
434.85	1214.74
435.03	1331.76
435.22	1282.61
435.41	1437.09
435.59	1511.99
435.78	1432.41
435.97	1437.09
436.16	1497.94
436.34	1460.49
436.53	1394.96
436.72	1380.92
436.90	1303.68
437.09	1383.26
437.28	1303.68
437.46	1390.28
437.65	1371.55
437.84	1181.97
438.02	1097.71
438.21	1135.16
438.40	1132.82
438.58	1224.10
438.77	1338.79
438.96	1301.34
439.14	1455.81
439.33	1474.54
439.52	1430.07
439.70	1423.05
439.89	1444.11
440.08	1362.19
440.26	1352.83
440.45	1348.15
440.63	1554.12
440.82	1596.25
441.01	1528.37
441.19	1437.09
441.38	1631.35
441.57	1617.31
441.75	1629.01
441.94	1699.23
442.12	1689.87
442.31	1582.20
442.50	1729.66
442.68	1617.31
442.87	1699.23
443.05	1610.29
443.24	1741.36
443.43	1565.82
443.61	1696.89
443.80	1722.63
443.98	1544.75
444.17	1624.33
444.35	1722.63
444.54	1729.66
444.73	1767.10
444.91	1654.76
445.10	1516.67
445.28	1404.32
445.47	1425.39
445.65	1493.26
445.84	1621.99
446.02	1652.42
446.21	1659.44
446.39	1664.12
446.58	1631.35
446.77	1783.49
446.95	1727.32
447.14	1736.68
447.32	1771.79
447.51	1757.74
447.69	1540.07
447.88	1645.40
448.06	1675.82
448.25	1643.06
448.43	1741.36
448.62	1694.55
448.80	1668.80
448.99	1685.19
449.17	1757.74
449.36	1626.67
449.54	1732.00
449.73	1837.32
449.91	1804.55
450.10	1961.37
450.28	1956.69
450.46	1949.67
450.65	1823.28
450.83	1865.41
451.02	1813.92
451.20	1781.15
451.39	1858.39
451.57	1858.39
451.76	1755.40
451.94	1853.70
452.13	1722.63
452.31	1675.82
452.49	1619.65
452.68	1514.33
452.86	1619.65
453.05	1575.18
453.23	1640.72
453.42	1657.10
453.60	1755.40
453.78	1795.19
453.97	1760.08
454.15	1860.73
454.34	1760.08
454.52	1715.61
454.70	1654.76
454.89	1795.19
455.07	1647.74
455.26	1671.14
455.44	1809.23
455.62	1952.01
455.81	1937.96
455.99	1895.83
456.17	1874.77
456.36	1937.96
456.54	1984.77
456.73	1874.77
456.91	2059.67
457.09	1912.22
457.28	2001.16
457.46	1842.00
457.64	1909.88
457.83	1717.95
458.01	1746.04
458.19	1956.69
458.38	1853.70
458.56	1961.37
458.74	1940.30
458.93	1905.20
459.11	1858.39
459.29	1760.08
459.48	1877.11
459.66	1863.07
459.84	1846.68
460.03	1937.96
460.21	1799.87
460.39	1923.92
460.57	1930.94
460.76	1895.83
460.94	1909.88
461.12	1914.56
461.31	2026.90
461.49	1902.86
461.67	1856.04
461.85	1905.20
462.04	1827.96
462.22	2120.53
462.40	1975.41
462.59	1973.07
462.77	1930.94
462.95	1970.73
463.13	1834.98
463.32	1902.86
463.50	1837.32
463.68	1982.43
463.86	1757.74
464.05	1893.49
464.23	1844.34
464.41	1811.57
464.59	1760.08
464.78	1905.20
464.96	1900.52
465.14	1881.79
465.32	1846.68
465.50	2022.22
465.69	2026.90
465.87	1900.52
466.05	1813.92
466.23	1701.57
466.41	1720.29
466.60	1912.22
466.78	1879.45
466.96	1952.01
467.14	1914.56
467.32	1961.37
467.51	1947.33
467.69	1732.00
467.87	1729.66
468.05	1851.36
468.23	1856.04
468.41	1870.09
468.60	1902.86
468.78	1959.03
468.96	1825.62
469.14	1916.90
469.32	1879.45
469.50	1771.79
469.69	1776.47
469.87	1778.81
470.05	1839.66
470.23	1788.17
470.41	1825.62
470.59	1783.49
470.77	1762.42
470.95	1905.20
471.14	1867.75
471.32	1846.68
471.50	1989.46
471.68	2001.16
471.86	2033.93
472.04	2078.40
472.22	2008.18
472.40	2010.52
472.58	1952.01
472.77	1940.30
472.95	2026.90
473.13	2057.33
473.31	1975.41
473.49	2033.93
473.67	1940.30
473.85	1966.05
474.03	2101.80
474.21	2172.02
474.39	2101.80
474.57	2104.14
474.75	2179.04
474.93	2043.29
475.12	2015.20
475.30	2099.46
475.48	2104.14
475.66	2083.08
475.84	2209.47
476.02	2139.25
476.20	1989.46
476.38	2106.48
476.56	2162.66
476.74	2172.02
476.92	2097.12
477.10	2038.61
477.28	2317.13
477.46	2232.87
477.64	2415.43
477.82	2251.60
478.00	2237.55
478.18	2127.55
478.36	2326.49
478.54	2211.81
478.72	2176.70
478.90	2312.45
479.08	2420.11
479.26	2410.75
479.44	2471.61
479.62	2359.26
479.80	2342.88
479.98	2356.92
480.16	2466.92
480.34	2450.54
480.52	2399.05
480.70	2420.11
480.88	2363.94
481.06	2410.75
481.24	2600.34
481.41	2672.89
481.59	2642.46
481.77	2630.76
481.95	2513.74
482.13	2476.29
482.31	2492.67
482.49	2448.20
482.67	2647.15
482.85	2583.95
483.03	2619.06
483.21	2626.08
483.39	2595.65
483.57	2546.50
483.74	2476.29
483.92	2576.93
484.10	2525.44
484.28	2635.44
484.46	2661.19
484.64	2715.02
484.82	2567.57
485.00	2644.81
485.18	2619.06
485.35	2668.21
485.53	2246.91
485.71	2129.89
485.89	2043.29
486.07	2160.31
486.25	2296.07
486.43	2497.35
486.61	2602.68
486.78	2553.52
486.96	2593.31
487.14	2612.04
487.32	2602.68
487.50	2820.35
487.68	2913.97
487.85	2946.73
488.03	2885.88
488.21	2825.03
488.39	2836.73
488.57	2834.39
488.75	2747.79
488.92	2855.45
489.10	3150.36
489.28	3241.64
489.46	3112.91
489.64	3190.15
489.81	3159.72
489.99	3229.94
490.17	3262.71
490.35	3269.73
490.53	3098.87
490.70	3009.93
490.88	3112.91
491.06	3192.49
491.24	3232.28
491.41	3108.23
491.59	3023.97
491.77	2918.65
491.95	2951.42
492.13	3164.40
492.30	3283.77
492.48	3393.78
492.66	3269.73
492.84	3304.84
493.01	3417.18
493.19	3241.64
493.37	3089.51
493.54	3194.83
493.72	3124.62
493.90	3403.14
494.08	3421.86
494.25	3648.90
494.43	3588.04
494.61	3726.13
494.79	3529.53
494.96	3562.30
495.14	3433.57
495.32	3426.54
495.49	3459.31
495.67	3461.65
495.85	3555.27
496.02	3674.64
496.20	3641.87
496.38	3501.44
496.55	3574.00
496.73	3578.68
496.91	3634.85
497.09	3679.32
497.26	3674.64
497.44	3700.39
497.62	3688.68
497.79	3513.14
497.97	3328.24
498.14	3185.47
498.32	3435.91
498.50	3784.65
498.67	3698.05
498.85	3758.90
499.03	3761.24
499.20	3777.62
499.38	3676.98
499.56	3728.47
499.73	3599.74
499.91	3632.51
500.08	3524.85
500.26	3428.88
500.44	3524.85
500.61	3597.40
500.79	3506.12
500.97	3485.06
501.14	3548.25
501.32	3574.00
501.49	3445.27
501.67	3463.99
501.84	3499.10
502.02	3538.89
502.20	3674.64
502.37	3707.41
502.55	3637.19
502.72	3744.86
502.90	3693.37
503.07	3812.73
503.25	3805.71
503.43	3606.77
503.60	3393.78
503.78	3489.74
503.95	3342.28
504.13	3779.97
504.30	3812.73
504.48	3742.52
504.65	3812.73
504.83	3705.07
505.01	3770.60
505.18	3763.58
505.36	3878.27
505.53	3927.42
505.71	4117.00
505.88	4042.11
506.06	3904.01
506.23	3836.14
506.41	3777.62
506.58	3714.43
506.76	3859.54
506.93	3691.02
507.11	3763.58
507.28	3761.24
507.46	3588.04
507.63	3555.27
507.81	3618.47
507.98	3709.75
508.16	3819.75
508.33	3756.56
508.50	4002.32
508.68	3847.84
508.85	3840.82
509.03	4056.15
509.20	3955.51
509.38	3943.80
509.55	3719.11
509.73	3772.94
509.90	3838.48
510.08	3794.01
510.25	3726.13
510.42	3688.68
510.60	3864.22
510.77	3932.10
510.95	3878.27
511.12	3922.74
511.30	4063.17
511.47	3929.76
511.64	3978.91
511.82	3971.89
511.99	3826.78
512.17	3772.94
512.34	3822.09
512.51	3667.62
512.69	3740.18
512.86	3754.22
513.04	3948.48
513.21	3761.24
513.38	3892.31
513.56	3822.09
513.73	3604.42
513.90	3651.24
514.08	3639.53
514.25	3698.05
514.43	3756.56
514.60	3730.81
514.77	3747.20
514.95	3913.38
515.12	3721.45
515.29	3665.28
515.47	3915.72
515.64	3969.55
515.81	3911.04
515.99	3723.79
516.16	3482.72
516.33	3431.23
516.51	3066.10
516.68	3054.40
516.85	2932.69
517.03	2902.26
517.20	3363.35
517.37	3765.92
517.54	3925.08
517.72	3672.30
517.89	3246.32
518.06	3101.21
518.24	3096.53
518.41	3342.28
518.58	3536.55
518.75	3513.14
518.93	3581.02
519.10	3463.99
519.27	3651.24
519.45	3676.98
519.62	3843.16
519.79	3831.46
519.96	3826.78
520.14	3618.47
520.31	3618.47
520.48	3672.30
520.65	3646.55
520.83	3637.19
521.00	3927.42
521.17	3693.37
521.34	3779.97
521.52	3819.75
521.69	3728.47
521.86	3950.82
522.03	3971.89
522.20	3648.90
522.38	3688.68
522.55	3534.21
522.72	3653.58
522.89	3646.55
523.07	3676.98
523.24	3726.13
523.41	3775.28
523.58	3866.56
523.75	3864.22
523.92	4023.38
524.10	3794.01
524.27	3920.40
524.44	3953.16
524.61	3978.91
524.78	4025.72
524.96	3791.67
525.13	3911.04
525.30	3906.35
525.47	3901.67
525.64	4081.89
525.81	3913.38
525.98	3585.70
526.16	3463.99
526.33	3471.01
526.50	3288.45
526.67	3183.13
526.84	3276.75
527.01	3398.46
527.18	3590.38
527.36	3576.34
527.53	3861.88
527.70	3885.29
527.87	3695.71
528.04	3782.31
528.21	3777.62
528.38	3871.25
528.55	4002.32
528.72	4035.08
528.89	3941.46
529.07	3953.16
529.24	3922.74
529.41	3777.62
529.58	3747.20
529.75	3641.87
529.92	3691.02
530.09	3768.26
530.26	3887.63
530.43	3838.48
530.60	3936.78
530.77	3955.51
530.94	3904.01
531.11	3885.29
531.28	3941.46
531.46	3815.07
531.63	3819.75
531.80	3803.37
531.97	3817.41
532.14	3733.15
532.31	3522.51
532.48	3581.02
532.65	3368.03
532.82	3520.17
532.99	3702.73
533.16	3742.52
533.33	3901.67
533.50	3840.82
533.67	3616.13
533.84	3658.26
534.01	3660.60
534.18	3786.99
534.35	3744.86
534.52	3744.86
534.69	3847.84
534.86	3845.50
535.03	3812.73
535.20	3854.86
535.37	3899.33
535.54	3866.56
535.71	3955.51
535.88	3758.90
536.05	3824.44
536.22	3688.68
536.38	3714.43
536.55	3751.88
536.72	3508.46
536.89	3433.57
537.06	3609.11
537.23	3798.69
537.40	3918.06
537.57	3838.48
537.74	3777.62
537.91	3679.32
538.08	3744.86
538.25	3730.81
538.42	3672.30
538.59	3761.24
538.75	3651.24
538.92	3545.91
539.09	3655.92
539.26	3541.23
539.43	3494.42
539.60	3501.44
539.77	3581.02
539.94	3478.04
540.11	3421.86
540.28	3288.45
540.44	3337.60
540.61	3513.14
540.78	3384.41
540.95	3517.83
541.12	3639.53
541.29	3445.27
541.46	3707.41
541.62	3763.58
541.79	3700.39
541.96	3599.74
542.13	3461.65
542.30	3452.29
542.47	3665.28
542.63	3571.66
542.80	3506.12
542.97	3634.85
543.14	3496.76
543.31	3566.98
543.48	3618.47
543.64	3698.05
543.81	3852.52
543.98	3927.42
544.15	3569.32
544.32	3566.98
544.48	3569.32
544.65	3496.76
544.82	3737.84
544.99	3744.86
545.16	3438.25
545.32	3396.12
545.49	3569.32
545.66	3789.33
545.83	3719.11
546.00	3536.55
546.16	3592.72
546.33	3578.68
546.50	3588.04
546.67	3522.51
546.83	3609.11
547.00	3459.31
547.17	3485.06
547.34	3431.23
547.50	3456.97
547.67	3449.95
547.84	3382.07
548.00	3583.36
548.17	3653.58
548.34	3501.44
548.51	3578.68
548.67	3620.81
548.84	3611.45
549.01	3536.55
549.18	3456.97
549.34	3513.14
549.51	3510.80
549.68	3424.20
549.84	3442.93
550.01	3492.08
550.18	3410.16
550.34	3475.70
550.51	3417.18
550.68	3501.44
550.84	3398.46
551.01	3471.01
551.18	3421.86
551.34	3522.51
551.51	3548.25
551.68	3618.47
551.84	3576.34
552.01	3496.76
552.18	3492.08
552.34	3485.06
552.51	3419.52
552.68	3234.62
552.84	3325.90
553.01	3370.37
553.18	3414.84
553.34	3494.42
553.51	3442.93
553.67	3400.80
553.84	3494.42
554.01	3468.67
554.17	3515.48
554.34	3585.70
554.51	3442.93
554.67	3449.95
554.84	3599.74
555.00	3396.12
555.17	3377.39
555.33	3410.16
555.50	3403.14
555.67	3424.20
555.83	3375.05
556.00	3288.45
556.16	3442.93
556.33	3265.05
556.50	3248.66
556.66	3379.73
556.83	3159.72
556.99	3302.50
557.16	3286.11
557.32	3225.26
557.49	3314.20
557.65	3389.10
557.82	3248.66
557.98	3253.34
558.15	3260.37
558.32	3183.13
558.48	3136.32
558.65	2939.71
558.81	3066.10
558.98	3124.62
559.14	3133.98
559.31	3276.75
559.47	3136.32
559.64	3251.00
559.80	2991.20
559.97	3016.95
560.13	3042.70
560.30	3148.02
560.46	3281.43
560.63	3288.45
560.79	3403.14
560.96	3262.71
561.12	3213.56
561.29	3026.31
561.45	3084.83
561.61	3077.80
561.78	3117.59
561.94	3173.77
562.11	3028.65
562.27	3052.06
562.44	3126.96
562.60	3201.85
562.77	3258.03
562.93	3243.98
563.10	3162.06
563.26	3243.98
563.42	3136.32
563.59	3180.79
563.75	3183.13
563.92	3038.02
564.08	3183.13
564.24	3117.59
564.41	3091.85
564.57	3185.47
564.74	3019.29
564.90	3014.61
565.07	3164.40
565.23	3159.72
565.39	2981.84
565.56	2991.20
565.72	2995.89
565.88	2878.86
566.05	2979.50
566.21	2998.23
566.38	3110.57
566.54	3002.91
566.70	3077.80
566.87	3077.80
567.03	3190.15
567.19	3194.83
567.36	3143.34
567.52	3150.36
567.68	3000.57
567.85	3061.42
568.01	2885.88
568.17	2902.26
568.34	2944.39
568.50	2810.98
568.66	2871.84
568.83	2899.92
568.99	3038.02
569.15	2937.37
569.32	2923.33
569.48	3009.93
569.64	3000.57
569.81	2846.09
569.97	2913.97
570.13	2871.84
570.30	2810.98
570.46	2801.62
570.62	2703.32
570.78	2822.69
570.95	2761.83
571.11	2874.18
571.27	2974.82
571.43	2949.08
571.60	3005.25
571.76	2916.31
571.92	2801.62
572.09	2944.39
572.25	2860.13
572.41	2913.97
572.57	2911.63
572.74	2902.26
572.90	2963.12
573.06	2925.67
573.22	2897.58
573.38	2913.97
573.55	2853.11
573.71	3005.25
573.87	2806.30
574.03	2883.54
574.20	2785.24
574.36	2808.64
574.52	2700.98
574.68	2780.56
574.84	2841.41
575.01	2696.30
575.17	2733.75
575.33	2909.29
575.49	2761.83
575.65	2796.94
575.82	2799.28
575.98	2799.28
576.14	2789.92
576.30	2794.60
576.46	2792.26
576.62	2906.95
576.79	2736.09
576.95	2712.68
577.11	2750.13
577.27	2715.02
577.43	2703.32
577.59	2597.99
577.75	2616.72
577.92	2693.96
578.08	2605.02
578.24	2626.08
578.40	2663.53
578.56	2719.70
578.72	2677.57
578.88	2686.94
579.04	2609.70
579.21	2773.53
579.37	2658.85
579.53	2766.51
579.69	2637.78
579.85	2810.98
580.01	2712.68
580.17	2761.83
580.33	2492.67
580.49	2703.32
580.65	2548.84
580.82	2736.09
580.98	2705.66
581.14	2703.32
581.30	2747.79
581.46	2740.77
581.62	2761.83
581.78	2670.55
581.94	2626.08
582.10	2743.11
582.26	2857.79
582.42	2705.66
582.58	2712.68
582.74	2738.43
582.90	2733.75
583.06	2562.89
583.22	2780.56
583.38	2752.47
583.54	2558.21
583.70	2595.65
583.86	2747.79
584.02	2635.44
584.18	2658.85
584.34	2729.06
584.50	2696.30
584.66	2637.78
584.82	2525.44
584.98	2586.29
585.14	2593.31
585.30	2485.65
585.46	2546.50
585.62	2576.93
585.78	2565.23
585.94	2476.29
586.10	2527.78
586.26	2609.70
586.42	2525.44
586.58	2576.93
586.74	2616.72
586.90	2586.29
587.06	2560.55
587.22	2499.69
587.38	2532.46
587.54	2422.45
587.70	2417.77
587.86	2431.82
588.02	2457.56
588.18	2441.18
588.34	2282.02
588.49	2289.04
588.65	2054.99
588.81	2127.55
588.97	2008.18
589.13	2057.33
589.29	2148.61
589.45	2090.10
589.61	2129.89
589.77	2239.89
589.93	2300.75
590.08	2392.03
590.24	2394.37
590.40	2326.49
590.56	2551.18
590.72	2396.71
590.88	2387.35
591.04	2406.07
591.20	2363.94
591.35	2235.21
591.51	2246.91
591.67	2293.72
591.83	2361.60
591.99	2359.26
592.15	2406.07
592.31	2424.80
592.46	2450.54
592.62	2382.67
592.78	2373.30
592.94	2239.89
593.10	2403.73
593.26	2455.22
593.41	2359.26
593.57	2232.87
593.73	2382.67
593.89	2392.03
594.05	2328.83
594.20	2291.38
594.36	2249.25
594.52	2307.77
594.68	2244.57
594.84	2263.30
594.99	2263.30
595.15	2275.00
595.31	2385.01
595.47	2307.77
595.62	2333.51
595.78	2200.10
595.94	2293.72
596.10	2399.05
596.25	2406.07
596.41	2263.30
596.57	2270.32
596.73	2300.75
596.88	2356.92
597.04	2312.45
597.20	2260.96
597.36	2200.10
597.51	2223.51
597.67	2310.11
597.83	2399.05
597.99	2249.25
598.14	2195.42
598.30	2174.36
598.46	2172.02
598.61	2214.15
598.77	2193.08
598.93	2228.19
599.09	2265.64
599.24	2087.76
599.40	2272.66
599.56	2286.70
