SpectraSuite Data File
++++++++++++++++++++++++++++++++++++
Date: Mon Oct 07 14:54:01 GMT-05:00 2013
User: price-jones
Dark Spectrum Present: No
Reference Spectrum Present: No
Number of Sampled Component Spectra: 1
Spectrometers: USB2+H05261
Integration Time (usec): 100000 (USB2+H05261)
Spectra Averaged: 1 (USB2+H05261)
Boxcar Smoothing: 0 (USB2+H05261)
Correct for Electrical Dark: No (USB2+H05261)
Strobe/Lamp Enabled: No (USB2+H05261)
Correct for Detector Non-linearity: No (USB2+H05261)
Correct for Stray Light: No (USB2+H05261)
Number of Pixels in Processed Spectrum: 2048
>>>>>Begin Processed Spectral Data<<<<<
365.73	0.00
365.92	0.00
366.12	0.00
366.32	0.00
366.52	0.00
366.72	0.00
366.91	0.00
367.11	0.00
367.31	0.00
367.51	0.00
367.70	0.00
367.90	0.00
368.10	0.00
368.30	0.00
368.49	0.00
368.69	0.00
368.89	0.00
369.09	0.00
369.28	0.00
369.48	0.00
369.68	0.00
369.87	0.00
370.07	0.00
370.27	0.00
370.47	706.84
370.66	3262.71
370.86	4025.72
371.06	4332.33
371.25	4486.81
371.45	3819.75
371.65	3503.78
371.84	3279.09
372.04	3379.73
372.24	3852.52
372.44	4084.23
372.63	4011.68
372.83	3819.75
373.03	3227.60
373.22	3052.06
373.42	3166.74
373.62	3648.90
373.81	4173.18
374.01	3995.29
374.21	3712.09
374.40	3368.03
374.60	3410.16
374.79	3868.91
374.99	4358.08
375.19	4795.76
375.38	4917.47
375.58	4557.02
375.78	4585.11
375.97	4561.70
376.17	4795.76
376.37	4697.46
376.56	4992.36
376.76	5128.11
376.95	5455.79
377.15	5853.68
377.35	6071.35
377.54	6256.25
377.74	6408.39
377.93	6410.73
378.13	6183.70
378.33	5930.92
378.52	5453.45
378.72	5165.56
378.91	5359.83
379.11	5041.51
379.31	5032.15
379.50	4908.10
379.70	5427.70
379.89	5996.45
380.09	6427.11
380.28	6457.54
380.48	6317.11
380.68	6139.23
380.87	6066.67
381.07	5551.75
381.26	5207.69
381.46	4931.51
381.65	4755.97
381.85	4608.51
382.04	4262.12
382.24	4135.73
382.43	3971.89
382.63	3861.88
382.83	3927.42
383.02	3847.84
383.22	3866.56
383.41	3957.85
383.61	4177.86
383.80	4816.82
384.00	5371.53
384.19	5930.92
384.39	6246.89
384.58	6373.28
384.78	6317.11
384.97	6104.12
385.17	5837.30
385.36	5666.44
385.56	5219.39
385.75	5331.74
385.95	5987.09
386.14	6626.06
386.34	6321.79
386.53	6169.65
386.72	5607.92
386.92	5860.70
387.11	6235.19
387.31	6502.01
387.50	6429.45
387.70	6221.14
387.89	6045.60
388.09	6078.37
388.28	6183.70
388.48	6296.04
388.67	6626.06
388.86	7606.74
389.06	7999.95
389.25	8231.66
389.45	8329.97
389.64	8234.00
389.84	8355.71
390.03	8077.19
390.22	8161.45
390.42	8517.21
390.61	9083.62
390.81	9486.19
391.00	9891.10
391.19	9624.28
391.39	9383.21
391.58	8896.38
391.78	8224.64
391.97	8060.80
392.16	7398.43
392.36	6817.98
392.55	5666.44
392.75	4318.29
392.94	3447.61
393.13	3435.91
393.33	4086.58
393.52	5329.40
393.71	6682.23
393.91	7297.79
394.10	7927.39
394.29	8571.04
394.49	9329.38
394.68	10286.65
394.88	10394.32
395.07	10640.08
395.26	10239.84
395.46	10148.56
395.65	9525.98
395.84	8430.61
396.04	7068.42
396.23	5692.18
396.42	4835.55
396.62	4528.94
396.81	5366.85
397.00	6771.17
397.19	8568.70
397.39	10125.16
397.58	11377.34
397.77	12269.09
397.97	12706.77
398.16	12484.42
398.35	13427.65
398.55	13575.11
398.74	14228.12
398.93	14544.09
399.12	14178.97
399.32	13547.02
399.51	13825.54
399.70	14853.04
399.90	14670.48
400.09	14693.88
400.28	14516.00
400.47	14747.72
400.67	15604.35
400.86	15831.38
401.05	15983.52
401.24	16056.08
401.44	16065.44
401.63	16437.58
401.82	16666.95
402.01	16219.91
402.21	16566.31
402.40	16603.76
402.59	15934.37
402.78	15391.36
402.97	14934.96
403.17	15508.39
403.36	16425.88
403.55	16931.44
403.74	17476.78
403.93	16339.28
404.13	15400.72
404.32	14789.85
404.51	15602.01
404.70	16648.23
404.89	16996.97
405.09	16875.26
405.28	16084.16
405.47	16133.31
405.66	16329.92
405.85	15793.94
406.05	15180.71
406.24	15604.35
406.43	15978.84
406.62	16966.54
406.81	16985.27
407.00	16250.34
407.20	15641.80
407.39	15765.85
407.58	16458.65
407.77	17198.26
407.96	17853.61
408.15	18071.28
408.34	18052.55
408.54	19147.92
408.73	18754.71
408.92	18506.62
409.11	18375.55
409.30	17092.93
409.49	16381.41
409.68	15634.78
409.87	14736.01
410.07	15618.39
410.26	16545.25
410.45	17867.65
410.64	18607.26
410.83	19168.99
411.02	19400.70
411.21	20320.53
411.40	20058.39
411.59	20210.53
411.78	19810.29
411.98	19538.79
412.17	19983.49
412.36	19761.14
412.55	19374.95
412.74	19367.93
412.93	18757.05
413.12	18937.27
413.31	20493.73
413.50	20954.82
413.69	21350.37
413.88	20669.27
414.07	19896.89
414.26	20257.34
414.45	20732.47
414.64	20971.20
414.83	21010.99
415.02	20575.65
415.22	20290.10
415.41	21064.82
415.60	22127.42
415.79	22719.58
415.98	23005.13
416.17	23058.96
416.36	22625.96
416.55	22176.58
416.74	21357.39
416.93	20713.74
417.12	20519.48
417.31	20964.18
417.50	21268.45
417.69	22015.08
417.88	22087.64
418.07	21610.17
418.26	21486.12
418.45	21530.59
418.64	22537.02
418.83	22995.76
419.02	22834.27
419.21	22656.39
419.39	21977.63
419.58	20538.20
419.77	20695.02
419.96	21685.06
420.15	22551.06
420.34	23489.62
420.53	24058.37
420.72	24704.35
420.91	24409.45
421.10	24652.86
421.29	23793.89
421.48	23550.47
421.67	24058.37
421.86	23601.96
422.05	22237.43
422.24	20051.37
422.43	19517.73
422.61	21834.86
422.80	23370.25
422.99	23290.67
423.18	22829.59
423.37	22094.66
423.56	22195.30
423.75	22544.04
423.94	22970.02
424.13	21565.70
424.32	22118.06
424.50	22092.32
424.69	21397.18
424.88	21979.97
425.07	21631.23
425.26	21898.05
425.45	21305.90
425.64	21144.40
425.83	21357.39
426.01	22436.38
426.20	22899.80
426.39	22836.61
426.58	21090.57
426.77	19637.09
426.96	18920.89
427.15	19330.48
427.33	21191.21
427.52	21706.13
427.71	22043.17
427.90	21640.59
428.09	21521.23
428.28	21287.17
428.46	20622.46
428.65	19953.07
428.84	20620.12
429.03	20905.66
429.22	20119.24
429.40	18963.02
429.59	16830.79
429.78	15087.09
429.97	14951.34
430.16	15061.35
430.34	15583.29
430.53	15454.56
430.72	15606.69
430.91	17671.04
431.10	20196.48
431.28	24051.34
431.47	26096.97
431.66	26176.55
431.85	24002.19
432.03	22537.02
432.22	20776.94
432.41	22024.44
432.60	24224.54
432.79	25263.74
432.97	25837.17
433.16	25252.04
433.35	23227.48
433.54	20828.43
433.72	19702.63
433.91	20173.08
434.10	22216.36
434.28	23630.05
434.47	25193.53
434.66	25050.75
434.85	23948.36
435.03	23955.38
435.22	24706.70
435.41	26504.23
435.59	25919.09
435.78	26686.79
435.97	27531.72
436.16	27477.89
436.34	26932.54
436.53	26202.30
436.72	26118.04
436.90	24996.92
437.09	25111.61
437.28	24364.98
437.46	25230.98
437.65	25408.86
437.84	23791.55
438.02	21876.99
438.21	21465.05
438.40	22757.03
438.58	24645.84
438.77	25500.14
438.96	25984.63
439.14	26635.30
439.33	27447.46
439.52	27606.62
439.70	27077.66
439.89	26356.77
440.08	25504.82
440.26	25671.00
440.45	26707.85
440.63	28027.92
440.82	29677.99
441.01	29198.18
441.19	29364.36
441.38	29427.56
441.57	30625.91
441.75	31136.15
441.94	31299.98
442.12	30752.30
442.31	31370.20
442.50	31498.93
442.68	31335.09
442.87	30843.58
443.05	30218.66
443.24	30754.64
443.43	31119.76
443.61	31990.44
443.80	32320.46
443.98	30448.03
444.17	30548.67
444.35	31999.80
444.54	32720.69
444.73	32350.88
444.91	31463.82
445.10	29832.47
445.28	28884.55
445.47	27812.59
445.65	28325.16
445.84	29081.16
446.02	30141.42
446.21	30675.06
446.39	31215.72
446.58	31068.27
446.77	30848.26
446.95	31431.05
447.14	32458.55
447.32	33429.87
447.51	31908.52
447.69	31353.82
447.88	30441.01
448.06	31140.83
448.25	31950.65
448.43	32467.91
448.62	31730.64
448.80	31213.38
448.99	31599.57
449.17	31234.45
449.36	31721.28
449.54	33144.33
449.73	33799.68
449.91	33951.81
450.10	34792.06
450.28	35182.93
450.46	35178.25
450.65	35124.42
450.83	34607.16
451.02	33975.22
451.20	33874.57
451.39	33813.72
451.57	33532.86
451.76	33663.93
451.94	33404.13
452.13	32821.33
452.31	31159.55
452.49	29820.77
452.68	30628.25
452.86	29947.15
453.05	30548.67
453.23	31449.78
453.42	32107.47
453.60	32971.13
453.78	33294.12
453.97	33048.36
454.15	33181.77
454.34	32208.11
454.52	32734.73
454.70	32046.62
454.89	31896.82
455.07	32446.85
455.26	33036.66
455.44	34148.42
455.62	34497.16
455.81	34689.08
455.99	34845.90
456.17	33780.95
456.36	34335.66
456.54	35302.30
456.73	35192.30
456.91	35435.71
457.09	36002.12
457.28	36823.65
457.46	34983.99
457.64	35241.45
457.83	33460.30
458.01	33249.65
458.19	33888.62
458.38	34075.86
458.56	35381.88
458.74	34756.96
458.93	34656.31
459.11	34408.22
459.29	34064.16
459.48	34719.51
459.66	34087.56
459.84	34586.10
460.03	34967.60
460.21	34862.28
460.39	35548.06
460.57	35583.16
460.76	36332.14
460.94	36421.08
461.12	35253.15
461.31	36105.10
461.49	35693.17
461.67	36133.19
461.85	37198.13
462.04	36474.91
462.22	36992.17
462.40	36718.32
462.59	36547.47
462.77	36563.85
462.95	36662.15
463.13	36275.96
463.32	36109.78
463.50	35803.17
463.68	35606.57
463.86	35419.33
464.05	35281.24
464.23	34991.01
464.41	34422.26
464.59	33773.93
464.78	35765.73
464.96	35026.12
465.14	34855.26
465.32	35861.69
465.50	36753.43
465.69	37338.57
465.87	36587.25
466.05	35416.99
466.23	33603.07
466.41	32842.40
466.60	34153.10
466.78	34155.44
466.96	34380.13
467.14	35040.16
467.32	35367.84
467.51	35597.21
467.69	34155.44
467.87	34745.25
468.05	35328.05
468.23	35325.71
468.41	35590.19
468.60	35662.74
468.78	35871.05
468.96	35143.14
469.14	35988.08
469.32	36189.36
469.50	34766.32
469.69	34902.07
469.87	34363.75
470.05	34256.08
470.23	34391.83
470.41	34754.61
470.59	34965.26
470.77	34998.03
470.95	35400.60
471.14	36435.12
471.32	35981.06
471.50	38417.55
471.68	38452.66
471.86	38005.62
472.04	38494.79
472.22	38539.26
472.40	36392.99
472.58	36528.74
472.77	36369.58
472.95	36898.55
473.13	38197.54
473.31	37008.55
473.49	36954.72
473.67	37638.15
473.85	38256.06
474.03	39276.53
474.21	38593.09
474.39	39447.39
474.57	39723.57
474.75	39632.29
474.93	39400.58
475.12	38611.82
475.30	38703.10
475.48	38370.74
475.66	39152.48
475.84	38677.35
476.02	38321.59
476.20	37699.01
476.38	38068.81
476.56	39693.15
476.74	40357.86
476.92	40481.91
477.10	41338.54
477.28	41656.85
477.46	42543.92
477.64	42440.93
477.82	42707.76
478.00	42993.30
478.18	41804.31
478.36	41605.36
478.54	41656.85
478.72	42026.66
478.90	42911.38
479.08	44128.46
479.26	44795.51
479.44	44563.80
479.62	44245.49
479.80	44463.16
479.98	44809.56
480.16	44809.56
480.34	44601.25
480.52	45067.02
480.70	45219.15
480.88	44612.95
481.06	45649.81
481.24	46110.89
481.41	47222.65
481.59	47281.16
481.77	47613.52
481.95	47098.60
482.13	46602.41
482.31	46522.83
482.49	47690.76
482.67	47391.17
482.85	47353.72
483.03	47920.13
483.21	48519.31
483.39	48189.29
483.57	47459.04
483.74	47201.58
483.92	47496.49
484.10	47592.45
484.28	48678.46
484.46	48931.24
484.64	49394.67
484.82	48320.36
485.00	48205.67
485.18	47306.91
485.35	45881.52
485.53	42726.48
485.71	39079.92
485.89	38560.33
486.07	40509.99
486.25	43894.41
486.43	46522.83
486.61	46988.60
486.78	46735.82
486.96	46988.60
487.14	48804.85
487.32	49638.08
487.50	50440.89
487.68	51210.92
487.85	51880.31
488.03	52069.90
488.21	51374.76
488.39	50747.50
488.57	50415.14
488.75	49858.09
488.92	50979.21
489.10	53015.47
489.28	54120.21
489.46	54813.01
489.64	54564.91
489.81	54742.79
489.99	54223.19
490.17	54384.69
490.35	54820.03
490.53	54630.44
490.70	54007.86
490.88	53851.05
491.06	54733.43
491.24	54965.14
491.41	53909.56
491.59	52095.64
491.77	51248.37
491.95	52516.94
492.13	53537.41
492.30	54897.27
492.48	55632.19
492.66	56179.88
492.84	56273.50
493.01	55978.59
493.19	55384.10
493.37	54990.89
493.54	54901.95
493.72	55545.59
493.90	56416.27
494.08	56802.46
494.25	57319.72
494.43	57251.84
494.61	57652.08
494.79	58033.58
494.96	57570.16
495.14	57045.88
495.32	56205.62
495.49	55774.97
495.67	56451.38
495.85	57921.24
496.02	58244.23
496.20	58005.50
496.38	57635.69
496.55	57340.78
496.73	58117.84
496.91	58026.56
497.09	58553.18
497.26	58614.04
497.44	58415.09
497.62	57764.42
497.79	57268.23
497.97	55934.12
498.14	55934.12
498.32	57251.84
498.50	57832.30
498.67	58674.89
498.85	58438.50
499.03	58424.45
499.20	58787.24
499.38	58784.90
499.56	58592.97
499.73	58005.50
499.91	57509.30
500.08	57340.78
500.26	56802.46
500.44	56933.53
500.61	57642.71
500.79	57485.90
500.97	57226.10
501.14	57130.14
501.32	56811.82
501.49	56844.59
501.67	57186.31
501.84	57439.09
502.02	57717.61
502.20	58251.25
502.37	58351.90
502.55	58288.70
502.72	58915.96
502.90	59166.40
503.07	58979.16
503.25	58702.98
503.43	57846.34
503.60	57214.40
503.78	56458.40
503.95	56846.93
504.13	58592.97
504.30	58997.88
504.48	58946.39
504.65	58539.14
504.83	58707.66
505.01	59150.02
505.18	59531.53
505.36	59987.93
505.53	59999.63
505.71	60111.98
505.88	60238.37
506.06	59634.51
506.23	59470.67
506.41	59007.25
506.58	59330.24
506.76	59243.64
506.93	59213.21
507.11	58885.54
507.28	59253.00
507.46	58747.45
507.63	58138.91
507.81	57897.83
507.98	58300.40
508.16	58829.37
508.33	59323.22
508.50	59770.26
508.68	59845.16
508.85	60257.09
509.03	60233.69
509.20	60137.72
509.38	59627.49
509.55	58941.71
509.73	58915.96
509.90	59496.42
510.08	59568.97
510.25	59519.82
510.42	59435.56
510.60	59154.70
510.77	59704.73
510.95	60086.23
511.12	60179.85
511.30	60523.91
511.47	60713.50
511.64	60767.33
511.82	60420.93
511.99	59629.83
512.17	59220.23
512.34	58871.49
512.51	58993.20
512.69	59241.30
512.86	59243.64
513.04	59629.83
513.21	59788.98
513.38	59337.26
513.56	58735.74
513.73	58162.31
513.90	58279.34
514.08	58513.39
514.25	58852.77
514.43	59049.38
514.60	58969.80
514.77	59297.47
514.95	59271.73
515.12	59208.53
515.29	59437.90
515.47	59915.37
515.64	60226.66
515.81	59627.49
515.99	59243.64
516.16	57710.59
516.33	55786.67
516.51	54553.21
516.68	53488.26
516.85	53188.67
517.03	53296.34
517.20	55992.64
517.37	58541.48
517.54	59442.59
517.72	58873.84
517.89	56652.67
518.06	53996.16
518.24	54487.67
518.41	56650.33
518.58	57822.93
518.75	58099.12
518.93	58363.60
519.10	58150.61
519.27	58695.95
519.45	58951.07
519.62	59332.58
519.79	59877.93
519.96	59660.26
520.14	59072.78
520.31	58504.03
520.48	58340.19
520.65	58541.48
520.83	59650.89
521.00	59924.74
521.17	59536.21
521.34	59346.62
521.52	59465.99
521.69	60158.79
521.86	60573.06
522.03	60193.90
522.20	59028.31
522.38	57961.03
522.55	58101.46
522.72	58520.41
522.89	58724.04
523.07	59145.34
523.24	59161.72
523.41	59877.93
523.58	60355.39
523.75	60755.63
523.92	60587.11
524.10	60575.40
524.27	60699.45
524.44	60189.22
524.61	60109.64
524.78	59966.87
524.96	59868.56
525.13	59870.90
525.30	60058.15
525.47	60491.15
525.64	60402.21
525.81	59751.54
525.98	58522.76
526.16	57286.95
526.33	56655.01
526.50	55838.16
526.67	55856.88
526.84	56250.09
527.01	57279.93
527.18	57832.30
527.36	58698.30
527.53	59674.30
527.70	59891.97
527.87	59517.48
528.04	58890.22
528.21	59482.37
528.38	59962.18
528.55	60846.91
528.72	60800.10
528.89	61111.39
529.07	60898.40
529.24	60198.58
529.41	59618.13
529.58	58820.00
529.75	59070.44
529.92	59531.53
530.09	59814.73
530.26	60434.97
530.43	60734.56
530.60	60528.59
530.77	60863.29
530.94	60935.85
531.11	60645.62
531.28	60254.75
531.46	59985.59
531.63	60285.18
531.80	59976.23
531.97	59625.15
532.14	58892.56
532.31	58082.73
532.48	57284.61
532.65	57195.67
532.82	57986.77
532.99	59351.30
533.16	59667.28
533.33	60142.41
533.50	59903.67
533.67	59299.81
533.84	58801.28
534.01	58932.35
534.18	59400.46
534.35	59533.87
534.52	59206.19
534.69	59629.83
534.86	59913.03
535.03	60149.43
535.20	60561.36
535.37	60910.10
535.54	61038.83
535.71	60458.38
535.88	60130.70
536.05	59421.52
536.22	59290.45
536.38	58829.37
536.55	58419.77
536.72	58094.44
536.89	57832.30
537.06	58618.72
537.23	59461.31
537.40	59730.47
537.57	59714.09
537.74	59505.78
537.91	59484.72
538.08	59508.12
538.25	59475.35
538.42	59559.61
538.59	59550.25
538.75	58770.85
538.92	58688.93
539.09	58468.92
539.26	58375.30
539.43	58232.53
539.60	58223.17
539.77	58394.03
539.94	58272.32
540.11	57542.07
540.28	57078.64
540.44	57195.67
540.61	57385.25
540.78	57439.09
540.95	58281.68
541.12	58480.63
541.29	58649.14
541.46	58850.43
541.62	59105.55
541.79	58635.10
541.96	58094.44
542.13	58033.58
542.30	58445.52
542.47	58883.20
542.63	58375.30
542.80	58188.06
542.97	58286.36
543.14	58110.82
543.31	58045.29
543.48	58616.38
543.64	59451.95
543.81	59749.20
543.98	59515.14
544.15	58838.73
544.32	58272.32
544.48	58553.18
544.65	58913.62
544.82	59339.60
544.99	58756.81
545.16	58447.86
545.32	58319.13
545.49	58988.52
545.66	59337.26
545.83	58932.35
546.00	58616.38
546.16	58253.59
546.33	58499.35
546.50	58515.73
546.67	58782.55
546.83	58592.97
547.00	58520.41
547.17	57841.66
547.34	57366.53
547.50	57113.75
547.67	57748.04
547.84	57860.38
548.00	58127.20
548.17	58536.80
548.34	58361.26
548.51	58595.31
548.67	58417.43
548.84	58501.69
549.01	58176.36
549.18	58501.69
549.34	58508.71
549.51	58494.67
549.68	58202.10
549.84	58010.18
550.01	57935.28
550.18	57790.17
550.34	57841.66
550.51	58059.33
550.68	58136.57
550.84	57600.58
551.01	57455.47
551.18	57511.64
551.34	57811.23
551.51	58246.57
551.68	58426.79
551.84	58445.52
552.01	58244.23
552.18	58120.18
552.34	57411.00
552.51	56924.17
552.68	56910.13
552.84	57277.59
553.01	57432.07
553.18	57490.58
553.34	57549.09
553.51	57652.08
553.67	57719.95
553.84	58094.44
554.01	57869.75
554.17	57581.86
554.34	57757.40
554.51	57954.00
554.67	58410.41
554.84	57874.43
555.00	57787.83
555.17	57499.94
555.33	57401.64
555.50	57422.70
555.67	57616.97
555.83	57549.09
556.00	56978.00
556.16	57013.11
556.33	56701.82
556.50	56619.90
556.66	56598.83
556.83	56252.44
556.99	56350.74
557.16	56671.39
557.32	56804.80
557.49	57111.41
557.65	56896.08
557.82	56638.62
557.98	56863.32
558.15	56238.39
558.32	55494.10
558.48	54637.47
558.65	54831.73
558.81	55246.00
558.98	55454.31
559.14	55735.18
559.31	56074.55
559.47	55749.22
559.64	55627.51
559.80	55117.28
559.97	55199.19
560.13	55704.75
560.30	56456.06
560.46	57165.24
560.63	57272.91
560.79	57190.99
560.96	56879.70
561.12	55688.37
561.29	55033.02
561.45	54986.21
561.61	55519.85
561.78	55910.72
561.94	55873.27
562.11	55484.74
562.27	55435.59
562.44	55945.83
562.60	56013.70
562.77	56350.74
562.93	56137.75
563.10	56294.56
563.26	55217.92
563.42	56002.00
563.59	55234.30
563.75	55468.36
563.92	55356.01
564.08	55451.97
564.24	55503.46
564.41	55655.60
564.57	55714.11
564.74	55599.43
564.90	55482.40
565.07	55114.94
565.23	54843.43
565.39	54438.52
565.56	54129.57
565.72	53876.79
565.88	54333.20
566.05	54284.04
566.21	54639.81
566.38	54585.97
566.54	54944.08
566.70	55011.95
566.87	55529.21
567.03	55751.56
567.19	55735.18
567.36	55346.65
567.52	55138.34
567.68	54897.27
567.85	54223.19
568.01	53893.18
568.17	53745.72
568.34	53490.60
568.50	53263.57
568.66	53619.33
568.83	54014.88
568.99	54181.06
569.15	54361.28
569.32	54028.93
569.48	53832.32
569.64	53661.46
569.81	53270.59
569.97	53146.54
570.13	53066.97
570.30	52739.29
570.46	52411.62
570.62	51980.96
570.78	51817.12
570.95	51866.27
571.11	52687.80
571.27	52825.89
571.43	53167.61
571.60	53457.84
571.76	53663.80
571.92	53825.30
572.09	54101.48
572.25	53986.80
572.41	53783.17
572.57	53834.66
572.74	53965.73
572.90	53558.48
573.06	53378.26
573.22	53359.53
573.38	53525.71
573.55	53638.06
573.71	53389.96
573.87	53499.97
574.03	53268.25
574.20	53382.94
574.36	53045.90
574.52	53111.44
574.68	52453.75
574.84	52428.00
575.01	51641.58
575.17	51569.02
575.33	51828.82
575.49	52191.61
575.65	52310.97
575.82	52273.52
575.98	51966.91
576.14	52182.24
576.30	52479.49
576.46	52547.37
576.62	52416.30
576.79	52189.27
576.95	51861.59
577.11	52079.26
577.27	52182.24
577.43	52004.36
577.59	51615.83
577.75	51278.80
577.92	50775.58
578.08	50389.39
578.24	49996.18
578.40	50691.32
578.56	51056.45
578.72	51143.05
578.88	51487.10
579.04	51625.20
579.21	51648.60
579.37	51480.08
579.53	51547.96
579.69	51805.42
579.85	52088.62
580.01	51562.00
580.17	50848.14
580.33	51119.64
580.49	51309.22
580.65	51304.54
580.82	51973.94
580.98	51831.16
581.14	51505.83
581.30	51306.88
581.46	51456.68
581.62	51702.43
581.78	51760.95
581.94	51824.14
582.10	51590.09
582.26	51643.92
582.42	51459.02
582.58	51847.55
582.74	51470.72
582.90	51793.71
583.06	51875.63
583.22	51386.46
583.38	51381.78
583.54	51292.84
583.70	51466.04
583.86	51552.64
584.02	51363.06
584.18	51463.70
584.34	51180.49
584.50	50927.72
584.66	51100.92
584.82	50483.01
584.98	50330.88
585.14	50195.13
