SpectraSuite Data File
++++++++++++++++++++++++++++++++++++
Date: Mon Oct 07 14:53:47 GMT-05:00 2013
User: price-jones
Dark Spectrum Present: No
Reference Spectrum Present: No
Number of Sampled Component Spectra: 1
Spectrometers: USB2+H05261
Integration Time (usec): 100000 (USB2+H05261)
Spectra Averaged: 1 (USB2+H05261)
Boxcar Smoothing: 0 (USB2+H05261)
Correct for Electrical Dark: No (USB2+H05261)
Strobe/Lamp Enabled: No (USB2+H05261)
Correct for Detector Non-linearity: No (USB2+H05261)
Correct for Stray Light: No (USB2+H05261)
Number of Pixels in Processed Spectrum: 2048
>>>>>Begin Processed Spectral Data<<<<<
365.73	0.00
365.92	0.00
366.12	0.00
366.32	0.00
366.52	0.00
366.72	0.00
366.91	0.00
367.11	0.00
367.31	0.00
367.51	0.00
367.70	0.00
367.90	0.00
368.10	0.00
368.30	0.00
368.49	0.00
368.69	0.00
368.89	0.00
369.09	0.00
369.28	0.00
369.48	0.00
369.68	0.00
369.87	0.00
370.07	0.00
370.27	0.00
370.47	615.56
370.66	3094.19
370.86	3707.41
371.06	3946.14
371.25	4072.53
371.45	3566.98
371.65	3344.63
371.84	3075.46
372.04	3194.83
372.24	3571.66
372.44	3742.52
372.63	3819.75
372.83	3382.07
373.03	3199.51
373.22	2825.03
373.42	3030.99
373.62	3480.38
373.81	3639.53
374.01	3700.39
374.21	3300.16
374.40	3012.27
374.60	3295.47
374.79	3459.31
374.99	4067.85
375.19	4568.73
375.38	4636.60
375.58	4390.84
375.78	4210.62
375.97	4187.22
376.17	4470.42
376.37	4229.35
376.56	4437.66
376.76	4968.96
376.95	5184.29
377.15	5366.85
377.35	5783.46
377.54	5893.47
377.74	6134.54
377.93	6183.70
378.13	5966.03
378.33	5607.92
378.52	5287.27
378.72	4837.89
378.91	4919.81
379.11	4873.00
379.31	4566.39
379.50	4535.96
379.70	4877.68
379.89	5413.66
380.09	5764.74
380.28	6083.05
380.48	6076.03
380.68	5916.87
380.87	5825.59
381.07	5397.28
381.26	4968.96
381.46	4681.07
381.65	4540.64
381.85	4346.37
382.04	4140.41
382.24	3946.14
382.43	3702.73
382.63	3576.34
382.83	3765.92
383.02	3529.53
383.22	3559.95
383.41	3742.52
383.61	3925.08
383.80	4468.08
384.00	4865.97
384.19	5680.48
384.39	6033.90
384.58	5942.62
384.78	5909.85
384.97	5764.74
385.17	5633.67
385.36	5231.10
385.56	5050.88
385.75	5004.07
385.95	5792.83
386.14	6312.42
386.34	6216.46
386.53	5905.17
386.72	5472.17
386.92	5509.62
387.11	5797.51
387.31	6127.52
387.50	5991.77
387.70	5837.30
387.89	5612.60
388.09	5762.40
388.28	5870.06
388.48	5956.66
388.67	6445.84
388.86	7108.21
389.06	7494.40
389.25	7915.69
389.45	8028.04
389.64	7749.51
389.84	7695.68
390.03	7726.11
390.22	7843.14
390.42	8035.06
390.61	8482.10
390.81	9088.30
391.00	9331.72
391.19	9125.75
391.39	8760.63
391.58	8404.86
391.78	7726.11
391.97	7779.94
392.16	7211.19
392.36	6553.50
392.55	5315.36
392.75	4147.43
392.94	3447.61
393.13	3353.99
393.33	3812.73
393.52	5025.13
393.71	6120.50
393.91	7084.80
394.10	7426.52
394.29	8187.19
394.49	9034.47
394.68	9685.14
394.88	9909.83
395.07	9935.57
395.26	9783.44
395.46	9458.10
395.65	9125.75
395.84	7976.55
396.04	6703.29
396.23	5432.38
396.42	4627.24
396.62	4311.27
396.81	5121.09
397.00	6494.99
397.19	8224.64
397.39	9666.41
397.58	11082.44
397.77	11707.36
397.97	11992.90
398.16	12013.97
398.35	12723.15
398.55	13062.53
398.74	13654.69
398.93	13809.16
399.12	13673.41
399.32	13137.43
399.51	13261.48
399.70	14181.31
399.90	13977.68
400.09	14258.54
400.28	14197.69
400.47	14087.68
400.67	14939.64
400.86	15241.57
401.05	15442.85
401.24	15316.47
401.44	15597.33
401.63	15363.28
401.82	15721.38
402.01	15704.99
402.21	15756.49
402.40	16060.76
402.59	15396.04
402.78	14780.48
402.97	14473.87
403.17	15087.09
403.36	15660.52
403.55	16325.24
403.74	16697.38
403.93	15641.80
404.13	14464.51
404.32	14265.57
404.51	14923.26
404.70	16215.23
404.89	15850.11
405.09	15819.68
405.28	15337.53
405.47	15545.84
405.66	15351.57
405.85	15218.16
406.05	14731.33
406.24	14808.57
406.43	15463.92
406.62	16084.16
406.81	16152.04
407.00	15433.49
407.20	15143.27
407.39	15108.16
407.58	16248.00
407.77	16491.41
407.96	17420.61
408.15	17172.51
408.34	17392.52
408.54	18108.72
408.73	18618.96
408.92	18253.84
409.11	17467.42
409.30	16795.68
409.49	15777.55
409.68	14637.71
409.87	14253.86
410.07	15044.96
410.26	16402.47
410.45	17451.03
410.64	17703.81
410.83	18162.56
411.02	18843.65
411.21	19405.38
411.40	19379.64
411.59	19531.77
411.78	19229.84
411.98	18689.18
412.17	19700.29
412.36	18888.12
412.55	19276.65
412.74	18642.37
412.93	18270.22
413.12	18251.50
413.31	20189.46
413.50	19978.81
413.69	20498.41
413.88	19908.60
414.07	19098.77
414.26	19845.40
414.45	20292.44
414.64	20262.02
414.83	20376.70
415.02	19782.21
415.22	20194.14
415.41	20294.79
415.60	21228.66
415.79	21474.42
415.98	22291.26
416.17	22600.21
416.36	21830.18
416.55	21216.96
416.74	20739.49
416.93	20084.14
417.12	20372.02
417.31	20453.94
417.50	20692.68
417.69	21301.22
417.88	21575.06
418.07	21167.80
418.26	20809.70
418.45	21116.31
418.64	21874.65
418.83	22466.80
419.02	22207.00
419.21	22412.97
419.39	21249.72
419.58	20322.87
419.77	20482.03
419.96	21198.23
420.15	21937.84
420.34	22792.14
420.53	23529.41
420.72	23976.45
420.91	23772.82
421.10	23358.55
421.29	23594.94
421.48	22492.55
421.67	23543.45
421.86	23241.52
422.05	21483.78
422.24	19283.67
422.43	18991.11
422.61	21053.12
422.80	23054.28
422.99	22984.06
423.18	21818.47
423.37	22033.80
423.56	21383.13
423.75	21984.65
423.94	22494.89
424.13	21135.04
424.32	21544.63
424.50	21720.17
424.69	21249.72
424.88	21598.46
425.07	21408.88
425.26	21259.09
425.45	21153.76
425.64	20610.76
425.83	20624.80
426.01	21565.70
426.20	22300.62
426.39	22279.56
426.58	20339.26
426.77	19026.21
426.96	18595.56
427.15	19101.11
427.33	20851.83
427.52	21528.25
427.71	21575.06
427.90	21312.92
428.09	21352.71
428.28	20713.74
428.46	20182.44
428.65	19714.33
428.84	19936.68
429.03	20524.16
429.22	19344.53
429.40	18506.62
429.59	16779.30
429.78	14796.87
429.97	14691.54
430.16	15115.18
430.34	15342.21
430.53	15112.84
430.72	15534.14
430.91	16800.37
431.10	20173.08
431.28	23253.22
431.47	25535.24
431.66	25507.16
431.85	23431.10
432.03	21394.84
432.22	20606.08
432.41	21439.31
432.60	23840.70
432.79	24442.21
432.97	25453.33
433.16	24709.04
433.35	22558.08
433.54	20538.20
433.72	19002.81
433.91	19826.68
434.10	22026.78
434.28	23683.88
434.47	24929.05
434.66	24446.90
434.85	23927.30
435.03	23700.26
435.22	24414.13
435.41	25975.27
435.59	25762.28
435.78	26029.10
435.97	26689.13
436.16	27002.76
436.34	26785.09
436.53	26066.55
436.72	26148.46
436.90	24601.37
437.09	24734.78
437.28	24189.44
437.46	24582.65
437.65	25104.59
437.84	23510.68
438.02	21593.78
438.21	21076.52
438.40	22478.50
438.58	24393.06
438.77	24931.39
438.96	25441.62
439.14	26192.94
439.33	26820.20
439.52	27351.50
439.70	26773.39
439.89	26214.00
440.08	25460.35
440.26	25549.29
440.45	26223.36
440.63	27997.49
440.82	29479.05
441.01	29249.67
441.19	28760.50
441.38	28989.88
441.57	30260.79
441.75	30445.69
441.94	30689.10
442.12	30558.03
442.31	31098.70
442.50	31332.75
442.68	30733.57
442.87	30061.84
443.05	30106.31
443.24	30139.08
443.43	30918.48
443.61	31548.08
443.80	31948.31
443.98	30277.17
444.17	29811.40
444.35	31644.04
444.54	32402.38
444.73	32318.12
444.91	30515.90
445.10	29633.52
445.28	28638.80
445.47	27744.71
445.65	28208.14
445.84	28746.46
446.02	29860.55
446.21	30270.15
446.39	30204.61
446.58	30576.76
446.77	31281.26
446.95	31424.03
447.14	32238.54
447.32	32978.15
447.51	32187.05
447.69	31316.37
447.88	30113.33
448.06	31087.00
448.25	31674.47
448.43	31955.33
448.62	31290.62
448.80	31033.16
448.99	31573.83
449.17	31749.37
449.36	31791.50
449.54	32926.66
449.73	33338.59
449.91	34012.66
450.10	34618.86
450.28	34810.79
450.46	34902.07
450.65	34822.49
450.83	34745.25
451.02	33937.77
451.20	33713.08
451.39	33579.67
451.57	33469.66
451.76	33425.19
451.94	33144.33
452.13	32643.45
452.31	31426.37
452.49	29907.37
452.68	30120.35
452.86	29820.77
453.05	30794.43
453.23	31758.73
453.42	32381.31
453.60	33013.26
453.78	33521.15
453.97	33209.86
454.15	33221.56
454.34	32165.98
454.52	32477.27
454.70	31442.76
454.89	32503.02
455.07	32161.30
455.26	32779.20
455.44	33787.97
455.62	34820.15
455.81	34595.46
455.99	34782.70
456.17	34052.45
456.36	34129.69
456.54	35267.19
456.73	34857.60
456.91	35744.66
457.09	35747.00
457.28	36954.72
457.46	35026.12
457.64	35159.53
457.83	33977.56
458.01	32907.93
458.19	34094.58
458.38	34305.23
458.56	34972.28
458.74	35353.79
458.93	34373.11
459.11	34117.99
459.29	33986.92
459.48	34632.91
459.66	34101.61
459.84	34817.81
460.03	34855.26
460.21	35014.41
460.39	35613.59
460.57	35882.75
460.76	36084.04
460.94	36800.24
461.12	35882.75
461.31	36091.06
461.49	36187.02
461.67	35541.03
461.85	37008.55
462.04	36811.95
462.22	37013.23
462.40	36833.01
462.59	36526.40
462.77	36313.41
462.95	36821.31
463.13	35943.61
463.32	35924.88
463.50	36072.34
463.68	36102.76
463.86	35831.26
464.05	35428.69
464.23	34745.25
464.41	34771.00
464.59	33750.52
464.78	35325.71
464.96	35358.47
465.14	34958.24
465.32	36133.19
465.50	36854.08
465.69	37368.99
465.87	36098.08
466.05	35463.80
466.23	34377.79
466.41	32886.87
466.60	33996.28
466.78	34057.14
466.96	34714.83
467.14	35564.44
467.32	35833.60
467.51	35526.99
467.69	34174.16
467.87	35084.63
468.05	35515.29
468.23	35824.24
468.41	35913.18
468.60	35529.33
468.78	36016.16
468.96	35519.97
469.14	36367.24
469.32	35976.37
469.50	34621.20
469.69	35421.67
469.87	34422.26
470.05	34225.65
470.23	34639.93
470.41	34731.21
470.59	35072.93
470.77	35515.29
470.95	36154.26
471.14	36449.16
471.32	36154.26
471.50	38698.42
471.68	38770.97
471.86	38841.19
472.04	39164.18
472.22	39051.84
472.40	37254.31
472.58	36935.99
472.77	36404.69
472.95	37542.19
473.13	38438.62
473.31	36657.47
473.49	37631.13
473.67	37991.58
473.85	38408.19
474.03	39117.37
474.21	38990.98
474.39	39573.78
474.57	39868.69
474.75	40098.06
474.93	39597.18
475.12	38682.03
475.30	38888.00
475.48	38986.30
475.66	39313.98
475.84	39248.44
476.02	38721.82
476.20	38440.96
476.38	38677.35
476.56	39990.39
476.74	40690.21
476.92	41120.87
477.10	41462.59
477.28	42508.81
477.46	42600.09
477.64	42845.85
477.82	43236.72
478.00	43433.32
478.18	42820.10
478.36	42464.34
478.54	42504.13
478.72	42646.90
478.90	43903.77
479.08	44339.11
479.26	45242.56
479.44	45221.49
479.62	44570.82
479.80	44505.29
479.98	45312.77
480.16	45577.25
480.34	45045.95
480.52	45483.63
480.70	45837.05
480.88	45528.10
481.06	46347.29
481.24	46831.78
481.41	47255.42
481.59	48086.31
481.77	47988.00
481.95	47044.77
482.13	47199.24
482.31	47168.82
482.49	47742.25
482.67	47730.54
482.85	47576.07
483.03	48598.88
483.21	48512.28
483.39	49008.48
483.57	48285.25
483.74	47866.30
483.92	48009.07
484.10	48399.94
484.28	48914.86
484.46	49378.28
484.64	49846.39
484.82	49450.84
485.00	48715.91
485.18	47728.20
485.35	46478.36
485.53	43812.49
485.71	39915.50
485.89	38995.67
486.07	41144.28
486.25	44549.76
486.43	47185.20
486.61	47510.53
486.78	47409.89
486.96	47655.65
487.14	49322.11
487.32	49984.48
487.50	51030.70
487.68	52025.43
487.85	52411.62
488.03	52444.38
488.21	52004.36
488.39	51208.58
488.57	50602.38
488.75	50010.23
488.92	51199.22
489.10	53464.86
489.28	54731.09
489.46	55304.52
489.64	54967.48
489.81	55199.19
489.99	54981.52
490.17	55131.32
490.35	55159.41
490.53	54796.62
490.70	54534.48
490.88	54401.07
491.06	55121.96
491.24	55416.86
491.41	54494.69
491.59	52624.60
491.77	51990.32
491.95	52839.93
492.13	54305.11
492.30	55475.38
492.48	56140.09
492.66	56631.60
492.84	56568.41
493.01	56306.27
493.19	55721.13
493.37	55419.20
493.54	55299.84
493.72	55849.86
493.90	56655.01
494.08	57467.17
494.25	57715.27
494.43	57790.17
494.61	58232.53
494.79	58277.00
494.96	58211.46
495.14	57565.48
495.32	56774.37
495.49	56055.83
495.67	57104.39
495.85	58539.14
496.02	58775.53
496.20	58585.95
496.38	58166.99
496.55	57949.32
496.73	58541.48
496.91	58752.13
497.09	59248.32
497.26	59501.10
497.44	58873.84
497.62	58424.45
497.79	57595.90
497.97	56498.19
498.14	56423.29
498.32	57764.42
498.50	58375.30
498.67	59166.40
498.85	58857.45
499.03	59107.89
499.20	59206.19
499.38	59196.83
499.56	59147.68
499.73	58681.91
499.91	58314.45
500.08	57764.42
500.26	57069.28
500.44	57846.34
500.61	58330.83
500.79	58197.42
500.97	57715.27
501.14	57778.46
501.32	57577.18
501.49	57635.69
501.67	57705.91
501.84	58129.54
502.02	58291.04
502.20	58906.60
502.37	58995.54
502.55	58913.62
502.72	59592.38
502.90	59906.01
503.07	59550.25
503.25	59224.92
503.43	58319.13
503.60	57968.05
503.78	57127.80
503.95	57668.46
504.13	58976.82
504.30	59611.10
504.48	59540.89
504.65	59213.21
504.83	59199.17
505.01	59870.90
505.18	60111.98
505.36	60853.93
505.53	60837.54
505.71	60743.92
505.88	60849.25
506.06	60364.76
506.23	60137.72
506.41	59793.67
506.58	59891.97
506.76	60041.76
506.93	59849.84
507.11	59395.77
507.28	59831.11
507.46	59515.14
507.63	58939.37
507.81	58644.46
507.98	58805.96
508.16	59433.22
508.33	60016.02
508.50	60334.33
508.68	60432.63
508.85	60980.32
509.03	60989.68
509.20	60797.76
509.38	60224.32
509.55	59643.87
509.73	59707.07
509.90	60189.22
510.08	60491.15
510.25	60182.19
510.42	59941.12
510.60	59983.25
510.77	60346.03
510.95	60746.26
511.12	61013.08
511.30	61167.56
511.47	61551.41
511.64	61300.97
511.82	61085.64
511.99	60367.10
512.17	60025.38
512.34	59660.26
512.51	59842.82
512.69	59817.07
512.86	60037.08
513.04	60402.21
513.21	60437.31
513.38	60158.79
513.56	59430.88
513.73	59063.42
513.90	59299.81
514.08	59416.84
514.25	59547.91
514.43	59587.70
514.60	59945.80
514.77	59966.87
514.95	60355.39
515.12	59980.91
515.29	60172.83
515.47	60790.73
515.64	60729.88
515.81	60793.07
515.99	60067.51
516.16	58590.63
516.33	56547.34
516.51	55267.07
516.68	54298.09
516.85	54337.88
517.03	54337.88
517.20	56683.09
517.37	59126.61
517.54	60053.47
517.72	59756.22
517.89	57560.79
518.06	55412.18
518.24	55227.28
518.41	57495.26
518.58	58557.86
518.75	59093.85
518.93	59224.92
519.10	59079.80
519.27	59519.82
519.45	59884.95
519.62	60348.37
519.79	60678.39
519.96	60575.40
520.14	59786.64
520.31	59327.90
520.48	59093.85
520.65	59660.26
520.83	60210.28
521.00	60837.54
521.17	60500.51
521.34	60186.88
521.52	60388.16
521.69	60893.72
521.86	61441.40
522.03	61010.74
522.20	59882.61
522.38	59042.35
522.55	58824.68
522.72	59526.84
522.89	59559.61
523.07	59732.81
523.24	60111.98
523.41	61038.83
523.58	61106.71
523.75	61638.01
523.92	61286.93
524.10	61300.97
524.27	61415.66
524.44	61230.75
524.61	60933.51
524.78	60741.58
524.96	60762.65
525.13	60879.67
525.30	61099.68
525.47	61467.15
525.64	61345.44
525.81	60755.63
525.98	59332.58
526.16	58192.74
526.33	57364.19
526.50	57195.67
526.67	56690.12
526.84	57228.44
527.01	58272.32
527.18	58756.81
527.36	59643.87
527.53	60474.76
527.70	61200.33
527.87	60411.57
528.04	59987.93
528.21	60413.91
528.38	60975.64
528.55	61616.94
528.72	61876.74
528.89	61998.45
529.07	61836.95
529.24	61146.50
529.41	60631.58
529.58	59959.84
529.75	60058.15
529.92	60498.17
530.09	60767.33
530.26	61333.74
530.43	61642.69
530.60	61740.99
530.77	61883.76
530.94	61867.38
531.11	61350.12
531.28	61085.64
531.46	60942.87
531.63	61132.45
531.80	61087.98
531.97	60608.17
532.14	59863.88
532.31	59171.08
532.48	58433.81
532.65	58497.01
532.82	59276.41
532.99	60149.43
533.16	60624.56
533.33	61015.43
533.50	60942.87
533.67	60240.71
533.84	59812.39
534.01	60055.81
534.18	60257.09
534.35	60498.17
534.52	60287.52
534.69	60544.98
534.86	60842.23
535.03	61087.98
535.20	61263.52
535.37	61818.23
535.54	61996.11
535.71	61427.36
535.88	61176.92
536.05	60760.31
536.22	60388.16
536.38	59898.99
536.55	59540.89
536.72	59135.98
536.89	59070.44
537.06	59941.12
537.23	60683.07
537.40	60669.03
537.57	60830.52
537.74	60757.97
537.91	60544.98
538.08	60486.46
538.25	60322.63
538.42	60781.37
538.59	60617.53
538.75	60046.44
538.92	59903.67
539.09	59730.47
539.26	59278.75
539.43	59271.73
539.60	59330.24
539.77	59526.84
539.94	59433.22
540.11	58761.49
540.28	58309.77
540.44	58269.98
540.61	58567.23
540.78	58677.23
540.95	59196.83
541.12	59627.49
541.29	59877.93
541.46	59957.50
541.62	60158.79
541.79	59957.50
541.96	59351.30
542.13	59412.16
542.30	59821.75
542.47	59791.33
542.63	59320.88
542.80	59458.97
542.97	59580.68
543.14	59402.80
543.31	59348.96
543.48	60037.08
543.64	60776.69
543.81	60884.36
543.98	60886.70
544.15	60245.39
544.32	59344.28
544.48	59597.06
544.65	59959.84
544.82	60350.71
544.99	60189.22
545.16	59728.13
545.32	59355.99
545.49	60172.83
545.66	60500.51
545.83	60341.35
546.00	59838.14
546.16	59531.53
546.33	59648.55
546.50	59793.67
546.67	60104.96
546.83	59547.91
547.00	59587.70
547.17	59054.06
547.34	58569.57
547.50	58485.31
547.67	58934.69
547.84	58939.37
548.00	59353.65
548.17	59835.80
548.34	59690.68
548.51	59571.32
548.67	59594.72
548.84	59646.21
549.01	59564.29
549.18	59711.75
549.34	59578.34
549.51	59723.45
549.68	59503.44
549.84	59182.79
550.01	59161.72
550.18	59049.38
550.34	59114.91
550.51	59171.08
550.68	59274.07
550.84	58789.58
551.01	58887.88
551.18	58918.31
551.34	59112.57
551.51	59215.55
551.68	59770.26
551.84	59620.47
552.01	59444.93
552.18	59391.09
552.34	58415.09
552.51	58389.34
552.68	58174.02
552.84	58822.34
553.01	58972.14
553.18	58705.32
553.34	58930.01
553.51	58922.99
553.67	59243.64
553.84	59377.05
554.01	59355.99
554.17	59054.06
554.34	58944.05
554.51	59292.79
554.67	59618.13
554.84	59355.99
555.00	58960.44
555.17	58759.15
555.33	58789.58
555.50	58714.68
555.67	58906.60
555.83	58925.33
556.00	58461.90
556.16	58546.16
556.33	58078.05
556.50	57972.73
556.66	57902.51
556.83	57705.91
556.99	57900.17
557.16	57961.03
557.32	58347.21
557.49	58454.88
557.65	58204.44
557.82	58307.43
557.98	58169.33
558.15	57673.14
558.32	57015.45
558.48	56193.92
558.65	56348.40
558.81	56907.79
558.98	57237.80
559.14	57518.67
559.31	57434.41
559.47	57293.97
559.64	56963.96
559.80	56626.92
559.97	56545.00
560.13	56924.17
560.30	58106.14
560.46	58115.50
560.63	58731.06
560.79	58649.14
560.96	58368.28
561.12	57272.91
561.29	56507.55
561.45	56360.10
561.61	57013.11
561.78	57375.89
561.94	57315.04
562.11	57240.14
562.27	57080.98
562.44	57481.22
562.60	57542.07
562.77	57916.56
562.93	57696.55
563.10	57600.58
563.26	57183.97
563.42	57158.22
563.59	56835.23
563.75	56910.13
563.92	57099.71
564.08	56800.12
564.24	57233.12
564.41	57223.76
564.57	57244.82
564.74	57031.83
564.90	57104.39
565.07	56767.35
565.23	56446.70
565.39	56086.26
565.56	55655.60
565.72	55423.89
565.88	55779.65
566.05	55920.08
566.21	56231.37
566.38	56193.92
566.54	56186.90
566.70	56624.58
566.87	57008.43
567.03	57097.37
567.19	57162.90
567.36	56973.32
567.52	56673.73
567.68	56519.26
567.85	55744.54
568.01	55463.67
568.17	55370.05
568.34	55295.16
568.50	55353.67
568.66	55168.77
568.83	55744.54
568.99	55625.17
569.15	56011.36
569.32	55957.53
569.48	55601.77
569.64	55430.91
569.81	55323.24
569.97	55206.22
570.13	55199.19
570.30	54522.78
570.46	54143.61
570.62	53574.86
570.78	53453.15
570.95	54010.20
571.11	54527.46
571.27	54784.92
571.43	55089.19
571.60	55250.69
571.76	55133.66
571.92	55746.88
572.09	55812.41
572.25	55817.10
572.41	55662.62
572.57	55564.32
572.74	55681.34
572.90	55112.59
573.06	55320.90
573.22	55054.08
573.38	55260.05
573.55	55288.13
573.71	55341.97
573.87	55311.54
574.03	54908.97
574.20	55318.56
574.36	54791.94
574.52	54791.94
574.68	54471.29
574.84	53972.75
575.01	53656.78
575.17	53495.28
575.33	53848.71
575.49	54314.47
575.65	54436.18
575.82	54010.20
575.98	53689.55
576.14	54124.89
576.30	54412.77
576.46	54695.98
576.62	54508.74
576.79	54361.28
576.95	54094.46
577.11	53872.11
577.27	54000.84
577.43	54216.17
577.59	53682.53
577.75	53476.56
577.92	52701.84
578.08	52428.00
578.24	52566.09
578.40	52872.70
578.56	52999.09
578.72	53249.53
578.88	53315.06
579.04	53506.99
579.21	53404.00
579.37	53570.18
579.53	53741.04
579.69	53921.26
579.85	53752.74
580.01	53654.44
580.17	53298.68
580.33	53195.70
580.49	53340.81
580.65	53654.44
580.82	53661.46
580.98	53907.22
581.14	53331.45
581.30	53612.31
581.46	53368.90
581.62	53689.55
581.78	53832.32
581.94	53977.43
582.10	53682.53
582.26	53949.35
582.42	53635.72
582.58	53902.54
582.74	53895.52
582.90	53947.01
583.06	53869.77
583.22	53411.02
583.38	53602.95
583.54	53263.57
583.70	53567.84
583.86	53492.94
584.02	53102.07
584.18	53516.35
584.34	53186.33
584.50	53420.39
584.66	53062.29
584.82	52659.71
584.98	52849.30
585.14	52186.92
585.30	51840.53
