SpectraSuite Data File
++++++++++++++++++++++++++++++++++++
Date: Mon Oct 07 14:53:04 GMT-05:00 2013
User: price-jones
Dark Spectrum Present: No
Reference Spectrum Present: No
Number of Sampled Component Spectra: 1
Spectrometers: USB2+H05261
Integration Time (usec): 100000 (USB2+H05261)
Spectra Averaged: 1 (USB2+H05261)
Boxcar Smoothing: 0 (USB2+H05261)
Correct for Electrical Dark: No (USB2+H05261)
Strobe/Lamp Enabled: No (USB2+H05261)
Correct for Detector Non-linearity: No (USB2+H05261)
Correct for Stray Light: No (USB2+H05261)
Number of Pixels in Processed Spectrum: 2048
>>>>>Begin Processed Spectral Data<<<<<
365.73	0.00
365.92	0.00
366.12	0.00
366.32	0.00
366.52	0.00
366.72	0.00
366.91	0.00
367.11	0.00
367.31	0.00
367.51	0.00
367.70	0.00
367.90	0.00
368.10	0.00
368.30	0.00
368.49	0.00
368.69	0.00
368.89	0.00
369.09	0.00
369.28	0.00
369.48	0.00
369.68	0.00
369.87	0.00
370.07	0.00
370.27	0.00
370.47	519.60
370.66	2576.93
370.86	3056.74
371.06	3452.29
371.25	3379.73
371.45	2944.39
371.65	2752.47
371.84	2581.61
372.04	2815.66
372.24	3110.57
372.44	3115.25
372.63	3178.45
372.83	2855.45
373.03	2588.63
373.22	2445.86
373.42	2537.14
373.62	2867.16
373.81	2995.89
374.01	3171.43
374.21	2729.06
374.40	2527.78
374.60	2712.68
374.79	3068.44
374.99	3754.22
375.19	3854.86
375.38	3901.67
375.58	3597.40
375.78	3548.25
375.97	3676.98
376.17	3798.69
376.37	3714.43
376.56	3974.23
376.76	4011.68
376.95	4512.55
377.15	4571.07
377.35	4762.99
377.54	5015.77
377.74	5228.76
377.93	5013.43
378.13	4954.91
378.33	4727.88
378.52	4374.46
378.72	4238.71
378.91	4114.66
379.11	4025.72
379.31	3808.05
379.50	4014.02
379.70	4264.46
379.89	4521.92
380.09	4966.62
380.28	5067.26
380.48	5097.69
380.68	4882.36
380.87	4802.78
381.07	4421.27
381.26	4063.17
381.46	3824.44
381.65	3655.92
381.85	3655.92
382.04	3375.05
382.24	3162.06
382.43	3108.23
382.63	2956.10
382.83	3131.64
383.02	2965.46
383.22	2902.26
383.41	3105.89
383.61	3274.41
383.80	3747.20
384.00	4203.60
384.19	4702.14
384.39	4915.12
384.58	4987.68
384.78	4807.46
384.97	4870.65
385.17	4575.75
385.36	4320.63
385.56	4255.09
385.75	4278.50
385.95	4688.09
386.14	5210.03
386.34	5252.16
386.53	4894.06
386.72	4580.43
386.92	4709.16
387.11	4882.36
387.31	4990.02
387.50	5039.17
387.70	4858.95
387.89	4802.78
388.09	4919.81
388.28	4933.85
388.48	4952.57
388.67	5474.51
388.86	5891.13
389.06	6235.19
389.25	6644.78
389.45	6546.48
389.64	6630.74
389.84	6640.10
390.03	6368.60
390.22	6417.75
390.42	6736.06
390.61	7021.61
390.81	7454.61
391.00	7648.87
391.19	7531.84
391.39	7548.23
391.58	7052.03
391.78	6565.20
391.97	6347.53
392.16	5959.00
392.36	5341.10
392.55	4255.09
392.75	3314.20
392.94	2808.64
393.13	2825.03
393.33	3251.00
393.52	4159.13
393.71	5193.65
393.91	5813.89
394.10	6235.19
394.29	7026.29
394.49	7459.29
394.68	8149.75
394.88	8140.38
395.07	8376.78
395.26	8278.47
395.46	8126.34
395.65	7520.14
395.84	6642.44
396.04	5643.03
396.23	4531.28
396.42	3918.06
396.62	3723.79
396.81	4550.00
397.00	5547.07
397.19	7173.74
397.39	8292.52
397.58	9022.77
397.77	9605.56
397.97	10036.22
398.16	10265.59
398.35	10560.50
398.55	10829.66
398.74	11309.47
398.93	11693.32
399.12	11442.88
399.32	11112.86
399.51	11234.57
399.70	12121.63
399.90	11763.53
400.09	11815.02
400.28	11709.70
400.47	11981.20
400.67	12603.78
400.86	12849.54
401.05	12620.17
401.24	12744.22
401.44	13060.19
401.63	13022.74
401.82	12985.29
402.01	12872.95
402.21	13350.42
402.40	13280.20
402.59	12685.70
402.78	12339.30
402.97	12020.99
403.17	12549.95
403.36	13343.39
403.55	13738.94
403.74	13994.06
403.93	13245.09
404.13	12243.34
404.32	12269.09
404.51	12571.02
404.70	13589.15
404.89	13614.90
405.09	13308.29
405.28	12800.39
405.47	12943.16
405.66	12936.14
405.85	12526.55
406.05	12332.28
406.24	12393.14
406.43	12957.21
406.62	13186.58
406.81	13645.32
407.00	12954.87
407.20	12662.30
407.39	12996.99
407.58	13179.56
407.77	14155.56
407.96	14466.85
408.15	14532.39
408.34	14487.92
408.54	14946.66
408.73	15300.08
408.92	15030.92
409.11	14714.95
409.30	13804.48
409.49	13088.28
409.68	12086.53
409.87	12142.70
410.07	12858.90
410.26	13547.02
410.45	14600.26
410.64	14752.40
410.83	15480.30
411.02	15854.79
411.21	15974.16
411.40	15969.48
411.59	16222.25
411.78	16140.33
411.98	15807.98
412.17	16308.85
412.36	15824.36
412.55	16035.01
412.74	15501.37
412.93	15143.27
413.12	15351.57
413.31	16727.81
413.50	17039.10
413.69	17240.39
413.88	16336.94
414.07	16035.01
414.26	16271.40
414.45	16779.30
414.64	17081.23
414.83	17114.00
415.02	16606.10
415.22	16795.68
415.41	17238.05
415.60	17490.82
415.79	18277.24
415.98	18799.18
416.17	18691.52
416.36	18274.90
416.55	18143.83
416.74	17511.89
416.93	17013.35
417.12	16659.93
417.31	17268.47
417.50	17474.44
417.69	17961.27
417.88	17886.37
418.07	17839.56
418.26	17355.07
418.45	17483.80
418.64	18305.33
418.83	18995.79
419.02	18565.13
419.21	18200.01
419.39	17661.68
419.58	16893.99
419.77	16980.59
419.96	17584.44
420.15	18902.17
420.34	19262.61
420.53	19709.65
420.72	20283.08
420.91	20184.78
421.10	19452.19
421.29	19775.19
421.48	18986.43
421.67	19824.34
421.86	19173.67
422.05	17713.17
422.24	16051.39
422.43	15927.35
422.61	17710.83
422.80	19157.28
422.99	19281.33
423.18	18338.10
423.37	18321.71
423.56	18253.84
423.75	18649.39
423.94	18815.57
424.13	17853.61
424.32	17928.50
424.50	18209.37
424.69	17907.44
424.88	17869.99
425.07	17823.18
425.26	17813.82
425.45	17893.40
425.64	17102.29
425.83	17640.62
426.01	18597.90
426.20	18951.32
426.39	18457.46
426.58	17280.18
426.77	15726.06
426.96	15524.77
427.15	16065.44
427.33	17425.29
427.52	17781.05
427.71	18061.91
427.90	17752.96
428.09	17593.81
428.28	17125.70
428.46	16819.09
428.65	16573.33
428.84	16858.88
429.03	17336.35
429.22	16231.62
429.40	15405.41
429.59	13893.42
429.78	12432.93
429.97	12336.96
430.16	12699.75
430.34	12542.93
430.53	12477.40
430.72	13022.74
430.91	14459.83
431.10	17034.42
431.28	19840.72
431.47	21387.82
431.66	21582.08
431.85	19566.88
432.03	18211.71
432.22	17792.75
432.41	18345.12
432.60	20034.99
432.79	20753.53
432.97	21338.66
433.16	20713.74
433.35	18888.12
433.54	17111.66
433.72	15932.03
433.91	16390.77
434.10	18661.09
434.28	19807.95
434.47	20451.60
434.66	20805.02
434.85	19690.93
435.03	19756.46
435.22	20545.22
435.41	21687.40
435.59	21860.60
435.78	22057.21
435.97	22728.94
436.16	22658.73
436.34	22359.14
436.53	21745.92
436.72	21944.86
436.90	20807.36
437.09	20940.77
437.28	20102.86
437.46	20996.95
437.65	21387.82
437.84	19447.51
438.02	18047.87
438.21	17888.71
438.40	19000.47
438.58	20198.82
438.77	20938.43
438.96	21142.06
439.14	22001.04
439.33	22546.38
439.52	22960.66
439.70	22427.01
439.89	21956.57
440.08	21275.47
440.26	21420.58
440.45	22277.22
440.63	24018.58
440.82	24470.30
441.01	24372.00
441.19	23929.64
441.38	24657.54
441.57	25420.56
441.75	25696.74
441.94	26216.34
442.12	25965.90
442.31	26544.02
442.50	26183.57
442.68	26136.76
442.87	25500.14
443.05	25153.74
443.24	25785.68
443.43	26457.42
443.61	26434.01
443.80	26656.36
443.98	25432.26
444.17	25544.61
444.35	27026.17
444.54	27718.96
444.73	26937.23
444.91	25745.89
445.10	24840.11
445.28	23880.49
445.47	23873.46
445.65	23585.58
445.84	24435.19
446.02	25385.45
446.21	25530.56
446.39	25635.89
446.58	26216.34
446.77	26017.40
446.95	26401.24
447.14	27257.88
447.32	27814.93
447.51	27138.51
447.69	26602.53
447.88	25788.02
448.06	26457.42
448.25	27094.04
448.43	26799.13
448.62	26253.79
448.80	26181.23
448.99	26478.48
449.17	26682.11
449.36	26719.56
449.54	27761.09
449.73	28264.31
449.91	28774.55
450.10	29317.55
450.28	29675.65
450.46	29425.22
450.65	29598.41
450.83	29184.14
451.02	28510.07
451.20	28741.78
451.39	28744.12
451.57	28261.97
451.76	28219.84
451.94	28460.91
452.13	27576.19
452.31	26244.43
452.49	25256.72
452.68	25467.37
452.86	25465.03
453.05	25645.25
453.23	26918.50
453.42	27442.78
453.60	27798.54
453.78	28306.44
453.97	27962.38
454.15	28088.77
454.34	27442.78
454.52	27094.04
454.70	26803.82
454.89	27452.14
455.07	27370.22
455.26	28006.85
455.44	28872.85
455.62	29340.96
455.81	29762.25
455.99	29247.33
456.17	28872.85
456.36	28947.75
456.54	29923.75
456.73	30071.20
456.91	30703.15
457.09	30190.57
457.28	30967.63
457.46	29621.82
457.64	29652.25
457.83	28961.79
458.01	27985.79
458.19	28629.43
458.38	28950.09
458.56	29825.45
458.74	29961.20
458.93	29177.12
459.11	29177.12
459.29	29076.48
459.48	29465.00
459.66	28603.69
459.84	29467.34
460.03	29591.39
460.21	29682.67
460.39	30609.53
460.57	30356.75
460.76	30972.31
460.94	30937.20
461.12	30738.26
461.31	30513.56
461.49	30703.15
461.67	30237.38
461.85	31346.79
462.04	31084.65
462.22	31875.76
462.40	31536.38
462.59	31197.00
462.77	31302.32
462.95	31150.19
463.13	30829.54
463.32	30527.61
463.50	30387.18
463.68	30562.72
463.86	30923.16
464.05	29867.58
464.23	29951.84
464.41	29439.26
464.59	28903.28
464.78	30249.08
464.96	30258.45
465.14	29905.02
465.32	30656.34
465.50	31431.05
465.69	31344.45
465.87	30890.39
466.05	30347.39
466.23	28587.30
466.41	28182.39
466.60	29067.11
466.78	29172.44
466.96	29518.84
467.14	29799.70
467.32	30118.01
467.51	30462.07
467.69	29411.17
467.87	29839.49
468.05	30279.51
468.23	30438.67
468.41	30778.04
468.60	30361.43
468.78	30869.33
468.96	30356.75
469.14	30649.32
469.32	31047.21
469.50	29668.63
469.69	29893.32
469.87	29680.33
470.05	29352.66
470.23	29357.34
470.41	29661.61
470.59	30127.38
470.77	30232.70
470.95	30448.03
471.14	31150.19
471.32	31117.42
471.50	33266.03
471.68	32704.31
471.86	33193.48
472.04	33446.26
472.22	33586.69
472.40	31840.65
472.58	31346.79
472.77	31295.30
472.95	31688.51
473.13	32910.27
473.31	31784.48
473.49	32165.98
473.67	32488.98
473.85	32933.68
474.03	33628.82
474.21	34162.46
474.39	34043.09
474.57	33965.85
474.75	33993.94
474.93	33436.89
475.12	32762.82
475.30	33476.68
475.48	33574.98
475.66	33930.75
475.84	33221.56
476.02	32842.40
476.20	32357.91
476.38	33333.91
476.56	34426.94
476.74	35030.80
476.92	35157.19
477.10	35709.55
477.28	36224.47
477.46	36795.56
477.64	36751.09
477.82	37209.84
478.00	36879.82
478.18	36343.84
478.36	36395.33
478.54	36079.36
478.72	36900.89
478.90	37624.11
479.08	38827.15
479.26	38859.91
479.44	38782.68
479.62	38913.75
479.80	38719.48
479.98	38759.27
480.16	39000.35
480.34	38995.67
480.52	39342.06
480.70	39056.52
480.88	39552.71
481.06	40032.52
481.24	40535.74
481.41	41420.46
481.59	42195.18
481.77	41570.25
481.95	40849.37
482.13	41031.93
482.31	40875.12
482.49	41312.80
482.67	41502.38
482.85	41897.93
483.03	42583.71
483.21	42663.28
483.39	42838.83
483.57	42143.69
483.74	41677.92
483.92	42157.73
484.10	42389.44
484.28	43047.13
484.46	43552.69
484.64	43936.54
484.82	42815.42
485.00	42359.02
485.18	41677.92
485.35	40538.08
485.53	37251.97
485.71	33951.81
485.89	33738.82
486.07	35725.94
486.25	38775.66
486.43	41048.32
486.61	41277.69
486.78	41495.36
486.96	41806.65
487.14	43529.28
487.32	44516.99
487.50	45584.27
487.68	46394.10
487.85	46880.93
488.03	46494.74
488.21	46204.52
488.39	45551.51
488.57	45219.15
488.75	44718.28
488.92	46225.58
489.10	48718.25
489.28	49916.61
489.46	50382.37
489.64	50136.62
489.81	50450.25
489.99	49949.37
490.17	50288.75
490.35	50497.06
490.53	50230.24
490.70	49310.41
490.88	49326.79
491.06	50461.95
491.24	50691.32
491.41	49429.77
491.59	47365.42
491.77	46667.94
491.95	47927.15
492.13	49059.97
492.30	50419.82
492.48	51695.41
492.66	52477.15
492.84	51892.02
493.01	52226.71
493.19	51267.09
493.37	50972.19
493.54	50798.99
493.72	51426.25
493.90	52640.99
494.08	53352.51
494.25	53485.92
494.43	53771.47
494.61	54162.34
494.79	54302.77
494.96	54021.90
495.14	53471.88
495.32	52289.91
495.49	51856.91
495.67	53031.86
495.85	54206.81
496.02	54651.51
496.20	54436.18
496.38	54078.08
496.55	54157.66
496.73	54600.02
496.91	54600.02
497.09	55220.26
497.26	55365.37
497.44	54834.07
497.62	54286.39
497.79	53399.32
497.97	51831.16
498.14	52423.32
498.32	53626.35
498.50	54782.58
498.67	55114.94
498.85	55042.38
499.03	55107.91
499.20	55444.95
499.38	55650.92
499.56	55325.58
499.73	54803.64
499.91	54270.00
500.08	53963.39
500.26	53017.82
500.44	53939.99
500.61	54618.74
500.79	53982.12
500.97	53687.21
501.14	53640.40
501.32	53469.54
501.49	53626.35
501.67	53443.79
501.84	54134.25
502.02	54562.57
502.20	54635.13
502.37	54990.89
502.55	55154.72
502.72	56058.17
502.90	55985.61
503.07	55693.05
503.25	55316.22
503.43	54562.57
503.60	53640.40
503.78	53151.23
503.95	53729.34
504.13	55157.06
504.30	56011.36
504.48	55636.87
504.65	55344.31
504.83	55569.00
505.01	56182.22
505.18	56629.26
505.36	57036.51
505.53	57167.58
505.71	57052.90
505.88	57387.60
506.06	56535.64
506.23	56329.67
506.41	56224.35
506.58	56313.29
506.76	56175.20
506.93	56123.71
507.11	55929.44
507.28	56128.39
507.46	55423.89
507.63	55107.91
507.81	54927.69
507.98	55028.34
508.16	55997.32
508.33	56245.41
508.50	56797.78
508.68	56956.94
508.85	57289.29
509.03	57263.55
509.20	57127.80
509.38	56762.67
509.55	55819.44
509.73	56090.94
509.90	56535.64
510.08	56837.57
510.25	56554.36
510.42	56573.09
510.60	56282.86
510.77	56530.96
510.95	57207.37
511.12	57118.43
511.30	57633.35
511.47	57869.75
511.64	57811.23
511.82	57317.38
511.99	56467.76
512.17	56074.55
512.34	55978.59
512.51	56058.17
512.69	56191.58
512.86	56406.91
513.04	56774.37
513.21	56790.76
513.38	56376.48
513.56	55987.95
513.73	55379.42
513.90	55615.81
514.08	55688.37
514.25	56034.77
514.43	56217.33
514.60	56301.59
514.77	56411.59
514.95	56427.98
515.12	56697.14
515.29	56800.12
515.47	57205.03
515.64	57244.82
515.81	56856.29
515.99	56427.98
516.16	54836.41
516.33	52388.21
516.51	50857.50
516.68	49656.81
516.85	49584.25
517.03	50698.34
517.20	53083.35
517.37	55576.02
517.54	56748.63
517.72	55756.24
517.89	53319.74
518.06	50873.88
518.24	51442.63
518.41	53954.03
518.58	55049.40
518.75	55159.41
518.93	55522.19
519.10	55461.33
519.27	55833.48
519.45	56062.85
519.62	56886.72
519.79	57261.21
519.96	56837.57
520.14	56303.93
520.31	55561.98
520.48	55601.77
520.65	56266.48
520.83	56903.10
521.00	57258.87
521.17	56935.87
521.34	56643.30
521.52	56968.64
521.69	57513.98
521.86	57907.19
522.03	57495.26
522.20	56034.77
522.38	55473.04
522.55	55330.26
522.72	56116.68
522.89	56112.00
523.07	56423.29
523.24	56692.46
523.41	57560.79
523.58	57649.74
523.75	58185.72
523.92	58169.33
524.10	58291.04
524.27	57839.32
524.44	57841.66
524.61	57380.57
524.78	57478.88
524.96	57392.28
525.13	57598.24
525.30	57729.31
525.47	58064.01
525.64	58103.80
525.81	57366.53
525.98	55927.10
526.16	54445.54
526.33	53556.14
526.50	53375.92
526.67	52889.09
526.84	53663.80
527.01	54735.77
527.18	55456.65
527.36	56516.92
527.53	57221.42
527.70	57427.38
527.87	57001.41
528.04	56399.89
528.21	57181.63
528.38	57710.59
528.55	58384.66
528.72	58520.41
528.89	58649.14
529.07	58267.64
529.24	57748.04
529.41	57071.62
529.58	56580.11
529.75	56676.07
529.92	57083.33
530.09	57385.25
530.26	58012.52
530.43	58347.21
530.60	58291.04
530.77	58389.34
530.94	58574.25
531.11	58089.76
531.28	57829.96
531.46	57708.25
531.63	58082.73
531.80	57521.01
531.97	56994.39
532.14	56519.26
532.31	55306.86
532.48	54520.44
532.65	54906.63
532.82	55627.51
532.99	56683.09
533.16	57347.81
533.33	57705.91
533.50	57506.96
533.67	56858.63
533.84	56502.87
534.01	56708.84
534.18	57120.77
534.35	57357.17
534.52	56790.76
534.69	57354.83
534.86	57577.18
535.03	57897.83
535.20	58216.14
535.37	58555.52
535.54	58506.37
535.71	58312.11
535.88	57991.45
536.05	57167.58
536.22	56865.66
536.38	56573.09
536.55	55924.76
536.72	55456.65
536.89	55442.61
537.06	56720.54
537.23	57427.38
537.40	57600.58
537.57	57532.71
537.74	57336.10
537.91	57270.57
538.08	57223.76
538.25	57305.68
538.42	57556.11
538.59	57080.98
538.75	56388.19
538.92	56580.11
539.09	56231.37
539.26	55994.98
539.43	56016.04
539.60	55868.59
539.77	56236.05
539.94	55913.06
540.11	55229.62
540.28	54738.11
540.44	54756.83
540.61	55100.89
540.78	55327.92
540.95	55952.85
541.12	56039.45
541.29	56545.00
541.46	56704.16
541.62	56807.14
541.79	56662.03
541.96	55920.08
542.13	56086.26
542.30	56435.00
542.47	56636.28
542.63	56088.60
542.80	55861.57
542.97	56278.18
543.14	56048.81
543.31	56046.47
543.48	56690.12
543.64	57497.60
543.81	57712.93
543.98	57408.66
544.15	56935.87
544.32	55945.83
544.48	56495.85
544.65	56809.48
544.82	57102.05
544.99	56584.79
545.16	56182.22
545.32	56142.43
545.49	56882.04
545.66	57263.55
545.83	56975.66
546.00	56596.49
546.16	56371.80
546.33	56303.93
546.50	56519.26
546.67	56858.63
546.83	56430.32
547.00	56521.60
547.17	55735.18
547.34	55061.10
547.50	55285.79
547.67	55835.82
547.84	55627.51
548.00	56055.83
548.17	56591.81
548.34	56254.78
548.51	56259.46
548.67	56474.79
548.84	56437.34
549.01	56310.95
549.18	56339.04
549.34	56343.72
549.51	56367.12
549.68	56104.98
549.84	55922.42
550.01	55669.64
550.18	55662.62
550.34	55901.36
550.51	55887.31
550.68	56097.96
550.84	55442.61
551.01	55618.15
551.18	55547.93
551.34	55756.24
551.51	56079.24
551.68	56437.34
551.84	56568.41
552.01	56079.24
552.18	56142.43
552.34	55224.94
552.51	54777.90
552.68	55082.17
552.84	55480.06
553.01	55344.31
553.18	55580.70
553.34	55508.14
553.51	56004.34
553.67	55639.22
553.84	56121.37
554.01	55901.36
554.17	55866.25
554.34	56090.94
554.51	55838.16
554.67	56547.34
554.84	56308.61
555.00	55751.56
555.17	55681.34
555.33	55510.49
555.50	55571.34
555.67	55620.49
555.83	55379.42
556.00	54639.81
556.16	55072.81
556.33	54810.67
556.50	54628.10
556.66	54621.08
556.83	54548.53
556.99	54494.69
557.16	54979.18
557.32	54974.50
557.49	55229.62
557.65	55004.93
557.82	55009.61
557.98	54703.00
558.15	54356.60
558.32	53535.07
558.48	52617.58
558.65	52945.26
558.81	53282.30
558.98	53879.13
559.14	53851.05
559.31	54101.48
559.47	53991.48
559.64	53432.09
559.80	53169.95
559.97	53263.57
560.13	53968.07
560.30	54815.35
560.46	55171.11
560.63	55374.73
560.79	55475.38
560.96	54962.80
561.12	53951.69
561.29	52933.56
561.45	53277.61
561.61	53921.26
561.78	54122.55
561.94	53921.26
562.11	53778.49
562.27	53818.28
562.44	54415.11
562.60	54452.56
562.77	54611.72
562.93	54246.60
563.10	54071.06
563.26	53794.87
563.42	54049.99
563.59	53666.14
563.75	53605.29
563.92	54026.59
564.08	53794.87
564.24	53907.22
564.41	53923.60
564.57	53879.13
564.74	53588.91
564.90	53570.18
565.07	53450.81
565.23	52931.22
565.39	52498.22
565.56	52044.15
565.72	52041.81
565.88	52488.85
566.05	52568.43
566.21	52870.36
566.38	52898.45
566.54	53069.31
566.70	53364.21
566.87	53649.76
567.03	53490.60
567.19	54024.25
567.36	53738.70
567.52	53464.86
567.68	53048.24
567.85	52437.36
568.01	51995.00
568.17	51592.43
568.34	51564.34
568.50	51723.50
568.66	51679.03
568.83	52034.79
568.99	52425.66
569.15	52624.60
569.32	52601.20
569.48	52023.09
569.64	52067.56
569.81	51779.67
569.97	51693.07
570.13	51489.45
570.30	51030.70
570.46	50513.44
570.62	50169.38
570.78	49827.66
570.95	50281.73
571.11	50894.95
571.27	51243.69
571.43	51466.04
571.60	51559.66
571.76	52229.05
571.92	52069.90
572.09	52589.50
572.25	52350.76
572.41	52493.54
572.57	52102.67
572.74	52128.41
572.90	51885.00
573.06	51798.40
573.22	51901.38
573.38	51885.00
573.55	51725.84
573.71	51814.78
573.87	51552.64
574.03	51522.21
574.20	51693.07
574.36	51114.96
574.52	50908.99
574.68	50831.75
574.84	50253.64
575.01	50150.66
575.17	49935.33
575.33	50408.12
575.49	50733.45
575.65	50623.45
575.82	50342.58
575.98	50080.44
576.14	50637.49
576.30	50721.75
576.46	51136.02
576.62	50789.62
576.79	50628.13
576.95	50567.27
577.11	50258.32
577.27	50270.03
577.43	50660.90
577.59	49860.43
577.75	49389.98
577.92	49036.56
578.08	48561.44
578.24	48788.47
578.40	49146.57
578.56	49106.78
578.72	49499.99
578.88	49467.22
579.04	49935.33
579.21	50052.36
579.37	50040.65
579.53	50260.66
579.69	50071.08
579.85	50529.83
580.01	50066.40
580.17	49174.66
580.33	49272.96
580.49	49401.69
580.65	49846.39
580.82	50248.96
580.98	49991.50
581.14	49865.11
581.30	49797.24
581.46	49998.52
581.62	50401.10
581.78	49876.82
581.94	50274.71
582.10	50511.10
582.26	50071.08
582.42	50167.04
582.58	49975.12
582.74	50279.39
582.90	50518.12
583.06	50160.02
583.22	50021.93
583.38	50061.72
583.54	49584.25
583.70	49769.15
583.86	50197.47
584.02	49771.49
584.18	49862.77
584.34	49563.18
584.50	49572.55
584.66	49420.41
584.82	49389.98
584.98	49130.19
585.14	48416.32
585.30	47430.96
