SpectraSuite Data File
++++++++++++++++++++++++++++++++++++
Date: Mon Oct 07 14:55:02 GMT-05:00 2013
User: price-jones
Dark Spectrum Present: No
Reference Spectrum Present: No
Number of Sampled Component Spectra: 1
Spectrometers: USB2+H05261
Integration Time (usec): 10000 (USB2+H05261)
Spectra Averaged: 1 (USB2+H05261)
Boxcar Smoothing: 0 (USB2+H05261)
Correct for Electrical Dark: No (USB2+H05261)
Strobe/Lamp Enabled: No (USB2+H05261)
Correct for Detector Non-linearity: No (USB2+H05261)
Correct for Stray Light: No (USB2+H05261)
Number of Pixels in Processed Spectrum: 2048
>>>>>Begin Processed Spectral Data<<<<<
365.73	0.00
365.92	0.00
366.12	0.00
366.32	0.00
366.52	0.00
366.72	0.00
366.91	0.00
367.11	0.00
367.31	0.00
367.51	0.00
367.70	0.00
367.90	0.00
368.10	0.00
368.30	0.00
368.49	0.00
368.69	0.00
368.89	0.00
369.09	0.00
369.28	0.00
369.48	0.00
369.68	0.00
369.87	0.00
370.07	0.00
370.27	0.00
370.47	486.83
370.66	2810.98
370.86	3239.30
371.06	3550.59
371.25	3379.73
371.45	3068.44
371.65	2743.11
371.84	2590.97
372.04	3040.36
372.24	3283.77
372.44	3239.30
372.63	3084.83
372.83	2829.71
373.03	2534.80
373.22	2396.71
373.42	2637.78
373.62	3007.59
373.81	3220.58
374.01	3148.02
374.21	2733.75
374.40	2661.19
374.60	2806.30
374.79	3309.52
374.99	3803.37
375.19	3815.07
375.38	3831.46
375.58	3660.60
375.78	3735.50
375.97	3810.39
376.17	3779.97
376.37	3920.40
376.56	4007.00
376.76	4196.58
376.95	4526.60
377.15	4772.35
377.35	4938.53
377.54	5156.20
377.74	5203.01
377.93	5331.74
378.13	5085.98
378.33	4631.92
378.52	4545.32
378.72	4229.35
378.91	4278.50
379.11	4112.32
379.31	4009.34
379.50	4109.98
379.70	4449.36
379.89	4903.42
380.09	5109.39
380.28	5151.52
380.48	5228.76
380.68	5170.24
380.87	4936.19
381.07	4402.55
381.26	4140.41
381.46	4065.51
381.65	3882.95
381.85	3824.44
382.04	3452.29
382.24	3361.01
382.43	3283.77
382.63	3176.11
382.83	3066.10
383.02	3061.42
383.22	3173.77
383.41	3192.49
383.61	3487.40
383.80	4056.15
384.00	4657.67
384.19	5160.88
384.39	5078.96
384.58	5287.27
384.78	5069.60
384.97	5013.43
385.17	4657.67
385.36	4510.21
385.56	4212.96
385.75	4758.31
385.95	5184.29
386.14	5514.30
386.34	5305.99
386.53	5123.43
386.72	4744.27
386.92	4884.70
387.11	5235.78
387.31	5460.47
387.50	5270.89
387.70	5041.51
387.89	5107.05
388.09	4990.02
388.28	5163.22
388.48	5371.53
388.67	5738.99
388.86	6431.79
389.06	6841.39
389.25	7150.34
389.45	7232.26
389.64	7117.57
389.84	6932.67
390.03	6839.05
390.22	7012.24
390.42	7300.13
390.61	7765.90
390.81	8243.37
391.00	8428.27
391.19	8006.97
391.39	8006.97
391.58	7508.44
391.78	6967.77
391.97	6729.04
392.16	6279.66
392.36	5462.81
392.55	4313.61
392.75	3445.27
392.94	2883.54
393.13	3035.67
393.33	3974.23
393.52	4798.10
393.71	5743.67
393.91	6443.49
394.10	7070.76
394.29	7808.03
394.49	8128.68
394.68	8734.88
394.88	8737.22
395.07	9104.68
395.26	8849.57
395.46	8533.59
395.65	7831.43
395.84	6876.49
396.04	5633.67
396.23	4517.23
396.42	3939.12
396.62	4035.08
396.81	4905.76
397.00	6277.32
397.19	7887.61
397.39	9336.40
397.58	10223.46
397.77	10766.46
397.97	11288.40
398.16	11283.72
398.35	11625.44
398.55	11861.84
398.74	12465.69
398.93	12409.52
399.12	12379.09
399.32	12004.61
399.51	12554.63
399.70	13446.38
399.90	12830.82
400.09	12898.69
400.28	12872.95
400.47	12800.39
400.67	13511.91
400.86	13799.80
401.05	14024.49
401.24	14132.15
401.44	14068.96
401.63	14368.55
401.82	14384.93
402.01	14394.29
402.21	14464.51
402.40	14682.18
402.59	13998.74
402.78	13256.79
402.97	13277.86
403.17	14178.97
403.36	14609.62
403.55	15047.30
403.74	15108.16
403.93	14455.15
404.13	13334.03
404.32	13444.04
404.51	14059.60
404.70	15108.16
404.89	14834.32
405.09	14630.69
405.28	14373.23
405.47	14260.88
405.66	14153.22
405.85	13652.34
406.05	13537.66
406.24	13973.00
406.43	14633.03
406.62	14558.13
406.81	14869.42
407.00	14560.47
407.20	14396.64
407.39	14380.25
407.58	15140.93
407.77	15882.88
407.96	16222.25
408.15	16610.78
408.34	16662.27
408.54	17362.09
408.73	17050.80
408.92	16730.15
409.11	15892.24
409.30	15321.15
409.49	14092.37
409.68	13378.50
409.87	13345.73
410.07	14839.00
410.26	15466.26
410.45	16063.10
410.64	16746.53
410.83	17394.86
411.02	17652.32
411.21	18188.30
411.40	18066.60
411.59	18455.12
411.78	18284.26
411.98	18054.89
412.17	18125.11
412.36	17888.71
412.55	17860.63
412.74	17151.45
412.93	17207.62
413.12	17909.78
413.31	19208.78
413.50	19276.65
413.69	19332.82
413.88	18487.89
414.07	18366.18
414.26	19176.01
414.45	19365.59
414.64	18920.89
414.83	19007.49
415.02	18766.42
415.22	19037.92
415.41	19761.14
415.60	20140.31
415.79	20837.79
415.98	20783.96
416.17	20938.43
416.36	20540.54
416.55	20283.08
416.74	19187.71
416.93	18911.53
417.12	19295.38
417.31	19129.20
417.50	19971.79
417.69	20259.68
417.88	19812.63
418.07	19927.32
418.26	19822.00
418.45	20109.88
418.64	21303.56
418.83	22029.12
419.02	21055.46
419.21	20320.53
419.39	20004.56
419.58	19073.03
419.77	19726.04
419.96	20531.18
420.15	21649.96
420.34	22171.89
420.53	22473.82
420.72	23028.53
420.91	22668.09
421.10	22082.95
421.29	22036.14
421.48	21994.01
421.67	22665.75
421.86	21509.52
422.05	19499.00
422.24	18167.24
422.43	19073.03
422.61	21118.65
422.80	22040.82
422.99	21575.06
423.18	20908.01
423.37	20865.88
423.56	21118.65
423.75	21986.99
423.94	21799.75
424.13	20475.01
424.32	20435.22
424.50	20685.65
424.69	20599.05
424.88	20769.91
425.07	20872.90
425.26	21263.77
425.45	20130.95
425.64	20006.90
425.83	20290.10
426.01	21338.66
426.20	21556.33
426.39	21048.44
426.58	19793.91
426.77	18499.59
426.96	18221.07
427.15	18937.27
427.33	20451.60
427.52	20732.47
427.71	21345.69
427.90	20730.12
428.09	20711.40
428.28	19831.36
428.46	19405.38
428.65	18878.76
428.84	19758.80
429.03	20074.77
429.22	18941.96
429.40	17504.87
429.59	15723.72
429.78	14080.66
429.97	14394.29
430.16	14406.00
430.34	14637.71
430.53	14934.96
430.72	15733.08
430.91	17308.26
431.10	20446.92
431.28	23695.58
431.47	25135.01
431.66	24369.66
431.85	22008.06
432.03	20404.79
432.22	20463.30
432.41	22054.87
432.60	23824.31
432.79	24341.57
432.97	24730.10
433.16	23831.33
433.35	21036.74
433.54	19447.51
433.72	18988.77
433.91	20098.18
434.10	22375.52
434.28	23777.50
434.47	24584.99
434.66	23763.46
434.85	23381.95
435.03	23419.40
435.22	24161.35
435.41	25493.12
435.59	25823.13
435.78	25729.51
435.97	26710.19
436.16	26106.34
436.34	26127.40
436.53	25661.63
436.72	25895.69
436.90	24369.66
437.09	24276.04
437.28	23915.59
437.46	24718.40
437.65	24201.14
437.84	21979.97
438.02	21118.65
438.21	21273.13
438.40	22169.55
438.58	24091.13
438.77	24854.15
438.96	25261.40
439.14	26480.82
439.33	27056.59
439.52	26902.12
439.70	25673.34
439.89	25497.80
440.08	25151.40
440.26	25383.11
440.45	26632.96
440.63	28201.11
440.82	28971.15
441.01	28074.73
441.19	28510.07
441.38	29179.46
441.57	30366.11
441.75	29881.62
441.94	30015.03
442.12	29809.06
442.31	31452.12
442.50	31047.21
442.68	30450.37
442.87	30211.64
443.05	29455.64
443.24	30401.22
443.43	31065.93
443.61	31529.36
443.80	31599.57
443.98	30597.82
444.17	30270.15
444.35	31477.86
444.54	31887.46
444.73	31222.75
444.91	29937.79
445.10	29097.54
445.28	28250.27
445.47	27594.92
445.65	28158.99
445.84	29237.97
446.02	29699.06
446.21	30195.25
446.39	30295.89
446.58	31208.70
446.77	31442.76
446.95	31826.60
447.14	32533.45
447.32	32800.27
447.51	32203.43
447.69	30724.21
447.88	30452.71
448.06	31426.37
448.25	31601.91
448.43	31136.15
448.62	31117.42
448.80	31098.70
448.99	31278.92
449.17	32161.30
449.36	32376.63
449.54	33481.36
449.73	33383.06
449.91	33397.10
450.10	35290.60
450.28	35288.26
450.46	34824.83
450.65	34932.50
450.83	34480.77
451.02	33909.68
451.20	33591.37
451.39	33900.32
451.57	33876.91
451.76	34185.86
451.94	33060.07
452.13	31960.02
452.31	30642.29
452.49	29226.27
452.68	30274.83
452.86	30778.04
453.05	31208.70
453.23	31957.67
453.42	32842.40
453.60	33951.81
453.78	32964.10
453.97	33244.97
454.15	32711.33
454.34	31489.57
454.52	31527.02
454.70	31887.46
454.89	32563.87
455.07	32257.26
455.26	33331.57
455.44	34321.62
455.62	34918.45
455.81	33996.28
455.99	34988.67
456.17	34672.70
456.36	35194.64
456.54	35931.90
456.73	35047.18
456.91	35796.15
457.09	35573.80
457.28	36828.33
457.46	34583.76
457.64	34487.79
457.83	33675.63
458.01	33354.97
458.19	35328.05
458.38	35622.95
458.56	36011.48
458.74	35608.91
458.93	34813.13
459.11	34480.77
459.29	33972.88
459.48	35292.94
459.66	34363.75
459.84	34698.44
460.03	35042.50
460.21	36032.55
460.39	36676.19
460.57	35894.46
460.76	36297.03
460.94	36959.40
461.12	36346.18
461.31	36713.64
461.49	36980.46
461.67	36573.21
461.85	37830.08
462.04	37256.65
462.22	37464.96
462.40	37188.77
462.59	36992.17
462.77	36994.51
462.95	36645.77
463.13	36634.06
463.32	35887.43
463.50	35983.40
463.68	36430.44
463.86	36608.32
464.05	35311.66
464.23	34576.73
464.41	35204.00
464.59	34527.58
464.78	36070.00
464.96	35501.25
465.14	34756.96
465.32	36423.42
465.50	37729.44
465.69	38663.31
465.87	36980.46
466.05	36130.85
466.23	34527.58
466.41	33329.23
466.60	34913.77
466.78	34581.42
466.96	35187.61
467.14	35927.22
467.32	36168.30
467.51	35924.88
467.69	34651.63
467.87	35840.62
468.05	36105.10
468.23	35880.41
468.41	35967.01
468.60	36442.14
468.78	37411.12
468.96	36238.51
469.14	37219.20
469.32	37102.17
469.50	34937.18
469.69	35747.00
469.87	34689.08
470.05	34974.63
470.23	35175.91
470.41	35550.40
470.59	35615.93
470.77	35842.96
470.95	36919.61
471.14	37490.70
471.32	37635.81
471.50	39688.46
471.68	39819.53
471.86	40002.10
472.04	39590.16
472.22	39772.72
472.40	38455.00
472.58	37624.11
472.77	37593.68
472.95	38188.18
473.13	39445.05
473.31	37787.95
473.49	37834.76
473.67	39082.27
473.85	39484.84
474.03	41179.39
474.21	41425.14
474.39	41273.01
474.57	41020.23
474.75	41399.40
474.93	40437.44
475.12	39466.11
475.30	39700.17
475.48	39398.24
475.66	40128.48
475.84	39370.15
476.02	40069.97
476.20	39489.52
476.38	40156.57
476.56	41474.29
476.74	41783.24
476.92	41883.89
477.10	42089.85
477.28	43445.02
477.46	43533.96
477.64	44189.31
477.82	44458.48
478.00	44208.04
478.18	43508.22
478.36	42852.87
478.54	43281.19
478.72	43845.26
478.90	45404.05
479.08	46546.23
479.26	46742.84
479.44	47173.50
479.62	46714.75
479.80	46806.03
479.98	47072.85
480.16	47288.18
480.34	46232.60
480.52	47210.95
480.70	47084.56
480.88	46880.93
481.06	47501.17
481.24	47805.44
481.41	49399.35
481.59	49488.29
481.77	48385.89
481.95	48009.07
482.13	48404.62
482.31	49017.84
482.49	49553.82
482.67	49155.93
482.85	49029.54
483.03	48942.94
483.21	49895.54
483.39	50101.51
483.57	49535.10
483.74	49556.16
483.92	49610.00
484.10	49083.37
484.28	49890.86
484.46	49937.67
484.64	51459.02
484.82	50356.63
485.00	49918.95
485.18	49331.47
485.35	47201.58
485.53	41771.54
485.71	39777.40
485.89	40151.89
486.07	43887.39
486.25	45869.82
486.43	48360.15
486.61	48828.26
486.78	47868.64
486.96	49537.44
487.14	50660.90
487.32	51601.79
487.50	52540.35
487.68	53525.71
487.85	53935.30
488.03	53331.45
488.21	52781.42
488.39	52411.62
488.57	51290.50
488.75	51136.02
488.92	52697.16
489.10	54602.36
489.28	55033.02
489.46	56425.64
489.64	55927.10
489.81	56320.31
489.99	55454.31
490.17	55611.13
490.35	56027.74
490.53	55847.52
490.70	55185.15
490.88	55201.53
491.06	56369.46
491.24	56706.50
491.41	55573.68
491.59	54099.14
491.77	53846.36
491.95	54752.15
492.13	56467.76
492.30	56481.81
492.48	57413.34
492.66	57773.78
492.84	57392.28
493.01	57104.39
493.19	57050.56
493.37	56369.46
493.54	56694.80
493.72	57797.19
493.90	58155.29
494.08	58426.79
494.25	58426.79
494.43	59025.97
494.61	59447.27
494.79	59447.27
494.96	59765.58
495.14	59194.49
495.32	57844.00
495.49	58314.45
495.67	59091.51
495.85	59898.99
496.02	60236.03
496.20	59735.15
496.38	59332.58
496.55	59297.47
496.73	59856.86
496.91	60212.62
497.09	60423.27
497.26	60704.13
497.44	60275.82
497.62	59393.43
497.79	58649.14
497.97	57986.77
498.14	58740.42
498.32	59538.55
498.50	59526.84
498.67	59931.76
498.85	59791.33
499.03	60278.16
499.20	60446.68
499.38	60069.85
499.56	59468.33
499.73	59309.18
499.91	59234.28
500.08	58508.71
500.26	58300.40
500.44	59047.04
500.61	59592.38
500.79	58939.37
500.97	59203.85
501.14	58583.61
501.32	58019.54
501.49	58131.89
501.67	59000.22
501.84	58843.41
502.02	59587.70
502.20	60327.31
502.37	60395.18
502.55	60301.56
502.72	60886.70
502.90	61258.84
503.07	60917.12
503.25	60100.28
503.43	59398.12
503.60	58677.23
503.78	58979.16
503.95	59173.42
504.13	60219.64
504.30	60687.75
504.48	60037.08
504.65	60404.55
504.83	60233.69
505.01	61221.39
505.18	61436.72
505.36	61612.26
505.53	61708.22
505.71	61851.00
505.88	61961.00
506.06	61616.94
506.23	61333.74
506.41	61120.75
506.58	61312.67
506.76	61059.90
506.93	60575.40
507.11	60533.28
507.28	60828.18
507.46	60090.91
507.63	60404.55
507.81	60046.44
507.98	60081.55
508.16	61242.46
508.33	61312.67
508.50	61586.52
508.68	62099.09
508.85	62024.20
509.03	62445.49
509.20	61839.29
509.38	60999.04
509.55	61031.81
509.73	61251.82
509.90	61338.42
510.08	61420.34
510.25	60924.14
510.42	60977.98
510.60	61277.57
510.77	61755.03
510.95	61787.80
511.12	62106.12
511.30	62829.34
511.47	63126.59
511.64	62695.93
511.82	62700.61
511.99	61630.99
512.17	61462.47
512.34	60928.83
512.51	61361.82
512.69	61808.87
512.86	61190.97
513.04	61506.94
513.21	61148.84
513.38	60493.49
513.56	60095.60
513.73	60030.06
513.90	60823.50
514.08	60530.93
514.25	60783.71
514.43	61073.94
514.60	61296.29
514.77	61506.94
514.95	61668.44
515.12	61485.87
515.29	61836.95
515.47	62150.59
515.64	62066.33
515.81	61733.97
515.99	60851.59
516.16	59180.45
516.33	57277.59
516.51	57279.93
516.68	55824.12
516.85	55114.94
517.03	56416.27
517.20	58901.92
517.37	60800.10
517.54	61591.20
517.72	60306.24
517.89	57282.27
518.06	55882.63
518.24	57247.16
518.41	59283.43
518.58	60559.02
518.75	60388.16
518.93	60350.71
519.10	59671.96
519.27	60748.60
519.45	61200.33
519.62	61839.29
519.79	62152.93
519.96	61293.95
520.14	61167.56
520.31	60060.49
520.48	60226.66
520.65	61092.66
520.83	62239.53
521.00	61991.43
521.17	61408.64
521.34	61539.71
521.52	62033.56
521.69	62209.10
521.86	62541.45
522.03	62113.14
522.20	60809.46
522.38	60392.84
522.55	60734.56
522.72	60912.44
522.89	60561.36
523.07	61502.26
523.24	61914.19
523.41	62635.08
523.58	62660.82
523.75	62890.19
523.92	62726.36
524.10	62560.18
524.27	62255.91
524.44	61925.89
524.61	61453.11
524.78	61930.58
524.96	62223.14
525.13	61993.77
525.30	62632.74
525.47	62934.66
525.64	62721.68
525.81	62052.28
525.98	60093.25
526.16	59049.38
526.33	59086.82
526.50	58576.59
526.67	58679.57
526.84	59355.99
527.01	60240.71
527.18	60755.63
527.36	61116.07
527.53	62314.42
527.70	61726.95
527.87	60659.66
528.04	61539.71
528.21	62033.56
528.38	62625.71
528.55	63140.63
528.72	63103.18
528.89	62539.11
529.07	62824.66
529.24	61506.94
529.41	61375.87
529.58	61357.14
529.75	62134.20
529.92	62422.09
530.09	62225.48
530.26	62925.30
530.43	63477.67
530.60	62787.21
530.77	63379.37
530.94	63449.58
531.11	62246.55
531.28	62361.23
531.46	62511.03
531.63	62478.26
531.80	62131.86
531.97	61794.82
532.14	61766.74
532.31	60151.77
532.48	59538.55
532.65	60107.30
532.82	60601.15
532.99	62232.50
533.16	62384.64
533.33	62251.23
533.50	62396.34
533.67	62204.42
533.84	61698.86
534.01	62220.80
534.18	62054.62
534.35	61645.03
534.52	61123.09
534.69	61820.57
534.86	62518.05
535.03	62878.49
535.20	62726.36
535.37	63334.90
535.54	63685.98
535.71	63257.66
535.88	63297.45
536.05	61916.53
536.22	61221.39
536.38	61221.39
536.55	60825.84
536.72	60392.84
536.89	61085.64
537.06	61261.18
537.23	61532.68
537.40	61329.06
537.57	61104.37
537.74	61656.73
537.91	61862.70
538.08	61860.36
538.25	61876.74
538.42	62733.38
538.59	62101.43
538.75	61139.47
538.92	60434.97
539.09	61003.72
539.26	61038.83
539.43	60809.46
539.60	60521.57
539.77	61441.40
539.94	61048.19
540.11	60610.51
540.28	59964.52
540.44	59798.35
540.61	59735.15
540.78	60221.98
540.95	60999.04
541.12	60884.36
541.29	61223.73
541.46	61352.46
541.62	61738.65
541.79	60928.83
541.96	60584.77
542.13	60643.28
542.30	60638.60
542.47	61010.74
542.63	60980.32
542.80	60900.74
542.97	60348.37
543.14	60196.24
543.31	60694.77
543.48	61532.68
543.64	61661.41
543.81	62595.29
543.98	62466.56
544.15	61172.24
544.32	61546.73
544.48	61092.66
544.65	61027.13
544.82	61598.22
544.99	60261.77
545.16	60280.50
545.32	60441.99
545.49	61221.39
545.66	61139.47
545.83	61066.92
546.00	61324.38
546.16	61223.73
546.33	60664.35
546.50	60837.54
546.67	61677.80
546.83	60947.55
547.00	61132.45
547.17	60051.12
547.34	59416.84
547.50	59456.63
547.67	60247.73
547.84	61230.75
548.00	61329.06
548.17	60956.91
548.34	61172.24
548.51	61371.19
548.67	61279.91
548.84	61272.88
549.01	61450.77
549.18	61027.13
549.34	61106.71
549.51	61277.57
549.68	61457.79
549.84	60664.35
550.01	60086.23
550.18	60053.47
550.34	60348.37
550.51	60437.31
550.68	61076.28
550.84	61151.18
551.01	60294.54
551.18	60198.58
551.34	59957.50
551.51	60975.64
551.68	60872.65
551.84	61453.11
552.01	60828.18
552.18	60381.14
552.34	59828.77
552.51	59728.13
552.68	59360.67
552.84	59936.44
553.01	60034.74
553.18	60261.77
553.34	60404.55
553.51	60472.42
553.67	60498.17
553.84	60418.59
554.01	60821.16
554.17	60168.15
554.34	60505.19
554.51	60498.17
554.67	59737.49
554.84	60009.00
555.00	59498.76
555.17	59753.88
555.33	59629.83
555.50	59423.86
555.67	59868.56
555.83	60126.02
556.00	59751.54
556.16	59634.51
556.33	59140.66
556.50	59419.18
556.66	59519.82
556.83	58988.52
556.99	58922.99
557.16	59393.43
557.32	58967.46
557.49	59325.56
557.65	59274.07
557.82	59660.26
557.98	59791.33
558.15	58695.95
558.32	58443.18
558.48	57935.28
558.65	57811.23
558.81	58202.10
558.98	59238.96
559.14	58983.84
559.31	58731.06
559.47	58585.95
559.64	58450.20
559.80	57771.44
559.97	58827.02
560.13	59199.17
560.30	60126.02
560.46	60486.46
560.63	60615.19
560.79	60458.38
560.96	59578.34
561.12	58576.59
561.29	58473.60
561.45	58286.36
561.61	59543.23
561.78	58522.76
561.94	59009.59
562.11	58930.01
562.27	58223.17
562.44	59327.90
562.60	59475.35
562.77	59618.13
562.93	58913.62
563.10	58876.18
563.26	59007.25
563.42	59363.01
563.59	58656.17
563.75	58567.23
563.92	58169.33
564.08	58361.26
564.24	59075.12
564.41	58342.53
564.57	59498.76
564.74	58859.79
564.90	58166.99
565.07	58197.42
565.23	57420.36
565.39	56795.44
565.56	57155.88
565.72	57670.80
565.88	56713.52
566.05	58705.32
566.21	58426.79
566.38	58089.76
566.54	58578.93
566.70	58948.73
566.87	58815.32
567.03	58206.78
567.19	59337.26
567.36	59662.60
567.52	58417.43
567.68	57626.33
567.85	57345.47
568.01	57623.99
568.17	57544.41
568.34	57911.88
568.50	57364.19
568.66	57296.31
568.83	56905.44
568.99	56870.34
569.15	56940.55
569.32	57174.61
569.48	57099.71
569.64	56868.00
569.81	56959.28
569.97	56467.76
570.13	56161.15
570.30	55622.83
570.46	55356.01
570.62	54859.82
570.78	55028.34
570.95	55686.03
571.11	56128.39
571.27	55489.42
571.43	55990.30
571.60	55863.91
571.76	56779.06
571.92	57172.27
572.09	57258.87
572.25	56835.23
572.41	57242.48
572.57	56989.70
572.74	57446.11
572.90	58209.12
573.06	57825.28
573.22	57921.24
573.38	57703.57
573.55	58494.67
573.71	57223.76
573.87	57200.35
574.03	57237.80
574.20	57013.11
574.36	56769.69
574.52	56074.55
574.68	55913.06
574.84	55536.23
575.01	55632.19
575.17	55587.72
575.33	56123.71
575.49	56140.09
575.65	54944.08
575.82	55402.82
575.98	55721.13
576.14	56575.43
576.30	56987.36
576.46	55716.45
576.62	55796.03
576.79	55913.06
576.95	56126.05
577.11	56491.17
577.27	56257.12
577.43	56514.58
577.59	55957.53
577.75	54850.45
577.92	54824.71
578.08	55124.30
578.24	55426.23
578.40	55412.18
578.56	54122.55
578.72	54794.28
578.88	54464.27
579.04	55416.86
579.21	54871.52
579.37	55047.06
579.53	55606.45
579.69	54691.30
579.85	54653.85
580.01	54810.67
580.17	54593.00
580.33	55257.71
580.49	55573.68
580.65	54323.83
580.82	55241.32
580.98	55632.19
581.14	55590.06
581.30	54979.18
581.46	54564.91
581.62	55248.35
581.78	55866.25
581.94	55781.99
582.10	55721.13
582.26	55728.16
582.42	55821.78
582.58	54995.57
582.74	55047.06
582.90	54988.55
583.06	55386.44
583.22	55468.36
583.38	55299.84
583.54	55880.29
583.70	55973.91
583.86	55845.18
584.02	55086.85
584.18	54958.12
584.34	54504.06
584.50	54064.03
584.66	54717.04
584.82	54541.50
584.98	54529.80
585.14	53600.61
585.30	54052.33
