SpectraSuite Data File
++++++++++++++++++++++++++++++++++++
Date: Mon Oct 07 14:54:56 GMT-05:00 2013
User: price-jones
Dark Spectrum Present: No
Reference Spectrum Present: No
Number of Sampled Component Spectra: 1
Spectrometers: USB2+H05261
Integration Time (usec): 10000 (USB2+H05261)
Spectra Averaged: 1 (USB2+H05261)
Boxcar Smoothing: 0 (USB2+H05261)
Correct for Electrical Dark: No (USB2+H05261)
Strobe/Lamp Enabled: No (USB2+H05261)
Correct for Detector Non-linearity: No (USB2+H05261)
Correct for Stray Light: No (USB2+H05261)
Number of Pixels in Processed Spectrum: 2048
>>>>>Begin Processed Spectral Data<<<<<
365.73	0.00
365.92	0.00
366.12	0.00
366.32	0.00
366.52	0.00
366.72	0.00
366.91	0.00
367.11	0.00
367.31	0.00
367.51	0.00
367.70	0.00
367.90	0.00
368.10	0.00
368.30	0.00
368.49	0.00
368.69	0.00
368.89	0.00
369.09	0.00
369.28	0.00
369.48	0.00
369.68	0.00
369.87	0.00
370.07	0.00
370.27	0.00
370.47	147.45
370.66	1743.70
370.86	2045.63
371.06	2186.06
371.25	2111.16
371.45	1842.00
371.65	1654.76
371.84	1701.57
372.04	1795.19
372.24	1851.36
372.44	2045.63
372.63	1926.26
372.83	1717.95
373.03	1575.18
373.22	1462.83
373.42	1621.99
373.62	2012.86
373.81	1991.80
374.01	1935.62
374.21	1565.82
374.40	1535.39
374.60	1795.19
374.79	2036.27
374.99	2424.80
375.19	2422.45
375.38	2487.99
375.58	2466.92
375.78	2282.02
375.97	2396.71
376.17	2436.50
376.37	2434.16
376.56	2609.70
376.76	2600.34
376.95	2810.98
377.15	3105.89
377.35	3157.38
377.54	3258.03
377.74	3325.90
377.93	3323.56
378.13	3068.44
378.33	2909.29
378.52	2736.09
378.72	2586.29
378.91	2597.99
379.11	2551.18
379.31	2420.11
379.50	2574.59
379.70	2693.96
379.89	2956.10
380.09	3281.43
380.28	3262.71
380.48	3199.51
380.68	3293.13
380.87	3112.91
381.07	2883.54
381.26	2607.36
381.46	2399.05
381.65	2401.39
381.85	2249.25
382.04	2169.68
382.24	1989.46
382.43	1813.92
382.63	1860.73
382.83	1818.60
383.02	1893.49
383.22	1937.96
383.41	1923.92
383.61	2120.53
383.80	2487.99
384.00	2792.26
384.19	3178.45
384.39	3241.64
384.58	3241.64
384.78	3243.98
384.97	2984.18
385.17	2864.82
385.36	2771.19
385.56	2626.08
385.75	2750.13
385.95	3204.19
386.14	3276.75
386.34	3246.32
386.53	2991.20
386.72	2782.90
386.92	2974.82
387.11	3126.96
387.31	3351.65
387.50	3159.72
387.70	3061.42
387.89	3105.89
388.09	3190.15
388.28	3091.85
388.48	3248.66
388.67	3368.03
388.86	3871.25
389.06	4133.39
389.25	4299.56
389.45	4376.80
389.64	4215.30
389.84	4210.62
390.03	4278.50
390.22	4273.82
390.42	4395.53
390.61	4711.50
390.81	4917.47
391.00	4931.51
391.19	4805.12
391.39	4802.78
391.58	4447.02
391.78	4198.92
391.97	3962.53
392.16	3602.08
392.36	3042.70
392.55	2382.67
392.75	1968.39
392.94	1736.68
393.13	1823.28
393.33	2249.25
393.52	2857.79
393.71	3494.42
393.91	3840.82
394.10	4248.07
394.29	4608.51
394.49	4997.04
394.68	5357.49
394.88	5418.34
395.07	5469.83
395.26	5308.34
395.46	5172.58
395.65	4692.77
395.84	4063.17
396.04	3208.87
396.23	2782.90
396.42	2228.19
396.62	2560.55
396.81	2956.10
397.00	3794.01
397.19	4795.76
397.39	5701.54
397.58	6094.76
397.77	6265.61
397.97	6565.20
398.16	6663.51
398.35	6967.77
398.55	7344.60
398.74	7485.03
398.93	7452.27
399.12	7293.11
399.32	7089.48
399.51	7267.36
399.70	7688.66
399.90	7581.00
400.09	7529.50
400.28	7595.04
400.47	7824.41
400.67	8138.04
400.86	8180.17
401.05	8304.22
401.24	8299.54
401.44	8587.43
401.63	8547.64
401.82	8477.42
402.01	8510.19
402.21	8531.25
402.40	8442.31
402.59	8236.35
402.78	7644.19
402.97	7887.61
403.17	8332.31
403.36	8765.31
403.55	8795.73
403.74	8837.86
403.93	8182.51
404.13	7885.26
404.32	7775.26
404.51	8390.82
404.70	8732.54
404.89	8390.82
405.09	8259.75
405.28	8198.90
405.47	8416.57
405.66	8030.38
405.85	8042.08
406.05	7955.48
406.24	8114.64
406.43	8688.07
406.62	8638.92
406.81	8678.71
407.00	8287.84
407.20	7882.92
407.39	8355.71
407.58	8524.23
407.77	9158.52
407.96	9092.98
408.15	9537.68
408.34	9563.43
408.54	9643.01
408.73	9863.02
408.92	9565.77
409.11	9270.86
409.30	8695.09
409.49	8243.37
409.68	7775.26
409.87	7798.66
410.07	8369.76
410.26	8847.22
410.45	9289.59
410.64	9703.86
410.83	9825.57
411.02	10148.56
411.21	10473.90
411.40	10249.21
411.59	10263.25
411.78	10431.77
411.98	10391.98
412.17	10583.90
412.36	10183.67
412.55	10150.90
412.74	9783.44
412.93	9724.93
413.12	10003.45
413.31	11087.12
413.50	10848.38
413.69	10937.32
413.88	10181.33
414.07	10609.65
414.26	10562.84
414.45	10949.03
414.64	10965.41
414.83	10787.53
415.02	10654.12
415.22	10963.07
415.41	10740.72
415.60	11527.14
415.79	11812.68
415.98	12229.30
416.17	12013.97
416.36	11648.85
416.55	11508.41
416.74	10930.30
416.93	10829.66
417.12	10850.72
417.31	10841.36
417.50	11164.36
417.69	11370.32
417.88	11229.89
418.07	11262.66
418.26	10965.41
418.45	11234.57
418.64	11735.45
418.83	12175.47
419.02	11695.66
419.21	11314.15
419.39	10939.66
419.58	10794.55
419.77	10909.24
419.96	11548.20
420.15	11932.05
420.34	12313.56
420.53	12861.24
420.72	12807.41
420.91	12592.08
421.10	12266.75
421.29	12245.68
421.48	12046.74
421.67	12823.80
421.86	12196.53
422.05	10958.39
422.24	10139.20
422.43	10509.01
422.61	11506.07
422.80	11988.22
422.99	11950.78
423.18	11585.65
423.37	11499.05
423.56	11681.61
423.75	11705.02
423.94	12266.75
424.13	11637.14
424.32	11379.68
424.50	11274.36
424.69	11236.91
424.88	11672.25
425.07	11592.67
425.26	11400.75
425.45	10792.21
425.64	11075.42
425.83	11515.44
426.01	11653.53
426.20	11894.60
426.39	11662.89
426.58	10977.11
426.77	9944.94
426.96	9834.93
427.15	10530.07
427.33	11332.87
427.52	11398.41
427.71	11513.10
427.90	11279.04
428.09	10869.45
428.28	10806.25
428.46	10513.69
428.65	10321.76
428.84	10841.36
429.03	10661.14
429.22	9958.98
429.40	9451.08
429.59	8727.86
429.78	7801.01
429.97	7894.63
430.16	7908.67
430.34	7623.12
430.53	7808.03
430.72	8524.23
430.91	9841.95
431.10	11405.43
431.28	12947.84
431.47	13657.03
431.66	13071.89
431.85	11756.51
432.03	11028.60
432.22	11140.95
432.41	11927.37
432.60	12737.20
432.79	13069.55
432.97	13385.52
433.16	12865.92
433.35	11520.12
433.54	10438.79
433.72	10181.33
433.91	10855.40
434.10	12006.95
434.28	12699.75
434.47	13261.48
434.66	12926.78
434.85	12484.42
435.03	12704.43
435.22	12800.39
435.41	13336.37
435.59	13612.56
435.78	13776.39
435.97	14228.12
436.16	14024.49
436.34	14092.37
436.53	13172.54
436.72	13621.92
436.90	12982.95
437.09	13191.26
437.28	12854.22
437.46	13202.96
437.65	12915.08
437.84	11929.71
438.02	11358.62
438.21	11332.87
438.40	12166.10
438.58	13158.49
438.77	13226.37
438.96	13429.99
439.14	14064.28
439.33	14101.73
439.52	14019.81
439.70	13717.88
439.89	13570.43
440.08	13640.64
440.26	13521.27
440.45	14155.56
440.63	14782.82
440.82	15594.99
441.01	14988.79
441.19	15087.09
441.38	15580.95
441.57	15943.73
441.75	15941.39
441.94	16067.78
442.12	15681.59
442.31	16360.34
442.50	16257.36
442.68	15782.23
442.87	15716.70
443.05	15454.56
443.24	15995.22
443.43	16189.49
443.61	16201.19
443.80	16844.84
443.98	16154.38
444.17	15953.09
444.35	16730.15
444.54	16926.75
444.73	16500.78
444.91	15695.63
445.10	15379.66
445.28	14707.93
445.47	14408.34
445.65	14546.43
445.84	15414.77
446.02	15618.39
446.21	16130.97
446.39	16191.83
446.58	16205.87
446.77	16187.14
446.95	16592.06
447.14	17219.32
447.32	17104.64
447.51	16334.60
447.69	15957.77
447.88	16135.65
448.06	16320.56
448.25	16414.18
448.43	16379.07
448.62	16210.55
448.80	16030.33
448.99	16484.39
449.17	16460.99
449.36	16421.20
449.54	17109.32
449.73	17343.37
449.91	17528.27
450.10	17823.18
450.28	18043.19
450.46	18249.16
450.65	18115.75
450.83	17958.93
451.02	17219.32
451.20	17446.35
451.39	17579.76
451.57	17287.20
451.76	17479.12
451.94	17198.26
452.13	16468.01
452.31	15955.43
452.49	15646.48
452.68	16063.10
452.86	16013.95
453.05	16198.85
453.23	16985.27
453.42	17469.76
453.60	17514.23
453.78	17420.61
453.97	17390.18
454.15	17076.55
454.34	16570.99
454.52	16732.49
454.70	16334.60
454.89	16638.87
455.07	16458.65
455.26	16688.02
455.44	17673.39
455.62	18284.26
455.81	17729.56
455.99	17401.88
456.17	17741.26
456.36	18090.00
456.54	18106.38
456.73	18405.97
456.91	18747.69
457.09	18693.86
457.28	18864.72
457.46	17741.26
457.64	17928.50
457.83	17444.01
458.01	17106.98
458.19	17462.74
458.38	18209.37
458.56	18235.11
458.74	17596.15
458.93	17589.13
459.11	17458.06
459.29	17006.33
459.48	17205.28
459.66	17172.51
459.84	17767.01
460.03	17987.02
460.21	17893.40
460.39	18317.03
460.57	17748.28
460.76	18466.83
460.94	18525.34
461.12	18487.89
461.31	18684.50
461.49	18476.19
461.67	18249.16
461.85	18548.75
462.04	19063.66
462.22	18972.38
462.40	19232.18
462.59	18845.99
462.77	18743.01
462.95	19185.37
463.13	18871.74
463.32	18403.63
463.50	18260.86
463.68	18408.31
463.86	18031.49
464.05	17472.10
464.23	17135.06
464.41	17640.62
464.59	16987.61
464.78	18862.38
464.96	18223.41
465.14	18019.78
465.32	18452.78
465.50	19367.93
465.69	18799.18
465.87	18848.33
466.05	17792.75
466.23	17088.25
466.41	17631.26
466.60	18024.47
466.78	17289.54
466.96	17699.13
467.14	18422.36
467.32	18740.67
467.51	18286.61
467.69	17228.68
467.87	17813.82
468.05	17912.12
468.23	18029.15
468.41	18277.24
468.60	17792.75
468.78	18216.39
468.96	17991.70
469.14	18618.96
469.32	18373.21
469.50	18005.74
469.69	17593.81
469.87	17362.09
470.05	17900.42
470.23	17348.05
470.41	17685.09
470.59	17848.93
470.77	17919.14
470.95	18246.82
471.14	18452.78
471.32	18635.35
471.50	19826.68
471.68	19747.10
471.86	20554.58
472.04	19845.40
472.22	19597.31
472.40	18906.85
472.58	18927.91
472.77	18647.05
472.95	18443.42
473.13	18848.33
473.31	18789.82
473.49	19082.39
473.67	19241.54
473.85	19300.06
474.03	19793.91
474.21	20266.70
474.39	20243.29
474.57	19618.37
474.75	20098.18
474.93	20252.66
475.12	19400.70
475.30	19665.18
475.48	19414.74
475.66	18970.04
475.84	19222.82
476.02	19398.36
476.20	19161.97
476.38	19700.29
476.56	20402.45
476.74	20519.48
476.92	20428.20
477.10	21081.21
477.28	21443.99
477.46	21996.35
477.64	21664.00
477.82	21617.19
478.00	21766.98
478.18	21139.72
478.36	20938.43
478.54	20973.54
478.72	21390.16
478.90	22911.50
479.08	23871.12
479.26	23178.33
479.44	23150.24
479.62	22970.02
479.80	22595.53
479.98	22679.79
480.16	22712.56
480.34	23019.17
480.52	23248.54
480.70	23536.43
480.88	23185.35
481.06	23821.97
481.24	24215.18
481.41	24936.07
481.59	24453.92
481.77	23793.89
481.95	23091.73
482.13	23456.85
482.31	23765.80
482.49	24032.62
482.67	24130.92
482.85	24687.97
483.03	24842.45
483.21	24652.86
483.39	25130.33
483.57	24126.24
483.74	24439.87
483.92	24428.17
484.10	24556.90
484.28	25113.95
484.46	25443.96
484.64	25340.98
484.82	24840.11
485.00	23992.83
485.18	23300.03
485.35	22522.98
485.53	20510.11
485.71	19293.04
485.89	19913.28
486.07	20688.00
486.25	22981.72
486.43	23957.72
486.61	24168.37
486.78	23632.39
486.96	23793.89
487.14	25781.00
487.32	25701.42
487.50	26279.54
487.68	26457.42
487.85	27246.18
488.03	26398.90
488.21	26544.02
488.39	25816.11
488.57	25142.03
488.75	25865.26
488.92	26665.72
489.10	28280.69
489.28	29191.16
489.46	29582.03
489.64	29294.14
489.81	30008.01
489.99	30281.85
490.17	30108.65
490.35	30305.26
490.53	29516.50
490.70	28971.15
490.88	29848.85
491.06	30831.88
491.24	29743.53
491.41	28547.51
491.59	27543.42
491.77	27042.55
491.95	28208.14
492.13	29818.42
492.30	30452.71
492.48	31456.80
492.66	31117.42
492.84	30747.62
493.01	30841.24
493.19	30424.62
493.37	30455.05
493.54	30307.60
493.72	31908.52
493.90	32587.28
494.08	33001.55
494.25	32414.08
494.43	32671.54
494.61	32847.08
494.79	32180.03
494.96	33219.22
495.14	31807.88
495.32	30803.79
495.49	30469.09
495.67	32474.93
495.85	33237.95
496.02	33436.89
496.20	33820.74
496.38	33221.56
496.55	33120.92
496.73	33621.80
496.91	33820.74
497.09	34822.49
497.26	33804.36
497.44	33706.05
497.62	33497.75
497.79	31737.66
497.97	30314.62
498.14	31611.28
498.32	32809.63
498.50	33132.62
498.67	32950.06
498.85	33610.09
499.03	32811.97
499.20	33731.80
499.38	33680.31
499.56	33446.26
499.73	32659.84
499.91	32772.18
500.08	32168.32
500.26	31761.07
500.44	32320.46
500.61	33085.81
500.79	32004.49
500.97	32060.66
501.14	31477.86
501.32	31058.91
501.49	31344.45
501.67	31386.58
501.84	32371.95
502.02	33146.67
502.20	33212.20
502.37	33956.49
502.55	34539.29
502.72	34450.35
502.90	34831.85
503.07	34155.44
503.25	33373.70
503.43	32854.10
503.60	32212.79
503.78	31594.89
503.95	32343.86
504.13	34834.19
504.30	34188.21
504.48	33750.52
504.65	33872.23
504.83	34171.82
505.01	34015.01
505.18	34742.91
505.36	35489.54
505.53	35838.28
505.71	35824.24
505.88	36247.88
506.06	34815.47
506.23	35096.33
506.41	34298.21
506.58	34314.59
506.76	33935.43
506.93	33724.78
507.11	34408.22
507.28	34581.42
507.46	33640.52
507.63	32093.43
507.81	32252.58
507.98	33141.99
508.16	34185.86
508.33	34473.75
508.50	34036.07
508.68	35550.40
508.85	35952.97
509.03	35377.20
509.20	34382.47
509.38	32954.74
509.55	33216.88
509.73	33722.44
509.90	35828.92
510.08	35037.82
510.25	35014.41
510.42	34256.08
510.60	35180.59
510.77	34761.64
510.95	34780.36
511.12	34459.71
511.30	35351.45
511.47	35868.71
511.64	35901.48
511.82	35016.75
511.99	33254.33
512.17	33516.47
512.34	32217.47
512.51	33439.23
512.69	35161.87
512.86	34600.14
513.04	34974.63
513.21	34450.35
513.38	32811.97
513.56	33874.57
513.73	32652.81
513.90	31662.77
514.08	31594.89
514.25	32781.54
514.43	33453.28
514.60	33181.77
514.77	33865.21
514.95	34309.91
515.12	33766.91
515.29	34164.80
515.47	35152.51
515.64	34550.99
515.81	34087.56
515.99	32208.11
516.16	30529.95
516.33	28819.02
516.51	28694.97
516.68	26630.62
516.85	26429.33
517.03	27679.18
517.20	30520.59
517.37	32826.01
517.54	32924.32
517.72	31728.30
517.89	29336.27
518.06	27192.34
518.24	28893.91
518.41	31122.10
518.58	32156.62
518.75	31985.76
518.93	32173.00
519.10	32741.75
519.27	32982.83
519.45	33151.35
519.62	34148.42
519.79	33582.01
519.96	33263.69
520.14	32730.05
520.31	32362.59
520.48	33209.86
520.65	33146.67
520.83	34845.90
521.00	33787.97
521.17	33254.33
521.34	32903.25
521.52	32886.87
521.69	34328.64
521.86	35796.15
522.03	33331.57
522.20	32294.71
522.38	31204.02
522.55	31828.95
522.72	32758.14
522.89	32673.88
523.07	31842.99
523.24	32093.43
523.41	33970.54
523.58	33830.10
523.75	34962.92
523.92	34183.52
524.10	34136.71
524.27	34677.38
524.44	33989.26
524.61	34209.27
524.78	34204.59
524.96	33710.74
525.13	33387.74
525.30	33507.11
525.47	33848.83
525.64	33127.94
525.81	32584.94
525.98	31019.12
526.16	29675.65
526.33	29846.51
526.50	29385.43
526.67	29450.96
526.84	29862.90
527.01	31288.28
527.18	33479.02
527.36	33621.80
527.53	33717.76
527.70	33251.99
527.87	32741.75
528.04	33226.24
528.21	32931.34
528.38	33364.34
528.55	34728.87
528.72	35154.85
528.89	34824.83
529.07	33811.38
529.24	33654.56
529.41	32910.27
529.58	32591.96
529.75	32428.12
529.92	33233.27
530.09	33914.36
530.26	34052.45
530.43	34412.90
530.60	34705.46
530.77	34951.22
530.94	34527.58
531.11	33525.83
531.28	33589.03
531.46	33106.88
531.63	34235.02
531.80	34174.16
531.97	32985.17
532.14	31882.78
532.31	30417.60
532.48	29450.96
532.65	29778.64
532.82	31842.99
532.99	32416.42
533.16	32587.28
533.33	32378.97
533.50	31452.12
533.67	32102.79
533.84	31974.06
534.01	32233.86
534.18	31887.46
534.35	32669.20
534.52	32294.71
534.69	32383.65
534.86	32409.40
535.03	32177.68
535.20	33596.05
535.37	34663.33
535.54	35262.51
535.71	33457.96
535.88	32437.48
536.05	31718.94
536.22	31927.25
536.38	31725.96
536.55	30927.84
536.72	31440.42
536.89	31845.33
537.06	31356.16
537.23	32479.61
537.40	33024.96
537.57	32854.10
537.74	31974.06
537.91	32395.35
538.08	31648.72
538.25	32655.15
538.42	33284.76
538.59	31693.19
538.75	31756.39
538.92	31332.75
539.09	31391.26
539.26	31473.18
539.43	29951.84
539.60	30216.32
539.77	30899.75
539.94	30029.07
540.11	28725.39
540.28	28540.49
540.44	29027.32
540.61	30080.56
540.78	31290.62
540.95	31087.00
541.12	30024.39
541.29	31026.14
541.46	30958.27
541.62	31842.99
541.79	30911.46
541.96	30771.02
542.13	30483.14
542.30	31098.70
542.47	30450.37
542.63	30433.99
542.80	29535.22
542.97	30256.11
543.14	30429.30
543.31	30864.64
543.48	32510.04
543.64	33165.39
543.81	32554.51
543.98	32809.63
544.15	30897.41
544.32	30391.86
544.48	31215.72
544.65	30981.67
544.82	31136.15
544.99	30438.67
545.16	30967.63
545.32	30057.16
545.49	31798.52
545.66	31494.25
545.83	31159.55
546.00	30551.01
546.16	30902.09
546.33	30242.06
546.50	29462.66
546.67	29949.50
546.83	29493.09
547.00	30026.73
547.17	29549.26
547.34	28631.77
547.50	28409.42
547.67	29118.60
547.84	29792.68
548.00	30078.22
548.17	30609.53
548.34	30122.69
548.51	30618.89
548.67	30150.78
548.84	30499.52
549.01	30000.99
549.18	29680.33
549.34	29460.32
549.51	29979.92
549.68	30494.84
549.84	29656.93
550.01	30052.48
550.18	29582.03
550.34	29722.46
550.51	29315.21
550.68	27901.53
550.84	28149.62
551.01	29062.43
551.18	27215.75
551.34	29181.80
551.51	29242.65
551.68	29221.59
551.84	29071.79
552.01	29228.61
552.18	29362.02
552.34	28067.70
552.51	27641.73
552.68	27166.60
552.84	28182.39
553.01	29118.60
553.18	29357.34
553.34	28617.73
553.51	29422.87
553.67	28671.56
553.84	28290.06
554.01	28713.69
554.17	28151.96
554.34	29130.31
554.51	29081.16
554.67	29184.14
554.84	28760.50
555.00	27793.86
555.17	28051.32
555.33	28479.64
555.50	28486.66
555.67	28889.23
555.83	28421.13
556.00	27733.01
556.16	27566.83
556.33	26675.09
556.50	26831.90
556.66	27920.25
556.83	26621.25
556.99	26558.06
557.16	26436.35
557.32	27510.66
557.49	28250.27
557.65	28191.75
557.82	28149.62
557.98	27386.61
558.15	26501.89
558.32	25458.01
558.48	26085.27
558.65	26913.82
558.81	26979.36
558.98	27756.41
559.14	27550.45
559.31	27014.46
559.47	26628.27
559.64	26141.44
559.80	26345.07
559.97	26272.51
560.13	26576.78
560.30	27122.13
560.46	28175.37
560.63	27545.76
560.79	27583.21
560.96	26590.83
561.12	25804.41
561.29	25385.45
561.45	25713.13
561.61	26129.74
561.78	25982.29
561.94	25474.39
562.11	25624.18
562.27	26480.82
562.44	26515.93
562.60	26684.45
562.77	27463.85
562.93	27307.03
563.10	26246.77
563.26	24870.53
563.42	25088.20
563.59	25539.93
563.75	26426.99
563.92	25532.90
564.08	24863.51
564.24	26157.83
564.41	27117.45
564.57	26909.14
564.74	26780.41
564.90	26059.52
565.07	25008.62
565.23	24746.48
565.39	24381.36
565.56	23997.51
565.72	24797.98
565.88	25975.27
566.05	25411.20
566.21	25673.34
566.38	26113.36
566.54	25064.80
566.70	25151.40
566.87	24800.32
567.03	24357.96
567.19	24697.33
567.36	24931.39
567.52	25092.88
567.68	24650.52
567.85	24486.68
568.01	23908.57
568.17	23330.46
568.34	24341.57
568.50	23906.23
568.66	23714.31
568.83	24627.12
568.99	24203.48
569.15	24673.93
569.32	24840.11
569.48	23784.52
569.64	23943.68
569.81	24226.89
569.97	24114.54
570.13	24451.58
570.30	23803.25
570.46	23030.87
570.62	22808.52
570.78	22794.48
570.95	23082.36
571.11	23318.76
571.27	23768.14
571.43	23662.82
571.60	23484.94
571.76	24273.70
571.92	24269.01
572.09	24119.22
572.25	25003.94
572.41	25067.14
572.57	23564.51
572.74	23262.58
572.90	24336.89
573.06	24936.07
573.22	24760.53
573.38	24594.35
573.55	23931.98
573.71	24009.22
573.87	23831.33
574.03	23798.57
574.20	23171.30
574.36	23154.92
574.52	22829.59
574.68	23363.23
574.84	23583.24
575.01	22553.40
575.17	22476.16
575.33	22490.21
575.49	21928.48
575.65	22396.59
575.82	22143.81
575.98	22331.05
576.14	22370.84
576.30	22537.02
576.46	23019.17
576.62	22696.17
576.79	22267.86
576.95	22541.70
577.11	22604.89
577.27	23220.45
577.43	22387.22
577.59	22427.01
577.75	22522.98
577.92	21972.95
578.08	21392.50
578.24	22141.47
578.40	22326.37
578.56	21867.63
578.72	20980.56
578.88	22008.06
579.04	22328.71
579.21	22909.16
579.37	22698.52
579.53	23281.31
579.69	22082.95
579.85	22089.98
580.01	21706.13
580.17	21926.14
580.33	22281.90
580.49	22740.64
580.65	22087.64
580.82	22300.62
580.98	21493.14
581.14	21226.32
581.30	22073.59
581.46	21495.48
581.62	21872.31
581.78	21200.57
581.94	21120.99
582.10	21685.06
582.26	22031.46
582.42	21961.25
582.58	22033.80
582.74	22207.00
582.90	21949.54
583.06	21832.52
583.22	21649.96
583.38	22190.62
583.54	22441.06
583.70	21881.67
583.86	22485.53
584.02	21507.18
584.18	21455.69
584.34	21443.99
584.50	22305.31
584.66	21696.77
584.82	20643.52
584.98	20540.54
585.14	20475.01
585.30	20121.59
585.46	19599.65
585.62	19915.62
585.78	20788.64
585.94	20603.74
586.10	21123.33
