SpectraSuite Data File
++++++++++++++++++++++++++++++++++++
Date: Mon Oct 07 14:55:03 GMT-05:00 2013
User: price-jones
Dark Spectrum Present: No
Reference Spectrum Present: No
Number of Sampled Component Spectra: 1
Spectrometers: USB2+H05261
Integration Time (usec): 10000 (USB2+H05261)
Spectra Averaged: 1 (USB2+H05261)
Boxcar Smoothing: 0 (USB2+H05261)
Correct for Electrical Dark: No (USB2+H05261)
Strobe/Lamp Enabled: No (USB2+H05261)
Correct for Detector Non-linearity: No (USB2+H05261)
Correct for Stray Light: No (USB2+H05261)
Number of Pixels in Processed Spectrum: 2048
>>>>>Begin Processed Spectral Data<<<<<
365.73	0.00
365.92	0.00
366.12	0.00
366.32	0.00
366.52	0.00
366.72	0.00
366.91	0.00
367.11	0.00
367.31	0.00
367.51	0.00
367.70	0.00
367.90	0.00
368.10	0.00
368.30	0.00
368.49	0.00
368.69	0.00
368.89	0.00
369.09	0.00
369.28	0.00
369.48	0.00
369.68	0.00
369.87	0.00
370.07	0.00
370.27	0.00
370.47	444.70
370.66	2808.64
370.86	3304.84
371.06	3389.10
371.25	3417.18
371.45	3052.06
371.65	2656.51
371.84	2621.40
372.04	2850.77
372.24	3075.46
372.44	3267.39
372.63	3070.78
372.83	2937.37
373.03	2525.44
373.22	2504.37
373.42	2668.21
373.62	3145.68
373.81	3265.05
374.01	3005.25
374.21	2719.70
374.40	2715.02
374.60	2792.26
374.79	3337.60
374.99	3796.35
375.19	3911.04
375.38	3960.19
375.58	3691.02
375.78	3693.37
375.97	3655.92
376.17	3843.16
376.37	3768.26
376.56	4002.32
376.76	4177.86
376.95	4603.83
377.15	4772.35
377.35	4762.99
377.54	5207.69
377.74	5310.68
377.93	5153.86
378.13	5053.22
378.33	4784.06
378.52	4353.40
378.72	4271.48
378.91	4266.80
379.11	4086.58
379.31	3988.27
379.50	3957.85
379.70	4472.76
379.89	4933.85
380.09	5034.49
380.28	5322.38
380.48	5303.65
380.68	5195.99
380.87	4922.15
381.07	4458.72
381.26	4271.48
381.46	3983.59
381.65	3847.84
381.85	3733.15
382.04	3618.47
382.24	3389.10
382.43	3300.16
382.63	3190.15
382.83	3119.93
383.02	3169.09
383.22	3162.06
383.41	3339.94
383.61	3375.05
383.80	4109.98
384.00	4585.11
384.19	5057.90
384.39	5268.55
384.58	5327.06
384.78	5032.15
384.97	4901.08
385.17	4837.89
385.36	4531.28
385.56	4418.93
385.75	4748.95
385.95	5179.61
386.14	5184.29
386.34	5394.93
386.53	5090.67
386.72	4821.50
386.92	4901.08
387.11	5142.16
387.31	5446.43
387.50	5242.80
387.70	5174.92
387.89	5050.88
388.09	5170.24
388.28	5210.03
388.48	5207.69
388.67	5790.49
388.86	6406.05
389.06	6766.49
389.25	6995.86
389.45	7096.50
389.64	7054.37
389.84	7019.27
390.03	6885.86
390.22	6878.83
390.42	7225.23
390.61	7719.09
390.81	8210.60
391.00	8411.89
391.19	8203.58
391.39	7843.14
391.58	7262.68
391.78	6822.66
391.97	6832.02
392.16	6237.53
392.36	5502.60
392.55	4243.39
392.75	3276.75
392.94	2764.17
393.13	3056.74
393.33	3707.41
393.52	4814.48
393.71	5659.42
393.91	6511.37
394.10	7070.76
394.29	7829.09
394.49	8320.60
394.68	8910.42
394.88	8617.85
395.07	9097.66
395.26	9069.58
395.46	8678.71
395.65	8013.99
395.84	6827.34
396.04	5802.19
396.23	4582.77
396.42	3887.63
396.62	4088.92
396.81	4840.23
397.00	6345.19
397.19	8004.63
397.39	9331.72
397.58	10200.05
397.77	10654.12
397.97	11166.70
398.16	11183.08
398.35	11751.83
398.55	11791.62
398.74	12446.97
398.93	12886.99
399.12	12624.85
399.32	11822.05
399.51	12390.80
399.70	13151.47
399.90	12702.09
400.09	12645.91
400.28	12816.77
400.47	13177.22
400.67	13647.66
400.86	13862.99
401.05	13816.18
401.24	14143.86
401.44	14125.13
401.63	14417.70
401.82	14197.69
402.01	14352.16
402.21	14497.28
402.40	14590.90
402.59	13774.05
402.78	13083.59
402.97	13102.32
403.17	13900.44
403.36	14911.55
403.55	15201.78
403.74	15353.91
403.93	14300.67
404.13	13254.45
404.32	13411.27
404.51	14319.40
404.70	14633.03
404.89	14995.81
405.09	14630.69
405.28	14462.17
405.47	14413.02
405.66	14244.50
405.85	13642.98
406.05	13640.64
406.24	13895.76
406.43	14398.98
406.62	14677.50
406.81	14855.38
407.00	14679.84
407.20	14195.35
407.39	14398.98
407.58	15264.97
407.77	15889.90
407.96	16130.97
408.15	16402.47
408.34	16369.71
408.54	17172.51
408.73	17209.96
408.92	16828.45
409.11	16067.78
409.30	15445.20
409.49	14169.60
409.68	13743.63
409.87	13359.78
410.07	14441.11
410.26	15272.00
410.45	16175.44
410.64	16730.15
410.83	17563.38
411.02	17921.48
411.21	18094.68
411.40	17987.02
411.59	18284.26
411.78	18174.26
411.98	17926.16
412.17	18127.45
412.36	17811.48
412.55	17731.90
412.74	17331.67
412.93	17233.36
413.12	17596.15
413.31	19323.46
413.50	19236.86
413.69	18944.30
413.88	18583.85
414.07	18267.88
414.26	18808.54
414.45	18967.70
414.64	18794.50
414.83	18829.61
415.02	18597.90
415.22	18813.23
415.41	19585.60
415.60	20264.36
415.79	20945.45
415.98	20861.19
416.17	21120.99
416.36	20308.83
416.55	20189.46
416.74	19442.83
416.93	18845.99
417.12	19222.82
417.31	19213.46
417.50	19962.43
417.69	20549.90
417.88	19981.15
418.07	20175.42
418.26	19777.53
418.45	20093.50
418.64	21092.91
418.83	22185.94
419.02	21280.15
419.21	20802.68
419.39	19719.01
419.58	19367.93
419.77	19461.55
419.96	20741.83
420.15	21598.46
420.34	22307.65
420.53	22317.01
420.72	22836.61
420.91	22710.22
421.10	22099.34
421.29	22153.17
421.48	21766.98
421.67	22785.12
421.86	21446.33
422.05	19737.74
422.24	18274.90
422.43	19138.56
422.61	21097.59
422.80	22141.47
422.99	21322.28
423.18	20865.88
423.37	20898.64
423.56	21266.11
423.75	21542.29
423.94	21809.11
424.13	20966.52
424.32	20374.36
424.50	20533.52
424.69	20987.58
424.88	21109.29
425.07	20924.39
425.26	21209.93
425.45	19882.85
425.64	19974.13
425.83	20329.89
426.01	21439.31
426.20	21664.00
426.39	21350.37
426.58	19634.75
426.77	18249.16
426.96	18164.90
427.15	19082.39
427.33	20556.93
427.52	21177.17
427.71	21429.94
427.90	20856.51
428.09	20795.66
428.28	20236.27
428.46	19178.35
428.65	19548.15
428.84	20116.90
429.03	20032.65
429.22	18623.64
429.40	17366.78
429.59	15609.03
429.78	14284.29
429.97	14333.44
430.16	14707.93
430.34	14932.62
430.53	14930.28
430.72	15866.49
430.91	17467.42
431.10	20690.34
431.28	23562.17
431.47	24943.09
431.66	24624.78
431.85	22167.21
432.03	20783.96
432.22	20741.83
432.41	22314.67
432.60	23608.98
432.79	24634.14
432.97	25177.14
433.16	23833.68
433.35	21193.55
433.54	19367.93
433.72	18838.97
433.91	20027.96
434.10	22216.36
434.28	23335.14
434.47	24395.40
434.66	23758.78
434.85	23288.33
435.03	24144.97
435.22	24034.96
435.41	25495.46
435.59	26103.99
435.78	25818.45
435.97	26630.62
436.16	26462.10
436.34	25891.01
436.53	25495.46
436.72	25582.06
436.90	24709.04
437.09	24313.48
437.28	24212.84
437.46	25015.65
437.65	24119.22
437.84	22073.59
438.02	21479.10
438.21	21111.63
438.40	22485.53
438.58	24386.04
438.77	24907.98
438.96	25301.19
439.14	26494.86
439.33	26632.96
439.52	26560.40
439.70	26368.48
439.89	25816.11
440.08	25266.08
440.26	25607.80
440.45	26597.85
440.63	28790.93
440.82	28697.31
441.01	28238.56
441.19	28657.52
441.38	29502.45
441.57	30445.69
441.75	30082.91
441.94	30782.73
442.12	30251.42
442.31	31370.20
442.50	31026.14
442.68	30555.69
442.87	30558.03
443.05	29673.31
443.24	30654.00
443.43	31290.62
443.61	31583.19
443.80	31943.63
443.98	30986.35
444.17	30766.34
444.35	31828.95
444.54	32397.70
444.73	31199.34
444.91	30426.96
445.10	28800.29
445.28	28474.96
445.47	28084.09
445.65	27999.83
445.84	29371.38
446.02	29373.72
446.21	30602.50
446.39	30338.02
446.58	30773.36
446.77	31974.06
446.95	31454.46
447.14	32987.51
447.32	33214.54
447.51	32327.48
447.69	30649.32
447.88	31173.60
448.06	32105.13
448.25	32051.30
448.43	31611.28
448.62	31358.50
448.80	31339.77
448.99	31674.47
449.17	31978.74
449.36	32580.26
449.54	33795.00
449.73	33806.70
449.91	34256.08
450.10	35402.94
450.28	35637.00
450.46	35557.42
450.65	34831.85
450.83	34616.52
451.02	34237.36
451.20	34181.18
451.39	34448.00
451.57	34206.93
451.76	34387.15
451.94	33359.66
452.13	32561.53
452.31	31077.63
452.49	29514.16
452.68	30869.33
452.86	30855.28
453.05	31189.98
453.23	32769.84
453.42	32769.84
453.60	33970.54
453.78	33516.47
453.97	33455.62
454.15	33104.54
454.34	32032.57
454.52	32416.42
454.70	32294.71
454.89	32231.52
455.07	32437.48
455.26	33160.71
455.44	34398.85
455.62	34719.51
455.81	35061.22
455.99	35079.95
456.17	34679.72
456.36	35536.35
456.54	35489.54
456.73	35637.00
456.91	35952.97
457.09	36086.38
457.28	37013.23
457.46	35093.99
457.64	35398.26
457.83	34043.09
458.01	33865.21
458.19	34836.53
458.38	35889.77
458.56	35793.81
458.74	36201.07
458.93	34897.39
459.11	34370.77
459.29	34794.40
459.48	35552.74
459.66	34583.76
459.84	34845.90
460.03	35428.69
460.21	36039.57
460.39	36912.59
460.57	36062.97
460.76	36252.56
460.94	36367.24
461.12	36797.90
461.31	36594.28
461.49	37371.33
461.67	37144.30
461.85	38424.57
462.04	37942.42
462.22	37919.02
462.40	37352.61
462.59	37303.46
462.77	37523.47
462.95	37387.72
463.13	37090.47
463.32	35697.85
463.50	36149.57
463.68	35943.61
463.86	36861.10
464.05	35543.38
464.23	35136.12
464.41	35002.71
464.59	34719.51
464.78	36596.62
464.96	35592.53
465.14	35400.60
465.32	37144.30
465.50	38143.71
465.69	38672.67
465.87	37642.84
466.05	35985.74
466.23	34663.33
466.41	33902.66
466.60	35508.27
466.78	34932.50
466.96	35735.30
467.14	36102.76
467.32	36444.48
467.51	36706.62
467.69	34534.60
467.87	36273.62
468.05	36818.97
468.23	36921.95
468.41	36570.87
468.60	37181.75
468.78	37027.28
468.96	36559.17
469.14	37511.77
469.32	37387.72
469.50	35477.84
469.69	35864.03
469.87	34988.67
470.05	34553.33
470.23	35824.24
470.41	35707.21
470.59	36208.09
470.77	36175.32
470.95	37106.85
471.14	37549.21
471.32	37684.97
471.50	39889.75
471.68	39555.05
471.86	40023.16
472.04	39995.07
472.22	39599.52
472.40	38096.90
472.58	38277.12
472.77	38242.01
472.95	38490.11
473.13	39861.66
473.31	38160.09
473.49	38930.13
473.67	39447.39
473.85	39655.70
474.03	40643.40
474.21	41303.43
474.39	41944.74
474.57	41090.44
474.75	41787.92
474.93	41287.05
475.12	39828.90
475.30	40395.31
475.48	40053.59
475.66	41060.02
475.84	39929.54
476.02	40498.29
476.20	39854.64
476.38	40367.22
476.56	41490.68
476.74	41963.46
476.92	42564.98
477.10	42363.70
477.28	44098.03
477.46	44053.56
477.64	44919.56
477.82	44744.02
478.00	44729.98
478.18	43618.22
478.36	43903.77
478.54	43927.17
478.72	44652.74
478.90	45888.54
479.08	46838.80
479.26	46515.81
479.44	47463.72
479.62	46754.54
479.80	46761.56
479.98	46902.00
480.16	46864.55
480.34	46363.67
480.52	47538.62
480.70	47264.78
480.88	46937.10
481.06	47599.47
481.24	48395.26
481.41	49359.56
481.59	49846.39
481.77	48582.50
481.95	48449.09
482.13	48800.17
482.31	49074.01
482.49	49705.96
482.67	49368.92
482.85	49701.28
483.03	49853.41
483.21	50265.34
483.39	50204.49
483.57	50047.68
483.74	49827.66
483.92	49991.50
484.10	49932.99
484.28	50419.82
484.46	50649.19
484.64	51875.63
484.82	50787.28
485.00	50705.37
485.18	50138.96
485.35	47578.41
485.53	42665.63
485.71	39880.39
485.89	41200.45
486.07	44509.97
486.25	46080.47
486.43	48832.94
486.61	49144.23
486.78	48669.10
486.96	50019.59
487.14	51100.92
487.32	51838.18
487.50	52727.59
487.68	53762.11
487.85	54251.28
488.03	53504.65
488.21	52870.36
488.39	52781.42
488.57	50930.06
488.75	51395.82
488.92	53041.22
489.10	54887.90
489.28	55243.66
489.46	56402.23
489.64	55868.59
489.81	56659.69
489.99	56041.79
490.17	56222.01
490.35	56460.74
490.53	56039.45
490.70	55962.21
490.88	55842.84
491.06	56746.29
491.24	56938.21
491.41	55774.97
491.59	54323.83
491.77	54316.81
491.95	55192.17
492.13	56498.19
492.30	56975.66
492.48	57841.66
492.66	57741.02
492.84	57219.08
493.01	57240.14
493.19	57008.43
493.37	56636.28
493.54	56856.29
493.72	58127.20
493.90	58475.94
494.08	58873.84
494.25	59058.74
494.43	59704.73
494.61	59627.49
494.79	59379.39
494.96	59714.09
495.14	59269.39
495.32	58042.95
495.49	58145.93
495.67	59325.56
495.85	59948.14
496.02	60505.19
496.20	59866.22
496.38	59487.06
496.55	59367.69
496.73	59805.37
496.91	60472.42
497.09	60636.26
497.26	61319.70
497.44	60280.50
497.62	59529.19
497.79	59175.76
497.97	58262.96
498.14	58850.43
498.32	59903.67
498.50	59985.59
498.67	59803.03
498.85	59807.71
499.03	60425.61
499.20	60509.87
499.38	60214.96
499.56	59519.82
499.73	59718.77
499.91	59419.18
500.08	58763.83
500.26	58735.74
500.44	59119.59
500.61	59512.80
500.79	59451.95
500.97	59313.86
501.14	58698.30
501.32	58089.76
501.49	58604.67
501.67	59367.69
501.84	59035.33
502.02	59894.31
502.20	60486.46
502.37	59983.25
502.55	60233.69
502.72	61572.47
502.90	61764.40
503.07	61181.60
503.25	60236.03
503.43	59430.88
503.60	59187.47
503.78	59096.19
503.95	59760.90
504.13	60760.31
504.30	61394.59
504.48	60570.72
504.65	60570.72
504.83	60835.20
505.01	61375.87
505.18	61750.35
505.36	62262.93
505.53	62066.33
505.71	61743.33
505.88	62377.62
506.06	61893.13
506.23	61659.07
506.41	61130.11
506.58	61357.14
506.76	61378.21
506.93	60687.75
507.11	60900.74
507.28	61212.03
507.46	60381.14
507.63	60713.50
507.81	60233.69
507.98	60247.73
508.16	61605.24
508.33	61556.09
508.50	61633.33
508.68	62244.21
508.85	62700.61
509.03	62632.74
509.20	62190.37
509.38	61546.73
509.55	61663.75
509.73	61710.56
509.90	61403.95
510.08	61659.07
510.25	61450.77
510.42	61038.83
510.60	61483.53
510.77	61818.23
510.95	62164.63
511.12	62564.86
511.30	63086.80
511.47	63451.92
511.64	62803.59
511.82	63152.33
511.99	62045.26
512.17	61879.08
512.34	61272.88
512.51	61888.45
512.69	62176.33
512.86	61357.14
513.04	61815.89
513.21	61312.67
513.38	60823.50
513.56	60371.78
513.73	60135.38
513.90	61436.72
514.08	61036.49
514.25	61132.45
514.43	61359.48
514.60	61478.85
514.77	61923.55
514.95	61977.39
515.12	61822.91
515.29	62173.99
515.47	62625.71
515.64	62768.49
515.81	62401.02
515.99	61322.04
516.16	59463.65
516.33	57544.41
516.51	57586.54
516.68	56179.88
516.85	55072.81
517.03	56903.10
517.20	59171.08
517.37	61008.40
517.54	61717.59
517.72	60935.85
517.89	58059.33
518.06	56481.81
518.24	57614.63
518.41	59554.93
518.58	60954.57
518.75	60804.78
518.93	60786.05
519.10	60395.18
519.27	61347.78
519.45	61485.87
519.62	62541.45
519.79	62468.90
519.96	61839.29
520.14	61719.93
520.31	60921.80
520.48	60654.98
520.65	61403.95
520.83	62653.80
521.00	61975.05
521.17	61724.61
521.34	61958.66
521.52	62302.72
521.69	62574.22
521.86	62960.41
522.03	62391.66
522.20	61230.75
522.38	60697.11
522.55	61076.28
522.72	61076.28
522.89	60818.82
523.07	61993.77
523.24	62232.50
523.41	62988.50
523.58	63126.59
523.75	63159.36
523.92	63072.76
524.10	63025.95
524.27	62560.18
524.44	62295.70
524.61	61511.62
524.78	62197.40
524.96	62241.87
525.13	62394.00
525.30	63030.63
525.47	63416.82
525.64	63231.91
525.81	62024.20
525.98	60645.62
526.16	59423.86
526.33	59515.14
526.50	58852.77
526.67	58974.48
526.84	59896.65
527.01	60463.06
527.18	60811.80
527.36	61525.66
527.53	62363.57
527.70	62003.13
527.87	60884.36
528.04	61556.09
528.21	62101.43
528.38	62564.86
528.55	63552.57
528.72	63391.07
528.89	62995.52
529.07	63117.23
529.24	61832.27
529.41	61897.81
529.58	61872.06
529.75	62471.24
529.92	62709.97
530.09	62871.47
530.26	63250.64
530.43	63746.83
530.60	63243.62
530.77	63688.32
530.94	63585.33
531.11	62850.41
531.28	62667.84
531.46	62705.29
531.63	62770.83
531.80	62611.67
531.97	62520.39
532.14	61916.53
532.31	60563.70
532.48	59901.33
532.65	60514.55
532.82	61020.11
532.99	63002.54
533.16	62812.96
533.33	62660.82
533.50	62742.74
533.67	62232.50
533.84	62143.56
534.01	62478.26
534.18	62197.40
534.35	62213.78
534.52	61581.84
534.69	62244.21
534.86	62726.36
535.03	62997.86
535.20	62946.37
535.37	63671.93
535.54	63812.37
535.71	63051.69
535.88	63313.83
536.05	62291.02
536.22	61677.80
536.38	61584.18
536.55	61298.63
536.72	60804.78
536.89	61422.68
537.06	61460.13
537.23	61977.39
537.40	61422.68
537.57	61584.18
537.74	62319.10
537.91	62117.82
538.08	62117.82
538.25	62560.18
538.42	62997.86
538.59	62726.36
538.75	61951.64
538.92	60753.29
539.09	61558.43
539.26	61214.37
539.43	61200.33
539.60	60711.16
539.77	61586.52
539.94	61277.57
540.11	60587.11
540.28	60172.83
540.44	60334.33
540.61	60362.42
540.78	60907.76
540.95	61127.77
541.12	61296.29
541.29	61654.39
541.46	61532.68
541.62	62110.80
541.79	61162.88
541.96	60900.74
542.13	61525.66
542.30	61310.33
542.47	61317.35
542.63	61408.64
542.80	61300.97
542.97	60844.57
543.14	61045.85
543.31	61399.27
543.48	62190.37
543.64	62431.45
543.81	62834.02
543.98	62660.82
544.15	61689.50
544.32	61764.40
544.48	61703.54
544.65	61520.98
544.82	61958.66
544.99	61078.62
545.16	60673.71
545.32	61186.28
545.49	61687.16
545.66	61907.17
545.83	61773.76
546.00	61869.72
546.16	61317.35
546.33	61132.45
546.50	61139.47
546.67	61719.93
546.83	61528.00
547.00	61558.43
547.17	60376.46
547.34	59814.73
547.50	60032.40
547.67	60542.64
547.84	61244.80
548.00	61609.92
548.17	61626.31
548.34	61776.10
548.51	61591.20
548.67	61064.58
548.84	61181.60
549.01	61638.01
549.18	61254.16
549.34	61359.48
549.51	61874.40
549.68	61979.73
549.84	60872.65
550.01	60465.40
550.18	60610.51
550.34	60985.00
550.51	60814.14
550.68	61298.63
550.84	61537.36
551.01	60622.22
551.18	60664.35
551.34	60811.80
551.51	61305.65
551.68	61549.07
551.84	62422.09
552.01	61319.70
552.18	60891.38
552.34	60226.66
552.51	59973.89
552.68	59870.90
552.84	60369.44
553.01	60360.08
553.18	60275.82
553.34	60453.70
553.51	60973.30
553.67	61015.43
553.84	61312.67
554.01	61656.73
554.17	60856.27
554.34	60736.90
554.51	60800.10
554.67	60271.14
554.84	60559.02
555.00	60144.75
555.17	60140.07
555.33	60219.64
555.50	60051.12
555.67	60519.23
555.83	60874.99
556.00	60046.44
556.16	59920.05
556.33	59709.41
556.50	59994.95
556.66	59859.20
556.83	59379.39
556.99	59302.15
557.16	60182.19
557.32	59496.42
557.49	60072.19
557.65	60034.74
557.82	60233.69
557.98	60533.28
558.15	59393.43
558.32	58906.60
558.48	58417.43
558.65	58335.51
558.81	58431.47
558.98	59398.12
559.14	59220.23
559.31	59477.69
559.47	59098.53
559.64	59178.10
559.80	58445.52
559.97	59025.97
560.13	59615.79
560.30	60453.70
560.46	60788.39
560.63	61001.38
560.79	60912.44
560.96	59936.44
561.12	59023.63
561.29	59250.66
561.45	59260.02
561.61	60020.70
561.78	59089.16
561.94	59234.28
562.11	59178.10
562.27	58489.99
562.44	59992.61
562.60	59887.29
562.77	59922.40
562.93	59498.76
563.10	59533.87
563.26	59803.03
563.42	59859.20
563.59	59505.78
563.75	59372.37
563.92	58670.21
564.08	58887.88
564.24	59763.24
564.41	58892.56
564.57	59957.50
564.74	59571.32
564.90	59189.81
565.07	58534.46
565.23	57741.02
565.39	57443.77
565.56	57626.33
565.72	58422.11
565.88	57645.05
566.05	59217.89
566.21	58817.66
566.38	58789.58
566.54	59281.09
566.70	60034.74
566.87	59444.93
567.03	59316.20
567.19	60247.73
567.36	60034.74
567.52	58951.07
567.68	58213.80
567.85	58155.29
568.01	58459.56
568.17	58197.42
568.34	58412.75
568.50	57563.14
568.66	57394.62
568.83	57476.54
568.99	57230.78
569.15	57677.82
569.32	57298.65
569.48	57443.77
569.64	57712.93
569.81	57607.61
569.97	57396.96
570.13	56582.45
570.30	55955.19
570.46	55952.85
570.62	55538.57
570.78	55957.53
570.95	56493.51
571.11	56842.25
571.27	56474.79
571.43	56933.53
571.60	56671.39
571.76	57750.38
571.92	58190.40
572.09	58148.27
572.25	57560.79
572.41	57464.83
572.57	57506.96
572.74	58117.84
572.90	58761.49
573.06	58604.67
573.22	58567.23
573.38	58361.26
573.55	58993.20
573.71	57858.04
573.87	57499.94
574.03	57895.49
574.20	57228.44
574.36	56973.32
574.52	56865.66
574.68	56935.87
574.84	56112.00
575.01	55931.78
575.17	55737.52
575.33	56163.50
575.49	56554.36
575.65	55686.03
575.82	55976.25
575.98	56416.27
576.14	57279.93
576.30	57897.83
576.46	56683.09
576.62	56556.70
576.79	56690.12
576.95	56849.27
577.11	56956.94
577.27	56622.24
577.43	56842.25
577.59	56690.12
577.75	55693.05
577.92	55725.81
578.08	55964.55
578.24	55882.63
578.40	56069.87
578.56	55124.30
578.72	55592.40
578.88	55473.04
579.04	56074.55
579.21	55796.03
579.37	55749.22
579.53	56018.38
579.69	55517.51
579.85	55416.86
580.01	55395.80
580.17	55033.02
580.33	55863.91
580.49	56409.25
580.65	55517.51
580.82	56247.75
580.98	56041.79
581.14	56104.98
581.30	55484.74
581.46	55040.04
581.62	55714.11
581.78	56383.51
581.94	56348.40
582.10	56229.03
582.26	56435.00
582.42	56193.92
582.58	56048.81
582.74	55927.10
582.90	55676.66
583.06	56488.83
583.22	56292.22
583.38	56268.82
583.54	56254.78
583.70	56193.92
583.86	56523.94
584.02	55365.37
584.18	55491.76
584.34	55182.81
584.50	55047.06
584.66	55281.11
584.82	55318.56
584.98	55501.12
585.14	54504.06
585.30	54085.10
