SpectraSuite Data File
++++++++++++++++++++++++++++++++++++
Date: Mon Oct 07 14:53:27 GMT-05:00 2013
User: price-jones
Dark Spectrum Present: No
Reference Spectrum Present: No
Number of Sampled Component Spectra: 1
Spectrometers: USB2+H05261
Integration Time (usec): 100000 (USB2+H05261)
Spectra Averaged: 1 (USB2+H05261)
Boxcar Smoothing: 0 (USB2+H05261)
Correct for Electrical Dark: No (USB2+H05261)
Strobe/Lamp Enabled: No (USB2+H05261)
Correct for Detector Non-linearity: No (USB2+H05261)
Correct for Stray Light: No (USB2+H05261)
Number of Pixels in Processed Spectrum: 2048
>>>>>Begin Processed Spectral Data<<<<<
365.73	0.00
365.92	0.00
366.12	0.00
366.32	0.00
366.52	0.00
366.72	0.00
366.91	0.00
367.11	0.00
367.31	0.00
367.51	0.00
367.70	0.00
367.90	0.00
368.10	0.00
368.30	0.00
368.49	0.00
368.69	0.00
368.89	0.00
369.09	0.00
369.28	0.00
369.48	0.00
369.68	0.00
369.87	0.00
370.07	0.00
370.27	0.00
370.47	631.94
370.66	3293.13
370.86	3751.88
371.06	4159.13
371.25	4112.32
371.45	3716.77
371.65	3393.78
371.84	3145.68
372.04	3232.28
372.24	3786.99
372.44	3815.07
372.63	3859.54
372.83	3695.71
373.03	3220.58
373.22	2867.16
373.42	3082.49
373.62	3496.76
373.81	3829.12
374.01	3843.16
374.21	3442.93
374.40	3183.13
374.60	3300.16
374.79	3836.14
374.99	4402.55
375.19	4744.27
375.38	4835.55
375.58	4451.70
375.78	4318.29
375.97	4416.59
376.17	4582.77
376.37	4652.98
376.56	4741.93
376.76	4882.36
376.95	5195.99
377.15	5636.01
377.35	6073.69
377.54	6239.87
377.74	6319.45
377.93	6265.61
378.13	6083.05
378.33	5839.64
378.52	5359.83
378.72	5205.35
378.91	5174.92
379.11	4847.25
379.31	4786.40
379.50	4709.16
379.70	5151.52
379.89	5736.65
380.09	6150.93
380.28	6113.48
380.48	6139.23
380.68	6162.63
380.87	5874.74
381.07	5647.71
381.26	5102.37
381.46	4840.23
381.65	4638.94
381.85	4505.53
382.04	4290.20
382.24	4063.17
382.43	3803.37
382.63	3728.47
382.83	3826.78
383.02	3810.39
383.22	3831.46
383.41	3723.79
383.61	4004.66
383.80	4596.81
384.00	5296.63
384.19	5804.53
384.39	6466.90
384.58	6179.01
384.78	5947.30
384.97	5860.70
385.17	5628.99
385.36	5537.71
385.56	5060.24
385.75	5214.71
385.95	5774.10
386.14	6368.60
386.34	6347.53
386.53	5914.53
386.72	5589.20
386.92	5837.30
387.11	5949.64
387.31	6310.08
387.50	6296.04
387.70	5905.17
387.89	5961.34
388.09	5912.19
388.28	6127.52
388.48	6202.42
388.67	6684.57
388.86	7316.51
389.06	7735.47
389.25	8236.35
389.45	8107.62
389.64	8168.47
389.84	8175.49
390.03	7955.48
390.22	7976.55
390.42	8264.43
390.61	8767.65
390.81	9357.46
391.00	9554.07
391.19	9378.53
391.39	9048.51
391.58	8533.59
391.78	8095.91
391.97	7679.30
392.16	7496.74
392.36	6736.06
392.55	5411.32
392.75	4337.01
392.94	3459.31
393.13	3356.33
393.33	4100.62
393.52	5235.78
393.71	6462.22
393.91	7449.93
394.10	7936.76
394.29	8526.57
394.49	9385.55
394.68	9956.64
394.88	9970.68
395.07	10408.36
395.26	10305.38
395.46	9848.97
395.65	9451.08
395.84	8287.84
396.04	6953.73
396.23	5804.53
396.42	4887.04
396.62	4517.23
396.81	5345.78
397.00	6729.04
397.19	8381.46
397.39	10193.03
397.58	11255.64
397.77	11922.69
397.97	12517.18
398.16	12582.72
398.35	13139.77
398.55	13593.83
398.74	13919.17
398.93	14359.19
399.12	13958.96
399.32	13525.96
399.51	14286.63
399.70	14628.35
399.90	14874.10
400.09	14668.14
400.28	14590.90
400.47	14841.34
400.67	15566.90
400.86	15704.99
401.05	15777.55
401.24	15988.20
401.44	16051.39
401.63	16018.63
401.82	16166.08
402.01	16161.40
402.21	16299.49
402.40	16505.46
402.59	15880.53
402.78	15524.77
402.97	14771.12
403.17	15389.02
403.36	16238.64
403.55	16807.39
403.74	17153.79
403.93	16601.42
404.13	15229.87
404.32	14923.26
404.51	15611.37
404.70	16814.41
404.89	16606.10
405.09	16676.32
405.28	15997.56
405.47	16009.26
405.66	15988.20
405.85	15515.41
406.05	15126.88
406.24	15424.13
406.43	15903.94
406.62	16877.60
406.81	16950.16
407.00	15784.57
407.20	15679.25
407.39	15815.00
407.58	16650.57
407.77	17142.08
407.96	17874.67
408.15	17806.80
408.34	17795.09
408.54	18951.32
408.73	19147.92
408.92	18806.20
409.11	18347.46
409.30	17282.52
409.49	16423.54
409.68	15154.97
409.87	14827.29
410.07	15882.88
410.26	17015.69
410.45	18398.95
410.64	18363.84
410.83	19019.19
411.02	19396.02
411.21	20247.97
411.40	20180.10
411.59	19833.70
411.78	19721.35
411.98	19814.98
412.17	20159.03
412.36	19719.01
412.55	19826.68
412.74	19381.98
412.93	18827.27
413.12	19037.92
413.31	20950.14
413.50	20858.85
413.69	21446.33
413.88	20725.44
414.07	19735.40
414.26	20489.05
414.45	20695.02
414.64	20699.70
414.83	20987.58
415.02	20559.27
415.22	20659.91
415.41	21128.02
415.60	21701.45
415.79	22675.11
415.98	23016.83
416.17	23445.15
416.36	22623.62
416.55	22228.07
416.74	21462.71
416.93	20727.78
417.12	20617.78
417.31	21013.33
417.50	21596.12
417.69	21947.20
417.88	22270.20
418.07	21806.77
418.26	21483.78
418.45	21652.30
418.64	22424.67
418.83	23494.30
419.02	22923.21
419.21	22838.95
419.39	21387.82
419.58	20999.29
419.77	20809.70
419.96	21364.41
420.15	22717.24
420.34	23391.31
420.53	24297.10
420.72	24755.85
420.91	24582.65
421.10	24311.14
421.29	24498.39
421.48	23229.82
421.67	24479.66
421.86	23852.40
422.05	22635.32
422.24	19873.49
422.43	19782.21
422.61	21804.43
422.80	23630.05
422.99	23616.01
423.18	22487.87
423.37	22291.26
423.56	22354.46
423.75	22766.39
423.94	23220.45
424.13	21958.91
424.32	22033.80
424.50	22445.74
424.69	21888.69
424.88	22260.84
425.07	21937.84
425.26	22127.42
425.45	21876.99
425.64	21259.09
425.83	21331.64
426.01	22593.19
426.20	23302.37
426.39	23040.23
426.58	21399.52
426.77	19936.68
426.96	18862.38
427.15	19618.37
427.33	21195.89
427.52	21986.99
427.71	22181.26
427.90	21900.39
428.09	21823.16
428.28	21458.03
428.46	20641.18
428.65	20336.91
428.84	21071.84
429.03	20985.24
429.22	20343.94
429.40	18974.72
429.59	17387.84
429.78	15180.71
429.97	15288.38
430.16	15480.30
430.34	15700.31
430.53	15733.08
430.72	16004.58
430.91	17750.62
431.10	20800.34
431.28	24219.86
431.47	26426.99
431.66	26782.75
431.85	24343.91
432.03	22326.37
432.22	21280.15
432.41	22043.17
432.60	24374.34
432.79	25804.41
432.97	26150.81
433.16	25556.31
433.35	23459.19
433.54	20912.69
433.72	19620.71
433.91	20170.74
434.10	22632.98
434.28	24395.40
434.47	25717.81
434.66	25273.10
434.85	24624.78
435.03	24210.50
435.22	25376.09
435.41	26588.49
435.59	26387.20
435.78	27103.40
435.97	27653.43
436.16	27714.28
436.34	27695.56
436.53	26583.80
436.72	26941.91
436.90	25598.44
437.09	25053.09
437.28	24907.98
437.46	25785.68
437.65	25806.75
437.84	23833.68
438.02	22221.05
438.21	22232.75
438.40	23110.45
438.58	25507.16
438.77	25532.90
438.96	26314.64
439.14	27030.85
439.33	27835.99
439.52	28243.24
439.70	27871.10
439.89	26995.74
440.08	26206.98
440.26	26150.81
440.45	26974.67
440.63	28837.74
440.82	30335.68
441.01	29942.47
441.19	29399.47
441.38	30274.83
441.57	31246.15
441.75	31508.29
441.94	31840.65
442.12	31346.79
442.31	32814.31
442.50	32100.45
442.68	31833.63
442.87	31365.52
443.05	30679.74
443.24	31564.46
443.43	31833.63
443.61	32776.86
443.80	32776.86
443.98	30911.46
444.17	31105.72
444.35	32793.25
444.54	33270.72
444.73	33149.01
444.91	31882.78
445.10	30419.94
445.28	29259.04
445.47	28706.67
445.65	28996.90
445.84	29689.70
446.02	30658.68
446.21	31342.11
446.39	31035.50
446.58	31791.50
446.77	32400.04
446.95	32236.20
447.14	33034.32
447.32	33926.07
447.51	33329.23
447.69	31920.23
447.88	31651.06
448.06	32320.46
448.25	32706.65
448.43	33188.80
448.62	32292.37
448.80	32437.48
448.99	32299.39
449.17	32751.12
449.36	32627.07
449.54	34087.56
449.73	34527.58
449.91	34941.86
450.10	36205.75
450.28	36081.70
450.46	36067.66
450.65	35639.34
450.83	35299.96
451.02	34939.52
451.20	35056.54
451.39	34951.22
451.57	34717.17
451.76	34363.75
451.94	34445.66
452.13	33577.33
452.31	32294.71
452.49	30895.07
452.68	31517.65
452.86	31337.43
453.05	31468.50
453.23	32769.84
453.42	33172.41
453.60	33914.36
453.78	34646.95
453.97	34026.71
454.15	34349.70
454.34	33469.66
454.52	33654.56
454.70	32879.85
454.89	33347.95
455.07	33844.15
455.26	34010.32
455.44	35189.95
455.62	35686.15
455.81	35756.36
455.99	35194.64
456.17	35405.28
456.36	34953.56
456.54	36573.21
456.73	36732.37
456.91	36849.39
457.09	37017.91
457.28	37563.26
457.46	36086.38
457.64	36196.38
457.83	34813.13
458.01	34143.74
458.19	34951.22
458.38	35278.89
458.56	36713.64
458.74	36165.96
458.93	35744.66
459.11	35409.96
459.29	35339.75
459.48	35772.75
459.66	35386.56
459.84	36070.00
460.03	35955.31
460.21	36168.30
460.39	37483.68
460.57	37254.31
460.76	37427.51
460.94	37626.45
461.12	37046.00
461.31	37163.03
461.49	37031.96
461.67	36933.65
461.85	38326.27
462.04	38164.78
462.22	38663.31
462.40	38117.96
462.59	38036.05
462.77	37846.46
462.95	38234.99
463.13	37277.71
463.32	37282.39
463.50	37041.32
463.68	37074.09
463.86	36884.50
464.05	36556.83
464.23	35695.51
464.41	35702.53
464.59	34948.88
464.78	36795.56
464.96	36500.65
465.14	36304.05
465.32	36861.10
465.50	38120.31
465.69	38490.11
465.87	37509.43
466.05	36708.96
466.23	35175.91
466.41	34183.52
466.60	35634.66
466.78	35267.19
466.96	35899.14
467.14	36671.51
467.32	36973.44
467.51	37249.63
467.69	35569.12
467.87	35992.76
468.05	36905.57
468.23	36823.65
468.41	37099.83
468.60	36931.31
468.78	37174.73
468.96	36488.95
469.14	37247.29
469.32	37579.64
469.50	35992.76
469.69	36498.31
469.87	35304.64
470.05	35306.98
470.23	35384.22
470.41	36168.30
470.59	36261.92
470.77	36561.51
470.95	37125.58
471.14	37628.79
471.32	37443.89
471.50	39962.31
471.68	39594.84
471.86	40161.25
472.04	40411.69
472.22	40322.75
472.40	38726.50
472.58	38230.31
472.77	37586.66
472.95	38223.29
473.13	39433.35
473.31	38520.54
473.49	38756.93
473.67	39313.98
473.85	39412.28
474.03	40589.57
474.21	40933.63
474.39	41240.24
474.57	41034.27
474.75	41359.61
474.93	40917.25
475.12	39805.49
475.30	40418.71
475.48	39976.35
475.66	40704.26
475.84	40287.64
476.02	40268.92
476.20	39168.87
476.38	40304.02
476.56	41408.76
476.74	42190.50
476.92	42197.52
477.10	42813.08
477.28	43966.96
477.46	43735.25
477.64	44350.81
477.82	44486.56
478.00	44655.08
478.18	43702.48
478.36	43430.98
478.54	43620.56
478.72	44055.90
478.90	45350.22
479.08	45937.69
479.26	46850.50
479.44	46714.75
479.62	46466.66
479.80	46260.69
479.98	46469.00
480.16	47012.00
480.34	46459.63
480.52	46703.05
480.70	46899.65
480.88	47234.35
481.06	47964.60
481.24	48039.50
481.41	48938.26
481.59	49326.79
481.77	49137.21
481.95	48449.09
482.13	48582.50
482.31	48573.14
482.49	49059.97
482.67	49102.10
482.85	49109.12
483.03	49837.03
483.21	50298.11
483.39	50106.19
483.57	49448.50
483.74	49279.98
483.92	49429.77
484.10	49647.44
484.28	50071.08
484.46	50880.91
484.64	50962.82
484.82	50164.70
485.00	49684.89
485.18	49097.42
485.35	47945.87
485.53	45048.29
485.71	40762.77
485.89	40561.48
486.07	42572.00
486.25	45797.26
486.43	48523.99
486.61	48779.10
486.78	48868.05
486.96	49162.95
487.14	50681.96
487.32	51241.35
487.50	52238.42
487.68	53116.12
487.85	53581.88
488.03	53724.66
488.21	53359.53
488.39	52549.71
488.57	51587.75
488.75	51540.94
488.92	52294.59
489.10	54506.40
489.28	55559.64
489.46	56222.01
489.64	56175.20
489.81	56034.77
489.99	55831.14
490.17	56037.11
490.35	56285.20
490.53	55819.44
490.70	55664.96
490.88	55468.36
491.06	56191.58
491.24	55971.57
491.41	55440.27
491.59	53909.56
491.77	52914.83
491.95	54492.35
492.13	55217.92
492.30	56327.33
492.48	57315.04
492.66	57886.13
492.84	57485.90
493.01	57535.05
493.19	56963.96
493.37	56669.05
493.54	56416.27
493.72	57017.79
493.90	57750.38
494.08	58504.03
494.25	58717.02
494.43	58951.07
494.61	59388.75
494.79	59533.87
494.96	59154.70
495.14	58728.72
495.32	57895.49
495.49	56985.02
495.67	58108.48
495.85	59437.90
496.02	59681.32
496.20	59590.04
496.38	58997.88
496.55	58997.88
496.73	59468.33
496.91	59636.85
497.09	60006.65
497.26	60339.01
497.44	59686.00
497.62	59377.05
497.79	58487.65
497.97	57488.24
498.14	57741.02
498.32	58824.68
498.50	59482.37
498.67	60081.55
498.85	59807.71
499.03	59990.27
499.20	60151.77
499.38	60254.75
499.56	60030.06
499.73	59648.55
499.91	59306.83
500.08	59004.91
500.26	58148.27
500.44	58550.84
500.61	59367.69
500.79	59222.58
500.97	58628.08
501.14	58471.26
501.32	58468.92
501.49	58410.41
501.67	58642.12
501.84	59292.79
502.02	59508.12
502.20	59636.85
502.37	59803.03
502.55	59999.63
502.72	60589.45
502.90	60952.23
503.07	60465.40
503.25	60170.49
503.43	59384.07
503.60	58756.81
503.78	58211.46
503.95	58602.33
504.13	59964.52
504.30	60647.96
504.48	60303.90
504.65	60266.45
504.83	60198.58
505.01	60828.18
505.18	60954.57
505.36	61668.44
505.53	61436.72
505.71	61638.01
505.88	61914.19
506.06	61242.46
506.23	60994.36
506.41	60584.77
506.58	60851.59
506.76	60654.98
506.93	60837.54
507.11	60633.92
507.28	60928.83
507.46	60280.50
507.63	59674.30
507.81	59519.82
507.98	60037.08
508.16	60505.19
508.33	61279.91
508.50	61244.80
508.68	61687.16
508.85	62080.37
509.03	61928.23
509.20	61792.48
509.38	61207.35
509.55	60479.44
509.73	60617.53
509.90	61209.69
510.08	61406.30
510.25	61300.97
510.42	61027.13
510.60	61066.92
510.77	61305.65
510.95	61689.50
511.12	61780.78
511.30	62162.29
511.47	62344.85
511.64	62391.66
511.82	62026.54
511.99	61324.38
512.17	60947.55
512.34	60498.17
512.51	60734.56
512.69	60818.82
512.86	61017.77
513.04	61513.96
513.21	61359.48
513.38	61036.49
513.56	60437.31
513.73	59882.61
513.90	60303.90
514.08	60221.98
514.25	60678.39
514.43	60811.80
514.60	60809.46
514.77	61017.77
514.95	61027.13
515.12	60992.02
515.29	61434.38
515.47	61701.20
515.64	61883.76
515.81	61614.60
515.99	61045.85
516.16	59674.30
516.33	57581.86
516.51	56083.92
516.68	55664.96
516.85	55271.75
517.03	55695.39
517.20	57975.07
517.37	60369.44
517.54	61263.52
517.72	60610.51
517.89	58361.26
518.06	56189.24
518.24	56748.63
518.41	58457.22
518.58	59779.62
518.75	59973.89
518.93	60065.17
519.10	60001.97
519.27	60559.02
519.45	60781.37
519.62	61312.67
519.79	61551.41
519.96	61464.81
520.14	61130.11
520.31	60083.89
520.48	60161.13
520.65	60636.26
520.83	61441.40
521.00	61787.80
521.17	61242.46
521.34	61174.58
521.52	61422.68
521.69	61900.15
521.86	62372.94
522.03	62045.26
522.20	60889.04
522.38	59803.03
522.55	60072.19
522.72	60631.58
522.89	60533.28
523.07	60790.73
523.24	61130.11
523.41	61876.74
523.58	62309.74
523.75	62553.16
523.92	62473.58
524.10	62284.00
524.27	62368.26
524.44	62129.52
524.61	61961.00
524.78	61717.59
524.96	61759.72
525.13	61825.25
525.30	62099.09
525.47	62525.07
525.64	62440.81
525.81	61722.27
525.98	60416.25
526.16	59348.96
526.33	58539.14
526.50	58213.80
526.67	57778.46
526.84	58436.16
527.01	59215.55
527.18	60107.30
527.36	60823.50
527.53	61813.55
527.70	61907.17
527.87	61490.55
528.04	61048.19
528.21	61457.79
528.38	62010.15
528.55	62665.50
528.72	62787.21
528.89	63119.57
529.07	62784.87
529.24	62035.90
529.41	61579.49
529.58	60774.35
529.75	61123.09
529.92	61598.22
530.09	61668.44
530.26	62286.34
530.43	62546.14
530.60	62489.96
530.77	62852.75
530.94	62990.84
531.11	62541.45
531.28	62265.27
531.46	61956.32
531.63	62113.14
531.80	62108.46
531.97	61670.78
532.14	61069.26
532.31	60060.49
532.48	59377.05
532.65	59508.12
532.82	60250.07
532.99	61272.88
533.16	61638.01
533.33	62071.01
533.50	62012.49
533.67	61286.93
533.84	61020.11
534.01	61237.78
534.18	61265.86
534.35	61694.18
534.52	61137.13
534.69	61696.52
534.86	61902.49
535.03	62028.88
535.20	62525.07
535.37	62941.69
535.54	62794.23
535.71	62651.46
535.88	62410.38
536.05	61806.53
536.22	61151.18
536.38	61034.15
536.55	60786.05
536.72	60324.97
536.89	60086.23
537.06	61015.43
537.23	61612.26
537.40	61918.87
537.57	61893.13
537.74	61719.93
537.91	61549.07
538.08	61675.46
538.25	61549.07
538.42	61762.06
538.59	61488.21
538.75	60961.59
538.92	60757.97
539.09	60680.73
539.26	60385.82
539.43	60254.75
539.60	60528.59
539.77	60685.41
539.94	60521.57
540.11	59760.90
540.28	59292.79
540.44	59309.18
540.61	59693.02
540.78	59735.15
540.95	60207.94
541.12	60846.91
541.29	60528.59
541.46	61237.78
541.62	61174.58
541.79	61064.58
541.96	60495.83
542.13	60348.37
542.30	60713.50
542.47	61104.37
542.63	60708.82
542.80	60324.97
542.97	60706.47
543.14	60385.82
543.31	60481.78
543.48	60977.98
543.64	61748.01
543.81	61958.66
543.98	61712.91
544.15	61165.22
544.32	60542.64
544.48	60528.59
544.65	61024.79
544.82	61453.11
544.99	61120.75
545.16	60715.84
545.32	60654.98
545.49	61268.20
545.66	61691.84
545.83	61265.86
546.00	60959.25
546.16	60666.69
546.33	60729.88
546.50	60619.88
546.67	61181.60
546.83	60727.54
547.00	60685.41
547.17	60285.18
547.34	59515.14
547.50	59791.33
547.67	59959.84
547.84	60041.76
548.00	60357.74
548.17	60959.25
548.34	60662.00
548.51	60753.29
548.67	60825.84
548.84	60776.69
549.01	60977.98
549.18	60748.60
549.34	60645.62
549.51	60605.83
549.68	60612.85
549.84	60212.62
550.01	60123.68
550.18	60074.53
550.34	60212.62
550.51	60402.21
550.68	60383.48
550.84	59882.61
551.01	59950.48
551.18	59910.69
551.34	60252.41
551.51	60512.21
551.68	60713.50
551.84	60706.47
552.01	60657.32
552.18	60566.04
552.34	59920.05
552.51	59423.86
552.68	59267.05
552.84	59786.64
553.01	59987.93
553.18	60011.34
553.34	60069.85
553.51	60247.73
553.67	60285.18
553.84	60556.68
554.01	60388.16
554.17	60299.22
554.34	60444.33
554.51	60444.33
554.67	60713.50
554.84	60556.68
555.00	60179.85
555.17	59810.05
555.33	60027.72
555.50	59969.21
555.67	59994.95
555.83	59887.29
556.00	59606.42
556.16	59695.36
556.33	59194.49
556.50	58979.16
556.66	59084.48
556.83	59023.63
556.99	58962.78
557.16	59166.40
557.32	59288.11
557.49	59557.27
557.65	59608.76
557.82	59344.28
557.98	59145.34
558.15	58925.33
558.32	58220.83
558.48	57422.70
558.65	57652.08
558.81	58190.40
558.98	58309.77
559.14	58241.89
559.31	58602.33
559.47	58616.38
559.64	58115.50
559.80	57736.34
559.97	57993.79
560.13	58342.53
560.30	59065.76
560.46	59620.47
560.63	59896.65
560.79	59779.62
560.96	59473.01
561.12	58497.01
561.29	57757.40
561.45	57776.12
561.61	58220.83
561.78	58684.25
561.94	58599.99
562.11	58482.97
562.27	58478.28
562.44	58590.63
562.60	58768.51
562.77	59063.42
562.93	58972.14
563.10	59070.44
563.26	58433.81
563.42	58316.79
563.59	58227.85
563.75	58452.54
563.92	58344.87
564.08	58145.93
564.24	58492.33
564.41	58377.64
564.57	58518.07
564.74	58300.40
564.90	58387.00
565.07	57944.64
565.23	57595.90
565.39	57146.52
565.56	56978.00
565.72	56645.65
565.88	57179.29
566.05	57247.16
566.21	57677.82
566.38	57448.45
566.54	57525.69
566.70	57797.19
566.87	58258.27
567.03	58267.64
567.19	58286.36
567.36	58241.89
567.52	57832.30
567.68	57631.01
567.85	57167.58
568.01	56968.64
568.17	56523.94
568.34	56666.71
568.50	56549.68
568.66	56699.48
568.83	56994.39
568.99	57008.43
569.15	57396.96
569.32	57233.12
569.48	56863.32
569.64	56692.46
569.81	56324.99
569.97	56332.01
570.13	56392.87
570.30	55976.25
570.46	55664.96
570.62	54866.84
570.78	54869.18
570.95	55288.13
571.11	55873.27
571.27	56044.13
571.43	56222.01
571.60	56491.17
571.76	56762.67
571.92	56816.50
572.09	57169.93
572.25	57228.44
572.41	57137.16
572.57	56942.89
572.74	56879.70
572.90	56533.30
573.06	56591.81
573.22	56577.77
573.38	56446.70
573.55	56582.45
573.71	56877.36
573.87	56528.62
574.03	56383.51
574.20	56317.97
574.36	56104.98
574.52	56151.79
574.68	55887.31
574.84	55674.32
575.01	54930.03
575.17	54897.27
575.33	55152.38
575.49	55641.56
575.65	55854.54
575.82	55447.29
575.98	55365.37
576.14	55620.49
576.30	55779.65
576.46	55896.67
576.62	55789.01
576.79	55695.39
576.95	55208.56
577.11	55309.20
577.27	55461.33
577.43	55367.71
577.59	55136.00
577.75	54899.61
577.92	53921.26
578.08	53972.75
578.24	54110.85
578.40	54539.16
578.56	54424.48
578.72	54827.05
578.88	54923.01
579.04	54997.91
579.21	55217.92
579.37	55126.64
579.53	55458.99
579.69	55128.98
579.85	55377.08
580.01	55143.02
580.17	54803.64
580.33	54422.14
580.49	54906.63
580.65	55086.85
580.82	55274.09
580.98	55037.70
581.14	55002.59
581.30	54901.95
581.46	54834.07
581.62	55140.68
581.78	55356.01
581.94	55323.24
582.10	55318.56
582.26	55356.01
582.42	55437.93
582.58	55297.50
582.74	55173.45
582.90	55051.74
583.06	55337.29
583.22	55093.87
583.38	55063.44
583.54	55016.63
583.70	54904.29
583.86	55058.76
584.02	54593.00
584.18	55089.19
584.34	54518.10
584.50	54777.90
584.66	54581.29
584.82	54127.23
584.98	54262.98
585.14	54066.38
