SpectraSuite Data File
++++++++++++++++++++++++++++++++++++
Date: Mon Oct 07 14:55:47 GMT-05:00 2013
User: price-jones
Dark Spectrum Present: No
Reference Spectrum Present: No
Number of Sampled Component Spectra: 1
Spectrometers: USB2+H05261
Integration Time (usec): 1000000 (USB2+H05261)
Spectra Averaged: 1 (USB2+H05261)
Boxcar Smoothing: 0 (USB2+H05261)
Correct for Electrical Dark: No (USB2+H05261)
Strobe/Lamp Enabled: No (USB2+H05261)
Correct for Detector Non-linearity: No (USB2+H05261)
Correct for Stray Light: No (USB2+H05261)
Number of Pixels in Processed Spectrum: 2048
>>>>>Begin Processed Spectral Data<<<<<
365.73	0.00
365.92	0.00
366.12	0.00
366.32	0.00
366.52	0.00
366.72	198.95
366.91	0.00
367.11	117.03
367.31	112.35
367.51	140.43
367.70	222.35
367.90	463.43
368.10	224.69
368.30	182.56
368.49	0.00
368.69	442.36
368.89	243.42
369.09	0.00
369.28	102.98
369.48	35.11
369.68	72.56
369.87	273.84
370.07	35.11
370.27	526.62
370.47	1025.15
370.66	3382.07
370.86	3894.65
371.06	4503.19
371.25	4774.69
371.45	3789.33
371.65	3810.39
371.84	3126.96
372.04	3372.71
372.24	3861.88
372.44	3798.69
372.63	3894.65
372.83	4039.76
373.03	3115.25
373.22	2899.92
373.42	3077.80
373.62	3562.30
373.81	3824.44
374.01	4014.02
374.21	3768.26
374.40	3300.16
374.60	3833.80
374.79	3927.42
374.99	4402.55
375.19	4610.86
375.38	4702.14
375.58	4297.22
375.78	4676.39
375.97	4414.25
376.17	5125.77
376.37	4367.44
376.56	4631.92
376.76	4650.64
376.95	4847.25
377.15	5507.28
377.35	5561.11
377.54	5825.59
377.74	5628.99
377.93	5750.70
378.13	5839.64
378.33	5638.35
378.52	5022.79
378.72	5109.39
378.91	4957.25
379.11	4606.17
379.31	4510.21
379.50	4521.92
379.70	5139.82
379.89	5659.42
380.09	5423.02
380.28	5439.40
380.48	5755.38
380.68	5385.57
380.87	5097.69
381.07	5006.41
381.26	5088.32
381.46	4737.24
381.65	4533.62
381.85	4007.00
382.04	4121.68
382.24	3918.06
382.43	3557.61
382.63	3447.61
382.83	3513.14
383.02	3758.90
383.22	3939.12
383.41	3559.95
383.61	3784.65
383.80	4873.00
384.00	4704.48
384.19	5322.38
384.39	5549.41
384.58	5305.99
384.78	5486.22
384.97	5341.10
385.17	5088.32
385.36	4622.56
385.56	4781.71
385.75	4727.88
385.95	5376.21
386.14	5797.51
386.34	5502.60
386.53	5427.70
386.72	4905.76
386.92	5528.35
387.11	5547.07
387.31	5666.44
387.50	5165.56
387.70	5128.11
387.89	5364.51
388.09	5214.71
388.28	5195.99
388.48	5371.53
388.67	5994.11
388.86	6480.94
389.06	6665.85
389.25	6995.86
389.45	7176.08
389.64	6995.86
389.84	7208.85
390.03	7009.90
390.22	6951.39
390.42	7171.40
390.61	7293.11
390.81	7770.58
391.00	7838.45
391.19	8021.02
391.39	7573.97
391.58	7330.56
391.78	6963.09
391.97	6822.66
392.16	6073.69
392.36	5863.04
392.55	4898.74
392.75	3824.44
392.94	3222.92
393.13	3478.04
393.33	3581.02
393.52	4652.98
393.71	5914.53
393.91	6282.00
394.10	6518.39
394.29	7302.47
394.49	7716.75
394.68	8540.61
394.88	8472.74
395.07	8592.11
395.26	8540.61
395.46	8238.69
395.65	7782.28
395.84	6771.17
396.04	6581.59
396.23	4561.70
396.42	4142.75
396.62	4334.67
396.81	5100.03
397.00	6038.58
397.19	7302.47
397.39	8311.24
397.58	9771.74
397.77	9724.93
397.97	10052.60
398.16	10450.49
398.35	10668.16
398.55	10595.61
398.74	11119.89
398.93	11557.57
399.12	11091.80
399.32	11115.20
399.51	11199.46
399.70	12081.85
399.90	11800.98
400.09	11768.21
400.28	11922.69
400.47	11571.61
400.67	12526.55
400.86	12620.17
401.05	12753.58
401.24	12863.58
401.44	12884.65
401.63	13001.68
401.82	13081.25
402.01	12423.56
402.21	12992.31
402.40	12844.86
402.59	12325.26
402.78	11850.13
402.97	11686.29
403.17	12264.41
403.36	12919.76
403.55	13317.65
403.74	13523.62
403.93	13039.12
404.13	12915.08
404.32	12624.85
404.51	12933.80
404.70	13846.61
404.89	13053.17
405.09	13455.74
405.28	12465.69
405.47	12360.37
405.66	12554.63
405.85	12070.14
406.05	11770.55
406.24	12112.27
406.43	12751.24
406.62	13074.23
406.81	13720.22
407.00	12940.82
407.20	12351.01
407.39	12470.37
407.58	13057.85
407.77	13486.17
407.96	14286.63
408.15	14115.77
408.34	14366.21
408.54	14930.28
408.73	14785.16
408.92	14443.45
409.11	14005.77
409.30	13778.73
409.49	12241.00
409.68	12081.85
409.87	11789.28
410.07	12339.30
410.26	13242.75
410.45	13947.25
410.64	14228.12
410.83	14719.63
411.02	14927.94
411.21	15552.86
411.40	15632.44
411.59	15314.13
411.78	15176.03
411.98	15145.61
412.17	15264.97
412.36	14829.63
412.55	14986.45
412.74	14899.85
412.93	15084.75
413.12	14373.23
413.31	16119.27
413.50	16156.72
413.69	16278.43
413.88	15800.96
414.07	15384.34
414.26	15447.54
414.45	16044.37
414.64	16114.59
414.83	16020.97
415.02	15639.46
415.22	15779.89
415.41	16301.83
415.60	16343.96
415.79	17048.46
415.98	18071.28
416.17	17570.40
416.36	16879.94
416.55	16542.91
416.74	16327.58
416.93	15971.82
417.12	16011.60
417.31	15850.11
417.50	16112.25
417.69	17270.81
417.88	16622.48
418.07	16311.19
418.26	16042.03
418.45	16243.32
418.64	17341.03
418.83	17652.32
419.02	17427.63
419.21	16950.16
419.39	16430.56
419.58	15499.03
419.77	15346.89
419.96	16622.48
420.15	17834.88
420.34	17834.88
420.53	18029.15
420.72	18633.00
420.91	18389.59
421.10	18274.90
421.29	18024.47
421.48	17502.53
421.67	17994.04
421.86	17427.63
422.05	15990.54
422.24	14869.42
422.43	15056.67
422.61	16336.94
422.80	17195.92
422.99	17385.50
423.18	16615.46
423.37	17041.44
423.56	16528.86
423.75	17003.99
423.94	16936.12
424.13	16358.00
424.32	16011.60
424.50	15978.84
424.69	16109.91
424.88	16744.19
425.07	16425.88
425.26	16622.48
425.45	16283.11
425.64	15489.67
425.83	15777.55
426.01	17092.93
426.20	17128.04
426.39	16910.37
426.58	15323.49
426.77	14380.25
426.96	14054.92
427.15	14862.40
427.33	15576.27
427.52	16231.62
427.71	15927.35
427.90	16074.80
428.09	15749.46
428.28	15382.00
428.46	14979.43
428.65	15187.74
428.84	15246.25
429.03	15992.88
429.22	14244.50
429.40	13596.17
429.59	12540.59
429.78	11616.08
429.97	11550.54
430.16	11522.46
430.34	11400.75
430.53	11454.58
430.72	11861.84
430.91	13518.93
431.10	15400.72
431.28	17961.27
431.47	19185.37
431.66	18937.27
431.85	17160.81
432.03	15557.54
432.22	16498.44
432.41	16547.59
432.60	18122.77
432.79	18073.62
432.97	19098.77
433.16	18249.16
433.35	16402.47
433.54	14775.80
433.72	14513.66
433.91	15337.53
434.10	16805.05
434.28	17928.50
434.47	18443.42
434.66	18326.39
434.85	17778.71
435.03	18457.46
435.22	20870.56
435.41	23667.50
435.59	23917.93
435.78	22424.67
435.97	20856.51
436.16	20336.91
436.34	19702.63
436.53	18881.10
436.72	19562.20
436.90	18115.75
437.09	18132.13
437.28	17963.61
437.46	18574.49
437.65	18398.95
437.84	17109.32
438.02	15866.49
438.21	16194.17
438.40	16659.93
438.58	17790.41
438.77	18230.43
438.96	18640.03
439.14	19208.78
439.33	19983.49
439.52	19770.51
439.70	19445.17
439.89	19370.27
440.08	18434.06
440.26	18464.49
440.45	19632.41
440.63	20339.26
440.82	21441.65
441.01	20800.34
441.19	20561.61
441.38	21106.95
441.57	21912.10
441.75	22321.69
441.94	22530.00
442.12	21933.16
442.31	22251.47
442.50	21989.33
442.68	21907.41
442.87	21790.39
443.05	21142.06
443.24	22143.81
443.43	22291.26
443.61	23168.96
443.80	22602.55
443.98	21612.51
444.17	21802.09
444.35	22981.72
444.54	22902.14
444.73	22918.53
444.91	22127.42
445.10	20744.17
445.28	20262.02
445.47	20231.59
445.65	20051.37
445.84	20453.94
446.02	21561.02
446.21	21383.13
446.39	21586.76
446.58	21862.94
446.77	21907.41
446.95	22445.74
447.14	22977.04
447.32	23875.80
447.51	22796.82
447.69	22246.79
447.88	21825.50
448.06	22602.55
448.25	22684.47
448.43	22604.89
448.62	22071.25
448.80	21841.88
448.99	22405.95
449.17	22169.55
449.36	22171.89
449.54	23674.52
449.73	23082.36
449.91	23604.30
450.10	24259.65
450.28	24917.34
450.46	25001.60
450.65	24568.60
450.83	24329.87
451.02	23506.00
451.20	23461.53
451.39	23496.64
451.57	23433.44
451.76	23548.13
451.94	23014.49
452.13	22593.19
452.31	21895.71
452.49	20662.25
452.68	20982.90
452.86	21240.36
453.05	21811.45
453.23	22178.92
453.42	22134.45
453.60	22647.02
453.78	23676.86
453.97	23133.86
454.15	22951.29
454.34	22342.75
454.52	22335.73
454.70	22492.55
454.89	22525.32
455.07	22169.55
455.26	22916.19
455.44	23728.35
455.62	23707.29
455.81	24217.52
455.99	24102.84
456.17	23810.27
456.36	23475.57
456.54	24081.77
456.73	23878.15
456.91	24673.93
457.09	24931.39
457.28	25685.04
457.46	24254.97
457.64	24264.33
457.83	23089.38
458.01	22675.11
458.19	23253.22
458.38	23508.34
458.56	24247.95
458.74	23761.12
458.93	23599.62
459.11	24238.59
459.29	23138.54
459.48	23840.70
459.66	24091.13
459.84	23709.63
460.03	25095.22
460.21	24051.34
460.39	25027.35
460.57	24741.80
460.76	24889.26
460.94	24467.96
461.12	24875.21
461.31	25139.69
461.49	24297.10
461.67	24077.09
461.85	25109.27
462.04	24776.91
462.22	31964.70
462.40	25003.94
462.59	25153.74
462.77	24779.25
462.95	24655.20
463.13	24238.59
463.32	24489.03
463.50	24067.73
463.68	24477.32
463.86	24617.75
464.05	23859.42
464.23	23630.05
464.41	23517.70
464.59	22991.08
464.78	24418.81
464.96	23850.06
465.14	23704.95
465.32	24549.88
465.50	25008.62
465.69	25142.03
465.87	24166.03
466.05	23967.09
466.23	22405.95
466.41	22092.32
466.60	22897.46
466.78	23194.71
466.96	23484.94
467.14	23819.63
467.32	24191.78
467.51	24067.73
467.69	23164.28
467.87	23803.25
468.05	23709.63
468.23	24088.79
468.41	24147.31
468.60	23606.64
468.78	24184.76
468.96	24063.05
469.14	24156.67
469.32	23943.68
469.50	22799.16
469.69	23513.02
469.87	22932.57
470.05	22801.50
470.23	22895.12
470.41	22712.56
470.59	23377.27
470.77	23288.33
470.95	23892.19
471.14	24432.85
471.32	24203.48
471.50	26202.30
471.68	25507.16
471.86	25226.29
472.04	25537.59
472.22	25813.77
472.40	23992.83
472.58	24100.50
472.77	23871.12
472.95	24449.24
473.13	25865.26
473.31	24828.40
473.49	24247.95
473.67	25057.78
473.85	25357.36
474.03	26146.12
474.21	25792.70
474.39	26429.33
474.57	26595.51
474.75	26331.03
474.93	25891.01
475.12	25214.59
475.30	25233.32
475.48	25331.62
475.66	26183.57
475.84	25495.46
476.02	25247.36
476.20	25223.95
476.38	25682.70
476.56	26902.12
476.74	26389.54
476.92	26773.39
477.10	26969.99
477.28	27695.56
477.46	27639.39
477.64	28472.62
477.82	27864.08
478.00	28203.46
478.18	27651.09
478.36	27311.71
478.54	27709.60
478.72	27903.87
478.90	28701.99
479.08	29429.90
479.26	29418.19
479.44	29338.62
479.62	29043.71
479.80	29184.14
479.98	29254.36
480.16	29427.56
480.34	29685.01
480.52	29443.94
480.70	30068.86
480.88	29874.60
481.06	30272.49
481.24	30871.67
481.41	30771.02
481.59	31496.59
481.77	31545.74
481.95	31129.12
482.13	31454.46
482.31	30721.87
482.49	31171.25
482.67	31576.17
482.85	31665.11
483.03	32184.71
483.21	32261.94
483.39	32268.97
483.57	31578.51
483.74	32095.77
483.92	31718.94
484.10	31978.74
484.28	32741.75
484.46	33694.35
484.64	32994.53
484.82	32507.70
485.00	31786.82
485.18	30881.03
485.35	30618.89
485.53	27625.34
485.71	26071.23
485.89	25525.88
486.07	27278.94
486.25	29898.00
486.43	31056.57
486.61	31505.95
486.78	31871.07
486.96	31461.48
487.14	32531.11
487.32	33673.29
487.50	34192.89
487.68	35044.84
487.85	35501.25
488.03	35810.20
488.21	35421.67
488.39	34232.68
488.57	33813.72
488.75	32811.97
488.92	37942.42
489.10	36601.30
489.28	38492.45
489.46	38370.74
489.64	38679.69
489.81	38803.74
489.99	38291.16
490.17	38286.48
490.35	39115.03
490.53	38169.46
490.70	36823.65
490.88	37827.74
491.06	38440.96
491.24	38532.24
491.41	37553.90
491.59	35543.38
491.77	34614.18
491.95	35903.82
492.13	37233.24
492.30	38967.58
492.48	39503.56
492.66	40177.64
492.84	39229.72
493.01	39447.39
493.19	38878.64
493.37	39047.16
493.54	38185.84
493.72	39363.13
493.90	40659.79
494.08	41364.29
494.25	41736.43
494.43	41914.31
494.61	42239.65
494.79	41986.87
494.96	42010.28
495.14	41067.04
495.32	39868.69
495.49	39030.77
495.67	41139.60
495.85	42380.08
496.02	42618.81
496.20	43187.56
496.38	42148.37
496.55	42206.88
496.73	42887.98
496.91	42850.53
497.09	43730.57
497.26	43529.28
497.44	42422.21
497.62	42047.72
497.79	41106.83
497.97	39412.28
498.14	40360.20
498.32	41359.61
498.50	42216.24
498.67	42948.83
498.85	42691.37
499.03	43208.63
499.20	43433.32
499.38	43667.37
499.56	42918.40
499.73	42569.66
499.91	42024.32
500.08	41570.25
500.26	40720.64
500.44	40931.29
500.61	41748.14
500.79	41006.19
500.97	41102.15
501.14	41137.26
501.32	40236.15
501.49	40659.79
501.67	41170.02
501.84	42071.13
502.02	41708.35
502.20	42864.57
502.37	42267.73
502.55	42527.53
502.72	43454.39
502.90	44041.86
503.07	43611.20
503.25	42707.76
503.43	41212.15
503.60	40442.12
503.78	39927.20
503.95	40629.36
504.13	42478.38
504.30	43550.35
504.48	43463.75
504.65	43145.44
504.83	43192.25
505.01	43636.95
505.18	43852.28
505.36	44722.96
505.53	45521.08
505.71	44818.92
505.88	46028.98
506.06	43995.05
506.23	43847.60
506.41	42962.87
506.58	43840.57
506.76	43580.78
506.93	43831.21
507.11	43210.97
507.28	43098.62
507.46	42405.83
507.63	41450.89
507.81	41698.98
507.98	42143.69
508.16	43068.20
508.33	44182.29
508.50	44062.93
508.68	44921.90
508.85	45661.51
509.03	45280.00
509.20	44641.04
509.38	43988.03
509.55	42995.64
509.73	43494.18
509.90	44210.38
510.08	44034.84
510.25	44149.53
510.42	43770.36
510.60	43440.34
510.77	44507.63
510.95	45064.67
511.12	44837.64
511.30	45638.11
511.47	45968.12
511.64	45837.05
511.82	44879.77
511.99	43945.90
512.17	43407.58
512.34	42733.50
512.51	42988.62
512.69	43627.59
512.86	43700.14
513.04	43784.40
513.21	43971.64
513.38	43285.87
513.56	42614.13
513.73	41947.08
513.90	42206.88
514.08	42478.38
514.25	42693.71
514.43	43070.54
514.60	43185.22
514.77	43246.08
514.95	43728.23
515.12	43672.06
515.29	44018.46
515.47	44659.76
515.64	44921.90
515.81	44538.05
515.99	43910.79
516.16	41202.79
516.33	38237.33
516.51	36451.50
516.68	35716.58
516.85	35505.93
517.03	36172.98
517.20	39545.69
517.37	42117.94
517.54	43662.69
517.72	42141.35
517.89	39021.41
518.06	35892.12
518.24	38251.38
518.41	40809.58
518.58	41792.61
518.75	41596.00
518.93	41965.81
519.10	42293.48
519.27	42251.35
519.45	43075.22
519.62	43775.04
519.79	44807.22
519.96	44154.21
520.14	43276.51
520.31	42667.97
520.48	42066.45
520.65	43131.39
520.83	43819.51
521.00	44563.80
521.17	44322.72
521.34	43438.00
521.52	44177.61
521.69	44872.75
521.86	45502.35
522.03	44406.98
522.20	43648.65
522.38	41036.61
522.55	41858.14
522.72	42258.37
522.89	43009.68
523.07	43824.19
523.24	44437.41
523.41	44528.69
523.58	45411.07
523.75	45600.66
523.92	45570.23
524.10	45523.42
524.27	45514.06
524.44	45003.82
524.61	45448.52
524.78	44708.91
524.96	44818.92
525.13	44877.43
525.30	45530.44
525.47	45769.18
525.64	45010.84
525.81	43775.04
525.98	42176.45
526.16	40142.53
526.33	39112.69
526.50	38597.77
526.67	38368.40
526.84	39365.47
527.01	40156.57
527.18	41701.32
527.36	42927.77
527.53	44350.81
527.70	44940.63
527.87	43842.92
528.04	43349.06
528.21	43807.81
528.38	45319.79
528.55	46202.18
528.72	46710.07
528.89	46953.49
529.07	45872.16
529.24	44683.17
529.41	44282.94
529.58	43660.35
529.75	43367.79
529.92	44367.20
530.09	44818.92
530.26	45661.51
530.43	45785.56
530.60	45907.27
530.77	45663.85
530.94	46471.34
531.11	45551.51
531.28	45024.89
531.46	44858.71
531.63	45233.19
531.80	44629.34
531.97	44374.22
532.14	42642.22
532.31	42040.70
532.48	40891.50
532.65	41837.08
532.82	42026.66
532.99	43873.34
533.16	44453.79
533.33	44779.13
533.50	44751.04
533.67	43091.60
533.84	43510.56
534.01	43377.15
534.18	43786.74
534.35	44208.04
534.52	43845.26
534.69	44772.11
534.86	44760.40
535.03	45502.35
535.20	45867.48
535.37	46646.88
535.54	46684.33
535.71	45567.89
535.88	45841.73
536.05	44231.44
536.22	44123.78
536.38	43257.78
536.55	42862.23
536.72	42752.23
536.89	41998.57
537.06	43372.47
537.23	44439.75
537.40	44402.30
537.57	44966.37
537.74	44891.48
537.91	44690.19
538.08	44711.25
538.25	45081.06
538.42	45287.03
538.59	44912.54
538.75	43941.22
538.92	43840.57
539.09	43992.71
539.26	43531.62
539.43	44135.48
539.60	43702.48
539.77	44554.44
539.94	44701.89
540.11	43138.41
540.28	43253.10
540.44	43491.83
540.61	43672.06
540.78	44900.84
540.95	46052.38
541.12	47208.61
541.29	47426.28
541.46	48982.73
541.62	48367.17
541.79	47861.61
541.96	47051.79
542.13	46972.21
542.30	47416.91
542.47	47615.86
542.63	46476.02
542.80	46827.10
542.97	46712.41
543.14	46382.40
543.31	46649.22
543.48	47524.58
543.64	48516.96
543.81	48678.46
543.98	47906.08
544.15	47412.23
544.32	46384.74
544.48	46777.95
544.65	47316.27
544.82	47217.97
544.99	46712.41
545.16	46843.48
545.32	47051.79
545.49	51419.23
545.66	53916.58
545.83	54637.47
546.00	52580.13
546.16	49052.95
546.33	47365.42
546.50	46284.09
546.67	46209.20
546.83	45195.74
547.00	45109.14
547.17	44346.13
547.34	43056.50
547.50	43732.91
547.67	44378.90
547.84	43297.57
548.00	44680.83
548.17	44678.49
548.34	44704.23
548.51	44727.64
548.67	44917.22
548.84	44442.09
549.01	44437.41
549.18	44191.65
549.34	44208.04
549.51	43838.23
549.68	43576.09
549.84	43407.58
550.01	43058.84
550.18	44123.78
550.34	43636.95
550.51	42880.95
550.68	43583.12
550.84	41951.76
551.01	42433.91
551.18	41893.25
551.34	42873.93
551.51	43290.55
551.68	43386.51
551.84	43337.36
552.01	42422.21
552.18	42663.28
552.34	41909.63
552.51	41195.77
552.68	40797.88
552.84	41317.48
553.01	41968.15
553.18	42057.09
553.34	41776.22
553.51	41811.33
553.67	42185.82
553.84	42841.17
554.01	42167.09
554.17	42300.50
554.34	41738.77
554.51	42452.64
554.67	42225.60
554.84	41886.23
555.00	41546.85
555.17	41280.03
555.33	41343.22
555.50	40910.22
555.67	41214.49
555.83	40676.17
556.00	40100.40
556.16	42497.11
556.33	40140.19
556.50	39856.98
556.66	39536.33
556.83	39285.89
556.99	39555.05
557.16	39590.16
557.32	40069.97
557.49	40144.87
557.65	39791.45
557.82	40189.34
557.98	39697.83
558.15	39150.14
558.32	38230.31
558.48	37366.65
558.65	37610.07
558.81	38492.45
558.98	38108.60
559.14	38497.13
559.31	38391.81
559.47	39061.20
559.64	37839.44
559.80	38199.88
559.97	37509.43
560.13	38440.96
560.30	39229.72
560.46	40098.06
560.63	40179.98
560.79	40301.68
560.96	39690.80
561.12	37919.02
561.29	37202.82
561.45	37764.54
561.61	38293.50
561.78	39847.62
561.94	38347.34
562.11	37979.87
562.27	38132.01
562.44	38742.89
562.60	39016.73
562.77	39166.52
562.93	39386.54
563.10	38995.67
563.26	37593.68
563.42	38356.70
563.59	38078.18
563.75	37801.99
563.92	38237.33
564.08	38054.77
564.24	38497.13
564.41	38675.01
564.57	37708.37
564.74	37633.47
564.90	37684.97
565.07	37518.79
565.23	37053.02
565.39	36538.10
565.56	36140.21
565.72	35585.50
565.88	36046.59
566.05	36360.22
566.21	36400.01
566.38	36643.43
566.54	37141.96
566.70	37507.08
566.87	37333.89
567.03	37258.99
567.19	37682.62
567.36	37713.05
567.52	37195.79
567.68	37062.38
567.85	36416.40
568.01	35735.30
568.17	35108.04
568.34	35311.66
568.50	35641.68
568.66	35065.91
568.83	37074.09
568.99	36025.53
569.15	36559.17
569.32	36135.53
569.48	35826.58
569.64	35204.00
569.81	35400.60
569.97	35079.95
570.13	35208.68
570.30	34356.72
570.46	34003.30
570.62	33268.37
570.78	33291.78
570.95	33434.55
571.11	34988.67
571.27	34995.69
571.43	34838.87
571.60	35306.98
571.76	34955.90
571.92	35625.29
572.09	35824.24
572.25	36154.26
572.41	35639.34
572.57	35416.99
572.74	36449.16
572.90	35615.93
573.06	35112.72
573.22	35456.78
573.38	35515.29
573.55	35314.00
573.71	35627.63
573.87	35335.07
574.03	34817.81
574.20	34913.77
574.36	34724.19
574.52	34649.29
574.68	33968.19
574.84	34012.66
575.01	33247.31
575.17	33404.13
575.33	33673.29
575.49	34611.84
575.65	34120.33
575.82	34197.57
575.98	34614.18
576.14	34312.25
576.30	34979.31
576.46	36559.17
576.62	36940.68
576.79	36926.63
576.95	35674.45
577.11	34499.50
577.27	34349.70
577.43	34480.77
577.59	34059.48
577.75	33464.98
577.92	32184.71
578.08	32435.14
578.24	32629.41
578.40	33879.25
578.56	34831.85
578.72	35665.08
578.88	35875.73
579.04	35012.07
579.21	34279.49
579.37	33689.67
579.53	33741.16
579.69	34513.54
579.85	34270.12
580.01	34256.08
580.17	33684.99
580.33	33535.20
580.49	33600.73
580.65	34068.84
580.82	34031.39
580.98	33525.83
581.14	33703.71
581.30	34239.70
581.46	34256.08
581.62	34735.89
581.78	33624.14
581.94	34532.26
582.10	33965.85
582.26	34597.80
582.42	34356.72
582.58	34396.51
582.74	34174.16
582.90	34040.75
583.06	34506.52
583.22	34471.41
583.38	33986.92
583.54	34113.31
583.70	34808.45
583.86	34700.78
584.02	34366.09
584.18	34771.00
584.34	34150.76
584.50	33783.29
584.66	33354.97
584.82	32730.05
584.98	32999.21
