SpectraSuite Data File
++++++++++++++++++++++++++++++++++++
Date: Mon Oct 07 14:53:48 GMT-05:00 2013
User: price-jones
Dark Spectrum Present: No
Reference Spectrum Present: No
Number of Sampled Component Spectra: 1
Spectrometers: USB2+H05261
Integration Time (usec): 100000 (USB2+H05261)
Spectra Averaged: 1 (USB2+H05261)
Boxcar Smoothing: 0 (USB2+H05261)
Correct for Electrical Dark: No (USB2+H05261)
Strobe/Lamp Enabled: No (USB2+H05261)
Correct for Detector Non-linearity: No (USB2+H05261)
Correct for Stray Light: No (USB2+H05261)
Number of Pixels in Processed Spectrum: 2048
>>>>>Begin Processed Spectral Data<<<<<
365.73	0.00
365.92	0.00
366.12	0.00
366.32	0.00
366.52	0.00
366.72	0.00
366.91	0.00
367.11	0.00
367.31	0.00
367.51	0.00
367.70	0.00
367.90	0.00
368.10	0.00
368.30	0.00
368.49	0.00
368.69	0.00
368.89	0.00
369.09	0.00
369.28	0.00
369.48	0.00
369.68	0.00
369.87	0.00
370.07	0.00
370.27	0.00
370.47	533.64
370.66	2829.71
370.86	3267.39
371.06	3700.39
371.25	3590.38
371.45	3321.22
371.65	3007.59
371.84	2850.77
372.04	3054.40
372.24	3330.58
372.44	3241.64
372.63	3461.65
372.83	3386.76
373.03	2799.28
373.22	2569.91
373.42	2715.02
373.62	3117.59
373.81	3370.37
374.01	3351.65
374.21	3005.25
374.40	2796.94
374.60	2988.86
374.79	3337.60
374.99	3772.94
375.19	4287.86
375.38	4191.90
375.58	4053.81
375.78	3840.82
375.97	3932.10
376.17	4198.92
376.37	4100.62
376.56	4187.22
376.76	4402.55
376.95	4795.76
377.15	4802.78
377.35	5284.93
377.54	5413.66
377.74	5603.24
377.93	5589.20
378.13	5259.18
378.33	5116.41
378.52	4830.87
378.72	4741.93
378.91	4599.15
379.11	4358.08
379.31	4128.70
379.50	4367.44
379.70	4524.26
379.89	5121.09
380.09	5364.51
380.28	5357.49
380.48	5572.82
380.68	5357.49
380.87	5324.72
381.07	4905.76
381.26	4402.55
381.46	4051.47
381.65	4114.66
381.85	4004.66
382.04	3702.73
382.24	3508.46
382.43	3403.14
382.63	3379.73
382.83	3272.07
383.02	3361.01
383.22	3290.79
383.41	3300.16
383.61	3520.17
383.80	4091.26
384.00	4496.17
384.19	5081.30
384.39	5376.21
384.58	5530.69
384.78	5423.02
384.97	5301.31
385.17	4922.15
385.36	4643.62
385.56	4521.92
385.75	4685.75
385.95	5263.86
386.14	5643.03
386.34	5516.64
386.53	5334.08
386.72	4999.38
386.92	5118.75
387.11	5327.06
387.31	5621.97
387.50	5526.00
387.70	5371.53
387.89	5313.02
388.09	5259.18
388.28	5298.97
388.48	5401.96
388.67	5792.83
388.86	6270.30
389.06	6789.89
389.25	7204.17
389.45	7304.81
389.64	7211.19
389.84	7194.81
390.03	6960.75
390.22	7115.23
390.42	7173.74
390.61	7702.70
390.81	8344.01
391.00	8390.82
391.19	8252.73
391.39	7990.59
391.58	7733.13
391.78	7236.94
391.97	6949.05
392.16	6602.65
392.36	5954.32
392.55	4713.84
392.75	3777.62
392.94	3122.27
393.13	3145.68
393.33	3578.68
393.52	4589.79
393.71	5488.56
393.91	6380.30
394.10	6806.28
394.29	7421.84
394.49	8203.58
394.68	8889.35
394.88	8760.63
395.07	9041.49
395.26	9107.02
395.46	8823.82
395.65	8217.62
395.84	7328.22
396.04	6211.78
396.23	5064.92
396.42	4180.20
396.62	3857.20
396.81	4568.73
397.00	5930.92
397.19	7513.12
397.39	8837.86
397.58	9905.15
397.77	10649.44
397.97	11105.84
398.16	10909.24
398.35	11538.84
398.55	11768.21
398.74	12369.73
398.93	12496.12
399.12	12432.93
399.32	11915.67
399.51	11988.22
399.70	13163.17
399.90	12805.07
400.09	13130.41
400.28	12793.37
400.47	12732.51
400.67	13343.39
400.86	13774.05
401.05	13635.96
401.24	13998.74
401.44	14218.75
401.63	14300.67
401.82	14354.51
402.01	14207.05
402.21	14300.67
402.40	14506.64
402.59	14090.02
402.78	13310.63
402.97	12966.57
403.17	13525.96
403.36	14518.34
403.55	14988.79
403.74	15524.77
403.93	14508.98
404.13	13355.10
404.32	12957.21
404.51	13741.29
404.70	14775.80
404.89	14728.99
405.09	14398.98
405.28	14253.86
405.47	14078.32
405.66	14106.41
405.85	13919.17
406.05	13476.80
406.24	13699.16
406.43	14251.52
406.62	14759.42
406.81	14864.74
407.00	14185.99
407.20	13764.69
407.39	13783.41
407.58	14651.75
407.77	15187.74
407.96	15426.47
408.15	15744.78
408.34	15686.27
408.54	16767.60
408.73	16641.21
408.92	16563.97
409.11	16231.62
409.30	15344.55
409.49	14319.40
409.68	13355.10
409.87	12957.21
410.07	13750.65
410.26	14745.38
410.45	15665.21
410.64	16166.08
410.83	16805.05
411.02	16816.75
411.21	17867.65
411.40	17532.95
411.59	17614.87
411.78	17500.19
411.98	17252.09
412.17	17715.51
412.36	17563.38
412.55	17362.09
412.74	16989.95
412.93	16262.04
413.12	16709.08
413.31	18375.55
413.50	18134.47
413.69	18757.05
413.88	18050.21
414.07	17736.58
414.26	17781.05
414.45	18277.24
414.64	18719.60
414.83	18443.42
415.02	18120.43
415.22	18148.51
415.41	18775.78
415.60	19112.81
415.79	19784.55
415.98	20297.13
416.17	20418.83
416.36	19843.06
416.55	19482.62
416.74	18977.06
416.93	18040.85
417.12	18448.10
417.31	18686.84
417.50	18827.27
417.69	19426.45
417.88	19447.51
418.07	19246.23
418.26	19019.19
418.45	19321.12
418.64	19676.88
418.83	20589.69
419.02	20341.60
419.21	20063.07
419.39	19091.75
419.58	18132.13
419.77	18108.72
419.96	19314.10
420.15	20369.68
420.34	20760.55
420.53	21696.77
420.72	21820.81
420.91	21832.52
421.10	21511.86
421.29	21184.19
421.48	20460.96
421.67	21544.63
421.86	20802.68
422.05	19878.17
422.24	17486.14
422.43	17263.79
422.61	18991.11
422.80	20781.62
422.99	20938.43
423.18	20077.12
423.37	19491.98
423.56	19704.97
423.75	20091.16
423.94	20439.90
424.13	18909.19
424.32	19601.99
424.50	19658.16
424.69	19407.72
424.88	19477.94
425.07	19316.44
425.26	19332.82
425.45	18855.36
425.64	18654.07
425.83	18579.17
426.01	19819.66
426.20	20245.63
426.39	20049.03
426.58	18661.09
426.77	17228.68
426.96	16603.76
427.15	17247.41
427.33	18752.37
427.52	19344.53
427.71	19693.27
427.90	19332.82
428.09	19515.39
428.28	18817.91
428.46	18066.60
428.65	17963.61
428.84	18300.65
429.03	18836.63
429.22	17750.62
429.40	16601.42
429.59	15279.02
429.78	13359.78
429.97	13418.29
430.16	13694.47
430.34	13907.46
430.53	13610.22
430.72	13757.67
430.91	15587.97
431.10	17991.70
431.28	21076.52
431.47	22948.95
431.66	23185.35
431.85	21238.02
432.03	19625.39
432.22	18672.79
432.41	19501.34
432.60	21865.28
432.79	22427.01
432.97	22937.25
433.16	22640.00
433.35	20788.64
433.54	18508.96
433.72	17125.70
433.91	17774.03
434.10	19939.02
434.28	21369.09
434.47	22317.01
434.66	22195.30
434.85	21790.39
435.03	21184.19
435.22	22506.59
435.41	23377.27
435.59	23665.16
435.78	23894.53
435.97	24383.70
436.16	24566.26
436.34	24126.24
436.53	23658.14
436.72	23756.44
436.90	22560.42
437.09	22127.42
437.28	21853.58
437.46	22689.15
437.65	22555.74
437.84	21364.41
438.02	19407.72
438.21	18998.13
438.40	20362.66
438.58	21937.84
438.77	22707.88
438.96	22682.13
439.14	23695.58
439.33	24725.42
439.52	24879.89
439.70	24367.32
439.89	23761.12
440.08	23091.73
440.26	23012.15
440.45	23396.00
440.63	25366.73
440.82	26602.53
441.01	26328.69
441.19	26026.76
441.38	26501.89
441.57	27529.38
441.75	27903.87
441.94	28203.46
442.12	27667.47
442.31	28517.09
442.50	28170.69
442.68	27786.84
442.87	27583.21
443.05	27253.20
443.24	27651.09
443.43	27711.94
443.61	28999.24
443.80	28685.61
443.98	27335.12
444.17	27239.15
444.35	28989.88
444.54	28982.85
444.73	29102.22
444.91	27791.52
445.10	26906.80
445.28	25855.90
445.47	25228.63
445.65	25420.56
445.84	25979.95
446.02	27063.61
446.21	27084.68
446.39	27737.69
446.58	27548.11
446.77	28505.38
446.95	28615.39
447.14	29617.14
447.32	29577.35
447.51	28884.55
447.69	27985.79
447.88	27999.83
448.06	27978.76
448.25	28521.77
448.43	28570.92
448.62	28348.57
448.80	28107.49
448.99	28519.43
449.17	29015.62
449.36	28671.56
449.54	30094.61
449.73	30064.18
449.91	30775.70
450.10	31288.28
450.28	31889.80
450.46	31700.22
450.65	31477.86
450.83	31384.24
451.02	30885.71
451.20	30567.40
451.39	30527.61
451.57	30391.86
451.76	30195.25
451.94	30438.67
452.13	29582.03
452.31	28123.88
452.49	26998.08
452.68	27498.95
452.86	27330.44
453.05	27817.27
453.23	28631.77
453.42	29369.04
453.60	29872.26
453.78	30099.29
453.97	29895.66
454.15	29692.04
454.34	29390.11
454.52	29654.59
454.70	29015.62
454.89	29057.75
455.07	29123.29
455.26	29631.18
455.44	30679.74
455.62	31402.97
455.81	31269.56
455.99	31435.74
456.17	30852.94
456.36	31292.96
456.54	31667.45
456.73	31711.92
456.91	32421.10
457.09	32727.71
457.28	33244.97
457.46	31723.62
457.64	31463.82
457.83	30731.23
458.01	29937.79
458.19	30841.24
458.38	30742.94
458.56	31969.38
458.74	31999.80
458.93	30827.20
459.11	31250.83
459.29	31168.91
459.48	31108.06
459.66	30745.28
459.84	31161.89
460.03	31735.32
460.21	31681.49
460.39	32425.78
460.57	32606.00
460.76	32786.22
460.94	32811.97
461.12	32601.32
461.31	32470.25
461.49	32378.97
461.67	32079.38
461.85	33762.23
462.04	33766.91
462.22	33464.98
462.40	33083.47
462.59	33095.18
462.77	33001.55
462.95	33202.84
463.13	33177.09
463.32	32706.65
463.50	32362.59
463.68	32481.95
463.86	32510.04
464.05	31871.07
464.23	31267.22
464.41	31262.54
464.59	30462.07
464.78	32290.03
464.96	31892.14
465.14	31541.06
465.32	32439.82
465.50	33432.21
465.69	33729.46
465.87	33085.81
466.05	32180.03
466.23	30590.80
466.41	30040.78
466.60	31079.97
466.78	30403.56
466.96	31482.55
467.14	32299.39
467.32	32566.21
467.51	32606.00
467.69	31180.62
467.87	31723.62
468.05	32203.43
468.23	32439.82
468.41	32173.00
468.60	32393.01
468.78	33116.24
468.96	31814.90
469.14	32863.46
469.32	33034.32
469.50	31730.64
469.69	31740.00
469.87	31079.97
470.05	31248.49
470.23	31414.67
470.41	31175.94
470.59	31988.10
470.77	32013.85
470.95	32460.89
471.14	32545.15
471.32	32725.37
471.50	34902.07
471.68	34911.43
471.86	35262.51
472.04	35414.65
472.22	35920.20
472.40	33376.04
472.58	33256.67
472.77	32849.42
472.95	33467.32
473.13	34892.71
473.31	33139.65
473.49	33970.54
473.67	34609.50
473.85	34955.90
474.03	35393.58
474.21	35889.77
474.39	35803.17
474.57	36231.49
474.75	35950.63
474.93	35915.52
475.12	35187.61
475.30	35447.41
475.48	35414.65
475.66	35849.99
475.84	35405.28
476.02	34689.08
476.20	34424.60
476.38	35302.30
476.56	36217.45
476.74	36851.73
476.92	36844.71
477.10	37572.62
477.28	38789.70
477.46	38630.54
477.64	38925.45
477.82	38993.32
478.00	39468.45
478.18	38965.24
478.36	38363.72
478.54	38164.78
478.72	39035.45
478.90	39992.73
479.08	40662.13
479.26	40863.41
479.44	41242.58
479.62	41083.42
479.80	40706.60
479.98	40762.77
480.16	41549.19
480.34	40870.43
480.52	41390.03
480.70	41317.48
480.88	41668.56
481.06	42190.50
481.24	42731.16
481.41	43606.52
481.59	43966.96
481.77	43983.35
481.95	43391.19
482.13	42895.00
482.31	42852.87
482.49	43627.59
482.67	43639.29
482.85	43917.81
483.03	43931.86
483.21	44865.73
483.39	45029.57
483.57	44217.40
483.74	43707.16
483.92	43697.80
484.10	44294.64
484.28	45272.98
484.46	45406.39
484.64	46094.51
484.82	45106.80
485.00	44512.31
485.18	44088.67
485.35	42857.55
485.53	39447.39
485.71	36112.13
485.89	35185.27
486.07	37078.77
486.25	40346.15
486.43	43070.54
486.61	43618.22
486.78	43498.86
486.96	43817.17
487.14	45647.47
487.32	45911.95
487.50	47407.55
487.68	48123.75
487.85	48657.40
488.03	48545.05
488.21	48144.82
488.39	47206.26
488.57	46974.55
488.75	46597.73
488.92	47749.27
489.10	49752.77
489.28	51297.52
489.46	52327.36
489.64	51480.08
489.81	52222.03
489.99	51730.52
490.17	51753.93
490.35	52254.80
490.53	51524.55
490.70	51461.36
490.88	51126.66
491.06	52528.64
491.24	52172.88
491.41	51267.09
491.59	49514.03
491.77	47934.17
491.95	49593.61
492.13	50976.87
492.30	52114.37
492.48	53261.23
492.66	53656.78
492.84	53769.13
493.01	53488.26
493.19	52809.51
493.37	52486.51
493.54	52137.77
493.72	52886.74
493.90	54014.88
494.08	54635.13
494.25	55007.27
494.43	55189.83
494.61	55744.54
494.79	55482.40
494.96	55416.86
495.14	54857.48
495.32	53748.06
495.49	53298.68
495.67	54152.97
495.85	55697.73
496.02	55987.95
496.20	56058.17
496.38	55456.65
496.55	55196.85
496.73	55838.16
496.91	55913.06
497.09	56671.39
497.26	56769.69
497.44	56086.26
497.62	55690.71
497.79	54852.80
497.97	53317.40
498.14	53471.88
498.32	55051.74
498.50	55695.39
498.67	56257.12
498.85	56168.18
499.03	56486.49
499.20	56451.38
499.38	56690.12
499.56	56371.80
499.73	55906.04
499.91	55653.26
500.08	55070.46
500.26	54382.35
500.44	54894.92
500.61	55545.59
500.79	55400.48
500.97	54848.11
501.14	54894.92
501.32	54681.94
501.49	54639.81
501.67	55103.23
501.84	55473.04
502.02	55812.41
502.20	56123.71
502.37	56322.65
502.55	56170.52
502.72	56816.50
502.90	57233.12
503.07	56980.34
503.25	56750.97
503.43	55522.19
503.60	55042.38
503.78	54253.62
503.95	54990.89
504.13	56140.09
504.30	57055.24
504.48	56966.30
504.65	56652.67
504.83	56547.34
505.01	57125.46
505.18	57354.83
505.36	58061.67
505.53	58106.14
505.71	58365.94
505.88	58522.76
506.06	57813.57
506.23	57642.71
506.41	57223.76
506.58	57247.16
506.76	57375.89
506.93	57111.41
507.11	56610.54
507.28	57139.50
507.46	56783.74
507.63	56165.84
507.81	55751.56
507.98	56102.64
508.16	56809.48
508.33	57546.75
508.50	57836.98
508.68	58000.82
508.85	58396.37
509.03	58625.74
509.20	58174.02
509.38	57626.33
509.55	56849.27
509.73	56968.64
509.90	57418.02
510.08	57556.11
510.25	57780.81
510.42	57551.43
510.60	57261.21
510.77	57485.90
510.95	58220.83
511.12	58429.13
511.30	58684.25
511.47	58754.47
511.64	58827.02
511.82	58735.74
511.99	57666.12
512.17	57396.96
512.34	56858.63
512.51	57015.45
512.69	57415.68
512.86	57167.58
513.04	57722.29
513.21	57970.39
513.38	57256.53
513.56	56949.92
513.73	56296.91
513.90	56699.48
514.08	56727.56
514.25	57020.13
514.43	57052.90
514.60	56968.64
514.77	57324.40
514.95	57488.24
515.12	57315.04
515.29	57701.23
515.47	58080.39
515.64	58031.24
515.81	57916.56
515.99	57509.30
516.16	56013.70
516.33	53542.10
516.51	51854.57
516.68	51009.64
516.85	50836.44
517.03	50918.35
517.20	53638.06
517.37	56334.35
517.54	57696.55
517.72	57041.20
517.89	54843.43
518.06	52212.67
518.24	52320.34
518.41	54323.83
518.58	55976.25
518.75	56224.35
518.93	56411.59
519.10	56289.88
519.27	56823.53
519.45	57027.15
519.62	57698.89
519.79	57886.13
519.96	57778.46
520.14	57279.93
520.31	56594.15
520.48	56481.81
520.65	56828.21
520.83	57757.40
521.00	58241.89
521.17	57907.19
521.34	57443.77
521.52	57829.96
521.69	58115.50
521.86	58789.58
522.03	58347.21
522.20	57200.35
522.38	56123.71
522.55	56011.36
522.72	56631.60
522.89	57209.71
523.07	57013.11
523.24	57588.88
523.41	58262.96
523.58	58520.41
523.75	59037.67
523.92	58908.94
524.10	59004.91
524.27	58773.19
524.44	58550.84
524.61	58562.54
524.78	58267.64
524.96	58120.18
525.13	58300.40
525.30	58485.31
525.47	58976.82
525.64	58810.64
525.81	58244.23
525.98	56793.10
526.16	55007.27
526.33	54412.77
526.50	54244.26
526.67	53659.12
526.84	54583.63
527.01	55304.52
527.18	56362.44
527.36	57148.86
527.53	58143.59
527.70	58312.11
527.87	57766.76
528.04	57221.42
528.21	57724.63
528.38	58333.17
528.55	58836.39
528.72	59164.06
528.89	59290.45
529.07	59131.29
529.24	58431.47
529.41	57916.56
529.58	57251.84
529.75	57609.95
529.92	57853.36
530.09	58171.67
530.26	58672.55
530.43	58972.14
530.60	58927.67
530.77	59220.23
530.94	59398.12
531.11	59044.69
531.28	58436.16
531.46	58398.71
531.63	58557.86
531.80	58337.85
531.97	57935.28
532.14	57205.03
532.31	56198.60
532.48	55297.50
532.65	55662.62
532.82	56378.82
532.99	57726.97
533.16	57834.64
533.33	58213.80
533.50	58319.13
533.67	57595.90
533.84	57293.97
534.01	57521.01
534.18	57361.85
534.35	57773.78
534.52	57631.01
534.69	57759.74
534.86	58330.83
535.03	58295.72
535.20	58805.96
535.37	59271.73
535.54	59468.33
535.71	58878.52
535.88	58597.65
536.05	57982.09
536.22	57588.88
536.38	57223.76
536.55	56832.89
536.72	56360.10
536.89	56257.12
537.06	57015.45
537.23	57907.19
537.40	58014.86
537.57	58316.79
537.74	58010.18
537.91	58080.39
538.08	57932.94
538.25	57829.96
538.42	58136.57
538.59	57963.37
538.75	57181.63
538.92	57113.75
539.09	56842.25
539.26	56711.18
539.43	56427.98
539.60	56645.65
539.77	56708.84
539.94	56610.54
540.11	55887.31
540.28	55084.51
540.44	55475.38
540.61	55578.36
540.78	56079.24
540.95	56360.10
541.12	56844.59
541.29	57097.37
541.46	57521.01
541.62	57286.95
541.79	57137.16
541.96	56516.92
542.13	56535.64
542.30	56989.70
542.47	57207.37
542.63	56870.34
542.80	56715.86
542.97	56605.86
543.14	56598.83
543.31	56666.71
543.48	57095.03
543.64	57946.98
543.81	58152.95
543.98	57888.47
544.15	57375.89
544.32	56748.63
544.48	57176.95
544.65	57289.29
544.82	57750.38
544.99	57425.04
545.16	57134.82
545.32	56591.81
545.49	57422.70
545.66	58052.31
545.83	57642.71
546.00	56954.60
546.16	56774.37
546.33	56891.40
546.50	56638.62
546.67	57476.54
546.83	56905.44
547.00	56949.92
547.17	56144.77
547.34	55980.93
547.50	55777.31
547.67	56210.31
547.84	56016.04
548.00	56547.34
548.17	56924.17
548.34	56851.61
548.51	56959.28
548.67	57038.86
548.84	56914.81
549.01	56975.66
549.18	56870.34
549.34	57153.54
549.51	56975.66
549.68	56781.40
549.84	56446.70
550.01	56416.27
550.18	56233.71
550.34	56437.34
550.51	56573.09
550.68	56233.71
550.84	55999.66
551.01	56240.73
551.18	56266.48
551.34	56219.67
551.51	56535.64
551.68	56849.27
551.84	56952.26
552.01	56837.57
552.18	56467.76
552.34	55730.50
552.51	55510.49
552.68	55047.06
552.84	55952.85
553.01	55938.80
553.18	55590.06
553.34	56100.30
553.51	56058.17
553.67	56392.87
553.84	56582.45
554.01	56392.87
554.17	56069.87
554.34	56336.69
554.51	56474.79
554.67	56727.56
554.84	56575.43
555.00	56261.80
555.17	55835.82
555.33	56116.68
555.50	55906.04
555.67	55896.67
555.83	55718.79
556.00	55646.24
556.16	55517.51
556.33	55077.49
556.50	55063.44
556.66	55079.83
556.83	54728.75
556.99	54843.43
557.16	55075.15
557.32	55393.46
557.49	55557.30
557.65	55447.29
557.82	55639.22
557.98	55433.25
558.15	54817.69
558.32	54169.36
558.48	53228.46
558.65	53205.06
558.81	53600.61
558.98	53881.47
559.14	54398.73
559.31	54405.75
559.47	54609.38
559.64	53785.51
559.80	53673.16
559.97	53588.91
560.13	54349.58
560.30	55199.19
560.46	55461.33
560.63	55971.57
560.79	55920.08
560.96	55318.56
561.12	54087.44
561.29	53249.53
561.45	53640.40
561.61	54344.90
561.78	54422.14
561.94	54260.64
562.11	54171.70
562.27	54234.89
562.44	54363.62
562.60	54663.21
562.77	54820.03
562.93	54923.01
563.10	54618.74
563.26	54059.35
563.42	54363.62
563.59	53797.21
563.75	54096.80
563.92	54031.27
564.08	53790.19
564.24	54340.22
564.41	54253.62
564.57	54115.53
564.74	53860.41
564.90	53719.98
565.07	53413.37
565.23	53308.04
565.39	52523.96
565.56	52552.05
565.72	52371.83
565.88	52683.12
566.05	52631.63
566.21	52762.70
566.38	53071.65
566.54	53275.27
566.70	53750.40
566.87	53715.29
567.03	53975.09
567.19	53883.81
567.36	53759.76
567.52	53556.14
567.68	53303.36
567.85	52643.33
568.01	52362.46
568.17	52245.44
568.34	52107.35
568.50	51978.62
568.66	51826.48
568.83	52519.28
568.99	52540.35
569.15	52816.53
569.32	52760.36
569.48	52231.40
569.64	52435.02
569.81	51999.68
569.97	51894.36
570.13	51805.42
570.30	51632.22
570.46	50784.94
570.62	49940.01
570.78	49689.57
570.95	50241.94
571.11	51313.90
571.27	51356.03
571.43	51831.16
571.60	52072.24
571.76	52130.75
571.92	52542.69
572.09	52399.91
572.25	52610.56
572.41	52594.18
572.57	52105.01
572.74	52491.19
572.90	52310.97
573.06	51971.60
573.22	51728.18
573.38	52065.22
573.55	52191.61
573.71	52231.40
573.87	51964.57
574.03	51772.65
574.20	51966.91
574.36	51580.73
574.52	51519.87
574.68	50953.46
574.84	50808.35
575.01	50057.04
575.17	50096.83
575.33	50564.93
575.49	50728.77
575.65	50459.61
575.82	50602.38
575.98	50326.20
576.14	50686.64
576.30	51222.62
576.46	50843.46
576.62	51042.40
576.79	50890.27
576.95	50562.59
577.11	50405.78
577.27	50513.44
577.43	50712.39
577.59	50471.31
577.75	49923.63
577.92	48788.47
578.08	48919.54
578.24	48774.42
578.40	49001.46
578.56	49584.25
578.72	49757.45
578.88	49914.26
579.04	50365.99
579.21	50035.97
579.37	50169.38
579.53	50087.46
579.69	50103.85
579.85	50227.90
580.01	50272.37
580.17	49525.74
580.33	49724.68
580.49	49631.06
580.65	49841.71
580.82	49975.12
580.98	50127.25
581.14	49942.35
581.30	50059.38
581.46	49787.88
581.62	50241.94
581.78	50157.68
581.94	50438.54
582.10	50192.79
582.26	50253.64
582.42	49965.76
582.58	50466.63
582.74	50073.42
582.90	49907.24
583.06	50206.83
583.22	49752.77
583.38	49921.29
583.54	49930.65
583.70	49923.63
583.86	49921.29
584.02	49752.77
584.18	49523.40
584.34	49610.00
584.50	49310.41
584.66	49499.99
584.82	49036.56
584.98	48835.28
585.14	48406.96
585.30	47800.76
