SpectraSuite Data File
++++++++++++++++++++++++++++++++++++
Date: Mon Oct 07 14:53:40 GMT-05:00 2013
User: price-jones
Dark Spectrum Present: No
Reference Spectrum Present: No
Number of Sampled Component Spectra: 1
Spectrometers: USB2+H05261
Integration Time (usec): 100000 (USB2+H05261)
Spectra Averaged: 1 (USB2+H05261)
Boxcar Smoothing: 0 (USB2+H05261)
Correct for Electrical Dark: No (USB2+H05261)
Strobe/Lamp Enabled: No (USB2+H05261)
Correct for Detector Non-linearity: No (USB2+H05261)
Correct for Stray Light: No (USB2+H05261)
Number of Pixels in Processed Spectrum: 2048
>>>>>Begin Processed Spectral Data<<<<<
365.73	0.00
365.92	0.00
366.12	0.00
366.32	0.00
366.52	0.00
366.72	0.00
366.91	0.00
367.11	0.00
367.31	0.00
367.51	0.00
367.70	0.00
367.90	0.00
368.10	0.00
368.30	0.00
368.49	0.00
368.69	0.00
368.89	0.00
369.09	0.00
369.28	0.00
369.48	0.00
369.68	0.00
369.87	0.00
370.07	0.00
370.27	0.00
370.47	358.10
370.66	2293.72
370.86	2724.38
371.06	2876.52
371.25	3056.74
371.45	2607.36
371.65	2415.43
371.84	2214.15
372.04	2300.75
372.24	2621.40
372.44	2722.04
372.63	2661.19
372.83	2616.72
373.03	2253.94
373.22	2071.37
373.42	2214.15
373.62	2483.31
373.81	2719.70
374.01	2752.47
374.21	2525.44
374.40	2162.66
374.60	2326.49
374.79	2583.95
374.99	3063.76
375.19	3323.56
375.38	3384.41
375.58	3206.53
375.78	2902.26
375.97	3166.74
376.17	3293.13
376.37	3211.22
376.56	3346.97
376.76	3517.83
376.95	3906.35
377.15	4117.00
377.35	4154.45
377.54	4456.38
377.74	4510.21
377.93	4615.54
378.13	4278.50
378.33	4025.72
378.52	3824.44
378.72	3686.34
378.91	3688.68
379.11	3499.10
379.31	3410.16
379.50	3337.60
379.70	3569.32
379.89	3967.21
380.09	4346.37
380.28	4493.83
380.48	4355.74
380.68	4402.55
380.87	4145.09
381.07	4042.11
381.26	3597.40
381.46	3246.32
381.65	3222.92
381.85	3091.85
382.04	3007.59
382.24	2871.84
382.43	2633.10
382.63	2565.23
382.83	2520.76
383.02	2757.15
383.22	2668.21
383.41	2658.85
383.61	2918.65
383.80	3318.88
384.00	3719.11
384.19	4121.68
384.39	4334.67
384.58	4348.72
384.78	4355.74
384.97	4346.37
385.17	4140.41
385.36	3859.54
385.56	3742.52
385.75	3744.86
385.95	4049.13
386.14	4641.28
386.34	4533.62
386.53	4252.75
386.72	3875.93
386.92	4156.79
387.11	4292.54
387.31	4435.32
387.50	4475.10
387.70	4381.48
387.89	4252.75
388.09	4250.41
388.28	4264.46
388.48	4320.63
388.67	4657.67
388.86	5275.57
389.06	5523.66
389.25	5727.29
389.45	5832.62
389.64	5877.09
389.84	5736.65
390.03	5685.16
390.22	5689.84
390.42	5849.00
390.61	6345.19
390.81	6918.62
391.00	6942.03
391.19	6881.18
391.39	6476.26
391.58	6069.01
391.78	5603.24
391.97	5631.33
392.16	5479.19
392.36	4739.58
392.55	3915.72
392.75	3021.63
392.94	2471.61
393.13	2476.29
393.33	2792.26
393.52	3702.73
393.71	4622.56
393.91	5177.26
394.10	5502.60
394.29	6188.38
394.49	6635.42
394.68	6946.71
394.88	7131.61
395.07	7379.71
395.26	7279.07
395.46	7222.89
395.65	6806.28
395.84	6064.33
396.04	4912.78
396.23	4084.23
396.42	3353.99
396.62	3204.19
396.81	3826.78
397.00	4762.99
397.19	6169.65
397.39	7225.23
397.58	8320.60
397.77	8676.37
397.97	8922.12
398.16	9228.73
398.35	9383.21
398.55	9612.58
398.74	10167.29
398.93	10263.25
399.12	10150.90
399.32	9837.27
399.51	10015.15
399.70	10614.33
399.90	10466.88
400.09	10623.69
400.28	10619.01
400.47	10267.93
400.67	11101.16
400.86	11424.15
401.05	11405.43
401.24	11541.18
401.44	11375.00
401.63	11630.12
401.82	11641.82
402.01	11627.78
402.21	11915.67
402.40	12262.07
402.59	11433.52
402.78	10937.32
402.97	10665.82
403.17	11243.93
403.36	11786.94
403.55	12322.92
403.74	12367.39
403.93	11637.14
404.13	11119.89
404.32	10686.89
404.51	11019.24
404.70	12060.78
404.89	12011.63
405.09	11971.84
405.28	11489.69
405.47	11492.03
405.66	11431.18
405.85	11473.31
406.05	11171.38
406.24	10902.22
406.43	11419.47
406.62	11925.03
406.81	12290.15
407.00	11442.88
407.20	11274.36
407.39	11658.21
407.58	11768.21
407.77	12453.99
407.96	12713.79
408.15	13057.85
408.34	13200.62
408.54	13582.13
408.73	13722.56
408.92	13823.20
409.11	13055.51
409.30	12484.42
409.49	11960.14
409.68	11016.90
409.87	10736.04
410.07	11246.27
410.26	12226.96
410.45	12805.07
410.64	13092.96
410.83	13724.90
411.02	13968.32
411.21	14651.75
411.40	14494.94
411.59	14455.15
411.78	14406.00
411.98	14008.11
412.17	14689.20
412.36	14293.65
412.55	14253.86
412.74	13806.82
412.93	13495.53
413.12	14005.77
413.31	14927.94
413.50	15098.80
413.69	15690.95
413.88	14810.91
414.07	14490.26
414.26	14773.46
414.45	15197.10
414.64	15143.27
414.83	15342.21
415.02	14932.62
415.22	14949.00
415.41	15578.61
415.60	15742.44
415.79	16512.48
415.98	16849.52
416.17	16592.06
416.36	16468.01
416.55	16264.38
416.74	15566.90
416.93	15019.22
417.12	15166.67
417.31	15492.01
417.50	15473.28
417.69	16137.99
417.88	16201.19
418.07	15712.02
418.26	15796.28
418.45	15618.39
418.64	16327.58
418.83	16833.13
419.02	16858.88
419.21	16535.88
419.39	15997.56
419.58	15108.16
419.77	15220.50
419.96	15815.00
420.15	16996.97
420.34	17057.82
420.53	17862.97
420.72	18302.99
420.91	17743.60
421.10	17671.04
421.29	17827.86
421.48	16837.81
421.67	17614.87
421.86	17652.32
422.05	16109.91
422.24	14504.30
422.43	14501.96
422.61	15840.75
422.80	17174.85
422.99	17160.81
423.18	16610.78
423.37	16327.58
423.56	16262.04
423.75	16353.32
423.94	16826.11
424.13	16011.60
424.32	16046.71
424.50	16437.58
424.69	15826.70
424.88	16250.34
425.07	15889.90
425.26	15882.88
425.45	16039.69
425.64	15843.09
425.83	15506.05
426.01	16479.71
426.20	16905.69
426.39	16910.37
426.58	15377.32
426.77	14523.02
426.96	14075.98
427.15	14471.53
427.33	15758.83
427.52	16248.00
427.71	16264.38
427.90	16163.74
428.09	15901.60
428.28	15618.39
428.46	15040.28
428.65	14693.88
428.84	14820.27
429.03	15590.31
429.22	14483.24
429.40	13944.91
429.59	12610.81
429.78	11052.01
429.97	11314.15
430.16	11236.91
430.34	11377.34
430.53	11400.75
430.72	11791.62
430.91	12828.48
431.10	15007.52
431.28	17893.40
431.47	19248.57
431.66	19646.46
431.85	17748.28
432.03	16299.49
432.22	15641.80
432.41	15953.09
432.60	18040.85
432.79	18658.75
432.97	19372.61
433.16	18766.42
433.35	17177.19
433.54	15510.73
433.72	14633.03
433.91	15026.24
434.10	16648.23
434.28	17748.28
434.47	18899.83
434.66	18595.56
434.85	17984.68
435.03	18139.15
435.22	18228.09
435.41	19714.33
435.59	19686.25
435.78	19798.59
435.97	20362.66
436.16	20622.46
436.34	20170.74
436.53	19735.40
436.72	19864.13
436.90	19063.66
437.09	18317.03
437.28	18569.81
437.46	18855.36
437.65	18913.87
437.84	17577.42
438.02	16341.62
438.21	16390.77
438.40	17041.44
438.58	18747.69
438.77	19140.90
438.96	19250.91
439.14	20002.22
439.33	20327.55
439.52	20861.19
439.70	20517.14
439.89	19630.07
440.08	19435.81
440.26	19660.50
440.45	19831.36
440.63	21479.10
440.82	22314.67
441.01	22113.38
441.19	21886.35
441.38	21926.14
441.57	22852.99
441.75	23424.08
441.94	23688.56
442.12	23154.92
442.31	23728.35
442.50	23552.81
442.68	23473.23
442.87	22927.89
443.05	22761.71
443.24	23419.40
443.43	23548.13
443.61	24030.28
443.80	24713.72
443.98	22981.72
444.17	22738.30
444.35	24395.40
444.54	24694.99
444.73	24507.75
444.91	23377.27
445.10	22537.02
445.28	21453.35
445.47	21322.28
445.65	21568.04
445.84	22031.46
446.02	22820.22
446.21	23374.93
446.39	23070.66
446.58	23466.21
446.77	23651.11
446.95	23924.96
447.14	25008.62
447.32	25397.15
447.51	24844.79
447.69	23459.19
447.88	23145.56
448.06	23300.03
448.25	24390.72
448.43	24554.56
448.62	23796.23
448.80	23950.70
448.99	23960.06
449.17	24224.54
449.36	24095.82
449.54	25303.53
449.73	25184.16
449.91	25654.61
450.10	26611.89
450.28	27164.26
450.46	26895.10
450.65	26590.83
450.83	26473.80
451.02	26188.25
451.20	25575.03
451.39	26068.89
451.57	25546.95
451.76	25460.35
451.94	25624.18
452.13	25326.94
452.31	24159.01
452.49	23009.81
452.68	23019.17
452.86	22878.74
453.05	23517.70
453.23	24182.42
453.42	24758.19
453.60	25249.70
453.78	25523.54
453.97	25249.70
454.15	25296.51
454.34	25029.69
454.52	25167.78
454.70	24294.76
454.89	24912.66
455.07	25083.52
455.26	25156.08
455.44	25991.65
455.62	26661.04
455.81	27019.14
455.99	26288.90
456.17	26146.12
456.36	26251.45
456.54	27042.55
456.73	26916.16
456.91	27407.67
457.09	27229.79
457.28	27992.81
457.46	26782.75
457.64	26845.94
457.83	25823.13
458.01	25181.82
458.19	26380.18
458.38	26192.94
458.56	27227.45
458.74	26714.87
458.93	26244.43
459.11	26321.66
459.29	26092.29
459.48	26518.27
459.66	26340.39
459.84	26408.26
460.03	26960.63
460.21	26595.51
460.39	27618.32
460.57	27330.44
460.76	27583.21
460.94	27754.07
461.12	27852.38
461.31	27718.96
461.49	27723.65
461.67	27358.52
461.85	28456.23
462.04	28196.43
462.22	28734.76
462.40	28458.57
462.59	28283.03
462.77	28500.70
462.95	28390.70
463.13	27971.74
463.32	27611.30
463.50	27491.93
463.68	28116.86
463.86	27709.60
464.05	27267.24
464.23	26661.04
464.41	26759.34
464.59	26160.17
464.78	27316.39
464.96	27391.29
465.14	26855.31
465.32	27381.93
465.50	28400.06
465.69	28687.95
465.87	28102.81
466.05	27527.04
466.23	26218.68
466.41	25099.90
466.60	26202.30
466.78	26382.52
466.96	26602.53
467.14	27154.90
467.32	27751.73
467.51	27707.26
467.69	26656.36
467.87	27105.74
468.05	27386.61
468.23	27318.73
468.41	27040.21
468.60	27494.27
468.78	27740.03
468.96	27601.94
469.14	27920.25
469.32	27606.62
469.50	26710.19
469.69	27194.68
469.87	26581.46
470.05	26719.56
470.23	26410.60
470.41	26703.17
470.59	27077.66
470.77	27480.23
470.95	27960.04
471.14	28435.17
471.32	27843.01
471.50	29567.99
471.68	29905.02
471.86	30057.16
472.04	30206.95
472.22	30190.57
472.40	28961.79
472.58	28369.63
472.77	28037.28
472.95	28854.12
473.13	29773.95
473.31	28374.31
473.49	29163.08
473.67	29476.71
473.85	29743.53
474.03	30520.59
474.21	30279.51
474.39	30913.80
474.57	30974.65
474.75	31009.76
474.93	30735.92
475.12	30073.54
475.30	29855.87
475.48	30225.68
475.66	30719.53
475.84	30309.94
476.02	30199.93
476.20	29647.57
476.38	30188.23
476.56	31105.72
476.74	31445.10
476.92	31538.72
477.10	32098.11
477.28	33013.26
477.46	33120.92
477.64	33088.15
477.82	33380.72
478.00	33874.57
478.18	33191.14
478.36	33132.62
478.54	33137.30
478.72	33710.74
478.90	33888.62
479.08	34754.61
479.26	35407.62
479.44	35407.62
479.62	35143.14
479.80	35033.14
479.98	35124.42
480.16	35363.15
480.34	35304.64
480.52	35913.18
480.70	35632.32
480.88	35742.32
481.06	36891.52
481.24	37055.36
481.41	37628.79
481.59	38047.75
481.77	38160.09
481.95	37303.46
482.13	37216.86
482.31	37275.37
482.49	37926.04
482.67	37940.08
482.85	38073.49
483.03	38330.95
483.21	38838.85
483.39	39182.91
483.57	37827.74
483.74	37500.06
483.92	37862.85
484.10	38150.73
484.28	39662.72
484.46	39356.11
484.64	39821.87
484.82	39370.15
485.00	38508.83
485.18	38038.39
485.35	36931.31
485.53	34174.16
485.71	30918.48
485.89	30623.57
486.07	32077.04
486.25	35016.75
486.43	36893.86
486.61	37865.19
486.78	37715.39
486.96	37979.87
487.14	38766.29
487.32	40416.37
487.50	41567.91
487.68	42494.77
487.85	43264.80
488.03	42946.49
488.21	42288.80
488.39	41675.58
488.57	41184.07
488.75	40627.02
488.92	41783.24
489.10	44053.56
489.28	45928.33
489.46	46906.68
489.64	46667.94
489.81	46817.74
489.99	46141.32
490.17	46302.82
490.35	46649.22
490.53	46419.84
490.70	45490.65
490.88	45205.11
491.06	47044.77
491.24	46595.38
491.41	45652.15
491.59	43522.26
491.77	42244.33
491.95	43665.03
492.13	45195.74
492.30	46916.04
492.48	47959.92
492.66	48538.03
492.84	48509.94
493.01	48100.35
493.19	47318.61
493.37	46857.52
493.54	46806.03
493.72	47704.80
493.90	49069.33
494.08	49689.57
494.25	50199.81
494.43	50560.25
494.61	50953.46
494.79	51091.55
494.96	50660.90
495.14	49996.18
495.32	48739.32
495.49	47866.30
495.67	49514.03
495.85	51145.39
496.02	51765.63
496.20	51267.09
496.38	50838.78
496.55	50660.90
496.73	51311.56
496.91	51482.42
497.09	52233.74
497.26	52428.00
497.44	51756.27
497.62	51224.96
497.79	50361.31
497.97	48388.24
498.14	48905.49
498.32	50005.55
498.50	51271.78
498.67	51863.93
498.85	51774.99
499.03	52034.79
499.20	52589.50
499.38	52505.24
499.56	52193.95
499.73	51739.88
499.91	51133.68
500.08	50220.87
500.26	49703.62
500.44	50354.29
500.61	51442.63
500.79	51054.11
500.97	50408.12
501.14	50113.21
501.32	49876.82
501.49	49832.35
501.67	49982.14
501.84	51255.39
502.02	51288.16
502.20	51863.93
502.37	51973.94
502.55	51646.26
502.72	52882.06
502.90	53102.07
503.07	52825.89
503.25	52226.71
503.43	51192.20
503.60	50630.47
503.78	49553.82
503.95	50174.06
504.13	51817.12
504.30	53120.80
504.48	52818.87
504.65	52243.10
504.83	52399.91
505.01	53095.05
505.18	53476.56
505.36	54232.55
505.53	54232.55
505.71	54253.62
505.88	54351.92
506.06	53645.08
506.23	53525.71
506.41	52800.15
506.58	53169.95
506.76	53216.76
506.93	53038.88
507.11	52886.74
507.28	53010.79
507.46	52467.79
507.63	51941.17
507.81	51590.09
507.98	51753.93
508.16	52875.04
508.33	53357.19
508.50	53879.13
508.68	54080.42
508.85	54667.89
509.03	54492.35
509.20	54583.63
509.38	53619.33
509.55	52406.94
509.73	52736.95
509.90	53537.41
510.08	53787.85
510.25	53787.85
510.42	53521.03
510.60	53427.41
510.77	53682.53
510.95	54244.26
511.12	54314.47
511.30	54885.56
511.47	55180.47
511.64	54990.89
511.82	54667.89
511.99	53993.82
512.17	53392.30
512.34	52961.64
512.51	53090.37
512.69	52978.03
512.86	53488.26
513.04	54258.30
513.21	53930.62
513.38	53595.93
513.56	53062.29
513.73	52097.98
513.90	52657.37
514.08	52456.09
514.25	52825.89
514.43	53071.65
514.60	53446.13
514.77	53673.16
514.95	53619.33
515.12	53160.59
515.29	53755.08
515.47	54560.23
515.64	54574.27
515.81	54017.22
515.99	53169.95
516.16	51852.23
516.33	48910.17
516.51	47096.26
516.68	46195.15
516.85	45109.14
517.03	45949.40
517.20	49499.99
517.37	52222.03
517.54	53474.22
517.72	52992.07
517.89	50396.42
518.06	46717.09
518.24	47112.64
518.41	50248.96
518.58	51725.84
518.75	52268.84
518.93	52238.42
519.10	52266.50
519.27	52608.22
519.45	53118.46
519.62	53839.34
519.79	54174.04
519.96	54155.32
520.14	53371.24
520.31	52292.25
520.48	52310.97
520.65	53041.22
520.83	53951.69
521.00	54328.52
521.17	54101.48
521.34	53684.87
521.52	53825.30
521.69	54492.35
521.86	55016.63
522.03	54787.26
522.20	53624.01
522.38	52051.17
522.55	51955.21
522.72	52750.99
522.89	52994.41
523.07	53228.46
523.24	53675.51
523.41	54784.92
523.58	54962.80
523.75	55657.94
523.92	55377.08
524.10	55236.64
524.27	55281.11
524.44	54834.07
524.61	54976.84
524.78	54431.50
524.96	54387.03
525.13	54356.60
525.30	54759.17
525.47	55447.29
525.64	55470.70
525.81	54288.73
525.98	53186.33
526.16	51021.34
526.33	50260.66
526.50	50024.27
526.67	49251.89
526.84	49977.46
527.01	51388.80
527.18	52207.99
527.36	53298.68
527.53	54204.47
527.70	54693.64
527.87	54042.97
528.04	53214.42
528.21	53918.92
528.38	54656.19
528.55	55339.63
528.72	55793.69
528.89	55973.91
529.07	55676.66
529.24	54899.61
529.41	54291.07
529.58	53598.27
529.75	53797.21
529.92	54295.75
530.09	54670.23
530.26	55161.75
530.43	55512.83
530.60	55372.39
530.77	55688.37
530.94	55875.61
531.11	55400.48
531.28	54862.16
531.46	54567.25
531.63	54911.31
531.80	54899.61
531.97	54372.99
532.14	53361.87
532.31	52320.34
532.48	51302.20
532.65	51554.98
532.82	52472.47
532.99	53837.00
533.16	54216.17
533.33	55110.25
533.50	54614.06
533.67	53921.26
533.84	53198.04
534.01	53832.32
534.18	53907.22
534.35	54265.32
534.52	53731.68
534.69	54227.87
534.86	54649.17
535.03	54995.57
535.20	55194.51
535.37	55777.31
535.54	55807.73
535.71	55435.59
535.88	55051.74
536.05	54548.53
536.22	53743.38
536.38	53745.72
536.55	53043.56
536.72	52360.12
536.89	52051.17
537.06	53324.43
537.23	54096.80
537.40	54539.16
537.57	54548.53
537.74	54384.69
537.91	54302.77
538.08	54169.36
538.25	54396.39
538.42	54560.23
538.59	54440.86
538.75	53813.60
538.92	53338.47
539.09	53352.51
539.26	52781.42
539.43	52783.76
539.60	52591.84
539.77	53010.79
539.94	52828.23
540.11	52467.79
540.28	51444.98
540.44	51704.77
540.61	51742.22
540.78	52245.44
540.95	52743.97
541.12	53116.12
541.29	53284.64
541.46	53675.51
541.62	53790.19
541.79	53560.82
541.96	52903.13
542.13	52947.60
542.30	53207.40
542.47	53567.84
542.63	52975.69
542.80	53003.77
542.97	53212.08
543.14	52650.35
543.31	52882.06
543.48	53656.78
543.64	54576.61
543.81	54899.61
543.98	54630.44
544.15	53708.27
544.32	52875.04
544.48	53282.30
544.65	53738.70
544.82	54017.22
544.99	53710.61
545.16	53570.18
545.32	53116.12
545.49	53837.00
545.66	54569.59
545.83	54188.08
546.00	53579.54
546.16	52985.05
546.33	53120.80
546.50	53394.64
546.67	53839.34
546.83	53198.04
547.00	53153.57
547.17	52521.62
547.34	52062.88
547.50	51789.03
547.67	52280.55
547.84	52409.28
548.00	52624.60
548.17	53432.09
548.34	53240.17
548.51	53174.63
548.67	53240.17
548.84	53436.77
549.01	53633.38
549.18	52980.37
549.34	53055.26
549.51	53230.80
549.68	53027.18
549.84	52832.91
550.01	52605.88
550.18	52570.77
550.34	52961.64
550.51	52758.02
550.68	53003.77
550.84	52245.44
551.01	52523.96
551.18	52044.15
551.34	52715.89
551.51	53038.88
551.68	53162.93
551.84	53350.17
552.01	53081.01
552.18	53148.88
552.34	52032.45
552.51	51325.61
552.68	51510.51
552.84	52154.16
553.01	52694.82
553.18	52133.09
553.34	52491.19
553.51	52643.33
553.67	52708.86
553.84	53120.80
554.01	52886.74
554.17	52594.18
554.34	52912.49
554.51	52903.13
554.67	53380.60
554.84	53200.38
555.00	52577.79
555.17	52137.77
555.33	52226.71
555.50	52444.38
555.67	52004.36
555.83	51966.91
556.00	51772.65
556.16	51697.75
556.33	51456.68
556.50	51253.05
556.66	51241.35
556.83	50876.22
556.99	51051.76
557.16	50911.33
557.32	51334.97
557.49	51784.35
557.65	51547.96
557.82	51683.71
557.98	51433.27
558.15	51002.61
558.32	50066.40
558.48	49062.31
558.65	49439.14
558.81	49769.15
558.98	49972.78
559.14	49989.16
559.31	50328.54
559.47	50506.42
559.64	49935.33
559.80	49593.61
559.97	49698.94
560.13	50188.11
560.30	51264.75
560.46	52027.77
560.63	52247.78
560.79	52222.03
560.96	51611.15
561.12	50347.26
561.29	49315.09
561.45	49429.77
561.61	50157.68
561.78	50557.91
561.94	50457.27
562.11	50148.32
562.27	50220.87
562.44	50253.64
562.60	50742.81
562.77	50780.26
562.93	50850.48
563.10	51014.32
563.26	50007.89
563.42	50405.78
563.59	49984.48
563.75	50141.30
563.92	49677.87
564.08	50075.76
564.24	50239.60
564.41	50260.66
564.57	50021.93
564.74	49975.12
564.90	49956.39
565.07	49429.77
565.23	49081.03
565.39	48374.19
565.56	48114.39
565.72	47892.04
565.88	48240.78
566.05	48397.60
566.21	49078.69
566.38	49123.16
566.54	49277.64
566.70	49830.01
566.87	49855.75
567.03	49949.37
567.19	50199.81
567.36	50099.17
567.52	49837.03
567.68	49057.63
567.85	48334.40
568.01	48051.20
568.17	47552.66
568.34	47789.06
568.50	47409.89
568.66	47789.06
568.83	48278.23
568.99	48451.43
569.15	48971.03
569.32	48339.08
569.48	48168.22
569.64	48147.16
569.81	47599.47
569.97	47559.69
570.13	47391.17
570.30	46892.63
570.46	46389.42
570.62	45628.74
570.78	45193.40
570.95	46227.92
571.11	47180.52
571.27	46871.57
571.43	47353.72
571.60	47669.69
571.76	47906.08
571.92	48493.56
572.09	48713.57
572.25	48186.95
572.41	48605.91
572.57	48105.03
572.74	47924.81
572.90	47372.44
573.06	47196.90
573.22	47978.64
573.38	47866.30
573.55	47744.59
573.71	47695.44
573.87	47789.06
574.03	47236.69
574.20	47622.88
574.36	47056.47
574.52	46897.31
574.68	46646.88
574.84	46113.23
575.01	45717.68
575.17	45495.33
575.33	46014.93
575.49	46298.14
575.65	46391.76
575.82	46045.36
575.98	45855.78
576.14	46120.26
576.30	46576.66
576.46	46791.99
576.62	46099.19
576.79	46384.74
576.95	45972.80
577.11	46586.02
577.27	46319.20
577.43	46192.81
577.59	45916.63
577.75	45141.91
577.92	44306.34
578.08	44357.83
578.24	43753.97
578.40	44535.71
578.56	44891.48
578.72	44903.18
578.88	44870.41
579.04	45769.18
579.21	45640.45
579.37	45457.88
579.53	45963.44
579.69	45970.46
579.85	46361.33
580.01	46293.46
580.17	45347.88
580.33	44762.75
580.49	44989.78
580.65	45689.60
580.82	45443.84
580.98	45401.71
581.14	45521.08
581.30	45787.90
581.46	45263.62
581.62	45958.76
581.78	45937.69
581.94	46492.40
582.10	45797.26
582.26	46218.56
582.42	45631.08
582.58	45916.63
582.74	45804.28
582.90	45909.61
583.06	46010.25
583.22	45663.85
583.38	45565.55
583.54	45467.25
583.70	45195.74
583.86	45226.17
584.02	45401.71
584.18	45572.57
584.34	45001.48
584.50	45364.26
584.66	45165.32
584.82	44069.95
584.98	44083.99
585.14	44067.61
585.30	43248.42
