SpectraSuite Data File
++++++++++++++++++++++++++++++++++++
Date: Mon Oct 07 14:55:02 GMT-05:00 2013
User: price-jones
Dark Spectrum Present: No
Reference Spectrum Present: No
Number of Sampled Component Spectra: 1
Spectrometers: USB2+H05261
Integration Time (usec): 10000 (USB2+H05261)
Spectra Averaged: 1 (USB2+H05261)
Boxcar Smoothing: 0 (USB2+H05261)
Correct for Electrical Dark: No (USB2+H05261)
Strobe/Lamp Enabled: No (USB2+H05261)
Correct for Detector Non-linearity: No (USB2+H05261)
Correct for Stray Light: No (USB2+H05261)
Number of Pixels in Processed Spectrum: 2048
>>>>>Begin Processed Spectral Data<<<<<
365.73	0.00
365.92	0.00
366.12	0.00
366.32	0.00
366.52	0.00
366.72	0.00
366.91	0.00
367.11	0.00
367.31	0.00
367.51	0.00
367.70	0.00
367.90	0.00
368.10	0.00
368.30	0.00
368.49	0.00
368.69	0.00
368.89	0.00
369.09	0.00
369.28	0.00
369.48	0.00
369.68	0.00
369.87	0.00
370.07	0.00
370.27	0.00
370.47	386.19
370.66	2560.55
370.86	3112.91
371.06	3251.00
371.25	3246.32
371.45	2906.95
371.65	2569.91
371.84	2518.42
372.04	2775.88
372.24	3068.44
372.44	3061.42
372.63	2993.55
372.83	2649.49
373.03	2436.50
373.22	2399.05
373.42	2387.35
373.62	2874.18
373.81	3014.61
374.01	2839.07
374.21	2614.38
374.40	2469.27
374.60	2818.00
374.79	3222.92
374.99	3595.06
375.19	3824.44
375.38	3630.17
375.58	3487.40
375.78	3545.91
375.97	3597.40
376.17	3534.21
376.37	3639.53
376.56	3772.94
376.76	4093.60
376.95	4440.00
377.15	4526.60
377.35	4685.75
377.54	4889.38
377.74	4992.36
377.93	5057.90
378.13	4788.74
378.33	4552.34
378.52	4156.79
378.72	3995.29
378.91	4016.36
379.11	3885.29
379.31	3758.90
379.50	3857.20
379.70	4173.18
379.89	4634.26
380.09	4910.44
380.28	5107.05
380.48	4945.55
380.68	4809.80
380.87	4706.82
381.07	4322.97
381.26	3995.29
381.46	3765.92
381.65	3581.02
381.85	3550.59
382.04	3286.11
382.24	3080.14
382.43	3070.78
382.63	2988.86
382.83	2993.55
383.02	2988.86
383.22	3026.31
383.41	3098.87
383.61	3258.03
383.80	3803.37
384.00	4318.29
384.19	4821.50
384.39	4980.66
384.58	4945.55
384.78	4779.37
384.97	4713.84
385.17	4346.37
385.36	4241.05
385.56	4046.79
385.75	4397.87
385.95	4847.25
386.14	5085.98
386.34	5205.35
386.53	4910.44
386.72	4629.58
386.92	4788.74
387.11	4990.02
387.31	5172.58
387.50	5132.79
387.70	4924.49
387.89	4784.06
388.09	4751.29
388.28	4739.58
388.48	5027.47
388.67	5544.73
388.86	6076.03
389.06	6431.79
389.25	6839.05
389.45	6693.93
389.64	6663.51
389.84	6487.96
390.03	6373.28
390.22	6675.21
390.42	7023.95
390.61	7281.41
390.81	7721.43
391.00	7953.14
391.19	7730.79
391.39	7410.14
391.58	6897.56
391.78	6719.68
391.97	6490.31
392.16	5849.00
392.36	5090.67
392.55	4065.51
392.75	3164.40
392.94	2834.39
393.13	2967.80
393.33	3550.59
393.52	4688.09
393.71	5357.49
393.91	6066.67
394.10	6752.45
394.29	7431.20
394.49	7875.90
394.68	8142.72
394.88	8224.64
395.07	8458.70
395.26	8617.85
395.46	8175.49
395.65	7503.76
395.84	6457.54
396.04	5320.04
396.23	4257.43
396.42	3660.60
396.62	3953.16
396.81	4624.90
397.00	6113.48
397.19	7613.76
397.39	8699.77
397.58	9603.22
397.77	10178.99
397.97	10677.52
398.16	10665.82
398.35	11190.10
398.55	11506.07
398.74	11880.56
398.93	11889.92
399.12	11728.42
399.32	11311.81
399.51	11754.17
399.70	12575.70
399.90	12196.53
400.09	11974.18
400.28	12044.40
400.47	12395.48
400.67	12847.20
400.86	13319.99
401.05	13165.51
401.24	13273.18
401.44	13261.48
401.63	13528.30
401.82	13563.40
402.01	13572.77
402.21	13830.23
402.40	13881.72
402.59	13261.48
402.78	12957.21
402.97	12610.81
403.17	13444.04
403.36	13851.29
403.55	14408.34
403.74	14530.05
403.93	13673.41
404.13	12709.11
404.32	12566.34
404.51	13111.68
404.70	14029.17
404.89	14073.64
405.09	13771.71
405.28	13493.19
405.47	13586.81
405.66	13518.93
405.85	13186.58
406.05	12802.73
406.24	13228.71
406.43	13659.37
406.62	14071.30
406.81	14181.31
407.00	13727.24
407.20	13341.05
407.39	13479.15
407.58	14113.43
407.77	14974.75
407.96	14993.47
408.15	15309.44
408.34	15449.88
408.54	16063.10
408.73	16037.35
408.92	16027.99
409.11	15089.43
409.30	14640.05
409.49	13406.59
409.68	12599.10
409.87	12767.62
410.07	13823.20
410.26	14810.91
410.45	15389.02
410.64	15466.26
410.83	16350.98
411.02	16559.29
411.21	17060.16
411.40	17085.91
411.59	17446.35
411.78	17078.89
411.98	17205.28
412.17	17345.71
412.36	16776.96
412.55	16807.39
412.74	16130.97
412.93	16156.72
413.12	16442.26
413.31	18253.84
413.50	18319.37
413.69	18410.65
413.88	17493.16
414.07	17319.96
414.26	17846.58
414.45	18352.14
414.64	18071.28
414.83	17949.57
415.02	17736.58
415.22	17652.32
415.41	18438.74
415.60	18827.27
415.79	19506.02
415.98	19810.29
416.17	19690.93
416.36	19105.79
416.55	18981.74
416.74	18333.42
416.93	17977.65
417.12	18312.35
417.31	18164.90
417.50	18876.42
417.69	19293.04
417.88	18909.19
418.07	18883.44
418.26	18752.37
418.45	19094.09
418.64	19782.21
418.83	20594.37
419.02	19873.49
419.21	19335.17
419.39	18539.38
419.58	18099.36
419.77	18366.18
419.96	19314.10
420.15	20107.54
420.34	20816.72
420.53	21252.06
420.72	21757.62
420.91	21275.47
421.10	20966.52
421.29	21111.63
421.48	20620.12
421.67	21268.45
421.86	20613.10
422.05	18665.77
422.24	17273.15
422.43	18164.90
422.61	19896.89
422.80	20788.64
422.99	19976.47
423.18	19641.78
423.37	19866.47
423.56	19810.29
423.75	20257.34
423.94	20706.72
424.13	19501.34
424.32	19278.99
424.50	19660.50
424.69	19506.02
424.88	19840.72
425.07	19833.70
425.26	19545.81
425.45	19042.60
425.64	18677.48
425.83	19173.67
426.01	19936.68
426.20	20025.62
426.39	20472.67
426.58	18380.23
426.77	17233.36
426.96	17249.75
427.15	17848.93
427.33	19374.95
427.52	19962.43
427.71	19728.38
427.90	19569.22
428.09	19391.34
428.28	18773.44
428.46	18010.42
428.65	18279.58
428.84	18750.03
429.03	18621.30
429.22	17329.33
429.40	16414.18
429.59	14810.91
429.78	13231.05
429.97	13671.07
430.16	13769.37
430.34	13661.71
430.53	14094.71
430.72	14857.72
430.91	16521.84
431.10	19445.17
431.28	21706.13
431.47	23789.20
431.66	23388.97
431.85	20690.34
432.03	19321.12
432.22	19164.31
432.41	20884.60
432.60	22384.88
432.79	22857.67
432.97	23129.17
433.16	22611.92
433.35	20037.33
433.54	18181.28
433.72	17884.03
433.91	18834.29
434.10	21146.74
434.28	22237.43
434.47	23201.73
434.66	22419.99
434.85	21888.69
435.03	22057.21
435.22	22567.45
435.41	24032.62
435.59	24194.12
435.78	24154.33
435.97	24823.72
436.16	24893.94
436.34	24580.31
436.53	24175.39
436.72	23871.12
436.90	22780.43
437.09	22937.25
437.28	22782.77
437.46	23709.63
437.65	22918.53
437.84	20982.90
438.02	19885.19
438.21	20180.10
438.40	21165.46
438.58	22757.03
438.77	23381.95
438.96	23571.54
439.14	24868.19
439.33	25273.10
439.52	25336.30
439.70	24421.15
439.89	23325.78
440.08	23243.86
440.26	23569.19
440.45	24692.65
440.63	26223.36
440.82	27374.91
441.01	26969.99
441.19	26738.28
441.38	27768.12
441.57	28460.91
441.75	28154.30
441.94	28774.55
442.12	28498.36
442.31	29010.94
442.50	29242.65
442.68	28343.89
442.87	28196.43
443.05	27758.75
443.24	28252.61
443.43	28952.43
443.61	29083.50
443.80	29993.97
443.98	28610.71
444.17	27976.42
444.35	29855.87
444.54	30321.64
444.73	29605.44
444.91	28041.96
445.10	27583.21
445.28	26443.37
445.47	26527.63
445.65	25832.49
445.84	27435.76
446.02	28137.92
446.21	28575.60
446.39	28638.80
446.58	28926.68
446.77	29769.27
446.95	29942.47
447.14	30029.07
447.32	31105.72
447.51	30232.70
447.69	29127.97
447.88	29109.24
448.06	29605.44
448.25	29560.97
448.43	29207.55
448.62	29315.21
448.80	29418.19
448.99	29425.22
449.17	29834.81
449.36	29933.11
449.54	30869.33
449.73	31377.22
449.91	31548.08
450.10	32725.37
450.28	32966.45
450.46	32978.15
450.65	33294.12
450.83	32552.17
451.02	31704.90
451.20	32275.99
451.39	31765.75
451.57	31892.14
451.76	31716.60
451.94	31398.29
452.13	30792.09
452.31	28629.43
452.49	28290.06
452.68	28699.65
452.86	28828.38
453.05	28966.47
453.23	30579.10
453.42	30609.53
453.60	31782.13
453.78	31211.04
453.97	30866.98
454.15	31110.40
454.34	29724.80
454.52	30087.59
454.70	29883.96
454.89	30436.33
455.07	30522.93
455.26	31005.08
455.44	32428.12
455.62	32856.44
455.81	32418.76
455.99	32425.78
456.17	32723.03
456.36	33141.99
456.54	33926.07
456.73	33092.83
456.91	33795.00
457.09	33584.35
457.28	34761.64
457.46	32762.82
457.64	32650.47
457.83	31740.00
458.01	31765.75
458.19	32982.83
458.38	33251.99
458.56	33560.94
458.74	32907.93
458.93	32627.07
459.11	32542.81
459.29	31761.07
459.48	32828.35
459.66	32346.20
459.84	32350.88
460.03	33511.79
460.21	33706.05
460.39	34403.53
460.57	34045.43
460.76	34061.82
460.94	34930.16
461.12	34478.43
461.31	34061.82
461.49	34951.22
461.67	34321.62
461.85	34820.15
462.04	34684.40
462.22	34817.81
462.40	35264.85
462.59	34658.65
462.77	34682.06
462.95	34679.72
463.13	34417.58
463.32	33895.64
463.50	33242.63
463.68	34312.25
463.86	34579.07
464.05	33242.63
464.23	32921.98
464.41	32893.89
464.59	32531.11
464.78	34321.62
464.96	34230.33
465.14	33013.26
465.32	34595.46
465.50	35299.96
465.69	35927.22
465.87	34689.08
466.05	33633.50
466.23	32381.31
466.41	31824.26
466.60	33034.32
466.78	32826.01
466.96	33244.97
467.14	34143.74
467.32	33991.60
467.51	34230.33
467.69	32816.65
467.87	33397.10
468.05	34199.91
468.23	34031.39
468.41	33783.29
468.60	34148.42
468.78	34766.32
468.96	33897.98
469.14	34586.10
469.32	35023.78
469.50	32950.06
469.69	33291.78
469.87	33273.06
470.05	32774.52
470.23	33322.21
470.41	33593.71
470.59	34054.79
470.77	33652.22
470.95	34721.85
471.14	35351.45
471.32	35407.62
471.50	36851.73
471.68	36919.61
471.86	37338.57
472.04	36718.32
472.22	36865.78
472.40	35983.40
472.58	35576.14
472.77	35498.91
472.95	35580.82
473.13	37134.94
473.31	35646.36
473.49	35707.21
473.67	36587.25
473.85	36898.55
474.03	39075.24
474.21	38831.83
474.39	39248.44
474.57	38583.73
474.75	38836.51
474.93	37975.19
475.12	37053.02
475.30	37593.68
475.48	36833.01
475.66	37095.15
475.84	36648.11
476.02	37563.26
476.20	36903.23
476.38	37874.55
476.56	38675.01
476.74	39103.33
476.92	39629.95
477.10	39672.08
477.28	41118.53
477.46	40739.36
477.64	41680.26
477.82	41918.99
478.00	41904.95
478.18	40842.35
478.36	40271.26
478.54	41008.53
478.72	41579.62
478.90	43187.56
479.08	44561.46
479.26	43938.88
479.44	44552.10
479.62	43503.54
479.80	43800.79
479.98	44355.49
480.16	44863.39
480.34	43835.89
480.52	44933.60
480.70	45228.51
480.88	44844.66
481.06	45453.20
481.24	45382.99
481.41	46169.41
481.59	47636.92
481.77	46017.27
481.95	46134.30
482.13	45764.49
482.31	46487.72
482.49	46918.38
482.67	46265.37
482.85	46267.71
483.03	46518.15
483.21	47908.43
483.39	47126.69
483.57	46611.77
483.74	46658.58
483.92	47559.69
484.10	47618.20
484.28	47395.85
484.46	47828.85
484.64	49525.74
484.82	48374.19
485.00	47428.62
485.18	46799.01
485.35	44484.22
485.53	39709.53
485.71	37486.02
485.89	38405.85
486.07	40907.88
486.25	43791.42
486.43	46167.07
486.61	46141.32
486.78	45565.55
486.96	47281.16
487.14	48416.32
487.32	49092.74
487.50	50024.27
487.68	51281.14
487.85	52044.15
488.03	51035.38
488.21	50597.70
488.39	50237.26
488.57	49418.07
488.75	49076.35
488.92	50595.36
489.10	52828.23
489.28	53483.58
489.46	54609.38
489.64	54571.93
489.81	54302.77
489.99	53511.67
490.17	53839.34
490.35	53965.73
490.53	53954.03
490.70	53352.51
490.88	53144.20
491.06	54436.18
491.24	54674.91
491.41	53427.41
491.59	52175.22
491.77	51922.44
491.95	53205.06
492.13	54632.78
492.30	54738.11
492.48	55515.17
492.66	55999.66
492.84	55643.90
493.01	55217.92
493.19	54997.91
493.37	54735.77
493.54	55014.29
493.72	56116.68
493.90	56135.41
494.08	56669.05
494.25	56919.49
494.43	57265.89
494.61	57574.84
494.79	57724.63
494.96	58000.82
495.14	57675.48
495.32	56453.72
495.49	56465.42
495.67	57251.84
495.85	58068.69
496.02	58712.34
496.20	58267.64
496.38	57865.06
496.55	57916.56
496.73	58733.40
496.91	58653.82
497.09	58398.71
497.26	58658.51
497.44	58527.44
497.62	57661.44
497.79	56697.14
497.97	56119.02
498.14	56954.60
498.32	58162.31
498.50	57776.12
498.67	57914.22
498.85	58391.68
499.03	58852.77
499.20	59423.86
499.38	58475.94
499.56	57939.96
499.73	57975.07
499.91	57581.86
500.08	57090.35
500.26	56725.22
500.44	57336.10
500.61	57820.59
500.79	57453.13
500.97	57797.19
501.14	56931.19
501.32	56687.78
501.49	57045.88
501.67	57144.18
501.84	57406.32
502.02	58089.76
502.20	58644.46
502.37	58707.66
502.55	58878.52
502.72	59213.21
502.90	59494.08
503.07	59482.37
503.25	58202.10
503.43	57123.11
503.60	57106.73
503.78	56835.23
503.95	57333.76
504.13	58677.23
504.30	58930.01
504.48	58590.63
504.65	58382.32
504.83	58515.73
505.01	59566.63
505.18	59784.30
505.36	59653.23
505.53	60032.40
505.71	60135.38
505.88	60327.31
506.06	60109.64
506.23	59552.59
506.41	59615.79
506.58	59693.02
506.76	59552.59
506.93	59072.78
507.11	59084.48
507.28	59173.42
507.46	58738.08
507.63	58890.22
507.81	57944.64
507.98	58740.42
508.16	59945.80
508.33	59508.12
508.50	59957.50
508.68	60196.24
508.85	60509.87
509.03	60678.39
509.20	59994.95
509.38	58878.52
509.55	59072.78
509.73	59505.78
509.90	59529.19
510.08	59660.26
510.25	59278.75
510.42	59234.28
510.60	59779.62
510.77	60079.21
510.95	60069.85
511.12	60629.24
511.30	60788.39
511.47	61024.79
511.64	61151.18
511.82	60896.06
511.99	59777.28
512.17	59950.48
512.34	59463.65
512.51	59662.60
512.69	60093.25
512.86	60018.36
513.04	60221.98
513.21	59707.07
513.38	58731.06
513.56	58468.92
513.73	57815.91
513.90	59004.91
514.08	59054.06
514.25	58511.05
514.43	59220.23
514.60	59552.59
514.77	59852.18
514.95	59732.81
515.12	59611.10
515.29	60299.22
515.47	60519.23
515.64	60446.68
515.81	60011.34
515.99	59140.66
516.16	57141.84
516.33	55159.41
516.51	55206.22
516.68	53633.38
516.85	52846.96
517.03	55196.85
517.20	57319.72
517.37	58897.24
517.54	60037.08
517.72	58546.16
517.89	55440.27
518.06	54401.07
518.24	55814.76
518.41	57897.83
518.58	58656.17
518.75	58209.12
518.93	58574.25
519.10	58103.80
519.27	58983.84
519.45	59494.08
519.62	59992.61
519.79	60191.56
519.96	59583.02
520.14	59295.13
520.31	58220.83
520.48	58660.85
520.65	59501.10
520.83	60179.85
521.00	60315.61
521.17	59632.17
521.34	59646.21
521.52	60090.91
521.69	60385.82
521.86	60603.49
522.03	60727.54
522.20	58997.88
522.38	58590.63
522.55	59110.23
522.72	59587.70
522.89	58857.45
523.07	59636.85
523.24	59997.29
523.41	61071.60
523.58	61291.61
523.75	61319.70
523.92	61048.19
524.10	60748.60
524.27	60610.51
524.44	60580.09
524.61	60416.25
524.78	60664.35
524.96	60722.86
525.13	60481.78
525.30	61322.04
525.47	61041.17
525.64	61127.77
525.81	60378.80
525.98	58564.88
526.16	57736.34
526.33	57773.78
526.50	56985.02
526.67	56989.70
526.84	57509.30
527.01	58440.84
527.18	59063.42
527.36	59880.27
527.53	60942.87
527.70	59976.23
527.87	58677.23
528.04	59941.12
528.21	60491.15
528.38	61041.17
528.55	61588.86
528.72	61410.98
528.89	61066.92
529.07	60762.65
529.24	59817.07
529.41	59655.57
529.58	59496.42
529.75	60465.40
529.92	60547.32
530.09	60559.02
530.26	61284.59
530.43	62035.90
530.60	60818.82
530.77	61556.09
530.94	61750.35
531.11	60570.72
531.28	60863.29
531.46	61197.99
531.63	61069.26
531.80	60346.03
531.97	59973.89
532.14	59941.12
532.31	58326.15
532.48	58010.18
532.65	58305.09
532.82	58944.05
532.99	60444.33
533.16	60505.19
533.33	60416.25
533.50	60872.65
533.67	60631.58
533.84	59859.20
534.01	60278.16
534.18	60420.93
534.35	60018.36
534.52	59683.66
534.69	60184.54
534.86	60722.86
535.03	60750.94
535.20	60348.37
535.37	61392.25
535.54	61621.62
535.71	61371.19
535.88	61661.41
536.05	60353.05
536.22	59643.87
536.38	59784.30
536.55	58810.64
536.72	58555.52
536.89	59430.88
537.06	59330.24
537.23	59840.48
537.40	59929.42
537.57	59714.09
537.74	60236.03
537.91	60214.96
538.08	60116.66
538.25	60039.42
538.42	60872.65
538.59	60058.15
538.75	59222.58
538.92	58939.37
539.09	59021.29
539.26	59107.89
539.43	58958.09
539.60	59098.53
539.77	59671.96
539.94	59405.14
540.11	58611.70
540.28	58260.62
540.44	57860.38
540.61	58040.60
540.78	58702.98
540.95	59458.97
541.12	59222.58
541.29	59669.62
541.46	60158.79
541.62	60254.75
541.79	59196.83
541.96	58663.19
542.13	58651.48
542.30	58789.58
542.47	59386.41
542.63	59330.24
542.80	59210.87
542.97	59103.21
543.14	58368.28
543.31	58604.67
543.48	59828.77
543.64	59866.22
543.81	60912.44
543.98	60947.55
544.15	59189.81
544.32	59688.34
544.48	59440.24
544.65	59604.08
544.82	60060.49
544.99	58618.72
545.16	58284.02
545.32	58536.80
545.49	59395.77
545.66	59245.98
545.83	59058.74
546.00	59566.63
546.16	59657.91
546.33	59302.15
546.50	59341.94
546.67	60034.74
546.83	59100.87
547.00	59700.04
547.17	58471.26
547.34	57563.14
547.50	57790.17
547.67	58913.62
547.84	59723.45
548.00	59365.35
548.17	59231.94
548.34	59393.43
548.51	59599.40
548.67	59969.21
548.84	59709.41
549.01	59810.05
549.18	59154.70
549.34	59269.39
549.51	59412.16
549.68	59550.25
549.84	58955.75
550.01	58756.81
550.18	58387.00
550.34	58717.02
550.51	59140.66
550.68	59407.48
550.84	59140.66
551.01	58585.95
551.18	58316.79
551.34	57865.06
551.51	59168.74
551.68	58878.52
551.84	58885.54
552.01	58944.05
552.18	58630.42
552.34	58059.33
552.51	57890.81
552.68	57750.38
552.84	57897.83
553.01	58120.18
553.18	58993.20
553.34	58934.69
553.51	59042.35
553.67	58724.04
553.84	58342.53
554.01	59014.27
554.17	58401.05
554.34	58541.48
554.51	58646.80
554.67	57801.87
554.84	58010.18
555.00	58031.24
555.17	57921.24
555.33	57694.21
555.50	57319.72
555.67	58103.80
555.83	58262.96
556.00	57869.75
556.16	57645.05
556.33	57249.50
556.50	57865.06
556.66	58003.16
556.83	57408.66
556.99	57125.46
557.16	57586.54
557.32	57251.84
557.49	57518.67
557.65	57181.63
557.82	57907.19
557.98	58143.59
558.15	57069.28
558.32	56175.20
558.48	55749.22
558.65	56205.62
558.81	56385.85
558.98	56973.32
559.14	57268.23
559.31	56718.20
559.47	56294.56
559.64	56104.98
559.80	55746.88
559.97	56397.55
560.13	57521.01
560.30	58354.24
560.46	58780.21
560.63	59194.49
560.79	58721.70
560.96	57925.92
561.12	56896.08
561.29	56388.19
561.45	56214.99
561.61	57647.39
561.78	56907.79
561.94	57666.12
562.11	57537.39
562.27	56769.69
562.44	57373.55
562.60	57584.20
562.77	57846.34
562.93	56610.54
563.10	56750.97
563.26	56816.50
563.42	57378.23
563.59	56706.50
563.75	56481.81
563.92	56533.30
564.08	55781.99
564.24	56828.21
564.41	56463.08
564.57	57352.49
564.74	56846.93
564.90	55950.51
565.07	56268.82
565.23	55201.53
565.39	55042.38
565.56	55344.31
565.72	55487.08
565.88	54307.45
566.05	56207.97
566.21	56959.28
566.38	56364.78
566.54	55999.66
566.70	56561.39
566.87	56612.88
567.03	55922.42
567.19	56992.04
567.36	57621.65
567.52	56027.74
567.68	55781.99
567.85	55023.65
568.01	54974.50
568.17	55571.34
568.34	55866.25
568.50	55543.25
568.66	55767.94
568.83	55117.28
568.99	55004.93
569.15	54920.67
569.32	55400.48
569.48	55248.35
569.64	54789.60
569.81	54684.28
569.97	54405.75
570.13	54064.03
570.30	53682.53
570.46	53263.57
570.62	52325.02
570.78	52652.69
570.95	53682.53
571.11	53750.40
571.27	53392.30
571.43	53647.42
571.60	53010.79
571.76	54548.53
571.92	54805.98
572.09	55157.06
572.25	55075.15
572.41	55716.45
572.57	55409.84
572.74	55433.25
572.90	56207.97
573.06	55337.29
573.22	55835.82
573.38	55243.66
573.55	56383.51
573.71	55196.85
573.87	55302.18
574.03	55407.50
574.20	54923.01
574.36	54752.15
574.52	54054.67
574.68	53616.99
574.84	53544.44
575.01	53448.47
575.17	53942.33
575.33	53865.09
575.49	54316.81
575.65	52985.05
575.82	53773.81
575.98	53308.04
576.14	54110.85
576.30	54759.17
576.46	53450.81
576.62	53708.27
576.79	53867.43
576.95	53631.04
577.11	54155.32
577.27	53783.17
577.43	54281.70
577.59	53282.30
577.75	51870.95
577.92	52350.76
578.08	52732.27
578.24	53422.73
578.40	53476.56
578.56	52411.62
578.72	53013.13
578.88	52584.82
579.04	53382.94
579.21	52144.80
579.37	52832.91
579.53	53319.74
579.69	52868.02
579.85	52818.87
580.01	53116.12
580.17	52631.63
580.33	53368.90
580.49	53511.67
580.65	51351.35
580.82	52643.33
580.98	53448.47
581.14	53467.20
581.30	53577.20
581.46	52617.58
581.62	53036.54
581.78	53794.87
581.94	53666.14
582.10	53766.79
582.26	54141.27
582.42	54005.52
582.58	52210.33
582.74	52420.98
582.90	52870.36
583.06	52802.49
583.22	53434.43
583.38	52978.03
583.54	53553.80
583.70	53680.19
583.86	53088.03
584.02	53020.16
584.18	52559.07
584.34	52147.14
584.50	51819.46
584.66	51885.00
584.82	52528.64
584.98	52399.91
585.14	51641.58
585.30	52257.14
