SpectraSuite Data File
++++++++++++++++++++++++++++++++++++
Date: Mon Oct 07 14:53:27 GMT-05:00 2013
User: price-jones
Dark Spectrum Present: No
Reference Spectrum Present: No
Number of Sampled Component Spectra: 1
Spectrometers: USB2+H05261
Integration Time (usec): 100000 (USB2+H05261)
Spectra Averaged: 1 (USB2+H05261)
Boxcar Smoothing: 0 (USB2+H05261)
Correct for Electrical Dark: No (USB2+H05261)
Strobe/Lamp Enabled: No (USB2+H05261)
Correct for Detector Non-linearity: No (USB2+H05261)
Correct for Stray Light: No (USB2+H05261)
Number of Pixels in Processed Spectrum: 2048
>>>>>Begin Processed Spectral Data<<<<<
365.73	0.00
365.92	0.00
366.12	0.00
366.32	0.00
366.52	0.00
366.72	0.00
366.91	0.00
367.11	0.00
367.31	0.00
367.51	0.00
367.70	0.00
367.90	0.00
368.10	0.00
368.30	0.00
368.49	0.00
368.69	0.00
368.89	0.00
369.09	0.00
369.28	0.00
369.48	0.00
369.68	0.00
369.87	0.00
370.07	0.00
370.27	0.00
370.47	660.03
370.66	3412.50
370.86	3859.54
371.06	4301.90
371.25	4540.64
371.45	3906.35
371.65	3482.72
371.84	3227.60
372.04	3297.81
372.24	4037.42
372.44	4117.00
372.63	3873.59
372.83	3712.09
373.03	3265.05
373.22	2991.20
373.42	3155.04
373.62	3630.17
373.81	3983.59
374.01	4009.34
374.21	3550.59
374.40	3269.73
374.60	3489.74
374.79	3871.25
374.99	4503.19
375.19	4968.96
375.38	5039.17
375.58	4610.86
375.78	4599.15
375.97	4503.19
376.17	4858.95
376.37	4807.46
376.56	4739.58
376.76	5160.88
376.95	5568.13
377.15	5841.98
377.35	6038.58
377.54	6338.17
377.74	6513.71
377.93	6452.86
378.13	6284.34
378.33	5895.81
378.52	5713.25
378.72	5376.21
378.91	5275.57
379.11	5018.11
379.31	4901.08
379.50	4973.64
379.70	5259.18
379.89	5823.25
380.09	6136.88
380.28	6267.95
380.48	6413.07
380.68	6221.14
380.87	6050.28
381.07	5689.84
381.26	5266.21
381.46	4816.82
381.65	4814.48
381.85	4568.73
382.04	4573.41
382.24	4114.66
382.43	3726.13
382.63	3772.94
382.83	3859.54
383.02	3974.23
383.22	3861.88
383.41	3829.12
383.61	4180.20
383.80	4692.77
384.00	5282.59
384.19	6113.48
384.39	6312.42
384.58	6363.92
384.78	6108.80
384.97	6052.63
385.17	5760.06
385.36	5584.52
385.56	5195.99
385.75	5572.82
385.95	5881.77
386.14	6375.62
386.34	6623.72
386.53	6272.64
386.72	5881.77
386.92	5827.93
387.11	6099.44
387.31	6581.59
387.50	6380.30
387.70	6160.29
387.89	6209.44
388.09	6171.99
388.28	6099.44
388.48	6207.10
388.67	6785.21
388.86	7454.61
389.06	7852.50
389.25	8173.15
389.45	8489.12
389.64	8224.64
389.84	8351.03
390.03	8248.05
390.22	8044.42
390.42	8411.89
390.61	8826.16
390.81	9507.26
391.00	9713.22
391.19	9743.65
391.39	9249.80
391.58	8606.15
391.78	8386.14
391.97	8039.74
392.16	7529.50
392.36	6857.77
392.55	5411.32
392.75	4397.87
392.94	3772.94
393.13	3662.94
393.33	4067.85
393.52	5437.06
393.71	6497.33
393.91	7339.92
394.10	8049.10
394.29	8765.31
394.49	9430.02
394.68	10186.01
394.88	10211.76
395.07	10373.25
395.26	10296.02
395.46	10169.63
395.65	9776.42
395.84	8444.65
396.04	7162.04
396.23	5802.19
396.42	4688.09
396.62	4652.98
396.81	5514.30
397.00	7070.76
397.19	8674.03
397.39	10221.12
397.58	11616.08
397.77	12500.80
397.97	12720.81
398.16	12936.14
398.35	13336.37
398.55	13851.29
398.74	14094.71
398.93	14583.88
399.12	14202.37
399.32	13965.98
399.51	14324.08
399.70	15075.39
399.90	14993.47
400.09	14883.47
400.28	15077.73
400.47	14998.15
400.67	15754.15
400.86	16142.67
401.05	16252.68
401.24	16428.22
401.44	16301.83
401.63	16446.94
401.82	16524.18
402.01	16350.98
402.21	16795.68
402.40	16669.30
402.59	16184.80
402.78	15716.70
402.97	15023.90
403.17	15714.36
403.36	16699.72
403.55	17350.39
403.74	17806.80
403.93	16807.39
404.13	15559.88
404.32	15171.35
404.51	15721.38
404.70	17259.11
404.89	17018.04
405.09	16765.26
405.28	16257.36
405.47	16219.91
405.66	16526.52
405.85	16042.03
406.05	15550.52
406.24	15660.52
406.43	16105.23
406.62	17191.23
406.81	17184.21
407.00	16350.98
407.20	16077.14
407.39	16037.35
407.58	16849.52
407.77	17525.93
407.96	18331.08
408.15	18448.10
408.34	18511.30
408.54	19445.17
408.73	19468.58
408.92	19047.28
409.11	18377.89
409.30	17593.81
409.49	16514.82
409.68	15470.94
409.87	15213.48
410.07	16095.86
410.26	17568.06
410.45	18588.53
410.64	19061.32
410.83	19309.42
411.02	19981.15
411.21	20563.95
411.40	20334.57
411.59	20154.35
411.78	20180.10
411.98	19899.23
412.17	20313.51
412.36	20142.65
412.55	19934.34
412.74	19616.03
412.93	18963.02
413.12	19609.01
413.31	21111.63
413.50	21418.24
413.69	21701.45
413.88	21083.55
414.07	20203.50
414.26	20678.63
414.45	21359.73
414.64	21731.87
414.83	21596.12
415.02	21025.03
415.22	20973.54
415.41	21727.19
415.60	22146.15
415.79	22904.48
415.98	23386.63
416.17	23744.73
416.36	23073.00
416.55	22490.21
416.74	22134.45
416.93	21209.93
417.12	21245.04
417.31	21408.88
417.50	21834.86
417.69	22759.37
417.88	22576.81
418.07	22459.78
418.26	21954.22
418.45	22246.79
418.64	23218.11
418.83	23695.58
419.02	23821.97
419.21	23381.95
419.39	22237.43
419.58	21198.23
419.77	21530.59
419.96	22363.82
420.15	23683.88
420.34	24128.58
420.53	25036.71
420.72	25575.03
420.91	24982.88
421.10	24959.47
421.29	24575.62
421.48	23864.10
421.67	25263.74
421.86	24301.78
422.05	22836.61
422.24	20671.61
422.43	20285.42
422.61	22382.54
422.80	23889.85
422.99	24060.71
423.18	23115.13
423.37	22632.98
423.56	22670.43
423.75	23339.82
423.94	23662.82
424.13	22104.02
424.32	22555.74
424.50	22778.09
424.69	22588.51
424.88	22604.89
425.07	22267.86
425.26	22593.19
425.45	21689.74
425.64	21827.84
425.83	21790.39
426.01	23140.88
426.20	23555.15
426.39	23253.22
426.58	21795.07
426.77	20196.48
426.96	19758.80
427.15	20159.03
427.33	22132.11
427.52	22525.32
427.71	22897.46
427.90	22850.65
428.09	22410.63
428.28	21837.20
428.46	20966.52
428.65	20910.35
428.84	21455.69
429.03	21820.81
429.22	20451.60
429.40	19398.36
429.59	17771.69
429.78	15609.03
429.97	15576.27
430.16	16088.84
430.34	15866.49
430.53	15707.34
430.72	16353.32
430.91	18148.51
431.10	21322.28
431.28	24870.53
431.47	26824.88
431.66	26855.31
431.85	25130.33
432.03	22642.34
432.22	21343.35
432.41	22366.16
432.60	25359.70
432.79	26267.83
432.97	26541.68
433.16	26331.03
433.35	23681.54
433.54	21568.04
433.72	20273.72
433.91	20872.90
434.10	23339.82
434.28	25078.84
434.47	26480.82
434.66	25895.69
434.85	24886.92
435.03	24826.06
435.22	25818.45
435.41	27307.03
435.59	27370.22
435.78	27311.71
435.97	28233.88
436.16	28465.60
436.34	28182.39
436.53	27395.97
436.72	27641.73
436.90	26244.43
437.09	25984.63
437.28	25851.22
437.46	26307.62
437.65	26352.09
437.84	24762.87
438.02	22551.06
438.21	22394.25
438.40	23793.89
438.58	25776.32
438.77	26111.02
438.96	26726.58
439.14	27906.21
439.33	28041.96
439.52	28802.63
439.70	28315.80
439.89	27470.87
440.08	26625.93
440.26	26656.36
440.45	27557.47
440.63	29504.79
440.82	30991.03
441.01	30270.15
441.19	30373.13
441.38	30642.29
441.57	31833.63
441.75	32484.30
441.94	32669.20
442.12	32121.51
442.31	33074.11
442.50	32793.25
442.68	32215.13
442.87	32182.37
443.05	31665.11
443.24	32247.90
443.43	32519.40
443.61	33607.75
443.80	33727.12
443.98	32240.88
444.17	31831.29
444.35	33984.58
444.54	34763.98
444.73	33574.98
444.91	32390.67
445.10	30883.37
445.28	29631.18
445.47	29570.33
445.65	29692.04
445.84	30363.77
446.02	31590.21
446.21	32182.37
446.39	32208.11
446.58	32404.72
446.77	32978.15
446.95	32912.61
447.14	34040.75
447.32	34391.83
447.51	33825.42
447.69	32744.09
447.88	32149.60
448.06	32872.82
448.25	33556.26
448.43	33722.44
448.62	32826.01
448.80	32758.14
448.99	33123.26
449.17	33612.43
449.36	33673.29
449.54	34834.19
449.73	34927.81
449.91	35667.42
450.10	36804.92
450.28	37233.24
450.46	36741.73
450.65	36458.52
450.83	36430.44
451.02	35466.14
451.20	35449.75
451.39	35283.58
451.57	35292.94
451.76	35377.20
451.94	34925.47
452.13	34506.52
452.31	33401.79
452.49	31529.36
452.68	32243.22
452.86	32025.55
453.05	32350.88
453.23	33294.12
453.42	34040.75
453.60	34778.02
453.78	35189.95
453.97	34703.12
454.15	34838.87
454.34	33977.56
454.52	34230.33
454.70	33556.26
454.89	33914.36
455.07	33926.07
455.26	34731.21
455.44	35997.44
455.62	36306.39
455.81	36514.70
455.99	36680.88
456.17	35833.60
456.36	36224.47
456.54	37345.59
456.73	37003.87
456.91	37961.15
457.09	37577.30
457.28	38506.49
457.46	37031.96
457.64	36961.74
457.83	35941.27
458.01	35248.47
458.19	35882.75
458.38	35812.54
458.56	37081.11
458.74	36538.10
458.93	36421.08
459.11	36453.84
459.29	36282.98
459.48	36245.54
459.66	36126.17
459.84	36804.92
460.03	36638.75
460.21	36931.31
460.39	37731.78
460.57	37752.84
460.76	38052.43
460.94	38562.67
461.12	37949.45
461.31	37804.33
461.49	38052.43
461.67	38370.74
461.85	39096.31
462.04	38726.50
462.22	39185.25
462.40	38499.47
462.59	38752.25
462.77	38778.00
462.95	38494.79
463.13	38288.82
463.32	37785.61
463.50	37603.05
463.68	37823.06
463.86	37635.81
464.05	37448.57
464.23	36723.01
464.41	36818.97
464.59	35992.76
464.78	37752.84
464.96	37535.17
465.14	37242.60
465.32	38094.56
465.50	38918.43
465.69	39344.41
465.87	38775.66
466.05	37619.43
466.23	36032.55
466.41	35101.01
466.60	36116.81
466.78	35725.94
466.96	37034.30
467.14	37308.14
467.32	37900.29
467.51	38073.49
467.69	36498.31
467.87	37148.98
468.05	37703.69
468.23	37387.72
468.41	37844.12
468.60	37427.51
468.78	37888.59
468.96	36992.17
469.14	38691.40
469.32	37975.19
469.50	36538.10
469.69	37235.58
469.87	36629.38
470.05	36954.72
470.23	36601.30
470.41	36346.18
470.59	37022.59
470.77	36882.16
470.95	38466.70
471.14	38618.84
471.32	38171.80
471.50	40748.73
471.68	40605.95
471.86	41067.04
472.04	41055.34
472.22	41373.65
472.40	39159.50
472.58	39225.04
472.77	38651.61
472.95	39571.44
473.13	40577.87
473.31	38965.24
473.49	39250.78
473.67	40477.22
473.85	40074.65
474.03	41464.93
474.21	41493.02
474.39	42305.18
474.57	42033.68
474.75	42239.65
474.93	41666.22
475.12	40870.43
475.30	41495.36
475.48	41205.13
475.66	41682.60
475.84	41284.71
476.02	41158.32
476.20	40217.43
476.38	40933.63
476.56	42024.32
476.74	42871.59
476.92	43044.79
477.10	43524.60
477.28	44765.09
477.46	44722.96
477.64	45272.98
477.82	44924.24
478.00	45448.52
478.18	44191.65
478.36	44631.68
478.54	44802.53
478.72	45270.64
478.90	45715.34
479.08	47161.79
479.26	47423.93
479.44	47437.98
479.62	47192.22
479.80	46595.38
479.98	47171.16
480.16	47796.08
480.34	46869.23
480.52	47606.50
480.70	47655.65
480.88	47777.36
481.06	48641.01
481.24	48896.13
481.41	49574.89
481.59	50295.77
481.77	49830.01
481.95	48982.73
482.13	49200.40
482.31	49464.88
482.49	50288.75
482.67	49764.47
482.85	49762.13
483.03	50337.90
483.21	50803.67
483.39	50784.94
483.57	50216.19
483.74	49907.24
483.92	50202.15
484.10	50323.86
484.28	51157.09
484.46	51271.78
484.64	51491.79
484.82	50857.50
485.00	50906.65
485.18	50047.68
485.35	48638.67
485.53	45897.91
485.71	42073.47
485.89	41287.05
486.07	43765.68
486.25	47077.54
486.43	49223.81
486.61	49860.43
486.78	49780.85
486.96	49528.08
487.14	51255.39
487.32	51915.42
487.50	52985.05
487.68	53708.27
487.85	53888.49
488.03	54199.79
488.21	53799.55
488.39	53244.85
488.57	52643.33
488.75	52486.51
488.92	53439.11
489.10	55077.49
489.28	56240.73
489.46	56846.93
489.64	56385.85
489.81	56788.42
489.99	56446.70
490.17	56715.86
490.35	56769.69
490.53	56306.27
490.70	56392.87
490.88	56128.39
491.06	56975.66
491.24	56821.19
491.41	56151.79
491.59	54527.46
491.77	53769.13
491.95	54740.45
492.13	55901.36
492.30	56905.44
492.48	57923.58
492.66	57979.75
492.84	58157.63
493.01	58087.42
493.19	57284.61
493.37	57139.50
493.54	56975.66
493.72	57525.69
493.90	58468.92
494.08	58972.14
494.25	59229.60
494.43	59629.83
494.61	59732.81
494.79	59824.09
494.96	59749.20
495.14	59042.35
495.32	58335.51
495.49	57649.74
495.67	58693.61
495.85	59842.82
496.02	60294.54
496.20	59980.91
496.38	59707.07
496.55	59566.63
496.73	60055.81
496.91	60126.02
497.09	60720.52
497.26	60865.63
497.44	60306.24
497.62	59849.84
497.79	58979.16
497.97	58061.67
498.14	58307.43
498.32	59175.76
498.50	59884.95
498.67	60498.17
498.85	60301.56
499.03	60381.14
499.20	60647.96
499.38	60746.26
499.56	60694.77
499.73	60175.17
499.91	60013.68
500.08	59760.90
500.26	58740.42
500.44	59000.22
500.61	59781.96
500.79	59671.96
500.97	59311.52
501.14	59182.79
501.32	59096.19
501.49	59194.49
501.67	59178.10
501.84	59840.48
502.02	60023.04
502.20	60252.41
502.37	60544.98
502.55	60362.42
502.72	60940.53
502.90	61272.88
503.07	61085.64
503.25	60757.97
503.43	59955.16
503.60	59400.46
503.78	58660.85
503.95	59248.32
504.13	60322.63
504.30	61261.18
504.48	60949.89
504.65	60640.94
504.83	60622.22
505.01	61237.78
505.18	61542.05
505.36	62101.43
505.53	62000.79
505.71	62232.50
505.88	62426.77
506.06	62017.17
506.23	61659.07
506.41	61364.17
506.58	61364.17
506.76	61609.92
506.93	61443.74
507.11	61106.71
507.28	61130.11
507.46	60935.85
507.63	60350.71
507.81	60212.62
507.98	60327.31
508.16	61050.53
508.33	61385.23
508.50	61736.31
508.68	61958.66
508.85	62485.28
509.03	62269.95
509.20	62396.34
509.38	61696.52
509.55	60807.12
509.73	61020.11
509.90	61462.47
510.08	61883.76
510.25	61771.42
510.42	61614.60
510.60	61565.45
510.77	61930.58
510.95	62171.65
511.12	62234.84
511.30	62665.50
511.47	62733.38
511.64	62805.94
511.82	62471.24
511.99	61600.56
512.17	61448.42
512.34	61048.19
512.51	61462.47
512.69	61403.95
512.86	61509.28
513.04	61876.74
513.21	61956.32
513.38	61799.50
513.56	61141.81
513.73	60467.74
513.90	60874.99
514.08	61062.24
514.25	61235.44
514.43	61221.39
514.60	61476.51
514.77	61647.37
514.95	61654.39
515.12	61516.30
515.29	61757.38
515.47	62049.94
515.64	62316.76
515.81	62115.48
515.99	61303.31
516.16	60168.15
516.33	58012.52
516.51	56783.74
516.68	56130.73
516.85	55770.28
517.03	55966.89
517.20	58370.62
517.37	60697.11
517.54	61544.39
517.72	61008.40
517.89	58962.78
518.06	56839.91
518.24	57031.83
518.41	59047.04
518.58	60350.71
518.75	60540.30
518.93	60664.35
519.10	60547.32
519.27	61050.53
519.45	61394.59
519.62	61752.69
519.79	62246.55
519.96	62061.64
520.14	61483.53
520.31	60521.57
520.48	60814.14
520.65	61153.52
520.83	62094.41
521.00	62272.29
521.17	61872.06
521.34	61698.86
521.52	61684.82
521.69	62588.27
521.86	62742.74
522.03	62206.76
522.20	61305.65
522.38	60275.82
522.55	60472.42
522.72	60802.44
522.89	61336.08
523.07	61410.98
523.24	61654.39
523.41	62274.63
523.58	62665.50
523.75	63121.91
523.92	63065.73
524.10	62890.19
524.27	62915.94
524.44	62812.96
524.61	62429.11
524.78	62314.42
524.96	62335.49
525.13	62232.50
525.30	62550.82
525.47	62953.39
525.64	62817.64
525.81	62232.50
525.98	61022.45
526.16	59622.81
526.33	59084.48
526.50	58829.37
526.67	58536.80
526.84	58915.96
527.01	59983.25
527.18	60444.33
527.36	61357.14
527.53	62276.97
527.70	62480.60
527.87	61946.96
528.04	61364.17
528.21	62035.90
528.38	62546.14
528.55	63243.62
528.72	63370.00
528.89	63632.14
529.07	63171.06
529.24	62548.48
529.41	62138.88
529.58	61439.06
529.75	61609.92
529.92	61930.58
530.09	62337.83
530.26	62911.26
530.43	63271.70
530.60	63316.17
530.77	63475.33
530.94	63430.86
531.11	62915.94
531.28	62644.44
531.46	62457.20
531.63	62625.71
531.80	62464.22
531.97	62113.14
532.14	61511.62
532.31	60615.19
532.48	60009.00
532.65	59955.16
532.82	60757.97
532.99	61787.80
533.16	62024.20
533.33	62604.65
533.50	62468.90
533.67	61801.85
533.84	61638.01
534.01	61750.35
534.18	61776.10
534.35	62061.64
534.52	61778.44
534.69	62164.63
534.86	62321.44
535.03	62752.10
535.20	63138.29
535.37	63290.43
535.54	63531.50
535.71	63145.31
535.88	62745.08
536.05	62363.57
536.22	62021.86
536.38	61600.56
536.55	61228.41
536.72	60748.60
536.89	60434.97
537.06	61565.45
537.23	62138.88
537.40	62237.19
537.57	62429.11
537.74	62073.35
537.91	62059.30
538.08	62106.12
538.25	62295.70
538.42	62150.59
538.59	62181.01
538.75	61499.92
538.92	61518.64
539.09	61202.67
539.26	61090.32
539.43	60708.82
539.60	60849.25
539.77	61099.68
539.94	60924.14
540.11	60339.01
540.28	59739.83
540.44	59821.75
540.61	60163.47
540.78	60278.16
540.95	60830.52
541.12	61167.56
541.29	61319.70
541.46	61577.15
541.62	61827.59
541.79	61518.64
541.96	60921.80
542.13	60919.46
542.30	61289.27
542.47	61373.53
542.63	61066.92
542.80	60853.93
542.97	61186.28
543.14	61055.21
543.31	60685.41
543.48	61551.41
543.64	62183.35
543.81	62466.56
543.98	62344.85
544.15	61623.96
544.32	61001.38
544.48	61116.07
544.65	61638.01
544.82	61881.42
544.99	61488.21
545.16	61436.72
545.32	61284.59
545.49	62052.28
545.66	62073.35
545.83	61666.09
546.00	61380.55
546.16	61188.63
546.33	61186.28
546.50	61195.65
546.67	61743.33
546.83	61256.50
547.00	61205.01
547.17	60706.47
547.34	60217.30
547.50	60065.17
547.67	60650.30
547.84	60596.47
548.00	60992.02
548.17	61343.10
548.34	61354.80
548.51	61188.63
548.67	61235.44
548.84	61212.03
549.01	61263.52
549.18	61186.28
549.34	61104.37
549.51	61109.05
549.68	60874.99
549.84	60989.68
550.01	60814.14
550.18	60622.22
550.34	60818.82
550.51	60865.63
550.68	60809.46
550.84	60320.29
551.01	60493.49
551.18	60575.40
551.34	60687.75
551.51	61066.92
551.68	61174.58
551.84	61303.31
552.01	61186.28
552.18	60992.02
552.34	60259.43
552.51	59966.87
552.68	59800.69
552.84	60275.82
553.01	60533.28
553.18	60418.59
553.34	60533.28
553.51	60811.80
553.67	60863.29
553.84	61209.69
554.01	61085.64
554.17	60835.20
554.34	60767.33
554.51	60764.99
554.67	61141.81
554.84	60947.55
555.00	60896.06
555.17	60327.31
555.33	60577.75
555.50	60540.30
555.67	60493.49
555.83	60491.15
556.00	60107.30
556.16	60168.15
556.33	59833.46
556.50	59547.91
556.66	59791.33
556.83	59367.69
556.99	59664.94
557.16	59625.15
557.32	60093.25
557.49	60247.73
557.65	59990.27
557.82	60189.22
557.98	59833.46
558.15	59592.38
558.32	59065.76
558.48	58131.89
558.65	58150.61
558.81	58614.04
558.98	58773.19
559.14	58908.94
559.31	59016.61
559.47	59044.69
559.64	58754.47
559.80	58307.43
559.97	58525.10
560.13	58866.81
560.30	59676.64
560.46	60140.07
560.63	60331.99
560.79	60512.21
560.96	59943.46
561.12	59159.38
561.29	58213.80
561.45	58438.50
561.61	58773.19
561.78	59121.93
561.94	59077.46
562.11	58955.75
562.27	59030.65
562.44	59281.09
562.60	59297.47
562.77	59576.00
562.93	59470.67
563.10	59264.70
563.26	59070.44
563.42	59042.35
563.59	58611.70
563.75	58983.84
563.92	58768.51
564.08	58578.93
564.24	58972.14
564.41	59056.40
564.57	59105.55
564.74	58707.66
564.90	58845.75
565.07	58567.23
565.23	58092.10
565.39	57736.34
565.56	57483.56
565.72	57446.11
565.88	57485.90
566.05	57888.47
566.21	57979.75
566.38	58227.85
566.54	58216.14
566.70	58429.13
566.87	58885.54
567.03	58866.81
567.19	59054.06
567.36	58815.32
567.52	58571.91
567.68	58375.30
567.85	57726.97
568.01	57373.55
568.17	56980.34
568.34	57118.43
568.50	56947.57
568.66	57183.97
568.83	57392.28
568.99	57542.07
569.15	58024.22
569.32	57876.77
569.48	57357.17
569.64	57331.42
569.81	57268.23
569.97	56931.19
570.13	57190.99
570.30	56502.87
570.46	56226.69
570.62	55749.22
570.78	55679.00
570.95	55702.41
571.11	56673.73
571.27	56739.27
571.43	56907.79
571.60	57038.86
571.76	57371.21
571.92	57705.91
572.09	57724.63
572.25	57553.77
572.41	57345.47
572.57	57607.61
572.74	57490.58
572.90	57062.26
573.06	57282.27
573.22	57158.22
573.38	57340.78
573.55	57064.60
573.71	57298.65
573.87	57333.76
574.03	57041.20
574.20	56956.94
574.36	56842.25
574.52	56671.39
574.68	56467.76
574.84	56133.07
575.01	55475.38
575.17	55480.06
575.33	55784.33
575.49	56121.37
575.65	56399.89
575.82	56058.17
575.98	55737.52
576.14	56058.17
576.30	56317.97
576.46	56348.40
576.62	56334.35
576.79	56491.17
576.95	56046.47
577.11	55781.99
577.27	56144.77
577.43	56252.44
577.59	55599.43
577.75	55433.25
577.92	54798.96
578.08	54686.62
578.24	54932.37
578.40	54901.95
578.56	55262.39
578.72	55208.56
578.88	55421.55
579.04	55454.31
579.21	55641.56
579.37	55882.63
579.53	55847.52
579.69	55632.19
579.85	55938.80
580.01	55824.12
580.17	55304.52
580.33	55489.42
580.49	55501.12
580.65	55686.03
580.82	55550.27
580.98	55611.13
581.14	55735.18
581.30	55643.90
581.46	55721.13
581.62	55763.26
581.78	55779.65
581.94	55763.26
582.10	56009.02
582.26	56072.21
582.42	55821.78
582.58	56023.06
582.74	55695.39
582.90	56074.55
583.06	55695.39
583.22	55777.31
583.38	55812.41
583.54	55774.97
583.70	55650.92
583.86	55529.21
584.02	55590.06
584.18	55487.08
584.34	55466.02
584.50	55281.11
584.66	55466.02
584.82	54677.25
584.98	54852.80
585.14	54550.87
