SpectraSuite Data File
++++++++++++++++++++++++++++++++++++
Date: Mon Oct 07 14:54:59 GMT-05:00 2013
User: price-jones
Dark Spectrum Present: No
Reference Spectrum Present: No
Number of Sampled Component Spectra: 1
Spectrometers: USB2+H05261
Integration Time (usec): 10000 (USB2+H05261)
Spectra Averaged: 1 (USB2+H05261)
Boxcar Smoothing: 0 (USB2+H05261)
Correct for Electrical Dark: No (USB2+H05261)
Strobe/Lamp Enabled: No (USB2+H05261)
Correct for Detector Non-linearity: No (USB2+H05261)
Correct for Stray Light: No (USB2+H05261)
Number of Pixels in Processed Spectrum: 2048
>>>>>Begin Processed Spectral Data<<<<<
365.73	0.00
365.92	0.00
366.12	0.00
366.32	0.00
366.52	0.00
366.72	0.00
366.91	0.00
367.11	0.00
367.31	0.00
367.51	0.00
367.70	0.00
367.90	0.00
368.10	0.00
368.30	0.00
368.49	0.00
368.69	0.00
368.89	0.00
369.09	0.00
369.28	0.00
369.48	0.00
369.68	0.00
369.87	0.00
370.07	0.00
370.27	0.00
370.47	166.18
370.66	1299.00
370.86	1509.65
371.06	1610.29
371.25	1638.38
371.45	1467.52
371.65	1348.15
371.84	1254.53
372.04	1446.45
372.24	1547.09
372.44	1577.52
372.63	1432.41
372.83	1446.45
373.03	1135.16
373.22	1142.18
373.42	1268.57
373.62	1570.50
373.81	1514.33
374.01	1451.13
374.21	1289.64
374.40	1280.27
374.60	1306.02
374.79	1713.27
374.99	1853.70
375.19	1966.05
375.38	1963.71
375.58	1717.95
375.78	1701.57
375.97	1736.68
376.17	1947.33
376.37	1907.54
376.56	1912.22
376.76	2134.57
376.95	2331.17
377.15	2408.41
377.35	2560.55
377.54	2497.35
377.74	2539.48
377.93	2600.34
378.13	2380.32
378.33	2207.13
378.52	2139.25
378.72	2127.55
378.91	2066.69
379.11	1989.46
379.31	1778.81
379.50	2019.88
379.70	2160.31
379.89	2424.80
380.09	2569.91
380.28	2597.99
380.48	2539.48
380.68	2445.86
380.87	2214.15
381.07	2153.29
381.26	2036.27
381.46	1851.36
381.65	1837.32
381.85	1633.69
382.04	1703.91
382.24	1633.69
382.43	1514.33
382.63	1497.94
382.83	1411.34
383.02	1486.24
383.22	1493.26
383.41	1551.78
383.61	1673.48
383.80	1926.26
384.00	2267.98
384.19	2448.20
384.39	2478.63
384.58	2558.21
384.78	2455.22
384.97	2408.41
385.17	2169.68
385.36	2118.18
385.56	2202.44
385.75	2214.15
385.95	2417.77
386.14	2485.65
386.34	2478.63
386.53	2445.86
386.72	2275.00
386.92	2291.38
387.11	2572.25
387.31	2689.28
387.50	2509.05
387.70	2502.03
387.89	2448.20
388.09	2637.78
388.28	2448.20
388.48	2605.02
388.67	2771.19
388.86	3073.12
389.06	3185.47
389.25	3370.37
389.45	3485.06
389.64	3391.44
389.84	3311.86
390.03	3328.24
390.22	3276.75
390.42	3520.17
390.61	3705.07
390.81	4018.70
391.00	4021.04
391.19	3960.19
391.39	3817.41
391.58	3538.89
391.78	3229.94
391.97	3396.12
392.16	2939.71
392.36	2754.81
392.55	1996.48
392.75	1631.35
392.94	1385.60
393.13	1453.47
393.33	1802.21
393.52	2279.68
393.71	2860.13
393.91	3023.97
394.10	3370.37
394.29	3693.37
394.49	4074.87
394.68	4196.58
394.88	4341.69
395.07	4493.83
395.26	4423.61
395.46	3971.89
395.65	3861.88
395.84	3297.81
396.04	2733.75
396.23	2157.97
396.42	1825.62
396.62	1914.56
396.81	2373.30
397.00	2906.95
397.19	3789.33
397.39	4423.61
397.58	4922.15
397.77	5205.35
397.97	5486.22
398.16	5336.42
398.35	5561.11
398.55	5790.49
398.74	6033.90
398.93	6179.01
399.12	6141.57
399.32	5919.21
399.51	6052.63
399.70	6270.30
399.90	6277.32
400.09	6291.36
400.28	6026.88
400.47	6277.32
400.67	6787.55
400.86	6825.00
401.05	6913.94
401.24	6668.19
401.44	6689.25
401.63	6925.65
401.82	7115.23
402.01	7042.67
402.21	7033.31
402.40	7169.06
402.59	6731.38
402.78	6387.32
402.97	6345.19
403.17	6810.96
403.36	7225.23
403.55	7283.75
403.74	7197.15
403.93	6878.83
404.13	6384.98
404.32	6607.33
404.51	6871.81
404.70	7337.58
404.89	7075.44
405.09	6984.16
405.28	6768.83
405.47	6834.36
405.66	6937.35
405.85	6462.22
406.05	6394.34
406.24	6740.74
406.43	7012.24
406.62	7272.04
406.81	7180.76
407.00	6860.11
407.20	6806.28
407.39	7033.31
407.58	7117.57
407.77	7510.78
407.96	7545.89
408.15	7840.79
408.34	7751.85
408.54	8021.02
408.73	8154.43
408.92	8194.22
409.11	7896.97
409.30	7267.36
409.49	6993.52
409.68	6506.69
409.87	6459.88
410.07	7117.57
410.26	7543.55
410.45	7714.41
410.64	7873.56
410.83	8219.96
411.02	8512.53
411.21	8667.00
411.40	8491.46
411.59	8674.03
411.78	8514.87
411.98	8542.96
412.17	8500.83
412.36	8421.25
412.55	8545.30
412.74	8290.18
412.93	8198.90
413.12	8456.36
413.31	8924.46
413.50	9174.90
413.69	9146.81
413.88	8533.59
414.07	8643.60
414.26	8777.01
414.45	9062.55
414.64	8945.53
414.83	9193.62
415.02	8847.22
415.22	9102.34
415.41	9259.16
415.60	9596.20
415.79	9762.37
415.98	9804.50
416.17	9926.21
416.36	9661.73
416.55	9249.80
416.74	9146.81
416.93	8891.70
417.12	9039.15
417.31	9046.17
417.50	9277.88
417.69	9706.20
417.88	9565.77
418.07	9415.98
418.26	9240.44
418.45	9481.51
418.64	9769.40
418.83	10169.63
419.02	9898.13
419.21	9977.70
419.39	9392.57
419.58	8966.59
419.77	9135.11
419.96	9635.99
420.15	10092.39
420.34	10146.22
420.53	10473.90
420.72	10525.39
420.91	10839.02
421.10	10480.92
421.29	10375.59
421.48	10267.93
421.67	10537.09
421.86	9940.26
422.05	9441.72
422.24	8507.85
422.43	8837.86
422.61	9886.42
422.80	10265.59
422.99	9830.25
423.18	9991.75
423.37	9612.58
423.56	9764.72
423.75	9907.49
423.94	10258.57
424.13	9593.86
424.32	9521.30
424.50	9437.04
424.69	9664.07
424.88	9781.10
425.07	9582.15
425.26	9320.01
425.45	9291.93
425.64	9259.16
425.83	9392.57
426.01	9900.47
426.20	10115.80
426.39	9963.66
426.58	9020.42
426.77	8491.46
426.96	8461.04
427.15	8697.43
427.33	9434.70
427.52	9661.73
427.71	9750.67
427.90	9441.72
428.09	9540.02
428.28	9151.49
428.46	8819.14
428.65	9139.79
428.84	9027.45
429.03	9158.52
429.22	8610.83
429.40	7896.97
429.59	7363.33
429.78	6497.33
429.97	6829.68
430.16	6715.00
430.34	6885.86
430.53	6726.70
430.72	7332.90
430.91	8226.98
431.10	9507.26
431.28	10963.07
431.47	11805.66
431.66	11431.18
431.85	10331.12
432.03	9682.80
432.22	9570.45
432.41	10253.89
432.60	10782.85
432.79	11447.56
432.97	11541.18
433.16	11005.20
433.35	9872.38
433.54	9102.34
433.72	8912.76
433.91	9294.27
434.10	10265.59
434.28	10881.15
434.47	11234.57
434.66	11047.33
434.85	10897.53
435.03	10665.82
435.22	11037.97
435.41	11473.31
435.59	11770.55
435.78	11808.00
435.97	11908.65
436.16	11939.07
436.34	11513.10
436.53	11578.63
436.72	11705.02
436.90	10984.13
437.09	11344.58
437.28	10995.84
437.46	11213.51
437.65	11169.04
437.84	10263.25
438.02	9717.90
438.21	9774.08
438.40	9872.38
438.58	10958.39
438.77	11396.07
438.96	11641.82
439.14	11920.35
439.33	12161.42
439.52	12067.80
439.70	11864.18
439.89	11674.59
440.08	11283.72
440.26	11456.92
440.45	11971.84
440.63	12807.41
440.82	13247.43
441.01	13149.13
441.19	12961.89
441.38	13460.42
441.57	13760.01
441.75	13521.27
441.94	13535.32
442.12	13984.70
442.31	14366.21
442.50	14415.36
442.68	13898.10
442.87	13582.13
443.05	13483.83
443.24	13827.88
443.43	14214.07
443.61	14207.05
443.80	14501.96
443.98	13788.10
444.17	13451.06
444.35	14916.23
444.54	14525.36
444.73	14520.68
444.91	13727.24
445.10	13118.70
445.28	12695.07
445.47	12601.44
445.65	12863.58
445.84	13088.28
446.02	13729.58
446.21	14260.88
446.39	13860.65
446.58	13809.16
446.77	14544.09
446.95	14277.27
447.14	14501.96
447.32	14916.23
447.51	14466.85
447.69	13877.04
447.88	14120.45
448.06	14459.83
448.25	14633.03
448.43	14586.22
448.62	14134.50
448.80	14176.62
448.99	14277.27
449.17	14118.11
449.36	14476.21
449.54	14967.73
449.73	15108.16
449.91	15396.04
450.10	15892.24
450.28	16259.70
450.46	15805.64
450.65	15765.85
450.83	15604.35
451.02	15630.10
451.20	15164.33
451.39	16006.92
451.57	15492.01
451.76	14977.09
451.94	14820.27
452.13	14958.36
452.31	13940.23
452.49	13528.30
452.68	13701.50
452.86	13514.25
453.05	13958.96
453.23	14604.94
453.42	14941.98
453.60	14965.39
453.78	14909.21
453.97	14913.89
454.15	14988.79
454.34	14422.38
454.52	14424.72
454.70	14602.60
454.89	14480.89
455.07	14600.26
455.26	14965.39
455.44	15332.85
455.62	15487.32
455.81	15824.36
455.99	15941.39
456.17	15367.96
456.36	15981.18
456.54	16128.63
456.73	16119.27
456.91	16531.20
457.09	16606.10
457.28	16898.67
457.46	16224.59
457.64	15735.42
457.83	15286.04
458.01	15077.73
458.19	15733.08
458.38	15836.06
458.56	15953.09
458.74	16201.19
458.93	15756.49
459.11	15346.89
459.29	15346.89
459.48	15185.40
459.66	15321.15
459.84	15770.53
460.03	16016.29
460.21	15960.11
460.39	16917.39
460.57	16252.68
460.76	16610.78
460.94	16671.64
461.12	16198.85
461.31	16271.40
461.49	16620.14
461.67	16149.70
461.85	16987.61
462.04	16931.44
462.22	16760.58
462.40	16896.33
462.59	16798.02
462.77	16681.00
462.95	16812.07
463.13	16149.70
463.32	16465.67
463.50	16130.97
463.68	16245.66
463.86	16350.98
464.05	15807.98
464.23	15733.08
464.41	15758.83
464.59	15433.49
464.78	16470.35
464.96	16168.42
465.14	16175.44
465.32	16355.66
465.50	16952.50
465.69	17146.76
465.87	16774.62
466.05	16004.58
466.23	15356.25
466.41	14979.43
466.60	15946.07
466.78	15541.16
466.96	15948.41
467.14	15992.88
467.32	16130.97
467.51	16175.44
467.69	15428.81
467.87	16175.44
468.05	16334.60
468.23	16133.31
468.41	16453.97
468.60	16404.81
468.78	16425.88
468.96	16130.97
469.14	16664.61
469.32	16690.36
469.50	15967.13
469.69	15616.05
469.87	15407.75
470.05	15681.59
470.23	15676.91
470.41	15850.11
470.59	15992.88
470.77	15735.42
470.95	16315.87
471.14	16432.90
471.32	16648.23
471.50	17390.18
471.68	17458.06
471.86	17448.69
472.04	17481.46
472.22	17516.57
472.40	16535.88
472.58	16540.57
472.77	16652.91
472.95	16905.69
473.13	17357.41
473.31	17212.30
473.49	17195.92
473.67	17493.16
473.85	17755.30
474.03	18183.62
474.21	18001.06
474.39	18118.09
474.57	18478.53
474.75	18345.12
474.93	17685.09
475.12	17886.37
475.30	17626.57
475.48	17151.45
475.66	17511.89
475.84	17724.88
476.02	17434.65
476.20	16826.11
476.38	17750.62
476.56	18181.28
476.74	18719.60
476.92	18822.59
477.10	18714.92
477.28	19681.56
477.46	19393.68
477.64	19522.41
477.82	19770.51
478.00	19913.28
478.18	19424.11
478.36	19157.28
478.54	19777.53
478.72	19548.15
478.90	20526.50
479.08	20779.28
479.26	20603.74
479.44	20498.41
479.62	20690.34
479.80	20741.83
479.98	20648.21
480.16	21200.57
480.34	20449.26
480.52	21516.54
480.70	21521.23
480.88	20968.86
481.06	21528.25
481.24	21303.56
481.41	21621.87
481.59	22939.59
481.77	22370.84
481.95	22417.65
482.13	21720.17
482.31	21916.78
482.49	22948.95
482.67	22363.82
482.85	22340.41
483.03	23276.63
483.21	23349.18
483.39	22799.16
483.57	22108.70
483.74	22611.92
483.92	22415.31
484.10	22565.10
484.28	23065.98
484.46	23388.97
484.64	23536.43
484.82	23012.15
485.00	22518.29
485.18	21933.16
485.35	21043.76
485.53	19002.81
485.71	17809.14
485.89	18288.95
486.07	19199.41
486.25	20772.25
486.43	21806.77
486.61	22031.46
486.78	22111.04
486.96	22466.80
487.14	23571.54
487.32	23587.92
487.50	24474.98
487.68	25383.11
487.85	25294.17
488.03	25406.52
488.21	24910.32
488.39	24474.98
488.57	23454.51
488.75	23922.62
488.92	25151.40
489.10	26899.78
489.28	27510.66
489.46	27878.12
489.64	27601.94
489.81	28245.58
489.99	27840.67
490.17	27934.29
490.35	27803.22
490.53	27300.01
490.70	26995.74
490.88	26817.86
491.06	28561.56
491.24	28105.15
491.41	26939.57
491.59	25525.88
491.77	25127.99
491.95	26632.96
492.13	27594.92
492.30	28496.02
492.48	28905.62
492.66	29603.10
492.84	29041.37
493.01	29216.91
493.19	28751.14
493.37	28247.93
493.54	28149.62
493.72	29607.78
493.90	29312.87
494.08	29989.28
494.25	30637.61
494.43	30532.29
494.61	31087.00
494.79	30984.01
494.96	30726.55
495.14	29713.10
495.32	29331.59
495.49	29427.56
495.67	30253.76
495.85	31704.90
496.02	32067.68
496.20	31627.66
496.38	31608.93
496.55	31421.69
496.73	31299.98
496.91	32119.17
497.09	32491.32
497.26	32807.29
497.44	31789.16
497.62	31061.25
497.79	30656.34
497.97	29591.39
498.14	29502.45
498.32	31349.14
498.50	31955.33
498.67	31674.47
498.85	32231.52
499.03	32823.67
499.20	33097.52
499.38	32755.80
499.56	32339.18
499.73	31754.05
499.91	30965.29
500.08	30490.16
500.26	30204.61
500.44	30775.70
500.61	31075.29
500.79	31189.98
500.97	30352.07
501.14	30068.86
501.32	30153.12
501.49	30274.83
501.67	30380.15
501.84	30806.13
502.02	30651.66
502.20	31278.92
502.37	31775.11
502.55	31704.90
502.72	31515.31
502.90	33043.68
503.07	32381.31
503.25	31323.39
503.43	30738.26
503.60	29883.96
503.78	29532.88
503.95	31012.10
504.13	32924.32
504.30	33443.91
504.48	32163.64
504.65	32329.82
504.83	32601.32
505.01	32758.14
505.18	32898.57
505.36	33574.98
505.53	33813.72
505.71	34492.47
505.88	35051.86
506.06	34312.25
506.23	33249.65
506.41	33296.46
506.58	33582.01
506.76	32318.12
506.93	33111.56
507.11	31894.48
507.28	33109.22
507.46	32388.33
507.63	31292.96
507.81	30984.01
507.98	31164.23
508.16	32400.04
508.33	33684.99
508.50	33727.12
508.68	33755.21
508.85	35154.85
509.03	34558.01
509.20	33624.14
509.38	32336.84
509.55	32655.15
509.73	32821.33
509.90	33240.29
510.08	32994.53
510.25	33174.75
510.42	32870.48
510.60	33869.89
510.77	33961.17
510.95	34756.96
511.12	34134.37
511.30	34995.69
511.47	34852.92
511.64	34941.86
511.82	34829.51
511.99	33607.75
512.17	32826.01
512.34	32900.91
512.51	33390.08
512.69	32446.85
512.86	33347.95
513.04	33663.93
513.21	34356.72
513.38	33008.58
513.56	31426.37
513.73	30478.46
513.90	31555.10
514.08	31674.47
514.25	32945.38
514.43	33324.55
514.60	32732.39
514.77	32741.75
514.95	32919.63
515.12	32893.89
515.29	32676.22
515.47	33502.43
515.64	33591.37
515.81	34309.91
515.99	33450.94
516.16	30911.46
516.33	28254.95
516.51	27353.84
516.68	26398.90
516.85	26345.07
517.03	27529.38
517.20	30345.05
517.37	32966.45
517.54	32329.82
517.72	31749.37
517.89	28645.82
518.06	27938.97
518.24	29490.75
518.41	30321.64
518.58	31812.56
518.75	31714.26
518.93	31510.63
519.10	32442.17
519.27	32589.62
519.45	33287.10
519.62	33436.89
519.79	33490.73
519.96	33631.16
520.14	33336.25
520.31	31487.23
520.48	31653.40
520.65	32051.30
520.83	33748.18
521.00	33626.48
521.17	32676.22
521.34	32938.36
521.52	32645.79
521.69	33373.70
521.86	33259.01
522.03	33057.73
522.20	32297.05
522.38	31122.10
522.55	32360.25
522.72	32357.91
522.89	32407.06
523.07	32643.45
523.24	32919.63
523.41	33965.85
523.58	34171.82
523.75	34497.16
523.92	34719.51
524.10	34782.70
524.27	35026.12
524.44	34017.35
524.61	34190.55
524.78	33635.84
524.96	32847.08
525.13	32627.07
525.30	34209.27
525.47	34653.97
525.64	34455.03
525.81	33834.78
525.98	31482.55
526.16	30532.29
526.33	29242.65
526.50	28648.16
526.67	29172.44
526.84	29722.46
527.01	30726.55
527.18	31927.25
527.36	33565.62
527.53	33621.80
527.70	32910.27
527.87	32203.43
528.04	33865.21
528.21	32964.10
528.38	34602.48
528.55	36425.76
528.72	35997.44
528.89	35571.46
529.07	34684.40
529.24	33319.87
529.41	33387.74
529.58	33380.72
529.75	33666.27
529.92	34590.78
530.09	34272.46
530.26	34782.70
530.43	34705.46
530.60	33975.22
530.77	34974.63
530.94	34642.27
531.11	33734.14
531.28	33280.08
531.46	32898.57
531.63	33233.27
531.80	32460.89
531.97	31091.68
532.14	31519.99
532.31	30202.27
532.48	30972.31
532.65	30239.72
532.82	31786.82
532.99	33633.50
533.16	33823.08
533.33	33874.57
533.50	32517.06
533.67	32549.83
533.84	32779.20
534.01	32615.37
534.18	32437.48
534.35	32929.00
534.52	32910.27
534.69	33949.47
534.86	33832.44
535.03	33462.64
535.20	34349.70
535.37	35536.35
535.54	35065.91
535.71	34345.02
535.88	34469.07
536.05	32751.12
536.22	33036.66
536.38	32114.49
536.55	31332.75
536.72	31391.26
536.89	31747.03
537.06	32575.58
537.23	34597.80
537.40	32950.06
537.57	33031.98
537.74	33216.88
537.91	33113.90
538.08	32002.14
538.25	33031.98
538.42	33589.03
538.59	33593.71
538.75	32259.60
538.92	31814.90
539.09	32467.91
539.26	32666.86
539.43	31754.05
539.60	31220.41
539.77	32526.42
539.94	31302.32
540.11	29675.65
540.28	30473.78
540.44	30164.82
540.61	31133.81
540.78	32481.95
540.95	32287.69
541.12	32144.92
541.29	32779.20
541.46	32364.93
541.62	32669.20
541.79	33170.07
541.96	32453.87
542.13	31494.25
542.30	31395.95
542.47	32140.24
542.63	31934.27
542.80	32119.17
542.97	32828.35
543.14	30932.52
543.31	32257.26
543.48	32065.34
543.64	32652.81
543.81	33064.75
543.98	32748.78
544.15	31861.71
544.32	31690.85
544.48	31845.33
544.65	32077.04
544.82	33324.55
544.99	31892.14
545.16	31899.16
545.32	32208.11
545.49	33259.01
545.66	32545.15
545.83	32348.54
546.00	31351.48
546.16	32095.77
546.33	31637.02
546.50	30948.90
546.67	32603.66
546.83	31470.84
547.00	31262.54
547.17	30998.06
547.34	30785.07
547.50	30735.92
547.67	30866.98
547.84	31686.17
548.00	31962.36
548.17	31262.54
548.34	31381.90
548.51	31976.40
548.67	32077.04
548.84	32472.59
549.01	32339.18
549.18	31941.29
549.34	31971.72
549.51	32041.93
549.68	32175.34
549.84	31779.79
550.01	31660.43
550.18	32390.67
550.34	31924.91
550.51	31620.64
550.68	31157.21
550.84	30899.75
551.01	31311.69
551.18	31337.43
551.34	31924.91
551.51	30909.11
551.68	31344.45
551.84	31777.45
552.01	31777.45
552.18	31110.40
552.34	30981.67
552.51	31089.34
552.68	31400.63
552.84	31211.04
553.01	31222.75
553.18	30766.34
553.34	30955.93
553.51	32163.64
553.67	31173.60
553.84	30979.33
554.01	30747.62
554.17	30405.90
554.34	31204.02
554.51	30792.09
554.67	31079.97
554.84	31723.62
555.00	30899.75
555.17	30866.98
555.33	31192.32
555.50	31735.32
555.67	30663.36
555.83	30764.00
556.00	29434.58
556.16	30618.89
556.33	29724.80
556.50	30719.53
556.66	30064.18
556.83	29638.20
556.99	29497.77
557.16	29453.30
557.32	30326.32
557.49	31285.94
557.65	30714.85
557.82	30562.72
557.98	29879.28
558.15	29668.63
558.32	29467.34
558.48	29067.11
558.65	28411.76
558.81	27510.66
558.98	27887.48
559.14	29242.65
559.31	30499.52
559.47	28807.31
559.64	28056.00
559.80	27449.80
559.97	27730.67
560.13	28687.95
560.30	29453.30
560.46	30529.95
560.63	31620.64
560.79	32034.91
560.96	30237.38
561.12	28795.61
561.29	28652.84
561.45	28456.23
561.61	28056.00
561.78	28807.31
561.94	28847.10
562.11	28985.19
562.27	29380.74
562.44	29427.56
562.60	29846.51
562.77	30536.97
562.93	29778.64
563.10	28924.34
563.26	29804.38
563.42	29134.99
563.59	28591.98
563.75	28156.64
563.92	28577.94
564.08	28898.59
564.24	28105.15
564.41	28376.66
564.57	29575.01
564.74	29172.44
564.90	27779.82
565.07	27131.49
565.23	27044.89
565.39	27213.41
565.56	27850.03
565.72	27101.06
565.88	27323.41
566.05	27489.59
566.21	27859.40
566.38	27314.05
566.54	28400.06
566.70	28793.27
566.87	28240.90
567.03	28013.87
567.19	28802.63
567.36	27754.07
567.52	27555.13
567.68	27969.40
567.85	27110.43
568.01	25907.39
568.17	26253.79
568.34	27101.06
568.50	27180.64
568.66	27826.63
568.83	27168.94
568.99	27323.41
569.15	27229.79
569.32	27477.89
569.48	26625.93
569.64	26375.50
569.81	26813.18
569.97	26270.17
570.13	25806.75
570.30	25586.74
570.46	25968.24
570.62	25472.05
570.78	24807.34
570.95	25720.15
571.11	26375.50
571.27	26843.60
571.43	26848.29
571.60	27023.83
571.76	26829.56
571.92	26806.16
572.09	26754.66
572.25	26916.16
572.41	28170.69
572.57	29074.13
572.74	28409.42
572.90	27147.87
573.06	26396.56
573.22	26258.47
573.38	25642.91
573.55	26164.85
573.71	25666.31
573.87	26368.48
574.03	26794.45
574.20	26588.49
574.36	27007.44
574.52	27356.18
574.68	26595.51
574.84	25577.37
575.01	24723.08
575.17	25010.96
575.33	25170.12
575.49	25326.94
575.65	26419.97
575.82	25799.73
575.98	25701.42
576.14	25216.93
576.30	25465.03
576.46	25706.10
576.62	25591.42
576.79	26010.37
576.95	25769.30
577.11	24964.15
577.27	25666.31
577.43	25907.39
577.59	25420.56
577.75	25642.91
577.92	24367.32
578.08	24592.01
578.24	25249.70
578.40	25366.73
578.56	25118.63
578.72	25715.47
578.88	25497.80
579.04	25605.46
579.21	25614.82
579.37	25476.73
579.53	25937.82
579.69	26211.66
579.85	25654.61
580.01	24596.69
580.17	24163.69
580.33	24959.47
580.49	25376.09
580.65	24374.34
580.82	24573.28
580.98	24751.17
581.14	25008.62
581.30	24016.24
581.46	24379.02
581.62	24725.42
581.78	24809.68
581.94	24751.17
582.10	24980.54
582.26	25111.61
582.42	25860.58
582.58	25537.59
582.74	25891.01
582.90	26001.01
583.06	25949.52
583.22	25708.44
583.38	25919.09
583.54	25015.65
583.70	25202.89
583.86	25074.16
584.02	25029.69
584.18	25628.87
584.34	26045.48
584.50	25497.80
584.66	24547.54
584.82	24996.92
584.98	24166.03
585.14	23964.75
585.30	23756.44
585.46	23751.76
585.62	23442.81
585.78	23693.24
585.94	24306.46
586.10	23285.99
586.26	23175.98
586.42	23934.32
586.58	23999.85
586.74	24030.28
586.90	24465.62
