SpectraSuite Data File
++++++++++++++++++++++++++++++++++++
Date: Mon Oct 07 14:53:41 GMT-05:00 2013
User: price-jones
Dark Spectrum Present: No
Reference Spectrum Present: No
Number of Sampled Component Spectra: 1
Spectrometers: USB2+H05261
Integration Time (usec): 100000 (USB2+H05261)
Spectra Averaged: 1 (USB2+H05261)
Boxcar Smoothing: 0 (USB2+H05261)
Correct for Electrical Dark: No (USB2+H05261)
Strobe/Lamp Enabled: No (USB2+H05261)
Correct for Detector Non-linearity: No (USB2+H05261)
Correct for Stray Light: No (USB2+H05261)
Number of Pixels in Processed Spectrum: 2048
>>>>>Begin Processed Spectral Data<<<<<
365.73	0.00
365.92	0.00
366.12	0.00
366.32	0.00
366.52	0.00
366.72	0.00
366.91	0.00
367.11	0.00
367.31	0.00
367.51	0.00
367.70	0.00
367.90	0.00
368.10	0.00
368.30	0.00
368.49	0.00
368.69	0.00
368.89	0.00
369.09	0.00
369.28	0.00
369.48	0.00
369.68	0.00
369.87	0.00
370.07	0.00
370.27	0.00
370.47	517.26
370.66	2487.99
370.86	2906.95
371.06	3052.06
371.25	3332.92
371.45	2878.86
371.65	2654.17
371.84	2363.94
372.04	2569.91
372.24	2878.86
372.44	3007.59
372.63	2965.46
372.83	2794.60
373.03	2469.27
373.22	2296.07
373.42	2319.47
373.62	2862.48
373.81	3094.19
374.01	3049.72
374.21	2637.78
374.40	2548.84
374.60	2717.36
374.79	2953.76
374.99	3489.74
375.19	3693.37
375.38	3681.66
375.58	3461.65
375.78	3417.18
375.97	3541.23
376.17	3742.52
376.37	3730.81
376.56	3770.60
376.76	3983.59
376.95	4243.39
377.15	4552.34
377.35	4542.98
377.54	4826.18
377.74	4880.02
377.93	5050.88
378.13	4739.58
378.33	4718.52
378.52	4168.49
378.72	3896.99
378.91	4018.70
379.11	3946.14
379.31	3676.98
379.50	3740.18
379.70	3983.59
379.89	4329.99
380.09	4629.58
380.28	4821.50
380.48	4760.65
380.68	4737.24
380.87	4629.58
381.07	4318.29
381.26	4072.53
381.46	3693.37
381.65	3693.37
381.85	3527.19
382.04	3323.56
382.24	3157.38
382.43	2902.26
382.63	2951.42
382.83	2846.09
383.02	2993.55
383.22	2967.80
383.41	3068.44
383.61	3255.69
383.80	3662.94
384.00	4021.04
384.19	4613.20
384.39	4931.51
384.58	4837.89
384.78	4730.22
384.97	4798.10
385.17	4458.72
385.36	4145.09
385.56	4081.89
385.75	4159.13
385.95	4393.19
386.14	4877.68
386.34	5064.92
386.53	4800.44
386.72	4517.23
386.92	4524.26
387.11	4765.33
387.31	4933.85
387.50	4987.68
387.70	4739.58
387.89	4678.73
388.09	4713.84
388.28	4725.54
388.48	4760.65
388.67	5062.58
388.86	5736.65
389.06	6033.90
389.25	6480.94
389.45	6576.91
389.64	6429.45
389.84	6347.53
390.03	6183.70
390.22	6267.95
390.42	6424.77
390.61	7026.29
390.81	7396.09
391.00	7740.15
391.19	7578.65
391.39	7009.90
391.58	6745.42
391.78	6342.85
391.97	6265.61
392.16	5834.96
392.36	5430.04
392.55	4397.87
392.75	3463.99
392.94	2803.96
393.13	2672.89
393.33	3206.53
393.52	4102.96
393.71	5039.17
393.91	5738.99
394.10	5996.45
394.29	6771.17
394.49	7400.77
394.68	8032.72
394.88	7833.77
395.07	8273.79
395.26	8072.51
395.46	7903.99
395.65	7265.02
395.84	6450.52
396.04	5654.73
396.23	4465.74
396.42	3782.31
396.62	3485.06
396.81	4196.58
397.00	5296.63
397.19	6595.63
397.39	7925.05
397.58	9015.74
397.77	9518.96
397.97	9980.04
398.16	10022.17
398.35	10333.47
398.55	10745.40
398.74	11091.80
398.93	11356.28
399.12	11239.25
399.32	10619.01
399.51	10939.66
399.70	11831.41
399.90	11520.12
400.09	11543.52
400.28	11503.73
400.47	11620.76
400.67	12070.14
400.86	12608.47
401.05	12348.67
401.24	12453.99
401.44	12674.00
401.63	12966.57
401.82	12996.99
402.01	12833.16
402.21	12835.50
402.40	13046.15
402.59	12484.42
402.78	11948.43
402.97	11634.80
403.17	12231.64
403.36	12915.08
403.55	13085.94
403.74	13790.44
403.93	13289.56
404.13	12196.53
404.32	11772.89
404.51	12346.33
404.70	13511.91
404.89	13270.84
405.09	13022.74
405.28	12718.47
405.47	12484.42
405.66	12802.73
405.85	12531.23
406.05	12060.78
406.24	12329.94
406.43	12683.36
406.62	13004.02
406.81	13631.28
407.00	12854.22
407.20	12173.13
407.39	12720.81
407.58	13322.33
407.77	13930.87
407.96	14200.03
408.15	14183.65
408.34	14438.76
408.54	15098.80
408.73	15239.23
408.92	14925.60
409.11	14504.30
409.30	13933.21
409.49	13121.04
409.68	12262.07
409.87	11878.22
410.07	12624.85
410.26	13490.85
410.45	14090.02
410.64	14656.43
410.83	15016.88
411.02	15475.62
411.21	16196.51
411.40	15768.19
411.59	15953.09
411.78	16004.58
411.98	15410.09
412.17	16049.05
412.36	15707.34
412.55	15688.61
412.74	15377.32
412.93	15016.88
413.12	15021.56
413.31	16493.76
413.50	16886.97
413.69	17242.73
413.88	16374.39
414.07	15810.32
414.26	16184.80
414.45	16730.15
414.64	16769.94
414.83	16793.34
415.02	16531.20
415.22	16428.22
415.41	16823.77
415.60	17373.80
415.79	18417.68
415.98	18623.64
416.17	18192.98
416.36	18136.81
416.55	17673.39
416.74	17228.68
416.93	16514.82
417.12	16486.73
417.31	17018.04
417.50	17085.91
417.69	17654.66
417.88	17661.68
418.07	17481.46
418.26	17305.92
418.45	17376.14
418.64	18171.92
418.83	18567.47
419.02	18579.17
419.21	18342.78
419.39	17479.12
419.58	16755.90
419.77	16629.51
419.96	17472.10
420.15	18195.32
420.34	18661.09
420.53	19662.84
420.72	19964.77
420.91	19742.42
421.10	19550.49
421.29	19447.51
421.48	18752.37
421.67	19681.56
421.86	19033.24
422.05	17792.75
422.24	16046.71
422.43	15733.08
422.61	17432.31
422.80	19091.75
422.99	18944.30
423.18	18197.67
423.37	17708.49
423.56	17879.35
423.75	18267.88
423.94	18649.39
424.13	17315.28
424.32	17902.76
424.50	18031.49
424.69	17652.32
424.88	17891.06
425.07	17809.14
425.26	17797.43
425.45	17415.93
425.64	17156.13
425.83	17284.86
426.01	18012.76
426.20	18831.95
426.39	18719.60
426.58	17020.38
426.77	16051.39
426.96	15314.13
427.15	15920.32
427.33	17179.53
427.52	17855.95
427.71	17998.72
427.90	17977.65
428.09	17575.08
428.28	17036.76
428.46	16479.71
428.65	16439.92
428.84	16922.07
429.03	16989.95
429.22	15889.90
429.40	15421.79
429.59	13926.19
429.78	12257.39
429.97	12404.84
430.16	12496.12
430.34	12514.84
430.53	12346.33
430.72	12723.15
430.91	14113.43
431.10	16407.16
431.28	19398.36
431.47	20938.43
431.66	21245.04
431.85	19700.29
432.03	17902.76
432.22	17249.75
432.41	17706.15
432.60	19763.48
432.79	20725.44
432.97	21179.51
433.16	20732.47
433.35	18864.72
433.54	17247.41
433.72	15889.90
433.91	16409.50
434.10	18307.67
434.28	19597.31
434.47	20760.55
434.66	20528.84
434.85	20004.56
435.03	19882.85
435.22	20603.74
435.41	21607.83
435.59	21689.74
435.78	21898.05
435.97	22457.44
436.16	22352.12
436.34	22363.82
436.53	21874.65
436.72	21771.66
436.90	20313.51
437.09	20577.99
437.28	20133.29
437.46	20854.17
437.65	20908.01
437.84	19433.47
438.02	17624.23
438.21	17619.55
438.40	19073.03
438.58	20224.57
438.77	20863.54
438.96	21156.10
439.14	21701.45
439.33	22452.76
439.52	23147.90
439.70	22319.35
439.89	21891.03
440.08	21240.36
440.26	21275.47
440.45	22010.40
440.63	23260.24
440.82	24690.31
441.01	23943.68
441.19	24137.94
441.38	24332.21
441.57	25120.97
441.75	25668.66
441.94	26162.51
442.12	25350.34
442.31	26246.77
442.50	25951.86
442.68	25834.83
442.87	25525.88
443.05	25137.35
443.24	25132.67
443.43	25589.08
443.61	26705.51
443.80	26417.63
443.98	25200.55
444.17	25249.70
444.35	26632.96
444.54	27178.30
444.73	26661.04
444.91	26022.08
445.10	25099.90
445.28	23885.17
445.47	23293.01
445.65	23597.28
445.84	24123.90
446.02	24662.22
446.21	25394.81
446.39	25191.19
446.58	25476.73
446.77	26096.97
446.95	26724.24
447.14	27150.21
447.32	27828.97
447.51	27051.91
447.69	25972.92
447.88	25802.07
448.06	25610.14
448.25	26611.89
448.43	26881.05
448.62	25961.22
448.80	26120.38
448.99	26164.85
449.17	26614.23
449.36	26309.96
449.54	27541.08
449.73	28011.53
449.91	28334.53
450.10	29324.57
450.28	29802.04
450.46	29273.08
450.65	29338.62
450.83	29221.59
451.02	28297.08
451.20	28386.02
451.39	28631.77
451.57	28130.90
451.76	28119.20
451.94	27861.74
452.13	27534.06
452.31	26050.16
452.49	24917.34
452.68	24903.30
452.86	25507.16
453.05	25804.41
453.23	26529.97
453.42	27049.57
453.60	27826.63
453.78	28067.70
453.97	27503.64
454.15	27498.95
454.34	26890.41
454.52	27208.73
454.70	27089.36
454.89	27353.84
455.07	27180.64
455.26	27557.47
455.44	28491.34
455.62	28868.17
455.81	29043.71
455.99	28844.76
456.17	28657.52
456.36	28659.86
456.54	29329.25
456.73	29516.50
456.91	29844.17
457.09	30354.41
457.28	31005.08
457.46	29785.66
457.64	29427.56
457.83	28034.94
458.01	27716.62
458.19	28584.96
458.38	28959.45
458.56	29902.68
458.74	29696.72
458.93	28783.91
459.11	28922.00
459.29	28999.24
459.48	29207.55
459.66	28980.51
459.84	29237.97
460.03	29502.45
460.21	29687.36
460.39	30305.26
460.57	30345.05
460.76	30115.67
460.94	30843.58
461.12	30113.33
461.31	30555.69
461.49	30267.81
461.67	30103.97
461.85	31065.93
462.04	31058.91
462.22	31105.72
462.40	31325.73
462.59	30913.80
462.77	30782.73
462.95	30766.34
463.13	30925.50
463.32	30433.99
463.50	30059.50
463.68	29970.56
463.86	30707.83
464.05	30075.88
464.23	29450.96
464.41	29142.01
464.59	28762.84
464.78	29776.30
464.96	30167.16
465.14	29486.07
465.32	30150.78
465.50	31587.87
465.69	31527.02
465.87	30513.56
466.05	29916.73
466.23	28924.34
466.41	27831.31
466.60	28943.06
466.78	28950.09
466.96	29436.92
467.14	29570.33
467.32	30155.46
467.51	30331.00
467.69	28826.04
467.87	29268.40
468.05	30146.10
468.23	29970.56
468.41	29996.31
468.60	30197.59
468.78	30298.23
468.96	30082.91
469.14	30157.80
469.32	30714.85
469.50	29497.77
469.69	29839.49
469.87	29455.64
470.05	28917.32
470.23	29219.25
470.41	29041.37
470.59	29731.83
470.77	29855.87
470.95	30593.14
471.14	30705.49
471.32	30771.02
471.50	32549.83
471.68	32760.48
471.86	32975.81
472.04	33071.77
472.22	32886.87
472.40	31573.83
472.58	31211.04
472.77	30927.84
472.95	31683.83
473.13	32025.55
473.31	31449.78
473.49	31515.31
473.67	32617.71
473.85	32402.38
474.03	33748.18
474.21	33425.19
474.39	33869.89
474.57	34235.02
474.75	34064.16
474.93	33795.00
475.12	32507.70
475.30	32912.61
475.48	32648.13
475.66	33432.21
475.84	32900.91
476.02	33273.06
476.20	32060.66
476.38	33392.42
476.56	34036.07
476.74	34567.37
476.92	34766.32
477.10	35306.98
477.28	36498.31
477.46	36472.57
477.64	36818.97
477.82	36823.65
478.00	36638.75
478.18	36231.49
478.36	35899.14
478.54	36669.17
478.72	36128.51
478.90	36863.44
479.08	37958.81
479.26	38576.71
479.44	38445.64
479.62	38450.32
479.80	38216.27
479.98	38567.35
480.16	38747.57
480.34	38572.03
480.52	38738.21
480.70	39271.85
480.88	38916.09
481.06	39964.65
481.24	39924.86
481.41	41060.02
481.59	41741.11
481.77	40961.72
481.95	40591.91
482.13	40556.80
482.31	40884.48
482.49	41612.38
482.67	41205.13
482.85	41593.66
483.03	41785.58
483.21	42190.50
483.39	42742.86
483.57	41743.45
483.74	41345.56
483.92	41507.06
484.10	42010.28
484.28	42941.81
484.46	42911.38
484.64	43342.04
484.82	42707.76
485.00	42155.39
485.18	41462.59
485.35	40032.52
485.53	37120.90
485.71	33804.36
485.89	33455.62
486.07	35168.89
486.25	37928.38
486.43	40680.85
486.61	40982.78
486.78	41130.23
486.96	41034.27
487.14	42836.48
487.32	44133.14
487.50	44921.90
487.68	45837.05
487.85	46625.81
488.03	46459.63
488.21	46398.78
488.39	45287.03
488.57	44825.94
488.75	44294.64
488.92	45474.27
489.10	47856.93
489.28	49584.25
489.46	49975.12
489.64	49886.18
489.81	50024.27
489.99	49415.73
490.17	49708.30
490.35	50389.39
490.53	49635.74
490.70	49270.62
490.88	49064.65
491.06	49780.85
491.24	50258.32
491.41	48769.74
491.59	47269.46
491.77	45837.05
491.95	47377.12
492.13	48692.50
492.30	50127.25
492.48	51192.20
492.66	51976.28
492.84	51613.49
493.01	51227.31
493.19	50791.97
493.37	50602.38
493.54	50052.36
493.72	50948.78
493.90	52006.70
494.08	53059.94
494.25	53202.72
494.43	53483.58
494.61	53855.73
494.79	54148.29
494.96	53609.97
495.14	53200.38
495.32	52280.55
495.49	51157.09
495.67	52360.12
495.85	54220.85
496.02	54354.26
496.20	54328.52
496.38	53593.59
496.55	53696.57
496.73	54195.10
496.91	53963.39
497.09	54639.81
497.26	55105.57
497.44	54295.75
497.62	54167.02
497.79	53305.70
497.97	52002.02
498.14	52285.23
498.32	53141.86
498.50	54033.61
498.67	54726.41
498.85	54710.02
499.03	54805.98
499.20	55370.05
499.38	54979.18
499.56	54890.24
499.73	54328.52
499.91	53881.47
500.08	53333.79
500.26	52615.24
500.44	53104.41
500.61	53951.69
500.79	53729.34
500.97	53425.07
501.14	53055.26
501.32	53034.20
501.49	52608.22
501.67	53242.51
501.84	53937.65
502.02	54152.97
502.20	54534.48
502.37	54766.20
502.55	54789.60
502.72	55093.87
502.90	55669.64
503.07	55178.13
503.25	55295.16
503.43	54087.44
503.60	53352.51
503.78	52821.21
503.95	53361.87
504.13	54845.77
504.30	55608.79
504.48	55337.29
504.65	55126.64
504.83	55014.29
505.01	55646.24
505.18	55866.25
505.36	56591.81
505.53	56662.03
505.71	57066.94
505.88	56954.60
506.06	56491.17
506.23	55899.01
506.41	55487.08
506.58	55718.79
506.76	55671.98
506.93	55627.51
507.11	55774.97
507.28	55756.24
507.46	55224.94
507.63	54422.14
507.81	54225.53
507.98	54667.89
508.16	55391.12
508.33	55721.13
508.50	56296.91
508.68	56486.49
508.85	57006.09
509.03	57172.27
509.20	56987.36
509.38	56238.39
509.55	55573.68
509.73	55356.01
509.90	56009.02
510.08	56399.89
510.25	56217.33
510.42	56175.20
510.60	55917.74
510.77	56219.67
510.95	56970.98
511.12	57073.96
511.30	57153.54
511.47	57490.58
511.64	57448.45
511.82	57303.34
511.99	56306.27
512.17	55924.76
512.34	55543.25
512.51	55721.13
512.69	55784.33
512.86	55863.91
513.04	56435.00
513.21	56507.55
513.38	55997.32
513.56	55288.13
513.73	55047.06
513.90	55271.75
514.08	55400.48
514.25	55845.18
514.43	55973.91
514.60	55983.27
514.77	56037.11
514.95	56011.36
515.12	56088.60
515.29	55999.66
515.47	56760.33
515.64	56870.34
515.81	56690.12
515.99	56058.17
516.16	54429.16
516.33	52065.22
516.51	50251.30
516.68	49380.62
516.85	48830.60
517.03	49043.59
517.20	52151.82
517.37	54960.46
517.54	56144.77
517.72	55569.00
517.89	52978.03
518.06	50487.70
518.24	50277.05
518.41	53228.46
518.58	54609.38
518.75	54967.48
518.93	55023.65
519.10	55035.36
519.27	55185.15
519.45	55529.21
519.62	56360.10
519.79	56748.63
519.96	56376.48
520.14	56191.58
520.31	55194.51
520.48	55281.11
520.65	55374.73
520.83	56610.54
521.00	57041.20
521.17	56732.25
521.34	56268.82
521.52	56507.55
521.69	56835.23
521.86	57530.37
522.03	57172.27
522.20	56121.37
522.38	54831.73
522.55	54707.68
522.72	55381.76
522.89	55826.46
523.07	55870.93
523.24	56048.81
523.41	57080.98
523.58	57518.67
523.75	57792.51
523.92	57539.73
524.10	57638.03
524.27	57563.14
524.44	57574.84
524.61	57268.23
524.78	56992.04
524.96	57024.81
525.13	57057.58
525.30	57123.11
525.47	57691.86
525.64	57525.69
525.81	56884.38
525.98	55508.14
526.16	53883.81
526.33	52959.30
526.50	52671.42
526.67	52554.39
526.84	52952.28
527.01	54396.39
527.18	54965.14
527.36	55999.66
527.53	56748.63
527.70	57059.92
527.87	56526.28
528.04	55828.80
528.21	56762.67
528.38	56985.02
528.55	57825.28
528.72	58089.76
528.89	58333.17
529.07	57916.56
529.24	57382.91
529.41	56580.11
529.58	56104.98
529.75	56287.54
529.92	56790.76
530.09	57052.90
530.26	57544.41
530.43	57769.10
530.60	57715.27
530.77	58082.73
530.94	58284.02
531.11	57593.56
531.28	57436.75
531.46	56961.62
531.63	57179.29
531.80	57127.80
531.97	56673.73
532.14	56200.94
532.31	54838.75
532.48	54078.08
532.65	54255.96
532.82	55011.95
532.99	56196.26
533.16	56458.40
533.33	57214.40
533.50	57043.54
533.67	56481.81
533.84	55824.12
534.01	56200.94
534.18	56554.36
534.35	56729.90
534.52	56362.44
534.69	56772.03
534.86	57038.86
535.03	57270.57
535.20	57614.63
535.37	58141.25
535.54	58080.39
535.71	57911.88
535.88	57595.90
536.05	56884.38
536.22	56456.06
536.38	56196.26
536.55	55718.79
536.72	55281.11
536.89	55044.72
537.06	56053.49
537.23	56736.93
537.40	57130.14
537.57	57090.35
537.74	56743.95
537.91	56734.59
538.08	56655.01
538.25	56701.82
538.42	57158.22
538.59	56788.42
538.75	56130.73
538.92	55629.85
539.09	55529.21
539.26	55580.70
539.43	55267.07
539.60	55374.73
539.77	55606.45
539.94	55573.68
540.11	54698.32
540.28	53942.33
540.44	54356.60
540.61	54504.06
540.78	54796.62
540.95	55168.77
541.12	55508.14
541.29	55955.19
541.46	56343.72
541.62	56329.67
541.79	56259.46
541.96	55657.94
542.13	55379.42
542.30	55941.14
542.47	56135.41
542.63	55819.44
542.80	55655.60
542.97	55903.70
543.14	55592.40
543.31	55522.19
543.48	56140.09
543.64	56940.55
543.81	57158.22
543.98	57249.50
544.15	56268.82
544.32	55819.44
544.48	55901.36
544.65	56175.20
544.82	56619.90
544.99	56261.80
545.16	56067.53
545.32	55611.13
545.49	56406.91
545.66	56793.10
545.83	56516.92
546.00	56214.99
546.16	55749.22
546.33	55508.14
546.50	55962.21
546.67	56322.65
546.83	56126.05
547.00	56020.72
547.17	55246.00
547.34	54878.54
547.50	54403.41
547.67	55182.81
547.84	55056.42
548.00	55318.56
548.17	55959.87
548.34	55938.80
548.51	55983.27
548.67	55891.99
548.84	56004.34
549.01	56046.47
549.18	55688.37
549.34	55751.56
549.51	55800.71
549.68	55634.53
549.84	55501.12
550.01	55526.87
550.18	55100.89
550.34	55292.82
550.51	55278.77
550.68	55515.17
550.84	54784.92
551.01	54948.76
551.18	54927.69
551.34	55295.16
551.51	55608.79
551.68	55662.62
551.84	55840.50
552.01	55784.33
552.18	55475.38
552.34	54843.43
552.51	54167.02
552.68	54127.23
552.84	55007.27
553.01	55164.09
553.18	54850.45
553.34	55037.70
553.51	55098.55
553.67	55407.50
553.84	55613.47
554.01	55580.70
554.17	55262.39
554.34	55086.85
554.51	55583.04
554.67	55686.03
554.84	55515.17
555.00	55344.31
555.17	55044.72
555.33	54986.21
555.50	54813.01
555.67	55011.95
555.83	54923.01
556.00	54340.22
556.16	54349.58
556.33	53834.66
556.50	53722.32
556.66	53890.83
556.83	53638.06
556.99	53694.23
557.16	53689.55
557.32	54181.06
557.49	54548.53
557.65	54372.99
557.82	54255.96
557.98	54220.85
558.15	53649.76
558.32	52924.19
558.48	51672.01
558.65	52055.85
558.81	52463.11
558.98	52788.44
559.14	53268.25
559.31	53010.79
559.47	53191.01
559.64	52928.87
559.80	52381.19
559.97	52577.79
560.13	53237.83
560.30	54157.66
560.46	54405.75
560.63	54960.46
560.79	54993.23
560.96	54410.43
561.12	53521.03
561.29	52119.05
561.45	52193.95
561.61	53116.12
561.78	53448.47
561.94	53207.40
562.11	53212.08
562.27	52956.96
562.44	53453.15
562.60	53638.06
562.77	53942.33
562.93	53890.83
563.10	53773.81
563.26	53162.93
563.42	53022.50
563.59	52837.59
563.75	52900.79
563.92	52968.66
564.08	52835.25
564.24	53095.05
564.41	53188.67
564.57	52971.00
564.74	52865.68
564.90	52879.72
565.07	52708.86
565.23	52151.82
565.39	51868.61
565.56	51360.72
565.72	50969.85
565.88	51849.89
566.05	51480.08
566.21	52217.35
566.38	51952.87
566.54	52350.76
566.70	52746.31
566.87	52886.74
567.03	52793.12
567.19	52830.57
567.36	52959.30
567.52	52540.35
567.68	52184.58
567.85	51751.59
568.01	51068.15
568.17	50600.04
568.34	50939.42
568.50	50382.37
568.66	51199.22
568.83	51398.16
568.99	51459.02
569.15	51402.85
569.32	51454.34
569.48	51407.53
569.64	51070.49
569.81	50773.24
569.97	50901.97
570.13	50960.48
570.30	50153.00
570.46	49839.37
570.62	48582.50
570.78	48807.19
570.95	49359.56
571.11	50003.20
571.27	50160.02
571.43	50724.09
571.60	50873.88
571.76	51100.92
571.92	51459.02
572.09	51487.10
572.25	51606.47
572.41	51576.04
572.57	51456.68
572.74	51592.43
572.90	50609.40
573.06	50724.09
573.22	50705.37
573.38	50958.14
573.55	50887.93
573.71	51129.00
573.87	50848.14
574.03	50597.70
574.20	50660.90
574.36	50017.25
574.52	50092.15
574.68	49902.56
574.84	49818.30
575.01	48905.49
575.17	48690.16
575.33	49130.19
575.49	49577.23
575.65	49841.71
575.82	49272.96
575.98	49074.01
576.14	49357.22
576.30	49965.76
576.46	50246.62
576.62	49975.12
576.79	49804.26
576.95	49312.75
577.11	49223.81
577.27	49464.88
577.43	49705.96
577.59	49148.91
577.75	48858.68
577.92	48140.14
578.08	47817.14
578.24	47793.74
578.40	47945.87
578.56	48645.69
578.72	48900.81
578.88	48343.77
579.04	49027.20
579.21	48928.90
579.37	49139.55
579.53	49169.97
579.69	49219.13
579.85	49638.08
580.01	49179.34
580.17	48664.42
580.33	48444.41
580.49	48835.28
580.65	48954.64
580.82	49059.97
580.98	49076.35
581.14	49111.46
581.30	49228.49
581.46	48701.87
581.62	49144.23
581.78	49354.88
581.94	49207.42
582.10	49404.03
582.26	49312.75
582.42	49076.35
582.58	49689.57
582.74	49794.90
582.90	49097.42
583.06	49326.79
583.22	49195.72
583.38	48704.21
583.54	48744.00
583.70	48559.09
583.86	48622.29
584.02	48626.97
584.18	48683.14
584.34	48523.99
584.50	48760.38
584.66	48116.73
584.82	48156.52
584.98	48170.57
585.14	47498.83
585.30	46658.58
