SpectraSuite Data File
++++++++++++++++++++++++++++++++++++
Date: Mon Oct 07 14:54:01 GMT-05:00 2013
User: price-jones
Dark Spectrum Present: No
Reference Spectrum Present: No
Number of Sampled Component Spectra: 1
Spectrometers: USB2+H05261
Integration Time (usec): 100000 (USB2+H05261)
Spectra Averaged: 1 (USB2+H05261)
Boxcar Smoothing: 0 (USB2+H05261)
Correct for Electrical Dark: No (USB2+H05261)
Strobe/Lamp Enabled: No (USB2+H05261)
Correct for Detector Non-linearity: No (USB2+H05261)
Correct for Stray Light: No (USB2+H05261)
Number of Pixels in Processed Spectrum: 2048
>>>>>Begin Processed Spectral Data<<<<<
365.73	0.00
365.92	0.00
366.12	0.00
366.32	0.00
366.52	0.00
366.72	0.00
366.91	0.00
367.11	0.00
367.31	0.00
367.51	0.00
367.70	0.00
367.90	0.00
368.10	0.00
368.30	0.00
368.49	0.00
368.69	0.00
368.89	0.00
369.09	0.00
369.28	0.00
369.48	0.00
369.68	0.00
369.87	0.00
370.07	0.00
370.27	0.00
370.47	681.10
370.66	3412.50
370.86	3971.89
371.06	4407.23
371.25	4416.59
371.45	3875.93
371.65	3660.60
371.84	3379.73
372.04	3529.53
372.24	3920.40
372.44	4147.43
372.63	4070.19
372.83	3826.78
373.03	3311.86
373.22	2937.37
373.42	3150.36
373.62	3768.26
373.81	3999.98
374.01	3946.14
374.21	3688.68
374.40	3351.65
374.60	3555.27
374.79	3936.78
374.99	4720.86
375.19	4994.70
375.38	5039.17
375.58	4589.79
375.78	4461.06
375.97	4568.73
376.17	4791.08
376.37	4917.47
376.56	5083.64
376.76	5238.12
376.95	5575.16
377.15	5844.32
377.35	6087.73
377.54	6462.22
377.74	6420.09
377.93	6429.45
378.13	6630.74
378.33	6057.31
378.52	5516.64
378.72	5441.75
378.91	5324.72
379.11	5186.63
379.31	5153.86
379.50	5057.90
379.70	5350.46
379.89	5841.98
380.09	6349.87
380.28	6473.92
380.48	6492.65
380.68	6342.85
380.87	6408.39
381.07	5764.74
381.26	5317.70
381.46	4983.00
381.65	4791.08
381.85	4793.42
382.04	4374.46
382.24	4311.27
382.43	3885.29
382.63	3758.90
382.83	3894.65
383.02	4004.66
383.22	3819.75
383.41	3990.61
383.61	4109.98
383.80	4678.73
384.00	5317.70
384.19	5987.09
384.39	6415.41
384.58	6464.56
384.78	6382.64
384.97	6097.10
385.17	5893.47
385.36	5703.89
385.56	5364.51
385.75	5493.24
385.95	6097.10
386.14	6569.88
386.34	6548.82
386.53	6413.07
386.72	5827.93
386.92	5973.05
387.11	6232.85
387.31	6691.59
387.50	6455.20
387.70	6167.31
387.89	6061.99
388.09	6183.70
388.28	6326.47
388.48	6312.42
388.67	6881.18
388.86	7372.69
389.06	7765.90
389.25	8748.92
389.45	8594.45
389.64	8397.84
389.84	8311.24
390.03	8205.92
390.22	8339.33
390.42	8442.31
390.61	9025.11
390.81	9701.52
391.00	10040.90
391.19	9762.37
391.39	9350.44
391.58	8973.61
391.78	8351.03
391.97	8084.21
392.16	7583.34
392.36	7082.46
392.55	5518.98
392.75	4414.25
392.94	3574.00
393.13	3637.19
393.33	4241.05
393.52	5465.15
393.71	6670.53
393.91	7527.16
394.10	7941.44
394.29	8669.34
394.49	9647.69
394.68	10293.68
394.88	10340.49
395.07	10696.25
395.26	10478.58
395.46	10249.21
395.65	9671.09
395.84	8454.02
396.04	7255.66
396.23	5783.46
396.42	4999.38
396.62	4725.54
396.81	5366.85
397.00	7045.01
397.19	8641.26
397.39	10448.15
397.58	11721.40
397.77	12458.67
397.97	12947.84
398.16	12898.69
398.35	13582.13
398.55	14008.11
398.74	14471.53
398.93	14932.62
399.12	14518.34
399.32	13975.34
399.51	14174.28
399.70	15417.11
399.90	15264.97
400.09	15101.14
400.28	14789.85
400.47	14871.76
400.67	15623.08
400.86	16035.01
401.05	16149.70
401.24	16229.27
401.44	16636.53
401.63	16332.26
401.82	16746.53
402.01	16517.16
402.21	16812.07
402.40	16917.39
402.59	16154.38
402.78	15796.28
402.97	15241.57
403.17	15620.74
403.36	16664.61
403.55	17224.00
403.74	17329.33
403.93	16615.46
404.13	15311.78
404.32	15077.73
404.51	15714.36
404.70	17212.30
404.89	17062.51
405.09	16786.32
405.28	16109.91
405.47	16243.32
405.66	16514.82
405.85	15735.42
406.05	15733.08
406.24	15562.22
406.43	16201.19
406.62	17032.08
406.81	16886.97
407.00	16369.71
407.20	16107.57
407.39	16248.00
407.58	16992.29
407.77	17717.86
407.96	17940.21
408.15	18410.65
408.34	18310.01
408.54	19035.58
408.73	19452.19
408.92	18824.93
409.11	18345.12
409.30	17593.81
409.49	16416.52
409.68	15569.24
409.87	15049.64
410.07	15763.51
410.26	17411.25
410.45	18300.65
410.64	18471.51
410.83	19302.40
411.02	19868.81
411.21	20318.19
411.40	20208.19
411.59	20662.25
411.78	20177.76
411.98	19934.34
412.17	20397.77
412.36	19840.72
412.55	20018.60
412.74	19609.01
412.93	19136.22
413.12	19428.79
413.31	20929.07
413.50	20896.30
413.69	21994.01
413.88	20659.91
414.07	20086.48
414.26	20629.48
414.45	21109.29
414.64	21451.01
414.83	21238.02
415.02	20627.14
415.22	20945.45
415.41	21221.64
415.60	22139.13
415.79	22548.72
415.98	23592.60
416.17	23398.34
416.36	22604.89
416.55	22483.19
416.74	21745.92
416.93	20886.94
417.12	20863.54
417.31	21242.70
417.50	21528.25
417.69	22101.68
417.88	22314.67
418.07	21940.18
418.26	21469.73
418.45	22082.95
418.64	22724.26
418.83	23690.90
419.02	23482.59
419.21	22998.10
419.39	21954.22
419.58	21064.82
419.77	21085.89
419.96	21888.69
420.15	23168.96
420.34	23805.59
420.53	24922.02
420.72	25221.61
420.91	24999.26
421.10	24269.01
421.29	24301.78
421.48	23428.76
421.67	24613.07
421.86	24163.69
422.05	22094.66
422.24	20095.84
422.43	19978.81
422.61	21869.97
422.80	23641.75
422.99	24105.18
423.18	22920.87
423.37	22471.48
423.56	22265.52
423.75	23002.78
423.94	23110.45
424.13	21891.03
424.32	22270.20
424.50	22464.46
424.69	22101.68
424.88	22174.24
425.07	22122.74
425.26	22115.72
425.45	21888.69
425.64	21675.70
425.83	21156.10
426.01	22897.46
426.20	23213.43
426.39	23168.96
426.58	21294.19
426.77	19765.82
426.96	18822.59
427.15	19819.66
427.33	21305.90
427.52	22232.75
427.71	22515.95
427.90	22066.57
428.09	22258.49
428.28	21631.23
428.46	20760.55
428.65	20269.04
428.84	20765.23
429.03	21184.19
429.22	20084.14
429.40	19190.05
429.59	17350.39
429.78	15442.85
429.97	15419.45
430.16	15482.64
430.34	15658.18
430.53	15283.70
430.72	15810.32
430.91	17507.21
431.10	20362.66
431.28	24273.70
431.47	26111.02
431.66	26742.96
431.85	24329.87
432.03	22380.20
432.22	21193.55
432.41	22471.48
432.60	24634.14
432.79	25364.39
432.97	26291.24
433.16	25425.24
433.35	23257.90
433.54	20861.19
433.72	19702.63
433.91	20142.65
434.10	22644.68
434.28	24219.86
434.47	25649.93
434.66	25041.39
434.85	24594.35
435.03	24596.69
435.22	25055.43
435.41	26508.91
435.59	26253.79
435.78	26806.16
435.97	27541.08
436.16	27718.96
436.34	27426.40
436.53	26611.89
436.72	26782.75
436.90	25359.70
437.09	25380.77
437.28	24797.98
437.46	25848.88
437.65	25603.12
437.84	24264.33
438.02	22029.12
438.21	21816.13
438.40	23190.03
438.58	25750.57
438.77	25710.78
438.96	25874.62
439.14	27035.53
439.33	27445.12
439.52	27688.54
439.70	27508.32
439.89	26906.80
440.08	25799.73
440.26	26129.74
440.45	26895.10
440.63	28348.57
440.82	30209.29
441.01	29605.44
441.19	29237.97
441.38	30080.56
441.57	31145.51
441.75	31510.63
441.94	31456.80
442.12	30918.48
442.31	31929.59
442.50	31737.66
442.68	31555.10
442.87	30962.95
443.05	30625.91
443.24	30745.28
443.43	31512.97
443.61	32154.28
443.80	32905.59
443.98	30714.85
444.17	30801.45
444.35	32608.34
444.54	33039.00
444.73	32378.97
444.91	30913.80
445.10	30356.75
445.28	29270.74
445.47	28549.85
445.65	28655.18
445.84	29479.05
446.02	30501.86
446.21	30899.75
446.39	30920.82
446.58	31356.16
446.77	31594.89
446.95	31962.36
447.14	32882.19
447.32	33235.61
447.51	32563.87
447.69	31438.08
447.88	31325.73
448.06	31772.77
448.25	32264.28
448.43	32840.06
448.62	32034.91
448.80	31880.44
448.99	31850.01
449.17	32219.81
449.36	32128.53
449.54	33179.43
449.73	33949.47
449.91	34377.79
450.10	35283.58
450.28	35849.99
450.46	35470.82
450.65	35772.75
450.83	34939.52
451.02	34066.50
451.20	34185.86
451.39	34281.83
451.57	34286.51
451.76	34080.54
451.94	33818.40
452.13	33158.37
452.31	32254.92
452.49	30403.56
452.68	30588.46
452.86	30536.97
453.05	31206.36
453.23	32095.77
453.42	32933.68
453.60	33514.13
453.78	33757.55
453.97	33780.95
454.15	33457.96
454.34	32980.49
454.52	32924.32
454.70	32332.16
454.89	32184.71
455.07	32910.27
455.26	33198.16
455.44	34731.21
455.62	35302.30
455.81	35498.91
455.99	34927.81
456.17	34469.07
456.36	34436.30
456.54	35910.84
456.73	35543.38
456.91	36327.45
457.09	36404.69
457.28	37008.55
457.46	35690.83
457.64	35449.75
457.83	34525.24
458.01	33228.59
458.19	34658.65
458.38	34574.39
458.56	35536.35
458.74	35835.94
458.93	35033.14
459.11	34813.13
459.29	34728.87
459.48	34733.55
459.66	34604.82
459.84	35161.87
460.03	35756.36
460.21	35639.34
460.39	36135.53
460.57	37017.91
460.76	36793.22
460.94	36526.40
461.12	36219.79
461.31	36463.21
461.49	36484.27
461.67	36072.34
461.85	37570.28
462.04	36914.93
462.22	37673.26
462.40	37371.33
462.59	36896.20
462.77	37230.90
462.95	36849.39
463.13	36613.00
463.32	36409.37
463.50	36032.55
463.68	35955.31
463.86	35768.07
464.05	35849.99
464.23	35627.63
464.41	34822.49
464.59	34686.74
464.78	35798.49
464.96	35878.07
465.14	35206.34
465.32	36624.70
465.50	37050.68
465.69	37399.42
465.87	36666.83
466.05	35627.63
466.23	34459.71
466.41	33277.74
466.60	34710.14
466.78	34501.84
466.96	34834.19
467.14	35768.07
467.32	36177.66
467.51	36095.74
467.69	34153.10
467.87	35545.72
468.05	35414.65
468.23	35812.54
468.41	35676.79
468.60	35852.33
468.78	36631.72
468.96	35852.33
469.14	36570.87
469.32	36477.25
469.50	35271.87
469.69	35330.39
469.87	34988.67
470.05	34682.06
470.23	34649.29
470.41	35299.96
470.59	35536.35
470.77	35742.32
470.95	36402.35
471.14	36905.57
471.32	36500.65
471.50	38202.22
471.68	38761.61
471.86	38794.38
472.04	39267.17
472.22	39203.97
472.40	37476.66
472.58	36954.72
472.77	36400.01
472.95	37518.79
473.13	38349.68
473.31	37340.91
473.49	37556.24
473.67	38120.31
473.85	38361.38
474.03	39194.61
474.21	39295.25
474.39	39475.48
474.57	40257.21
474.75	40236.15
474.93	39615.91
475.12	38284.14
475.30	38778.00
475.48	39077.58
475.66	39374.83
475.84	38693.74
476.02	38838.85
476.20	38387.13
476.38	39005.03
476.56	40158.91
476.74	40582.55
476.92	41001.50
477.10	42082.83
477.28	42419.87
477.46	42667.97
477.64	43023.73
477.82	42784.99
478.00	42986.28
478.18	42916.06
478.36	42181.13
478.54	42146.03
478.72	42859.89
478.90	43739.93
479.08	44626.99
479.26	45240.21
479.44	45106.80
479.62	44217.40
479.80	44629.34
479.98	45277.66
480.16	45539.80
480.34	44786.15
480.52	45020.20
480.70	45605.34
480.88	45546.82
481.06	46527.51
481.24	46520.49
481.41	47473.09
481.59	47962.26
481.77	47976.30
481.95	46639.86
482.13	46820.08
482.31	47051.79
482.49	47817.14
482.67	47014.34
482.85	48004.39
483.03	48177.59
483.21	48802.51
483.39	48830.60
483.57	48200.99
483.74	47639.26
483.92	47889.70
484.10	47999.71
484.28	48971.03
484.46	49446.16
484.64	49813.62
484.82	49083.37
485.00	48516.96
485.18	47903.74
485.35	46295.80
485.53	43096.28
485.71	39653.36
485.89	38944.17
486.07	41036.61
486.25	44634.02
486.43	46979.23
486.61	47620.54
486.78	47276.48
486.96	47555.00
487.14	49282.32
487.32	49879.16
487.50	50843.46
487.68	51632.22
487.85	52196.29
488.03	52203.31
488.21	51920.10
488.39	51070.49
488.57	50632.81
488.75	49921.29
488.92	51079.85
489.10	53167.61
489.28	54574.27
489.46	55398.14
489.64	55058.76
489.81	54979.18
489.99	54707.68
490.17	54550.87
490.35	55220.26
490.53	54827.05
490.70	54560.23
490.88	54316.81
491.06	55379.42
491.24	55297.50
491.41	53986.80
491.59	52734.61
491.77	51711.80
491.95	52992.07
492.13	53996.16
492.30	55246.00
492.48	56016.04
492.66	56442.02
492.84	56369.46
493.01	56310.95
493.19	55648.58
493.37	55302.18
493.54	55246.00
493.72	55615.81
493.90	56535.64
494.08	57366.53
494.25	57411.00
494.43	57698.89
494.61	57860.38
494.79	58192.74
494.96	58017.20
495.14	57499.94
495.32	56458.40
495.49	55957.53
495.67	57092.69
495.85	58021.88
496.02	58464.24
496.20	58468.92
496.38	57996.13
496.55	57818.25
496.73	58464.24
496.91	58475.94
497.09	59121.93
497.26	59025.97
497.44	58628.08
497.62	58131.89
497.79	57471.85
497.97	56161.15
498.14	56357.76
498.32	57399.30
498.50	58309.77
498.67	58656.17
498.85	58770.85
499.03	58946.39
499.20	58955.75
499.38	59042.35
499.56	58857.45
499.73	58255.93
499.91	57820.59
500.08	57778.46
500.26	56954.60
500.44	57331.42
500.61	57951.66
500.79	58003.16
500.97	57579.52
501.14	57605.26
501.32	57228.44
501.49	57247.16
501.67	57277.59
501.84	57865.06
502.02	58174.02
502.20	58489.99
502.37	58415.09
502.55	58497.01
502.72	59098.53
502.90	59419.18
503.07	59311.52
503.25	59032.99
503.43	58286.36
503.60	57659.10
503.78	57020.13
503.95	57221.42
504.13	58707.66
504.30	59430.88
504.48	59355.99
504.65	58855.11
504.83	58717.02
505.01	59538.55
505.18	59660.26
505.36	60226.66
505.53	60402.21
505.71	60556.68
505.88	60659.66
506.06	59966.87
506.23	59613.44
506.41	59370.03
506.58	59465.99
506.76	59503.44
506.93	59512.80
507.11	59135.98
507.28	59299.81
507.46	59004.91
507.63	58466.58
507.81	58328.49
507.98	58515.73
508.16	58883.20
508.33	59540.89
508.50	59980.91
508.68	60306.24
508.85	60701.79
509.03	60704.13
509.20	60594.13
509.38	59901.33
509.55	59089.16
509.73	59040.01
509.90	59732.81
510.08	60069.85
510.25	59653.23
510.42	59774.94
510.60	59681.32
510.77	59793.67
510.95	60434.97
511.12	60360.08
511.30	60671.37
511.47	61059.90
511.64	60931.17
511.82	60573.06
511.99	59760.90
512.17	59477.69
512.34	58841.07
512.51	59309.18
512.69	59494.08
512.86	59538.55
513.04	59997.29
513.21	59906.01
513.38	59622.81
513.56	58951.07
513.73	58820.00
513.90	58894.90
514.08	58824.68
514.25	59199.17
514.43	59229.60
514.60	59437.90
514.77	59341.94
514.95	59545.57
515.12	59398.12
515.29	59910.69
515.47	60170.49
515.64	60322.63
515.81	59838.14
515.99	59416.84
516.16	58204.44
516.33	55987.95
516.51	54836.41
516.68	53771.47
516.85	53609.97
517.03	53930.62
517.20	56498.19
517.37	58665.53
517.54	59615.79
517.72	59451.95
517.89	56879.70
518.06	54740.45
518.24	54749.81
518.41	56905.44
518.58	58230.19
518.75	58225.51
518.93	58473.60
519.10	58419.77
519.27	59009.59
519.45	59243.64
519.62	59655.57
519.79	60093.25
519.96	59791.33
520.14	59386.41
520.31	58632.76
520.48	58684.25
520.65	59000.22
520.83	59992.61
521.00	60364.76
521.17	59835.80
521.34	59515.14
521.52	59868.56
521.69	60544.98
521.86	60816.48
522.03	60346.03
522.20	59484.72
522.38	58225.51
522.55	58464.24
522.72	58850.43
522.89	59173.42
523.07	59393.43
523.24	59480.03
523.41	60198.58
523.58	60622.22
523.75	60935.85
523.92	60982.66
524.10	60781.37
524.27	60844.57
524.44	60711.16
524.61	60418.59
524.78	60418.59
524.96	60135.38
525.13	60243.05
525.30	60556.68
525.47	60874.99
525.64	60605.83
525.81	60130.70
525.98	58822.34
526.16	57408.66
526.33	56797.78
526.50	56362.44
526.67	56048.81
526.84	56781.40
527.01	57701.23
527.18	58183.38
527.36	59206.19
527.53	59997.29
527.70	60214.96
527.87	59863.88
528.04	59468.33
528.21	59859.20
528.38	60339.01
528.55	60973.30
528.72	61104.37
528.89	61413.32
529.07	61132.45
529.24	60507.53
529.41	59770.26
529.58	59332.58
529.75	59358.33
529.92	59744.51
530.09	60271.14
530.26	60692.43
530.43	60996.70
530.60	60886.70
530.77	61116.07
530.94	61155.86
531.11	60612.85
531.28	60324.97
531.46	60378.80
531.63	60505.19
531.80	60385.82
531.97	59924.74
532.14	59400.46
532.31	58307.43
532.48	57694.21
532.65	57464.83
532.82	58637.44
532.99	59419.18
533.16	59817.07
533.33	60413.91
533.50	60062.83
533.67	59599.40
533.84	58983.84
534.01	59496.42
534.18	59714.09
534.35	59723.45
534.52	59515.14
534.69	59810.05
534.86	60039.42
535.03	60378.80
535.20	60743.92
535.37	61151.18
535.54	61223.73
535.71	60851.59
535.88	60500.51
536.05	59889.63
536.22	59604.08
536.38	59154.70
536.55	58726.38
536.72	58246.57
536.89	58239.55
537.06	59208.53
537.23	59999.63
537.40	59934.10
537.57	60004.31
537.74	59866.22
537.91	59784.30
538.08	59838.14
538.25	59660.26
538.42	59908.35
538.59	59791.33
538.75	59253.00
538.92	58735.74
539.09	58981.50
539.26	58702.98
539.43	58588.29
539.60	58642.12
539.77	58672.55
539.94	58628.08
540.11	57743.36
540.28	57366.53
540.44	57474.20
540.61	57677.82
540.78	57762.08
540.95	58471.26
541.12	58672.55
541.29	58878.52
541.46	59079.80
541.62	59348.96
541.79	59056.40
541.96	58557.86
542.13	58454.88
542.30	58958.09
542.47	59004.91
542.63	58695.95
542.80	58415.09
542.97	58644.46
543.14	58665.53
543.31	58527.44
543.48	58887.88
543.64	59695.36
543.81	59971.55
543.98	59898.99
544.15	59245.98
544.32	58581.27
544.48	58670.21
544.65	59278.75
544.82	59437.90
544.99	59079.80
545.16	58869.15
545.32	58504.03
545.49	59370.03
545.66	59735.15
545.83	59348.96
546.00	58805.96
546.16	58717.02
546.33	58796.60
546.50	58717.02
546.67	59171.08
546.83	58817.66
547.00	58667.87
547.17	58033.58
547.34	57748.04
547.50	57616.97
547.67	58052.31
547.84	57832.30
548.00	58272.32
548.17	58962.78
548.34	58705.32
548.51	58754.47
548.67	58639.78
548.84	58981.50
549.01	58693.61
549.18	58681.91
549.34	58707.66
549.51	58504.03
549.68	58628.08
549.84	58410.41
550.01	58188.06
550.18	58031.24
550.34	58281.68
550.51	58150.61
550.68	58497.01
550.84	57872.09
551.01	57928.26
551.18	57827.62
551.34	57996.13
551.51	58391.68
551.68	58632.76
551.84	58749.79
552.01	58525.10
552.18	58379.98
552.34	57649.74
552.51	57361.85
552.68	57127.80
552.84	57670.80
553.01	57675.48
553.18	57815.91
553.34	58106.14
553.51	58014.86
553.67	58471.26
553.84	58485.31
554.01	58185.72
554.17	58148.27
554.34	58078.05
554.51	58155.29
554.67	58501.69
554.84	58403.39
555.00	58054.65
555.17	57698.89
555.33	58026.56
555.50	57736.34
555.67	57745.70
555.83	57511.64
556.00	57450.79
556.16	57322.06
556.33	57010.77
556.50	56823.53
556.66	57001.41
556.83	56505.21
556.99	56760.33
557.16	56884.38
557.32	57221.42
557.49	57460.15
557.65	57205.03
557.82	57179.29
557.98	57382.91
558.15	56584.79
558.32	55653.26
558.48	55089.19
558.65	55168.77
558.81	55458.99
558.98	55784.33
559.14	56060.51
559.31	56097.96
559.47	56081.58
559.64	55819.44
559.80	55484.74
559.97	55753.90
560.13	56048.81
560.30	56662.03
560.46	57315.04
560.63	57420.36
560.79	57385.25
560.96	57106.73
561.12	56002.00
561.29	55234.30
561.45	55105.57
561.61	55924.76
561.78	56184.56
561.94	56020.72
562.11	55934.12
562.27	55941.14
562.44	56182.22
562.60	56465.42
562.77	56664.37
562.93	56275.84
563.10	56500.53
563.26	55772.63
563.42	56055.83
563.59	55653.26
563.75	55646.24
563.92	55608.79
564.08	55842.84
564.24	55826.46
564.41	55973.91
564.57	55990.30
564.74	55828.80
564.90	55786.67
565.07	55599.43
565.23	55051.74
565.39	54658.53
565.56	54223.19
565.72	53937.65
565.88	54419.80
566.05	54691.30
566.21	54876.20
566.38	54918.33
566.54	55138.34
566.70	55372.39
566.87	55587.72
567.03	55625.17
567.19	56030.08
567.36	55756.24
567.52	55487.08
567.68	55152.38
567.85	54459.58
568.01	54007.86
568.17	54038.29
568.34	53867.43
568.50	53790.19
568.66	53989.14
568.83	54183.40
568.99	54335.54
569.15	54513.42
569.32	54246.60
569.48	54405.75
569.64	54010.20
569.81	54169.36
569.97	53574.86
570.13	53619.33
570.30	53064.63
570.46	52622.26
570.62	52425.66
570.78	51819.46
570.95	52229.05
571.11	53188.67
571.27	53392.30
571.43	53439.11
571.60	53799.55
571.76	53890.83
571.92	54042.97
572.09	54349.58
572.25	54391.71
572.41	54328.52
572.57	53947.01
572.74	54176.38
572.90	53907.22
573.06	53546.78
573.22	53813.60
573.38	53811.26
573.55	53893.18
573.71	53963.39
573.87	53778.49
574.03	53595.93
574.20	53790.19
574.36	53404.00
574.52	53059.94
574.68	52790.78
574.84	52376.51
575.01	52147.14
575.17	51627.54
575.33	52156.50
575.49	52734.61
575.65	52570.77
575.82	52589.50
575.98	52011.38
576.14	52659.71
576.30	52669.08
576.46	53020.16
576.62	52758.02
576.79	52732.27
576.95	52399.91
577.11	52226.71
577.27	52486.51
577.43	52673.76
577.59	52032.45
577.75	51798.40
577.92	51035.38
578.08	50944.10
578.24	50759.20
578.40	51292.84
578.56	51536.26
578.72	51611.15
578.88	51997.34
579.04	52144.80
579.21	51938.83
579.37	52121.39
579.53	52041.81
579.69	52182.24
579.85	52392.89
580.01	52053.51
580.17	51435.61
580.33	51210.92
580.49	51870.95
580.65	51653.28
580.82	51976.28
580.98	52102.67
581.14	51702.43
581.30	51959.89
581.46	51779.67
581.62	52432.68
581.78	52303.95
581.94	52144.80
582.10	52168.20
582.26	52128.41
582.42	52165.86
582.58	52018.41
582.74	52163.52
582.90	52308.63
583.06	52090.96
583.22	52051.17
583.38	51538.60
583.54	51938.83
583.70	51798.40
583.86	51735.20
584.02	51573.70
584.18	51615.83
584.34	51615.83
584.50	51545.62
584.66	51363.06
584.82	51016.66
584.98	50794.31
585.14	50593.02
