SpectraSuite Data File
++++++++++++++++++++++++++++++++++++
Date: Mon Oct 07 14:52:53 GMT-05:00 2013
User: price-jones
Dark Spectrum Present: No
Reference Spectrum Present: No
Number of Sampled Component Spectra: 1
Spectrometers: USB2+H05261
Integration Time (usec): 100000 (USB2+H05261)
Spectra Averaged: 1 (USB2+H05261)
Boxcar Smoothing: 0 (USB2+H05261)
Correct for Electrical Dark: No (USB2+H05261)
Strobe/Lamp Enabled: No (USB2+H05261)
Correct for Detector Non-linearity: No (USB2+H05261)
Correct for Stray Light: No (USB2+H05261)
Number of Pixels in Processed Spectrum: 2048
>>>>>Begin Processed Spectral Data<<<<<
365.73	0.00
365.92	0.00
366.12	0.00
366.32	0.00
366.52	0.00
366.72	0.00
366.91	0.00
367.11	0.00
367.31	0.00
367.51	0.00
367.70	0.00
367.90	0.00
368.10	0.00
368.30	0.00
368.49	0.00
368.69	0.00
368.89	0.00
369.09	0.00
369.28	0.00
369.48	0.00
369.68	0.00
369.87	0.00
370.07	0.00
370.27	0.00
370.47	1097.71
370.66	5240.46
370.86	6202.42
371.06	6415.41
371.25	6394.34
371.45	5792.83
371.65	5231.10
371.84	5053.22
372.04	5352.81
372.24	5795.17
372.44	5785.80
372.63	5617.29
372.83	5238.12
373.03	4823.84
373.22	4374.46
373.42	4779.37
373.62	5493.24
373.81	5689.84
374.01	5596.22
374.21	5149.18
374.40	4858.95
374.60	5069.60
374.79	5699.20
374.99	6700.95
375.19	6895.22
375.38	7066.08
375.58	6560.52
375.78	6324.13
375.97	6656.48
376.17	6808.62
376.37	6759.47
376.56	7094.16
376.76	7391.41
376.95	7887.61
377.15	8369.76
377.35	8833.18
377.54	9270.86
377.74	9366.82
377.93	9191.28
378.13	8966.59
378.33	8542.96
378.52	7934.42
378.72	7585.68
378.91	7492.05
379.11	7279.07
379.31	6864.79
379.50	6904.58
379.70	7681.64
379.89	8395.50
380.09	8671.68
380.28	8997.02
380.48	8905.74
380.68	9008.72
380.87	8416.57
381.07	7749.51
381.26	7140.97
381.46	6909.26
381.65	6621.38
381.85	6539.46
382.04	6005.81
382.24	5909.85
382.43	5479.19
382.63	5352.81
382.83	5334.08
383.02	5301.31
383.22	5387.91
383.41	5364.51
383.61	5963.68
383.80	6878.83
384.00	7630.15
384.19	8493.80
384.39	8823.82
384.58	8711.47
384.78	8348.69
384.97	8332.31
385.17	8084.21
385.36	7679.30
385.56	7368.01
385.75	7609.08
385.95	8355.71
386.14	8903.40
386.34	8947.87
386.53	8315.92
386.72	8170.81
386.92	8205.92
387.11	8596.79
387.31	8875.31
387.50	8891.70
387.70	8535.93
387.89	8388.48
388.09	8339.33
388.28	8624.87
388.48	8798.07
388.67	9364.48
388.86	10516.03
389.06	10794.55
389.25	11405.43
389.45	11566.93
389.64	11122.23
389.84	11133.93
390.03	11035.63
390.22	11262.66
390.42	11510.75
390.61	12210.57
390.81	13029.76
391.00	13427.65
391.19	12975.93
391.39	12709.11
391.58	11674.59
391.78	11190.10
391.97	10806.25
392.16	10118.14
392.36	9053.19
392.55	7201.83
392.75	5916.87
392.94	4842.57
393.13	4873.00
393.33	5813.89
393.52	7552.91
393.71	9085.96
393.91	10153.24
394.10	11021.58
394.29	12283.13
394.49	12774.64
394.68	13898.10
394.88	13834.91
395.07	14408.34
395.26	14382.59
395.46	13502.55
395.65	12753.58
395.84	10930.30
396.04	9277.88
396.23	7470.99
396.42	6455.20
396.62	6455.20
396.81	7531.84
397.00	9809.19
397.19	11831.41
397.39	14083.00
397.58	15826.70
397.77	16631.85
397.97	17177.19
398.16	17081.23
398.35	18017.44
398.55	18511.30
398.74	19199.41
398.93	19658.16
399.12	19232.18
399.32	18445.76
399.51	18733.65
399.70	20325.21
399.90	19812.63
400.09	19929.66
400.28	19878.17
400.47	20030.30
400.67	21027.37
400.86	21373.77
401.05	21301.22
401.24	21713.15
401.44	21848.90
401.63	21781.03
401.82	22129.77
402.01	21713.15
402.21	22256.15
402.40	22410.63
402.59	21652.30
402.78	20327.55
402.97	19957.75
403.17	21312.92
403.36	22401.27
403.55	22965.34
403.74	23215.77
403.93	22106.36
404.13	20346.28
404.32	20266.70
404.51	21212.28
404.70	22728.94
404.89	22436.38
405.09	22010.40
405.28	21432.29
405.47	21720.17
405.66	21563.36
405.85	20835.45
406.05	20587.35
406.24	20587.35
406.43	21687.40
406.62	22302.96
406.81	22501.91
407.00	21612.51
407.20	21172.49
407.39	21298.88
407.58	22338.07
407.77	23168.96
407.96	24058.37
408.15	24112.20
408.34	24393.06
408.54	25479.07
408.73	25387.79
408.92	24809.68
409.11	24116.88
409.30	22883.42
409.49	21399.52
409.68	20348.62
409.87	19899.23
410.07	21235.68
410.26	22747.67
410.45	24126.24
410.64	24680.95
410.83	25209.91
411.02	26064.21
411.21	26661.04
411.40	26356.77
411.59	26749.98
411.78	26632.96
411.98	26230.38
412.17	26625.93
412.36	25905.05
412.55	26609.55
412.74	25458.01
412.93	25315.23
413.12	25516.52
413.31	27615.98
413.50	27814.93
413.69	28109.83
413.88	27187.66
414.07	26827.22
414.26	27192.34
414.45	27536.40
414.64	28039.62
414.83	27931.95
415.02	27264.90
415.22	27410.01
415.41	28041.96
415.60	28936.04
415.79	30106.31
415.98	30600.16
416.17	30539.31
416.36	30211.64
416.55	29118.60
416.74	28430.49
416.93	27538.74
417.12	27976.42
417.31	28364.95
417.50	28484.32
417.69	29333.93
417.88	29109.24
418.07	28606.03
418.26	28432.83
418.45	29085.84
418.64	29848.85
418.83	30934.86
419.02	30625.91
419.21	30031.41
419.39	29062.43
419.58	27531.72
419.77	27887.48
419.96	29261.38
420.15	30782.73
420.34	31044.87
420.53	32690.26
420.72	33345.61
420.91	32748.78
421.10	32247.90
421.29	32053.64
421.48	31299.98
421.67	32573.24
421.86	30899.75
422.05	28704.33
422.24	26181.23
422.43	26412.95
422.61	29244.99
422.80	31143.17
422.99	31145.51
423.18	29844.17
423.37	29844.17
423.56	29483.73
423.75	30143.76
423.94	30927.84
424.13	29118.60
424.32	29450.96
424.50	29195.84
424.69	29029.66
424.88	29181.80
425.07	29109.24
425.26	29308.19
425.45	28533.47
425.64	28613.05
425.83	28692.63
426.01	30101.63
426.20	30740.60
426.39	30410.58
426.58	27868.76
426.77	25996.33
426.96	25600.78
427.15	26902.12
427.33	28570.92
427.52	29359.68
427.71	29184.14
427.90	29230.95
428.09	28851.78
428.28	28439.85
428.46	27065.96
428.65	26923.18
428.84	28158.99
429.03	28013.87
429.22	26274.85
429.40	24741.80
429.59	22815.54
429.78	20283.08
429.97	20547.56
430.16	20439.90
430.34	20259.68
430.53	20863.54
430.72	21448.67
430.91	24088.79
431.10	28292.40
431.28	32636.43
431.47	34796.74
431.66	34728.87
431.85	31501.27
432.03	29144.35
432.22	28594.32
432.41	29663.95
432.60	32730.05
432.79	33439.23
432.97	34579.07
433.16	33661.58
433.35	30387.18
433.54	27608.96
433.72	25956.54
433.91	27089.36
434.10	30426.96
434.28	32018.53
434.47	33769.25
434.66	33535.20
434.85	32266.63
435.03	32493.66
435.22	33209.86
435.41	34979.31
435.59	35182.93
435.78	34991.01
435.97	36243.20
436.16	36580.23
436.34	35887.43
436.53	35875.73
436.72	35552.74
436.90	33708.40
437.09	34017.35
437.28	32933.68
437.46	33809.04
437.65	33701.37
437.84	31065.93
438.02	29055.41
438.21	29130.31
438.40	30637.61
438.58	33233.27
438.77	34319.28
438.96	34066.50
439.14	36215.11
439.33	36772.16
439.52	37163.03
439.70	36411.71
439.89	35501.25
440.08	34902.07
440.26	34892.71
440.45	36098.08
440.63	38082.86
440.82	39608.89
441.01	39129.08
441.19	39047.16
441.38	39433.35
441.57	40509.99
441.75	41413.44
441.94	41507.06
442.12	40959.38
442.31	42256.03
442.50	42134.32
442.68	41535.15
442.87	40832.99
443.05	40254.87
443.24	41310.46
443.43	42185.82
443.61	42478.38
443.80	42953.51
443.98	40751.07
444.17	40704.26
444.35	42869.25
444.54	43791.42
444.73	42330.93
444.91	41371.31
445.10	39922.52
445.28	38450.32
445.47	37691.99
445.65	38059.45
445.84	39311.64
446.02	40928.95
446.21	40779.15
446.39	41120.87
446.58	41785.58
446.77	42220.92
446.95	42529.87
447.14	43798.44
447.32	44528.69
447.51	43225.01
447.69	41755.16
447.88	41724.73
448.06	42616.47
448.25	43093.94
448.43	43115.01
448.62	42021.98
448.80	41902.61
448.99	42490.09
449.17	42829.46
449.36	42913.72
449.54	44369.54
449.73	44577.84
449.91	45893.22
450.10	46539.21
450.28	47070.51
450.46	47131.37
450.65	46649.22
450.83	45757.47
451.02	45736.41
451.20	44945.31
451.39	45258.94
451.57	44903.18
451.76	45581.93
451.94	44942.97
452.13	43779.72
452.31	41785.58
452.49	40233.81
452.68	41127.89
452.86	40582.55
453.05	41600.68
453.23	42794.36
453.42	43377.15
453.60	44872.75
453.78	44718.28
453.97	44378.90
454.15	44416.35
454.34	43608.86
454.52	43847.60
454.70	43112.67
454.89	43702.48
455.07	43353.74
455.26	44575.50
455.44	45937.69
455.62	46396.44
455.81	46766.24
455.99	46354.31
456.17	45895.56
456.36	45717.68
456.54	46576.66
456.73	47131.37
456.91	47800.76
457.09	47992.68
457.28	48591.86
457.46	46880.93
457.64	46618.79
457.83	45813.65
458.01	44889.13
458.19	46101.53
458.38	46548.57
458.56	47276.48
458.74	46932.42
458.93	46256.01
459.11	46354.31
459.29	45991.53
459.48	46157.70
459.66	46080.47
459.84	46476.02
460.03	46913.70
460.21	46986.25
460.39	48053.54
460.57	47702.46
460.76	48147.16
460.94	48268.87
461.12	47718.84
461.31	47739.91
461.49	48002.05
461.67	47735.23
461.85	48919.54
462.04	48699.53
462.22	48896.13
462.40	48769.74
462.59	48823.58
462.77	49048.27
462.95	49041.24
463.13	48289.93
463.32	48144.82
463.50	48030.13
463.68	47896.72
463.86	48243.12
464.05	47224.99
464.23	46405.80
464.41	46368.35
464.59	45972.80
464.78	47655.65
464.96	47562.03
465.14	47063.49
465.32	48198.65
465.50	49556.16
465.69	49347.86
465.87	48456.11
466.05	47636.92
466.23	45485.97
466.41	44348.47
466.60	46450.27
466.78	45801.94
466.96	47070.51
467.14	47309.25
467.32	47838.21
467.51	47540.96
467.69	46330.90
467.87	47002.64
468.05	47498.83
468.23	47445.00
468.41	47433.30
468.60	48004.39
468.78	48360.15
468.96	47615.86
469.14	48236.10
469.32	48622.29
469.50	46803.69
469.69	47065.83
469.87	45986.85
470.05	46440.91
470.23	46131.96
470.41	46593.04
470.59	47302.23
470.77	47435.64
470.95	48341.42
471.14	48371.85
471.32	48367.17
471.50	50429.18
471.68	50408.12
471.86	50740.47
472.04	50913.67
472.22	50908.99
472.40	48935.92
472.58	48741.66
472.77	48294.61
472.95	49427.43
473.13	50312.16
473.31	49762.13
473.49	49610.00
473.67	50164.70
473.85	50593.02
474.03	51185.18
474.21	51358.38
474.39	51444.98
474.57	51646.26
474.75	51969.26
474.93	51576.04
475.12	50923.04
475.30	51035.38
475.48	51236.67
475.66	51271.78
475.84	51068.15
476.02	50511.10
476.20	50054.70
476.38	51023.68
476.56	51732.86
476.74	52142.45
476.92	52484.17
477.10	53090.37
477.28	53937.65
477.46	53832.32
477.64	54185.74
477.82	54068.72
478.00	54209.15
478.18	54284.04
478.36	53691.89
478.54	53829.98
478.72	54246.60
478.90	55150.04
479.08	55632.19
479.26	55767.94
479.44	55789.01
479.62	55625.17
479.80	55634.53
479.98	55536.23
480.16	55863.91
480.34	55702.41
480.52	56301.59
480.70	56088.60
480.88	55931.78
481.06	56655.01
481.24	56633.94
481.41	57614.63
481.59	57822.93
481.77	57422.70
481.95	57137.16
482.13	57013.11
482.31	57029.49
482.49	57485.90
482.67	57530.37
482.85	57694.21
483.03	58115.50
483.21	58314.45
483.39	58258.27
483.57	57764.42
483.74	57684.84
483.92	57909.53
484.10	58021.88
484.28	58384.66
484.46	58581.27
484.64	58869.15
484.82	58267.64
485.00	57989.11
485.18	57822.93
485.35	56891.40
485.53	54176.38
485.71	51746.90
485.89	51821.80
486.07	53354.85
486.25	55620.49
486.43	56891.40
486.61	57551.43
486.78	57574.84
486.96	57619.31
487.14	59009.59
487.32	59611.10
487.50	60116.66
487.68	60486.46
487.85	60928.83
488.03	60942.87
488.21	60402.21
488.39	60088.57
488.57	59311.52
488.75	59374.71
488.92	60498.17
489.10	61858.02
489.28	62789.55
489.46	63217.87
489.64	62890.19
489.81	63168.72
489.99	63000.20
490.17	63056.37
490.35	63285.75
490.53	62803.59
490.70	62536.77
490.88	62424.43
491.06	63299.79
491.24	63138.29
491.41	62316.76
491.59	61268.20
491.77	60676.05
491.95	61731.63
492.13	62401.02
492.30	63501.07
492.48	64416.22
492.66	64413.88
492.84	64460.69
493.01	64376.43
493.19	63693.00
493.37	63566.61
493.54	63444.90
493.72	64186.85
493.90	64750.92
494.08	65354.78
494.25	65535.00
494.43	65535.00
494.61	65535.00
494.79	65535.00
494.96	65535.00
495.14	65226.05
495.32	64617.51
495.49	64140.04
495.67	65020.08
495.85	65535.00
496.02	65535.00
496.20	65535.00
496.38	65535.00
496.55	65535.00
496.73	65535.00
496.91	65535.00
497.09	65535.00
497.26	65535.00
497.44	65535.00
497.62	65535.00
497.79	65230.73
497.97	64460.69
498.14	64582.40
498.32	65474.15
498.50	65535.00
498.67	65535.00
498.85	65535.00
499.03	65535.00
499.20	65535.00
499.38	65535.00
499.56	65535.00
499.73	65535.00
499.91	65535.00
500.08	65535.00
500.26	65214.35
500.44	65506.91
500.61	65535.00
500.79	65535.00
500.97	65535.00
501.14	65256.48
501.32	65223.71
501.49	65258.82
501.67	65429.68
501.84	65535.00
502.02	65535.00
502.20	65535.00
502.37	65535.00
502.55	65535.00
502.72	65535.00
502.90	65535.00
503.07	65535.00
503.25	65535.00
503.43	65535.00
503.60	65535.00
503.78	65116.04
503.95	65429.68
504.13	65535.00
504.30	65535.00
504.48	65535.00
504.65	65535.00
504.83	65535.00
505.01	65535.00
505.18	65535.00
505.36	65535.00
505.53	65535.00
505.71	65535.00
505.88	65535.00
506.06	65535.00
506.23	65535.00
506.41	65535.00
506.58	65535.00
506.76	65535.00
506.93	65535.00
507.11	65535.00
507.28	65535.00
507.46	65535.00
507.63	65535.00
507.81	65535.00
507.98	65535.00
508.16	65535.00
508.33	65535.00
508.50	65535.00
508.68	65535.00
508.85	65535.00
509.03	65535.00
509.20	65535.00
509.38	65535.00
509.55	65535.00
509.73	65535.00
509.90	65535.00
510.08	65535.00
510.25	65535.00
510.42	65535.00
510.60	65535.00
510.77	65535.00
510.95	65535.00
511.12	65535.00
511.30	65535.00
511.47	65535.00
511.64	65535.00
511.82	65535.00
511.99	65535.00
512.17	65535.00
512.34	65535.00
512.51	65535.00
512.69	65535.00
512.86	65535.00
513.04	65535.00
513.21	65535.00
513.38	65535.00
513.56	65535.00
513.73	65535.00
513.90	65535.00
514.08	65535.00
514.25	65535.00
514.43	65535.00
514.60	65535.00
514.77	65535.00
514.95	65535.00
515.12	65535.00
515.29	65535.00
515.47	65535.00
515.64	65535.00
515.81	65535.00
515.99	65535.00
516.16	65535.00
516.33	65535.00
516.51	63512.78
516.68	62534.43
516.85	62419.75
517.03	63077.44
517.20	65181.58
517.37	65535.00
517.54	65535.00
517.72	65535.00
517.89	65535.00
518.06	63594.70
518.24	64030.04
518.41	65462.44
518.58	65535.00
518.75	65535.00
518.93	65535.00
519.10	65535.00
519.27	65535.00
519.45	65535.00
519.62	65535.00
519.79	65535.00
519.96	65535.00
520.14	65535.00
520.31	65535.00
520.48	65535.00
520.65	65535.00
520.83	65535.00
521.00	65535.00
521.17	65535.00
521.34	65535.00
521.52	65535.00
521.69	65535.00
521.86	65535.00
522.03	65535.00
522.20	65535.00
522.38	65535.00
522.55	65535.00
522.72	65535.00
522.89	65535.00
523.07	65535.00
523.24	65535.00
523.41	65535.00
523.58	65535.00
523.75	65535.00
523.92	65535.00
524.10	65535.00
524.27	65535.00
524.44	65535.00
524.61	65535.00
524.78	65535.00
524.96	65535.00
525.13	65535.00
525.30	65535.00
525.47	65535.00
525.64	65535.00
525.81	65535.00
525.98	65535.00
526.16	65535.00
526.33	65535.00
526.50	65235.41
526.67	65158.17
526.84	65284.56
527.01	65535.00
527.18	65535.00
527.36	65535.00
527.53	65535.00
527.70	65535.00
527.87	65535.00
528.04	65535.00
528.21	65535.00
528.38	65535.00
528.55	65535.00
528.72	65535.00
528.89	65535.00
529.07	65535.00
529.24	65535.00
529.41	65535.00
529.58	65535.00
529.75	65535.00
529.92	65535.00
530.09	65535.00
530.26	65535.00
530.43	65535.00
530.60	65535.00
530.77	65535.00
530.94	65535.00
531.11	65535.00
531.28	65535.00
531.46	65535.00
531.63	65535.00
531.80	65535.00
531.97	65535.00
532.14	65535.00
532.31	65535.00
532.48	65535.00
532.65	65535.00
532.82	65535.00
532.99	65535.00
533.16	65535.00
533.33	65535.00
533.50	65535.00
533.67	65535.00
533.84	65535.00
534.01	65535.00
534.18	65535.00
534.35	65535.00
534.52	65535.00
534.69	65535.00
534.86	65535.00
535.03	65535.00
535.20	65535.00
535.37	65535.00
535.54	65535.00
535.71	65535.00
535.88	65535.00
536.05	65535.00
536.22	65535.00
536.38	65535.00
536.55	65535.00
536.72	65535.00
536.89	65535.00
537.06	65535.00
537.23	65535.00
537.40	65535.00
537.57	65535.00
537.74	65535.00
537.91	65535.00
538.08	65535.00
538.25	65535.00
538.42	65535.00
538.59	65535.00
538.75	65535.00
538.92	65535.00
539.09	65535.00
539.26	65535.00
539.43	65535.00
539.60	65535.00
539.77	65535.00
539.94	65535.00
540.11	65535.00
540.28	65535.00
540.44	65535.00
540.61	65535.00
540.78	65535.00
540.95	65535.00
541.12	65535.00
541.29	65535.00
541.46	65535.00
541.62	65535.00
541.79	65535.00
541.96	65535.00
542.13	65535.00
542.30	65535.00
542.47	65535.00
542.63	65535.00
542.80	65535.00
542.97	65535.00
543.14	65535.00
543.31	65535.00
543.48	65535.00
543.64	65535.00
543.81	65535.00
543.98	65535.00
544.15	65535.00
544.32	65535.00
544.48	65535.00
544.65	65535.00
544.82	65535.00
544.99	65535.00
545.16	65535.00
545.32	65535.00
545.49	65535.00
545.66	65535.00
545.83	65535.00
546.00	65535.00
546.16	65535.00
546.33	65535.00
546.50	65535.00
546.67	65535.00
546.83	65535.00
547.00	65535.00
547.17	65535.00
547.34	65535.00
547.50	65535.00
547.67	65535.00
547.84	65535.00
548.00	65535.00
548.17	65535.00
548.34	65535.00
548.51	65535.00
548.67	65535.00
548.84	65535.00
549.01	65535.00
549.18	65535.00
549.34	65535.00
549.51	65535.00
549.68	65535.00
549.84	65535.00
550.01	65535.00
550.18	65535.00
550.34	65535.00
550.51	65535.00
550.68	65535.00
550.84	65535.00
551.01	65535.00
551.18	65535.00
551.34	65535.00
551.51	65535.00
551.68	65535.00
551.84	65535.00
552.01	65535.00
552.18	65535.00
552.34	65535.00
552.51	65535.00
552.68	65535.00
552.84	65535.00
553.01	65535.00
553.18	65535.00
553.34	65535.00
553.51	65535.00
553.67	65535.00
553.84	65535.00
554.01	65535.00
554.17	65535.00
554.34	65535.00
554.51	65535.00
554.67	65535.00
554.84	65535.00
555.00	65535.00
555.17	65535.00
555.33	65535.00
555.50	65535.00
555.67	65535.00
555.83	65535.00
556.00	65535.00
556.16	65535.00
556.33	65535.00
556.50	65535.00
556.66	65535.00
556.83	65535.00
556.99	65535.00
557.16	65535.00
557.32	65535.00
557.49	65535.00
557.65	65535.00
557.82	65535.00
557.98	65535.00
558.15	65535.00
558.32	65373.50
558.48	64654.96
558.65	64764.96
558.81	65226.05
558.98	65406.27
559.14	65389.89
559.31	65535.00
559.47	65535.00
559.64	65417.97
559.80	64968.59
559.97	65256.48
560.13	65396.91
560.30	65535.00
560.46	65535.00
560.63	65535.00
560.79	65535.00
560.96	65535.00
561.12	65535.00
561.29	64956.89
561.45	64757.94
561.61	65520.96
561.78	65535.00
561.94	65535.00
562.11	65535.00
562.27	65436.70
562.44	65535.00
562.60	65535.00
562.77	65535.00
562.93	65535.00
563.10	65535.00
563.26	65422.65
563.42	65310.31
563.59	65242.43
563.75	65282.22
563.92	65417.97
564.08	65216.69
564.24	65535.00
564.41	65535.00
564.57	65535.00
564.74	65378.18
564.90	65483.51
565.07	65277.54
565.23	64980.29
565.39	64306.22
565.56	64254.73
565.72	63994.93
565.88	64465.38
566.05	64676.02
566.21	64650.28
566.38	64828.16
566.54	64697.09
566.70	64992.00
566.87	65261.16
567.03	65204.98
567.19	65307.97
567.36	65298.61
567.52	65146.47
567.68	64736.88
567.85	64446.65
568.01	64207.92
568.17	63868.54
568.34	63810.03
568.50	63674.27
568.66	64039.40
568.83	64205.58
568.99	64292.18
569.15	64402.18
569.32	64505.16
569.48	64423.25
569.64	64147.06
569.81	63880.24
569.97	63945.78
570.13	63758.53
570.30	63224.89
570.46	62911.26
570.62	62646.78
570.78	62592.95
570.95	62848.06
571.11	63732.79
571.27	63739.81
571.43	63746.83
571.60	64118.98
571.76	64324.94
571.92	64570.70
572.09	64664.32
572.25	64458.35
572.41	64385.80
572.57	64149.40
572.74	64264.09
572.90	64147.06
573.06	63978.54
573.22	63884.92
573.38	63798.32
573.55	63880.24
573.71	64037.06
573.87	64193.87
574.03	63730.45
574.20	63962.16
574.36	63437.88
574.52	63611.08
574.68	63229.57
574.84	62925.30
575.01	62691.25
575.17	62651.46
575.33	63061.05
575.49	63388.73
575.65	63358.30
575.82	63058.71
575.98	62749.76
576.14	62969.77
576.30	63201.49
576.46	63241.28
576.62	63358.30
576.79	63416.82
576.95	63117.23
577.11	63093.82
577.27	63030.63
577.43	62969.77
577.59	62532.09
577.75	62351.87
577.92	62232.50
578.08	61991.43
578.24	61937.60
578.40	62274.63
578.56	62445.49
578.72	62358.89
578.88	62403.36
579.04	62855.09
579.21	62890.19
579.37	62829.34
579.53	62927.64
579.69	62866.79
579.85	62787.21
580.01	62539.11
580.17	62340.17
580.33	62279.31
580.49	62408.04
580.65	62597.63
580.82	62927.64
580.98	62801.25
581.14	62834.02
581.30	62953.39
581.46	62763.81
581.62	62871.47
581.78	62677.21
581.94	63068.08
582.10	62988.50
582.26	63222.55
582.42	63002.54
582.58	62990.84
582.74	62855.09
582.90	63103.18
583.06	63044.67
583.22	62611.67
583.38	62803.59
583.54	62937.01
583.70	62623.37
583.86	62724.02
584.02	62635.08
584.18	62553.16
584.34	62742.74
584.50	62698.27
584.66	62295.70
584.82	62061.64
584.98	62003.13
