SpectraSuite Data File
++++++++++++++++++++++++++++++++++++
Date: Mon Oct 07 14:54:57 GMT-05:00 2013
User: price-jones
Dark Spectrum Present: No
Reference Spectrum Present: No
Number of Sampled Component Spectra: 1
Spectrometers: USB2+H05261
Integration Time (usec): 10000 (USB2+H05261)
Spectra Averaged: 1 (USB2+H05261)
Boxcar Smoothing: 0 (USB2+H05261)
Correct for Electrical Dark: No (USB2+H05261)
Strobe/Lamp Enabled: No (USB2+H05261)
Correct for Detector Non-linearity: No (USB2+H05261)
Correct for Stray Light: No (USB2+H05261)
Number of Pixels in Processed Spectrum: 2048
>>>>>Begin Processed Spectral Data<<<<<
365.73	0.00
365.92	0.00
366.12	0.00
366.32	0.00
366.52	0.00
366.72	0.00
366.91	0.00
367.11	0.00
367.31	0.00
367.51	0.00
367.70	0.00
367.90	0.00
368.10	0.00
368.30	0.00
368.49	0.00
368.69	0.00
368.89	0.00
369.09	0.00
369.28	0.00
369.48	0.00
369.68	0.00
369.87	0.00
370.07	0.00
370.27	0.00
370.47	140.43
370.66	1348.15
370.86	1636.03
371.06	1788.17
371.25	1675.82
371.45	1430.07
371.65	1341.13
371.84	1207.72
372.04	1406.66
372.24	1650.08
372.44	1769.44
372.63	1579.86
372.83	1497.94
373.03	1287.29
373.22	1067.28
373.42	1266.23
373.62	1535.39
373.81	1572.84
374.01	1486.24
374.21	1378.58
374.40	1362.19
374.60	1418.36
374.79	1757.74
374.99	2036.27
375.19	1991.80
375.38	2120.53
375.58	1907.54
375.78	1877.11
375.97	1905.20
376.17	1949.67
376.37	1921.58
376.56	2050.31
376.76	2256.28
376.95	2300.75
377.15	2532.46
377.35	2511.39
377.54	2710.34
377.74	2747.79
377.93	2731.41
378.13	2682.25
378.33	2504.37
378.52	2073.71
378.72	2143.93
378.91	2172.02
379.11	2162.66
379.31	2024.56
379.50	2003.50
379.70	2324.15
379.89	2476.29
380.09	2682.25
380.28	2675.23
380.48	2712.68
380.68	2567.57
380.87	2495.01
381.07	2242.23
381.26	2045.63
381.46	1949.67
381.65	1879.45
381.85	1921.58
382.04	1640.72
382.24	1774.13
382.43	1596.25
382.63	1530.71
382.83	1621.99
383.02	1551.78
383.22	1542.41
383.41	1542.41
383.61	1753.06
383.80	2078.40
384.00	2270.32
384.19	2576.93
384.39	2532.46
384.58	2715.02
384.78	2644.81
384.97	2654.17
385.17	2462.24
385.36	2272.66
385.56	2284.36
385.75	2399.05
385.95	2532.46
386.14	2832.05
386.34	2715.02
386.53	2537.14
386.72	2415.43
386.92	2511.39
387.11	2665.87
387.31	2764.17
387.50	2675.23
387.70	2700.98
387.89	2555.86
388.09	2502.03
388.28	2555.86
388.48	2581.61
388.67	2909.29
388.86	3103.55
389.06	3356.33
389.25	3637.19
389.45	3480.38
389.64	3571.66
389.84	3473.36
390.03	3459.31
390.22	3440.59
390.42	3627.83
390.61	3852.52
390.81	4105.30
391.00	4182.54
391.19	4124.02
391.39	3868.91
391.58	3747.20
391.78	3424.20
391.97	3393.78
392.16	3089.51
392.36	2700.98
392.55	2080.74
392.75	1636.03
392.94	1441.77
393.13	1462.83
393.33	1825.62
393.52	2406.07
393.71	2949.08
393.91	3087.17
394.10	3517.83
394.29	3840.82
394.49	4091.26
394.68	4493.83
394.88	4397.87
395.07	4521.92
395.26	4496.17
395.46	4311.27
395.65	3892.31
395.84	3295.47
396.04	2881.20
396.23	2263.30
396.42	1830.30
396.62	1930.94
396.81	2539.48
397.00	3038.02
397.19	3859.54
397.39	4746.61
397.58	5039.17
397.77	5378.55
397.97	5383.23
398.16	5636.01
398.35	5792.83
398.55	5870.06
398.74	5947.30
398.93	6164.97
399.12	6026.88
399.32	5996.45
399.51	6195.40
399.70	6532.44
399.90	6384.98
400.09	6289.02
400.28	6623.72
400.47	6684.57
400.67	6803.94
400.86	6855.43
401.05	6993.52
401.24	6803.94
401.44	7122.25
401.63	7068.42
401.82	7016.93
402.01	7023.95
402.21	7258.00
402.40	7360.98
402.59	6995.86
402.78	6707.98
402.97	6333.49
403.17	6869.47
403.36	7222.89
403.55	7136.29
403.74	7248.64
403.93	6874.15
404.13	6207.10
404.32	6530.09
404.51	6822.66
404.70	7321.20
404.89	7084.80
405.09	7105.87
405.28	7026.29
405.47	7012.24
405.66	6752.45
405.85	6700.95
406.05	6703.29
406.24	6787.55
406.43	7155.02
406.62	7148.00
406.81	7293.11
407.00	6909.26
407.20	6761.81
407.39	6803.94
407.58	7276.73
407.77	7440.56
407.96	7808.03
408.15	7786.96
408.34	7962.50
408.54	8046.76
408.73	8028.04
408.92	8046.76
409.11	7751.85
409.30	7178.42
409.49	6993.52
409.68	6434.13
409.87	6586.27
410.07	7061.40
410.26	7279.07
410.45	7796.32
410.64	7864.20
410.83	8124.00
411.02	8479.76
411.21	8887.01
411.40	8620.19
411.59	8793.39
411.78	8849.57
411.98	8484.44
412.17	8535.93
412.36	8320.60
412.55	8582.74
412.74	8271.45
412.93	7995.27
413.12	8397.84
413.31	8971.27
413.50	9137.45
413.69	8863.61
413.88	8613.17
414.07	8751.26
414.26	9015.74
414.45	9088.30
414.64	9132.77
414.83	8891.70
415.02	8959.57
415.22	8971.27
415.41	8947.87
415.60	9362.14
415.79	9696.84
415.98	9874.72
416.17	9806.84
416.36	9542.36
416.55	9544.70
416.74	9102.34
416.93	8767.65
417.12	9071.92
417.31	9137.45
417.50	9090.64
417.69	9195.96
417.88	9509.60
418.07	9214.69
418.26	9214.69
418.45	9551.73
418.64	10026.86
418.83	9914.51
419.02	9748.33
419.21	9619.60
419.39	9081.28
419.58	8613.17
419.77	8919.78
419.96	9535.34
420.15	9902.81
420.34	10356.87
420.53	10672.84
420.72	10775.83
420.91	10527.73
421.10	10239.84
421.29	10516.03
421.48	10377.94
421.67	10499.64
421.86	9839.61
422.05	9015.74
422.24	8496.14
422.43	8795.73
422.61	9502.58
422.80	10003.45
422.99	9987.07
423.18	9650.03
423.37	9589.17
423.56	9645.35
423.75	10017.49
423.94	10148.56
424.13	9423.00
424.32	9570.45
424.50	9504.92
424.69	9502.58
424.88	9497.89
425.07	9315.33
425.26	9533.00
425.45	9240.44
425.64	9128.09
425.83	9465.13
426.01	9923.87
426.20	10001.11
426.39	9551.73
426.58	8826.16
426.77	8386.14
426.96	8430.61
427.15	8858.93
427.33	9392.57
427.52	9530.66
427.71	9537.68
427.90	9357.46
428.09	9135.11
428.28	8999.36
428.46	8821.48
428.65	8638.92
428.84	9001.70
429.03	8894.04
429.22	8325.29
429.40	7810.37
429.59	7311.83
429.78	6509.03
429.97	6403.71
430.16	6640.10
430.34	6576.91
430.53	6750.10
430.72	7052.03
430.91	7777.60
431.10	9240.44
431.28	10546.45
431.47	11379.68
431.66	11208.83
431.85	9783.44
432.03	8828.50
432.22	9132.77
432.41	9643.01
432.60	10548.79
432.79	11033.29
432.97	11042.65
433.16	10434.11
433.35	9474.49
433.54	8606.15
433.72	8503.17
433.91	8915.10
434.10	9989.41
434.28	10410.70
434.47	10974.77
434.66	10239.84
434.85	10448.15
435.03	10651.78
435.22	10558.16
435.41	11157.33
435.59	11274.36
435.78	11173.72
435.97	11833.75
436.16	11407.77
436.34	11534.16
436.53	11269.68
436.72	11613.74
436.90	10621.35
437.09	10801.57
437.28	10368.57
437.46	10911.58
437.65	10752.42
437.84	10024.51
438.02	9345.76
438.21	9724.93
438.40	10153.24
438.58	10862.43
438.77	11028.60
438.96	11075.42
439.14	11660.55
439.33	11630.12
439.52	11712.04
439.70	11499.05
439.89	11009.88
440.08	11143.29
440.26	11433.52
440.45	11417.13
440.63	12203.55
440.82	12643.57
441.01	12138.02
441.19	12624.85
441.38	12945.50
441.57	13057.85
441.75	13036.78
441.94	13338.71
442.12	13027.42
442.31	13479.15
442.50	13399.57
442.68	13205.30
442.87	12971.25
443.05	12751.24
443.24	13343.39
443.43	13572.77
443.61	13657.03
443.80	14043.21
443.98	13074.23
444.17	13275.52
444.35	13720.22
444.54	14286.63
444.73	13947.25
444.91	13322.33
445.10	12561.66
445.28	12517.18
445.47	11901.62
445.65	11913.33
445.84	12517.18
446.02	12966.57
446.21	13525.96
446.39	13240.41
446.58	13277.86
446.77	13305.95
446.95	13507.23
447.14	14253.86
447.32	14181.31
447.51	13973.00
447.69	13081.25
447.88	13095.30
448.06	13184.24
448.25	13619.58
448.43	13951.93
448.62	13584.47
448.80	13673.41
448.99	13256.79
449.17	13441.70
449.36	13523.62
449.54	14338.12
449.73	14604.94
449.91	14738.35
450.10	15122.20
450.28	15073.05
450.46	15016.88
450.65	14883.47
450.83	14635.37
451.02	14658.78
451.20	14387.27
451.39	14326.42
451.57	14326.42
451.76	14178.97
451.94	13778.73
452.13	13825.54
452.31	13343.39
452.49	12868.27
452.68	12875.29
452.86	12760.60
453.05	13343.39
453.23	13907.46
453.42	14244.50
453.60	14326.42
453.78	14115.77
453.97	13891.08
454.15	13846.61
454.34	13418.29
454.52	13589.15
454.70	13413.61
454.89	13710.86
455.07	13916.83
455.26	14104.07
455.44	14452.81
455.62	14668.14
455.81	14855.38
455.99	14331.10
456.17	14111.09
456.36	14499.62
456.54	14953.68
456.73	14520.68
456.91	14984.11
457.09	15391.36
457.28	15185.40
457.46	14740.69
457.64	14558.13
457.83	14019.81
458.01	13949.59
458.19	14473.87
458.38	14459.83
458.56	14871.76
458.74	14792.19
458.93	14761.76
459.11	14506.64
459.29	14459.83
459.48	14115.77
459.66	14361.53
459.84	14647.07
460.03	14431.74
460.21	14672.82
460.39	15272.00
460.57	15021.56
460.76	15548.18
460.94	15524.77
461.12	15126.88
461.31	15213.48
461.49	15506.05
461.67	15250.93
461.85	15737.76
462.04	15351.57
462.22	15459.24
462.40	15037.94
462.59	15321.15
462.77	15410.09
462.95	15091.77
463.13	15243.91
463.32	15049.64
463.50	14916.23
463.68	14913.89
463.86	15190.08
464.05	15147.95
464.23	14394.29
464.41	14087.68
464.59	14319.40
464.78	15101.14
464.96	14965.39
465.14	14799.21
465.32	15023.90
465.50	15463.92
465.69	15300.08
465.87	14712.61
466.05	14396.64
466.23	13675.75
466.41	14031.51
466.60	14981.77
466.78	14684.52
466.96	14497.28
467.14	14951.34
467.32	15201.78
467.51	14810.91
467.69	14019.81
467.87	14469.19
468.05	14712.61
468.23	14956.02
468.41	14902.19
468.60	14726.65
468.78	14647.07
468.96	14778.14
469.14	14834.32
469.32	15293.06
469.50	14361.53
469.69	14270.25
469.87	14092.37
470.05	14050.24
470.23	14045.55
470.41	14298.33
470.59	14939.64
470.77	14614.30
470.95	14902.19
471.14	15194.76
471.32	15192.42
471.50	15777.55
471.68	16013.95
471.86	15981.18
472.04	15948.41
472.22	15946.07
472.40	15056.67
472.58	14977.09
472.77	14895.17
472.95	15421.79
473.13	15529.45
473.31	15463.92
473.49	15503.71
473.67	15379.66
473.85	15328.17
474.03	15866.49
474.21	15936.71
474.39	15772.87
474.57	16264.38
474.75	16336.94
474.93	16505.46
475.12	16037.35
475.30	16159.06
475.48	16311.19
475.66	16238.64
475.84	16060.76
476.02	15740.10
476.20	15389.02
476.38	15761.17
476.56	16421.20
476.74	16765.26
476.92	16989.95
477.10	17259.11
477.28	17366.78
477.46	17291.88
477.64	17769.35
477.82	17987.02
478.00	17912.12
478.18	17549.34
478.36	17261.45
478.54	16926.75
478.72	17781.05
478.90	18412.99
479.08	18398.95
479.26	18614.28
479.44	18384.91
479.62	18438.74
479.80	18010.42
479.98	18293.63
480.16	18583.85
480.34	18455.12
480.52	18314.69
480.70	18651.73
480.88	18689.18
481.06	19829.02
481.24	18913.87
481.41	19798.59
481.59	20170.74
481.77	19566.88
481.95	19349.21
482.13	19735.40
482.31	19463.90
482.49	20100.52
482.67	19632.41
482.85	19772.85
483.03	20262.02
483.21	20655.23
483.39	19953.07
483.57	19728.38
483.74	19487.30
483.92	19775.19
484.10	20231.59
484.28	20386.07
484.46	20100.52
484.64	20187.12
484.82	20161.37
485.00	19875.83
485.18	19641.78
485.35	18635.35
485.53	16580.36
485.71	15508.39
485.89	16133.31
486.07	16968.88
486.25	18541.72
486.43	19075.37
486.61	18946.64
486.78	18979.40
486.96	19866.47
487.14	20769.91
487.32	21205.25
487.50	21376.11
487.68	21223.98
487.85	21858.26
488.03	21476.76
488.21	21181.85
488.39	20884.60
488.57	20622.46
488.75	21039.08
488.92	22169.55
489.10	23559.83
489.28	23805.59
489.46	23601.96
489.64	24154.33
489.81	24348.59
489.99	24002.19
490.17	23901.55
490.35	24545.20
490.53	23946.02
490.70	23346.84
490.88	24151.99
491.06	24793.29
491.24	24137.94
491.41	23075.34
491.59	22188.28
491.77	22003.38
491.95	22431.69
492.13	23084.70
492.30	23730.69
492.48	25256.72
492.66	25439.28
492.84	24870.53
493.01	24879.89
493.19	24098.16
493.37	24025.60
493.54	24168.37
493.72	24816.70
493.90	25633.55
494.08	26176.55
494.25	26443.37
494.43	26855.31
494.61	27332.78
494.79	27070.64
494.96	26426.99
495.14	25963.56
495.32	24994.58
495.49	24819.04
495.67	26195.28
495.85	27501.29
496.02	27555.13
496.20	27187.66
496.38	26331.03
496.55	26174.21
496.73	26885.73
496.91	27173.62
497.09	27796.20
497.26	27007.44
497.44	27803.22
497.62	26583.80
497.79	25336.30
497.97	24706.70
498.14	24531.15
498.32	26122.72
498.50	26312.30
498.67	27946.00
498.85	27274.26
499.03	26691.47
499.20	27690.88
499.38	27143.19
499.56	26883.39
499.73	27124.47
499.91	26139.10
500.08	25720.15
500.26	25139.69
500.44	26370.82
500.61	26993.40
500.79	26270.17
500.97	25331.62
501.14	25741.21
501.32	25275.45
501.49	25568.01
501.67	25682.70
501.84	26103.99
502.02	26403.58
502.20	26719.56
502.37	26806.16
502.55	27339.80
502.72	27941.32
502.90	28219.84
503.07	27709.60
503.25	27491.93
503.43	26434.01
503.60	25109.27
503.78	25076.50
503.95	25795.04
504.13	26574.44
504.30	27892.16
504.48	27562.15
504.65	27220.43
504.83	27136.17
505.01	27337.46
505.18	28046.64
505.36	29333.93
505.53	28648.16
505.71	28973.49
505.88	28872.85
506.06	28622.41
506.23	28446.87
506.41	28439.85
506.58	27772.80
506.76	27304.69
506.93	28285.37
507.11	27159.58
507.28	27110.43
507.46	26876.37
507.63	26047.82
507.81	26164.85
507.98	26747.64
508.16	27239.15
508.33	28053.66
508.50	28081.75
508.68	28046.64
508.85	28804.97
509.03	28306.44
509.20	27393.63
509.38	27536.40
509.55	26796.79
509.73	27807.90
509.90	28254.95
510.08	27775.14
510.25	27398.31
510.42	27215.75
510.60	27576.19
510.77	27810.25
510.95	28826.04
511.12	28084.09
511.30	28994.56
511.47	29130.31
511.64	29003.92
511.82	28739.44
511.99	27737.69
512.17	27065.96
512.34	27562.15
512.51	27147.87
512.69	26958.29
512.86	27400.65
513.04	28514.75
513.21	27737.69
513.38	27346.82
513.56	26864.67
513.73	25961.22
513.90	25993.99
514.08	26298.26
514.25	27042.55
514.43	27262.56
514.60	27875.78
514.77	27438.10
514.95	27405.33
515.12	27337.46
515.29	27583.21
515.47	27775.14
515.64	27690.88
515.81	28016.21
515.99	27138.51
516.16	25336.30
516.33	23241.52
516.51	22202.32
516.68	21348.03
516.85	20655.23
517.03	21928.48
517.20	23833.68
517.37	25895.69
517.54	25818.45
517.72	24622.44
517.89	22862.35
518.06	22298.28
518.24	22888.10
518.41	24840.11
518.58	25631.21
518.75	25949.52
518.93	25603.12
519.10	25516.52
519.27	26616.57
519.45	26504.23
519.62	26792.11
519.79	27014.46
519.96	27225.11
520.14	26321.66
520.31	25350.34
520.48	25738.87
520.65	25935.48
520.83	26888.07
521.00	27278.94
521.17	26759.34
521.34	26586.15
521.52	26618.91
521.69	27520.02
521.86	27150.21
522.03	27278.94
522.20	25355.02
522.38	24678.61
522.55	25130.33
522.72	26111.02
522.89	25675.68
523.07	26370.82
523.24	27112.77
523.41	27316.39
523.58	27386.61
523.75	27035.53
523.92	27777.48
524.10	28151.96
524.27	27901.53
524.44	27697.90
524.61	27826.63
524.78	27580.87
524.96	27351.50
525.13	26998.08
525.30	27648.75
525.47	28210.48
525.64	27644.07
525.81	26455.08
525.98	24779.25
526.16	23583.24
526.33	23227.48
526.50	23119.81
526.67	23211.09
526.84	23161.94
527.01	24465.62
527.18	25570.35
527.36	26064.21
527.53	27503.64
527.70	26930.20
527.87	25057.78
528.04	25502.48
528.21	26218.68
528.38	27082.34
528.55	28154.30
528.72	27723.65
528.89	27536.40
529.07	27997.49
529.24	26581.46
529.41	26426.99
529.58	26228.04
529.75	26515.93
529.92	26775.73
530.09	26775.73
530.26	26490.18
530.43	26089.95
530.60	26939.57
530.77	27491.93
530.94	27784.50
531.11	27309.37
531.28	26384.86
531.46	26424.65
531.63	26670.40
531.80	26380.18
531.97	25961.22
532.14	25149.06
532.31	23843.04
532.48	22820.22
532.65	23737.71
532.82	24491.37
532.99	25474.39
533.16	25898.03
533.33	26801.47
533.50	26225.70
533.67	25542.27
533.84	25448.64
534.01	25603.12
534.18	25734.19
534.35	25523.54
534.52	25458.01
534.69	26146.12
534.86	26546.36
535.03	26635.30
535.20	26230.38
535.37	26714.87
535.54	26604.87
535.71	26099.31
535.88	26125.06
536.05	25259.06
536.22	25371.41
536.38	24601.37
536.55	24718.40
536.72	24734.78
536.89	24985.22
537.06	25095.22
537.23	24973.52
537.40	25483.75
537.57	25663.97
537.74	24961.81
537.91	25191.19
538.08	25696.74
538.25	26101.65
538.42	25261.40
538.59	25762.28
538.75	25734.19
538.92	25238.00
539.09	24730.10
539.26	23805.59
539.43	23412.38
539.60	23606.64
539.77	23484.94
539.94	23384.29
540.11	22934.91
540.28	22499.57
540.44	22789.80
540.61	23140.88
540.78	23356.21
540.95	24491.37
541.12	24135.60
541.29	24690.31
541.46	24671.59
541.62	24657.54
541.79	23880.49
541.96	23241.52
542.13	24496.05
542.30	24643.50
542.47	24584.99
542.63	24121.56
542.80	23026.19
542.97	23412.38
543.14	23456.85
543.31	23536.43
543.48	24423.49
543.64	24606.05
543.81	24601.37
543.98	24332.21
544.15	24545.20
544.32	23480.25
544.48	24638.82
544.65	23611.32
544.82	24016.24
544.99	23878.15
545.16	23817.29
545.32	24121.56
545.49	24915.00
545.66	25385.45
545.83	24849.47
546.00	23906.23
546.16	23653.45
546.33	23934.32
546.50	24119.22
546.67	24369.66
546.83	23967.09
547.00	23276.63
547.17	23000.44
547.34	23630.05
547.50	23051.94
547.67	23164.28
547.84	23180.67
548.00	23742.39
548.17	23274.29
548.34	23625.37
548.51	24159.01
548.67	24400.08
548.84	24474.98
549.01	25144.38
549.18	24212.84
549.34	24503.07
549.51	24133.26
549.68	23791.55
549.84	23850.06
550.01	23700.26
550.18	23351.52
550.34	23082.36
550.51	23140.88
550.68	23073.00
550.84	22445.74
551.01	22560.42
551.18	22600.21
551.34	22459.78
551.51	22986.40
551.68	23674.52
551.84	22981.72
552.01	23751.76
552.18	22850.65
552.34	22630.64
552.51	22373.18
552.68	22911.50
552.84	22513.61
553.01	22768.73
553.18	23456.85
553.34	23161.94
553.51	22836.61
553.67	22672.77
553.84	23623.03
554.01	23648.77
554.17	23218.11
554.34	23522.38
554.51	23520.04
554.67	23435.78
554.84	22630.64
555.00	22831.93
555.17	22595.53
555.33	23190.03
555.50	23374.93
555.67	23218.11
555.83	22939.59
556.00	22583.83
556.16	22324.03
556.33	22249.13
556.50	22244.45
556.66	21525.91
556.83	21184.19
556.99	21642.93
557.16	21774.00
557.32	21949.54
557.49	22253.81
557.65	22132.11
557.82	20943.11
557.98	21502.50
558.15	21586.76
558.32	20718.42
558.48	20912.69
558.65	20496.07
558.81	20711.40
558.98	21146.74
559.14	21188.87
559.31	21317.60
559.47	20706.72
559.64	20250.32
559.80	21146.74
559.97	20945.45
560.13	21348.03
560.30	21785.71
560.46	22169.55
560.63	22167.21
560.79	22319.35
560.96	21324.62
561.12	20879.92
561.29	20446.92
561.45	20418.83
561.61	20599.05
561.78	20561.61
561.94	20945.45
562.11	21003.97
562.27	21584.42
562.44	21972.95
562.60	21170.15
562.77	21788.05
562.93	20793.32
563.10	20786.30
563.26	21113.97
563.42	20456.28
563.59	20439.90
563.75	21174.83
563.92	20872.90
564.08	21069.50
564.24	20306.49
564.41	19604.33
564.57	20308.83
564.74	19894.55
564.90	20049.03
565.07	20081.80
565.23	18932.59
565.39	19365.59
565.56	19887.53
565.72	19410.06
565.88	20023.28
566.05	19969.45
566.21	19882.85
566.38	19353.89
566.54	19419.42
566.70	19335.17
566.87	19967.11
567.03	20982.90
567.19	21010.99
567.36	19974.13
567.52	20360.32
567.68	19559.86
567.85	19262.61
568.01	19023.87
568.17	18127.45
568.34	18253.84
568.50	18857.70
568.66	18714.92
568.83	18780.46
568.99	19311.76
569.15	18892.80
569.32	19091.75
569.48	19594.96
569.64	19187.71
569.81	18553.43
569.97	18743.01
570.13	18918.55
570.30	18977.06
570.46	18270.22
570.62	17806.80
570.78	17383.16
570.95	17254.43
571.11	18354.48
571.27	18494.91
571.43	18670.45
571.60	18794.50
571.76	18375.55
571.92	18342.78
572.09	19145.58
572.25	18923.23
572.41	19398.36
572.57	19267.29
572.74	19197.07
572.90	19103.45
573.06	18382.57
573.22	18567.47
573.38	18457.46
573.55	17853.61
573.71	18506.62
573.87	18504.28
574.03	18740.67
574.20	18752.37
574.36	18073.62
574.52	18534.70
574.68	18298.31
574.84	17916.80
575.01	18120.43
575.17	18061.91
575.33	18024.47
575.49	17603.17
575.65	17774.03
575.82	17441.67
575.98	17319.96
576.14	17699.13
576.30	17654.66
576.46	17287.20
576.62	17720.20
576.79	17839.56
576.95	17441.67
577.11	17715.51
577.27	17130.38
577.43	17151.45
577.59	17041.44
577.75	17713.17
577.92	17011.01
578.08	16882.28
578.24	16910.37
578.40	16858.88
578.56	16748.87
578.72	16793.34
578.88	17551.68
579.04	17748.28
579.21	17439.33
579.37	17528.27
579.53	17109.32
579.69	16772.28
579.85	16650.57
580.01	16329.92
580.17	16613.12
580.33	16966.54
580.49	16879.94
580.65	16889.31
580.82	16891.65
580.98	16849.52
581.14	16807.39
581.30	17308.26
581.46	17151.45
581.62	17116.34
581.78	17422.95
581.94	17956.59
582.10	17364.43
582.26	17013.35
582.42	17043.78
582.58	17523.59
582.74	17149.11
582.90	16971.22
583.06	17584.44
583.22	17502.53
583.38	17818.50
583.54	17469.76
583.70	17572.74
583.86	17095.27
584.02	17315.28
584.18	17460.40
584.34	17294.22
584.50	18146.17
584.66	17717.86
584.82	17380.82
584.98	16690.36
585.14	16243.32
585.30	15695.63
585.46	15925.00
585.62	15901.60
585.78	16493.76
585.94	16142.67
586.10	15906.28
586.26	16617.80
586.42	16575.67
586.58	16322.90
586.74	15962.45
586.90	15632.44
587.06	15896.92
