SpectraSuite Data File
++++++++++++++++++++++++++++++++++++
Date: Mon Oct 07 14:53:54 GMT-05:00 2013
User: price-jones
Dark Spectrum Present: No
Reference Spectrum Present: No
Number of Sampled Component Spectra: 1
Spectrometers: USB2+H05261
Integration Time (usec): 100000 (USB2+H05261)
Spectra Averaged: 1 (USB2+H05261)
Boxcar Smoothing: 0 (USB2+H05261)
Correct for Electrical Dark: No (USB2+H05261)
Strobe/Lamp Enabled: No (USB2+H05261)
Correct for Detector Non-linearity: No (USB2+H05261)
Correct for Stray Light: No (USB2+H05261)
Number of Pixels in Processed Spectrum: 2048
>>>>>Begin Processed Spectral Data<<<<<
365.73	0.00
365.92	0.00
366.12	0.00
366.32	0.00
366.52	0.00
366.72	0.00
366.91	0.00
367.11	0.00
367.31	0.00
367.51	0.00
367.70	0.00
367.90	0.00
368.10	0.00
368.30	0.00
368.49	0.00
368.69	0.00
368.89	0.00
369.09	0.00
369.28	0.00
369.48	0.00
369.68	0.00
369.87	0.00
370.07	0.00
370.27	0.00
370.47	634.29
370.66	3178.45
370.86	3571.66
371.06	4065.51
371.25	4170.83
371.45	3655.92
371.65	3304.84
371.84	3108.23
372.04	3248.66
372.24	3606.77
372.44	3847.84
372.63	3733.15
372.83	3571.66
373.03	3054.40
373.22	2857.79
373.42	3019.29
373.62	3494.42
373.81	3749.54
374.01	3763.58
374.21	3456.97
374.40	3126.96
374.60	3300.16
374.79	3599.74
374.99	4372.12
375.19	4573.41
375.38	4624.90
375.58	4355.74
375.78	4482.13
375.97	4372.12
376.17	4435.32
376.37	4489.15
376.56	4587.45
376.76	4931.51
376.95	5179.61
377.15	5614.95
377.35	5687.50
377.54	6099.44
377.74	6090.07
377.93	6225.82
378.13	5984.75
378.33	5804.53
378.52	5352.81
378.72	5111.73
378.91	4917.47
379.11	4894.06
379.31	4643.62
379.50	4620.22
379.70	5181.95
379.89	5493.24
380.09	5856.02
380.28	6052.63
380.48	6104.12
380.68	5989.43
380.87	5661.76
381.07	5434.72
381.26	4968.96
381.46	4699.80
381.65	4430.63
381.85	4437.66
382.04	4145.09
382.24	3936.78
382.43	3721.45
382.63	3669.96
382.83	3625.49
383.02	3681.66
383.22	3520.17
383.41	3747.20
383.61	4004.66
383.80	4578.09
384.00	5095.35
384.19	5647.71
384.39	5942.62
384.58	6038.58
384.78	5778.78
384.97	5816.23
385.17	5647.71
385.36	5401.96
385.56	5114.07
385.75	5090.67
385.95	5554.09
386.14	6310.08
386.34	6242.21
386.53	5888.79
386.72	5504.94
386.92	5488.56
387.11	5783.46
387.31	6045.60
387.50	5968.37
387.70	5884.11
387.89	5879.43
388.09	5696.86
388.28	6038.58
388.48	6064.33
388.67	6417.75
388.86	7159.70
389.06	7503.76
389.25	8021.02
389.45	7838.45
389.64	7861.86
389.84	7906.33
390.03	7639.51
390.22	7903.99
390.42	8046.76
390.61	8414.23
390.81	9071.92
391.00	9200.65
391.19	9083.62
391.39	8842.54
391.58	8299.54
391.78	7934.42
391.97	7758.88
392.16	7087.14
392.36	6310.08
392.55	5231.10
392.75	4067.85
392.94	3253.34
393.13	3349.31
393.33	3925.08
393.52	5214.71
393.71	6150.93
393.91	7019.27
394.10	7337.58
394.29	8250.39
394.49	8720.84
394.68	9610.24
394.88	9689.82
395.07	9940.26
395.26	9893.44
395.46	9671.09
395.65	9067.24
395.84	8028.04
396.04	6909.26
396.23	5385.57
396.42	4627.24
396.62	4519.57
396.81	5078.96
397.00	6375.62
397.19	8306.56
397.39	9856.00
397.58	10892.85
397.77	11651.19
397.97	12109.93
398.16	12175.47
398.35	12713.79
398.55	12947.84
398.74	13715.54
398.93	13907.46
399.12	13729.58
399.32	13092.96
399.51	13401.91
399.70	14279.61
399.90	14075.98
400.09	14295.99
400.28	13820.86
400.47	14265.57
400.67	14902.19
400.86	15304.76
401.05	15091.77
401.24	15264.97
401.44	15658.18
401.63	15627.76
401.82	15791.59
402.01	15611.37
402.21	15812.66
402.40	15772.87
402.59	15145.61
402.78	14717.29
402.97	14057.26
403.17	14902.19
403.36	15798.62
403.55	16397.79
403.74	16629.51
403.93	16046.71
404.13	14642.39
404.32	14581.54
404.51	14778.14
404.70	16128.63
404.89	16072.46
405.09	16053.73
405.28	15253.27
405.47	15300.08
405.66	15314.13
405.85	14923.26
406.05	14754.74
406.24	14927.94
406.43	15250.93
406.62	15964.79
406.81	15948.41
407.00	15552.86
407.20	15054.33
407.39	15136.24
407.58	15789.25
407.77	16430.56
407.96	17200.60
408.15	17446.35
408.34	17102.29
408.54	18225.75
408.73	18115.75
408.92	17912.12
409.11	17584.44
409.30	16751.21
409.49	15515.41
409.68	14546.43
409.87	14176.62
410.07	15208.80
410.26	16217.57
410.45	17153.79
410.64	17563.38
410.83	18036.17
411.02	18623.64
411.21	19262.61
411.40	19028.56
411.59	19145.58
411.78	19105.79
411.98	18803.86
412.17	19253.25
412.36	18656.41
412.55	18963.02
412.74	18506.62
412.93	17933.18
413.12	18090.00
413.31	19669.86
413.50	20056.05
413.69	20343.94
413.88	19566.88
414.07	19002.81
414.26	19302.40
414.45	19992.86
414.64	20107.54
414.83	20107.54
415.02	19646.46
415.22	19887.53
415.41	20299.47
415.60	20924.39
415.79	21596.12
415.98	22001.04
416.17	22370.84
416.36	21202.91
416.55	21380.79
416.74	20449.26
416.93	20067.75
417.12	19695.61
417.31	20072.43
417.50	20456.28
417.69	21551.65
417.88	20734.81
418.07	20568.63
418.26	20577.99
418.45	20587.35
418.64	21561.02
418.83	22258.49
419.02	22129.77
419.21	21869.97
419.39	20978.22
419.58	19742.42
419.77	19775.19
419.96	20671.61
420.15	21905.07
420.34	22232.75
420.53	23332.80
420.72	23548.13
420.91	23501.32
421.10	22970.02
421.29	22799.16
421.48	22207.00
421.67	23243.86
421.86	22782.77
422.05	21254.40
422.24	19180.69
422.43	18707.90
422.61	20779.28
422.80	22471.48
422.99	22506.59
423.18	21891.03
423.37	21184.19
423.56	21233.34
423.75	21509.52
423.94	21879.33
424.13	21015.67
424.32	21029.71
424.50	20968.86
424.69	20568.63
424.88	21301.22
425.07	20847.15
425.26	20917.37
425.45	20573.31
425.64	20299.47
425.83	20753.53
426.01	21329.30
426.20	21944.86
426.39	21734.21
426.58	20449.26
426.77	18576.83
426.96	18033.83
427.15	18511.30
427.33	20465.64
427.52	21006.31
427.71	21287.17
427.90	20786.30
428.09	20662.25
428.28	20329.89
428.46	19438.15
428.65	19386.66
428.84	19655.82
429.03	20397.77
429.22	18785.14
429.40	18375.55
429.59	16294.81
429.78	14831.97
429.97	14452.81
430.16	14721.97
430.34	14839.00
430.53	14736.01
430.72	15133.90
430.91	16709.08
431.10	19948.39
431.28	23255.56
431.47	24982.88
431.66	25310.55
431.85	23222.80
432.03	21195.89
432.22	20114.56
432.41	20648.21
432.60	23456.85
432.79	24402.43
432.97	25083.52
433.16	24582.65
433.35	22384.88
433.54	20006.90
433.72	18754.71
433.91	19105.79
434.10	21209.93
434.28	23021.51
434.47	24294.76
434.66	24013.90
434.85	23250.88
435.03	23143.22
435.22	24039.64
435.41	25245.02
435.59	25333.96
435.78	25607.80
435.97	26199.96
436.16	26450.39
436.34	26251.45
436.53	25647.59
436.72	25727.17
436.90	24219.86
437.09	24130.92
437.28	23660.48
437.46	24329.87
437.65	24545.20
437.84	22841.29
438.02	20603.74
438.21	20624.80
438.40	21867.63
438.58	23887.51
438.77	24449.24
438.96	24622.44
439.14	25743.55
439.33	26092.29
439.52	26185.91
439.70	26216.34
439.89	25111.61
440.08	24844.79
440.26	24980.54
440.45	25628.87
440.63	27374.91
440.82	28811.99
441.01	28339.21
441.19	27866.42
441.38	28212.82
441.57	29397.13
441.75	29647.57
441.94	30267.81
442.12	29811.40
442.31	30192.91
442.50	30316.96
442.68	29809.06
442.87	29916.73
443.05	28819.02
443.24	29486.07
443.43	30246.74
443.61	30869.33
443.80	30934.86
443.98	29296.49
444.17	29244.99
444.35	31349.14
444.54	31550.42
444.73	31304.67
444.91	29998.65
445.10	28879.87
445.28	27814.93
445.47	27185.32
445.65	27269.58
445.84	27983.44
446.02	29235.63
446.21	29350.32
446.39	29457.98
446.58	29848.85
446.77	30749.96
446.95	30504.20
447.14	31262.54
447.32	32371.95
447.51	31152.53
447.69	29666.29
447.88	29731.83
448.06	29874.60
448.25	30857.62
448.43	31452.12
448.62	30478.46
448.80	30213.98
448.99	30473.78
449.17	30785.07
449.36	30782.73
449.54	31758.73
449.73	32718.35
449.91	32896.23
450.10	33701.37
450.28	33883.94
450.46	33799.68
450.65	33743.50
450.83	33605.41
451.02	33027.30
451.20	32861.12
451.39	32905.59
451.57	32753.46
451.76	32533.45
451.94	32381.31
452.13	31562.12
452.31	30412.92
452.49	28608.37
452.68	29727.14
452.86	29230.95
453.05	29462.66
453.23	30321.64
453.42	31126.78
453.60	32084.06
453.78	32098.11
453.97	32371.95
454.15	31929.59
454.34	31342.11
454.52	31220.41
454.70	30298.23
454.89	31002.74
455.07	31206.36
455.26	31667.45
455.44	33013.26
455.62	33181.77
455.81	33397.10
455.99	33212.20
456.17	33273.06
456.36	33053.05
456.54	34209.27
456.73	33804.36
456.91	34555.67
457.09	34614.18
457.28	35442.73
457.46	33937.77
457.64	33509.45
457.83	32994.53
458.01	32285.35
458.19	32847.08
458.38	33017.94
458.56	34352.04
458.74	33757.55
458.93	33078.79
459.11	33305.82
459.29	33177.09
459.48	32980.49
459.66	33188.80
459.84	33528.17
460.03	33905.00
460.21	33628.82
460.39	34682.06
460.57	35084.63
460.76	34967.60
460.94	34829.51
461.12	34511.20
461.31	34515.88
461.49	34539.29
461.67	34480.77
461.85	35758.70
462.04	35466.14
462.22	35798.49
462.40	35728.28
462.59	35419.33
462.77	35714.23
462.95	35482.52
463.13	35292.94
463.32	34632.91
463.50	34651.63
463.68	34756.96
463.86	34724.19
464.05	34621.20
464.23	33825.42
464.41	33357.32
464.59	32809.63
464.78	34511.20
464.96	34005.64
465.14	33619.46
465.32	34632.91
465.50	35330.39
465.69	35700.19
465.87	35051.86
466.05	33806.70
466.23	32877.51
466.41	32198.75
466.60	33092.83
466.78	32762.82
466.96	33654.56
467.14	33965.85
467.32	34726.53
467.51	34497.16
467.69	32479.61
467.87	33830.10
468.05	34272.46
468.23	34136.71
468.41	34471.41
468.60	34536.94
468.78	34635.25
468.96	34230.33
469.14	35377.20
469.32	35346.77
469.50	33710.74
469.69	33570.30
469.87	33223.90
470.05	33118.58
470.23	33158.37
470.41	33394.76
470.59	33621.80
470.77	34075.86
470.95	34380.13
471.14	34789.72
471.32	34967.60
471.50	36872.80
471.68	36994.51
471.86	37099.83
472.04	37631.13
472.22	37549.21
472.40	35840.62
472.58	35452.09
472.77	34962.92
472.95	35782.11
473.13	36903.23
473.31	35541.03
473.49	35997.44
473.67	36692.58
473.85	37022.59
474.03	37677.94
474.21	37909.66
474.39	38059.45
474.57	38553.30
474.75	37914.34
474.93	38323.93
475.12	36945.36
475.30	37163.03
475.48	37645.18
475.66	37874.55
475.84	37523.47
476.02	37193.45
476.20	36755.77
476.38	37603.05
476.56	38141.37
476.74	38787.36
476.92	39253.12
477.10	39852.30
477.28	40910.22
477.46	40816.60
477.64	41282.37
477.82	41504.72
478.00	41462.59
478.18	40671.49
478.36	40954.69
478.54	40612.98
478.72	40816.60
478.90	42052.41
479.08	42852.87
479.26	43180.54
479.44	43253.10
479.62	42759.25
479.80	43419.28
479.98	43358.42
480.16	43674.40
480.34	43255.44
480.52	43672.06
480.70	44058.24
480.88	43873.34
481.06	44779.13
481.24	44655.08
481.41	45698.96
481.59	46885.61
481.77	46117.92
481.95	45371.28
482.13	45272.98
482.31	45474.27
482.49	46382.40
482.67	45841.73
482.85	45830.03
483.03	46827.10
483.21	47122.01
483.39	46981.57
483.57	46593.04
483.74	45977.48
483.92	46621.13
484.10	46576.66
484.28	47344.36
484.46	47870.98
484.64	47894.38
484.82	47194.56
485.00	46953.49
485.18	46171.75
485.35	44954.67
485.53	41528.13
485.71	38031.36
485.89	37296.44
486.07	39475.48
486.25	42752.23
486.43	45212.13
486.61	46454.95
486.78	45736.41
486.96	45991.53
487.14	47475.43
487.32	48371.85
487.50	49727.02
487.68	50443.23
487.85	50923.04
488.03	50894.95
488.21	50370.67
488.39	49610.00
488.57	49340.83
488.75	48685.48
488.92	50014.91
489.10	51941.17
489.28	53261.23
489.46	53832.32
489.64	53544.44
489.81	53719.98
489.99	53574.86
490.17	53455.50
490.35	53797.21
490.53	53389.96
490.70	53326.77
490.88	53083.35
491.06	53776.15
491.24	54049.99
491.41	52882.06
491.59	51157.09
491.77	50155.34
491.95	51721.16
492.13	52982.71
492.30	53879.13
492.48	55011.95
492.66	55695.39
492.84	55318.56
493.01	54934.71
493.19	54602.36
493.37	54122.55
493.54	53654.44
493.72	54667.89
493.90	55363.03
494.08	56266.48
494.25	56552.02
494.43	56694.80
494.61	56898.42
494.79	57272.91
494.96	57029.49
495.14	56310.95
495.32	55515.17
495.49	54794.28
495.67	55700.07
495.85	56935.87
496.02	57368.87
496.20	57532.71
496.38	56889.06
496.55	56947.57
496.73	57202.69
496.91	57272.91
497.09	57951.66
497.26	57900.17
497.44	57319.72
497.62	57102.05
497.79	56189.24
497.97	55140.68
498.14	55243.66
498.32	56214.99
498.50	57036.51
498.67	57729.31
498.85	57535.05
499.03	57839.32
499.20	58078.05
499.38	58005.50
499.56	57890.81
499.73	57359.51
499.91	57127.80
500.08	56498.19
500.26	55847.52
500.44	56362.44
500.61	57116.09
500.79	56725.22
500.97	56336.69
501.14	56446.70
501.32	56287.54
501.49	56189.24
501.67	56371.80
501.84	56877.36
502.02	57219.08
502.20	57565.48
502.37	57635.69
502.55	57474.20
502.72	58024.22
502.90	58646.80
503.07	58246.57
503.25	57928.26
503.43	57001.41
503.60	56217.33
503.78	55786.67
503.95	56238.39
504.13	57647.39
504.30	58307.43
504.48	58197.42
504.65	57954.00
504.83	57771.44
505.01	58450.20
505.18	58859.79
505.36	59367.69
505.53	59538.55
505.71	59557.27
505.88	59847.50
506.06	59084.48
506.23	58719.36
506.41	58202.10
506.58	58632.76
506.76	58681.91
506.93	58621.06
507.11	58248.91
507.28	58471.26
507.46	58082.73
507.63	57645.05
507.81	57169.93
507.98	57492.92
508.16	58174.02
508.33	58564.88
508.50	59023.63
508.68	59220.23
508.85	59739.83
509.03	59894.31
509.20	59751.54
509.38	58848.09
509.55	58155.29
509.73	58204.44
509.90	58651.48
510.08	59004.91
510.25	58892.56
510.42	58700.64
510.60	58672.55
510.77	58993.20
510.95	59480.03
511.12	59536.21
511.30	59742.17
511.47	60055.81
511.64	59971.55
511.82	59732.81
511.99	58894.90
512.17	58698.30
512.34	58171.67
512.51	58307.43
512.69	58532.12
512.86	58651.48
513.04	59009.59
513.21	58997.88
513.38	58892.56
513.56	58080.39
513.73	57579.52
513.90	57691.86
514.08	57979.75
514.25	58089.76
514.43	58394.03
514.60	58443.18
514.77	58368.28
514.95	58878.52
515.12	58492.33
515.29	58735.74
515.47	59290.45
515.64	59711.75
515.81	59150.02
515.99	58473.60
516.16	57242.48
516.33	55257.71
516.51	53464.86
516.68	52619.92
516.85	52172.88
517.03	52891.43
517.20	55494.10
517.37	57614.63
517.54	58749.79
517.72	58213.80
517.89	56116.68
518.06	53347.83
518.24	54176.38
518.41	55976.25
518.58	57469.51
518.75	57572.50
518.93	57425.04
519.10	57649.74
519.27	57867.40
519.45	58094.44
519.62	58724.04
519.79	59159.38
519.96	59187.47
520.14	58508.71
520.31	57813.57
520.48	57886.13
520.65	58255.93
520.83	58958.09
521.00	59341.94
521.17	59032.99
521.34	58845.75
521.52	58871.49
521.69	59468.33
521.86	59781.96
522.03	59278.75
522.20	58349.56
522.38	57319.72
522.55	57172.27
522.72	57745.70
522.89	58241.89
523.07	58532.12
523.24	58684.25
523.41	59428.54
523.58	59835.80
523.75	60116.66
523.92	60060.49
524.10	60072.19
524.27	60133.04
524.44	59641.53
524.61	59559.61
524.78	59395.77
524.96	59180.45
525.13	59365.35
525.30	59686.00
525.47	59847.50
525.64	60006.65
525.81	59318.54
525.98	57813.57
526.16	56409.25
526.33	55882.63
526.50	55461.33
526.67	55248.35
526.84	55781.99
527.01	56720.54
527.18	57268.23
527.36	58080.39
527.53	59189.81
527.70	59243.64
527.87	59023.63
528.04	58497.01
528.21	59070.44
528.38	59615.79
528.55	60229.01
528.72	60243.05
528.89	60523.91
529.07	60383.48
529.24	59676.64
529.41	58948.73
529.58	58534.46
529.75	58471.26
529.92	58946.39
530.09	59428.54
530.26	59929.42
530.43	60184.54
530.60	60200.92
530.77	60231.35
530.94	60516.89
531.11	59910.69
531.28	59437.90
531.46	59435.56
531.63	59608.76
531.80	59412.16
531.97	59086.82
532.14	58532.12
532.31	57457.81
532.48	56610.54
532.65	56645.65
532.82	57862.72
532.99	58370.62
533.16	59004.91
533.33	59599.40
533.50	59253.00
533.67	58707.66
533.84	58286.36
534.01	58499.35
534.18	58649.14
534.35	58705.32
534.52	58913.62
534.69	59035.33
534.86	59292.79
535.03	59583.02
535.20	60044.10
535.37	60320.29
535.54	60406.89
535.71	59985.59
535.88	59728.13
536.05	59000.22
536.22	58707.66
536.38	58394.03
536.55	57848.68
536.72	57471.85
536.89	57446.11
537.06	58267.64
537.23	59112.57
537.40	59227.26
537.57	59339.60
537.74	58990.86
537.91	58836.39
538.08	58897.24
538.25	59032.99
538.42	59121.93
538.59	58939.37
538.75	58571.91
538.92	58005.50
539.09	58066.35
539.26	57844.00
539.43	57659.10
539.60	57722.29
539.77	57951.66
539.94	57565.48
540.11	56938.21
540.28	56570.75
540.44	56762.67
540.61	56699.48
540.78	57003.75
540.95	57406.32
541.12	57829.96
541.29	58211.46
541.46	58403.39
541.62	58450.20
541.79	58291.04
541.96	57750.38
542.13	57731.65
542.30	57911.88
542.47	58171.67
542.63	57869.75
542.80	57722.29
542.97	57631.01
543.14	57593.56
543.31	57825.28
543.48	58181.04
543.64	58845.75
543.81	59388.75
543.98	59196.83
544.15	58309.77
544.32	57860.38
544.48	57733.99
544.65	58246.57
544.82	58574.25
544.99	58176.36
545.16	58068.69
545.32	57790.17
545.49	58422.11
545.66	58873.84
545.83	58447.86
546.00	58117.84
546.16	57797.19
546.33	57895.49
546.50	58019.54
546.67	58319.13
546.83	57921.24
547.00	57923.58
547.17	57350.15
547.34	56495.85
547.50	56772.03
547.67	57085.67
547.84	57113.75
548.00	57626.33
548.17	58056.99
548.34	57937.62
548.51	58019.54
548.67	57914.22
548.84	58225.51
549.01	57942.30
549.18	57773.78
549.34	57719.95
549.51	57745.70
549.68	57673.14
549.84	57439.09
550.01	57352.49
550.18	57263.55
550.34	57422.70
550.51	57633.35
550.68	57476.54
550.84	56722.88
551.01	57319.72
551.18	57183.97
551.34	57361.85
551.51	57656.76
551.68	57888.47
551.84	57921.24
552.01	57780.81
552.18	57715.27
552.34	56921.83
552.51	56423.29
552.68	56324.99
552.84	56882.04
553.01	57076.30
553.18	57078.64
553.34	57109.07
553.51	57144.18
553.67	57609.95
553.84	57733.99
554.01	57427.38
554.17	57233.12
554.34	57279.93
554.51	57549.09
554.67	57673.14
554.84	57682.50
555.00	57387.60
555.17	57354.83
555.33	57202.69
555.50	57169.93
555.67	57048.22
555.83	56882.04
556.00	56432.66
556.16	56566.07
556.33	56177.54
556.50	56144.77
556.66	56170.52
556.83	55742.20
556.99	55826.46
557.16	56086.26
557.32	56336.69
557.49	56591.81
557.65	56545.00
557.82	56563.73
557.98	56317.97
558.15	55763.26
558.32	54955.78
558.48	54075.74
558.65	54621.08
558.81	54672.57
558.98	55007.27
559.14	55231.96
559.31	55564.32
559.47	55379.42
559.64	54965.14
559.80	54724.07
559.97	54588.31
560.13	55077.49
560.30	55863.91
560.46	56495.85
560.63	56858.63
560.79	56842.25
560.96	56219.67
561.12	55379.42
561.29	54241.92
561.45	54532.14
561.61	55140.68
561.78	55498.78
561.94	55220.26
562.11	55203.88
562.27	55117.28
562.44	55463.67
562.60	55817.10
562.77	56011.36
562.93	55906.04
563.10	55426.23
563.26	55065.78
563.42	55367.71
563.59	54731.09
563.75	54941.74
563.92	54974.50
564.08	54883.22
564.24	55210.90
564.41	55297.50
564.57	55337.29
564.74	55103.23
564.90	54838.75
565.07	54831.73
565.23	54410.43
565.39	53846.36
565.56	53366.55
565.72	53373.58
565.88	53951.69
566.05	53715.29
566.21	54082.76
566.38	54169.36
566.54	54361.28
566.70	54719.38
566.87	54775.56
567.03	55082.17
567.19	55269.41
567.36	54735.77
567.52	54436.18
567.68	54412.77
567.85	53614.65
568.01	53286.98
568.17	53088.03
568.34	52966.32
568.50	52851.64
568.66	53284.64
568.83	53343.15
568.99	53516.35
569.15	53872.11
569.32	53605.29
569.48	53371.24
569.64	53127.82
569.81	52947.60
569.97	52917.17
570.13	52617.58
570.30	52062.88
570.46	51704.77
570.62	51061.13
570.78	51016.66
570.95	51182.84
571.11	52264.16
571.27	52327.36
571.43	52640.99
571.60	52954.62
571.76	53001.43
571.92	53462.52
572.09	53563.16
572.25	53317.40
572.41	53415.71
572.57	53371.24
572.74	53415.71
572.90	52952.28
573.06	52828.23
573.22	53198.04
573.38	52823.55
573.55	52961.64
573.71	52837.59
573.87	52973.34
574.03	52774.40
574.20	52809.51
574.36	52360.12
574.52	52423.32
574.68	52198.63
574.84	51498.81
575.01	51271.78
575.17	51070.49
575.33	51667.33
575.49	52009.04
575.65	52306.29
575.82	51334.97
575.98	51121.98
576.14	51576.04
576.30	51805.42
576.46	52257.14
576.62	52107.35
576.79	51992.66
576.95	51440.29
577.11	51224.96
577.27	52037.13
577.43	51557.32
577.59	51379.44
577.75	51028.36
577.92	50106.19
578.08	49691.91
578.24	50099.17
578.40	50143.64
578.56	50710.05
578.72	50838.78
578.88	51014.32
579.04	51093.89
579.21	51049.42
579.37	51105.60
579.53	51243.69
579.69	51131.34
579.85	51332.63
580.01	51192.20
580.17	50461.95
580.33	50843.46
580.49	50255.98
580.65	50916.01
580.82	51405.19
580.98	51260.07
581.14	50997.93
581.30	51103.26
581.46	50770.90
581.62	51100.92
581.78	50958.14
581.94	51203.90
582.10	51150.07
582.26	51377.10
582.42	51487.10
582.58	51213.26
582.74	51054.11
582.90	51470.72
583.06	50913.67
583.22	51049.42
583.38	50852.82
583.54	50885.59
583.70	50864.52
583.86	50934.74
584.02	50859.84
584.18	50798.99
584.34	50548.55
584.50	50693.66
584.66	50459.61
584.82	49642.76
584.98	50321.52
585.14	49382.96
585.30	48975.71
