SpectraSuite Data File
++++++++++++++++++++++++++++++++++++
Date: Mon Oct 07 14:53:29 GMT-05:00 2013
User: price-jones
Dark Spectrum Present: No
Reference Spectrum Present: No
Number of Sampled Component Spectra: 1
Spectrometers: USB2+H05261
Integration Time (usec): 100000 (USB2+H05261)
Spectra Averaged: 1 (USB2+H05261)
Boxcar Smoothing: 0 (USB2+H05261)
Correct for Electrical Dark: No (USB2+H05261)
Strobe/Lamp Enabled: No (USB2+H05261)
Correct for Detector Non-linearity: No (USB2+H05261)
Correct for Stray Light: No (USB2+H05261)
Number of Pixels in Processed Spectrum: 2048
>>>>>Begin Processed Spectral Data<<<<<
365.73	0.00
365.92	0.00
366.12	0.00
366.32	0.00
366.52	0.00
366.72	0.00
366.91	0.00
367.11	0.00
367.31	0.00
367.51	0.00
367.70	0.00
367.90	0.00
368.10	0.00
368.30	0.00
368.49	0.00
368.69	0.00
368.89	0.00
369.09	0.00
369.28	0.00
369.48	0.00
369.68	0.00
369.87	0.00
370.07	0.00
370.27	0.00
370.47	634.29
370.66	3157.38
370.86	3669.96
371.06	3976.57
371.25	4107.64
371.45	3857.20
371.65	3375.05
371.84	3112.91
372.04	3215.90
372.24	3747.20
372.44	3913.38
372.63	3779.97
372.83	3400.80
373.03	3119.93
373.22	2883.54
373.42	3033.33
373.62	3480.38
373.81	3854.86
374.01	3744.86
374.21	3265.05
374.40	3206.53
374.60	3321.22
374.79	3634.85
374.99	4135.73
375.19	4552.34
375.38	4557.02
375.58	4402.55
375.78	4311.27
375.97	4390.84
376.17	4620.22
376.37	4573.41
376.56	4559.36
376.76	4851.93
376.95	5170.24
377.15	5558.77
377.35	5771.76
377.54	6052.63
377.74	6148.59
377.93	6129.86
378.13	6052.63
378.33	5764.74
378.52	5240.46
378.72	5071.94
378.91	4912.78
379.11	4975.98
379.31	4709.16
379.50	4578.09
379.70	5050.88
379.89	5476.85
380.09	5806.87
380.28	6057.31
380.48	6038.58
380.68	5905.17
380.87	5741.33
381.07	5397.28
381.26	5055.56
381.46	4739.58
381.65	4564.04
381.85	4503.19
382.04	4173.18
382.24	3946.14
382.43	3679.32
382.63	3686.34
382.83	3669.96
383.02	3817.41
383.22	3531.87
383.41	3791.67
383.61	3904.01
383.80	4353.40
384.00	5074.28
384.19	5743.67
384.39	6146.25
384.58	5916.87
384.78	6076.03
384.97	5858.36
385.17	5507.28
385.36	5387.91
385.56	5146.84
385.75	5219.39
385.95	5823.25
386.14	5991.77
386.34	6237.53
386.53	5963.68
386.72	5699.20
386.92	5675.80
387.11	5902.83
387.31	6164.97
387.50	5935.60
387.70	5809.21
387.89	5846.66
388.09	5912.19
388.28	5961.34
388.48	5905.17
388.67	6450.52
388.86	7236.94
389.06	7466.31
389.25	7981.23
389.45	8098.25
389.64	8107.62
389.84	7868.88
390.03	7761.22
390.22	7838.45
390.42	8091.23
390.61	8557.00
390.81	8992.34
391.00	9310.65
391.19	9224.05
391.39	8882.33
391.58	8411.89
391.78	7999.95
391.97	7791.64
392.16	7358.64
392.36	6544.14
392.55	5210.03
392.75	4086.58
392.94	3489.74
393.13	3318.88
393.33	4159.13
393.52	5144.50
393.71	6342.85
393.91	7152.68
394.10	7562.27
394.29	8308.90
394.49	8861.27
394.68	9734.29
394.88	9685.14
395.07	10183.67
395.26	9914.51
395.46	9799.82
395.65	9179.58
395.84	7983.57
396.04	6918.62
396.23	5664.10
396.42	4669.37
396.62	4411.91
396.81	5270.89
397.00	6743.08
397.19	8379.12
397.39	9776.42
397.58	11009.88
397.77	11597.35
397.97	12367.39
398.16	12514.84
398.35	12519.53
398.55	13118.70
398.74	13729.58
398.93	13912.14
399.12	13912.14
399.32	13139.77
399.51	13654.69
399.70	14342.80
399.90	14373.23
400.09	14265.57
400.28	13827.88
400.47	14319.40
400.67	15157.31
400.86	15468.60
401.05	15473.28
401.24	15740.10
401.44	15609.03
401.63	15779.89
401.82	15932.03
402.01	15665.21
402.21	16233.96
402.40	15917.98
402.59	15735.42
402.78	14771.12
402.97	14363.87
403.17	14965.39
403.36	16189.49
403.55	16645.89
403.74	16786.32
403.93	16049.05
404.13	14881.13
404.32	14354.51
404.51	15150.29
404.70	16453.97
404.89	16613.12
405.09	15831.38
405.28	15791.59
405.47	15576.27
405.66	15482.64
405.85	15059.01
406.05	14731.33
406.24	15073.05
406.43	15557.54
406.62	16414.18
406.81	16203.53
407.00	15641.80
407.20	15503.71
407.39	15447.54
407.58	16194.17
407.77	16872.92
407.96	17329.33
408.15	17586.79
408.34	17823.18
408.54	18480.87
408.73	18714.92
408.92	18160.22
409.11	17699.13
409.30	16861.22
409.49	16032.67
409.68	14970.07
409.87	14640.05
410.07	15325.83
410.26	16442.26
410.45	17586.79
410.64	17867.65
410.83	18417.68
411.02	19129.20
411.21	19906.26
411.40	19311.76
411.59	19660.50
411.78	19463.90
411.98	19197.07
412.17	19812.63
412.36	19190.05
412.55	19026.21
412.74	18515.98
412.93	18382.57
413.12	18420.02
413.31	20088.82
413.50	20240.95
413.69	20842.47
413.88	20137.97
414.07	19304.74
414.26	19665.18
414.45	20458.62
414.64	20540.54
414.83	20587.35
415.02	19887.53
415.22	20042.01
415.41	20776.94
415.60	20987.58
415.79	22092.32
415.98	22539.36
416.17	22490.21
416.36	22251.47
416.55	21502.50
416.74	20795.66
416.93	20255.00
417.12	20425.86
417.31	20704.38
417.50	20961.84
417.69	21472.07
417.88	21303.56
418.07	21216.96
418.26	21106.95
418.45	21350.37
418.64	22089.98
418.83	22597.87
419.02	22735.96
419.21	22375.52
419.39	21252.06
419.58	20166.06
419.77	20606.08
419.96	21322.28
420.15	22260.84
420.34	23290.67
420.53	23854.74
420.72	24400.08
420.91	24159.01
421.10	23920.28
421.29	23594.94
421.48	22948.95
421.67	23854.74
421.86	23414.72
422.05	21729.53
422.24	19475.60
422.43	19091.75
422.61	21118.65
422.80	23143.22
422.99	22913.84
423.18	22129.77
423.37	21979.97
423.56	21631.23
423.75	22134.45
423.94	22724.26
424.13	21504.84
424.32	21727.19
424.50	21956.57
424.69	21310.58
424.88	21792.73
425.07	21453.35
425.26	21502.50
425.45	21029.71
425.64	20992.26
425.83	20830.77
426.01	22249.13
426.20	22607.23
426.39	22857.67
426.58	20533.52
426.77	19468.58
426.96	18448.10
427.15	19173.67
427.33	20688.00
427.52	21907.41
427.71	21752.94
427.90	21582.08
428.09	21422.92
428.28	20985.24
428.46	20273.72
428.65	19852.42
428.84	20320.53
429.03	21282.49
429.22	19548.15
429.40	18747.69
429.59	17116.34
429.78	14963.04
429.97	14853.04
430.16	15098.80
430.34	15342.21
430.53	15094.11
430.72	15716.70
430.91	17172.51
431.10	20362.66
431.28	23662.82
431.47	25537.59
431.66	25741.21
431.85	23573.88
432.03	22125.08
432.22	21027.37
432.41	21589.10
432.60	24596.69
432.79	24776.91
432.97	25685.04
433.16	25074.16
433.35	23030.87
433.54	20489.05
433.72	19452.19
433.91	19910.94
434.10	22562.76
434.28	24144.97
434.47	24891.60
434.66	24610.73
434.85	24140.29
435.03	23765.80
435.22	24709.04
435.41	25989.31
435.59	25993.99
435.78	26419.97
435.97	27068.30
436.16	27269.58
436.34	26878.71
436.53	26441.03
436.72	26345.07
436.90	24706.70
437.09	25095.22
437.28	24418.81
437.46	25462.69
437.65	24973.52
437.84	23417.06
438.02	21706.13
438.21	21495.48
438.40	22525.32
438.58	24552.22
438.77	25212.25
438.96	25429.92
439.14	26759.34
439.33	27442.78
439.52	27410.01
439.70	27087.02
439.89	26178.89
440.08	25675.68
440.26	25387.79
440.45	26757.00
440.63	28512.41
440.82	29720.12
441.01	29242.65
441.19	29158.39
441.38	29848.85
441.57	30408.24
441.75	31175.94
441.94	31424.03
442.12	30761.66
442.31	31648.72
442.50	31281.26
442.68	31318.71
442.87	30515.90
443.05	29865.24
443.24	30850.60
443.43	30953.58
443.61	32095.77
443.80	32470.25
443.98	30195.25
444.17	30340.36
444.35	32182.37
444.54	32685.58
444.73	32514.72
444.91	31058.91
445.10	29696.72
445.28	28374.31
445.47	27711.94
445.65	28273.67
445.84	28994.56
446.02	29759.91
446.21	30604.84
446.39	30588.46
446.58	31215.72
446.77	31386.58
446.95	31784.48
447.14	32526.42
447.32	33469.66
447.51	32409.40
447.69	30850.60
447.88	30675.06
448.06	31611.28
448.25	31709.58
448.43	32563.87
448.62	31543.40
448.80	31447.44
448.99	31676.81
449.17	31562.12
449.36	31693.19
449.54	33338.59
449.73	33923.72
449.91	34279.49
450.10	35061.22
450.28	35438.05
450.46	35164.21
450.65	35386.56
450.83	34890.37
451.02	34595.46
451.20	34080.54
451.39	34223.31
451.57	33771.59
451.76	33902.66
451.94	33120.92
452.13	32788.56
452.31	31473.18
452.49	29844.17
452.68	30387.18
452.86	30501.86
453.05	30948.90
453.23	31662.77
453.42	32414.08
453.60	33134.96
453.78	33542.22
453.97	33146.67
454.15	33530.51
454.34	32767.50
454.52	33207.52
454.70	31679.15
454.89	32748.78
455.07	32503.02
455.26	33116.24
455.44	34389.49
455.62	34738.23
455.81	35150.17
455.99	34778.02
456.17	34263.10
456.36	34235.02
456.54	35632.32
456.73	35728.28
456.91	36137.87
457.09	36275.96
457.28	36971.10
457.46	35955.31
457.64	34862.28
457.83	34300.55
458.01	33696.69
458.19	34462.05
458.38	34567.37
458.56	35988.08
458.74	35545.72
458.93	34466.73
459.11	34565.03
459.29	34246.72
459.48	34911.43
459.66	34511.20
459.84	35290.60
460.03	35646.36
460.21	35395.92
460.39	35866.37
460.57	36175.32
460.76	36594.28
460.94	36528.74
461.12	36151.91
461.31	36540.44
461.49	35835.94
461.67	36088.72
461.85	37193.45
462.04	37132.60
462.22	37626.45
462.40	36926.63
462.59	36854.08
462.77	37322.18
462.95	37015.57
463.13	36603.64
463.32	36371.92
463.50	36304.05
463.68	36397.67
463.86	36025.53
464.05	35571.46
464.23	35222.72
464.41	35021.44
464.59	34469.07
464.78	35896.80
464.96	36215.11
465.14	35644.02
465.32	36353.20
465.50	37359.63
465.69	38003.28
465.87	37092.81
466.05	36149.57
466.23	34071.18
466.41	33600.73
466.60	34616.52
466.78	34398.85
466.96	35318.68
467.14	35805.52
467.32	36112.13
467.51	36421.08
467.69	34436.30
467.87	35494.22
468.05	35737.64
468.23	35772.75
468.41	35978.72
468.60	36037.23
468.78	36067.66
468.96	35665.08
469.14	37036.64
469.32	36858.76
469.50	34866.96
469.69	35274.21
469.87	35002.71
470.05	34822.49
470.23	34991.01
470.41	35101.01
470.59	35557.42
470.77	35634.66
470.95	36664.49
471.14	36861.10
471.32	36467.89
471.50	38684.37
471.68	38536.92
471.86	39274.19
472.04	39615.91
472.22	39480.16
472.40	37743.48
472.58	37139.62
472.77	36870.46
472.95	37500.06
473.13	38724.16
473.31	37659.22
473.49	37689.65
473.67	38623.52
473.85	38855.23
474.03	39765.70
474.21	39728.25
474.39	40130.83
474.57	40149.55
474.75	40552.12
474.93	39974.01
475.12	39433.35
475.30	39210.99
475.48	39473.13
475.66	40226.79
475.84	39669.74
476.02	39227.38
476.20	38401.17
476.38	39379.51
476.56	40451.48
476.74	41193.43
476.92	40893.84
477.10	42139.00
477.28	42745.20
477.46	43276.51
477.64	43461.41
477.82	42869.25
478.00	43873.34
478.18	43000.32
478.36	42864.57
478.54	42747.54
478.72	42871.59
478.90	44367.20
479.08	44842.32
479.26	45787.90
479.44	45799.60
479.62	45443.84
479.80	45261.28
479.98	45638.11
480.16	45853.44
480.34	45502.35
480.52	46026.63
480.70	46094.51
480.88	46110.89
481.06	46958.17
481.24	47072.85
481.41	48224.40
481.59	48535.69
481.77	48222.06
481.95	47767.99
482.13	47613.52
482.31	47332.65
482.49	48161.20
482.67	48264.19
482.85	48193.97
483.03	48729.95
483.21	49223.81
483.39	49223.81
483.57	48491.22
483.74	48037.16
483.92	48748.68
484.10	48456.11
484.28	49628.72
484.46	50003.20
484.64	50564.93
484.82	49652.12
485.00	48872.73
485.18	48303.98
485.35	47370.10
485.53	44027.82
485.71	40402.33
485.89	39803.15
486.07	41755.16
486.25	45310.43
486.43	47372.44
486.61	48062.90
486.78	47915.45
486.96	48367.17
487.14	50211.51
487.32	50642.17
487.50	51639.24
487.68	52254.80
487.85	52722.91
488.03	52755.68
488.21	52479.49
488.39	51648.60
488.57	51175.81
488.75	50724.09
488.92	52058.20
489.10	53996.16
489.28	55089.19
489.46	55646.24
489.64	55381.76
489.81	55662.62
489.99	55327.92
490.17	55199.19
490.35	55920.08
490.53	55309.20
490.70	54962.80
490.88	54703.00
491.06	55578.36
491.24	55742.20
491.41	54714.70
491.59	53153.57
491.77	52617.58
491.95	53560.82
492.13	54829.39
492.30	55571.34
492.48	56556.70
492.66	57048.22
492.84	57027.15
493.01	56697.14
493.19	56184.56
493.37	55969.23
493.54	55711.77
493.72	56184.56
493.90	57275.25
494.08	58047.63
494.25	58033.58
494.43	58379.98
494.61	58740.42
494.79	58815.32
494.96	58569.57
495.14	58017.20
495.32	57127.80
495.49	56563.73
495.67	57361.85
495.85	58789.58
496.02	59260.02
496.20	58976.82
496.38	58585.95
496.55	58574.25
496.73	58876.18
496.91	58983.84
497.09	59489.40
497.26	59660.26
497.44	59288.11
497.62	58752.13
497.79	57932.94
497.97	56877.36
498.14	57148.86
498.32	58056.99
498.50	58906.60
498.67	59552.59
498.85	59262.36
499.03	59442.59
499.20	59803.03
499.38	59678.98
499.56	59671.96
499.73	59168.74
499.91	58822.34
500.08	58305.09
500.26	57570.16
500.44	58216.14
500.61	58571.91
500.79	58639.78
500.97	58274.66
501.14	57972.73
501.32	57876.77
501.49	57937.62
501.67	58148.27
501.84	58506.37
502.02	58820.00
502.20	59264.70
502.37	59105.55
502.55	59260.02
502.72	59894.31
502.90	60350.71
503.07	59877.93
503.25	59664.94
503.43	58927.67
503.60	58401.05
503.78	57649.74
503.95	57937.62
504.13	59276.41
504.30	60111.98
504.48	60109.64
504.65	59620.47
504.83	59529.19
505.01	60088.57
505.18	60505.19
505.36	61003.72
505.53	61038.83
505.71	61263.52
505.88	61333.74
506.06	60788.39
506.23	60463.06
506.41	60025.38
506.58	60224.32
506.76	60329.65
506.93	60041.76
507.11	59983.25
507.28	60221.98
507.46	59770.26
507.63	59135.98
507.81	59068.10
507.98	59208.53
508.16	59709.41
508.33	60456.04
508.50	60776.69
508.68	61038.83
508.85	61293.95
509.03	61216.71
509.20	61193.31
509.38	60582.43
509.55	59987.93
509.73	59955.16
509.90	60566.04
510.08	60889.04
510.25	60708.82
510.42	60385.82
510.60	60374.12
510.77	60570.72
510.95	61317.35
511.12	61172.24
511.30	61532.68
511.47	61619.28
511.64	61710.56
511.82	61282.25
511.99	60561.36
512.17	60193.90
512.34	59856.86
512.51	60048.78
512.69	60229.01
512.86	60282.84
513.04	60788.39
513.21	60940.53
513.38	60418.59
513.56	60032.40
513.73	59477.69
513.90	59622.81
514.08	59894.31
514.25	59969.21
514.43	60261.77
514.60	60217.30
514.77	60542.64
514.95	60552.00
515.12	60313.26
515.29	60608.17
515.47	60987.34
515.64	61340.76
515.81	61038.83
515.99	60254.75
516.16	59224.92
516.33	56863.32
516.51	55679.00
516.68	54848.11
516.85	54635.13
517.03	54714.70
517.20	57127.80
517.37	59489.40
517.54	60533.28
517.72	60079.21
517.89	57993.79
518.06	55650.92
518.24	56081.58
518.41	57785.49
518.58	59152.36
518.75	59409.82
518.93	59519.82
519.10	59463.65
519.27	59985.59
519.45	60030.06
519.62	60729.88
519.79	61134.79
519.96	60889.04
520.14	60381.14
520.31	59601.74
520.48	59639.19
520.65	60051.12
520.83	60896.06
521.00	61305.65
521.17	60933.51
521.34	60488.80
521.52	60734.56
521.69	61244.80
521.86	61497.58
522.03	61408.64
522.20	60371.78
522.38	59421.52
522.55	59032.99
522.72	60079.21
522.89	59955.16
523.07	60221.98
523.24	60374.12
523.41	61214.37
523.58	61530.34
523.75	62080.37
523.92	61799.50
524.10	61808.87
524.27	61719.93
524.44	61509.28
524.61	61535.02
524.78	61272.88
524.96	61235.44
525.13	61132.45
525.30	61488.21
525.47	61867.38
525.64	61736.31
525.81	61127.77
525.98	59936.44
526.16	58459.56
526.33	57844.00
526.50	57565.48
526.67	57366.53
526.84	57958.69
527.01	58834.05
527.18	59559.61
527.36	60402.21
527.53	60905.42
527.70	61331.40
527.87	60870.31
528.04	60369.44
528.21	60755.63
528.38	61420.34
528.55	61928.23
528.72	62274.63
528.89	62330.81
529.07	62159.95
529.24	61520.98
529.41	60767.33
529.58	60163.47
529.75	60533.28
529.92	60994.36
530.09	61350.12
530.26	61705.88
530.43	62080.37
530.60	62124.84
530.77	62349.53
530.94	62302.72
531.11	61900.15
531.28	61588.86
531.46	61268.20
531.63	61588.86
531.80	61279.91
531.97	60949.89
532.14	60364.76
532.31	59487.06
532.48	58824.68
532.65	58894.90
532.82	59618.13
532.99	60617.53
533.16	61043.51
533.33	61616.94
533.50	61284.59
533.67	60594.13
533.84	60343.69
534.01	60580.09
534.18	60748.60
534.35	60914.78
534.52	60652.64
534.69	61029.47
534.86	61083.30
535.03	61647.37
535.20	61907.17
535.37	62204.42
535.54	62298.04
535.71	61930.58
535.88	61771.42
536.05	61024.79
536.22	60741.58
536.38	60266.45
536.55	60219.64
536.72	59718.77
536.89	59585.36
537.06	60425.61
537.23	61085.64
537.40	61286.93
537.57	61279.91
537.74	60994.36
537.91	60987.34
538.08	60889.04
538.25	61073.94
538.42	61195.65
538.59	60973.30
538.75	60430.29
538.92	60221.98
539.09	59980.91
539.26	59803.03
539.43	59786.64
539.60	59634.51
539.77	60013.68
539.94	60009.00
540.11	59089.16
540.28	58499.35
540.44	58829.37
540.61	59178.10
540.78	59061.08
540.95	59728.13
541.12	59906.01
541.29	60090.91
541.46	60626.90
541.62	60502.85
541.79	60530.93
541.96	59732.81
542.13	59578.34
542.30	60065.17
542.47	60233.69
542.63	60133.04
542.80	59922.40
542.97	60081.55
543.14	59791.33
543.31	59746.86
543.48	60233.69
543.64	61134.79
543.81	61415.66
543.98	60992.02
544.15	60673.71
544.32	59908.35
544.48	60032.40
544.65	60423.27
544.82	60680.73
544.99	60608.17
545.16	60224.32
545.32	59826.43
545.49	60678.39
545.66	60858.61
545.83	60645.62
546.00	60388.16
546.16	59866.22
546.33	59987.93
546.50	60210.28
546.67	60636.26
546.83	60343.69
547.00	60090.91
547.17	59468.33
547.34	58979.16
547.50	59049.38
547.67	59440.24
547.84	59430.88
548.00	59980.91
548.17	60184.54
548.34	60179.85
548.51	60006.65
548.67	60278.16
548.84	60320.29
549.01	60336.67
549.18	59980.91
549.34	60011.34
549.51	59985.59
549.68	60009.00
549.84	59608.76
550.01	59796.01
550.18	59447.27
550.34	59620.47
550.51	59636.85
550.68	59845.16
550.84	59370.03
551.01	59295.13
551.18	59379.39
551.34	59667.28
551.51	60126.02
551.68	60137.72
551.84	60130.70
552.01	60048.78
552.18	59887.29
552.34	59105.55
552.51	58742.77
552.68	58859.79
552.84	59093.85
553.01	59409.82
553.18	59253.00
553.34	59442.59
553.51	59470.67
553.67	59817.07
553.84	60095.60
554.01	59648.55
554.17	59646.21
554.34	59599.40
554.51	59810.05
554.67	59943.46
554.84	59966.87
555.00	59597.06
555.17	59365.35
555.33	59355.99
555.50	59297.47
555.67	59384.07
555.83	59182.79
556.00	58848.09
556.16	58831.71
556.33	58583.61
556.50	58396.37
556.66	58513.39
556.83	58319.13
556.99	58150.61
557.16	58471.26
557.32	58609.35
557.49	58885.54
557.65	58787.24
557.82	58803.62
557.98	58651.48
558.15	58202.10
558.32	57331.42
558.48	56821.19
558.65	56980.34
558.81	57319.72
558.98	57726.97
559.14	57822.93
559.31	57841.66
559.47	57996.13
559.64	57668.46
559.80	57155.88
559.97	57518.67
560.13	57492.92
560.30	58319.13
560.46	58972.14
560.63	59049.38
560.79	59091.51
560.96	58810.64
561.12	57986.77
561.29	56853.95
561.45	56973.32
561.61	57633.35
561.78	58192.74
561.94	57820.59
562.11	57614.63
562.27	57600.58
562.44	57832.30
562.60	58188.06
562.77	58447.86
562.93	58347.21
563.10	58255.93
563.26	57469.51
563.42	57893.15
563.59	57371.21
563.75	57649.74
563.92	57535.05
564.08	57570.16
564.24	57757.40
564.41	57900.17
564.57	57668.46
564.74	57659.10
564.90	57645.05
565.07	57209.71
565.23	56992.04
565.39	56732.25
565.56	56477.13
565.72	56093.28
565.88	56317.97
566.05	56591.81
566.21	56786.08
566.38	56706.50
566.54	56999.07
566.70	57331.42
566.87	57380.57
567.03	57481.22
567.19	57661.44
567.36	57516.32
567.52	57448.45
567.68	57286.95
567.85	56360.10
568.01	56243.07
568.17	55917.74
568.34	55976.25
568.50	55569.00
568.66	55735.18
568.83	56320.31
568.99	56191.58
569.15	56507.55
569.32	56376.48
569.48	56278.18
569.64	56147.11
569.81	55842.84
569.97	55908.38
570.13	55669.64
570.30	55107.91
570.46	54995.57
570.62	54478.31
570.78	54003.18
570.95	54518.10
571.11	55061.10
571.27	55166.43
571.43	55526.87
571.60	55891.99
571.76	55798.37
571.92	56336.69
572.09	56678.41
572.25	56371.80
572.41	56278.18
572.57	56039.45
572.74	56170.52
572.90	55606.45
573.06	56009.02
573.22	55812.41
573.38	55922.42
573.55	56034.77
573.71	56123.71
573.87	55627.51
574.03	55735.18
574.20	55458.99
574.36	55466.02
574.52	55290.48
574.68	55143.02
574.84	54815.35
575.01	54298.09
575.17	54213.83
575.33	54302.77
575.49	54941.74
575.65	55023.65
575.82	54630.44
575.98	54380.01
576.14	54679.60
576.30	54937.05
576.46	55164.09
576.62	54983.86
576.79	55121.96
576.95	54782.58
577.11	54887.90
577.27	54714.70
577.43	54543.84
577.59	54384.69
577.75	54380.01
577.92	53408.68
578.08	53193.36
578.24	53167.61
578.40	53565.50
578.56	53949.35
578.72	53818.28
578.88	54223.19
579.04	54141.27
579.21	54447.88
579.37	54490.01
579.53	54717.04
579.69	54209.15
579.85	54588.31
580.01	54616.40
580.17	54024.25
580.33	53642.74
580.49	53820.62
580.65	54440.86
580.82	54365.96
580.98	54251.28
581.14	54225.53
581.30	54309.79
581.46	54073.40
581.62	54288.73
581.78	54534.48
581.94	54672.57
582.10	54578.95
582.26	54499.37
582.42	54642.15
582.58	54719.38
582.74	54511.08
582.90	54564.91
583.06	54335.54
583.22	54513.42
583.38	54272.34
583.54	54284.04
583.70	54085.10
583.86	54328.52
584.02	54169.36
584.18	54061.69
584.34	54155.32
584.50	53970.41
584.66	53895.52
584.82	53495.28
584.98	53429.75
585.14	52851.64
