SpectraSuite Data File
++++++++++++++++++++++++++++++++++++
Date: Mon Oct 07 14:53:23 GMT-05:00 2013
User: price-jones
Dark Spectrum Present: No
Reference Spectrum Present: No
Number of Sampled Component Spectra: 1
Spectrometers: USB2+H05261
Integration Time (usec): 100000 (USB2+H05261)
Spectra Averaged: 1 (USB2+H05261)
Boxcar Smoothing: 0 (USB2+H05261)
Correct for Electrical Dark: No (USB2+H05261)
Strobe/Lamp Enabled: No (USB2+H05261)
Correct for Detector Non-linearity: No (USB2+H05261)
Correct for Stray Light: No (USB2+H05261)
Number of Pixels in Processed Spectrum: 2048
>>>>>Begin Processed Spectral Data<<<<<
365.73	0.00
365.92	0.00
366.12	0.00
366.32	0.00
366.52	0.00
366.72	0.00
366.91	0.00
367.11	0.00
367.31	0.00
367.51	0.00
367.70	0.00
367.90	0.00
368.10	0.00
368.30	0.00
368.49	0.00
368.69	0.00
368.89	0.00
369.09	0.00
369.28	0.00
369.48	0.00
369.68	0.00
369.87	0.00
370.07	0.00
370.27	0.00
370.47	514.92
370.66	3002.91
370.86	3407.82
371.06	3616.13
371.25	3681.66
371.45	3468.67
371.65	2960.78
371.84	2878.86
372.04	3061.42
372.24	3384.41
372.44	3569.32
372.63	3574.00
372.83	3222.92
373.03	2993.55
373.22	2647.15
373.42	2743.11
373.62	3169.09
373.81	3536.55
374.01	3522.51
374.21	3075.46
374.40	2874.18
374.60	3082.49
374.79	3400.80
374.99	4039.76
375.19	4374.46
375.38	4318.29
375.58	3960.19
375.78	3892.31
375.97	4168.49
376.17	4049.13
376.37	4170.83
376.56	4304.25
376.76	4585.11
376.95	4800.44
377.15	5172.58
377.35	5338.76
377.54	5523.66
377.74	5699.20
377.93	5748.36
378.13	5486.22
378.33	5247.48
378.52	4800.44
378.72	4685.75
378.91	4423.61
379.11	4437.66
379.31	4344.03
379.50	4259.78
379.70	4767.67
379.89	5313.02
380.09	5408.98
380.28	5680.48
380.48	5605.58
380.68	5479.19
380.87	5362.17
381.07	4947.89
381.26	4423.61
381.46	4166.15
381.65	4095.94
381.85	4035.08
382.04	3829.12
382.24	3473.36
382.43	3400.80
382.63	3297.81
382.83	3370.37
383.02	3421.86
383.22	3396.12
383.41	3445.27
383.61	3686.34
383.80	4241.05
384.00	4601.49
384.19	5359.83
384.39	5593.88
384.58	5554.09
384.78	5336.42
384.97	5303.65
385.17	5151.52
385.36	5022.79
385.56	4664.69
385.75	5001.72
385.95	5111.73
386.14	5675.80
386.34	5900.49
386.53	5518.98
386.72	5109.39
386.92	5200.67
387.11	5628.99
387.31	5673.46
387.50	5455.79
387.70	5404.30
387.89	5432.38
388.09	5448.77
388.28	5486.22
388.48	5465.15
388.67	5968.37
388.86	6565.20
389.06	7000.54
389.25	7372.69
389.45	7396.09
389.64	7253.32
389.84	7220.55
390.03	7197.15
390.22	7138.63
390.42	7396.09
390.61	7981.23
390.81	8575.72
391.00	8870.63
391.19	8531.25
391.39	8198.90
391.58	7719.09
391.78	7309.49
391.97	7068.42
392.16	6607.33
392.36	6164.97
392.55	4830.87
392.75	3817.41
392.94	3157.38
393.13	3122.27
393.33	3599.74
393.52	4643.62
393.71	5762.40
393.91	6513.71
394.10	7045.01
394.29	7803.35
394.49	8245.71
394.68	9036.81
394.88	9144.47
395.07	9397.25
395.26	9245.12
395.46	9114.05
395.65	8634.24
395.84	7466.31
396.04	6282.00
396.23	4983.00
396.42	4451.70
396.62	4030.40
396.81	4856.61
397.00	6202.42
397.19	7719.09
397.39	9135.11
397.58	10293.68
397.77	10855.40
397.97	11447.56
398.16	11536.50
398.35	11735.45
398.55	12231.64
398.74	12690.38
398.93	13071.89
399.12	12650.60
399.32	12400.16
399.51	12568.68
399.70	13209.98
399.90	13121.04
400.09	13425.31
400.28	13259.13
400.47	13345.73
400.67	14045.55
400.86	14396.64
401.05	14155.56
401.24	14497.28
401.44	14682.18
401.63	14534.73
401.82	14633.03
402.01	14630.69
402.21	14930.28
402.40	14750.06
402.59	14747.72
402.78	14078.32
402.97	13261.48
403.17	14008.11
403.36	14871.76
403.55	15330.51
403.74	15620.74
403.93	14700.90
404.13	13507.23
404.32	13462.76
404.51	13872.36
404.70	14972.41
404.89	15147.95
405.09	14761.76
405.28	14480.89
405.47	14202.37
405.66	14736.01
405.85	14298.33
406.05	13652.34
406.24	13748.31
406.43	14375.57
406.62	15087.09
406.81	14988.79
407.00	14153.22
407.20	14132.15
407.39	14200.03
407.58	15009.86
407.77	15754.15
407.96	16027.99
408.15	16222.25
408.34	16430.56
408.54	17097.61
408.73	17212.30
408.92	16886.97
409.11	16475.03
409.30	15721.38
409.49	14808.57
409.68	13954.27
409.87	13319.99
410.07	14174.28
410.26	15201.78
410.45	16266.72
410.64	16793.34
410.83	17530.61
411.02	17589.13
411.21	18239.79
411.40	17748.28
411.59	18125.11
411.78	18218.73
411.98	17743.60
412.17	18317.03
412.36	18085.32
412.55	17633.60
412.74	17528.27
412.93	16931.44
413.12	17106.98
413.31	18520.66
413.50	18785.14
413.69	19473.26
413.88	18602.58
414.07	17912.12
414.26	18487.89
414.45	18855.36
414.64	18998.13
414.83	18904.51
415.02	18733.65
415.22	18780.46
415.41	19297.72
415.60	19604.33
415.79	20629.48
415.98	21020.35
416.17	21118.65
416.36	20238.61
416.55	20119.24
416.74	19466.24
416.93	19075.37
417.12	18539.38
417.31	18965.36
417.50	19461.55
417.69	19955.41
417.88	19929.66
418.07	19822.00
418.26	19749.44
418.45	19721.35
418.64	20486.71
418.83	21102.27
419.02	20830.77
419.21	20751.19
419.39	19604.33
419.58	18719.60
419.77	18778.12
419.96	19697.95
420.15	20556.93
420.34	21556.33
420.53	22178.92
420.72	22342.75
420.91	22265.52
421.10	21963.59
421.29	21717.83
421.48	20814.38
421.67	22197.64
421.86	21678.04
422.05	19913.28
422.24	17923.82
422.43	17767.01
422.61	19852.42
422.80	21514.20
422.99	21387.82
423.18	20695.02
423.37	20091.16
423.56	20444.58
423.75	20723.10
423.94	21090.57
424.13	20095.84
424.32	20187.12
424.50	20144.99
424.69	19800.93
424.88	20107.54
425.07	20318.19
425.26	19852.42
425.45	19641.78
425.64	19255.59
425.83	19353.89
426.01	20318.19
426.20	21132.70
426.39	20716.08
426.58	19293.04
426.77	17809.14
426.96	17165.49
427.15	18092.34
427.33	19311.76
427.52	20135.63
427.71	20191.80
427.90	19983.49
428.09	19814.98
428.28	19344.53
428.46	18771.10
428.65	18623.64
428.84	18789.82
429.03	19393.68
429.22	18061.91
429.40	17343.37
429.59	15679.25
429.78	13879.38
429.97	14047.90
430.16	14197.69
430.34	14052.58
430.53	14155.56
430.72	14349.82
430.91	15859.47
431.10	18663.43
431.28	22005.72
431.47	23669.84
431.66	24306.46
431.85	22155.51
432.03	19840.72
432.22	19108.13
432.41	20013.92
432.60	22192.96
432.79	23164.28
432.97	23679.20
433.16	23185.35
433.35	21455.69
433.54	19295.38
433.72	17972.97
433.91	18848.33
434.10	20306.49
434.28	22295.94
434.47	23473.23
434.66	22965.34
434.85	22223.39
435.03	22469.14
435.22	22785.12
435.41	24196.46
435.59	24144.97
435.78	24336.89
435.97	25048.41
436.16	25348.00
436.34	24992.24
436.53	24430.51
436.72	24746.48
436.90	23068.32
437.09	22939.59
437.28	22553.40
437.46	23477.91
437.65	22953.63
437.84	21975.29
438.02	19758.80
438.21	20009.24
438.40	20959.50
438.58	22827.24
438.77	23288.33
438.96	23276.63
439.14	24552.22
439.33	24709.04
439.52	25680.36
439.70	25450.99
439.89	24458.60
440.08	23814.95
440.26	23843.04
440.45	24603.71
440.63	25930.80
440.82	27583.21
441.01	27019.14
441.19	26855.31
441.38	27182.98
441.57	28364.95
441.75	28645.82
441.94	28957.11
442.12	28360.27
442.31	29177.12
442.50	29514.16
442.68	28952.43
442.87	28526.45
443.05	27559.81
443.24	28299.42
443.43	28645.82
443.61	29528.20
443.80	29914.39
443.98	28381.34
444.17	28294.74
444.35	30108.65
444.54	30452.71
444.73	30085.25
444.91	28701.99
445.10	27672.15
445.28	26546.36
445.47	26113.36
445.65	26452.73
445.84	27014.46
446.02	28077.07
446.21	28123.88
446.39	28631.77
446.58	28554.54
446.77	29315.21
446.95	29256.70
447.14	30431.65
447.32	31117.42
447.51	30052.48
447.69	28999.24
447.88	28896.25
448.06	29436.92
448.25	29729.48
448.43	29965.88
448.62	29460.32
448.80	29312.87
448.99	29584.37
449.17	29605.44
449.36	29907.37
449.54	30492.50
449.73	31124.44
449.91	31477.86
450.10	32776.86
450.28	32842.40
450.46	32610.68
450.65	32872.82
450.83	32598.98
451.02	31765.75
451.20	31770.43
451.39	31360.84
451.57	31220.41
451.76	31206.36
451.94	30848.26
452.13	30871.67
452.31	29408.83
452.49	27896.85
452.68	28247.93
452.86	28587.30
453.05	28622.41
453.23	29413.51
453.42	30349.73
453.60	31028.48
453.78	31014.44
453.97	31271.90
454.15	30649.32
454.34	29862.90
454.52	30476.12
454.70	29888.64
454.89	30345.05
455.07	30059.50
455.26	30691.44
455.44	31555.10
455.62	32098.11
455.81	32376.63
455.99	32346.20
456.17	31534.04
456.36	31948.31
456.54	32917.29
456.73	33083.47
456.91	33546.90
457.09	33404.13
457.28	34272.46
457.46	32837.72
457.64	32418.76
457.83	31337.43
458.01	31096.36
458.19	31798.52
458.38	32079.38
458.56	33383.06
458.74	33123.26
458.93	32470.25
459.11	32236.20
459.29	32144.92
459.48	31875.76
459.66	32142.58
459.84	32697.28
460.03	32795.59
460.21	32748.78
460.39	33443.91
460.57	33876.91
460.76	34185.86
460.94	34237.36
461.12	33530.51
461.31	33867.55
461.49	33773.93
461.67	33013.26
461.85	34710.14
462.04	34199.91
462.22	34946.54
462.40	34359.06
462.59	34291.19
462.77	34258.42
462.95	34930.16
463.13	33783.29
463.32	33975.22
463.50	33759.89
463.68	33401.79
463.86	33432.21
464.05	33411.15
464.23	32664.52
464.41	32308.76
464.59	32009.17
464.78	33167.73
464.96	33130.28
465.14	32765.16
465.32	33820.74
465.50	34728.87
465.69	34998.03
465.87	33979.90
466.05	33736.48
466.23	31913.20
466.41	31164.23
466.60	32086.40
466.78	31915.54
466.96	32458.55
467.14	33273.06
467.32	34094.58
467.51	33270.72
467.69	32266.63
467.87	33132.62
468.05	33425.19
468.23	33582.01
468.41	33560.94
468.60	33706.05
468.78	33919.04
468.96	33317.53
469.14	33731.80
469.32	34274.80
469.50	32893.89
469.69	32804.95
469.87	32591.96
470.05	31967.04
470.23	32170.66
470.41	32868.14
470.59	33024.96
470.77	32921.98
470.95	33469.66
471.14	34099.26
471.32	34342.68
471.50	35936.59
471.68	36430.44
471.86	36182.34
472.04	36886.84
472.22	36776.84
472.40	34941.86
472.58	34632.91
472.77	34052.45
472.95	34871.64
473.13	35718.92
473.31	34827.17
473.49	35325.71
473.67	35590.19
473.85	35894.46
474.03	36788.54
474.21	37172.39
474.39	37088.13
474.57	37518.79
474.75	37549.21
474.93	37027.28
475.12	36240.86
475.30	36343.84
475.48	36177.66
475.66	37095.15
475.84	36201.07
476.02	35976.37
476.20	35971.69
476.38	36428.10
476.56	38061.79
476.74	38298.19
476.92	38199.88
477.10	39056.52
477.28	40086.36
477.46	40018.48
477.64	40093.38
477.82	40278.28
478.00	40582.55
478.18	40004.44
478.36	40044.23
478.54	40144.87
478.72	40507.65
478.90	41050.66
479.08	41841.76
479.26	42691.37
479.44	42431.57
479.62	42068.79
479.80	42504.13
479.98	42796.70
480.16	43035.43
480.34	42546.26
480.52	42780.31
480.70	42698.39
480.88	43079.90
481.06	43613.54
481.24	43819.51
481.41	45214.47
481.59	45745.77
481.77	45317.45
481.95	44760.40
482.13	44327.41
482.31	44608.27
482.49	45265.96
482.67	45148.93
482.85	45743.43
483.03	46160.05
483.21	46419.84
483.39	46422.19
483.57	45249.58
483.74	45415.76
483.92	45982.16
484.10	45825.35
484.28	46876.25
484.46	47409.89
484.64	47503.51
484.82	46454.95
485.00	46246.65
485.18	45265.96
485.35	44189.31
485.53	41223.86
485.71	37207.50
485.89	36783.86
486.07	38522.88
486.25	42293.48
486.43	44570.82
486.61	45539.80
486.78	45050.63
486.96	45504.70
487.14	46740.50
487.32	47807.78
487.50	48580.16
487.68	49586.59
487.85	50595.36
488.03	50010.23
488.21	49771.49
488.39	48954.64
488.57	48505.26
488.75	47791.40
488.92	49193.38
489.10	51339.65
489.28	52809.51
489.46	53350.17
489.64	53041.22
489.81	53155.91
489.99	52945.26
490.17	53017.82
490.35	53499.97
490.53	52942.92
490.70	52758.02
490.88	52561.41
491.06	53511.67
491.24	53289.32
491.41	52341.40
491.59	50932.40
491.77	50024.27
491.95	51138.36
492.13	52343.74
492.30	53567.84
492.48	54365.96
492.66	55143.02
492.84	54908.97
493.01	54658.53
493.19	54190.42
493.37	53708.27
493.54	53663.80
493.72	54089.78
493.90	55229.62
494.08	55826.46
494.25	56034.77
494.43	56488.83
494.61	56596.49
494.79	56786.08
494.96	56591.81
495.14	56154.13
495.32	54852.80
495.49	54300.43
495.67	55545.59
495.85	56804.80
496.02	57120.77
496.20	57097.37
496.38	56575.43
496.55	56236.05
496.73	56966.30
496.91	57038.86
497.09	57476.54
497.26	57659.10
497.44	57319.72
497.62	57064.60
497.79	56081.58
497.97	54747.47
498.14	54990.89
498.32	56093.28
498.50	56891.40
498.67	57638.03
498.85	57176.95
499.03	57235.46
499.20	57621.65
499.38	57797.19
499.56	57469.51
499.73	57109.07
499.91	56931.19
500.08	56287.54
500.26	55388.78
500.44	56133.07
500.61	56690.12
500.79	56708.84
500.97	56182.22
501.14	55962.21
501.32	55807.73
501.49	56170.52
501.67	56165.84
501.84	56722.88
502.02	56860.97
502.20	57205.03
502.37	57535.05
502.55	57481.22
502.72	58127.20
502.90	58178.70
503.07	57925.92
503.25	57675.48
503.43	56811.82
503.60	56161.15
503.78	55566.66
503.95	55800.71
504.13	57350.15
504.30	58183.38
504.48	57965.71
504.65	57450.79
504.83	57656.76
505.01	58288.70
505.18	58529.78
505.36	59110.23
505.53	59330.24
505.71	59508.12
505.88	59419.18
506.06	58735.74
506.23	58623.40
506.41	58092.10
506.58	58590.63
506.76	58328.49
506.93	58094.44
507.11	58225.51
507.28	58302.74
507.46	57886.13
507.63	57427.38
507.81	57048.22
507.98	57352.49
508.16	57909.53
508.33	58473.60
508.50	58784.90
508.68	59110.23
508.85	59604.08
509.03	59426.20
509.20	59384.07
509.38	58702.98
509.55	57963.37
509.73	58113.16
509.90	58536.80
510.08	58782.55
510.25	58651.48
510.42	58777.87
510.60	58475.94
510.77	58805.96
510.95	59437.90
511.12	59498.76
511.30	59688.34
511.47	60027.72
511.64	59891.97
511.82	59538.55
511.99	58738.08
512.17	58342.53
512.34	57993.79
512.51	58401.05
512.69	58251.25
512.86	58497.01
513.04	58988.52
513.21	58869.15
513.38	58639.78
513.56	57979.75
513.73	57403.98
513.90	57741.02
514.08	57869.75
514.25	58113.16
514.43	58195.08
514.60	58389.34
514.77	58646.80
514.95	58518.07
515.12	58592.97
515.29	58607.01
515.47	59269.39
515.64	59435.56
515.81	59009.59
515.99	58602.33
516.16	57073.96
516.33	54876.20
516.51	53532.73
516.68	52514.60
516.85	52271.18
517.03	52505.24
517.20	55348.99
517.37	57628.67
517.54	58614.04
517.72	58106.14
517.89	55819.44
518.06	53638.06
518.24	53858.07
518.41	56067.53
518.58	57305.68
518.75	57345.47
518.93	57609.95
519.10	57476.54
519.27	57865.06
519.45	58440.84
519.62	58843.41
519.79	59210.87
519.96	58946.39
520.14	58539.14
520.31	57701.23
520.48	57595.90
520.65	58021.88
520.83	59009.59
521.00	59391.09
521.17	59105.55
521.34	58616.38
521.52	58944.05
521.69	59458.97
521.86	59873.24
522.03	59353.65
522.20	58183.38
522.38	57338.44
522.55	57521.01
522.72	57897.83
522.89	58225.51
523.07	58316.79
523.24	58571.91
523.41	59480.03
523.58	59704.73
523.75	60189.22
523.92	60030.06
524.10	60039.42
524.27	60016.02
524.44	59767.92
524.61	59496.42
524.78	59531.53
524.96	59391.09
525.13	59332.58
525.30	59662.60
525.47	60060.49
525.64	59842.82
525.81	59330.24
525.98	57684.84
526.16	56498.19
526.33	55812.41
526.50	55557.30
526.67	55339.63
526.84	55845.18
527.01	56779.06
527.18	57549.09
527.36	58581.27
527.53	59250.66
527.70	59587.70
527.87	59103.21
528.04	58482.97
528.21	58890.22
528.38	59456.63
528.55	60175.17
528.72	60470.08
528.89	60687.75
529.07	60289.86
529.24	59681.32
529.41	58901.92
529.58	58569.57
529.75	58698.30
529.92	58983.84
530.09	59334.92
530.26	59765.58
530.43	60355.39
530.60	60151.77
530.77	60374.12
530.94	60413.91
531.11	59980.91
531.28	59702.38
531.46	59461.31
531.63	59622.81
531.80	59299.81
531.97	59271.73
532.14	58274.66
532.31	57392.28
532.48	56647.99
532.65	56750.97
532.82	57682.50
532.99	58656.17
533.16	59236.62
533.33	59498.76
533.50	59550.25
533.67	58852.77
533.84	58518.07
534.01	58607.01
534.18	58789.58
534.35	58880.86
534.52	58908.94
534.69	59210.87
534.86	59531.53
535.03	59707.07
535.20	60013.68
535.37	60411.57
535.54	60540.30
535.71	60009.00
535.88	59807.71
536.05	59353.65
536.22	58688.93
536.38	58525.10
536.55	58052.31
536.72	57509.30
536.89	57609.95
537.06	58326.15
537.23	59093.85
537.40	59510.46
537.57	59203.85
537.74	59138.32
537.91	58974.48
538.08	59025.97
538.25	59061.08
538.42	59253.00
538.59	59269.39
538.75	58473.60
538.92	58176.36
539.09	58054.65
539.26	57977.41
539.43	57668.46
539.60	57708.25
539.77	58092.10
539.94	57907.19
540.11	57176.95
540.28	56643.30
540.44	56917.15
540.61	57130.14
540.78	57024.81
540.95	57654.42
541.12	58064.01
541.29	58218.49
541.46	58508.71
541.62	58646.80
541.79	58642.12
541.96	57839.32
542.13	57918.90
542.30	58183.38
542.47	58445.52
542.63	58068.69
542.80	58155.29
542.97	58080.39
543.14	58040.60
543.31	57853.36
543.48	58405.73
543.64	59220.23
543.81	59386.41
543.98	59199.17
544.15	58473.60
544.32	58141.25
544.48	58213.80
544.65	58752.13
544.82	59093.85
544.99	58710.00
545.16	58075.71
545.32	57932.94
545.49	58824.68
545.66	59037.67
545.83	58738.08
546.00	58351.90
546.16	58087.42
546.33	58045.29
546.50	58358.92
546.67	58550.84
546.83	58145.93
547.00	58185.72
547.17	57600.58
547.34	56928.85
547.50	56905.44
547.67	57528.03
547.84	57336.10
548.00	57766.76
548.17	58436.16
548.34	58330.83
548.51	58035.92
548.67	58166.99
548.84	58253.59
549.01	58337.85
549.18	58099.12
549.34	58010.18
549.51	57956.35
549.68	57961.03
549.84	57911.88
550.01	57586.54
550.18	57523.35
550.34	57469.51
550.51	57598.24
550.68	57921.24
550.84	57544.41
551.01	57518.67
551.18	57485.90
551.34	57572.50
551.51	57935.28
551.68	58204.44
551.84	58171.67
552.01	57993.79
552.18	57883.79
552.34	57022.47
552.51	56818.84
552.68	56786.08
552.84	57059.92
553.01	57467.17
553.18	57439.09
553.34	57626.33
553.51	57638.03
553.67	57741.02
553.84	57663.78
554.01	57853.36
554.17	57319.72
554.34	57717.61
554.51	57916.56
554.67	58150.61
554.84	58078.05
555.00	57773.78
555.17	57525.69
555.33	57389.94
555.50	57282.27
555.67	57485.90
555.83	57308.02
556.00	56725.22
556.16	56956.94
556.33	56420.95
556.50	56287.54
556.66	56488.83
556.83	55976.25
556.99	56296.91
557.16	56250.09
557.32	56692.46
557.49	57078.64
557.65	56879.70
557.82	56617.56
557.98	56858.63
558.15	56236.05
558.32	55405.16
558.48	54607.04
558.65	54663.21
558.81	55189.83
558.98	55264.73
559.14	55870.93
559.31	55814.76
559.47	55826.46
559.64	55416.86
559.80	55161.75
559.97	55217.92
560.13	55718.79
560.30	56633.94
560.46	56910.13
560.63	57041.20
560.79	57347.81
560.96	56706.50
561.12	55547.93
561.29	55070.46
561.45	54831.73
561.61	55573.68
561.78	55763.26
561.94	55714.11
562.11	55552.62
562.27	55686.03
562.44	55739.86
562.60	56224.35
562.77	56257.12
562.93	56116.68
563.10	56144.77
563.26	55592.40
563.42	55643.90
563.59	55545.59
563.75	55363.03
563.92	55536.23
564.08	55571.34
564.24	55824.12
564.41	55714.11
564.57	55718.79
564.74	55356.01
564.90	55632.19
565.07	55175.79
565.23	54831.73
565.39	54237.23
565.56	53949.35
565.72	53851.05
565.88	54096.80
566.05	54349.58
566.21	54621.08
566.38	54740.45
566.54	54869.18
566.70	55243.66
566.87	55405.16
567.03	55491.76
567.19	55402.82
567.36	55529.21
567.52	55224.94
567.68	54990.89
567.85	54422.14
568.01	54038.29
568.17	53598.27
568.34	53762.11
568.50	53427.41
568.66	53546.78
568.83	53844.02
568.99	53977.43
569.15	54525.12
569.32	54220.85
569.48	53942.33
569.64	53752.74
569.81	53626.35
569.97	53614.65
570.13	53338.47
570.30	52690.14
570.46	52678.44
570.62	51634.56
570.78	51877.97
570.95	52039.47
571.11	52963.98
571.27	52982.71
571.43	53244.85
571.60	53518.69
571.76	53844.02
571.92	54295.75
572.09	54033.61
572.25	54213.83
572.41	54302.77
572.57	53813.60
572.74	54134.25
572.90	53652.10
573.06	53525.71
573.22	53565.50
573.38	53523.37
573.55	53521.03
573.71	53822.96
573.87	53567.84
574.03	53286.98
574.20	53432.09
574.36	53048.24
574.52	52865.68
574.68	52767.38
574.84	52378.85
575.01	51882.66
575.17	51777.33
575.33	52226.71
575.49	52535.66
575.65	52456.09
575.82	52514.60
575.98	51798.40
576.14	52343.74
576.30	52795.46
576.46	52858.66
576.62	52493.54
576.79	52875.04
576.95	52371.83
577.11	52303.95
577.27	52402.25
577.43	52369.49
577.59	52177.56
577.75	51613.49
577.92	50979.21
578.08	50798.99
578.24	50749.84
578.40	51089.21
578.56	51126.66
578.72	51288.16
578.88	51578.39
579.04	51758.61
579.21	51634.56
579.37	52016.07
579.53	51901.38
579.69	51964.57
579.85	52179.90
580.01	52081.60
580.17	51391.14
580.33	51262.41
580.49	51255.39
580.65	51695.41
580.82	51831.16
580.98	51978.62
581.14	51826.48
581.30	52126.07
581.46	51880.31
581.62	52172.88
581.78	51910.74
581.94	52114.37
582.10	52385.87
582.26	52226.71
582.42	51924.78
582.58	52119.05
582.74	51934.15
582.90	52142.45
583.06	52051.17
583.22	51903.72
583.38	51798.40
583.54	51606.47
583.70	51590.09
583.86	51679.03
584.02	51477.74
584.18	51772.65
584.34	51428.59
584.50	51129.00
584.66	51377.10
584.82	50696.00
584.98	50759.20
585.14	50356.63
585.30	49563.18
