SpectraSuite Data File
++++++++++++++++++++++++++++++++++++
Date: Mon Oct 07 14:55:01 GMT-05:00 2013
User: price-jones
Dark Spectrum Present: No
Reference Spectrum Present: No
Number of Sampled Component Spectra: 1
Spectrometers: USB2+H05261
Integration Time (usec): 10000 (USB2+H05261)
Spectra Averaged: 1 (USB2+H05261)
Boxcar Smoothing: 0 (USB2+H05261)
Correct for Electrical Dark: No (USB2+H05261)
Strobe/Lamp Enabled: No (USB2+H05261)
Correct for Detector Non-linearity: No (USB2+H05261)
Correct for Stray Light: No (USB2+H05261)
Number of Pixels in Processed Spectrum: 2048
>>>>>Begin Processed Spectral Data<<<<<
365.73	0.00
365.92	0.00
366.12	0.00
366.32	0.00
366.52	0.00
366.72	0.00
366.91	0.00
367.11	0.00
367.31	0.00
367.51	0.00
367.70	0.00
367.90	0.00
368.10	0.00
368.30	0.00
368.49	0.00
368.69	0.00
368.89	0.00
369.09	0.00
369.28	0.00
369.48	0.00
369.68	0.00
369.87	0.00
370.07	0.00
370.27	0.00
370.47	428.32
370.66	2415.43
370.86	2920.99
371.06	3218.24
371.25	2977.16
371.45	2722.04
371.65	2443.52
371.84	2539.48
372.04	2705.66
372.24	2944.39
372.44	2993.55
372.63	2738.43
372.83	2605.02
373.03	2195.42
373.22	2207.13
373.42	2523.10
373.62	2698.64
373.81	2892.90
374.01	2729.06
374.21	2523.10
374.40	2424.80
374.60	2693.96
374.79	3061.42
374.99	3375.05
375.19	3513.14
375.38	3667.62
375.58	3398.46
375.78	3229.94
375.97	3325.90
376.17	3353.99
376.37	3609.11
376.56	3576.34
376.76	3840.82
376.95	4142.75
377.15	4269.14
377.35	4601.49
377.54	4746.61
377.74	4800.44
377.93	4762.99
378.13	4521.92
378.33	4444.68
378.52	4126.36
378.72	3850.18
378.91	3847.84
379.11	3737.84
379.31	3751.88
379.50	3672.30
379.70	3913.38
379.89	4416.59
380.09	4723.20
380.28	4823.84
380.48	4601.49
380.68	4507.87
380.87	4297.22
381.07	4161.47
381.26	3794.01
381.46	3529.53
381.65	3302.50
381.85	3321.22
382.04	3138.66
382.24	2925.67
382.43	2874.18
382.63	2792.26
382.83	2827.37
383.02	2818.00
383.22	2808.64
383.41	2839.07
383.61	3112.91
383.80	3513.14
384.00	4074.87
384.19	4641.28
384.39	4709.16
384.58	4795.76
384.78	4519.57
384.97	4449.36
385.17	4299.56
385.36	3908.69
385.56	3852.52
385.75	4100.62
385.95	4468.08
386.14	4779.37
386.34	4903.42
386.53	4669.37
386.72	4404.89
386.92	4531.28
387.11	4751.29
387.31	4833.21
387.50	4788.74
387.70	4554.68
387.89	4624.90
388.09	4636.60
388.28	4620.22
388.48	4821.50
388.67	5135.14
388.86	5823.25
389.06	6043.26
389.25	6363.92
389.45	6267.95
389.64	6363.92
389.84	6242.21
390.03	6101.78
390.22	6160.29
390.42	6558.18
390.61	6963.09
390.81	7311.83
391.00	7349.28
391.19	7353.96
391.39	7159.70
391.58	6569.88
391.78	6242.21
391.97	5951.98
392.16	5748.36
392.36	4770.01
392.55	3894.65
392.75	2960.78
392.94	2675.23
393.13	2780.56
393.33	3595.06
393.52	4355.74
393.71	5081.30
393.91	5607.92
394.10	6392.00
394.29	6899.90
394.49	7279.07
394.68	7915.69
394.88	7765.90
395.07	8154.43
395.26	7929.74
395.46	7765.90
395.65	7122.25
395.84	6164.97
396.04	5032.15
396.23	4035.08
396.42	3480.38
396.62	3569.32
396.81	4393.19
397.00	5699.20
397.19	7075.44
397.39	8283.16
397.58	9184.26
397.77	9710.88
397.97	9973.02
398.16	10015.15
398.35	10471.56
398.55	10663.48
398.74	11283.72
398.93	10942.00
399.12	11157.33
399.32	10707.95
399.51	11077.76
399.70	11784.60
399.90	11513.10
400.09	11297.77
400.28	11162.01
400.47	11719.06
400.67	12163.76
400.86	12629.53
401.05	12439.95
401.24	12301.86
401.44	12699.75
401.63	12851.88
401.82	12711.45
402.01	12769.96
402.21	13041.46
402.40	13018.06
402.59	12517.18
402.78	11936.73
402.97	11831.41
403.17	12699.75
403.36	13104.66
403.55	13266.16
403.74	13593.83
403.93	12957.21
404.13	11702.68
404.32	11901.62
404.51	12730.17
404.70	13048.49
404.89	12968.91
405.09	12959.55
405.28	12737.20
405.47	12877.63
405.66	12819.11
405.85	12177.81
406.05	12189.51
406.24	12542.93
406.43	12879.97
406.62	13345.73
406.81	13193.60
407.00	13209.98
407.20	12531.23
407.39	12896.35
407.58	13371.48
407.77	14111.09
407.96	14284.29
408.15	14457.49
408.34	14719.63
408.54	15042.62
408.73	15042.62
408.92	15051.99
409.11	14291.31
409.30	13729.58
409.49	12849.54
409.68	11925.03
409.87	11880.56
410.07	13151.47
410.26	13870.01
410.45	14347.48
410.64	14728.99
410.83	15363.28
411.02	15534.14
411.21	15978.84
411.40	16081.82
411.59	16435.24
411.78	15939.05
411.98	16032.67
412.17	16135.65
412.36	15864.15
412.55	15665.21
412.74	15330.51
412.93	15264.97
413.12	15793.94
413.31	17064.85
413.50	16966.54
413.69	17577.42
413.88	16683.34
414.07	16573.33
414.26	16723.13
414.45	17322.30
414.64	17027.40
414.83	16917.39
415.02	16622.48
415.22	16847.18
415.41	17319.96
415.60	17804.46
415.79	18246.82
415.98	18651.73
416.17	18682.16
416.36	18415.34
416.55	17811.48
416.74	17111.66
416.93	16847.18
417.12	17233.36
417.31	17032.08
417.50	17640.62
417.69	18017.44
417.88	17998.72
418.07	17568.06
418.26	17390.18
418.45	18005.74
418.64	18665.77
418.83	19531.77
419.02	18848.33
419.21	18218.73
419.39	17673.39
419.58	16922.07
419.77	17298.90
419.96	18523.00
420.15	18780.46
420.34	19339.85
420.53	20315.85
420.72	20386.07
420.91	20166.06
421.10	19686.25
421.29	19716.67
421.48	19222.82
421.67	20166.06
421.86	19098.77
422.05	17521.25
422.24	16514.82
422.43	16720.79
422.61	18988.77
422.80	19506.02
422.99	19105.79
423.18	18298.31
423.37	18471.51
423.56	18541.72
423.75	19087.07
423.94	19527.09
424.13	18359.16
424.32	18600.24
424.50	18387.25
424.69	18625.98
424.88	18265.54
425.07	18511.30
425.26	18354.48
425.45	17759.98
425.64	17928.50
425.83	18171.92
426.01	18953.66
426.20	18855.36
426.39	18534.70
426.58	17305.92
426.77	16231.62
426.96	15995.22
427.15	16833.13
427.33	18384.91
427.52	18403.63
427.71	18829.61
427.90	18120.43
428.09	18139.15
428.28	17516.57
428.46	16812.07
428.65	16847.18
428.84	17528.27
429.03	17301.24
429.22	16664.61
429.40	15382.00
429.59	13968.32
429.78	12823.80
429.97	12805.07
430.16	12854.22
430.34	12999.34
430.53	13172.54
430.72	13923.85
430.91	15290.72
431.10	18450.44
431.28	21118.65
431.47	22438.72
431.66	21916.78
431.85	19578.58
432.03	18132.13
432.22	18068.94
432.41	19522.41
432.60	20952.48
432.79	21493.14
432.97	22047.85
433.16	21348.03
433.35	18544.06
433.54	17137.40
433.72	16477.37
433.91	17757.64
434.10	19932.00
434.28	21001.63
434.47	21635.91
434.66	21020.35
434.85	20430.54
435.03	21249.72
435.22	21102.27
435.41	22349.78
435.59	22614.26
435.78	22551.06
435.97	23316.42
436.16	23318.76
436.34	23082.36
436.53	22670.43
436.72	22750.01
436.90	21156.10
437.09	21455.69
437.28	21460.37
437.46	21979.97
437.65	21263.77
437.84	19611.35
438.02	18761.73
438.21	19000.47
438.40	19625.39
438.58	21219.30
438.77	21935.50
438.96	21984.65
439.14	23110.45
439.33	23740.05
439.52	23590.26
439.70	22953.63
439.89	22059.55
440.08	21582.08
440.26	22181.26
440.45	23112.79
440.63	24992.24
440.82	25771.64
441.01	25071.82
441.19	24779.25
441.38	26045.48
441.57	26778.07
441.75	26506.57
441.94	27012.12
442.12	26616.57
442.31	27686.20
442.50	27339.80
442.68	26534.65
442.87	26579.12
443.05	25935.48
443.24	26780.41
443.43	26988.72
443.61	27662.79
443.80	28119.20
443.98	27386.61
444.17	26309.96
444.35	28158.99
444.54	28556.88
444.73	27978.76
444.91	26665.72
445.10	25497.80
445.28	24690.31
445.47	24687.97
445.65	24797.98
445.84	25731.85
446.02	26129.74
446.21	26668.06
446.39	26623.59
446.58	27330.44
446.77	27737.69
446.95	27843.01
447.14	28975.83
447.32	29050.73
447.51	28533.47
447.69	27414.69
447.88	27482.57
448.06	27828.97
448.25	27875.78
448.43	28081.75
448.62	27569.17
448.80	27644.07
448.99	27402.99
449.17	28114.52
449.36	28119.20
449.54	28617.73
449.73	29322.23
449.91	29921.41
450.10	30661.02
450.28	30869.33
450.46	31096.36
450.65	30733.57
450.83	30513.56
451.02	30286.53
451.20	29762.25
451.39	29750.55
451.57	29670.97
451.76	30113.33
451.94	29006.26
452.13	28376.66
452.31	27152.55
452.49	25935.48
452.68	26738.28
452.86	27154.90
453.05	27431.08
453.23	28545.17
453.42	28652.84
453.60	29509.47
453.78	29343.30
453.97	29497.77
454.15	28423.47
454.34	27520.02
454.52	28023.23
454.70	28219.84
454.89	28271.33
455.07	28833.06
455.26	28914.98
455.44	30059.50
455.62	30616.55
455.81	30614.21
455.99	30466.75
456.17	30663.36
456.36	31538.72
456.54	31459.14
456.73	31189.98
456.91	31255.51
457.09	32112.15
457.28	32898.57
457.46	30717.19
457.64	30361.43
457.83	30223.34
458.01	29605.44
458.19	30904.43
458.38	31288.28
458.56	32170.66
458.74	31402.97
458.93	30972.31
459.11	30499.52
459.29	29799.70
459.48	31035.50
459.66	29998.65
459.84	30651.66
460.03	31199.34
460.21	31793.84
460.39	32105.13
460.57	32048.96
460.76	31903.84
460.94	32308.76
461.12	32184.71
461.31	32229.18
461.49	32587.28
461.67	32346.20
461.85	32823.67
462.04	32945.38
462.22	32776.86
462.40	32493.66
462.59	32301.73
462.77	32601.32
462.95	32084.06
463.13	32201.09
463.32	32016.19
463.50	31653.40
463.68	31997.46
463.86	32123.85
464.05	31393.61
464.23	30595.48
464.41	30995.71
464.59	30501.86
464.78	32173.00
464.96	31463.82
465.14	30852.94
465.32	32643.45
465.50	33373.70
465.69	33809.04
465.87	32725.37
466.05	31590.21
466.23	30244.40
466.41	30136.74
466.60	30698.47
466.78	31012.10
466.96	30906.77
467.14	31744.69
467.32	31955.33
467.51	32023.21
467.69	30541.65
467.87	31487.23
468.05	32203.43
468.23	31850.01
468.41	31901.50
468.60	31899.16
468.78	32863.46
468.96	32437.48
469.14	32437.48
469.32	32783.88
469.50	31215.72
469.69	31321.05
469.87	31077.63
470.05	31000.40
470.23	31283.60
470.41	31192.32
470.59	31709.58
470.77	31620.64
470.95	32479.61
471.14	32912.61
471.32	33069.43
471.50	34550.99
471.68	35110.38
471.86	35171.23
472.04	34368.43
472.22	35384.22
472.40	33825.42
472.58	33453.28
472.77	33013.26
472.95	33708.40
473.13	34604.82
473.31	33064.75
473.49	33015.60
473.67	34274.80
473.85	34604.82
474.03	36165.96
474.21	36840.03
474.39	36701.94
474.57	36053.61
474.75	36048.93
474.93	36060.63
475.12	34862.28
475.30	35541.03
475.48	34820.15
475.66	34785.04
475.84	34614.18
476.02	34892.71
476.20	34412.90
476.38	35175.91
476.56	36713.64
476.74	37247.29
476.92	37141.96
477.10	37261.33
477.28	38309.89
477.46	38026.68
477.64	38878.64
477.82	39503.56
478.00	39325.68
478.18	38064.13
478.36	37589.00
478.54	38885.66
478.72	39000.35
478.90	40526.38
479.08	42178.79
479.26	41724.73
479.44	41853.46
479.62	40814.26
479.80	41790.27
479.98	41347.90
480.16	42213.90
480.34	41282.37
480.52	42220.92
480.70	42656.26
480.88	42188.16
481.06	43044.79
481.24	43033.09
481.41	44011.43
481.59	44634.02
481.77	43587.80
481.95	43522.26
482.13	42841.17
482.31	43957.60
482.49	44442.09
482.67	43744.61
482.85	43849.94
483.03	44039.52
483.21	45488.31
483.39	44669.12
483.57	43948.24
483.74	43988.03
483.92	44924.24
484.10	44734.66
484.28	44563.80
484.46	44247.83
484.64	46562.62
484.82	45390.01
485.00	44830.62
485.18	43927.17
485.35	42120.28
485.53	36748.75
485.71	34953.56
485.89	35580.82
486.07	38309.89
486.25	40842.35
486.43	43229.69
486.61	42920.74
486.78	43292.89
486.96	44474.86
487.14	45881.52
487.32	46560.28
487.50	47278.82
487.68	48964.01
487.85	49504.67
488.03	48619.95
488.21	48563.78
488.39	48083.97
488.57	47082.22
488.75	46665.60
488.92	48617.61
489.10	50176.40
489.28	51398.16
489.46	52512.26
489.64	52184.58
489.81	52526.30
489.99	51491.79
490.17	51908.40
490.35	51987.98
490.53	51461.36
490.70	51150.07
490.88	51295.18
491.06	52472.47
491.24	52325.02
491.41	51178.15
491.59	49523.40
491.77	49539.78
491.95	51079.85
492.13	52540.35
492.30	52643.33
492.48	53614.65
492.66	54127.23
492.84	53574.86
493.01	53448.47
493.19	53214.42
493.37	52568.43
493.54	53183.99
493.72	54115.53
493.90	54330.86
494.08	54817.69
494.25	54747.47
494.43	55274.09
494.61	55955.19
494.79	55913.06
494.96	56355.42
495.14	55826.46
495.32	54417.46
495.49	54686.62
495.67	55316.22
495.85	56659.69
496.02	56793.10
496.20	56484.15
496.38	56144.77
496.55	56147.11
496.73	56994.39
496.91	56970.98
497.09	56853.95
497.26	57120.77
497.44	56605.86
497.62	55854.54
497.79	55047.06
497.97	53947.01
498.14	54979.18
498.32	56299.25
498.50	56200.94
498.67	56046.47
498.85	56423.29
499.03	57230.78
499.20	57230.78
499.38	56535.64
499.56	56495.85
499.73	55952.85
499.91	56020.72
500.08	55196.85
500.26	54735.77
500.44	55636.87
500.61	55903.70
500.79	55573.68
500.97	56002.00
501.14	54876.20
501.32	54735.77
501.49	55047.06
501.67	55363.03
501.84	55882.63
502.02	55980.93
502.20	56898.42
502.37	57254.18
502.55	57010.77
502.72	57628.67
502.90	57769.10
503.07	57759.74
503.25	56296.91
503.43	55618.15
503.60	55292.82
503.78	55164.09
503.95	55297.50
504.13	56664.37
504.30	57139.50
504.48	56631.60
504.65	56711.18
504.83	56928.85
505.01	57820.59
505.18	58120.18
505.36	58248.91
505.53	58429.13
505.71	58504.03
505.88	58702.98
506.06	58174.02
506.23	57827.62
506.41	57668.46
506.58	58014.86
506.76	58042.95
506.93	57396.96
507.11	57293.97
507.28	57544.41
507.46	56980.34
507.63	56856.29
507.81	55964.55
507.98	56868.00
508.16	58101.46
508.33	58031.24
508.50	58166.99
508.68	58892.56
508.85	58845.75
509.03	59070.44
509.20	58480.63
509.38	57614.63
509.55	57581.86
509.73	57521.01
509.90	58047.63
510.08	58145.93
510.25	57429.72
510.42	57642.71
510.60	58101.46
510.77	58562.54
510.95	58450.20
511.12	58543.82
511.30	58983.84
511.47	59510.46
511.64	59437.90
511.82	59426.20
511.99	58113.16
512.17	58244.23
512.34	57631.01
512.51	57539.73
512.69	58281.68
512.86	58106.14
513.04	58478.28
513.21	57511.64
513.38	57088.01
513.56	56690.12
513.73	56224.35
513.90	56940.55
514.08	57261.21
514.25	57057.58
514.43	57439.09
514.60	57698.89
514.77	58019.54
514.95	57977.41
515.12	57684.84
515.29	58487.65
515.47	58880.86
515.64	58738.08
515.81	58255.93
515.99	57289.29
516.16	55473.04
516.33	53151.23
516.51	53015.47
516.68	52048.83
516.85	51002.61
517.03	53064.63
517.20	55243.66
517.37	57382.91
517.54	58143.59
517.72	56846.93
517.89	53738.70
518.06	52252.46
518.24	53675.51
518.41	55861.57
518.58	56584.79
518.75	56465.42
518.93	56769.69
519.10	56072.21
519.27	57329.08
519.45	57851.02
519.62	58166.99
519.79	58489.99
519.96	57726.97
520.14	57453.13
520.31	56287.54
520.48	56685.43
520.65	57518.67
520.83	58576.59
521.00	58543.82
521.17	57822.93
521.34	57829.96
521.52	58410.41
521.69	58408.07
521.86	59110.23
522.03	59004.91
522.20	57073.96
522.38	56765.01
522.55	57373.55
522.72	57886.13
522.89	57256.53
523.07	57876.77
523.24	58286.36
523.41	59475.35
523.58	59639.19
523.75	59812.39
523.92	59437.90
524.10	58960.44
524.27	58958.09
524.44	58838.73
524.61	58518.07
524.78	58967.46
524.96	58733.40
525.13	58824.68
525.30	59281.09
525.47	59463.65
525.64	59320.88
525.81	58557.86
525.98	56423.29
526.16	55482.40
526.33	55655.60
526.50	55033.02
526.67	55316.22
526.84	55791.35
527.01	56294.56
527.18	57146.52
527.36	58162.31
527.53	59089.16
527.70	58134.23
527.87	57036.51
528.04	58122.52
528.21	58815.32
528.38	59360.67
528.55	60175.17
528.72	59697.70
528.89	59178.10
529.07	58976.82
529.24	57839.32
529.41	57942.30
529.58	57602.92
529.75	58611.70
529.92	59124.27
530.09	58630.42
530.26	59203.85
530.43	60243.05
530.60	59138.32
530.77	59643.87
530.94	59992.61
531.11	58859.79
531.28	59269.39
531.46	59428.54
531.63	59402.80
531.80	58396.37
531.97	58066.35
532.14	58145.93
532.31	56687.78
532.48	55987.95
532.65	56404.57
532.82	56891.40
532.99	58550.84
533.16	58721.70
533.33	58740.42
533.50	59072.78
533.67	59105.55
533.84	58131.89
534.01	58438.50
534.18	58616.38
534.35	58389.34
534.52	57773.78
534.69	58536.80
534.86	59110.23
535.03	59178.10
535.20	58974.48
535.37	59814.73
535.54	60023.04
535.71	59784.30
535.88	59906.01
536.05	58595.31
536.22	58220.83
536.38	57797.19
536.55	56687.78
536.72	56776.72
536.89	57371.21
537.06	57537.39
537.23	58274.66
537.40	58363.60
537.57	57946.98
537.74	58557.86
537.91	58361.26
538.08	58012.52
538.25	58124.86
538.42	58862.13
538.59	58300.40
538.75	57188.65
538.92	56865.66
539.09	56982.68
539.26	57118.43
539.43	57340.78
539.60	57504.62
539.77	57806.55
539.94	57577.18
540.11	56706.50
540.28	56226.69
540.44	56016.04
540.61	56229.03
540.78	56804.80
540.95	57425.04
541.12	57539.73
541.29	58017.20
541.46	58417.43
541.62	58492.33
541.79	57598.24
541.96	56629.26
542.13	56647.99
542.30	56994.39
542.47	57729.31
542.63	57392.28
542.80	57090.35
542.97	56725.22
543.14	56624.58
543.31	56825.87
543.48	57998.48
543.64	58192.74
543.81	59409.82
543.98	58955.75
544.15	57092.69
544.32	57834.64
544.48	57640.37
544.65	57588.88
544.82	58181.04
544.99	56687.78
545.16	56231.37
545.32	56755.65
545.49	57324.40
545.66	57448.45
545.83	57286.95
546.00	58026.56
546.16	57726.97
546.33	57565.48
546.50	57544.41
546.67	58368.28
546.83	57099.71
547.00	57848.68
547.17	56573.09
547.34	55899.01
547.50	56086.26
547.67	57174.61
547.84	57865.06
548.00	57738.68
548.17	57247.16
548.34	57621.65
548.51	57827.62
548.67	58244.23
548.84	57958.69
549.01	58024.22
549.18	57322.06
549.34	57521.01
549.51	57518.67
549.68	57511.64
549.84	56942.89
550.01	56765.01
550.18	56247.75
550.34	56589.47
550.51	56905.44
550.68	57378.23
550.84	56931.19
551.01	56355.42
551.18	56339.04
551.34	55941.14
551.51	57324.40
551.68	57137.16
551.84	57109.07
552.01	57066.94
552.18	56385.85
552.34	55976.25
552.51	55847.52
552.68	55742.20
552.84	56086.26
553.01	56144.77
553.18	57275.25
553.34	57167.58
553.51	57059.92
553.67	56530.96
553.84	56254.78
554.01	57059.92
554.17	56521.60
554.34	56626.92
554.51	56804.80
554.67	55920.08
554.84	56191.58
555.00	56095.62
555.17	56090.94
555.33	55774.97
555.50	55084.51
555.67	56402.23
555.83	56247.75
556.00	55889.65
556.16	55496.44
556.33	55077.49
556.50	55679.00
556.66	55990.30
556.83	55477.72
556.99	54876.20
557.16	55409.84
557.32	54944.08
557.49	55405.16
557.65	55192.17
557.82	55971.57
557.98	56095.62
558.15	54934.71
558.32	54106.16
558.48	53483.58
558.65	53506.99
558.81	54164.68
558.98	55330.26
559.14	55231.96
559.31	54752.15
559.47	54361.28
559.64	54220.85
559.80	53808.92
559.97	54593.00
560.13	55643.90
560.30	56601.18
560.46	56725.22
560.63	57010.77
560.79	56769.69
560.96	55934.12
561.12	54569.59
561.29	54213.83
561.45	54227.87
561.61	55627.51
561.78	54644.49
561.94	55646.24
562.11	55299.84
562.27	54635.13
562.44	55339.63
562.60	55515.17
562.77	55868.59
562.93	54983.86
563.10	54527.46
563.26	54775.56
563.42	55505.80
563.59	54621.08
563.75	54337.88
563.92	54693.64
564.08	54057.01
564.24	55016.63
564.41	54202.13
564.57	55178.13
564.74	54548.53
564.90	53851.05
565.07	54134.25
565.23	53076.33
565.39	52865.68
565.56	53294.00
565.72	53308.04
565.88	51941.17
566.05	54181.06
566.21	54983.86
566.38	54073.40
566.54	54082.76
566.70	54691.30
566.87	54550.87
567.03	53787.85
567.19	55222.60
567.36	55454.31
567.52	54190.42
567.68	53514.01
567.85	52552.05
568.01	52528.64
568.17	53516.35
568.34	54021.90
568.50	53656.78
568.66	53799.55
568.83	52926.53
568.99	52374.17
569.15	53095.05
569.32	53137.18
569.48	52636.31
569.64	52289.91
569.81	52437.36
569.97	52186.92
570.13	51344.33
570.30	51384.12
570.46	50845.80
570.62	49523.40
570.78	50204.49
570.95	51185.18
571.11	51201.56
571.27	50908.99
571.43	50916.01
571.60	50841.12
571.76	52360.12
571.92	52758.02
572.09	53078.67
572.25	53085.69
572.41	53504.65
572.57	53324.43
572.74	53612.31
572.90	54138.93
573.06	53368.90
573.22	53303.36
573.38	53137.18
573.55	54468.95
573.71	52949.94
573.87	53275.27
574.03	53368.90
574.20	52507.58
574.36	52961.64
574.52	51789.03
574.68	51592.43
574.84	50798.99
575.01	51129.00
575.17	51730.52
575.33	51643.92
575.49	51824.14
575.65	51161.77
575.82	51634.56
575.98	51114.96
576.14	51746.90
576.30	52774.40
576.46	50843.46
576.62	51320.93
576.79	51136.02
576.95	51098.58
577.11	51758.61
577.27	51683.71
577.43	51959.89
577.59	50993.25
577.75	49490.63
577.92	50019.59
578.08	49834.69
578.24	50707.71
578.40	50857.50
578.56	50136.62
578.72	50024.27
578.88	50087.46
579.04	50347.26
579.21	49881.50
579.37	50064.06
579.53	50934.74
579.69	50054.70
579.85	50403.44
580.01	50440.89
580.17	49801.92
580.33	50824.73
580.49	51210.92
580.65	49020.18
580.82	49918.95
580.98	51002.61
581.14	51079.85
581.30	50578.98
581.46	50183.43
581.62	50787.28
581.78	51391.14
581.94	51210.92
582.10	51756.27
582.26	51718.82
582.42	51618.17
582.58	49560.84
582.74	49633.40
582.90	50246.62
583.06	50150.66
583.22	50532.17
583.38	50658.56
583.54	51002.61
583.70	51398.16
583.86	50920.70
584.02	50520.46
584.18	50284.07
584.34	49488.29
584.50	49130.19
584.66	49052.95
584.82	49869.79
584.98	49890.86
585.14	49078.69
585.30	49235.51
