SpectraSuite Data File
++++++++++++++++++++++++++++++++++++
Date: Mon Oct 07 14:53:29 GMT-05:00 2013
User: price-jones
Dark Spectrum Present: No
Reference Spectrum Present: No
Number of Sampled Component Spectra: 1
Spectrometers: USB2+H05261
Integration Time (usec): 100000 (USB2+H05261)
Spectra Averaged: 1 (USB2+H05261)
Boxcar Smoothing: 0 (USB2+H05261)
Correct for Electrical Dark: No (USB2+H05261)
Strobe/Lamp Enabled: No (USB2+H05261)
Correct for Detector Non-linearity: No (USB2+H05261)
Correct for Stray Light: No (USB2+H05261)
Number of Pixels in Processed Spectrum: 2048
>>>>>Begin Processed Spectral Data<<<<<
365.73	0.00
365.92	0.00
366.12	0.00
366.32	0.00
366.52	0.00
366.72	0.00
366.91	0.00
367.11	0.00
367.31	0.00
367.51	0.00
367.70	0.00
367.90	0.00
368.10	0.00
368.30	0.00
368.49	0.00
368.69	0.00
368.89	0.00
369.09	0.00
369.28	0.00
369.48	0.00
369.68	0.00
369.87	0.00
370.07	0.00
370.27	0.00
370.47	718.54
370.66	3459.31
370.86	3983.59
371.06	4369.78
371.25	4486.81
371.45	4007.00
371.65	3667.62
371.84	3438.25
372.04	3583.36
372.24	4028.06
372.44	4098.28
372.63	3957.85
372.83	3798.69
373.03	3356.33
373.22	2944.39
373.42	3253.34
373.62	3691.02
373.81	4114.66
374.01	4086.58
374.21	3667.62
374.40	3379.73
374.60	3658.26
374.79	3985.93
374.99	4732.56
375.19	4971.30
375.38	5050.88
375.58	4737.24
375.78	4545.32
375.97	4699.80
376.17	4910.44
376.37	5142.16
376.56	4966.62
376.76	5268.55
376.95	5722.61
377.15	6118.16
377.35	6310.08
377.54	6567.54
377.74	6532.44
377.93	6815.64
378.13	6597.97
378.33	6296.04
378.52	5778.78
378.72	5596.22
378.91	5385.57
379.11	5355.15
379.31	4798.10
379.50	5172.58
379.70	5568.13
379.89	6090.07
380.09	6396.68
380.28	6738.40
380.48	6637.76
380.68	6478.60
380.87	6216.46
381.07	5823.25
381.26	5490.90
381.46	5041.51
381.65	4990.02
381.85	4711.50
382.04	4559.36
382.24	4208.28
382.43	4210.62
382.63	4021.04
382.83	4051.47
383.02	3939.12
383.22	4102.96
383.41	3976.57
383.61	4276.16
383.80	4802.78
384.00	5582.18
384.19	6169.65
384.39	6581.59
384.58	6509.03
384.78	6420.09
384.97	6504.35
385.17	6038.58
385.36	5753.04
385.56	5579.84
385.75	5696.86
385.95	6291.36
386.14	6757.13
386.34	6647.12
386.53	6569.88
386.72	5980.07
386.92	6059.65
387.11	6399.02
387.31	6579.25
387.50	6497.33
387.70	6263.27
387.89	6331.15
388.09	6392.00
388.28	6267.95
388.48	6537.12
388.67	6796.92
388.86	7742.49
389.06	8196.56
389.25	8620.19
389.45	8788.71
389.64	8535.93
389.84	8437.63
390.03	8463.38
390.22	8444.65
390.42	8769.99
390.61	9411.29
390.81	9984.73
391.00	9977.70
391.19	10209.42
391.39	9724.93
391.58	9184.26
391.78	8564.02
391.97	8276.13
392.16	7730.79
392.36	7077.78
392.55	5701.54
392.75	4524.26
392.94	3719.11
393.13	3613.79
393.33	4351.06
393.52	5418.34
393.71	6906.92
393.91	7653.55
394.10	8128.68
394.29	9022.77
394.49	9839.61
394.68	10548.79
394.88	10733.70
395.07	11068.39
395.26	10885.83
395.46	10614.33
395.65	10083.03
395.84	8690.41
396.04	7384.39
396.23	6052.63
396.42	5179.61
396.62	4744.27
396.81	5593.88
397.00	7124.59
397.19	8964.25
397.39	10785.19
397.58	12030.35
397.77	12762.94
397.97	13153.81
398.16	13654.69
398.35	13729.58
398.55	14342.80
398.74	14883.47
398.93	15154.97
399.12	14895.17
399.32	14235.14
399.51	14593.24
399.70	15578.61
399.90	15555.20
400.09	15627.76
400.28	15410.09
400.47	15452.22
400.67	16194.17
400.86	16706.74
401.05	16512.48
401.24	16727.81
401.44	16987.61
401.63	16776.96
401.82	17212.30
402.01	17027.40
402.21	17104.64
402.40	17579.76
402.59	16833.13
402.78	15873.51
402.97	15733.08
403.17	16168.42
403.36	17184.21
403.55	17881.69
403.74	18153.20
403.93	17179.53
404.13	16093.52
404.32	15594.99
404.51	16421.20
404.70	17582.10
404.89	17338.69
405.09	17415.93
405.28	16870.58
405.47	16739.51
405.66	16699.72
405.85	16301.83
406.05	16037.35
406.24	16149.70
406.43	16856.54
406.62	17415.93
406.81	17797.43
407.00	16940.80
407.20	16556.95
407.39	16552.27
407.58	17380.82
407.77	18174.26
407.96	18977.06
408.15	18801.52
408.34	18764.07
408.54	20060.73
408.73	20042.01
408.92	19648.80
409.11	19204.10
409.30	18094.68
409.49	17336.35
409.68	15950.75
409.87	15700.31
410.07	16503.12
410.26	17745.94
410.45	18995.79
410.64	19585.60
410.83	19967.11
411.02	20512.46
411.21	21177.17
411.40	21032.05
411.59	21076.52
411.78	20929.07
411.98	20814.38
412.17	20950.14
412.36	20762.89
412.55	20795.66
412.74	20116.90
412.93	19817.32
413.12	19775.19
413.31	21956.57
413.50	22019.76
413.69	22218.71
413.88	21640.59
414.07	20929.07
414.26	21682.72
414.45	21956.57
414.64	22230.41
414.83	22314.67
415.02	21687.40
415.22	21642.93
415.41	22471.48
415.60	23096.41
415.79	23754.10
415.98	24491.37
416.17	24783.93
416.36	23667.50
416.55	23332.80
416.74	22785.12
416.93	21881.67
417.12	21909.75
417.31	22192.96
417.50	22712.56
417.69	23321.10
417.88	23332.80
418.07	23119.81
418.26	22864.69
418.45	23168.96
418.64	23707.29
418.83	24718.40
419.02	23985.81
419.21	24051.34
419.39	23047.26
419.58	21699.11
419.77	22207.00
419.96	22834.27
420.15	24292.42
420.34	24900.96
420.53	25926.11
420.72	26394.22
420.91	26349.75
421.10	25448.64
421.29	25371.41
421.48	24386.04
421.67	25818.45
421.86	24837.76
422.05	23775.16
422.24	20912.69
422.43	20758.21
422.61	22944.27
422.80	24816.70
422.99	24893.94
423.18	24058.37
423.37	23571.54
423.56	23782.18
423.75	24269.01
423.94	24486.68
424.13	23157.26
424.32	23218.11
424.50	23517.70
424.69	23211.09
424.88	22955.97
425.07	23419.40
425.26	23103.43
425.45	22707.88
425.64	22199.98
425.83	22724.26
426.01	23950.70
426.20	24334.55
426.39	24191.78
426.58	22335.73
426.77	20755.87
426.96	20112.22
427.15	20727.78
427.33	22394.25
427.52	23524.72
427.71	23353.87
427.90	23112.79
428.09	22742.99
428.28	22827.24
428.46	21652.30
428.65	21411.22
428.84	21923.80
429.03	22258.49
429.22	21135.04
429.40	20086.48
429.59	18178.94
429.78	16025.65
429.97	16016.29
430.16	16126.29
430.34	16460.99
430.53	15971.82
430.72	16842.50
430.91	18520.66
431.10	21617.19
431.28	25294.17
431.47	27969.40
431.66	27850.03
431.85	25448.64
432.03	23711.97
432.22	22314.67
432.41	23442.81
432.60	26129.74
432.79	26967.65
432.97	27676.83
433.16	27316.39
433.35	24828.40
433.54	22017.42
433.72	20812.04
433.91	21551.65
434.10	24147.31
434.28	25460.35
434.47	27157.24
434.66	26249.11
434.85	26504.23
435.03	25996.33
435.22	26417.63
435.41	27786.84
435.59	28077.07
435.78	28144.94
435.97	29223.93
436.16	29013.28
436.34	29202.86
436.53	28268.99
436.72	28489.00
436.90	26911.48
437.09	26993.40
437.28	26401.24
437.46	27000.42
437.65	27211.07
437.84	25408.86
438.02	23239.18
438.21	23271.95
438.40	24229.23
438.58	26536.99
438.77	27103.40
438.96	27653.43
439.14	28900.94
439.33	29046.05
439.52	29792.68
439.70	29362.02
439.89	28271.33
440.08	28056.00
440.26	27936.63
440.45	28334.53
440.63	30403.56
440.82	31742.35
441.01	31644.04
441.19	31536.38
441.38	31470.84
441.57	32814.31
441.75	33188.80
441.94	33446.26
442.12	32975.81
442.31	34078.20
442.50	33717.76
442.68	33439.23
442.87	33055.39
443.05	32500.68
443.24	32804.95
443.43	33963.51
443.61	34209.27
443.80	34859.94
443.98	32994.53
444.17	32589.62
444.35	34878.66
444.54	35204.00
444.73	34579.07
444.91	33504.77
445.10	32271.31
445.28	31014.44
445.47	30237.38
445.65	30705.49
445.84	31297.64
446.02	32449.19
446.21	32868.14
446.39	32762.82
446.58	33095.18
446.77	34092.24
446.95	33986.92
447.14	34953.56
447.32	35665.08
447.51	34993.35
447.69	33390.08
447.88	33216.88
448.06	33813.72
448.25	34637.59
448.43	34965.26
448.62	34066.50
448.80	33919.04
448.99	34040.75
449.17	34281.83
449.36	34417.58
449.54	35723.60
449.73	36165.96
449.91	36528.74
450.10	37291.76
450.28	38054.77
450.46	37633.47
450.65	37823.06
450.83	37240.26
451.02	36800.24
451.20	36776.84
451.39	36547.47
451.57	36180.00
451.76	36318.09
451.94	36060.63
452.13	35543.38
452.31	33673.29
452.49	32524.08
452.68	33149.01
452.86	32694.94
453.05	33181.77
453.23	34190.55
453.42	34827.17
453.60	35922.54
453.78	36107.44
453.97	35931.90
454.15	36070.00
454.34	35204.00
454.52	35400.60
454.70	34279.49
454.89	35152.51
455.07	34803.77
455.26	35189.95
455.44	37165.37
455.62	37141.96
455.81	37366.65
455.99	37649.86
456.17	36753.43
456.36	36947.70
456.54	38277.12
456.73	38167.12
456.91	38787.36
457.09	39079.92
457.28	39159.50
457.46	37745.82
457.64	37530.49
457.83	37074.09
458.01	36074.68
458.19	37038.98
458.38	36966.42
458.56	38387.13
458.74	37958.81
458.93	37420.48
459.11	37415.80
459.29	37366.65
459.48	37081.11
459.66	36989.83
459.84	37797.31
460.03	38101.58
460.21	37989.24
460.39	38506.49
460.57	38918.43
460.76	39475.48
460.94	39009.71
461.12	38712.46
461.31	38911.41
461.49	38604.80
461.67	39178.23
461.85	39770.38
462.04	39592.50
462.22	40594.25
462.40	39875.71
462.59	39704.85
462.77	39826.56
462.95	40306.37
463.13	39178.23
463.32	39009.71
463.50	38541.60
463.68	38810.76
463.86	39241.42
464.05	38548.62
464.23	37872.21
464.41	37380.70
464.59	36549.81
464.78	38883.32
464.96	38707.78
465.14	38197.54
465.32	39168.87
465.50	40030.18
465.69	40685.53
465.87	39634.63
466.05	38740.55
466.23	36844.71
466.41	36147.23
466.60	37596.03
466.78	37153.66
466.96	37748.16
467.14	38445.64
467.32	38621.18
467.51	39416.96
467.69	37242.60
467.87	37991.58
468.05	38848.21
468.23	38618.84
468.41	38302.87
468.60	38930.13
468.78	39349.09
468.96	38665.65
469.14	39262.49
469.32	39732.93
469.50	38260.74
469.69	38522.88
469.87	37570.28
470.05	37223.88
470.23	37771.57
470.41	37762.20
470.59	38082.86
470.77	38319.25
470.95	39133.76
471.14	39386.54
471.32	39438.03
471.50	41483.66
471.68	41586.64
471.86	42066.45
472.04	42417.53
472.22	42359.02
472.40	40261.90
472.58	40032.52
472.77	39688.46
472.95	40095.72
473.13	41507.06
473.31	40538.08
473.49	40465.52
473.67	41067.04
473.85	41385.35
474.03	42749.88
474.21	42712.44
474.39	42911.38
474.57	43264.80
474.75	42932.45
474.93	43182.88
475.12	41687.28
475.30	42251.35
475.48	42162.41
475.66	43407.58
475.84	42518.17
476.02	42047.72
476.20	41088.10
476.38	42253.69
476.56	43166.50
476.74	44208.04
476.92	44154.21
477.10	44769.77
477.28	45649.81
477.46	45708.32
477.64	46164.73
477.82	46204.52
478.00	46288.77
478.18	45584.27
478.36	45879.18
478.54	45811.31
478.72	46043.02
478.90	47208.61
479.08	48072.26
479.26	48442.07
479.44	48374.19
479.62	48231.42
479.80	48090.99
479.98	48811.87
480.16	48676.12
480.34	48135.46
480.52	48428.02
480.70	48807.19
480.88	48758.04
481.06	49450.84
481.24	49738.72
481.41	50546.21
481.59	51093.89
481.77	50770.90
481.95	50466.63
482.13	50419.82
482.31	50255.98
482.49	50913.67
482.67	50892.61
482.85	50916.01
483.03	51257.73
483.21	51786.69
483.39	51746.90
483.57	50869.20
483.74	50747.50
483.92	51112.62
484.10	51220.28
484.28	52032.45
484.46	52177.56
484.64	52643.33
484.82	51742.22
485.00	51482.42
485.18	50742.81
485.35	49743.41
485.53	46492.40
485.71	43328.00
485.89	42663.28
486.07	44638.70
486.25	47878.00
486.43	50319.18
486.61	50923.04
486.78	50628.13
486.96	50808.35
487.14	52051.17
487.32	53181.65
487.50	53666.14
487.68	54480.65
487.85	54878.54
488.03	54770.88
488.21	54625.76
488.39	53813.60
488.57	53340.81
488.75	53228.46
488.92	53719.98
489.10	55882.63
489.28	56837.57
489.46	57509.30
489.64	57169.93
489.81	57436.75
489.99	57099.71
490.17	57326.74
490.35	57490.58
490.53	57228.44
490.70	56807.14
490.88	56554.36
491.06	57776.12
491.24	57757.40
491.41	56493.51
491.59	55379.42
491.77	54506.40
491.95	55594.74
492.13	56563.73
492.30	57841.66
492.48	58492.33
492.66	58838.73
492.84	58838.73
493.01	58522.76
493.19	58052.31
493.37	57869.75
493.54	57733.99
493.72	58174.02
493.90	59161.72
494.08	59618.13
494.25	60039.42
494.43	60123.68
494.61	60453.70
494.79	60619.88
494.96	60301.56
495.14	59831.11
495.32	59126.61
495.49	58370.62
495.67	59363.01
495.85	60584.77
496.02	60814.14
496.20	60804.78
496.38	60313.26
496.55	60196.24
496.73	60755.63
496.91	60713.50
497.09	61387.57
497.26	61495.24
497.44	60961.59
497.62	60479.44
497.79	59700.04
497.97	58777.87
498.14	58763.83
498.32	59838.14
498.50	60617.53
498.67	61083.30
498.85	60987.34
499.03	61120.75
499.20	61371.19
499.38	61492.89
499.56	61202.67
499.73	60736.90
499.91	60519.23
500.08	60039.42
500.26	59435.56
500.44	59838.14
500.61	60341.35
500.79	60247.73
500.97	59891.97
501.14	59934.10
501.32	59866.22
501.49	59704.73
501.67	59796.01
501.84	60334.33
502.02	60512.21
502.20	60753.29
502.37	61109.05
502.55	60919.46
502.72	61581.84
502.90	61939.94
503.07	61694.18
503.25	61319.70
503.43	60530.93
503.60	59910.69
503.78	59213.21
503.95	60041.76
504.13	61034.15
504.30	61937.60
504.48	61595.88
504.65	61359.48
504.83	61343.10
505.01	61843.98
505.18	62066.33
505.36	62850.41
505.53	62623.37
505.71	62986.16
505.88	63009.56
506.06	62379.96
506.23	62087.39
506.41	61808.87
506.58	62040.58
506.76	62071.01
506.93	61907.17
507.11	61872.06
507.28	62010.15
507.46	61312.67
507.63	60970.96
507.81	60584.77
507.98	61036.49
508.16	61584.18
508.33	61963.34
508.50	62560.18
508.68	62663.16
508.85	63276.38
509.03	63084.46
509.20	62979.14
509.38	62431.45
509.55	61478.85
509.73	61801.85
509.90	62246.55
510.08	62351.87
510.25	62398.68
510.42	62330.81
510.60	62173.99
510.77	62473.58
510.95	62679.55
511.12	63110.20
511.30	63231.91
511.47	63470.65
511.64	63292.77
511.82	63028.29
511.99	62368.26
512.17	62096.75
512.34	61645.03
512.51	61876.74
512.69	61939.94
512.86	62124.84
513.04	62487.62
513.21	62553.16
513.38	62246.55
513.56	61619.28
513.73	61073.94
513.90	61394.59
514.08	61375.87
514.25	61673.12
514.43	61867.38
514.60	61965.68
514.77	62164.63
514.95	62014.83
515.12	62068.67
515.29	62424.43
515.47	62728.70
515.64	62981.48
515.81	62777.85
515.99	62056.96
516.16	60860.95
516.33	58646.80
516.51	57577.18
516.68	56729.90
516.85	56715.86
517.03	56875.02
517.20	59124.27
517.37	61333.74
517.54	62176.33
517.72	61696.52
517.89	59618.13
518.06	57609.95
518.24	58007.84
518.41	59625.15
518.58	60896.06
518.75	61371.19
518.93	61296.29
519.10	60952.23
519.27	61467.15
519.45	61762.06
519.62	62529.75
519.79	62635.08
519.96	62756.78
520.14	62276.97
520.31	61392.25
520.48	61221.39
520.65	61736.31
520.83	62457.20
521.00	62883.17
521.17	62522.73
521.34	62209.10
521.52	62382.30
521.69	62901.90
521.86	63260.00
522.03	63131.27
522.20	62169.31
522.38	61212.03
522.55	61071.60
522.72	61483.53
522.89	61759.72
523.07	61900.15
523.24	62265.27
523.41	63063.39
523.58	63384.05
523.75	63639.17
523.92	63267.02
524.10	63501.07
524.27	63508.10
524.44	63412.13
524.61	63072.76
524.78	62892.54
524.96	62775.51
525.13	62892.54
525.30	63014.24
525.47	63529.16
525.64	63433.20
525.81	62803.59
525.98	61715.25
526.16	60289.86
526.33	59515.14
526.50	59355.99
526.67	58988.52
526.84	59655.57
527.01	60432.63
527.18	61024.79
527.36	61883.76
527.53	62801.25
527.70	63100.84
527.87	62548.48
528.04	61958.66
528.21	62386.98
528.38	63114.89
528.55	63632.14
528.72	63952.80
528.89	64128.34
529.07	63664.91
529.24	63283.40
529.41	62705.29
529.58	62106.12
529.75	62197.40
529.92	62649.12
530.09	62944.03
530.26	63250.64
530.43	63770.24
530.60	63711.72
530.77	63833.43
530.94	63920.03
531.11	63463.63
531.28	63323.19
531.46	62944.03
531.63	63180.42
531.80	63051.69
531.97	62555.50
532.14	62054.62
532.31	61160.54
532.48	60463.06
532.65	60397.52
532.82	61310.33
532.99	62274.63
533.16	62714.65
533.33	63152.33
533.50	62925.30
533.67	62468.90
533.84	61979.73
534.01	62183.35
534.18	62438.47
534.35	62564.86
534.52	62450.17
534.69	62707.63
534.86	62899.56
535.03	63281.06
535.20	63590.01
535.37	63983.22
535.54	63945.78
535.71	63763.21
535.88	63414.47
536.05	62798.91
536.22	62485.28
536.38	62035.90
536.55	61755.03
536.72	61324.38
536.89	61282.25
537.06	61738.65
537.23	62838.70
537.40	62791.89
537.57	63056.37
537.74	62616.35
537.91	62869.13
538.08	62686.57
538.25	62766.15
538.42	63009.56
538.59	62597.63
538.75	62120.16
538.92	62157.61
539.09	61860.36
539.26	61722.27
539.43	61420.34
539.60	61549.07
539.77	61689.50
539.94	61600.56
540.11	60786.05
540.28	60341.35
540.44	60535.62
540.61	60580.09
540.78	61022.45
540.95	61399.27
541.12	61677.80
541.29	61792.48
541.46	62220.80
541.62	62204.42
541.79	62171.65
541.96	61726.95
542.13	61492.89
542.30	61979.73
542.47	62026.54
542.63	61808.87
542.80	61476.51
542.97	61708.22
543.14	61663.75
543.31	61729.29
543.48	61895.47
543.64	62735.72
543.81	62897.22
543.98	62808.28
544.15	62405.70
544.32	61612.26
544.48	61799.50
544.65	62305.06
544.82	62571.88
544.99	62223.14
545.16	61979.73
545.32	61696.52
545.49	62213.78
545.66	62679.55
545.83	62241.87
546.00	62103.77
546.16	61874.40
546.33	61743.33
546.50	61752.69
546.67	62386.98
546.83	61808.87
547.00	61897.81
547.17	61087.98
547.34	60743.92
547.50	60722.86
547.67	61080.96
547.84	61158.20
548.00	61549.07
548.17	61918.87
548.34	61836.95
548.51	61935.26
548.67	61900.15
548.84	61965.68
549.01	61773.76
549.18	61740.99
549.34	61776.10
549.51	61759.72
549.68	61797.16
549.84	61506.94
550.01	61539.71
550.18	61244.80
550.34	61139.47
550.51	61343.10
550.68	61422.68
550.84	61003.72
551.01	61071.60
551.18	61015.43
551.34	61322.04
551.51	61726.95
551.68	61895.47
551.84	61762.06
552.01	61792.48
552.18	61645.03
552.34	60867.97
552.51	60629.24
552.68	60350.71
552.84	60907.76
553.01	61226.07
553.18	60973.30
553.34	61197.99
553.51	61354.80
553.67	61401.61
553.84	61607.58
554.01	61504.60
554.17	61326.72
554.34	61450.77
554.51	61525.66
554.67	61710.56
554.84	61553.75
555.00	61291.61
555.17	60856.27
555.33	61043.51
555.50	61116.07
555.67	61041.17
555.83	61020.11
556.00	60542.64
556.16	60561.36
556.33	60219.64
556.50	60065.17
556.66	60116.66
556.83	60074.53
556.99	60090.91
557.16	60301.56
557.32	60624.56
557.49	60643.28
557.65	60645.62
557.82	60521.57
557.98	60299.22
558.15	60067.51
558.32	59360.67
558.48	58569.57
558.65	58796.60
558.81	59030.65
558.98	59388.75
559.14	59646.21
559.31	59515.14
559.47	59791.33
559.64	59358.33
559.80	58974.48
559.97	58967.46
560.13	59351.30
560.30	60343.69
560.46	60870.31
560.63	60940.53
560.79	60933.51
560.96	60584.77
561.12	59578.34
561.29	58885.54
561.45	58768.51
561.61	59213.21
561.78	59817.07
561.94	59625.15
562.11	59550.25
562.27	59260.02
562.44	59662.60
562.60	60018.36
562.77	60058.15
562.93	60037.08
563.10	59774.94
563.26	59540.89
563.42	59657.91
563.59	59262.36
563.75	59501.10
563.92	59341.94
564.08	59327.90
564.24	59571.32
564.41	59676.64
564.57	59437.90
564.74	59185.13
564.90	59363.01
565.07	59220.23
565.23	58714.68
565.39	58307.43
565.56	58291.04
565.72	58059.33
565.88	58316.79
566.05	58337.85
566.21	58656.17
566.38	58756.81
566.54	58892.56
566.70	58974.48
566.87	59334.92
567.03	59430.88
567.19	59606.42
567.36	59229.60
567.52	59189.81
567.68	58791.92
567.85	58284.02
568.01	58028.90
568.17	57722.29
568.34	57811.23
568.50	57677.82
568.66	57989.11
568.83	58049.97
568.99	58085.07
569.15	58358.92
569.32	58356.58
569.48	58192.74
569.64	58000.82
569.81	57558.45
569.97	57537.39
570.13	57471.85
570.30	57223.76
570.46	56800.12
570.62	56362.44
570.78	56076.90
570.95	56575.43
571.11	57207.37
571.27	57230.78
571.43	57614.63
571.60	57647.39
571.76	57855.70
571.92	58225.51
572.09	58281.68
572.25	58260.62
572.41	58459.56
572.57	58040.60
572.74	58307.43
572.90	57731.65
573.06	57565.48
573.22	57584.20
573.38	57677.82
573.55	57680.16
573.71	57846.34
573.87	57645.05
574.03	57640.37
574.20	57546.75
574.36	57368.87
574.52	57106.73
574.68	57099.71
574.84	56687.78
575.01	56177.54
575.17	56322.65
575.33	56336.69
575.49	56643.30
575.65	56868.00
575.82	56839.91
575.98	56364.78
576.14	56882.04
576.30	56879.70
576.46	57188.65
576.62	56945.23
576.79	56954.60
576.95	56664.37
577.11	56659.69
577.27	56893.74
577.43	56612.88
577.59	56273.50
577.75	56236.05
577.92	55496.44
578.08	55217.92
578.24	55395.80
578.40	55636.87
578.56	55931.78
578.72	55779.65
578.88	56095.62
579.04	55971.57
579.21	56332.01
579.37	56264.14
579.53	56498.19
579.69	56535.64
579.85	56727.56
580.01	56418.61
580.17	56289.88
580.33	55786.67
580.49	55924.76
580.65	56250.09
580.82	56521.60
580.98	56470.11
581.14	56224.35
581.30	56278.18
581.46	56095.62
581.62	56439.68
581.78	56418.61
581.94	56378.82
582.10	56397.55
582.26	56498.19
582.42	56481.81
582.58	56395.21
582.74	56516.92
582.90	56507.55
583.06	56416.27
583.22	56207.97
583.38	56238.39
583.54	56261.80
583.70	56093.28
583.86	56287.54
584.02	56053.49
584.18	56154.13
584.34	56095.62
584.50	55943.48
584.66	55793.69
584.82	55643.90
584.98	55571.34
585.14	55154.72
