SpectraSuite Data File
++++++++++++++++++++++++++++++++++++
Date: Mon Oct 07 14:53:18 GMT-05:00 2013
User: price-jones
Dark Spectrum Present: No
Reference Spectrum Present: No
Number of Sampled Component Spectra: 1
Spectrometers: USB2+H05261
Integration Time (usec): 100000 (USB2+H05261)
Spectra Averaged: 1 (USB2+H05261)
Boxcar Smoothing: 0 (USB2+H05261)
Correct for Electrical Dark: No (USB2+H05261)
Strobe/Lamp Enabled: No (USB2+H05261)
Correct for Detector Non-linearity: No (USB2+H05261)
Correct for Stray Light: No (USB2+H05261)
Number of Pixels in Processed Spectrum: 2048
>>>>>Begin Processed Spectral Data<<<<<
365.73	0.00
365.92	0.00
366.12	0.00
366.32	0.00
366.52	0.00
366.72	0.00
366.91	0.00
367.11	0.00
367.31	0.00
367.51	0.00
367.70	0.00
367.90	0.00
368.10	0.00
368.30	0.00
368.49	0.00
368.69	0.00
368.89	0.00
369.09	0.00
369.28	0.00
369.48	0.00
369.68	0.00
369.87	0.00
370.07	0.00
370.27	0.00
370.47	751.31
370.66	3454.63
370.86	4079.55
371.06	4599.15
371.25	4547.66
371.45	4255.09
371.65	3707.41
371.84	3520.17
372.04	3730.81
372.24	4227.01
372.44	4262.12
372.63	4131.05
372.83	4112.32
373.03	3501.44
373.22	3239.30
373.42	3398.46
373.62	3906.35
373.81	4210.62
374.01	4198.92
374.21	3691.02
374.40	3496.76
374.60	3763.58
374.79	3981.25
374.99	4863.63
375.19	5165.56
375.38	5060.24
375.58	4762.99
375.78	4823.84
375.97	4905.76
376.17	5111.73
376.37	5043.85
376.56	5338.76
376.76	5446.43
376.95	5806.87
377.15	6209.44
377.35	6602.65
377.54	6808.62
377.74	6897.56
377.93	6862.45
378.13	6726.70
378.33	6349.87
378.52	5874.74
378.72	5689.84
378.91	5633.67
379.11	5231.10
379.31	5249.82
379.50	5165.56
379.70	5717.93
379.89	6195.40
380.09	6509.03
380.28	6806.28
380.48	6752.45
380.68	6707.98
380.87	6579.25
381.07	6043.26
381.26	5390.25
381.46	5156.20
381.65	5085.98
381.85	4901.08
382.04	4627.24
382.24	4351.06
382.43	4056.15
382.63	4065.51
382.83	4114.66
383.02	4037.42
383.22	4086.58
383.41	4131.05
383.61	4400.21
383.80	5102.37
384.00	5680.48
384.19	6452.86
384.39	6633.08
384.58	6747.76
384.78	6490.31
384.97	6626.06
385.17	6204.76
385.36	5816.23
385.56	5722.61
385.75	5832.62
385.95	6328.81
386.14	6913.94
386.34	6946.71
386.53	6490.31
386.72	6232.85
386.92	6216.46
387.11	6462.22
387.31	6881.18
387.50	6750.10
387.70	6729.04
387.89	6487.96
388.09	6813.30
388.28	6562.86
388.48	6668.19
388.67	7183.10
388.86	7875.90
389.06	8301.88
389.25	8772.33
389.45	8990.00
389.64	8812.12
389.84	8802.75
390.03	8730.20
390.22	8620.19
390.42	9074.26
390.61	9458.10
390.81	10181.33
391.00	10267.93
391.19	10204.74
391.39	9877.06
391.58	9139.79
391.78	8711.47
391.97	8800.41
392.16	7882.92
392.36	7232.26
392.55	5851.34
392.75	4681.07
392.94	3651.24
393.13	3653.58
393.33	4472.76
393.52	5734.31
393.71	7178.42
393.91	7817.39
394.10	8545.30
394.29	9352.78
394.49	9975.36
394.68	10740.72
394.88	10726.68
395.07	11068.39
395.26	11323.51
395.46	10696.25
395.65	10258.57
395.84	9081.28
396.04	7655.89
396.23	6279.66
396.42	5231.10
396.62	4877.68
396.81	5785.80
397.00	7463.97
397.19	9200.65
397.39	11068.39
397.58	12400.16
397.77	13315.31
397.97	13678.09
398.16	13832.57
398.35	14288.97
398.55	14974.75
398.74	15232.21
398.93	15719.04
399.12	15440.51
399.32	14810.91
399.51	15234.55
399.70	16271.40
399.90	15896.92
400.09	16177.78
400.28	15796.28
400.47	16250.34
400.67	16755.90
400.86	17053.14
401.05	17121.02
401.24	17081.23
401.44	17483.80
401.63	17432.31
401.82	17678.07
402.01	17568.06
402.21	17759.98
402.40	18052.55
402.59	17181.87
402.78	16521.84
402.97	16109.91
403.17	16479.71
403.36	17703.81
403.55	18300.65
403.74	18780.46
403.93	17848.93
404.13	16425.88
404.32	16149.70
404.51	17001.65
404.70	18321.71
404.89	18403.63
405.09	18050.21
405.28	17404.22
405.47	17359.75
405.66	17132.72
405.85	16793.34
406.05	16278.43
406.24	16676.32
406.43	17350.39
406.62	18216.39
406.81	17907.44
407.00	17802.11
407.20	17135.06
407.39	17268.47
407.58	18017.44
407.77	18679.82
407.96	19234.52
408.15	19735.40
408.34	19573.90
408.54	20386.07
408.73	20739.49
408.92	20346.28
409.11	19742.42
409.30	18909.19
409.49	17664.02
409.68	16816.75
409.87	16004.58
410.07	17233.36
410.26	18398.95
410.45	19597.31
410.64	20140.31
410.83	20666.93
411.02	20929.07
411.21	21989.33
411.40	21869.97
411.59	21509.52
411.78	21666.34
411.98	21125.68
412.17	21752.94
412.36	21315.26
412.55	21453.35
412.74	20826.09
412.93	20470.33
413.12	20793.32
413.31	22497.23
413.50	22841.29
413.69	22895.12
413.88	22298.28
414.07	21366.75
414.26	22099.34
414.45	22750.01
414.64	22492.55
414.83	23133.86
415.02	22630.64
415.22	22462.12
415.41	23136.20
415.60	23630.05
415.79	24748.82
415.98	25357.36
416.17	25219.27
416.36	24395.40
416.55	24163.69
416.74	23522.38
416.93	22621.28
417.12	22630.64
417.31	23049.60
417.50	23438.12
417.69	24271.36
417.88	24285.40
418.07	23838.36
418.26	23129.17
418.45	23566.85
418.64	24737.12
418.83	25556.31
419.02	24891.60
419.21	24856.49
419.39	23763.46
419.58	22508.93
419.77	22471.48
419.96	23908.57
420.15	25153.74
420.34	25900.37
420.53	26827.22
420.72	27229.79
420.91	26869.35
421.10	26742.96
421.29	26249.11
421.48	25443.96
421.67	26618.91
421.86	25876.96
422.05	24343.91
422.24	21727.19
422.43	21523.57
422.61	23875.80
422.80	25844.20
422.99	25596.10
423.18	24765.21
423.37	24479.66
423.56	24393.06
423.75	24748.82
423.94	25453.33
424.13	24011.56
424.32	24189.44
424.50	24404.77
424.69	24023.26
424.88	24144.97
425.07	24304.12
425.26	23957.72
425.45	23564.51
425.64	23241.52
425.83	23087.04
426.01	25071.82
426.20	25097.56
426.39	25085.86
426.58	23311.74
426.77	21516.54
426.96	20720.76
427.15	21488.46
427.33	23424.08
427.52	23871.12
427.71	24215.18
427.90	24067.73
428.09	23747.08
428.28	23606.64
428.46	22483.19
428.65	22190.62
428.84	22551.06
429.03	23192.37
429.22	21687.40
429.40	20886.94
429.59	19112.81
429.78	16601.42
429.97	16877.60
430.16	17069.53
430.34	17116.34
430.53	17235.70
430.72	17804.46
430.91	19220.48
431.10	22815.54
431.28	26890.41
431.47	28659.86
431.66	29090.52
431.85	26773.39
432.03	24297.10
432.22	23374.93
432.41	24435.19
432.60	27101.06
432.79	27854.72
432.97	28732.42
433.16	27847.69
433.35	25582.06
433.54	22979.38
433.72	21495.48
433.91	22616.60
434.10	25010.96
434.28	26754.66
434.47	28013.87
434.66	27814.93
434.85	27054.25
435.03	26691.47
435.22	27660.45
435.41	29170.10
435.59	29493.09
435.78	29692.04
435.97	30345.05
436.16	30567.40
436.34	29993.97
436.53	29647.57
436.72	29528.20
436.90	27999.83
437.09	27985.79
437.28	27325.75
437.46	28961.79
437.65	28451.55
437.84	26551.04
438.02	24322.85
438.21	24126.24
438.40	25729.51
438.58	27541.08
438.77	28201.11
438.96	28884.55
439.14	29972.90
439.33	30740.60
439.52	30967.63
439.70	30195.25
439.89	29802.04
440.08	28751.14
440.26	29109.24
440.45	29727.14
440.63	31241.47
440.82	33139.65
441.01	33083.47
441.19	32753.46
441.38	33244.97
441.57	34007.98
441.75	34665.67
441.94	35449.75
442.12	34775.68
442.31	35573.80
442.50	35131.44
442.68	34670.36
442.87	34260.76
443.05	33832.44
443.24	34316.93
443.43	34782.70
443.61	36077.02
443.80	36528.74
443.98	34672.70
444.17	34209.27
444.35	36105.10
444.54	36664.49
444.73	37031.96
444.91	34422.26
445.10	33362.00
445.28	32243.22
445.47	31435.74
445.65	32264.28
445.84	32765.16
446.02	34164.80
446.21	34405.88
446.39	34239.70
446.58	35028.46
446.77	35339.75
446.95	35658.06
447.14	37031.96
447.32	37682.62
447.51	36467.89
447.69	35002.71
447.88	34735.89
448.06	35536.35
448.25	36144.89
448.43	36573.21
448.62	36065.31
448.80	35639.34
448.99	35697.85
449.17	36282.98
449.36	36123.83
449.54	37221.54
449.73	37989.24
449.91	38616.50
450.10	39428.66
450.28	39934.22
450.46	39442.71
450.65	39772.72
450.83	39557.39
451.02	38670.33
451.20	38581.39
451.39	38192.86
451.57	38225.63
451.76	37827.74
451.94	37743.48
452.13	37123.24
452.31	35700.19
452.49	33689.67
452.68	34195.23
452.86	34466.73
453.05	34927.81
453.23	36053.61
453.42	36746.41
453.60	38040.73
453.78	37731.78
453.97	37858.17
454.15	37574.96
454.34	36666.83
454.52	36723.01
454.70	36622.36
454.89	36435.12
455.07	36779.18
455.26	37514.11
455.44	38799.06
455.62	39749.32
455.81	39466.11
455.99	39643.99
456.17	39131.42
456.36	39178.23
456.54	40126.14
456.73	40243.17
456.91	40779.15
457.09	40886.82
457.28	41717.71
457.46	39854.64
457.64	40086.36
457.83	38965.24
458.01	37617.09
458.19	39154.82
458.38	38916.09
458.56	40622.34
458.74	39971.67
458.93	39620.59
459.11	39093.97
459.29	39569.10
459.48	39447.39
459.66	38855.23
459.84	39648.68
460.03	39934.22
460.21	40074.65
460.39	41310.46
460.57	41368.97
460.76	41572.60
460.94	41525.78
461.12	40734.68
461.31	41453.23
461.49	40961.72
461.67	41125.55
461.85	42408.17
462.04	41942.40
462.22	42487.74
462.40	41832.39
462.59	41926.02
462.77	42033.68
462.95	41708.35
463.13	41394.71
463.32	40910.22
463.50	41191.09
463.68	40999.16
463.86	41432.16
464.05	40870.43
464.23	39971.67
464.41	39440.37
464.59	38703.10
464.78	40938.31
464.96	40957.03
465.14	40133.17
465.32	41184.07
465.50	42403.49
465.69	42384.76
465.87	41713.03
466.05	40676.17
466.23	38394.15
466.41	38183.50
466.60	38972.26
466.78	39468.45
466.96	40081.67
467.14	40715.96
467.32	41436.84
467.51	40837.67
467.69	38930.13
467.87	39812.51
468.05	40617.66
468.23	40933.63
468.41	40718.30
468.60	41256.62
468.78	41043.63
468.96	40421.05
469.14	41820.69
469.32	41675.58
469.50	39761.02
469.69	40371.90
469.87	39945.92
470.05	39920.18
470.23	39323.34
470.41	39489.52
470.59	40395.31
470.77	40636.38
470.95	41408.76
471.14	41804.31
471.32	41851.12
471.50	43859.30
471.68	44044.20
471.86	43985.69
472.04	44521.67
472.22	44718.28
472.40	42827.12
472.58	42073.47
472.77	41890.91
472.95	42806.06
473.13	43789.08
473.31	42635.20
473.49	43033.09
473.67	43988.03
473.85	44079.31
474.03	44971.05
474.21	45144.25
474.39	45453.20
474.57	45820.67
474.75	45626.40
474.93	45240.21
475.12	44369.54
475.30	44657.42
475.48	44753.38
475.66	45153.62
475.84	44528.69
476.02	44629.34
476.20	43971.64
476.38	44739.34
476.56	45844.07
476.74	46263.03
476.92	46611.77
477.10	47189.88
477.28	48193.97
477.46	48177.59
477.64	48818.89
477.82	48346.11
478.00	49095.08
478.18	48446.75
478.36	48069.92
478.54	48367.17
478.72	48222.06
478.90	49605.31
479.08	50281.73
479.26	50794.31
479.44	50408.12
479.62	50153.00
479.80	50873.88
479.98	50962.82
480.16	50789.62
480.34	50478.33
480.52	50536.85
480.70	51049.42
480.88	51093.89
481.06	51842.87
481.24	51936.49
481.41	52514.60
481.59	53258.89
481.77	52875.04
481.95	52383.53
482.13	52161.18
482.31	52271.18
482.49	53130.16
482.67	52861.00
482.85	52945.26
483.03	53586.57
483.21	53759.76
483.39	53528.05
483.57	53017.82
483.74	53006.11
483.92	53200.38
484.10	53240.17
484.28	54071.06
484.46	54344.90
484.64	54761.51
484.82	53881.47
485.00	53593.59
485.18	53109.10
485.35	52076.92
485.53	49481.27
485.71	45354.90
485.89	44776.79
486.07	47529.26
486.25	50321.52
486.43	52250.12
486.61	52973.34
486.78	52783.76
486.96	52879.72
487.14	54094.46
487.32	54911.31
487.50	55501.12
487.68	56559.05
487.85	56727.56
488.03	56727.56
488.21	56250.09
488.39	55688.37
488.57	55292.82
488.75	55084.51
488.92	55976.25
489.10	57778.46
489.28	58714.68
489.46	59168.74
489.64	59093.85
489.81	59393.43
489.99	58920.65
490.17	59126.61
490.35	59220.23
490.53	58972.14
490.70	58747.45
490.88	58489.99
491.06	59487.06
491.24	59480.03
491.41	58323.81
491.59	57270.57
491.77	56488.83
491.95	57237.80
492.13	58454.88
492.30	59292.79
492.48	60133.04
492.66	60774.35
492.84	60467.74
493.01	60299.22
493.19	59772.60
493.37	59447.27
493.54	59236.62
493.72	60020.70
493.90	60793.07
494.08	61401.61
494.25	61851.00
494.43	62042.92
494.61	62279.31
494.79	62049.94
494.96	62031.22
495.14	61467.15
495.32	60537.96
495.49	60072.19
495.67	61118.41
495.85	62218.46
496.02	62518.05
496.20	62237.19
496.38	61858.02
496.55	61836.95
496.73	62227.82
496.91	62541.45
497.09	62965.09
497.26	63145.31
497.44	62756.78
497.62	62071.01
497.79	61513.96
497.97	60371.78
498.14	60603.49
498.32	61614.60
498.50	62295.70
498.67	62848.06
498.85	62621.03
499.03	62869.13
499.20	63171.06
499.38	62997.86
499.56	62876.15
499.73	62384.64
499.91	62178.67
500.08	61900.15
500.26	61249.48
500.44	61474.17
500.61	62171.65
500.79	62010.15
500.97	61642.69
501.14	61453.11
501.32	61530.34
501.49	61464.81
501.67	61572.47
501.84	62298.04
502.02	62267.61
502.20	62539.11
502.37	62766.15
502.55	62759.12
502.72	63409.79
502.90	63667.25
503.07	63157.02
503.25	63028.29
503.43	62377.62
503.60	61724.61
503.78	61366.51
503.95	61600.56
504.13	62965.09
504.30	63536.18
504.48	63288.09
504.65	63065.73
504.83	63140.63
505.01	63650.87
505.18	63859.18
505.36	64509.85
505.53	64484.10
505.71	64914.76
505.88	64690.07
506.06	63950.46
506.23	63927.05
506.41	63529.16
506.58	63749.17
506.76	63758.53
506.93	63599.38
507.11	63472.99
507.28	63573.63
507.46	63166.38
507.63	62681.89
507.81	62590.61
507.98	62822.32
508.16	63351.28
508.33	63793.64
508.50	64238.34
508.68	64313.24
508.85	64999.02
509.03	64800.07
509.20	64570.70
509.38	63941.10
509.55	63213.19
509.73	63636.83
509.90	63880.24
510.08	64273.45
510.25	64102.59
510.42	63781.94
510.60	63877.90
510.77	64240.68
510.95	64676.02
511.12	64769.64
511.30	64926.46
511.47	65186.26
511.64	65153.49
511.82	64877.31
511.99	64292.18
512.17	63749.17
512.34	63599.38
512.51	63728.11
512.69	63714.06
512.86	63758.53
513.04	64231.32
513.21	64301.54
513.38	63917.69
513.56	63564.27
513.73	63065.73
513.90	62981.48
514.08	63178.08
514.25	63564.27
514.43	63910.67
514.60	63597.04
514.77	63856.84
514.95	63962.16
515.12	63905.99
515.29	64072.17
515.47	64521.55
515.64	64746.24
515.81	64327.28
515.99	63880.24
516.16	62677.21
516.33	60537.96
516.51	59552.59
516.68	58880.86
516.85	58305.09
517.03	58796.60
517.20	61099.68
517.37	63224.89
517.54	63927.05
517.72	63585.33
517.89	61476.51
518.06	59435.56
518.24	59880.27
518.41	61675.46
518.58	62768.49
518.75	62845.72
518.93	63114.89
519.10	62894.88
519.27	63442.56
519.45	63716.40
519.62	64364.73
519.79	64626.87
519.96	64317.92
520.14	63969.18
520.31	63084.46
520.48	63217.87
520.65	63568.95
520.83	64416.22
521.00	64605.81
521.17	64402.18
521.34	63913.01
521.52	64362.39
521.69	64846.88
521.86	65139.45
522.03	64945.18
522.20	63838.11
522.38	62752.10
522.55	63018.92
522.72	63494.05
522.89	63559.59
523.07	63884.92
523.24	64140.04
523.41	64874.97
523.58	65111.36
523.75	65432.02
523.92	65268.18
524.10	65354.78
524.27	65247.11
524.44	65151.15
524.61	65024.76
524.78	64818.80
524.96	64704.11
525.13	64823.48
525.30	65041.15
525.47	65347.76
525.64	65263.50
525.81	64661.98
525.98	63299.79
526.16	62209.10
526.33	61502.26
526.50	61261.18
526.67	61181.60
526.84	61677.80
527.01	62424.43
527.18	63054.03
527.36	64058.12
527.53	64736.88
527.70	64975.61
527.87	64334.31
528.04	63950.46
528.21	64425.59
528.38	64975.61
528.55	65535.00
528.72	65535.00
528.89	65535.00
529.07	65535.00
529.24	65027.10
529.41	64413.88
529.58	64079.19
529.75	64161.11
529.92	64610.49
530.09	64874.97
530.26	65336.05
530.43	65535.00
530.60	65535.00
530.77	65535.00
530.94	65535.00
531.11	65535.00
531.28	65162.85
531.46	64755.60
531.63	65221.37
531.80	65031.78
531.97	64741.56
532.14	63800.66
532.31	63051.69
532.48	62546.14
532.65	62583.58
532.82	63461.29
532.99	64320.26
533.16	64638.57
533.33	65132.43
533.50	64879.65
533.67	64364.73
533.84	63922.37
534.01	64147.06
534.18	64404.52
534.35	64575.38
534.52	64416.22
534.69	64685.39
534.86	65022.42
535.03	65223.71
535.20	65535.00
535.37	65535.00
535.54	65535.00
535.71	65535.00
535.88	65312.65
536.05	64783.69
536.22	64301.54
536.38	64151.74
536.55	63639.17
536.72	63206.17
536.89	63147.65
537.06	63898.97
537.23	64771.99
537.40	64809.43
537.57	64839.86
537.74	64633.89
537.91	64495.80
538.08	64491.12
538.25	64626.87
538.42	64797.73
538.59	64568.36
538.75	64015.99
538.92	63950.46
539.09	63770.24
539.26	63655.55
539.43	63374.69
539.60	63601.72
539.77	63552.57
539.94	63515.12
540.11	62934.66
540.28	62496.98
540.44	62625.71
540.61	62646.78
540.78	62918.28
540.95	63299.79
541.12	63643.85
541.29	63962.16
541.46	63994.93
541.62	64200.89
541.79	64030.04
541.96	63646.19
542.13	63653.21
542.30	63852.15
542.47	64072.17
542.63	63721.08
542.80	63568.95
542.97	63838.11
543.14	63559.59
543.31	63571.29
543.48	64060.46
543.64	64755.60
543.81	65097.32
543.98	64886.67
544.15	64186.85
544.32	63669.59
544.48	63601.72
544.65	64261.75
544.82	64486.44
544.99	64231.32
545.16	63756.19
545.32	63760.87
545.49	64355.37
545.66	64683.04
545.83	64189.19
546.00	64074.51
546.16	63898.97
546.33	63826.41
546.50	63873.22
546.67	64135.36
546.83	63854.50
547.00	63735.13
547.17	63229.57
547.34	62749.76
547.50	62831.68
547.67	63161.70
547.84	63164.04
548.00	63529.16
548.17	63814.71
548.34	63856.84
548.51	63908.33
548.67	63774.92
548.84	64053.44
549.01	64046.42
549.18	63552.57
549.34	63812.37
549.51	63702.36
549.68	63632.14
549.84	63519.80
550.01	63421.50
550.18	63215.53
550.34	63295.11
550.51	63482.35
550.68	63643.85
550.84	63065.73
551.01	63276.38
551.18	63327.87
551.34	63271.70
551.51	63622.78
551.68	63767.90
551.84	63875.56
552.01	63671.93
552.18	63533.84
552.34	62848.06
552.51	62752.10
552.68	62625.71
552.84	62836.36
553.01	63063.39
553.18	63189.78
553.34	63309.15
553.51	63388.73
553.67	63568.95
553.84	63629.80
554.01	63587.67
554.17	63306.81
554.34	63585.33
554.51	63550.23
554.67	63800.66
554.84	63540.86
555.00	63278.72
555.17	63002.54
555.33	63075.10
555.50	63121.91
555.67	63318.51
555.83	63098.50
556.00	62780.19
556.16	62915.94
556.33	62599.97
556.50	62244.21
556.66	62534.43
556.83	62253.57
556.99	62288.68
557.16	62365.91
557.32	62787.21
557.49	62812.96
557.65	62581.24
557.82	62501.67
557.98	62649.12
558.15	62136.54
558.32	61249.48
558.48	60699.45
558.65	61085.64
558.81	61443.74
558.98	61645.03
559.14	61766.74
559.31	61820.57
559.47	61738.65
559.64	61537.36
559.80	61343.10
559.97	61307.99
560.13	61752.69
560.30	62604.65
560.46	62831.68
560.63	62941.69
560.79	63107.86
560.96	62803.59
561.12	61773.76
561.29	61027.13
561.45	61080.96
561.61	61607.58
561.78	62063.99
561.94	61785.46
562.11	61759.72
562.27	61766.74
562.44	61972.70
562.60	62134.20
562.77	62480.60
562.93	62106.12
563.10	62085.05
563.26	61783.12
563.42	61504.60
563.59	61630.99
563.75	61443.74
563.92	61666.09
564.08	61528.00
564.24	61928.23
564.41	61853.34
564.57	61745.67
564.74	61666.09
564.90	61787.80
565.07	61197.99
565.23	61095.00
565.39	60479.44
565.56	60472.42
565.72	60313.26
565.88	60516.89
566.05	60643.28
566.21	61010.74
566.38	61010.74
566.54	61322.04
566.70	61359.48
566.87	61724.61
567.03	61607.58
567.19	61652.05
567.36	61506.94
567.52	61418.00
567.68	61155.86
567.85	60690.09
568.01	60324.97
568.17	60142.41
568.34	60126.02
568.50	60074.53
568.66	60069.85
568.83	60413.91
568.99	60427.95
569.15	60795.42
569.32	60774.35
569.48	60493.49
569.64	60210.28
569.81	60048.78
569.97	60058.15
570.13	59807.71
570.30	59426.20
570.46	59075.12
570.62	58749.79
570.78	58590.63
570.95	58890.22
571.11	59379.39
571.27	59735.15
571.43	59873.24
571.60	60161.13
571.76	60247.73
571.92	60498.17
572.09	60680.73
572.25	60626.90
572.41	60502.85
572.57	60388.16
572.74	60336.67
572.90	60046.44
573.06	60013.68
573.22	59929.42
573.38	60207.94
573.55	60090.91
573.71	60315.61
573.87	60135.38
574.03	60004.31
574.20	59765.58
574.36	59503.44
574.52	59550.25
574.68	59398.12
574.84	58990.86
575.01	58766.17
575.17	58578.93
575.33	58995.54
575.49	59224.92
575.65	59248.32
575.82	58983.84
575.98	58918.31
576.14	59173.42
576.30	59465.99
576.46	59526.84
576.62	59358.33
576.79	59260.02
576.95	59161.72
577.11	58983.84
577.27	59035.33
577.43	59288.11
577.59	58667.87
577.75	58548.50
577.92	57928.26
578.08	57886.13
578.24	57836.98
578.40	58143.59
578.56	58361.26
578.72	58431.47
578.88	58672.55
579.04	58869.15
579.21	58883.20
579.37	58848.09
579.53	58901.92
579.69	58880.86
579.85	58983.84
580.01	58944.05
580.17	58454.88
580.33	58384.66
580.49	58447.86
580.65	58698.30
580.82	58925.33
580.98	58705.32
581.14	58515.73
581.30	58852.77
581.46	58576.59
581.62	59009.59
581.78	58878.52
581.94	59114.91
582.10	58990.86
582.26	59002.56
582.42	58990.86
582.58	59114.91
582.74	58684.25
582.90	59079.80
583.06	59023.63
583.22	58639.78
583.38	58705.32
583.54	58518.07
583.70	58642.12
583.86	58532.12
584.02	58564.88
584.18	58649.14
584.34	58541.48
584.50	58592.97
584.66	58365.94
584.82	57975.07
584.98	58007.84
585.14	57780.81
