SpectraSuite Data File
++++++++++++++++++++++++++++++++++++
Date: Mon Oct 07 14:53:16 GMT-05:00 2013
User: price-jones
Dark Spectrum Present: No
Reference Spectrum Present: No
Number of Sampled Component Spectra: 1
Spectrometers: USB2+H05261
Integration Time (usec): 100000 (USB2+H05261)
Spectra Averaged: 1 (USB2+H05261)
Boxcar Smoothing: 0 (USB2+H05261)
Correct for Electrical Dark: No (USB2+H05261)
Strobe/Lamp Enabled: No (USB2+H05261)
Correct for Detector Non-linearity: No (USB2+H05261)
Correct for Stray Light: No (USB2+H05261)
Number of Pixels in Processed Spectrum: 2048
>>>>>Begin Processed Spectral Data<<<<<
365.73	0.00
365.92	0.00
366.12	0.00
366.32	0.00
366.52	0.00
366.72	0.00
366.91	0.00
367.11	0.00
367.31	0.00
367.51	0.00
367.70	0.00
367.90	0.00
368.10	0.00
368.30	0.00
368.49	0.00
368.69	0.00
368.89	0.00
369.09	0.00
369.28	0.00
369.48	0.00
369.68	0.00
369.87	0.00
370.07	0.00
370.27	0.00
370.47	833.23
370.66	3665.28
370.86	4409.57
371.06	4777.03
371.25	4669.37
371.45	4189.56
371.65	3798.69
371.84	3595.06
372.04	3660.60
372.24	4079.55
372.44	4355.74
372.63	4311.27
372.83	3927.42
373.03	3454.63
373.22	3253.34
373.42	3407.82
373.62	3927.42
373.81	4313.61
374.01	4205.94
374.21	3761.24
374.40	3527.19
374.60	3707.41
374.79	3999.98
374.99	4802.78
375.19	5313.02
375.38	5254.50
375.58	4901.08
375.78	4774.69
375.97	4863.63
376.17	5074.28
376.37	4943.21
376.56	5254.50
376.76	5500.26
376.95	5891.13
377.15	6228.17
377.35	6565.20
377.54	6815.64
377.74	6979.48
377.93	6963.09
378.13	6722.02
378.33	6361.58
378.52	6097.10
378.72	5755.38
378.91	5556.43
379.11	5392.59
379.31	5305.99
379.50	5188.97
379.70	5640.69
379.89	6279.66
380.09	6623.72
380.28	6857.77
380.48	6867.13
380.68	6637.76
380.87	6188.38
381.07	6061.99
381.26	5516.64
381.46	5177.26
381.65	5081.30
381.85	4926.83
382.04	4774.69
382.24	4304.25
382.43	4212.96
382.63	4133.39
382.83	4086.58
383.02	3967.21
383.22	4112.32
383.41	4079.55
383.61	4397.87
383.80	5100.03
384.00	5834.96
384.19	6361.58
384.39	6792.23
384.58	6801.60
384.78	6539.46
384.97	6523.07
385.17	6136.88
385.36	5877.09
385.56	5570.48
385.75	5738.99
385.95	6260.93
386.14	6881.18
386.34	7056.72
386.53	6560.52
386.72	6207.10
386.92	6204.76
387.11	6562.86
387.31	6719.68
387.50	6768.83
387.70	6480.94
387.89	6450.52
388.09	6464.56
388.28	6436.47
388.48	6520.73
388.67	7246.30
388.86	7836.11
389.06	8393.16
389.25	8627.21
389.45	8840.20
389.64	8894.04
389.84	8748.92
390.03	8606.15
390.22	8524.23
390.42	8894.04
390.61	9465.13
390.81	10148.56
391.00	10366.23
391.19	10256.23
391.39	9781.10
391.58	9366.82
391.78	8716.16
391.97	8479.76
392.16	7915.69
392.36	7197.15
392.55	5799.85
392.75	4629.58
392.94	3803.37
393.13	3826.78
393.33	4615.54
393.52	5841.98
393.71	6984.16
393.91	8028.04
394.10	8573.38
394.29	9378.53
394.49	9961.32
394.68	10745.40
394.88	10717.31
395.07	11169.04
395.26	11393.73
395.46	10569.86
395.65	9914.51
395.84	9062.55
396.04	7468.65
396.23	6111.14
396.42	5160.88
396.62	5046.20
396.81	5781.12
397.00	7470.99
397.19	9247.46
397.39	11159.67
397.58	12727.83
397.77	13315.31
397.97	13710.86
398.16	13666.39
398.35	14445.79
398.55	14508.98
398.74	15260.29
398.93	15534.14
399.12	15389.02
399.32	14658.78
399.51	15246.25
399.70	16093.52
399.90	15964.79
400.09	15840.75
400.28	15925.00
400.47	16173.10
400.67	16446.94
400.86	16898.67
401.05	17046.12
401.24	17186.55
401.44	17598.49
401.63	17659.34
401.82	17488.48
402.01	17413.59
402.21	17717.86
402.40	17858.29
402.59	17310.60
402.78	16524.18
402.97	16009.26
403.17	16795.68
403.36	17724.88
403.55	18558.11
403.74	18417.68
403.93	17874.67
404.13	16720.79
404.32	16198.85
404.51	17046.12
404.70	18207.03
404.89	17963.61
405.09	18043.19
405.28	17577.42
405.47	17359.75
405.66	17209.96
405.85	16786.32
406.05	16350.98
406.24	16659.93
406.43	17348.05
406.62	17752.96
406.81	18017.44
407.00	17439.33
407.20	17284.86
407.39	17671.04
407.58	18295.97
407.77	18572.15
407.96	18988.77
408.15	19939.02
408.34	19585.60
408.54	20709.06
408.73	20753.53
408.92	20372.02
409.11	19672.20
409.30	18771.10
409.49	17771.69
409.68	16486.73
409.87	16194.17
410.07	17397.20
410.26	18448.10
410.45	19735.40
410.64	20027.96
410.83	20779.28
411.02	21137.38
411.21	22277.22
411.40	21647.61
411.59	21907.41
411.78	21837.20
411.98	21305.90
412.17	21724.85
412.36	21226.32
412.55	21399.52
412.74	20851.83
412.93	20622.46
413.12	20498.41
413.31	22780.43
413.50	22916.19
413.69	23030.87
413.88	22394.25
414.07	21530.59
414.26	22080.61
414.45	22995.76
414.64	22799.16
414.83	22820.22
415.02	22466.80
415.22	22427.01
415.41	23332.80
415.60	23693.24
415.79	24638.82
415.98	25275.45
416.17	25219.27
416.36	24297.10
416.55	23997.51
416.74	23288.33
416.93	22401.27
417.12	22810.86
417.31	22794.48
417.50	23403.02
417.69	24027.94
417.88	24290.08
418.07	23807.93
418.26	23456.85
418.45	23885.17
418.64	24680.95
418.83	25479.07
419.02	25553.97
419.21	25078.84
419.39	23871.12
419.58	22801.50
419.77	22668.09
419.96	23768.14
420.15	25069.48
420.34	25862.92
420.53	26679.77
420.72	27253.20
420.91	27080.00
421.10	26469.12
421.29	26670.40
421.48	25546.95
421.67	26822.54
421.86	25680.36
422.05	24421.15
422.24	21834.86
422.43	21876.99
422.61	23929.64
422.80	25935.48
422.99	25841.85
423.18	25039.05
423.37	24437.53
423.56	24666.91
423.75	24931.39
423.94	25940.16
424.13	24128.58
424.32	24245.61
424.50	24636.48
424.69	24285.40
424.88	24161.35
425.07	23983.47
425.26	24053.69
425.45	23634.73
425.64	23344.50
425.83	23468.55
426.01	25289.49
426.20	25521.20
426.39	25139.69
426.58	23194.71
426.77	21689.74
426.96	20889.28
427.15	21694.43
427.33	23592.60
427.52	24390.72
427.71	24556.90
427.90	24505.41
428.09	23964.75
428.28	23585.58
428.46	22501.91
428.65	22424.67
428.84	23028.53
429.03	23358.55
429.22	21996.35
429.40	21092.91
429.59	18640.03
429.78	16751.21
429.97	16779.30
430.16	17219.32
430.34	17462.74
430.53	17116.34
430.72	17329.33
430.91	19620.71
431.10	23105.77
431.28	27264.90
431.47	29003.92
431.66	29116.26
431.85	26881.05
432.03	24542.86
432.22	23468.55
432.41	24577.97
432.60	27065.96
432.79	28126.22
432.97	28685.61
433.16	28397.72
433.35	25266.08
433.54	23302.37
433.72	21855.92
433.91	22925.55
434.10	25104.59
434.28	27082.34
434.47	28114.52
434.66	27948.34
434.85	27529.38
435.03	27049.57
435.22	27896.85
435.41	29436.92
435.59	29474.37
435.78	29816.08
435.97	30733.57
436.16	30876.35
436.34	30286.53
436.53	29521.18
436.72	30031.41
436.90	28215.16
437.09	28290.06
437.28	27559.81
437.46	28409.42
437.65	28629.43
437.84	26448.05
438.02	24383.70
438.21	24240.93
438.40	25467.37
438.58	27796.20
438.77	28561.56
438.96	28746.46
439.14	30218.66
439.33	30979.33
439.52	30904.43
439.70	30204.61
439.89	29769.27
440.08	28966.47
440.26	28687.95
440.45	30396.54
440.63	32411.74
440.82	33589.03
441.01	33244.97
441.19	32547.49
441.38	33347.95
441.57	34756.96
441.75	35096.33
441.94	34866.96
442.12	34813.13
442.31	35407.62
442.50	35606.57
442.68	35325.71
442.87	34951.22
443.05	34099.26
443.24	35079.95
443.43	35566.78
443.61	36301.71
443.80	36538.10
443.98	34239.70
444.17	34693.76
444.35	36264.26
444.54	37060.04
444.73	36353.20
444.91	34941.86
445.10	33635.84
445.28	32238.54
445.47	31742.35
445.65	32573.24
445.84	33394.76
446.02	33968.19
446.21	34726.53
446.39	34752.27
446.58	34995.69
446.77	35688.49
446.95	36126.17
447.14	37460.27
447.32	37661.56
447.51	36811.95
447.69	35683.81
447.88	35496.56
448.06	35625.29
448.25	36704.28
448.43	36741.73
448.62	35716.58
448.80	35885.09
448.99	36222.13
449.17	36437.46
449.36	35763.39
449.54	37640.50
449.73	38501.81
449.91	38794.38
450.10	39964.65
450.28	39859.32
450.46	39885.07
450.65	39962.31
450.83	39842.94
451.02	38733.53
451.20	38574.37
451.39	38686.71
451.57	38731.18
451.76	38354.36
451.94	37951.79
452.13	37235.58
452.31	36177.66
452.49	33659.24
452.68	34766.32
452.86	34873.98
453.05	35000.37
453.23	36627.04
453.42	37310.48
453.60	38220.95
453.78	38419.89
453.97	38047.75
454.15	37928.38
454.34	37214.52
454.52	37137.28
454.70	36493.63
454.89	36959.40
455.07	37109.19
455.26	37558.58
455.44	38998.01
455.62	39604.20
455.81	40203.38
455.99	39414.62
456.17	38885.66
456.36	39636.97
456.54	40589.57
456.73	40582.55
456.91	41191.09
457.09	41212.15
457.28	41808.99
457.46	40105.08
457.64	39941.24
457.83	38899.70
458.01	38249.03
458.19	38939.49
458.38	39384.19
458.56	40767.45
458.74	40289.98
458.93	39988.05
459.11	39948.26
459.29	39641.65
459.48	39779.74
459.66	39049.50
459.84	40203.38
460.03	40399.99
460.21	40105.08
460.39	41420.46
460.57	41532.81
460.76	41780.90
460.94	42146.03
461.12	41570.25
461.31	41364.29
461.49	41329.18
461.67	41134.92
461.85	42756.91
462.04	42295.82
462.22	42916.06
462.40	42312.20
462.59	42234.97
462.77	42663.28
462.95	42438.59
463.13	41933.04
463.32	41422.80
463.50	41408.76
463.68	41542.17
463.86	41413.44
464.05	40842.35
464.23	40093.38
464.41	39866.34
464.59	39304.62
464.78	41422.80
464.96	41406.42
465.14	40563.82
465.32	41738.77
465.50	42705.41
465.69	42789.67
465.87	42094.53
466.05	40950.01
466.23	39433.35
466.41	38185.84
466.60	40481.91
466.78	39597.18
466.96	40081.67
467.14	40832.99
467.32	41560.89
467.51	41542.17
467.69	39606.55
467.87	40559.14
468.05	41031.93
468.23	41188.75
468.41	41132.57
468.60	41471.95
468.78	41488.34
468.96	41418.12
469.14	41907.29
469.32	42026.66
469.50	40655.11
469.69	40751.07
469.87	40491.27
470.05	40229.13
470.23	40013.80
470.41	40526.38
470.59	40774.47
470.77	41331.52
470.95	41830.05
471.14	42253.69
471.32	42501.79
471.50	44603.59
471.68	44360.17
471.86	45214.47
472.04	45027.23
472.22	45071.70
472.40	43126.71
472.58	42862.23
472.77	42363.70
472.95	43421.62
473.13	44299.32
473.31	43103.31
473.49	43433.32
473.67	43936.54
473.85	44619.97
474.03	45127.87
474.21	45675.55
474.39	46078.13
474.57	45778.54
474.75	46143.66
474.93	45652.15
475.12	44634.02
475.30	44835.30
475.48	45153.62
475.66	45750.45
475.84	45317.45
476.02	44978.07
476.20	44301.66
476.38	45324.47
476.56	46445.59
476.74	46934.76
476.92	46717.09
477.10	47756.29
477.28	48486.54
477.46	48664.42
477.64	49233.17
477.82	49427.43
478.00	49502.33
478.18	48704.21
478.36	48561.44
478.54	48837.62
478.72	49097.42
478.90	49764.47
479.08	50855.16
479.26	51444.98
479.44	50850.48
479.62	51091.55
479.80	50836.44
479.98	51496.47
480.16	51185.18
480.34	50815.37
480.52	51180.49
480.70	51468.38
480.88	51594.77
481.06	51959.89
481.24	52608.22
481.41	53294.00
481.59	53778.49
481.77	53249.53
481.95	52945.26
482.13	52704.18
482.31	52762.70
482.49	53829.98
482.67	53450.81
482.85	53343.15
483.03	53893.18
483.21	54141.27
483.39	54314.47
483.57	53532.73
483.74	53258.89
483.92	53872.11
484.10	53748.06
484.28	54508.74
484.46	54602.36
484.64	54953.44
484.82	54225.53
485.00	54145.95
485.18	53724.66
485.35	52568.43
485.53	49780.85
485.71	46206.86
485.89	45855.78
486.07	47866.30
486.25	50862.18
486.43	52968.66
486.61	53399.32
486.78	53296.34
486.96	53478.90
487.14	54663.21
487.32	55206.22
487.50	56282.86
487.68	56598.83
487.85	57190.99
488.03	57010.77
488.21	56577.77
488.39	56229.03
488.57	55896.67
488.75	55433.25
488.92	56219.67
489.10	58162.31
489.28	59124.27
489.46	59725.79
489.64	59353.65
489.81	59430.88
489.99	59292.79
490.17	59372.37
490.35	59496.42
490.53	59285.77
490.70	59082.14
490.88	58759.15
491.06	59721.11
491.24	59634.51
491.41	58836.39
491.59	57457.81
491.77	56978.00
491.95	58035.92
492.13	58623.40
492.30	59845.16
492.48	60638.60
492.66	60966.27
492.84	60846.91
493.01	60549.66
493.19	60346.03
493.37	59887.29
493.54	59824.09
493.72	60343.69
493.90	61120.75
494.08	61619.28
494.25	61986.75
494.43	62260.59
494.61	62354.21
494.79	62585.92
494.96	62173.99
495.14	61890.79
495.32	61050.53
495.49	60645.62
495.67	61567.79
495.85	62686.57
496.02	62848.06
496.20	62724.02
496.38	62401.02
496.55	62269.95
496.73	62733.38
496.91	62702.95
497.09	63379.37
497.26	63697.68
497.44	63002.54
497.62	62396.34
497.79	61862.70
497.97	60849.25
498.14	61113.73
498.32	61996.11
498.50	62735.72
498.67	63238.93
498.85	63037.65
499.03	63065.73
499.20	63472.99
499.38	63451.92
499.56	63379.37
499.73	62929.98
499.91	62450.17
500.08	62262.93
500.26	61567.79
500.44	61982.07
500.61	62663.16
500.79	62316.76
500.97	61895.47
501.14	61862.70
501.32	61829.93
501.49	61897.81
501.67	62166.97
501.84	62553.16
502.02	62791.89
502.20	62894.88
502.37	63107.86
502.55	63274.04
502.72	63711.72
502.90	64154.08
503.07	63758.53
503.25	63566.61
503.43	62733.38
503.60	62171.65
503.78	61745.67
503.95	62162.29
504.13	63353.62
504.30	63938.75
504.48	63922.37
504.65	63365.32
504.83	63536.18
505.01	64011.31
505.18	64306.22
505.36	64912.42
505.53	64860.93
505.71	65024.76
505.88	65001.36
506.06	64526.23
506.23	64275.79
506.41	63973.86
506.58	64243.02
506.76	64261.75
506.93	64032.38
507.11	63934.07
507.28	63966.84
507.46	63714.06
507.63	63117.23
507.81	62995.52
507.98	63161.70
508.16	63723.43
508.33	64233.66
508.50	64542.61
508.68	64903.06
508.85	65368.82
509.03	65254.14
509.20	65006.04
509.38	64568.36
509.55	63973.86
509.73	64030.04
509.90	64413.88
510.08	64559.00
510.25	64512.19
510.42	64282.81
510.60	64182.17
510.77	64587.08
510.95	65038.81
511.12	65141.79
511.30	65520.96
511.47	65535.00
511.64	65535.00
511.82	65282.22
511.99	64678.36
512.17	64427.93
512.34	63987.91
512.51	64140.04
512.69	64228.98
512.86	64322.60
513.04	64654.96
513.21	64725.17
513.38	64418.56
513.56	63716.40
513.73	63416.82
513.90	63636.83
514.08	63625.12
514.25	63875.56
514.43	64207.92
514.60	64383.46
514.77	64437.29
514.95	64530.91
515.12	64259.41
515.29	64535.59
515.47	64905.40
515.64	65113.70
515.81	64893.69
515.99	64189.19
516.16	63096.16
516.33	61350.12
516.51	60072.19
516.68	59416.84
516.85	59011.93
517.03	59508.12
517.20	61759.72
517.37	63674.27
517.54	64519.21
517.72	64037.06
517.89	61932.92
518.06	59948.14
518.24	60519.23
518.41	62155.27
518.58	63290.43
518.75	63374.69
518.93	63597.04
519.10	63540.86
519.27	64044.08
519.45	64179.83
519.62	64638.57
519.79	64867.95
519.96	64917.10
520.14	64320.26
520.31	63688.32
520.48	63756.19
520.65	63920.03
520.83	64935.82
521.00	65282.22
521.17	64823.48
521.34	64456.01
521.52	64935.82
521.69	65209.67
521.86	65535.00
522.03	65340.74
522.20	64289.84
522.38	63550.23
522.55	63571.29
522.72	64102.59
522.89	64044.08
523.07	64378.78
523.24	64594.10
523.41	65382.87
523.58	65523.30
523.75	65535.00
523.92	65535.00
524.10	65535.00
524.27	65535.00
524.44	65535.00
524.61	65439.04
524.78	65347.76
524.96	65233.07
525.13	65289.24
525.30	65535.00
525.47	65535.00
525.64	65535.00
525.81	65256.48
525.98	63955.14
526.16	62801.25
526.33	62171.65
526.50	61808.87
526.67	61425.02
526.84	62298.04
527.01	62932.32
527.18	63571.29
527.36	64537.93
527.53	65361.80
527.70	65504.57
527.87	64961.57
528.04	64376.43
528.21	65109.02
528.38	65535.00
528.55	65535.00
528.72	65535.00
528.89	65535.00
529.07	65535.00
529.24	65535.00
529.41	64896.03
529.58	64448.99
529.75	64704.11
529.92	65179.24
530.09	65535.00
530.26	65535.00
530.43	65535.00
530.60	65535.00
530.77	65535.00
530.94	65535.00
531.11	65535.00
531.28	65535.00
531.46	65469.46
531.63	65535.00
531.80	65535.00
531.97	65214.35
532.14	64367.07
532.31	63519.80
532.48	63245.96
532.65	63100.84
532.82	63683.64
532.99	64818.80
533.16	65130.09
533.33	65535.00
533.50	65502.23
533.67	64938.16
533.84	64540.27
534.01	64729.86
534.18	64790.71
534.35	65148.81
534.52	64926.46
534.69	65176.90
534.86	65403.93
535.03	65535.00
535.20	65535.00
535.37	65535.00
535.54	65535.00
535.71	65535.00
535.88	65535.00
536.05	65289.24
536.22	64830.50
536.38	64706.45
536.55	64245.36
536.72	63676.61
536.89	63788.96
537.06	64673.68
537.23	65204.98
537.40	65443.72
537.57	65432.02
537.74	65354.78
537.91	65176.90
538.08	65235.41
538.25	65167.54
538.42	65223.71
538.59	65130.09
538.75	64580.06
538.92	64495.80
539.09	64320.26
539.26	64224.30
539.43	63936.41
539.60	64196.21
539.77	64306.22
539.94	64135.36
540.11	63409.79
540.28	63075.10
540.44	63182.76
540.61	63355.96
540.78	63451.92
540.95	63980.88
541.12	64182.17
541.29	64713.47
541.46	64715.81
541.62	64800.07
541.79	64575.38
541.96	64158.76
542.13	64100.25
542.30	64306.22
542.47	64713.47
542.63	64261.75
542.80	64161.11
542.97	64268.77
543.14	64346.01
543.31	64259.41
543.48	64678.36
543.64	65371.16
543.81	65535.00
543.98	65357.12
544.15	64640.92
544.32	64282.81
544.48	64456.01
544.65	64980.29
544.82	65219.03
544.99	64755.60
545.16	64495.80
545.32	64341.33
545.49	64996.68
545.66	65268.18
545.83	65031.78
546.00	64793.05
546.16	64301.54
546.33	64441.97
546.50	64577.72
546.67	65010.72
546.83	64463.03
547.00	64505.16
547.17	64018.33
547.34	63362.98
547.50	63597.04
547.67	63948.12
547.84	63828.75
548.00	64154.08
548.17	64542.61
548.34	64488.78
548.51	64397.50
548.67	64530.91
548.84	64575.38
549.01	64551.98
549.18	64474.74
549.34	64238.34
549.51	64322.60
549.68	64172.81
549.84	64118.98
550.01	64039.40
550.18	64048.76
550.34	64020.67
550.51	64011.31
550.68	64170.47
550.84	63805.34
551.01	63882.58
551.18	63866.20
551.34	63903.65
551.51	64390.48
551.68	64336.65
551.84	64423.25
552.01	64334.31
552.18	64177.49
552.34	63615.76
552.51	63248.30
552.68	63220.21
552.84	63674.27
553.01	63959.82
553.18	63866.20
553.34	63891.94
553.51	63962.16
553.67	64228.98
553.84	64498.14
554.01	64221.96
554.17	64102.59
554.34	64032.38
554.51	64338.99
554.67	64470.06
554.84	64420.90
555.00	63966.84
555.17	63959.82
555.33	63824.07
555.50	63803.00
555.67	63730.45
555.83	63550.23
556.00	63370.00
556.16	63571.29
556.33	63004.88
556.50	63058.71
556.66	62983.82
556.83	62887.85
556.99	62915.94
557.16	63018.92
557.32	63344.26
557.49	63547.89
557.65	63260.00
557.82	63274.04
557.98	63323.19
558.15	62625.71
558.32	62281.66
558.48	61563.11
558.65	61804.19
558.81	62129.52
558.98	62202.08
559.14	62555.50
559.31	62550.82
559.47	62447.83
559.64	62265.27
559.80	61956.32
559.97	62045.26
560.13	62274.63
560.30	63164.04
560.46	63580.65
560.63	63845.13
560.79	63674.27
560.96	63398.09
561.12	62368.26
561.29	61663.75
561.45	61888.45
561.61	62405.70
561.78	62719.34
561.94	62475.92
562.11	62506.35
562.27	62305.06
562.44	62468.90
562.60	62709.97
562.77	63147.65
562.93	62789.55
563.10	62897.22
563.26	62344.85
563.42	62482.94
563.59	62302.72
563.75	62284.00
563.92	62419.75
564.08	62286.34
564.24	62637.42
564.41	62632.74
564.57	62515.71
564.74	62342.51
564.90	62370.60
565.07	62078.03
565.23	61696.52
565.39	61366.51
565.56	61167.56
565.72	60898.40
565.88	61399.27
566.05	61546.73
566.21	61712.91
566.38	61743.33
566.54	61654.39
566.70	62028.88
566.87	62309.74
567.03	62230.16
567.19	62487.62
567.36	62183.35
567.52	62075.69
567.68	61939.94
567.85	61319.70
568.01	61193.31
568.17	60769.67
568.34	60774.35
568.50	60720.52
568.66	60959.25
568.83	61228.41
568.99	61087.98
569.15	61481.19
569.32	61439.06
569.48	61130.11
569.64	60919.46
569.81	60779.03
569.97	60706.47
570.13	60591.79
570.30	60186.88
570.46	60060.49
570.62	59409.82
570.78	59110.23
570.95	59580.68
571.11	60252.41
571.27	60392.84
571.43	60500.51
571.60	60954.57
571.76	61111.39
571.92	61179.26
572.09	61329.06
572.25	61193.31
572.41	61249.48
572.57	61125.43
572.74	61272.88
572.90	60844.57
573.06	60535.62
573.22	60896.06
573.38	61151.18
573.55	60898.40
573.71	60956.91
573.87	60942.87
574.03	60659.66
574.20	60739.24
574.36	60381.14
574.52	60259.43
574.68	60238.37
574.84	59587.70
575.01	59517.48
575.17	59646.21
575.33	59908.35
575.49	59938.78
575.65	60133.04
575.82	59887.29
575.98	59700.04
576.14	60011.34
576.30	59997.29
576.46	60364.76
576.62	59992.61
576.79	60039.42
576.95	60004.31
577.11	59693.02
577.27	59901.33
577.43	59955.16
577.59	59557.27
577.75	59194.49
577.92	58972.14
578.08	58480.63
578.24	58623.40
578.40	58972.14
578.56	59133.63
578.72	59124.27
578.88	59384.07
579.04	59494.08
579.21	59735.15
579.37	59657.91
579.53	59723.45
579.69	59803.03
579.85	60076.87
580.01	59559.61
580.17	59323.22
580.33	59381.73
580.49	59234.28
580.65	59564.29
580.82	59674.30
580.98	59601.74
581.14	59688.34
581.30	59725.79
581.46	59358.33
581.62	59714.09
581.78	59695.36
581.94	59725.79
582.10	59901.33
582.26	59999.63
582.42	59615.79
582.58	59693.02
582.74	59611.10
582.90	59693.02
583.06	59573.66
583.22	59510.46
583.38	59550.25
583.54	59409.82
583.70	59470.67
583.86	59573.66
584.02	59363.01
584.18	59475.35
584.34	59297.47
584.50	59372.37
584.66	59075.12
584.82	58897.24
584.98	58812.98
585.14	58719.36
