SpectraSuite Data File
++++++++++++++++++++++++++++++++++++
Date: Mon Oct 07 14:53:16 GMT-05:00 2013
User: price-jones
Dark Spectrum Present: No
Reference Spectrum Present: No
Number of Sampled Component Spectra: 1
Spectrometers: USB2+H05261
Integration Time (usec): 100000 (USB2+H05261)
Spectra Averaged: 1 (USB2+H05261)
Boxcar Smoothing: 0 (USB2+H05261)
Correct for Electrical Dark: No (USB2+H05261)
Strobe/Lamp Enabled: No (USB2+H05261)
Correct for Detector Non-linearity: No (USB2+H05261)
Correct for Stray Light: No (USB2+H05261)
Number of Pixels in Processed Spectrum: 2048
>>>>>Begin Processed Spectral Data<<<<<
365.73	0.00
365.92	0.00
366.12	0.00
366.32	0.00
366.52	0.00
366.72	0.00
366.91	0.00
367.11	0.00
367.31	0.00
367.51	0.00
367.70	0.00
367.90	0.00
368.10	0.00
368.30	0.00
368.49	0.00
368.69	0.00
368.89	0.00
369.09	0.00
369.28	0.00
369.48	0.00
369.68	0.00
369.87	0.00
370.07	0.00
370.27	0.00
370.47	1282.61
370.66	5149.18
370.86	6099.44
371.06	6471.58
371.25	6551.16
371.45	5909.85
371.65	5305.99
371.84	5123.43
372.04	5411.32
372.24	5825.59
372.44	6132.20
372.63	6008.16
372.83	5336.42
373.03	4849.59
373.22	4526.60
373.42	4826.18
373.62	5610.26
373.81	5881.77
374.01	5781.12
374.21	5261.52
374.40	4915.12
374.60	5308.34
374.79	5853.68
374.99	6855.43
375.19	7159.70
375.38	7136.29
375.58	6815.64
375.78	6581.59
375.97	6836.70
376.17	6963.09
376.37	6925.65
376.56	7194.81
376.76	7882.92
376.95	8170.81
377.15	8683.39
377.35	8917.44
377.54	9586.83
377.74	9680.46
377.93	9493.21
378.13	9303.63
378.33	8751.26
378.52	8013.99
378.72	7740.15
378.91	7761.22
379.11	7365.67
379.31	7030.97
379.50	7321.20
379.70	7681.64
379.89	8549.98
380.09	9188.94
380.28	9317.67
380.48	9268.52
380.68	9238.09
380.87	8798.07
381.07	8133.36
381.26	7456.95
381.46	7098.84
381.65	6843.73
381.85	6600.31
382.04	6403.71
382.24	6122.84
382.43	5650.05
382.63	5530.69
382.83	5540.05
383.02	5425.36
383.22	5612.60
383.41	5673.46
383.61	5982.41
383.80	6967.77
384.00	7644.19
384.19	8589.77
384.39	9067.24
384.58	9071.92
384.78	8599.13
384.97	8748.92
385.17	8262.09
385.36	7955.48
385.56	7606.74
385.75	7838.45
385.95	8622.53
386.14	9085.96
386.34	9266.18
386.53	8650.62
386.72	8238.69
386.92	8273.79
387.11	9025.11
387.31	9100.00
387.50	9177.24
387.70	8854.25
387.89	8613.17
388.09	8627.21
388.28	8730.20
388.48	9004.04
388.67	9521.30
388.86	10487.94
389.06	11147.97
389.25	11929.71
389.45	11936.73
389.64	11918.01
389.84	11356.28
390.03	11419.47
390.22	11690.98
390.42	12035.03
390.61	12711.45
390.81	13551.70
391.00	13659.37
391.19	13596.17
391.39	13083.59
391.58	12269.09
391.78	11679.27
391.97	11117.54
392.16	10403.68
392.36	9289.59
392.55	7531.84
392.75	5987.09
392.94	5085.98
393.13	5043.85
393.33	6047.94
393.52	7667.60
393.71	9256.82
393.91	10289.00
394.10	11094.14
394.29	12306.54
394.49	13420.63
394.68	14396.64
394.88	14190.67
395.07	14963.04
395.26	14593.24
395.46	14157.90
395.65	13228.71
395.84	11428.84
396.04	9584.49
396.23	8072.51
396.42	6712.66
396.62	6642.44
396.81	7660.57
397.00	9886.42
397.19	12348.67
397.39	14455.15
397.58	16231.62
397.77	17207.62
397.97	17905.10
398.16	18090.00
398.35	18801.52
398.55	19442.83
398.74	19782.21
398.93	20245.63
399.12	19789.23
399.32	18953.66
399.51	19632.41
399.70	21029.71
399.90	20711.40
400.09	20786.30
400.28	20610.76
400.47	20805.02
400.67	21717.83
400.86	22146.15
401.05	22054.87
401.24	22359.14
401.44	22665.75
401.63	22850.65
401.82	23084.70
402.01	22806.18
402.21	23075.34
402.40	23173.64
402.59	22405.95
402.78	21743.58
402.97	20919.71
403.17	21926.14
403.36	23307.05
403.55	24060.71
403.74	24364.98
403.93	23070.66
404.13	21296.53
404.32	21139.72
404.51	22122.74
404.70	23445.15
404.89	23770.48
405.09	23323.44
405.28	22544.04
405.47	22471.48
405.66	22293.60
405.85	21654.64
406.05	21144.40
406.24	21319.94
406.43	22684.47
406.62	23206.41
406.81	23630.05
407.00	22581.49
407.20	21914.44
407.39	22281.90
407.58	23433.44
407.77	24149.65
407.96	24971.18
408.15	25186.50
408.34	25450.99
408.54	26333.37
408.73	26335.71
408.92	26558.06
409.11	25214.59
409.30	24114.54
409.49	22298.28
409.68	21369.09
409.87	20617.78
410.07	21872.31
410.26	23548.13
410.45	25172.46
410.64	25935.48
410.83	26801.47
411.02	27033.19
411.21	28144.94
411.40	27723.65
411.59	28093.45
411.78	27639.39
411.98	27550.45
412.17	27782.16
412.36	27131.49
412.55	27377.25
412.74	27150.21
412.93	26569.76
413.12	26469.12
413.31	29083.50
413.50	29233.29
413.69	29731.83
413.88	28198.77
414.07	27796.20
414.26	28229.20
414.45	29188.82
414.64	29467.34
414.83	29635.86
415.02	28847.10
415.22	28718.37
415.41	29373.72
415.60	30253.76
415.79	31173.60
415.98	32233.86
416.17	32180.03
416.36	31138.49
416.55	30958.27
416.74	30092.27
416.93	29247.33
417.12	29165.42
417.31	29579.69
417.50	29460.32
417.69	30466.75
417.88	30813.15
418.07	30312.28
418.26	30141.42
418.45	30192.91
418.64	31290.62
418.83	32573.24
419.02	32219.81
419.21	31473.18
419.39	30349.73
419.58	28575.60
419.77	28950.09
419.96	30059.50
420.15	32151.94
420.34	33074.11
420.53	34052.45
420.72	34267.78
420.91	34295.87
421.10	33883.94
421.29	33427.53
421.48	32121.51
421.67	33717.76
421.86	32334.50
422.05	30984.01
422.24	28011.53
422.43	27449.80
422.61	30621.23
422.80	32444.51
422.99	32734.73
423.18	31440.42
423.37	30843.58
423.56	31363.18
423.75	31887.46
423.94	32273.65
424.13	30850.60
424.32	30871.67
424.50	30735.92
424.69	30623.57
424.88	30768.68
425.07	30300.58
425.26	30480.80
425.45	30008.01
425.64	29682.67
425.83	29682.67
426.01	31576.17
426.20	31931.93
426.39	31573.83
426.58	29500.11
426.77	27407.67
426.96	26513.59
427.15	27681.52
427.33	29984.60
427.52	31328.07
427.71	30892.73
427.90	30686.76
428.09	30232.70
428.28	30003.33
428.46	28690.29
428.65	28306.44
428.84	29125.63
429.03	29322.23
429.22	27744.71
429.40	26111.02
429.59	24318.17
429.78	21406.54
429.97	21298.88
430.16	21516.54
430.34	21397.18
430.53	21656.98
430.72	22541.70
430.91	24615.41
431.10	29230.95
431.28	34061.82
431.47	36222.13
431.66	36449.16
431.85	33720.10
432.03	30717.19
432.22	29905.02
432.41	31346.79
432.60	34513.54
432.79	35381.88
432.97	36243.20
433.16	35290.60
433.35	32308.76
433.54	29380.74
433.72	27438.10
433.91	28465.60
434.10	31564.46
434.28	33968.19
434.47	35264.85
434.66	35211.02
434.85	33970.54
435.03	33832.44
435.22	35016.75
435.41	36723.01
435.59	36594.28
435.78	37298.78
435.97	38014.98
436.16	38244.35
436.34	37652.20
436.53	37148.98
436.72	37191.11
436.90	34993.35
437.09	35115.06
437.28	34335.66
437.46	35646.36
437.65	35847.64
437.84	32790.91
438.02	30630.59
438.21	30536.97
438.40	32184.71
438.58	34993.35
438.77	35681.47
438.96	36226.81
439.14	37343.25
439.33	38342.66
439.52	39033.11
439.70	38419.89
439.89	37722.41
440.08	36374.27
440.26	36133.19
440.45	37516.45
440.63	39707.19
440.82	41542.17
441.01	41209.81
441.19	40706.60
441.38	41757.50
441.57	43014.37
441.75	43133.73
441.94	43625.25
442.12	43208.63
442.31	44526.35
442.50	43758.66
442.68	43601.84
442.87	43002.66
443.05	42440.93
443.24	43323.32
443.43	44128.46
443.61	44538.05
443.80	44856.37
443.98	43388.85
444.17	42705.41
444.35	45022.54
444.54	45858.12
444.73	45202.77
444.91	43299.91
445.10	41677.92
445.28	40680.85
445.47	39864.00
445.65	40128.48
445.84	41392.37
446.02	42476.04
446.21	43016.71
446.39	42941.81
446.58	43634.61
446.77	44374.22
446.95	44587.21
447.14	45455.54
447.32	46373.03
447.51	44996.80
447.69	43430.98
447.88	43388.85
448.06	43585.46
448.25	44847.00
448.43	45062.33
448.62	44062.93
448.80	44055.90
448.99	44332.09
449.17	44676.15
449.36	44519.33
449.54	46363.67
449.73	46735.82
449.91	47416.91
450.10	48327.38
450.28	48535.69
450.46	48226.74
450.65	48823.58
450.83	48217.38
451.02	47110.30
451.20	47325.63
451.39	47653.31
451.57	46927.74
451.76	47241.37
451.94	46883.27
452.13	46078.13
452.31	44170.59
452.49	42312.20
452.68	43089.26
452.86	42710.10
453.05	43508.22
453.23	44680.83
453.42	45705.98
453.60	45787.90
453.78	46864.55
453.97	46248.99
454.15	46403.46
454.34	45294.05
454.52	45851.09
454.70	45361.92
454.89	45532.78
455.07	45453.20
455.26	46302.82
455.44	47625.22
455.62	47985.66
455.81	48865.70
455.99	48037.16
456.17	47901.40
456.36	47763.31
456.54	49162.95
456.73	48563.78
456.91	49467.22
457.09	49844.05
457.28	50466.63
457.46	49083.37
457.64	48601.22
457.83	47510.53
458.01	46515.81
458.19	47835.87
458.38	48027.79
458.56	48907.83
458.74	48959.33
458.93	48348.45
459.11	48250.14
459.29	48102.69
459.48	48329.72
459.66	48037.16
459.84	48392.92
460.03	48825.92
460.21	48587.18
460.39	49771.49
460.57	49656.81
460.76	50326.20
460.94	50237.26
461.12	49523.40
461.31	49825.32
461.49	49769.15
461.67	49675.53
461.85	51084.53
462.04	50539.19
462.22	50578.98
462.40	50468.97
462.59	50513.44
462.77	50756.86
462.95	50623.45
463.13	50110.87
463.32	49942.35
463.50	49937.67
463.68	49668.51
463.86	49923.63
464.05	49247.21
464.23	48264.19
464.41	48217.38
464.59	47990.34
464.78	49567.87
464.96	49937.67
465.14	48975.71
465.32	49759.79
465.50	50864.52
465.69	50913.67
465.87	50333.22
466.05	49336.15
466.23	47873.32
466.41	46721.77
466.60	48285.25
466.78	47899.06
466.96	48538.03
467.14	49364.24
467.32	49682.55
467.51	49518.71
467.69	47906.08
467.87	48708.89
468.05	49380.62
468.23	49497.65
468.41	49141.89
468.60	49385.30
468.78	50106.19
468.96	49066.99
469.14	50167.04
469.32	50380.03
469.50	48619.95
469.69	48982.73
469.87	48549.73
470.05	47910.77
470.23	48105.03
470.41	48495.90
470.59	48493.56
470.77	48882.09
470.95	49729.36
471.14	50075.76
471.32	50031.29
471.50	52041.81
471.68	52215.01
471.86	52268.84
472.04	52406.94
472.22	52636.31
472.40	51171.13
472.58	50946.44
472.77	50534.51
472.95	51231.99
473.13	51772.65
473.31	51007.29
473.49	50990.91
473.67	51945.85
473.85	52102.67
474.03	52687.80
474.21	53139.52
474.39	53207.40
474.57	53485.92
474.75	53207.40
474.93	52945.26
475.12	52294.59
475.30	52505.24
475.48	52931.22
475.66	53097.39
475.84	52673.76
476.02	52294.59
476.20	52067.56
476.38	52933.56
476.56	53525.71
476.74	53897.86
476.92	53937.65
477.10	54717.04
477.28	55295.16
477.46	55332.60
477.64	55430.91
477.82	55681.34
478.00	55793.69
478.18	55257.71
478.36	55253.03
478.54	55309.20
478.72	55594.74
478.90	56416.27
479.08	56811.82
479.26	57230.78
479.44	56924.17
479.62	56882.04
479.80	56942.89
479.98	57254.18
480.16	57303.34
480.34	56956.94
480.52	57212.06
480.70	57434.41
480.88	57403.98
481.06	58045.29
481.24	58309.77
481.41	58698.30
481.59	59166.40
481.77	58679.57
481.95	58377.64
482.13	58230.19
482.31	58319.13
482.49	58859.79
482.67	58787.24
482.85	59241.30
483.03	59379.39
483.21	59512.80
483.39	59428.54
483.57	58969.80
483.74	59009.59
483.92	59217.89
484.10	59281.09
484.28	59721.11
484.46	60034.74
484.64	60081.55
484.82	59674.30
485.00	59583.02
485.18	58951.07
485.35	58232.53
485.53	56090.94
485.71	53661.46
485.89	53303.36
486.07	54965.14
486.25	56830.55
486.43	58422.11
486.61	58733.40
486.78	58604.67
486.96	58899.58
487.14	59803.03
487.32	60692.43
487.50	61268.20
487.68	61799.50
487.85	62033.56
488.03	61989.09
488.21	61869.72
488.39	61226.07
488.57	60877.33
488.75	60823.50
488.92	61488.21
489.10	62852.75
489.28	63936.41
489.46	64530.91
489.64	64149.40
489.81	64484.10
489.99	64240.68
490.17	63973.86
490.35	64544.95
490.53	63896.62
490.70	63788.96
490.88	63671.93
491.06	64537.93
491.24	64418.56
491.41	63667.25
491.59	62539.11
491.77	61939.94
491.95	63068.08
492.13	63522.14
492.30	64619.85
492.48	65326.69
492.66	65535.00
492.84	65535.00
493.01	65345.42
493.19	64783.69
493.37	64725.17
493.54	64547.29
493.72	65141.79
493.90	65535.00
494.08	65535.00
494.25	65535.00
494.43	65535.00
494.61	65535.00
494.79	65535.00
494.96	65535.00
495.14	65535.00
495.32	65535.00
495.49	65326.69
495.67	65535.00
495.85	65535.00
496.02	65535.00
496.20	65535.00
496.38	65535.00
496.55	65535.00
496.73	65535.00
496.91	65535.00
497.09	65535.00
497.26	65535.00
497.44	65535.00
497.62	65535.00
497.79	65535.00
497.97	65535.00
498.14	65535.00
498.32	65535.00
498.50	65535.00
498.67	65535.00
498.85	65535.00
499.03	65535.00
499.20	65535.00
499.38	65535.00
499.56	65535.00
499.73	65535.00
499.91	65535.00
500.08	65535.00
500.26	65535.00
500.44	65535.00
500.61	65535.00
500.79	65535.00
500.97	65535.00
501.14	65535.00
501.32	65535.00
501.49	65535.00
501.67	65535.00
501.84	65535.00
502.02	65535.00
502.20	65535.00
502.37	65535.00
502.55	65535.00
502.72	65535.00
502.90	65535.00
503.07	65535.00
503.25	65535.00
503.43	65535.00
503.60	65535.00
503.78	65535.00
503.95	65535.00
504.13	65535.00
504.30	65535.00
504.48	65535.00
504.65	65535.00
504.83	65535.00
505.01	65535.00
505.18	65535.00
505.36	65535.00
505.53	65535.00
505.71	65535.00
505.88	65535.00
506.06	65535.00
506.23	65535.00
506.41	65535.00
506.58	65535.00
506.76	65535.00
506.93	65535.00
507.11	65535.00
507.28	65535.00
507.46	65535.00
507.63	65535.00
507.81	65535.00
507.98	65535.00
508.16	65535.00
508.33	65535.00
508.50	65535.00
508.68	65535.00
508.85	65535.00
509.03	65535.00
509.20	65535.00
509.38	65535.00
509.55	65535.00
509.73	65535.00
509.90	65535.00
510.08	65535.00
510.25	65535.00
510.42	65535.00
510.60	65535.00
510.77	65535.00
510.95	65535.00
511.12	65535.00
511.30	65535.00
511.47	65535.00
511.64	65535.00
511.82	65535.00
511.99	65535.00
512.17	65535.00
512.34	65535.00
512.51	65535.00
512.69	65535.00
512.86	65535.00
513.04	65535.00
513.21	65535.00
513.38	65535.00
513.56	65535.00
513.73	65535.00
513.90	65535.00
514.08	65535.00
514.25	65535.00
514.43	65535.00
514.60	65535.00
514.77	65535.00
514.95	65535.00
515.12	65535.00
515.29	65535.00
515.47	65535.00
515.64	65535.00
515.81	65535.00
515.99	65535.00
516.16	65535.00
516.33	65535.00
516.51	65535.00
516.68	64097.91
516.85	63634.48
517.03	64254.73
517.20	65535.00
517.37	65535.00
517.54	65535.00
517.72	65535.00
517.89	65535.00
518.06	65535.00
518.24	65219.03
518.41	65535.00
518.58	65535.00
518.75	65535.00
518.93	65535.00
519.10	65535.00
519.27	65535.00
519.45	65535.00
519.62	65535.00
519.79	65535.00
519.96	65535.00
520.14	65535.00
520.31	65535.00
520.48	65535.00
520.65	65535.00
520.83	65535.00
521.00	65535.00
521.17	65535.00
521.34	65535.00
521.52	65535.00
521.69	65535.00
521.86	65535.00
522.03	65535.00
522.20	65535.00
522.38	65535.00
522.55	65535.00
522.72	65535.00
522.89	65535.00
523.07	65535.00
523.24	65535.00
523.41	65535.00
523.58	65535.00
523.75	65535.00
523.92	65535.00
524.10	65535.00
524.27	65535.00
524.44	65535.00
524.61	65535.00
524.78	65535.00
524.96	65535.00
525.13	65535.00
525.30	65535.00
525.47	65535.00
525.64	65535.00
525.81	65535.00
525.98	65535.00
526.16	65535.00
526.33	65535.00
526.50	65535.00
526.67	65535.00
526.84	65535.00
527.01	65535.00
527.18	65535.00
527.36	65535.00
527.53	65535.00
527.70	65535.00
527.87	65535.00
528.04	65535.00
528.21	65535.00
528.38	65535.00
528.55	65535.00
528.72	65535.00
528.89	65535.00
529.07	65535.00
529.24	65535.00
529.41	65535.00
529.58	65535.00
529.75	65535.00
529.92	65535.00
530.09	65535.00
530.26	65535.00
530.43	65535.00
530.60	65535.00
530.77	65535.00
530.94	65535.00
531.11	65535.00
531.28	65535.00
531.46	65535.00
531.63	65535.00
531.80	65535.00
531.97	65535.00
532.14	65535.00
532.31	65535.00
532.48	65535.00
532.65	65535.00
532.82	65535.00
532.99	65535.00
533.16	65535.00
533.33	65535.00
533.50	65535.00
533.67	65535.00
533.84	65535.00
534.01	65535.00
534.18	65535.00
534.35	65535.00
534.52	65535.00
534.69	65535.00
534.86	65535.00
535.03	65535.00
535.20	65535.00
535.37	65535.00
535.54	65535.00
535.71	65535.00
535.88	65535.00
536.05	65535.00
536.22	65535.00
536.38	65535.00
536.55	65535.00
536.72	65535.00
536.89	65535.00
537.06	65535.00
537.23	65535.00
537.40	65535.00
537.57	65535.00
537.74	65535.00
537.91	65535.00
538.08	65535.00
538.25	65535.00
538.42	65535.00
538.59	65535.00
538.75	65535.00
538.92	65535.00
539.09	65535.00
539.26	65535.00
539.43	65535.00
539.60	65535.00
539.77	65535.00
539.94	65535.00
540.11	65535.00
540.28	65535.00
540.44	65535.00
540.61	65535.00
540.78	65535.00
540.95	65535.00
541.12	65535.00
541.29	65535.00
541.46	65535.00
541.62	65535.00
541.79	65535.00
541.96	65535.00
542.13	65535.00
542.30	65535.00
542.47	65535.00
542.63	65535.00
542.80	65535.00
542.97	65535.00
543.14	65535.00
543.31	65535.00
543.48	65535.00
543.64	65535.00
543.81	65535.00
543.98	65535.00
544.15	65535.00
544.32	65535.00
544.48	65535.00
544.65	65535.00
544.82	65535.00
544.99	65535.00
545.16	65535.00
545.32	65535.00
545.49	65535.00
545.66	65535.00
545.83	65535.00
546.00	65535.00
546.16	65535.00
546.33	65535.00
546.50	65535.00
546.67	65535.00
546.83	65535.00
547.00	65535.00
547.17	65535.00
547.34	65535.00
547.50	65535.00
547.67	65535.00
547.84	65535.00
548.00	65535.00
548.17	65535.00
548.34	65535.00
548.51	65535.00
548.67	65535.00
548.84	65535.00
549.01	65535.00
549.18	65535.00
549.34	65535.00
549.51	65535.00
549.68	65535.00
549.84	65535.00
550.01	65535.00
550.18	65535.00
550.34	65535.00
550.51	65535.00
550.68	65535.00
550.84	65535.00
551.01	65535.00
551.18	65535.00
551.34	65535.00
551.51	65535.00
551.68	65535.00
551.84	65535.00
552.01	65535.00
552.18	65535.00
552.34	65535.00
552.51	65535.00
552.68	65535.00
552.84	65535.00
553.01	65535.00
553.18	65535.00
553.34	65535.00
553.51	65535.00
553.67	65535.00
553.84	65535.00
554.01	65535.00
554.17	65535.00
554.34	65535.00
554.51	65535.00
554.67	65535.00
554.84	65535.00
555.00	65535.00
555.17	65535.00
555.33	65535.00
555.50	65535.00
555.67	65535.00
555.83	65535.00
556.00	65535.00
556.16	65535.00
556.33	65535.00
556.50	65535.00
556.66	65535.00
556.83	65535.00
556.99	65535.00
557.16	65535.00
557.32	65535.00
557.49	65535.00
557.65	65535.00
557.82	65535.00
557.98	65535.00
558.15	65535.00
558.32	65535.00
558.48	65535.00
558.65	65535.00
558.81	65535.00
558.98	65535.00
559.14	65535.00
559.31	65535.00
559.47	65535.00
559.64	65535.00
559.80	65535.00
559.97	65535.00
560.13	65535.00
560.30	65535.00
560.46	65535.00
560.63	65535.00
560.79	65535.00
560.96	65535.00
561.12	65535.00
561.29	65535.00
561.45	65535.00
561.61	65535.00
561.78	65535.00
561.94	65535.00
562.11	65535.00
562.27	65535.00
562.44	65535.00
562.60	65535.00
562.77	65535.00
562.93	65535.00
563.10	65535.00
563.26	65535.00
563.42	65535.00
563.59	65535.00
563.75	65535.00
563.92	65535.00
564.08	65535.00
564.24	65535.00
564.41	65535.00
564.57	65535.00
564.74	65535.00
564.90	65535.00
565.07	65535.00
565.23	65535.00
565.39	65535.00
565.56	65535.00
565.72	65361.80
565.88	65535.00
566.05	65535.00
566.21	65535.00
566.38	65535.00
566.54	65535.00
566.70	65535.00
566.87	65535.00
567.03	65535.00
567.19	65535.00
567.36	65535.00
567.52	65535.00
567.68	65535.00
567.85	65535.00
568.01	65535.00
568.17	65251.80
568.34	65207.32
568.50	65123.07
568.66	65249.45
568.83	65532.66
568.99	65535.00
569.15	65535.00
569.32	65535.00
569.48	65525.64
569.64	65403.93
569.81	65137.11
569.97	65197.96
570.13	65120.73
570.30	64687.73
570.46	64324.94
570.62	63948.12
570.78	63861.52
570.95	64280.47
571.11	64673.68
571.27	64900.71
571.43	64961.57
571.60	65221.37
571.76	65520.96
571.92	65424.99
572.09	65535.00
572.25	65535.00
572.41	65535.00
572.57	65527.98
572.74	65535.00
572.90	65247.11
573.06	65457.76
573.22	65223.71
573.38	65347.76
573.55	65277.54
573.71	65535.00
573.87	65293.92
574.03	65322.01
574.20	65333.71
574.36	64879.65
574.52	64807.09
574.68	64750.92
574.84	64406.86
575.01	64025.35
575.17	63948.12
575.33	64474.74
575.49	64584.74
575.65	64706.45
575.82	64460.69
575.98	64186.85
576.14	64301.54
576.30	64589.42
576.46	64575.38
576.62	64626.87
576.79	64493.46
576.95	64355.37
577.11	64371.75
577.27	64240.68
577.43	64561.34
577.59	64118.98
577.75	63721.08
577.92	63458.94
578.08	63185.10
578.24	63302.13
578.40	63484.69
578.56	63646.19
578.72	63840.45
578.88	63737.47
579.04	64053.44
579.21	63913.01
579.37	64126.00
579.53	64114.29
579.69	63990.25
579.85	64238.34
580.01	64051.10
580.17	63580.65
580.33	63749.17
580.49	63756.19
580.65	63887.26
580.82	63971.52
580.98	64015.99
581.14	63889.60
581.30	64090.89
581.46	63999.61
581.62	64034.72
581.78	63985.57
581.94	64257.07
582.10	64203.24
582.26	64231.32
582.42	64198.55
582.58	64268.77
582.74	64282.81
582.90	64432.61
583.06	64114.29
583.22	64015.99
583.38	63929.39
583.54	63987.91
583.70	63945.78
583.86	64020.67
584.02	63664.91
584.18	64083.87
584.34	63704.70
584.50	63690.66
584.66	63582.99
584.82	63302.13
584.98	63323.19
