SpectraSuite Data File
++++++++++++++++++++++++++++++++++++
Date: Mon Oct 07 14:53:26 GMT-05:00 2013
User: price-jones
Dark Spectrum Present: No
Reference Spectrum Present: No
Number of Sampled Component Spectra: 1
Spectrometers: USB2+H05261
Integration Time (usec): 100000 (USB2+H05261)
Spectra Averaged: 1 (USB2+H05261)
Boxcar Smoothing: 0 (USB2+H05261)
Correct for Electrical Dark: No (USB2+H05261)
Strobe/Lamp Enabled: No (USB2+H05261)
Correct for Detector Non-linearity: No (USB2+H05261)
Correct for Stray Light: No (USB2+H05261)
Number of Pixels in Processed Spectrum: 2048
>>>>>Begin Processed Spectral Data<<<<<
365.73	0.00
365.92	0.00
366.12	0.00
366.32	0.00
366.52	0.00
366.72	0.00
366.91	0.00
367.11	0.00
367.31	0.00
367.51	0.00
367.70	0.00
367.90	0.00
368.10	0.00
368.30	0.00
368.49	0.00
368.69	0.00
368.89	0.00
369.09	0.00
369.28	0.00
369.48	0.00
369.68	0.00
369.87	0.00
370.07	0.00
370.27	0.00
370.47	606.20
370.66	2956.10
370.86	3417.18
371.06	3861.88
371.25	3894.65
371.45	3585.70
371.65	3101.21
371.84	2951.42
372.04	3105.89
372.24	3358.67
372.44	3522.51
372.63	3454.63
372.83	3435.91
373.03	2920.99
373.22	2551.18
373.42	2832.05
373.62	3241.64
373.81	3414.84
374.01	3543.57
374.21	3243.98
374.40	2885.88
374.60	2970.14
374.79	3487.40
374.99	4042.11
375.19	4444.68
375.38	4329.99
375.58	4170.83
375.78	4074.87
375.97	4093.60
376.17	4217.65
376.37	4152.11
376.56	4365.10
376.76	4615.54
376.95	4947.89
377.15	5298.97
377.35	5474.51
377.54	5799.85
377.74	5811.55
377.93	5919.21
378.13	5666.44
378.33	5432.38
378.52	5060.24
378.72	4821.50
378.91	4683.41
379.11	4615.54
379.31	4322.97
379.50	4500.85
379.70	4833.21
379.89	5329.40
380.09	5423.02
380.28	5841.98
380.48	5729.63
380.68	5600.90
380.87	5324.72
381.07	5020.45
381.26	4709.16
381.46	4358.08
381.65	4231.69
381.85	4189.56
382.04	4046.79
382.24	3691.02
382.43	3581.02
382.63	3494.42
382.83	3449.95
383.02	3592.72
383.22	3510.80
383.41	3492.08
383.61	3606.77
383.80	4175.52
384.00	4561.70
384.19	5327.06
384.39	5617.29
384.58	5633.67
384.78	5734.31
384.97	5533.03
385.17	5231.10
385.36	4950.23
385.56	4842.57
385.75	4784.06
385.95	5329.40
386.14	5937.94
386.34	5846.66
386.53	5568.13
386.72	5195.99
386.92	5198.33
387.11	5626.65
387.31	5785.80
387.50	5680.48
387.70	5509.62
387.89	5425.36
388.09	5451.11
388.28	5577.50
388.48	5582.18
388.67	6080.71
388.86	6642.44
389.06	7112.89
389.25	7559.93
389.45	7658.23
389.64	7616.10
389.84	7463.97
390.03	7307.15
390.22	7288.43
390.42	7480.35
390.61	8159.11
390.81	8535.93
391.00	8945.53
391.19	8643.60
391.39	8273.79
391.58	7847.82
391.78	7410.14
391.97	7213.53
392.16	6682.23
392.36	6249.23
392.55	5004.07
392.75	4056.15
392.94	3171.43
393.13	3166.74
393.33	3768.26
393.52	4837.89
393.71	5884.11
393.91	6759.47
394.10	7089.48
394.29	7915.69
394.49	8432.95
394.68	9018.08
394.88	9036.81
395.07	9591.52
395.26	9291.93
395.46	9125.75
395.65	8503.17
395.84	7805.69
396.04	6377.96
396.23	4973.64
396.42	4376.80
396.62	4138.07
396.81	4959.60
397.00	6167.31
397.19	7943.78
397.39	9289.59
397.58	10483.26
397.77	11117.54
397.97	11454.58
398.16	11868.86
398.35	11782.26
398.55	12325.26
398.74	12989.97
398.93	13174.88
399.12	12748.90
399.32	12219.94
399.51	12652.94
399.70	13729.58
399.90	13373.82
400.09	13500.21
400.28	13451.06
400.47	13490.85
400.67	14209.39
400.86	14642.39
401.05	14221.10
401.24	14448.13
401.44	14878.79
401.63	14799.21
401.82	15180.71
402.01	14895.17
402.21	15131.56
402.40	15075.39
402.59	14787.50
402.78	13912.14
402.97	13708.52
403.17	14368.55
403.36	14958.36
403.55	15653.50
403.74	16098.20
403.93	15089.43
404.13	14003.43
404.32	13547.02
404.51	14303.01
404.70	15454.56
404.89	15433.49
405.09	15218.16
405.28	14604.94
405.47	15211.14
405.66	15019.22
405.85	14764.10
406.05	13912.14
406.24	14040.87
406.43	14895.17
406.62	15204.12
406.81	15349.23
407.00	14904.53
407.20	14452.81
407.39	14602.60
407.58	15192.42
407.77	16032.67
407.96	16358.00
408.15	16634.19
408.34	16692.70
408.54	17455.72
408.73	17383.16
408.92	17401.88
409.11	16685.68
409.30	15967.13
409.49	15136.24
409.68	13926.19
409.87	13736.60
410.07	14572.18
410.26	15466.26
410.45	16634.19
410.64	16739.51
410.83	17205.28
411.02	17991.70
411.21	18775.78
411.40	18403.63
411.59	18342.78
411.78	18132.13
411.98	17968.29
412.17	18572.15
412.36	17951.91
412.55	18148.51
412.74	17724.88
412.93	17303.58
413.12	17521.25
413.31	18920.89
413.50	19016.85
413.69	19557.52
413.88	19056.64
414.07	18157.88
414.26	18675.13
414.45	19215.80
414.64	19215.80
414.83	19260.27
415.02	18995.79
415.22	18850.67
415.41	19510.71
415.60	20276.06
415.79	20812.04
415.98	21238.02
416.17	21390.16
416.36	20585.01
416.55	20329.89
416.74	19754.12
416.93	19187.71
417.12	19309.42
417.31	19335.17
417.50	19761.14
417.69	20425.86
417.88	20444.58
418.07	19950.73
418.26	19735.40
418.45	19887.53
418.64	20805.02
418.83	21544.63
419.02	21186.53
419.21	20959.50
419.39	20147.33
419.58	19379.64
419.77	19124.52
419.96	20093.50
420.15	21163.12
420.34	21701.45
420.53	22644.68
420.72	23068.32
420.91	22773.41
421.10	22527.66
421.29	22551.06
421.48	20840.13
421.67	22618.94
421.86	21954.22
422.05	20613.10
422.24	18478.53
422.43	17998.72
422.61	19929.66
422.80	21532.93
422.99	21523.57
423.18	21057.80
423.37	20648.21
423.56	20727.78
423.75	21205.25
423.94	21633.57
424.13	19999.88
424.32	20369.68
424.50	20514.80
424.69	20315.85
424.88	20362.66
425.07	20372.02
425.26	19990.52
425.45	19756.46
425.64	19679.22
425.83	19826.68
426.01	20828.43
426.20	21451.01
426.39	21266.11
426.58	19606.67
426.77	18277.24
426.96	17584.44
427.15	18277.24
427.33	19850.08
427.52	20486.71
427.71	20648.21
427.90	20463.30
428.09	19997.54
428.28	19400.70
428.46	19075.37
428.65	18948.98
428.84	19405.38
429.03	19571.56
429.22	18377.89
429.40	17362.09
429.59	15955.43
429.78	14326.42
429.97	14396.64
430.16	14286.63
430.34	14506.64
430.53	14394.29
430.72	14422.38
430.91	16444.60
431.10	19269.63
431.28	22387.22
431.47	24297.10
431.66	24587.33
431.85	22082.95
432.03	20760.55
432.22	19697.95
432.41	20196.48
432.60	22775.75
432.79	23889.85
432.97	24402.43
433.16	23695.58
433.35	21647.61
433.54	19585.60
433.72	18246.82
433.91	18836.63
434.10	21067.16
434.28	22904.48
434.47	23906.23
434.66	23381.95
434.85	22888.10
435.03	22623.62
435.22	23288.33
435.41	24559.24
435.59	24620.10
435.78	24868.19
435.97	25523.54
436.16	25757.60
436.34	25275.45
436.53	24620.10
436.72	24346.25
436.90	23400.68
437.09	23433.44
437.28	22890.44
437.46	24088.79
437.65	23786.86
437.84	22026.78
438.02	20299.47
438.21	20374.36
438.40	21612.51
438.58	23183.01
438.77	24081.77
438.96	24208.16
439.14	24833.08
439.33	25804.41
439.52	25851.22
439.70	25319.92
439.89	24980.54
440.08	23887.51
440.26	24128.58
440.45	25317.57
440.63	26607.21
440.82	27964.72
441.01	27667.47
441.19	27246.18
441.38	27686.20
441.57	28645.82
441.75	29219.25
441.94	29181.80
442.12	29268.40
442.31	29876.94
442.50	29563.31
442.68	29275.42
442.87	29095.20
443.05	28496.02
443.24	28790.93
443.43	29549.26
443.61	30075.88
443.80	30836.56
443.98	29212.23
444.17	28561.56
444.35	30078.22
444.54	30682.08
444.73	30665.70
444.91	29291.80
445.10	27960.04
445.28	26965.31
445.47	26483.16
445.65	26712.53
445.84	27758.75
446.02	28369.63
446.21	28924.34
446.39	28870.51
446.58	29497.77
446.77	29692.04
446.95	29827.79
447.14	31058.91
447.32	31498.93
447.51	30712.51
447.69	29862.90
447.88	28943.06
448.06	29481.39
448.25	30644.63
448.43	30764.00
448.62	29844.17
448.80	29675.65
448.99	29991.62
449.17	30298.23
449.36	30085.25
449.54	31594.89
449.73	31590.21
449.91	32402.38
450.10	32966.45
450.28	33612.43
450.46	33385.40
450.65	33039.00
450.83	33081.13
451.02	32283.01
451.20	32112.15
451.39	32416.42
451.57	31999.80
451.76	32041.93
451.94	31576.17
452.13	31271.90
452.31	29876.94
452.49	28357.93
452.68	29081.16
452.86	28697.31
453.05	29123.29
453.23	29886.30
453.42	31054.23
453.60	31339.77
453.78	31775.11
453.97	31531.70
454.15	31545.74
454.34	31157.21
454.52	30649.32
454.70	30106.31
454.89	30749.96
455.07	30747.62
455.26	31171.25
455.44	32467.91
455.62	33149.01
455.81	33188.80
455.99	32847.08
456.17	32343.86
456.36	32374.29
456.54	33635.84
456.73	33827.76
456.91	34576.73
457.09	33986.92
457.28	34684.40
457.46	33916.70
457.64	33149.01
457.83	32636.43
458.01	31115.08
458.19	32128.53
458.38	32442.17
458.56	33703.71
458.74	33689.67
458.93	32795.59
459.11	32900.91
459.29	32701.96
459.48	33172.41
459.66	32563.87
459.84	33109.22
460.03	33502.43
460.21	33139.65
460.39	33865.21
460.57	34366.09
460.76	34906.75
460.94	34960.58
461.12	34059.48
461.31	34604.82
461.49	34457.37
461.67	34333.32
461.85	35016.75
462.04	35220.38
462.22	35541.03
462.40	35196.98
462.59	35283.58
462.77	35115.06
462.95	35068.25
463.13	34742.91
463.32	34415.24
463.50	34040.75
463.68	34047.77
463.86	34515.88
464.05	33771.59
464.23	32804.95
464.41	32615.37
464.59	32692.60
464.78	34127.35
464.96	33755.21
465.14	33684.99
465.32	34703.12
465.50	34920.79
465.69	35711.89
465.87	34815.47
466.05	34160.12
466.23	32606.00
466.41	31796.18
466.60	32774.52
466.78	32769.84
466.96	33081.13
467.14	33635.84
467.32	34431.62
467.51	34195.23
467.69	32708.99
467.87	33769.25
468.05	33919.04
468.23	34263.10
468.41	34064.16
468.60	34061.82
468.78	34565.03
468.96	33607.75
469.14	34597.80
469.32	35112.72
469.50	33654.56
469.69	33544.56
469.87	32669.20
470.05	32966.45
470.23	32900.91
470.41	33184.12
470.59	33486.04
470.77	33656.90
470.95	34220.97
471.14	34782.70
471.32	34658.65
471.50	36603.64
471.68	37158.34
471.86	37521.13
472.04	37095.15
472.22	37483.68
472.40	35894.46
472.58	35225.06
472.77	34756.96
472.95	35166.55
473.13	36329.80
473.31	35658.06
473.49	36147.23
473.67	36107.44
473.85	36889.18
474.03	37656.88
474.21	37853.48
474.39	38373.08
474.57	37986.89
474.75	38373.08
474.93	38272.44
475.12	36980.46
475.30	37340.91
475.48	37560.92
475.66	38190.52
475.84	37689.65
476.02	37097.49
476.20	36084.04
476.38	37357.29
476.56	38323.93
476.74	38471.39
476.92	39220.36
477.10	39847.62
477.28	40598.93
477.46	40861.07
477.64	41591.32
477.82	41558.55
478.00	41570.25
478.18	40669.15
478.36	40652.76
478.54	40505.31
478.72	40650.42
478.90	42103.90
479.08	42782.65
479.26	43412.26
479.44	43501.20
479.62	43199.27
479.80	43185.22
479.98	42927.77
480.16	43899.09
480.34	43091.60
480.52	43526.94
480.70	43753.97
480.88	43723.55
481.06	44865.73
481.24	44903.18
481.41	45614.70
481.59	46127.28
481.77	46160.05
481.95	45909.61
482.13	45240.21
482.31	45904.93
482.49	46153.02
482.67	45858.12
482.85	46258.35
483.03	46843.48
483.21	47255.42
483.39	47196.90
483.57	46000.89
483.74	45989.19
483.92	46347.29
484.10	46387.08
484.28	47477.77
484.46	47826.51
484.64	48432.71
484.82	47440.32
485.00	47351.38
485.18	46150.68
485.35	44643.38
485.53	41820.69
485.71	38012.64
485.89	37780.93
486.07	39145.46
486.25	42672.65
486.43	45343.20
486.61	45961.10
486.78	46080.47
486.96	45677.90
487.14	47466.06
487.32	48587.18
487.50	49528.08
487.68	50010.23
487.85	50990.91
488.03	50784.94
488.21	50639.83
488.39	49689.57
488.57	48954.64
488.75	48559.09
488.92	49893.20
489.10	52102.67
489.28	53577.20
489.46	54000.84
489.64	53874.45
489.81	53928.28
489.99	53420.39
490.17	53656.78
490.35	54244.26
490.53	53663.80
490.70	53088.03
490.88	53616.99
491.06	53984.46
491.24	54131.91
491.41	52898.45
491.59	51468.38
491.77	50703.03
491.95	51672.01
492.13	52765.04
492.30	54113.19
492.48	54733.43
492.66	55559.64
492.84	55669.64
493.01	55023.65
493.19	54817.69
493.37	54185.74
493.54	54059.35
493.72	54703.00
493.90	55702.41
494.08	56257.12
494.25	56879.70
494.43	56954.60
494.61	57169.93
494.79	57275.25
494.96	56982.68
495.14	56687.78
495.32	55730.50
495.49	55185.15
495.67	56011.36
495.85	57366.53
496.02	57719.95
496.20	57425.04
496.38	57020.13
496.55	57050.56
496.73	57684.84
496.91	57415.68
497.09	58031.24
497.26	58197.42
497.44	57836.98
497.62	57642.71
497.79	56671.39
497.97	55339.63
498.14	55632.19
498.32	56617.56
498.50	57537.39
498.67	58185.72
498.85	57818.25
499.03	58054.65
499.20	58342.53
499.38	58326.15
499.56	58010.18
499.73	57640.37
499.91	57258.87
500.08	56769.69
500.26	56009.02
500.44	56559.05
500.61	57172.27
500.79	57298.65
500.97	56853.95
501.14	56601.18
501.32	56456.06
501.49	56353.08
501.67	56734.59
501.84	57202.69
502.02	57361.85
502.20	57715.27
502.37	57970.39
502.55	57851.02
502.72	58485.31
502.90	58745.11
503.07	58681.91
503.25	58115.50
503.43	57308.02
503.60	56839.91
503.78	56130.73
503.95	56488.83
504.13	57862.72
504.30	58824.68
504.48	58578.93
504.65	58171.67
504.83	58061.67
505.01	58656.17
505.18	59166.40
505.36	59618.13
505.53	59718.77
505.71	59934.10
505.88	59962.18
506.06	59238.96
506.23	59220.23
506.41	58646.80
506.58	58962.78
506.76	58679.57
506.93	58812.98
507.11	58541.48
507.28	58752.13
507.46	58305.09
507.63	57797.19
507.81	57626.33
507.98	57867.40
508.16	58349.56
508.33	58993.20
508.50	59456.63
508.68	59583.02
508.85	60048.78
509.03	59980.91
509.20	59987.93
509.38	59332.58
509.55	58546.16
509.73	58464.24
509.90	58993.20
510.08	59271.73
510.25	59185.13
510.42	59157.04
510.60	58876.18
510.77	59292.79
510.95	59831.11
511.12	59976.23
511.30	59938.78
511.47	60369.44
511.64	60542.64
511.82	60126.02
511.99	59393.43
512.17	58855.11
512.34	58529.78
512.51	58651.48
512.69	58677.23
512.86	59049.38
513.04	59489.40
513.21	59288.11
513.38	59201.51
513.56	58401.05
513.73	58026.56
513.90	58342.53
514.08	58244.23
514.25	58719.36
514.43	58539.14
514.60	58955.75
514.77	58951.07
514.95	59238.96
515.12	58953.41
515.29	59236.62
515.47	59412.16
515.64	59901.33
515.81	59484.72
515.99	59091.51
516.16	57640.37
516.33	55381.76
516.51	53841.68
516.68	52987.39
516.85	52910.15
517.03	53228.46
517.20	55964.55
517.37	58384.66
517.54	59185.13
517.72	58869.15
517.89	56467.76
518.06	54108.50
518.24	54347.24
518.41	56411.59
518.58	57675.48
518.75	57986.77
518.93	58295.72
519.10	57918.90
519.27	58429.13
519.45	58688.93
519.62	59386.41
519.79	59639.19
519.96	59533.87
520.14	58962.78
520.31	58202.10
520.48	58277.00
520.65	58625.74
520.83	59395.77
521.00	59915.37
521.17	59283.43
521.34	59187.47
521.52	59480.03
521.69	59873.24
521.86	60423.27
522.03	60130.70
522.20	59082.14
522.38	57851.02
522.55	58038.26
522.72	58590.63
522.89	58644.46
523.07	58995.54
523.24	59187.47
523.41	60226.66
523.58	60203.26
523.75	60631.58
523.92	60449.02
524.10	60523.91
524.27	60481.78
524.44	60212.62
524.61	60037.08
524.78	59788.98
524.96	59779.62
525.13	59838.14
525.30	60058.15
525.47	60563.70
525.64	60423.27
525.81	59863.88
525.98	58199.76
526.16	56935.87
526.33	56512.23
526.50	56067.53
526.67	55632.19
526.84	56315.63
527.01	57275.25
527.18	58277.00
527.36	59002.56
527.53	59814.73
527.70	59934.10
527.87	59395.77
528.04	59112.57
528.21	59660.26
528.38	60025.38
528.55	60729.88
528.72	61055.21
528.89	60947.55
529.07	60514.55
529.24	60282.84
529.41	59597.06
529.58	59070.44
529.75	59145.34
529.92	59482.37
530.09	59721.11
530.26	60425.61
530.43	60858.61
530.60	60753.29
530.77	60973.30
530.94	61148.84
531.11	60589.45
531.28	60179.85
531.46	60041.76
531.63	60048.78
531.80	60013.68
531.97	59641.53
532.14	59042.35
532.31	57928.26
532.48	57385.25
532.65	57298.65
532.82	58239.55
532.99	59332.58
533.16	59650.89
533.33	60378.80
533.50	59906.01
533.67	59208.53
533.84	58967.46
534.01	59068.10
534.18	59309.18
534.35	59627.49
534.52	59290.45
534.69	59664.94
534.86	60048.78
535.03	60137.72
535.20	60736.90
535.37	60832.86
535.54	61031.81
535.71	60598.81
535.88	60243.05
536.05	59657.91
536.22	59494.08
536.38	58930.01
536.55	58747.45
536.72	58122.52
536.89	58213.80
537.06	58843.41
537.23	59833.46
537.40	59784.30
537.57	59686.00
537.74	59557.27
537.91	59594.72
538.08	59641.53
538.25	59597.06
538.42	59927.08
538.59	59852.18
538.75	59016.61
538.92	58679.57
539.09	58433.81
539.26	58401.05
539.43	58176.36
539.60	58616.38
539.77	58489.99
539.94	58464.24
540.11	57539.73
540.28	57116.09
540.44	57481.22
540.61	57499.94
540.78	57874.43
540.95	58358.92
541.12	58562.54
541.29	58827.02
541.46	59309.18
541.62	59201.51
541.79	58911.28
541.96	58354.24
542.13	58363.60
542.30	58815.32
542.47	59068.10
542.63	58656.17
542.80	58534.46
542.97	58714.68
543.14	58473.60
543.31	58351.90
543.48	58967.46
543.64	59629.83
543.81	59889.63
543.98	59503.44
544.15	59096.19
544.32	58480.63
544.48	58702.98
544.65	59100.87
544.82	59482.37
544.99	59206.19
545.16	58864.47
545.32	58555.52
545.49	59330.24
545.66	59627.49
545.83	59257.68
546.00	58990.86
546.16	58560.20
546.33	58595.31
546.50	58815.32
546.67	59054.06
546.83	58862.13
547.00	58789.58
547.17	58155.29
547.34	57612.29
547.50	57612.29
547.67	58059.33
547.84	58094.44
548.00	58288.70
548.17	58850.43
548.34	58702.98
548.51	58700.64
548.67	58632.76
548.84	58930.01
549.01	58742.77
549.18	58604.67
549.34	58489.99
549.51	58747.45
549.68	58585.95
549.84	58351.90
550.01	58120.18
550.18	58288.70
550.34	57963.37
550.51	58295.72
550.68	58351.90
550.84	57958.69
551.01	58010.18
551.18	58169.33
551.34	58169.33
551.51	58536.80
551.68	58866.81
551.84	58810.64
552.01	58667.87
552.18	58553.18
552.34	57595.90
552.51	57366.53
552.68	57350.15
552.84	57825.28
553.01	58033.58
553.18	57869.75
553.34	58101.46
553.51	58326.15
553.67	58248.91
553.84	58468.92
554.01	58347.21
554.17	58148.27
554.34	58382.32
554.51	58230.19
554.67	58681.91
554.84	58590.63
555.00	57904.85
555.17	58042.95
555.33	57979.75
555.50	57876.77
555.67	57993.79
555.83	57848.68
556.00	57453.13
556.16	57474.20
556.33	57036.51
556.50	57176.95
556.66	56917.15
556.83	56802.46
556.99	57043.54
557.16	56989.70
557.32	57333.76
557.49	57492.92
557.65	57373.55
557.82	57614.63
557.98	57176.95
558.15	56966.30
558.32	55936.46
558.48	55250.69
558.65	55508.14
558.81	55779.65
558.98	56301.59
559.14	56332.01
559.31	56493.51
559.47	56530.96
559.64	56053.49
559.80	55564.32
559.97	55774.97
560.13	56149.45
560.30	57181.63
560.46	57574.84
560.63	57757.40
560.79	57743.36
560.96	57378.23
561.12	56374.14
561.29	55365.37
561.45	55360.69
561.61	56308.61
561.78	56526.28
561.94	56294.56
562.11	56535.64
562.27	56222.01
562.44	56320.31
562.60	56629.26
562.77	56970.98
562.93	56788.42
563.10	56722.88
563.26	56086.26
563.42	56165.84
563.59	55880.29
563.75	56041.79
563.92	56296.91
564.08	56126.05
564.24	56418.61
564.41	56395.21
564.57	56090.94
564.74	55910.72
564.90	56079.24
565.07	55929.44
565.23	55573.68
565.39	55128.98
565.56	54876.20
565.72	54520.44
565.88	54911.31
566.05	54927.69
566.21	55430.91
566.38	55393.46
566.54	55311.54
566.70	55660.28
566.87	56238.39
567.03	56009.02
567.19	56371.80
567.36	55833.48
567.52	55817.10
567.68	55732.84
567.85	54845.77
568.01	54513.42
568.17	54174.04
568.34	54211.49
568.50	54031.27
568.66	54443.20
568.83	54614.06
568.99	54880.88
569.15	54981.52
569.32	54817.69
569.48	54810.67
569.64	54452.56
569.81	54389.37
569.97	54061.69
570.13	54031.27
570.30	53670.82
570.46	52952.28
570.62	52435.02
570.78	52395.23
570.95	53008.45
571.11	53673.16
571.27	53776.15
571.43	54122.55
571.60	54387.03
571.76	54225.53
571.92	54749.81
572.09	54927.69
572.25	54752.15
572.41	54672.57
572.57	54590.66
572.74	54677.25
572.90	54152.97
573.06	53989.14
573.22	54447.88
573.38	54377.67
573.55	54227.87
573.71	54625.76
573.87	54244.26
574.03	54127.23
574.20	54108.50
574.36	53471.88
574.52	53640.40
574.68	53488.26
574.84	53078.67
575.01	52699.50
575.17	52662.05
575.33	53041.22
575.49	53345.49
575.65	53244.85
575.82	52823.55
575.98	52636.31
576.14	53441.45
576.30	53336.13
576.46	53591.25
576.62	53200.38
576.79	53361.87
576.95	52732.27
577.11	53160.59
577.27	53183.99
577.43	52816.53
577.59	52750.99
577.75	52470.13
577.92	51531.57
578.08	51454.34
578.24	51461.36
578.40	51751.59
578.56	52126.07
578.72	52013.73
578.88	52013.73
579.04	52477.15
579.21	52165.86
579.37	52701.84
579.53	52729.93
579.69	52629.29
579.85	52701.84
580.01	52772.06
580.17	52233.74
580.33	52114.37
580.49	52013.73
580.65	52486.51
580.82	52636.31
580.98	52725.25
581.14	52638.65
581.30	52315.65
581.46	52690.14
581.62	52645.67
581.78	52601.20
581.94	52846.96
582.10	52816.53
582.26	52825.89
582.42	52903.13
582.58	53066.97
582.74	52680.78
582.90	52872.70
583.06	52706.52
583.22	52500.56
583.38	52519.28
583.54	52535.66
583.70	52245.44
583.86	52229.05
584.02	52334.38
584.18	52552.05
584.34	52608.22
584.50	52128.41
584.66	52229.05
584.82	51760.95
584.98	51435.61
585.14	51524.55
585.30	50813.03
