SpectraSuite Data File
++++++++++++++++++++++++++++++++++++
Date: Mon Oct 07 14:53:07 GMT-05:00 2013
User: price-jones
Dark Spectrum Present: No
Reference Spectrum Present: No
Number of Sampled Component Spectra: 1
Spectrometers: USB2+H05261
Integration Time (usec): 100000 (USB2+H05261)
Spectra Averaged: 1 (USB2+H05261)
Boxcar Smoothing: 0 (USB2+H05261)
Correct for Electrical Dark: No (USB2+H05261)
Strobe/Lamp Enabled: No (USB2+H05261)
Correct for Detector Non-linearity: No (USB2+H05261)
Correct for Stray Light: No (USB2+H05261)
Number of Pixels in Processed Spectrum: 2048
>>>>>Begin Processed Spectral Data<<<<<
365.73	0.00
365.92	0.00
366.12	0.00
366.32	0.00
366.52	0.00
366.72	0.00
366.91	0.00
367.11	0.00
367.31	0.00
367.51	0.00
367.70	0.00
367.90	0.00
368.10	0.00
368.30	0.00
368.49	0.00
368.69	0.00
368.89	0.00
369.09	0.00
369.28	0.00
369.48	0.00
369.68	0.00
369.87	0.00
370.07	0.00
370.27	0.00
370.47	653.01
370.66	3157.38
370.86	3791.67
371.06	4318.29
371.25	4245.73
371.45	3934.44
371.65	3524.85
371.84	3096.53
372.04	3393.78
372.24	3829.12
372.44	4016.36
372.63	3894.65
372.83	3599.74
373.03	3192.49
373.22	2944.39
373.42	3190.15
373.62	3672.30
373.81	3831.46
374.01	3953.16
374.21	3506.12
374.40	3412.50
374.60	3400.80
374.79	3857.20
374.99	4514.89
375.19	4884.70
375.38	4802.78
375.58	4524.26
375.78	4381.48
375.97	4437.66
376.17	4491.49
376.37	4620.22
376.56	4915.12
376.76	4943.21
376.95	5259.18
377.15	5856.02
377.35	6031.56
377.54	6139.23
377.74	6296.04
377.93	6125.18
378.13	6134.54
378.33	5942.62
378.52	5486.22
378.72	5284.93
378.91	5219.39
379.11	4882.36
379.31	4805.12
379.50	4954.91
379.70	5235.78
379.89	5935.60
380.09	5989.43
380.28	6253.91
380.48	6394.34
380.68	6183.70
380.87	5951.98
381.07	5696.86
381.26	5266.21
381.46	4702.14
381.65	4599.15
381.85	4442.34
382.04	4255.09
382.24	3922.74
382.43	3943.80
382.63	3815.07
382.83	3775.28
383.02	3829.12
383.22	3920.40
383.41	3864.22
383.61	4037.42
383.80	4664.69
384.00	5397.28
384.19	5867.72
384.39	6120.50
384.58	6256.25
384.78	6099.44
384.97	6003.47
385.17	5797.51
385.36	5404.30
385.56	5132.79
385.75	5308.34
385.95	6134.54
386.14	6370.94
386.34	6406.05
386.53	6223.48
386.72	5607.92
386.92	5804.53
387.11	6047.94
387.31	6392.00
387.50	6319.45
387.70	6169.65
387.89	6094.76
388.09	6029.22
388.28	5928.58
388.48	6174.33
388.67	6801.60
388.86	7194.81
389.06	7763.56
389.25	8325.29
389.45	8414.23
389.64	8238.69
389.84	8175.49
390.03	7999.95
390.22	8116.98
390.42	8159.11
390.61	8889.35
390.81	9469.81
391.00	9710.88
391.19	9598.54
391.39	9380.87
391.58	8674.03
391.78	8166.13
391.97	7962.50
392.16	7360.98
392.36	6794.58
392.55	5317.70
392.75	4264.46
392.94	3538.89
393.13	3510.80
393.33	4280.84
393.52	5369.19
393.71	6586.27
393.91	7267.36
394.10	7934.42
394.29	8762.97
394.49	9305.97
394.68	10010.47
394.88	10317.08
395.07	10537.09
395.26	10193.03
395.46	9919.19
395.65	9352.78
395.84	8306.56
396.04	6967.77
396.23	5675.80
396.42	4863.63
396.62	4681.07
396.81	5441.75
397.00	6780.53
397.19	8585.08
397.39	10200.05
397.58	11510.75
397.77	12131.00
397.97	12545.27
398.16	12748.90
398.35	13149.13
398.55	13736.60
398.74	14284.29
398.93	14420.04
399.12	14153.22
399.32	13781.07
399.51	13841.93
399.70	15173.69
399.90	14941.98
400.09	14609.62
400.28	14890.49
400.47	14553.45
400.67	15789.25
400.86	16109.91
401.05	16116.93
401.24	15913.30
401.44	16498.44
401.63	16212.89
401.82	16224.59
402.01	16585.04
402.21	16662.27
402.40	16542.91
402.59	16402.47
402.78	15426.47
402.97	15140.93
403.17	15632.44
403.36	16355.66
403.55	17195.92
403.74	17572.74
403.93	16432.90
404.13	15286.04
404.32	15178.37
404.51	15623.08
404.70	16915.05
404.89	16706.74
405.09	16580.36
405.28	16271.40
405.47	16353.32
405.66	16067.78
405.85	15704.99
406.05	15344.55
406.24	15709.68
406.43	16386.09
406.62	16856.54
406.81	17095.27
407.00	16348.64
407.20	15999.90
407.39	15964.79
407.58	17109.32
407.77	17371.46
407.96	17989.36
408.15	18192.98
408.34	18302.99
408.54	19157.28
408.73	19255.59
408.92	19278.99
409.11	18127.45
409.30	17607.85
409.49	16496.10
409.68	15016.88
409.87	15140.93
410.07	16149.70
410.26	17200.60
410.45	18366.18
410.64	18878.76
410.83	19356.23
411.02	19770.51
411.21	20308.83
411.40	20308.83
411.59	20636.50
411.78	20439.90
411.98	19939.02
412.17	20414.15
412.36	19859.45
412.55	19868.81
412.74	19653.48
412.93	19262.61
413.12	19674.54
413.31	21289.51
413.50	21572.72
413.69	22125.08
413.88	20893.96
414.07	20123.93
414.26	20863.54
414.45	21469.73
414.64	21671.02
414.83	21577.40
415.02	21193.55
415.22	21053.12
415.41	21348.03
415.60	22136.79
415.79	22785.12
415.98	23063.64
416.17	23791.55
416.36	22916.19
416.55	22759.37
416.74	22118.06
416.93	21245.04
417.12	21273.13
417.31	21500.16
417.50	21755.28
417.69	22574.47
417.88	22518.29
418.07	22225.73
418.26	22026.78
418.45	22331.05
418.64	22948.95
418.83	23859.42
419.02	23548.13
419.21	23197.05
419.39	22249.13
419.58	21397.18
419.77	21177.17
419.96	22150.83
420.15	23314.08
420.34	24346.25
420.53	25352.68
420.72	25530.56
420.91	24999.26
421.10	24538.18
421.29	24666.91
421.48	23887.51
421.67	25294.17
421.86	24423.49
422.05	22459.78
422.24	20629.48
422.43	20053.71
422.61	22522.98
422.80	24081.77
422.99	23943.68
423.18	23152.58
423.37	22998.10
423.56	22998.10
423.75	22923.21
423.94	23831.33
424.13	22719.58
424.32	22630.64
424.50	22609.58
424.69	22476.16
424.88	22855.33
425.07	22719.58
425.26	22649.36
425.45	22438.72
425.64	21736.56
425.83	21769.32
426.01	23096.41
426.20	23702.61
426.39	23536.43
426.58	22113.38
426.77	20184.78
426.96	19445.17
427.15	20250.32
427.33	21806.77
427.52	22757.03
427.71	22703.20
427.90	22733.62
428.09	22345.09
428.28	21802.09
428.46	21387.82
428.65	21259.09
428.84	21596.12
429.03	21771.66
429.22	20400.11
429.40	19527.09
429.59	17617.21
429.78	15712.02
429.97	15941.39
430.16	15925.00
430.34	16262.04
430.53	16046.71
430.72	16372.05
430.91	18380.23
431.10	21462.71
431.28	25032.03
431.47	27232.13
431.66	27620.66
431.85	24950.11
432.03	22768.73
432.22	21809.11
432.41	23239.18
432.60	25401.83
432.79	26324.01
432.97	26998.08
433.16	26281.88
433.35	24144.97
433.54	21640.59
433.72	20259.68
433.91	21181.85
434.10	23744.73
434.28	25418.22
434.47	26536.99
434.66	25614.82
434.85	25345.66
435.03	25057.78
435.22	25963.56
435.41	27594.92
435.59	27466.19
435.78	28002.17
435.97	28811.99
436.16	28800.29
436.34	28683.27
436.53	27569.17
436.72	27962.38
436.90	26178.89
437.09	26291.24
437.28	25579.71
437.46	26614.23
437.65	26658.70
437.84	24821.38
438.02	22904.48
438.21	23070.66
438.40	23882.83
438.58	26232.72
438.77	26424.65
438.96	27122.13
439.14	28409.42
439.33	28620.07
439.52	29198.18
439.70	28753.48
439.89	28107.49
440.08	26925.52
440.26	27426.40
440.45	28051.32
440.63	29965.88
440.82	31704.90
441.01	31318.71
441.19	30754.64
441.38	31391.26
441.57	32381.31
441.75	32730.05
441.94	32797.93
442.12	32673.88
442.31	33071.77
442.50	33088.15
442.68	32634.09
442.87	32526.42
443.05	31590.21
443.24	32596.64
443.43	33039.00
443.61	33677.97
443.80	34115.65
443.98	32332.16
444.17	32498.34
444.35	34251.40
444.54	34518.22
444.73	34445.66
444.91	33039.00
445.10	31211.04
445.28	30768.68
445.47	29921.41
445.65	30047.80
445.84	31271.90
446.02	32102.79
446.21	32168.32
446.39	32765.16
446.58	33151.35
446.77	33057.73
446.95	33502.43
447.14	34759.30
447.32	35637.00
447.51	34127.35
447.69	33060.07
447.88	32666.86
448.06	33488.38
448.25	33769.25
448.43	34539.29
448.62	33778.61
448.80	33462.64
448.99	33673.29
449.17	33907.34
449.36	34007.98
449.54	35288.26
449.73	35899.14
449.91	36194.04
450.10	36851.73
450.28	37427.51
450.46	37233.24
450.65	37366.65
450.83	37064.72
451.02	36430.44
451.20	36510.02
451.39	36201.07
451.57	35845.30
451.76	36217.45
451.94	35461.46
452.13	35620.61
452.31	33617.11
452.49	31634.68
452.68	32559.19
452.86	32093.43
453.05	33170.07
453.23	34150.76
453.42	34586.10
453.60	35791.47
453.78	36414.05
453.97	35435.71
454.15	35414.65
454.34	34806.11
454.52	35037.82
454.70	34412.90
454.89	34506.52
455.07	34597.80
455.26	35421.67
455.44	36460.87
455.62	37296.44
455.81	37691.99
455.99	37317.50
456.17	36428.10
456.36	36594.28
456.54	38036.05
456.73	38026.68
456.91	38649.27
457.09	38337.98
457.28	39295.25
457.46	37415.80
457.64	37563.26
457.83	36655.13
458.01	35618.27
458.19	36254.90
458.38	36580.23
458.56	38038.39
458.74	37986.89
458.93	37120.90
459.11	36732.37
459.29	36811.95
459.48	37111.53
459.66	37120.90
459.84	37223.88
460.03	37811.35
460.21	37628.79
460.39	38710.12
460.57	38794.38
460.76	39232.06
460.94	39409.94
461.12	38953.54
461.31	38646.93
461.49	38637.56
461.67	39000.35
461.85	39807.83
462.04	39583.14
462.22	40224.45
462.40	39732.93
462.59	39723.57
462.77	39721.23
462.95	39358.45
463.13	39292.91
463.32	39028.43
463.50	38473.73
463.68	38927.79
463.86	38763.95
464.05	38272.44
464.23	37188.77
464.41	37862.85
464.59	36992.17
464.78	38948.85
464.96	38782.68
465.14	38120.31
465.32	39086.95
465.50	39976.35
465.69	40257.21
465.87	39470.79
466.05	38637.56
466.23	37081.11
466.41	35943.61
466.60	37053.02
466.78	37399.42
466.96	37560.92
467.14	38312.23
467.32	38625.86
467.51	39119.71
467.69	37329.20
467.87	37989.24
468.05	38986.30
468.23	38527.56
468.41	39012.05
468.60	38682.03
468.78	39260.15
468.96	38717.14
469.14	39409.94
469.32	39290.57
469.50	38024.34
469.69	38176.48
469.87	37605.39
470.05	37237.92
470.23	37596.03
470.41	38251.38
470.59	38160.09
470.77	38565.01
470.95	39381.85
471.14	39723.57
471.32	39271.85
471.50	41965.81
471.68	41844.10
471.86	42075.81
472.04	42497.11
472.22	42277.10
472.40	39899.11
472.58	39754.00
472.77	39845.28
472.95	40446.80
473.13	41666.22
473.31	40486.59
473.49	40769.79
473.67	41429.82
473.85	41666.22
474.03	43019.05
474.21	42923.08
474.39	43072.88
474.57	43367.79
474.75	43622.90
474.93	42923.08
475.12	42408.17
475.30	42253.69
475.48	42454.98
475.66	42815.42
475.84	42588.39
476.02	41954.10
476.20	41256.62
476.38	42246.67
476.56	43306.93
476.74	44355.49
476.92	44659.76
477.10	44683.17
477.28	46209.20
477.46	45947.06
477.64	46852.84
477.82	46480.70
478.00	46784.97
478.18	46492.40
478.36	46052.38
478.54	46206.86
478.72	46000.89
478.90	47110.30
479.08	48477.18
479.26	49095.08
479.44	48547.39
479.62	48362.49
479.80	48573.14
479.98	48547.39
480.16	49235.51
480.34	48446.75
480.52	48914.86
480.70	48802.51
480.88	49263.60
481.06	49935.33
481.24	50117.89
481.41	50873.88
481.59	51365.40
481.77	50927.72
481.95	50763.88
482.13	50522.80
482.31	50618.77
482.49	51000.27
482.67	51075.17
482.85	51353.69
483.03	51702.43
483.21	52348.42
483.39	52198.63
483.57	51213.26
483.74	51243.69
483.92	51501.15
484.10	51707.12
484.28	52107.35
484.46	52767.38
484.64	53132.50
484.82	52313.31
485.00	51866.27
485.18	51004.95
485.35	50328.54
485.53	47058.81
485.71	43386.51
485.89	43145.44
486.07	45123.19
486.25	48631.65
486.43	50443.23
486.61	51084.53
486.78	51058.79
486.96	51386.46
487.14	52755.68
487.32	53209.74
487.50	54450.22
487.68	54672.57
487.85	55295.16
488.03	55281.11
488.21	54946.42
488.39	54330.86
488.57	53921.26
488.75	53514.01
488.92	54447.88
489.10	56350.74
489.28	57167.58
489.46	57839.32
489.64	57579.52
489.81	57935.28
489.99	57457.81
490.17	57375.89
490.35	57818.25
490.53	57418.02
490.70	57207.37
490.88	57146.52
491.06	58049.97
491.24	57897.83
491.41	57080.98
491.59	55578.36
491.77	55147.70
491.95	56062.85
492.13	57099.71
492.30	57855.70
492.48	58815.32
492.66	59185.13
492.84	58993.20
493.01	58815.32
493.19	58445.52
493.37	58056.99
493.54	57932.94
493.72	58466.58
493.90	59437.90
494.08	59863.88
494.25	60453.70
494.43	60488.80
494.61	60790.73
494.79	60980.32
494.96	60706.47
495.14	60212.62
495.32	59547.91
495.49	58789.58
495.67	60032.40
495.85	61043.51
496.02	61268.20
496.20	61106.71
496.38	60760.31
496.55	60711.16
496.73	61109.05
496.91	61296.29
497.09	61715.25
497.26	61827.59
497.44	61392.25
497.62	60935.85
497.79	60177.51
497.97	59126.61
498.14	59278.75
498.32	60289.86
498.50	61127.77
498.67	61776.10
498.85	61394.59
499.03	61640.35
499.20	61827.59
499.38	61825.25
499.56	61698.86
499.73	61223.73
499.91	60856.27
500.08	60594.13
500.26	60013.68
500.44	60390.50
500.61	60860.95
500.79	60640.94
500.97	60481.78
501.14	60346.03
501.32	60264.11
501.49	60231.35
501.67	60519.23
501.84	60928.83
502.02	61036.49
502.20	61415.66
502.37	61560.77
502.55	61478.85
502.72	61998.45
502.90	62429.11
503.07	62344.85
503.25	61780.78
503.43	61174.58
503.60	60449.02
503.78	59835.80
503.95	60329.65
504.13	61609.92
504.30	62319.10
504.48	62188.03
504.65	61722.27
504.83	61867.38
505.01	62328.47
505.18	62738.06
505.36	63018.92
505.53	63269.36
505.71	63386.39
505.88	63379.37
506.06	63011.90
506.23	62717.00
506.41	62309.74
506.58	62564.86
506.76	62443.15
506.93	62394.00
507.11	62211.44
507.28	62454.86
507.46	62073.35
507.63	61556.09
507.81	61315.01
507.98	61572.47
508.16	62218.46
508.33	62738.06
508.50	63039.99
508.68	63316.17
508.85	63767.90
509.03	63767.90
509.20	63395.75
509.38	62829.34
509.55	62127.18
509.73	62351.87
509.90	62712.31
510.08	62972.11
510.25	63025.95
510.42	62808.28
510.60	62651.46
510.77	62976.79
510.95	63552.57
511.12	63702.36
511.30	63807.68
511.47	64114.29
511.64	63990.25
511.82	63688.32
511.99	62993.18
512.17	62588.27
512.34	62267.61
512.51	62447.83
512.69	62731.04
512.86	62653.80
513.04	62901.90
513.21	62990.84
513.38	62698.27
513.56	62342.51
513.73	61818.23
513.90	62033.56
514.08	62253.57
514.25	62323.78
514.43	62752.10
514.60	62693.59
514.77	62733.38
514.95	62962.75
515.12	62789.55
515.29	63213.19
515.47	63503.42
515.64	63711.72
515.81	63126.59
515.99	62691.25
516.16	61329.06
516.33	59522.16
516.51	58363.60
516.68	57635.69
516.85	57174.61
517.03	57729.31
517.20	59938.78
517.37	61909.51
517.54	62979.14
517.72	62614.01
517.89	60097.94
518.06	58389.34
518.24	58766.17
518.41	60619.88
518.58	61659.07
518.75	61975.05
518.93	61914.19
519.10	61813.55
519.27	62265.27
519.45	62560.18
519.62	63278.72
519.79	63477.67
519.96	63236.59
520.14	62803.59
520.31	62059.30
520.48	62073.35
520.65	62522.73
520.83	63299.79
521.00	63636.83
521.17	63220.21
521.34	62878.49
521.52	63304.47
521.69	63662.57
521.86	64109.61
522.03	63838.11
522.20	62511.03
522.38	61834.61
522.55	62078.03
522.72	62298.04
522.89	62480.60
523.07	62714.65
523.24	63194.46
523.41	63711.72
523.58	64015.99
523.75	64437.29
523.92	64296.86
524.10	64191.53
524.27	64228.98
524.44	63957.48
524.61	63821.73
524.78	63800.66
524.96	63664.91
525.13	63847.47
525.30	63772.58
525.47	64453.67
525.64	64217.28
525.81	63547.89
525.98	62267.61
526.16	61116.07
526.33	60526.25
526.50	60243.05
526.67	59924.74
526.84	60736.90
527.01	61455.45
527.18	62089.73
527.36	62848.06
527.53	63716.40
527.70	63856.84
527.87	63351.28
528.04	62878.49
528.21	63398.09
528.38	64158.76
528.55	64427.93
528.72	64776.67
528.89	64816.46
529.07	64568.36
529.24	63983.22
529.41	63564.27
529.58	62911.26
529.75	63093.82
529.92	63730.45
530.09	63863.86
530.26	64383.46
530.43	64619.85
530.60	64746.24
530.77	64669.00
530.94	64884.33
531.11	64289.84
531.28	64144.72
531.46	63941.10
531.63	64088.55
531.80	63817.05
531.97	63575.97
532.14	62843.38
532.31	61935.26
532.48	61446.08
532.65	61682.48
532.82	62365.91
532.99	63433.20
533.16	63646.19
533.33	64074.51
533.50	63819.39
533.67	63260.00
533.84	62911.26
534.01	63194.46
534.18	63269.36
534.35	63475.33
534.52	63257.66
534.69	63660.23
534.86	63819.39
535.03	64109.61
535.20	64519.21
535.37	64748.58
535.54	64823.48
535.71	64519.21
535.88	64273.45
536.05	63714.06
536.22	63437.88
536.38	63035.31
536.55	62684.23
536.72	62017.17
536.89	62150.59
537.06	62946.37
537.23	63894.28
537.40	63997.27
537.57	63828.75
537.74	63707.04
537.91	63629.80
538.08	63678.96
538.25	63660.23
538.42	63910.67
538.59	63409.79
538.75	63070.42
538.92	63004.88
539.09	62759.12
539.26	62482.94
539.43	62269.95
539.60	62564.86
539.77	62688.91
539.94	62581.24
540.11	61666.09
540.28	61347.78
540.44	61539.71
540.61	61694.18
540.78	61783.12
540.95	62466.56
541.12	62583.58
541.29	62939.35
541.46	63131.27
541.62	63182.76
541.79	63037.65
541.96	62515.71
542.13	62560.18
542.30	62810.62
542.47	62988.50
542.63	62663.16
542.80	62564.86
542.97	62642.10
543.14	62557.84
543.31	62588.27
543.48	63091.48
543.64	64025.35
543.81	64025.35
543.98	63718.74
544.15	63131.27
544.32	62578.90
544.48	62822.32
544.65	63274.04
544.82	63433.20
544.99	63262.34
545.16	62866.79
545.32	62761.47
545.49	63545.54
545.66	63568.95
545.83	63260.00
546.00	62937.01
546.16	62670.18
546.33	62808.28
546.50	62845.72
546.67	63367.66
546.83	62738.06
547.00	62883.17
547.17	62382.30
547.34	61813.55
547.50	61649.71
547.67	62244.21
547.84	62265.27
548.00	62459.54
548.17	63238.93
548.34	62836.36
548.51	62841.04
548.67	62873.81
548.84	62976.79
549.01	62808.28
549.18	62967.43
549.34	62571.88
549.51	62733.38
549.68	62904.24
549.84	62721.68
550.01	62487.62
550.18	62337.83
550.34	62323.78
550.51	62305.06
550.68	62536.77
550.84	62096.75
551.01	62253.57
551.18	62143.56
551.34	62403.36
551.51	62766.15
551.68	62939.35
551.84	63023.61
552.01	62791.89
552.18	62702.95
552.34	61937.60
552.51	61668.44
552.68	61652.05
552.84	61993.77
553.01	62159.95
553.18	62066.33
553.34	62260.59
553.51	62401.02
553.67	62688.91
553.84	62728.70
554.01	62511.03
554.17	62592.95
554.34	62499.33
554.51	62740.40
554.67	63112.55
554.84	62822.32
555.00	62438.47
555.17	62356.55
555.33	62396.34
555.50	62033.56
555.67	62225.48
555.83	62192.72
556.00	61708.22
556.16	61881.42
556.33	61371.19
556.50	61506.94
556.66	61436.72
556.83	61277.57
556.99	61450.77
557.16	61539.71
557.32	61689.50
557.49	61832.27
557.65	61710.56
557.82	61853.34
557.98	61572.47
558.15	61132.45
558.32	60470.08
558.48	59819.41
558.65	60062.83
558.81	60495.83
558.98	60727.54
559.14	60816.48
559.31	60917.12
559.47	60954.57
559.64	60580.09
559.80	60331.99
559.97	60254.75
560.13	60715.84
560.30	61427.36
560.46	61776.10
560.63	62192.72
560.79	62265.27
560.96	61979.73
561.12	60917.12
561.29	59997.29
561.45	60170.49
561.61	60638.60
561.78	61097.34
561.94	60851.59
562.11	60797.76
562.27	60617.53
562.44	61013.08
562.60	61364.17
562.77	61284.59
562.93	61254.16
563.10	61207.35
563.26	60636.26
563.42	60870.31
563.59	60781.37
563.75	60680.73
563.92	60734.56
564.08	60680.73
564.24	60919.46
564.41	60849.25
564.57	60823.50
564.74	60701.79
564.90	60594.13
565.07	60331.99
565.23	59973.89
565.39	59561.95
565.56	59519.82
565.72	59454.29
565.88	59681.32
566.05	59594.72
566.21	59845.16
566.38	60179.85
566.54	60130.70
566.70	60507.53
566.87	60793.07
567.03	60650.30
567.19	60886.70
567.36	60374.12
567.52	60451.36
567.68	60374.12
567.85	59688.34
568.01	59398.12
568.17	58878.52
568.34	59192.15
568.50	59227.26
568.66	59253.00
568.83	59625.15
568.99	59363.01
569.15	59856.86
569.32	59786.64
569.48	59608.76
569.64	59185.13
569.81	59049.38
569.97	59157.04
570.13	58894.90
570.30	58438.50
570.46	58195.08
570.62	57743.36
570.78	57717.61
570.95	58108.48
571.11	58642.12
571.27	58873.84
571.43	58770.85
571.60	59168.74
571.76	59442.59
571.92	59622.81
572.09	59573.66
572.25	59678.98
572.41	59547.91
572.57	59458.97
572.74	59662.60
572.90	59311.52
573.06	59014.27
573.22	59402.80
573.38	59306.83
573.55	59082.14
573.71	59213.21
573.87	59311.52
574.03	59325.56
574.20	59208.53
574.36	58784.90
574.52	58691.27
574.68	58534.46
574.84	58064.01
575.01	57872.09
575.17	57661.44
575.33	58010.18
575.49	58384.66
575.65	58440.84
575.82	58262.96
575.98	58124.86
576.14	58342.53
576.30	58394.03
576.46	58550.84
576.62	58307.43
576.79	58342.53
576.95	58143.59
577.11	58136.57
577.27	58478.28
577.43	58326.15
577.59	57907.19
577.75	57656.76
577.92	57106.73
578.08	56956.94
578.24	57153.54
578.40	57392.28
578.56	57425.04
578.72	57523.35
578.88	57537.39
579.04	57570.16
579.21	57991.45
579.37	57750.38
579.53	58042.95
579.69	58080.39
579.85	58031.24
580.01	58047.63
580.17	57418.02
580.33	57612.29
580.49	57406.32
580.65	57979.75
580.82	58026.56
580.98	58056.99
581.14	57813.57
581.30	57729.31
581.46	57792.51
581.62	57982.09
581.78	58148.27
581.94	58169.33
582.10	58005.50
582.26	58241.89
582.42	58042.95
582.58	58089.76
582.74	57968.05
582.90	57937.62
583.06	58080.39
583.22	57958.69
583.38	57757.40
583.54	57780.81
583.70	57741.02
583.86	57902.51
584.02	57645.05
584.18	57640.37
584.34	57579.52
584.50	57579.52
584.66	57691.86
584.82	57298.65
584.98	57045.88
585.14	56692.46
