SpectraSuite Data File
++++++++++++++++++++++++++++++++++++
Date: Mon Oct 07 14:53:05 GMT-05:00 2013
User: price-jones
Dark Spectrum Present: No
Reference Spectrum Present: No
Number of Sampled Component Spectra: 1
Spectrometers: USB2+H05261
Integration Time (usec): 100000 (USB2+H05261)
Spectra Averaged: 1 (USB2+H05261)
Boxcar Smoothing: 0 (USB2+H05261)
Correct for Electrical Dark: No (USB2+H05261)
Strobe/Lamp Enabled: No (USB2+H05261)
Correct for Detector Non-linearity: No (USB2+H05261)
Correct for Stray Light: No (USB2+H05261)
Number of Pixels in Processed Spectrum: 2048
>>>>>Begin Processed Spectral Data<<<<<
365.73	0.00
365.92	0.00
366.12	0.00
366.32	0.00
366.52	0.00
366.72	0.00
366.91	0.00
367.11	0.00
367.31	0.00
367.51	0.00
367.70	0.00
367.90	0.00
368.10	0.00
368.30	0.00
368.49	0.00
368.69	0.00
368.89	0.00
369.09	0.00
369.28	0.00
369.48	0.00
369.68	0.00
369.87	0.00
370.07	0.00
370.27	0.00
370.47	449.38
370.66	2623.74
370.86	3066.10
371.06	3304.84
371.25	3375.05
371.45	3087.17
371.65	2829.71
371.84	2548.84
372.04	2668.21
372.24	3176.11
372.44	3176.11
372.63	3143.34
372.83	2967.80
373.03	2593.31
373.22	2352.24
373.42	2516.08
373.62	2855.45
373.81	3124.62
374.01	3286.11
374.21	2867.16
374.40	2708.00
374.60	2764.17
374.79	3126.96
374.99	3648.90
375.19	3871.25
375.38	3866.56
375.58	3679.32
375.78	3623.15
375.97	3585.70
376.17	3819.75
376.37	3747.20
376.56	3920.40
376.76	4049.13
376.95	4243.39
377.15	4557.02
377.35	4903.42
377.54	5142.16
377.74	5137.48
377.93	5128.11
378.13	4954.91
378.33	4973.64
378.52	4449.36
378.72	4315.95
378.91	4315.95
379.11	4098.28
379.31	3955.51
379.50	3913.38
379.70	4189.56
379.89	4657.67
380.09	4861.29
380.28	5008.75
380.48	5001.72
380.68	4971.30
380.87	4936.19
381.07	4538.30
381.26	4109.98
381.46	3861.88
381.65	3702.73
381.85	3726.13
382.04	3314.20
382.24	3190.15
382.43	3136.32
382.63	3087.17
382.83	3089.51
383.02	3033.33
383.22	3026.31
383.41	3108.23
383.61	3169.09
383.80	3779.97
384.00	4315.95
384.19	4739.58
384.39	5078.96
384.58	5107.05
384.78	4938.53
384.97	4889.38
385.17	4671.71
385.36	4318.29
385.56	4107.64
385.75	4278.50
385.95	4793.42
386.14	5247.48
386.34	5188.97
386.53	4903.42
386.72	4634.26
386.92	4795.76
387.11	4772.35
387.31	5259.18
387.50	5156.20
387.70	4784.06
387.89	4908.10
388.09	4959.60
388.28	4851.93
388.48	5020.45
388.67	5612.60
388.86	5879.43
389.06	6511.37
389.25	6722.02
389.45	6677.55
389.64	6602.65
389.84	6843.73
390.03	6548.82
390.22	6590.95
390.42	6810.96
390.61	7332.90
390.81	7506.10
391.00	7618.44
391.19	7798.66
391.39	7489.71
391.58	7115.23
391.78	6509.03
391.97	6457.54
392.16	6066.67
392.36	5540.05
392.55	4353.40
392.75	3510.80
392.94	2829.71
393.13	2972.48
393.33	3403.14
393.52	4248.07
393.71	5280.25
393.91	5816.23
394.10	6551.16
394.29	6963.09
394.49	7676.96
394.68	8201.24
394.88	8259.75
395.07	8493.80
395.26	8374.44
395.46	8229.32
395.65	7810.37
395.84	6623.72
396.04	5621.97
396.23	4746.61
396.42	3775.28
396.62	3808.05
396.81	4337.01
397.00	5607.92
397.19	6916.28
397.39	8245.71
397.58	9226.39
397.77	9666.41
397.97	10265.59
398.16	10174.31
398.35	10663.48
398.55	10759.44
398.74	11265.00
398.93	11850.13
399.12	11330.53
399.32	10864.77
399.51	11468.62
399.70	11985.88
399.90	11786.94
400.09	11857.15
400.28	11896.94
400.47	11953.12
400.67	12505.48
400.86	12795.71
401.05	12758.26
401.24	12915.08
401.44	13167.85
401.63	13252.11
401.82	13343.39
402.01	13118.70
402.21	13338.71
402.40	13312.97
402.59	12905.71
402.78	12482.08
402.97	12255.04
403.17	12376.75
403.36	13291.90
403.55	13713.20
403.74	14010.45
403.93	13212.32
404.13	12201.21
404.32	12180.15
404.51	12776.98
404.70	13727.24
404.89	13830.23
405.09	13481.49
405.28	13097.64
405.47	12994.65
405.66	13146.79
405.85	12954.87
406.05	12353.35
406.24	12674.00
406.43	13137.43
406.62	13680.43
406.81	13708.52
407.00	13149.13
407.20	12945.50
407.39	12856.56
407.58	13685.11
407.77	14150.88
407.96	14494.94
408.15	14640.05
408.34	14890.49
408.54	15477.96
408.73	15419.45
408.92	15094.11
409.11	14834.32
409.30	14185.99
409.49	13139.77
409.68	12280.79
409.87	11920.35
410.07	12849.54
410.26	13792.78
410.45	14733.67
410.64	14963.04
410.83	15805.64
411.02	15709.68
411.21	16395.45
411.40	16051.39
411.59	16109.91
411.78	16168.42
411.98	16170.76
412.17	16210.55
412.36	16470.35
412.55	16137.99
412.74	15920.32
412.93	15508.39
413.12	15468.60
413.31	17106.98
413.50	16957.18
413.69	17355.07
413.88	16945.48
414.07	16116.93
414.26	16491.41
414.45	17216.98
414.64	16950.16
414.83	17345.71
415.02	16758.24
415.22	16994.63
415.41	17352.73
415.60	17373.80
415.79	18637.69
415.98	19185.37
416.17	18932.59
416.36	18546.40
416.55	18022.12
416.74	17603.17
416.93	16746.53
417.12	16966.54
417.31	17263.79
417.50	17420.61
417.69	18237.45
417.88	18216.39
418.07	17888.71
418.26	17467.42
418.45	17635.94
418.64	18656.41
418.83	19098.77
419.02	19185.37
419.21	18555.77
419.39	18050.21
419.58	17174.85
419.77	17022.72
419.96	17717.86
420.15	18991.11
420.34	19358.57
420.53	20016.26
420.72	20255.00
420.91	20039.67
421.10	19836.04
421.29	19805.61
421.48	19000.47
421.67	19924.98
421.86	19264.95
422.05	18171.92
422.24	16308.85
422.43	16411.84
422.61	17692.11
422.80	19386.66
422.99	19295.38
423.18	18504.28
423.37	18298.31
423.56	18452.78
423.75	18501.93
423.94	19014.51
424.13	18052.55
424.32	18150.85
424.50	18059.57
424.69	18120.43
424.88	18401.29
425.07	18312.35
425.26	18150.85
425.45	17638.28
425.64	17357.41
425.83	17273.15
426.01	18457.46
426.20	19044.94
426.39	18717.26
426.58	17376.14
426.77	16329.92
426.96	15737.76
427.15	16201.19
427.33	17647.64
427.52	18284.26
427.71	18216.39
427.90	17736.58
428.09	17989.36
428.28	17818.50
428.46	17188.89
428.65	16655.25
428.84	16973.56
429.03	17256.77
429.22	16430.56
429.40	15501.37
429.59	14045.55
429.78	12491.44
429.97	12505.48
430.16	12809.75
430.34	12952.52
430.53	12802.73
430.72	13107.00
430.91	14476.21
431.10	16744.19
431.28	20123.93
431.47	21216.96
431.66	21795.07
431.85	20067.75
432.03	18295.97
432.22	17579.76
432.41	18242.14
432.60	20177.76
432.79	20996.95
432.97	21305.90
433.16	20842.47
433.35	19023.87
433.54	17226.34
433.72	16343.96
433.91	17067.19
434.10	18733.65
434.28	20187.12
434.47	21282.49
434.66	20800.34
434.85	20130.95
435.03	20086.48
435.22	20786.30
435.41	21820.81
435.59	21933.16
435.78	22045.51
435.97	22693.83
436.16	23197.05
436.34	22501.91
436.53	22387.22
436.72	22391.91
436.90	21209.93
437.09	20994.61
437.28	20425.86
437.46	21516.54
437.65	21324.62
437.84	19906.26
438.02	18263.20
438.21	18143.83
438.40	19075.37
438.58	20774.60
438.77	21443.99
438.96	21394.84
439.14	22382.54
439.33	22684.47
439.52	23332.80
439.70	23157.26
439.89	21867.63
440.08	21411.22
440.26	22010.40
440.45	22363.82
440.63	24205.82
440.82	25254.38
441.01	24643.50
441.19	24552.22
441.38	25003.94
441.57	25961.22
441.75	26057.18
441.94	26228.04
442.12	26176.55
442.31	26927.86
442.50	26190.59
442.68	26270.17
442.87	25806.75
443.05	25043.73
443.24	26092.29
443.43	26462.10
443.61	26792.11
443.80	27014.46
443.98	25649.93
444.17	25909.73
444.35	27246.18
444.54	27690.88
444.73	27101.06
444.91	26134.42
445.10	25163.10
445.28	24540.52
445.47	23763.46
445.65	24315.83
445.84	24575.62
446.02	25663.97
446.21	25802.07
446.39	25965.90
446.58	26445.71
446.77	26562.74
446.95	26787.43
447.14	27630.02
447.32	28261.97
447.51	27489.59
447.69	26415.29
447.88	26185.91
448.06	26703.17
448.25	27138.51
448.43	27587.89
448.62	26682.11
448.80	26396.56
448.99	26452.73
449.17	26977.01
449.36	27171.28
449.54	28212.82
449.73	28428.15
449.91	29160.73
450.10	29614.80
450.28	29855.87
450.46	30094.61
450.65	29986.94
450.83	29572.67
451.02	29041.37
451.20	28793.27
451.39	28912.64
451.57	28975.83
451.76	28517.09
451.94	28437.51
452.13	27885.14
452.31	26829.56
452.49	25504.82
452.68	25839.51
452.86	25678.02
453.05	25694.40
453.23	27328.10
453.42	27747.05
453.60	28481.98
453.78	28458.57
453.97	28257.29
454.15	28521.77
454.34	27585.55
454.52	28004.51
454.70	27103.40
454.89	27735.35
455.07	27747.05
455.26	28589.64
455.44	29202.86
455.62	29773.95
455.81	29905.02
455.99	29434.58
456.17	29214.57
456.36	29694.38
456.54	29958.86
456.73	30319.30
456.91	30670.38
457.09	31058.91
457.28	31496.59
457.46	30469.09
457.64	29619.48
457.83	29324.57
458.01	28072.39
458.19	29184.14
458.38	28828.38
458.56	29935.45
458.74	29827.79
458.93	29680.33
459.11	29680.33
459.29	29413.51
459.48	29333.93
459.66	29376.06
459.84	29659.27
460.03	30263.13
460.21	30335.68
460.39	30834.22
460.57	30679.74
460.76	30682.08
460.94	31379.56
461.12	30492.50
461.31	30888.05
461.49	31131.47
461.67	30976.99
461.85	31817.24
462.04	31587.87
462.22	32147.26
462.40	31426.37
462.59	31438.08
462.77	31948.31
462.95	32009.17
463.13	31105.72
463.32	31108.06
463.50	30955.93
463.68	30874.01
463.86	31323.39
464.05	30307.60
464.23	29872.26
464.41	29942.47
464.59	29584.37
464.78	30794.43
464.96	30036.09
465.14	30106.31
465.32	30944.22
465.50	31931.93
465.69	31896.82
465.87	31143.17
466.05	30579.10
466.23	29347.98
466.41	28430.49
466.60	29364.36
466.78	29333.93
466.96	29799.70
467.14	30548.67
467.32	30714.85
467.51	30878.69
467.69	29434.58
467.87	29963.54
468.05	30438.67
468.23	30543.99
468.41	30792.09
468.60	30492.50
468.78	30710.17
468.96	30817.83
469.14	31269.56
469.32	31112.74
469.50	30059.50
469.69	30361.43
469.87	29757.57
470.05	29788.00
470.23	29813.74
470.41	29834.81
470.59	30059.50
470.77	30213.98
470.95	30916.14
471.14	31536.38
471.32	31564.46
471.50	33338.59
471.68	33048.36
471.86	33689.67
472.04	34045.43
472.22	34321.62
472.40	32065.34
472.58	31861.71
472.77	31732.98
472.95	31995.12
473.13	33198.16
473.31	32306.41
473.49	32217.47
473.67	33177.09
473.85	32783.88
474.03	34000.96
474.21	34429.28
474.39	34511.20
474.57	34520.56
474.75	34696.10
474.93	34827.17
475.12	33450.94
475.30	34139.05
475.48	33928.41
475.66	34590.78
475.84	33848.83
476.02	33338.59
476.20	32896.23
476.38	33500.09
476.56	34873.98
476.74	35480.18
476.92	35356.13
477.10	35908.50
477.28	36882.16
477.46	36746.41
477.64	37273.03
477.82	37514.11
478.00	37607.73
478.18	37123.24
478.36	36849.39
478.54	37170.05
478.72	37432.19
478.90	38312.23
479.08	38714.80
479.26	39250.78
479.44	39206.31
479.62	39138.44
479.80	39583.14
479.98	39494.20
480.16	39751.66
480.34	39040.14
480.52	39761.02
480.70	40222.11
480.88	39814.85
481.06	40741.71
481.24	40889.16
481.41	41675.58
481.59	42382.42
481.77	41991.55
481.95	41495.36
482.13	41464.93
482.31	41287.05
482.49	42426.89
482.67	42071.13
482.85	42110.92
483.03	42857.55
483.21	43285.87
483.39	43175.86
483.57	42368.38
483.74	42293.48
483.92	42586.05
484.10	42784.99
484.28	43742.27
484.46	43655.67
484.64	44332.09
484.82	43372.47
485.00	43358.42
485.18	42478.38
485.35	40762.77
485.53	37806.67
485.71	34705.46
485.89	34235.02
486.07	36521.72
486.25	39182.91
486.43	41134.92
486.61	42305.18
486.78	42080.49
486.96	41984.53
487.14	43955.26
487.32	44992.12
487.50	45918.97
487.68	46962.85
487.85	47330.31
488.03	47042.43
488.21	47075.19
488.39	46026.63
488.57	45413.41
488.75	45099.78
488.92	46581.34
489.10	48875.07
489.28	50176.40
489.46	51278.80
489.64	50511.10
489.81	50930.06
489.99	50740.47
490.17	50824.73
490.35	51026.02
490.53	50160.02
490.70	50167.04
490.88	49846.39
491.06	50864.52
491.24	50829.41
491.41	49918.95
491.59	47915.45
491.77	47395.85
491.95	48158.86
492.13	49722.34
492.30	50920.70
492.48	52088.62
492.66	52793.12
492.84	52629.29
493.01	52243.10
493.19	51662.64
493.37	51370.08
493.54	50913.67
493.72	51782.01
493.90	52858.66
494.08	53284.64
494.25	54167.02
494.43	54064.03
494.61	54405.75
494.79	54625.76
494.96	54494.69
495.14	53719.98
495.32	52856.32
495.49	52280.55
495.67	53396.98
495.85	54721.72
496.02	55007.27
496.20	55011.95
496.38	54141.27
496.55	54522.78
496.73	54864.50
496.91	55028.34
497.09	55655.60
497.26	55882.63
497.44	55168.77
497.62	54445.54
497.79	53832.32
497.97	52451.41
498.14	52636.31
498.32	53822.96
498.50	55103.23
498.67	55515.17
498.85	55192.17
499.03	55590.06
499.20	55826.46
499.38	55711.77
499.56	55456.65
499.73	55201.53
499.91	54597.68
500.08	54258.30
500.26	53677.85
500.44	54141.27
500.61	54789.60
500.79	54768.54
500.97	54101.48
501.14	53951.69
501.32	53518.69
501.49	53853.39
501.67	53794.87
501.84	54745.13
502.02	54644.49
502.20	55325.58
502.37	55522.19
502.55	55171.11
502.72	56079.24
502.90	56584.79
503.07	56034.77
503.25	55812.41
503.43	54738.11
503.60	54272.34
503.78	53441.45
503.95	54012.54
504.13	55449.63
504.30	56121.37
504.48	56334.35
504.65	55732.84
504.83	55976.25
505.01	56570.75
505.18	56638.62
505.36	57602.92
505.53	57373.55
505.71	57846.34
505.88	57766.76
506.06	57036.51
506.23	56584.79
506.41	56509.89
506.58	56657.35
506.76	56472.45
506.93	56416.27
507.11	56233.71
507.28	56460.74
507.46	55854.54
507.63	55444.95
507.81	55168.77
507.98	55456.65
508.16	56097.96
508.33	56772.03
508.50	57153.54
508.68	57247.16
508.85	57689.52
509.03	57729.31
509.20	57476.54
509.38	56868.00
509.55	56219.67
509.73	56364.78
509.90	56795.44
510.08	57272.91
510.25	56975.66
510.42	56680.75
510.60	56673.73
510.77	57099.71
510.95	57656.76
511.12	57729.31
511.30	57867.40
511.47	58031.24
511.64	58017.20
511.82	57860.38
511.99	56917.15
512.17	56741.61
512.34	56226.69
512.51	56343.72
512.69	56652.67
512.86	56629.26
513.04	57193.33
513.21	57125.46
513.38	56645.65
513.56	56168.18
513.73	55496.44
513.90	55938.80
514.08	55973.91
514.25	56376.48
514.43	56629.26
514.60	56547.34
514.77	56636.28
514.95	56645.65
515.12	56718.20
515.29	56877.36
515.47	57518.67
515.64	57846.34
515.81	57268.23
515.99	56802.46
516.16	55290.48
516.33	52858.66
516.51	51196.88
516.68	50314.50
516.85	49806.60
517.03	50532.17
517.20	53272.93
517.37	55910.72
517.54	56933.53
517.72	56547.34
517.89	53715.29
518.06	51426.25
518.24	51798.40
518.41	54101.48
518.58	55571.34
518.75	55501.12
518.93	55711.77
519.10	55566.66
519.27	56388.19
519.45	56315.63
519.62	57088.01
519.79	57436.75
519.96	57270.57
520.14	56765.01
520.31	55819.44
520.48	55849.86
520.65	56226.69
520.83	57282.27
521.00	57703.57
521.17	57258.87
521.34	56748.63
521.52	57361.85
521.69	57844.00
521.86	58082.73
522.03	57890.81
522.20	56523.94
522.38	55650.92
522.55	55690.71
522.72	56203.28
522.89	56516.92
523.07	56830.55
523.24	57034.17
523.41	57841.66
523.58	58206.78
523.75	58518.07
523.92	58251.25
524.10	58485.31
524.27	58230.19
524.44	58253.59
524.61	57853.36
524.78	57574.84
524.96	57542.07
525.13	57759.74
525.30	58171.67
525.47	58375.30
525.64	58225.51
525.81	57567.82
525.98	56095.62
526.16	54607.04
526.33	53944.67
526.50	53909.56
526.67	53432.09
526.84	54267.66
527.01	55033.02
527.18	56037.11
527.36	56853.95
527.53	57577.18
527.70	57844.00
527.87	57298.65
528.04	56811.82
528.21	57471.85
528.38	57993.79
528.55	58504.03
528.72	58684.25
528.89	59103.21
529.07	58660.85
529.24	57909.53
529.41	57577.18
529.58	56818.84
529.75	57333.76
529.92	57591.22
530.09	58054.65
530.26	58251.25
530.43	58387.00
530.60	58588.29
530.77	58951.07
530.94	58864.47
531.11	58335.51
531.28	58195.08
531.46	58085.07
531.63	58059.33
531.80	57890.81
531.97	57448.45
532.14	56893.74
532.31	55344.31
532.48	55161.75
532.65	55327.92
532.82	56011.36
532.99	57085.67
533.16	57563.14
533.33	57944.64
533.50	57832.30
533.67	57387.60
533.84	56772.03
534.01	57001.41
534.18	57268.23
534.35	57535.05
534.52	57169.93
534.69	57446.11
534.86	57874.43
535.03	58080.39
535.20	58803.62
535.37	59051.72
535.54	58897.24
535.71	58553.18
535.88	58166.99
536.05	57425.04
536.22	57345.47
536.38	56968.64
536.55	56266.48
536.72	56020.72
536.89	55789.01
537.06	56970.98
537.23	57509.30
537.40	57820.59
537.57	57925.92
537.74	57595.90
537.91	57588.88
538.08	57413.34
538.25	57668.46
538.42	57935.28
538.59	57623.99
538.75	56917.15
538.92	56767.35
539.09	56760.33
539.26	56676.07
539.43	56324.99
539.60	56320.31
539.77	56598.83
539.94	56324.99
540.11	55592.40
540.28	55133.66
540.44	55187.49
540.61	55297.50
540.78	55763.26
540.95	56109.66
541.12	56451.38
541.29	56919.49
541.46	57226.10
541.62	57305.68
541.79	57020.13
541.96	56381.16
542.13	56259.46
542.30	56610.54
542.47	56865.66
542.63	56706.50
542.80	56427.98
542.97	56378.82
543.14	56317.97
543.31	56502.87
543.48	56858.63
543.64	57790.17
543.81	57984.43
543.98	57790.17
544.15	57043.54
544.32	56673.73
544.48	56814.16
544.65	57151.20
544.82	57429.72
544.99	57076.30
545.16	56645.65
545.32	56486.49
545.49	57277.59
545.66	57691.86
545.83	57123.11
546.00	56879.70
546.16	56580.11
546.33	56505.21
546.50	56905.44
546.67	57415.68
546.83	56811.82
547.00	56945.23
547.17	56189.24
547.34	55599.43
547.50	55702.41
547.67	56142.43
547.84	55852.20
548.00	56430.32
548.17	56898.42
548.34	56739.27
548.51	56713.52
548.67	56708.84
548.84	56952.26
549.01	56900.76
549.18	56652.67
549.34	56580.11
549.51	56706.50
549.68	56420.95
549.84	56306.27
550.01	56243.07
550.18	55980.93
550.34	56254.78
550.51	56353.08
550.68	56329.67
550.84	55793.69
551.01	55894.33
551.18	55870.93
551.34	56004.34
551.51	56596.49
551.68	56846.93
551.84	56896.08
552.01	56432.66
552.18	56378.82
552.34	55770.28
552.51	55437.93
552.68	55185.15
552.84	55920.08
553.01	55931.78
553.18	55936.46
553.34	56025.40
553.51	56158.81
553.67	56488.83
553.84	56568.41
554.01	56313.29
554.17	56065.19
554.34	56217.33
554.51	56449.04
554.67	56793.10
554.84	56348.40
555.00	56376.48
555.17	56041.79
555.33	55807.73
555.50	55833.48
555.67	55882.63
555.83	55875.61
556.00	55395.80
556.16	55458.99
556.33	55166.43
556.50	54789.60
556.66	55082.17
556.83	54583.63
556.99	54850.45
557.16	54927.69
557.32	55281.11
557.49	55676.66
557.65	55372.39
557.82	55377.08
557.98	55377.08
558.15	54611.72
558.32	53862.75
558.48	53059.94
558.65	53301.02
558.81	53530.39
558.98	54052.33
559.14	54347.24
559.31	54262.98
559.47	54176.38
559.64	54113.19
559.80	53621.67
559.97	53567.84
560.13	54384.69
560.30	55325.58
560.46	55686.03
560.63	55564.32
560.79	55835.82
560.96	55428.57
561.12	54033.61
561.29	53359.53
561.45	53645.08
561.61	54108.50
561.78	54227.87
561.94	54330.86
562.11	54038.29
562.27	53907.22
562.44	54251.28
562.60	54908.97
562.77	55217.92
562.93	54693.64
563.10	54705.34
563.26	54176.38
563.42	54307.45
563.59	54136.59
563.75	54073.40
563.92	54096.80
564.08	53998.50
564.24	54480.65
564.41	54415.11
564.57	54164.68
564.74	54108.50
564.90	54035.95
565.07	53581.88
565.23	53279.96
565.39	52645.67
565.56	52577.79
565.72	52048.83
565.88	52996.75
566.05	53069.31
566.21	53432.09
566.38	53244.85
566.54	53460.18
566.70	53764.45
566.87	54073.40
567.03	54167.02
567.19	54288.73
567.36	54003.18
567.52	53897.86
567.68	53392.30
567.85	52942.92
568.01	52481.83
568.17	51917.76
568.34	52133.09
568.50	51870.95
568.66	52341.40
568.83	52629.29
568.99	52594.18
569.15	52959.30
569.32	52711.20
569.48	52561.41
569.64	52458.43
569.81	52020.75
569.97	52034.79
570.13	51702.43
570.30	51395.82
570.46	50918.35
570.62	50054.70
570.78	50129.59
570.95	50827.07
571.11	51690.73
571.27	51477.74
571.43	52053.51
571.60	52289.91
571.76	52165.86
571.92	52420.98
572.09	52774.40
572.25	52488.85
572.41	52942.92
572.57	52406.94
572.74	52582.48
572.90	52072.24
573.06	51913.08
573.22	52423.32
573.38	52240.76
573.55	52266.50
573.71	52357.78
573.87	52409.28
574.03	51889.68
574.20	51894.36
574.36	51573.70
574.52	51650.94
574.68	51423.91
574.84	50719.41
575.01	50220.87
575.17	50548.55
575.33	50761.54
575.49	51246.03
575.65	51019.00
575.82	50869.20
575.98	50705.37
576.14	51187.52
576.30	51105.60
576.46	51175.81
576.62	51133.68
576.79	51054.11
576.95	51121.98
577.11	50920.70
577.27	50916.01
577.43	51103.26
577.59	50375.35
577.75	50005.55
577.92	49558.50
578.08	48877.41
578.24	48861.02
578.40	49574.89
578.56	49560.84
578.72	49844.05
578.88	50663.24
579.04	50396.42
579.21	50251.30
579.37	50218.53
579.53	50705.37
579.69	50667.92
579.85	50801.33
580.01	50852.82
580.17	49741.06
580.33	50000.86
580.49	49876.82
580.65	50319.18
580.82	50845.80
580.98	50471.31
581.14	50475.99
581.30	50248.96
581.46	50136.62
581.62	50616.43
581.78	50497.06
581.94	51014.32
582.10	50319.18
582.26	51030.70
582.42	50794.31
582.58	50780.26
582.74	50698.34
582.90	50775.58
583.06	50681.96
583.22	50473.65
583.38	50457.27
583.54	50483.01
583.70	50316.84
583.86	50651.53
584.02	49961.08
584.18	50157.68
584.34	50068.74
584.50	50375.35
584.66	49825.32
584.82	49207.42
584.98	49460.20
585.14	49172.31
585.30	48327.38
