SpectraSuite Data File
++++++++++++++++++++++++++++++++++++
Date: Mon Oct 07 14:53:04 GMT-05:00 2013
User: price-jones
Dark Spectrum Present: No
Reference Spectrum Present: No
Number of Sampled Component Spectra: 1
Spectrometers: USB2+H05261
Integration Time (usec): 100000 (USB2+H05261)
Spectra Averaged: 1 (USB2+H05261)
Boxcar Smoothing: 0 (USB2+H05261)
Correct for Electrical Dark: No (USB2+H05261)
Strobe/Lamp Enabled: No (USB2+H05261)
Correct for Detector Non-linearity: No (USB2+H05261)
Correct for Stray Light: No (USB2+H05261)
Number of Pixels in Processed Spectrum: 2048
>>>>>Begin Processed Spectral Data<<<<<
365.73	0.00
365.92	0.00
366.12	0.00
366.32	0.00
366.52	0.00
366.72	0.00
366.91	0.00
367.11	0.00
367.31	0.00
367.51	0.00
367.70	0.00
367.90	0.00
368.10	0.00
368.30	0.00
368.49	0.00
368.69	0.00
368.89	0.00
369.09	0.00
369.28	0.00
369.48	0.00
369.68	0.00
369.87	0.00
370.07	0.00
370.27	0.00
370.47	458.74
370.66	2469.27
370.86	2993.55
371.06	3323.56
371.25	3297.81
371.45	2946.73
371.65	2612.04
371.84	2382.67
372.04	2630.76
372.24	2963.12
372.44	3066.10
372.63	2988.86
372.83	2794.60
373.03	2502.03
373.22	2284.36
373.42	2462.24
373.62	2731.41
373.81	3030.99
374.01	3005.25
374.21	2761.83
374.40	2558.21
374.60	2583.95
374.79	2970.14
374.99	3452.29
375.19	3646.55
375.38	3768.26
375.58	3433.57
375.78	3375.05
375.97	3463.99
376.17	3545.91
376.37	3658.26
376.56	3794.01
376.76	3969.55
376.95	4163.81
377.15	4414.25
377.35	4395.53
377.54	4847.25
377.74	5027.47
377.93	4985.34
378.13	4835.55
378.33	4592.13
378.52	4229.35
378.72	4161.47
378.91	4128.70
379.11	3831.46
379.31	3606.77
379.50	3782.31
379.70	4074.87
379.89	4451.70
380.09	4660.01
380.28	4844.91
380.48	4828.53
380.68	4652.98
380.87	4512.55
381.07	4229.35
381.26	3899.33
381.46	3796.35
381.65	3714.43
381.85	3576.34
382.04	3300.16
382.24	2970.14
382.43	2853.11
382.63	2850.77
382.83	2963.12
383.02	2864.82
383.22	2890.56
383.41	2977.16
383.61	3302.50
383.80	3592.72
384.00	4058.49
384.19	4669.37
384.39	4919.81
384.58	4788.74
384.78	4596.81
384.97	4589.79
385.17	4299.56
385.36	4229.35
385.56	4011.68
385.75	4205.94
385.95	4540.64
386.14	4922.15
386.34	4901.08
386.53	4730.22
386.72	4444.68
386.92	4554.68
387.11	4772.35
387.31	5060.24
387.50	4844.91
387.70	4709.16
387.89	4706.82
388.09	4617.88
388.28	4744.27
388.48	4767.67
388.67	5076.62
388.86	5577.50
389.06	6078.37
389.25	6497.33
389.45	6413.07
389.64	6284.34
389.84	6415.41
390.03	6239.87
390.22	6209.44
390.42	6230.51
390.61	6729.04
390.81	7164.38
391.00	7243.96
391.19	7365.67
391.39	7138.63
391.58	6616.69
391.78	6274.98
391.97	6207.10
392.16	5743.67
392.36	5156.20
392.55	4154.45
392.75	3286.11
392.94	2740.77
393.13	2602.68
393.33	3213.56
393.52	4133.39
393.71	5050.88
393.91	5624.31
394.10	6038.58
394.29	6780.53
394.49	7368.01
394.68	7733.13
394.88	7637.17
395.07	8266.77
395.26	8006.97
395.46	7742.49
395.65	7171.40
395.84	6504.35
396.04	5385.57
396.23	4365.10
396.42	3684.00
396.62	3686.34
396.81	4042.11
397.00	5214.71
397.19	6658.82
397.39	8042.08
397.58	9025.11
397.77	9406.61
397.97	9870.04
398.16	9806.84
398.35	10265.59
398.55	10518.37
398.74	10953.71
398.93	11234.57
399.12	10892.85
399.32	10499.64
399.51	10867.11
399.70	11513.10
399.90	11375.00
400.09	11503.73
400.28	11367.98
400.47	11609.06
400.67	11927.37
400.86	12276.11
401.05	12435.27
401.24	12343.99
401.44	12287.81
401.63	12351.01
401.82	12699.75
402.01	12882.31
402.21	12812.09
402.40	13020.40
402.59	12322.92
402.78	11793.96
402.97	11576.29
403.17	11962.48
403.36	12636.55
403.55	13509.57
403.74	13446.38
403.93	12727.83
404.13	11789.28
404.32	11405.43
404.51	12065.46
404.70	12975.93
404.89	13156.15
405.09	12781.67
405.28	12578.04
405.47	12374.41
405.66	12444.63
405.85	12299.52
406.05	11805.66
406.24	12039.72
406.43	12379.09
406.62	12945.50
406.81	13231.05
407.00	12456.33
407.20	12397.82
407.39	12358.03
407.58	12996.99
407.77	13422.97
407.96	13699.16
408.15	13839.59
408.34	14001.08
408.54	14590.90
408.73	14724.31
408.92	14530.05
409.11	14064.28
409.30	13373.82
409.49	12636.55
409.68	11754.17
409.87	11487.35
410.07	12262.07
410.26	13095.30
410.45	14122.79
410.64	14169.60
410.83	14787.50
411.02	14951.34
411.21	15925.00
411.40	15779.89
411.59	15641.80
411.78	15456.90
411.98	15161.99
412.17	15506.05
412.36	15241.57
412.55	15234.55
412.74	14977.09
412.93	15012.20
413.12	14869.42
413.31	16137.99
413.50	16262.04
413.69	16919.73
413.88	15896.92
414.07	15815.00
414.26	15786.91
414.45	16404.81
414.64	16634.19
414.83	16264.38
415.02	16025.65
415.22	16308.85
415.41	16751.21
415.60	16947.82
415.79	17696.79
415.98	17989.36
416.17	18033.83
416.36	17713.17
416.55	17387.84
416.74	16760.58
416.93	16137.99
417.12	16257.36
417.31	16444.60
417.50	16575.67
417.69	17296.56
417.88	17186.55
418.07	16985.27
418.26	16772.28
418.45	17078.89
418.64	17755.30
418.83	18422.36
419.02	17855.95
419.21	17673.39
419.39	17050.80
419.58	16051.39
419.77	16163.74
419.96	16978.25
420.15	18054.89
420.34	18331.08
420.53	19061.32
420.72	19463.90
420.91	19150.26
421.10	18972.38
421.29	18766.42
421.48	18160.22
421.67	18979.40
421.86	18625.98
422.05	17287.20
422.24	15606.69
422.43	15599.67
422.61	17231.02
422.80	18368.52
422.99	18181.28
423.18	17909.78
423.37	17390.18
423.56	17315.28
423.75	17862.97
423.94	18192.98
424.13	17163.15
424.32	17209.96
424.50	17436.99
424.69	16861.22
424.88	17525.93
425.07	17149.11
425.26	17322.30
425.45	17057.82
425.64	16809.73
425.83	16671.64
426.01	17713.17
426.20	18230.43
426.39	17994.04
426.58	16772.28
426.77	15307.10
426.96	14740.69
427.15	15557.54
427.33	16727.81
427.52	17436.99
427.71	17525.93
427.90	17235.70
428.09	16896.33
428.28	16620.14
428.46	15861.81
428.65	15707.34
428.84	16269.06
429.03	16432.90
429.22	15611.37
429.40	14775.80
429.59	13341.05
429.78	11901.62
429.97	12123.98
430.16	12287.81
430.34	12194.19
430.53	12142.70
430.72	12355.69
430.91	13654.69
431.10	16325.24
431.28	19103.45
431.47	20774.60
431.66	20673.95
431.85	19021.53
432.03	17167.83
432.22	16929.09
432.41	17352.73
432.60	19220.48
432.79	19803.27
432.97	20362.66
433.16	19901.58
433.35	18026.81
433.54	16393.11
433.72	15300.08
433.91	15999.90
434.10	17942.55
434.28	19161.97
434.47	20056.05
434.66	19587.94
434.85	19426.45
435.03	19054.30
435.22	19723.69
435.41	20905.66
435.59	20828.43
435.78	21624.21
435.97	21582.08
436.16	21701.45
436.34	21446.33
436.53	20971.20
436.72	21118.65
436.90	19852.42
437.09	19924.98
437.28	19819.66
437.46	20435.22
437.65	20016.26
437.84	18707.90
438.02	17458.06
438.21	17209.96
438.40	18239.79
438.58	19726.04
438.77	20343.94
438.96	20428.20
439.14	21383.13
439.33	21713.15
439.52	22143.81
439.70	21425.26
439.89	21392.50
440.08	20769.91
440.26	20442.24
440.45	21722.51
440.63	22934.91
440.82	24081.77
441.01	23351.52
441.19	23178.33
441.38	23948.36
441.57	24341.57
441.75	24587.33
441.94	25081.18
442.12	24702.01
442.31	25226.29
442.50	25071.82
442.68	24943.09
442.87	24510.09
443.05	23955.38
443.24	24840.11
443.43	24933.73
443.61	25542.27
443.80	26192.94
443.98	24283.06
444.17	24025.60
444.35	25755.26
444.54	26600.19
444.73	25848.88
444.91	24821.38
445.10	23735.37
445.28	22738.30
445.47	22485.53
445.65	23037.89
445.84	23241.52
446.02	23943.68
446.21	24648.18
446.39	24833.08
446.58	24718.40
446.77	25394.81
446.95	25631.21
447.14	26185.91
447.32	26630.62
447.51	25907.39
447.69	24828.40
447.88	24795.64
448.06	25298.85
448.25	25928.45
448.43	26106.34
448.62	25469.71
448.80	25378.43
448.99	25493.12
449.17	25724.83
449.36	25546.95
449.54	27009.78
449.73	27049.57
449.91	27714.28
450.10	28247.93
450.28	28580.28
450.46	28517.09
450.65	28383.68
450.83	27969.40
451.02	27281.28
451.20	27288.31
451.39	27454.48
451.57	27503.64
451.76	27225.11
451.94	26925.52
452.13	26532.31
452.31	25376.09
452.49	24432.85
452.68	24549.88
452.86	24528.81
453.05	24741.80
453.23	25764.62
453.42	26277.19
453.60	26553.38
453.78	26977.01
453.97	26822.54
454.15	27007.44
454.34	26300.60
454.52	26366.13
454.70	25909.73
454.89	26251.45
455.07	26185.91
455.26	26803.82
455.44	27704.92
455.62	28194.09
455.81	28287.71
455.99	28456.23
456.17	27833.65
456.36	28151.96
456.54	28613.05
456.73	28622.41
456.91	29219.25
457.09	29387.77
457.28	29703.74
457.46	28840.08
457.64	28123.88
457.83	27248.52
458.01	26944.25
458.19	27754.07
458.38	27690.88
458.56	28584.96
458.74	28671.56
458.93	27892.16
459.11	28044.30
459.29	27948.34
459.48	28074.73
459.66	27985.79
459.84	28517.09
460.03	28587.30
460.21	28636.45
460.39	29315.21
460.57	29207.55
460.76	29820.77
460.94	29392.45
461.12	29003.92
461.31	29443.94
461.49	29675.65
461.67	29188.82
461.85	30459.73
462.04	29661.61
462.22	30609.53
462.40	30265.47
462.59	29933.11
462.77	29682.67
462.95	29930.77
463.13	29642.88
463.32	29319.89
463.50	29434.58
463.68	29542.24
463.86	29221.59
464.05	28847.10
464.23	28379.00
464.41	28355.59
464.59	27793.86
464.78	29446.28
464.96	29324.57
465.14	28793.27
465.32	29692.04
465.50	30118.01
465.69	30558.03
465.87	29788.00
466.05	29078.82
466.23	27681.52
466.41	27484.91
466.60	28268.99
466.78	28060.68
466.96	28348.57
467.14	28650.50
467.32	29741.19
467.51	29165.42
467.69	28128.56
467.87	28720.71
468.05	29221.59
468.23	29062.43
468.41	29399.47
468.60	29219.25
468.78	29474.37
468.96	28905.62
469.14	29851.19
469.32	29708.42
469.50	28683.27
469.69	28725.39
469.87	28453.89
470.05	28196.43
470.23	28091.11
470.41	28460.91
470.59	28704.33
470.77	28662.20
470.95	29881.62
471.14	29699.06
471.32	30164.82
471.50	31545.74
471.68	31917.89
471.86	31522.34
472.04	31873.42
472.22	32573.24
472.40	30384.83
472.58	30359.09
472.77	30005.67
472.95	30478.46
473.13	31337.43
473.31	30558.03
473.49	30834.22
473.67	31178.28
473.85	31524.68
474.03	32430.46
474.21	32322.80
474.39	32676.22
474.57	32849.42
474.75	33020.28
474.93	32650.47
475.12	32018.53
475.30	32055.98
475.48	32105.13
475.66	32533.45
475.84	31927.25
476.02	31688.51
476.20	31157.21
476.38	32044.27
476.56	32971.13
476.74	33462.64
476.92	33549.24
477.10	34117.99
477.28	35199.32
477.46	35239.11
477.64	35510.61
477.82	35372.52
478.00	35826.58
478.18	35365.49
478.36	34937.18
478.54	34890.37
478.72	35054.20
478.90	36243.20
479.08	37200.47
479.26	37418.14
479.44	37455.59
479.62	37240.26
479.80	37202.82
479.98	37525.81
480.16	37631.13
480.34	36952.38
480.52	37661.56
480.70	37752.84
480.88	38010.30
481.06	38349.68
481.24	39152.48
481.41	40053.59
481.59	40449.14
481.77	40194.02
481.95	39002.69
482.13	39391.22
482.31	39054.18
482.49	40128.48
482.67	39988.05
482.85	40130.83
483.03	40339.13
483.21	41425.14
483.39	41249.60
483.57	40376.58
483.74	39908.47
483.92	40154.23
484.10	40629.36
484.28	41642.81
484.46	41865.16
484.64	42291.14
484.82	41373.65
485.00	40720.64
485.18	39934.22
485.35	38691.40
485.53	35950.63
485.71	32371.95
485.89	32561.53
486.07	34663.33
486.25	37783.27
486.43	39229.72
486.61	39735.27
486.78	39966.99
486.96	40105.08
487.14	42230.29
487.32	42497.11
487.50	43622.90
487.68	44905.52
487.85	45116.17
488.03	45172.34
488.21	44563.80
488.39	44318.04
488.57	43365.45
488.75	42974.58
488.92	44421.03
489.10	46602.41
489.28	48378.87
489.46	49265.94
489.64	48622.29
489.81	49132.53
489.99	48381.21
490.17	48736.98
490.35	49305.73
490.53	48772.08
490.70	48055.88
490.88	48030.13
491.06	49270.62
491.24	48985.07
491.41	48004.39
491.59	46136.64
491.77	45059.99
491.95	46082.81
492.13	47924.81
492.30	49514.03
492.48	50468.97
492.66	50703.03
492.84	51033.04
493.01	50653.87
493.19	50066.40
493.37	49492.97
493.54	49139.55
493.72	50281.73
493.90	51353.69
494.08	52163.52
494.25	52367.15
494.43	52605.88
494.61	52924.19
494.79	53165.27
494.96	52521.62
495.14	52074.58
495.32	50649.19
495.49	50639.83
495.67	51908.40
495.85	53132.50
496.02	53729.34
496.20	53017.82
496.38	52758.02
496.55	52816.53
496.73	53598.27
496.91	53666.14
497.09	54183.40
497.26	54300.43
497.44	53549.12
497.62	52910.15
497.79	52189.27
497.97	51000.27
498.14	51047.08
498.32	52423.32
498.50	53544.44
498.67	53979.78
498.85	53947.01
499.03	54007.86
499.20	54265.32
499.38	54335.54
499.56	54057.01
499.73	53474.22
499.91	52938.24
500.08	52594.18
500.26	51887.34
500.44	52495.88
500.61	53425.07
500.79	52783.76
500.97	52687.80
501.14	52243.10
501.32	52355.44
501.49	52245.44
501.67	52530.98
501.84	53237.83
502.02	53237.83
502.20	53792.53
502.37	53890.83
502.55	53806.58
502.72	54356.60
502.90	54892.58
503.07	54384.69
503.25	54239.57
503.43	53340.81
503.60	52212.67
503.78	51763.29
503.95	52437.36
504.13	54169.36
504.30	54911.31
504.48	54391.71
504.65	54234.89
504.83	54323.83
505.01	55112.59
505.18	55290.48
505.36	55789.01
505.53	55983.27
505.71	56067.53
505.88	56156.47
506.06	55510.49
506.23	55281.11
506.41	54871.52
506.58	54925.35
506.76	54990.89
506.93	55037.70
507.11	54855.14
507.28	54796.62
507.46	54482.99
507.63	53656.78
507.81	53579.54
507.98	53977.43
508.16	54684.28
508.33	55292.82
508.50	55671.98
508.68	56273.50
508.85	56236.05
509.03	56301.59
509.20	56285.20
509.38	55222.60
509.55	54658.53
509.73	55049.40
509.90	55444.95
510.08	55480.06
510.25	55508.14
510.42	55494.10
510.60	55217.92
510.77	55559.64
510.95	56104.98
511.12	56315.63
511.30	56610.54
511.47	56755.65
511.64	56748.63
511.82	56287.54
511.99	55487.08
512.17	55077.49
512.34	54784.92
512.51	54960.46
512.69	55089.19
512.86	55271.75
513.04	55896.67
513.21	55676.66
513.38	55365.37
513.56	54756.83
513.73	54010.20
513.90	54344.90
514.08	54614.06
514.25	54878.54
514.43	55021.31
514.60	55100.89
514.77	55100.89
514.95	55276.43
515.12	55189.83
515.29	55561.98
515.47	56020.72
515.64	56282.86
515.81	55821.78
515.99	55311.54
516.16	53652.10
516.33	50906.65
516.51	49434.45
516.68	48547.39
516.85	48083.97
517.03	48734.63
517.20	51667.33
517.37	54759.17
517.54	55566.66
517.72	54820.03
517.89	51948.19
518.06	49567.87
518.24	49996.18
518.41	52449.06
518.58	53801.89
518.75	54045.31
518.93	54122.55
519.10	54244.26
519.27	54684.28
519.45	55100.89
519.62	55716.45
519.79	56016.04
519.96	55751.56
520.14	55339.63
520.31	54417.46
520.48	54520.44
520.65	54967.48
520.83	55758.58
521.00	56397.55
521.17	55676.66
521.34	55714.11
521.52	55793.69
521.69	56493.51
521.86	56603.52
522.03	56254.78
522.20	54986.21
522.38	54124.89
522.55	54270.00
522.72	54700.66
522.89	54981.52
523.07	55295.16
523.24	55494.10
523.41	56587.13
523.58	56645.65
523.75	57052.90
523.92	56765.01
524.10	56903.10
524.27	57109.07
524.44	56743.95
524.61	56411.59
524.78	56687.78
524.96	56079.24
525.13	56395.21
525.30	56662.03
525.47	57265.89
525.64	57041.20
525.81	56275.84
525.98	54618.74
526.16	53219.10
526.33	52596.52
526.50	51962.23
526.67	51831.16
526.84	52303.95
527.01	53310.38
527.18	54351.92
527.36	55522.19
527.53	56327.33
527.70	56456.06
527.87	55913.06
528.04	55365.37
528.21	56065.19
528.38	56559.05
528.55	57375.89
528.72	57499.94
528.89	57577.18
529.07	57279.93
529.24	56690.12
529.41	56076.90
529.58	55573.68
529.75	55580.70
529.92	56191.58
530.09	56502.87
530.26	56713.52
530.43	57373.55
530.60	57389.94
530.77	57485.90
530.94	57588.88
531.11	56959.28
531.28	56610.54
531.46	56413.93
531.63	56900.76
531.80	56329.67
531.97	56037.11
532.14	55461.33
532.31	54213.83
532.48	53565.50
532.65	53616.99
532.82	54637.47
532.99	55739.86
533.16	56123.71
533.33	56537.98
533.50	56582.45
533.67	55711.77
533.84	55416.86
534.01	55428.57
534.18	55955.19
534.35	56144.77
534.52	55868.59
534.69	56240.73
534.86	56252.44
535.03	56793.10
535.20	57202.69
535.37	57509.30
535.54	57694.21
535.71	57169.93
535.88	56722.88
536.05	56151.79
536.22	55899.01
536.38	55461.33
536.55	54990.89
536.72	54461.93
536.89	54487.67
537.06	55367.71
537.23	56023.06
537.40	56231.37
537.57	56388.19
537.74	56067.53
537.91	56076.90
538.08	56102.64
538.25	56133.07
538.42	56301.59
538.59	56137.75
538.75	55323.24
538.92	54925.35
539.09	55351.33
539.26	54759.17
539.43	54724.07
539.60	55093.87
539.77	55042.38
539.94	54770.88
540.11	53928.28
540.28	53490.60
540.44	53483.58
540.61	53797.21
540.78	54164.68
540.95	54820.03
541.12	55131.32
541.29	55550.27
541.46	55622.83
541.62	55510.49
541.79	55655.60
541.96	54850.45
542.13	54784.92
542.30	55171.11
542.47	55192.17
542.63	54923.01
542.80	55004.93
542.97	54932.37
543.14	54794.28
543.31	54759.17
543.48	55414.52
543.64	56430.32
543.81	56718.20
543.98	56465.42
544.15	55650.92
544.32	55110.25
544.48	55070.46
544.65	55615.81
544.82	55992.64
544.99	55430.91
545.16	55238.98
545.32	55021.31
545.49	55994.98
545.66	56004.34
545.83	55913.06
546.00	55337.29
546.16	55290.48
546.33	55367.71
546.50	55468.36
546.67	55664.96
546.83	55152.38
547.00	55360.69
547.17	54777.90
547.34	54028.93
547.50	54087.44
547.67	54534.48
547.84	54323.83
548.00	55014.29
548.17	55515.17
548.34	55384.10
548.51	55208.56
548.67	55470.70
548.84	55393.46
549.01	55210.90
549.18	54988.55
549.34	55292.82
549.51	55206.22
549.68	54803.64
549.84	54637.47
550.01	54490.01
550.18	54485.33
550.34	54684.28
550.51	54810.67
550.68	54749.81
550.84	54307.45
551.01	54515.76
551.18	54344.90
551.34	54548.53
551.51	55065.78
551.68	55276.43
551.84	55161.75
552.01	55283.45
552.18	55018.97
552.34	53890.83
552.51	53748.06
552.68	53567.84
552.84	54176.38
553.01	54433.84
553.18	54035.95
553.34	54571.93
553.51	54588.31
553.67	54887.90
553.84	55051.74
554.01	54721.72
554.17	54869.18
554.34	54862.16
554.51	54918.33
554.67	55435.59
554.84	55136.00
555.00	54798.96
555.17	54714.70
555.33	54557.89
555.50	54122.55
555.67	54323.83
555.83	54239.57
556.00	53855.73
556.16	53837.00
556.33	53315.06
556.50	53317.40
556.66	53373.58
556.83	53179.31
556.99	53268.25
557.16	53373.58
557.32	53764.45
557.49	53918.92
557.65	53675.51
557.82	53841.68
557.98	53741.04
558.15	53139.52
558.32	52259.48
558.48	51152.41
558.65	51653.28
558.81	51985.64
558.98	52378.85
559.14	52779.08
559.31	52706.52
559.47	52795.46
559.64	52203.31
559.80	51826.48
559.97	52149.48
560.13	52666.73
560.30	53509.33
560.46	53977.43
560.63	54384.69
560.79	54340.22
560.96	53822.96
561.12	52704.18
561.29	51618.17
561.45	52051.17
561.61	52545.03
561.78	53111.44
561.94	52718.23
562.11	52392.89
562.27	52435.02
562.44	52968.66
562.60	53429.75
562.77	53481.24
562.93	53104.41
563.10	52898.45
563.26	52573.11
563.42	52676.10
563.59	52406.94
563.75	52285.23
563.92	52992.07
564.08	52844.62
564.24	52683.12
564.41	52793.12
564.57	52760.36
564.74	52458.43
564.90	52247.78
565.07	51980.96
565.23	51697.75
565.39	51253.05
565.56	51065.81
565.72	50583.66
565.88	50990.91
566.05	50845.80
566.21	51433.27
566.38	51393.48
566.54	51735.20
566.70	52137.77
566.87	52355.44
567.03	52362.46
567.19	52444.38
567.36	52097.98
567.52	51943.51
567.68	51828.82
567.85	51203.90
568.01	50820.05
568.17	50368.33
568.34	50225.56
568.50	50382.37
568.66	50466.63
568.83	50794.31
568.99	50768.56
569.15	51250.71
569.32	51248.37
569.48	50876.22
569.64	50571.96
569.81	50260.66
569.97	50330.88
570.13	49841.71
570.30	49279.98
570.46	49279.98
570.62	48477.18
570.78	48086.31
570.95	48926.56
571.11	49645.10
571.27	49614.68
571.43	50061.72
571.60	50513.44
571.76	50588.34
571.92	50965.17
572.09	51136.02
572.25	51119.64
572.41	50817.71
572.57	50670.26
572.74	50431.52
572.90	50286.41
573.06	50625.79
573.22	50419.82
573.38	50050.02
573.55	50504.08
573.71	50649.19
573.87	50475.99
574.03	50241.94
574.20	50073.42
574.36	49488.29
574.52	49804.26
574.68	49160.61
574.84	48912.52
575.01	48231.42
575.17	48622.29
575.33	48435.05
575.49	49034.22
575.65	48739.32
575.82	48821.23
575.98	48744.00
576.14	49162.95
576.30	49261.26
576.46	49453.18
576.62	49322.11
576.79	49263.60
576.95	48999.12
577.11	48755.70
577.27	48893.79
577.43	49385.30
577.59	48533.35
577.75	47854.59
577.92	47306.91
578.08	46887.95
578.24	47159.45
578.40	47615.86
578.56	47777.36
578.72	47934.17
578.88	48273.55
579.04	48545.05
579.21	48385.89
579.37	48238.44
579.53	48769.74
579.69	48594.20
579.85	48956.99
580.01	48694.85
580.17	48210.35
580.33	47702.46
580.49	48144.82
580.65	48383.55
580.82	49029.54
580.98	48144.82
581.14	48011.41
581.30	48406.96
581.46	48161.20
581.62	48828.26
581.78	48673.78
581.94	48566.12
582.10	49013.16
582.26	48961.67
582.42	48919.54
582.58	48779.10
582.74	48779.10
582.90	48729.95
583.06	48844.64
583.22	48577.82
583.38	48549.73
583.54	48500.58
583.70	48271.21
583.86	48662.08
584.02	48013.75
584.18	48292.27
584.34	47922.47
584.50	47803.10
584.66	47805.44
584.82	47620.54
584.98	47470.75
585.14	46689.01
585.30	46237.28
