SpectraSuite Data File
++++++++++++++++++++++++++++++++++++
Date: Mon Oct 07 14:53:47 GMT-05:00 2013
User: price-jones
Dark Spectrum Present: No
Reference Spectrum Present: No
Number of Sampled Component Spectra: 1
Spectrometers: USB2+H05261
Integration Time (usec): 100000 (USB2+H05261)
Spectra Averaged: 1 (USB2+H05261)
Boxcar Smoothing: 0 (USB2+H05261)
Correct for Electrical Dark: No (USB2+H05261)
Strobe/Lamp Enabled: No (USB2+H05261)
Correct for Detector Non-linearity: No (USB2+H05261)
Correct for Stray Light: No (USB2+H05261)
Number of Pixels in Processed Spectrum: 2048
>>>>>Begin Processed Spectral Data<<<<<
365.73	0.00
365.92	0.00
366.12	0.00
366.32	0.00
366.52	0.00
366.72	0.00
366.91	0.00
367.11	0.00
367.31	0.00
367.51	0.00
367.70	0.00
367.90	0.00
368.10	0.00
368.30	0.00
368.49	0.00
368.69	0.00
368.89	0.00
369.09	0.00
369.28	0.00
369.48	0.00
369.68	0.00
369.87	0.00
370.07	0.00
370.27	0.00
370.47	587.47
370.66	2928.01
370.86	3515.48
371.06	3943.80
371.25	3999.98
371.45	3588.04
371.65	3122.27
371.84	3077.80
372.04	3171.43
372.24	3550.59
372.44	3590.38
372.63	3789.33
372.83	3478.04
373.03	3098.87
373.22	2764.17
373.42	2972.48
373.62	3269.73
373.81	3688.68
374.01	3602.08
374.21	3475.70
374.40	3173.77
374.60	3197.17
374.79	3611.45
374.99	4028.06
375.19	4652.98
375.38	4503.19
375.58	4341.69
375.78	4152.11
375.97	4168.49
376.17	4432.97
376.37	4294.88
376.56	4444.68
376.76	4732.56
376.95	5062.58
377.15	5317.70
377.35	5577.50
377.54	5633.67
377.74	5921.56
377.93	6080.71
378.13	5760.06
378.33	5600.90
378.52	5123.43
378.72	4880.02
378.91	4823.84
379.11	4739.58
379.31	4592.13
379.50	4538.30
379.70	4877.68
379.89	5336.42
380.09	5610.26
380.28	5937.94
380.48	5914.53
380.68	5891.13
380.87	5727.29
381.07	5277.91
381.26	4992.36
381.46	4662.35
381.65	4383.82
381.85	4152.11
382.04	4229.35
382.24	3843.16
382.43	3705.07
382.63	3541.23
382.83	3506.12
383.02	3632.51
383.22	3693.37
383.41	3604.42
383.61	3803.37
383.80	4498.51
384.00	4987.68
384.19	5504.94
384.39	5806.87
384.58	5970.71
384.78	5849.00
384.97	5659.42
385.17	5380.89
385.36	5097.69
385.56	4896.40
385.75	4964.28
385.95	5523.66
386.14	5881.77
386.34	5935.60
386.53	5823.25
386.72	5287.27
386.92	5425.36
387.11	5746.02
387.31	6106.46
387.50	6113.48
387.70	5741.33
387.89	5654.73
388.09	5736.65
388.28	5708.57
388.48	5767.08
388.67	6214.12
388.86	6869.47
389.06	7475.67
389.25	7705.04
389.45	7698.02
389.64	7772.92
389.84	7707.38
390.03	7590.36
390.22	7751.85
390.42	7824.41
390.61	8374.44
390.81	8950.21
391.00	9123.41
391.19	9057.87
391.39	8788.71
391.58	8065.49
391.78	7733.13
391.97	7742.49
392.16	7077.78
392.36	6270.30
392.55	5090.67
392.75	4081.89
392.94	3363.35
393.13	3379.73
393.33	3786.99
393.52	5104.71
393.71	6129.86
393.91	6848.41
394.10	7351.62
394.29	8248.05
394.49	8872.97
394.68	9406.61
394.88	9640.67
395.07	9827.91
395.26	9790.46
395.46	9441.72
395.65	8922.12
395.84	7878.24
396.04	6445.84
396.23	5366.85
396.42	4456.38
396.62	4341.69
396.81	5022.79
397.00	6569.88
397.19	7903.99
397.39	9530.66
397.58	10857.75
397.77	11499.05
397.97	12114.61
398.16	11960.14
398.35	12442.29
398.55	12784.01
398.74	13530.64
398.93	13741.29
399.12	13561.06
399.32	12709.11
399.51	13191.26
399.70	14174.28
399.90	13956.61
400.09	14239.82
400.28	13865.33
400.47	13919.17
400.67	14466.85
400.86	14881.13
401.05	15094.11
401.24	14979.43
401.44	15370.30
401.63	15229.87
401.82	15777.55
402.01	15342.21
402.21	15571.58
402.40	15353.91
402.59	15386.68
402.78	14799.21
402.97	13963.64
403.17	14714.95
403.36	15396.04
403.55	15983.52
403.74	16390.77
403.93	15510.73
404.13	14581.54
404.32	14251.52
404.51	14705.59
404.70	15880.53
404.89	15985.86
405.09	15606.69
405.28	15161.99
405.47	15166.67
405.66	15330.51
405.85	14815.59
406.05	14501.96
406.24	14480.89
406.43	15185.40
406.62	15765.85
406.81	15948.41
407.00	15456.90
407.20	14946.66
407.39	15302.42
407.58	15882.88
407.77	16468.01
407.96	16961.86
408.15	17296.56
408.34	17322.30
408.54	18050.21
408.73	17996.38
408.92	17914.46
409.11	17319.96
409.30	16383.75
409.49	15482.64
409.68	14581.54
409.87	14235.14
410.07	15143.27
410.26	16058.42
410.45	17231.02
410.64	17495.50
410.83	18017.44
411.02	18499.59
411.21	19545.81
411.40	19269.63
411.59	19152.60
411.78	19157.28
411.98	18867.06
412.17	19152.60
412.36	18288.95
412.55	18918.55
412.74	18305.33
412.93	17785.73
413.12	18101.70
413.31	20027.96
413.50	19946.05
413.69	20540.54
413.88	19620.71
414.07	18813.23
414.26	19417.08
414.45	19695.61
414.64	20009.24
414.83	20198.82
415.02	19796.25
415.22	19756.46
415.41	19950.73
415.60	20472.67
415.79	21635.91
415.98	22443.40
416.17	21902.73
416.36	21649.96
416.55	20730.12
416.74	20463.30
416.93	19852.42
417.12	19847.74
417.31	20060.73
417.50	20458.62
417.69	21144.40
417.88	20762.89
418.07	20943.11
418.26	20636.50
418.45	20744.17
418.64	21759.96
418.83	22185.94
419.02	21912.10
419.21	21713.15
419.39	20718.42
419.58	19737.74
419.77	19957.75
419.96	20933.75
420.15	21572.72
420.34	22656.39
420.53	23290.67
420.72	23681.54
420.91	23613.66
421.10	23494.30
421.29	23145.56
421.48	22218.71
421.67	23594.94
421.86	22970.02
422.05	21853.58
422.24	18951.32
422.43	18656.41
422.61	20886.94
422.80	22614.26
422.99	22785.12
423.18	22162.53
423.37	21036.74
423.56	21441.65
423.75	21795.07
423.94	22342.75
424.13	21001.63
424.32	21172.49
424.50	21200.57
424.69	21268.45
424.88	21078.86
425.07	21111.63
425.26	21081.21
425.45	20840.13
425.64	20524.16
425.83	20278.40
426.01	21350.37
426.20	22195.30
426.39	21802.09
426.58	20922.05
426.77	19023.87
426.96	18239.79
427.15	18817.91
427.33	20355.64
427.52	20922.05
427.71	21221.64
427.90	20915.03
428.09	20835.45
428.28	20390.75
428.46	19536.45
428.65	19344.53
428.84	19660.50
429.03	20386.07
429.22	19431.13
429.40	18090.00
429.59	16615.46
429.78	14597.92
429.97	14853.04
430.16	14789.85
430.34	15019.22
430.53	14785.16
430.72	15176.03
430.91	16762.92
431.10	19796.25
431.28	23414.72
431.47	25298.85
431.66	25238.00
431.85	23630.05
432.03	21284.83
432.22	20407.13
432.41	21095.25
432.60	23571.54
432.79	24835.42
432.97	25125.65
433.16	24386.04
433.35	22583.83
433.54	20004.56
433.72	18984.09
433.91	19349.21
434.10	21944.86
434.28	23154.92
434.47	24364.98
434.66	24425.83
434.85	23634.73
435.03	23410.04
435.22	24287.74
435.41	25710.78
435.59	25642.91
435.78	25703.76
435.97	26370.82
436.16	26721.90
436.34	26118.04
436.53	25881.64
436.72	25839.51
436.90	24369.66
437.09	24285.40
437.28	23964.75
437.46	24751.17
437.65	24489.03
437.84	23014.49
438.02	21048.44
438.21	20805.02
438.40	21991.67
438.58	24189.44
438.77	24694.99
438.96	24690.31
439.14	25865.26
439.33	26852.97
439.52	27117.45
439.70	26188.25
439.89	26005.69
440.08	24919.68
440.26	24826.06
440.45	25715.47
440.63	27740.03
440.82	29149.03
441.01	28900.94
441.19	28072.39
441.38	28521.77
441.57	29572.67
441.75	30469.09
441.94	30857.62
442.12	29886.30
442.31	30984.01
442.50	30604.84
442.68	30232.70
442.87	30096.95
443.05	29177.12
443.24	29832.47
443.43	30462.07
443.61	31456.80
443.80	31445.10
443.98	29823.11
444.17	29633.52
444.35	31531.70
444.54	32109.81
444.73	31587.87
444.91	30429.30
445.10	28858.81
445.28	27660.45
445.47	27288.31
445.65	27723.65
445.84	28496.02
446.02	29163.08
446.21	30008.01
446.39	29977.58
446.58	30080.56
446.77	30745.28
446.95	31304.67
447.14	31964.70
447.32	32395.35
447.51	31604.25
447.69	30799.11
447.88	29677.99
448.06	30635.27
448.25	31372.54
448.43	31564.46
448.62	30576.76
448.80	30834.22
448.99	30993.37
449.17	31126.78
449.36	30916.14
449.54	32568.55
449.73	32947.72
449.91	33481.36
450.10	33991.60
450.28	34511.20
450.46	34415.24
450.65	34171.82
450.83	34220.97
451.02	33205.18
451.20	33205.18
451.39	33270.72
451.57	33048.36
451.76	32907.93
451.94	32701.96
452.13	32343.86
452.31	30998.06
452.49	29385.43
452.68	29984.60
452.86	29837.15
453.05	30101.63
453.23	31075.29
453.42	31859.37
453.60	32449.19
453.78	32720.69
453.97	32369.61
454.15	32496.00
454.34	31700.22
454.52	32229.18
454.70	31262.54
454.89	31608.93
455.07	31868.73
455.26	32751.12
455.44	33422.85
455.62	34146.08
455.81	34384.81
455.99	34136.71
456.17	33256.67
456.36	33776.27
456.54	34581.42
456.73	34600.14
456.91	35936.59
457.09	35161.87
457.28	36238.51
457.46	34869.30
457.64	34546.31
457.83	33474.34
458.01	32528.77
458.19	33310.50
458.38	33373.70
458.56	34836.53
458.74	34714.83
458.93	34026.71
459.11	33944.79
459.29	33270.72
459.48	34206.93
459.66	33378.38
459.84	33954.15
460.03	34733.55
460.21	34677.38
460.39	35009.73
460.57	35587.85
460.76	36084.04
460.94	36203.41
461.12	35012.07
461.31	36041.91
461.49	35129.10
461.67	35702.53
461.85	36992.17
462.04	36313.41
462.22	36353.20
462.40	36451.50
462.59	35688.49
462.77	36147.23
462.95	36329.80
463.13	35824.24
463.32	35325.71
463.50	35482.52
463.68	35070.59
463.86	35379.54
464.05	34778.02
464.23	34260.76
464.41	34342.68
464.59	33298.80
464.78	35304.64
464.96	34806.11
465.14	34440.98
465.32	35473.16
465.50	36182.34
465.69	36982.80
465.87	35915.52
466.05	35269.53
466.23	33893.30
466.41	32994.53
466.60	33633.50
466.78	34211.61
466.96	34452.69
467.14	34487.79
467.32	35117.40
467.51	35309.32
467.69	33486.04
467.87	34677.38
468.05	34951.22
468.23	35068.25
468.41	34991.01
468.60	35016.75
468.78	35587.85
468.96	34637.59
469.14	35957.65
469.32	36205.75
469.50	34094.58
469.69	34375.45
469.87	34349.70
470.05	34185.86
470.23	33743.50
470.41	34085.22
470.59	34918.45
470.77	34712.49
470.95	35538.69
471.14	35866.37
471.32	36109.78
471.50	37926.04
471.68	37816.04
471.86	38064.13
472.04	38387.13
472.22	38382.45
472.40	36591.94
472.58	36730.03
472.77	35756.36
472.95	36577.89
473.13	37727.10
473.31	36802.58
473.49	36713.64
473.67	37631.13
473.85	37673.26
474.03	38277.12
474.21	38609.48
474.39	39210.99
474.57	39189.93
474.75	39721.23
474.93	38953.54
475.12	38103.92
475.30	38471.39
475.48	38534.58
475.66	38810.76
475.84	38560.33
476.02	38267.76
476.20	37516.45
476.38	38506.49
476.56	39253.12
476.74	39800.81
476.92	40027.84
477.10	41617.07
477.28	41890.91
477.46	42349.65
477.64	42003.25
477.82	42773.29
478.00	42281.78
478.18	42169.43
478.36	41607.70
478.54	41827.71
478.72	42349.65
478.90	42782.65
479.08	43880.36
479.26	44837.64
479.44	44465.50
479.62	44313.36
479.80	44315.70
479.98	44278.25
480.16	44837.64
480.34	44395.28
480.52	45010.84
480.70	44849.35
480.88	45315.11
481.06	46087.49
481.24	46064.08
481.41	47016.68
481.59	47459.04
481.77	47620.54
481.95	46464.32
482.13	46309.84
482.31	46801.35
482.49	47423.93
482.67	47136.05
482.85	47192.22
483.03	48023.11
483.21	48367.17
483.39	48416.32
483.57	47763.31
483.74	47318.61
483.92	47505.85
484.10	47779.70
484.28	48533.35
484.46	49132.53
484.64	49340.83
484.82	48072.26
485.00	48119.07
485.18	47171.16
485.35	46134.30
485.53	42759.25
485.71	39302.28
485.89	38532.24
486.07	40444.46
486.25	43910.79
486.43	46202.18
486.61	46904.34
486.78	46780.29
486.96	47323.29
487.14	48552.07
487.32	49705.96
487.50	50679.62
487.68	51419.23
487.85	52067.56
488.03	51856.91
488.21	51714.14
488.39	50916.01
488.57	50223.22
488.75	49759.79
488.92	50735.79
489.10	52912.49
489.28	54045.31
489.46	55077.49
489.64	54508.74
489.81	54831.73
489.99	54309.79
490.17	54719.38
490.35	54852.80
490.53	54188.08
490.70	54054.67
490.88	54031.27
491.06	54967.48
491.24	54738.11
491.41	54136.59
491.59	52198.63
491.77	51475.40
491.95	52409.28
492.13	53792.53
492.30	55070.46
492.48	55716.45
492.66	56217.33
492.84	56273.50
493.01	55971.57
493.19	55540.91
493.37	55206.22
493.54	54852.80
493.72	55566.66
493.90	56303.93
494.08	57015.45
494.25	57293.97
494.43	57467.17
494.61	57626.33
494.79	57635.69
494.96	57869.75
495.14	57109.07
495.32	56399.89
495.49	55765.60
495.67	56671.39
495.85	58129.54
496.02	58438.50
496.20	58010.18
496.38	57729.31
496.55	57715.27
496.73	58382.32
496.91	58515.73
497.09	58997.88
497.26	59079.80
497.44	58372.96
497.62	58035.92
497.79	57216.74
497.97	56266.48
498.14	56200.94
498.32	57181.63
498.50	58085.07
498.67	58843.41
498.85	58590.63
499.03	58930.01
499.20	59119.59
499.38	59035.33
499.56	58548.50
499.73	58347.21
499.91	58049.97
500.08	57483.56
500.26	57008.43
500.44	57256.53
500.61	57956.35
500.79	57836.98
500.97	57469.51
501.14	57268.23
501.32	57120.77
501.49	57190.99
501.67	57368.87
501.84	57773.78
502.02	57998.48
502.20	58405.73
502.37	58422.11
502.55	58644.46
502.72	58974.48
502.90	59363.01
503.07	59313.86
503.25	58890.22
503.43	58124.86
503.60	57401.64
503.78	56643.30
503.95	57415.68
504.13	58557.86
504.30	59318.54
504.48	59025.97
504.65	58880.86
504.83	58775.53
505.01	59435.56
505.18	59611.10
505.36	60355.39
505.53	60444.33
505.71	60654.98
505.88	60488.80
506.06	60048.78
506.23	59592.38
506.41	59454.29
506.58	59414.50
506.76	59550.25
506.93	59405.14
507.11	59215.55
507.28	59587.70
507.46	59119.59
507.63	58337.85
507.81	58120.18
507.98	58506.37
508.16	58927.67
508.33	59650.89
508.50	60051.12
508.68	60203.26
508.85	60776.69
509.03	60692.43
509.20	60552.00
509.38	59842.82
509.55	59131.29
509.73	59227.26
509.90	59870.90
510.08	60025.38
510.25	59950.48
510.42	59737.49
510.60	59681.32
510.77	59901.33
510.95	60566.04
511.12	60580.09
511.30	60748.60
511.47	60996.70
511.64	61080.96
511.82	60748.60
511.99	59924.74
512.17	59540.89
512.34	59320.88
512.51	59501.10
512.69	59468.33
512.86	59763.24
513.04	60104.96
513.21	59976.23
513.38	59805.37
513.56	58864.47
513.73	58445.52
513.90	59004.91
514.08	58880.86
514.25	59274.07
514.43	59517.48
514.60	59437.90
514.77	59667.28
514.95	59763.24
515.12	59678.98
515.29	59889.63
515.47	60257.09
515.64	60720.52
515.81	60142.41
515.99	59753.88
516.16	58422.11
516.33	56212.65
516.51	54705.34
516.68	53764.45
516.85	53448.47
517.03	53977.43
517.20	56690.12
517.37	58827.02
517.54	59812.39
517.72	59400.46
517.89	57153.54
518.06	55084.51
518.24	55004.93
518.41	57106.73
518.58	58305.09
518.75	58773.19
518.93	59063.42
519.10	58768.51
519.27	59140.66
519.45	59253.00
519.62	59999.63
519.79	60198.58
519.96	60046.44
520.14	59580.68
520.31	58885.54
520.48	58857.45
520.65	59133.63
520.83	60168.15
521.00	60552.00
521.17	60142.41
521.34	59852.18
521.52	60156.45
521.69	60741.58
521.86	61029.47
522.03	60589.45
522.20	59655.57
522.38	58710.00
522.55	58492.33
522.72	59304.49
522.89	59426.20
523.07	59465.99
523.24	59746.86
523.41	60467.74
523.58	60790.73
523.75	61268.20
523.92	61057.56
524.10	61087.98
524.27	61193.31
524.44	60891.38
524.61	60680.73
524.78	60554.34
524.96	60322.63
525.13	60301.56
525.30	60507.53
525.47	61008.40
525.64	61085.64
525.81	60425.61
525.98	59047.04
526.16	57513.98
526.33	57003.75
526.50	56587.13
526.67	56367.12
526.84	57064.60
527.01	57813.57
527.18	58719.36
527.36	59379.39
527.53	60233.69
527.70	60554.34
527.87	59990.27
528.04	59760.90
528.21	60140.07
528.38	60802.44
528.55	61172.24
528.72	61549.07
528.89	61762.06
529.07	61509.28
529.24	60975.64
529.41	60259.43
529.58	59526.84
529.75	60030.06
529.92	60175.17
530.09	60519.23
530.26	60879.67
530.43	61275.22
530.60	61230.75
530.77	61577.15
530.94	61528.00
531.11	61010.74
531.28	60860.95
531.46	60643.28
531.63	60790.73
531.80	60512.21
531.97	59964.52
532.14	59676.64
532.31	58546.16
532.48	57911.88
532.65	58033.58
532.82	58876.18
532.99	59906.01
533.16	60140.07
533.33	60877.33
533.50	60580.09
533.67	59840.48
533.84	59407.48
534.01	59739.83
534.18	59842.82
534.35	60090.91
534.52	60060.49
534.69	60186.88
534.86	60481.78
535.03	60552.00
535.20	61146.50
535.37	61396.93
535.54	61556.09
535.71	61212.03
535.88	60947.55
536.05	60233.69
536.22	60011.34
536.38	59735.15
536.55	59018.95
536.72	58588.29
536.89	58733.40
537.06	59353.65
537.23	60434.97
537.40	60479.44
537.57	60423.27
537.74	60364.76
537.91	60430.29
538.08	60191.56
538.25	60257.09
538.42	60402.21
538.59	60142.41
538.75	59531.53
538.92	59386.41
539.09	59334.92
539.26	59004.91
539.43	58892.56
539.60	59112.57
539.77	59133.63
539.94	59119.59
540.11	58443.18
540.28	57841.66
540.44	58164.65
540.61	58298.06
540.78	58337.85
540.95	58630.42
541.12	59405.14
541.29	59512.80
541.46	59561.95
541.62	59739.83
541.79	59405.14
541.96	58812.98
542.13	59093.85
542.30	59227.26
542.47	59442.59
542.63	59234.28
542.80	58918.31
542.97	59203.85
543.14	59119.59
543.31	59173.42
543.48	59409.82
543.64	60252.41
543.81	60601.15
543.98	60053.47
544.15	59700.04
544.32	59250.66
544.48	59096.19
544.65	59704.73
544.82	60126.02
544.99	59573.66
545.16	59374.71
545.32	59051.72
545.49	59690.68
545.66	60282.84
545.83	59817.07
546.00	59465.99
546.16	59061.08
546.33	59070.44
546.50	59143.00
546.67	59604.08
546.83	59337.26
547.00	59494.08
547.17	58639.78
547.34	58370.62
547.50	58035.92
547.67	58649.14
547.84	58564.88
548.00	58962.78
548.17	59400.46
548.34	59192.15
548.51	59208.53
548.67	59089.16
548.84	59393.43
549.01	59250.66
549.18	59121.93
549.34	59175.76
549.51	59040.01
549.68	59023.63
549.84	58946.39
550.01	58848.09
550.18	58630.42
550.34	58674.89
550.51	58960.44
550.68	58960.44
550.84	58433.81
551.01	58471.26
551.18	58347.21
551.34	58494.67
551.51	58890.22
551.68	59320.88
551.84	59430.88
552.01	59320.88
552.18	59011.93
552.34	58136.57
552.51	57911.88
552.68	57701.23
552.84	58291.04
553.01	58628.08
553.18	58372.96
553.34	58665.53
553.51	58658.51
553.67	58946.39
553.84	59018.95
554.01	58745.11
554.17	58761.49
554.34	58735.74
554.51	58693.61
554.67	59313.86
554.84	59103.21
555.00	58644.46
555.17	58433.81
555.33	58583.61
555.50	58433.81
555.67	58522.76
555.83	58054.65
556.00	58082.73
556.16	58038.26
556.33	57509.30
556.50	57422.70
556.66	57616.97
556.83	57364.19
556.99	57471.85
557.16	57368.87
557.32	57902.51
557.49	57968.05
557.65	57930.60
557.82	57893.15
557.98	57755.06
558.15	57453.13
558.32	56559.05
558.48	55810.07
558.65	55899.01
558.81	56442.02
558.98	56530.96
559.14	56837.57
559.31	56961.62
559.47	56996.73
559.64	56456.06
559.80	56222.01
559.97	56280.52
560.13	56748.63
560.30	57818.25
560.46	58033.58
560.63	58195.08
560.79	58237.21
560.96	58061.67
561.12	57017.79
561.29	56088.60
561.45	56060.51
561.61	56647.99
561.78	57043.54
561.94	57029.49
562.11	56708.84
562.27	56666.71
562.44	56807.14
562.60	57223.76
562.77	57525.69
562.93	57261.21
563.10	57233.12
563.26	56481.81
563.42	56818.84
563.59	56423.29
563.75	56477.13
563.92	56687.78
564.08	56540.32
564.24	56685.43
564.41	56926.51
564.57	56706.50
564.74	56575.43
564.90	56587.13
565.07	56409.25
565.23	56006.68
565.39	55578.36
565.56	55550.27
565.72	55187.49
565.88	55168.77
566.05	55545.59
566.21	55683.69
566.38	55758.58
566.54	55847.52
566.70	56392.87
566.87	56484.15
567.03	56432.66
567.19	56783.74
567.36	56430.32
567.52	56348.40
567.68	56025.40
567.85	55451.97
568.01	55320.90
568.17	54836.41
568.34	54908.97
568.50	54754.49
568.66	54960.46
568.83	55217.92
568.99	55262.39
569.15	55440.27
569.32	55512.83
569.48	55220.26
569.64	55327.92
569.81	54768.54
569.97	54644.49
570.13	54532.14
570.30	54384.69
570.46	53710.61
570.62	53123.14
570.78	53228.46
570.95	53460.18
571.11	54255.96
571.27	54232.55
571.43	54375.33
571.60	55002.59
571.76	55051.74
571.92	55213.24
572.09	55253.03
572.25	55393.46
572.41	55084.51
572.57	55042.38
572.74	55063.44
572.90	55044.72
573.06	54618.74
573.22	54855.14
573.38	54782.58
573.55	54693.64
573.71	54962.80
573.87	54803.64
574.03	54759.17
574.20	54749.81
574.36	54396.39
574.52	54155.32
574.68	53975.09
574.84	53588.91
575.01	53078.67
575.17	52795.46
575.33	53535.07
575.49	53787.85
575.65	53549.12
575.82	53600.61
575.98	53317.40
576.14	53553.80
576.30	53806.58
576.46	54066.38
576.62	53977.43
576.79	53834.66
576.95	53640.40
577.11	53476.56
577.27	53694.23
577.43	53755.08
577.59	53422.73
577.75	52559.07
577.92	52418.64
578.08	52161.18
578.24	52186.92
578.40	52640.99
578.56	52605.88
578.72	52875.04
578.88	52800.15
579.04	52891.43
579.21	53141.86
579.37	53216.76
579.53	53186.33
579.69	52992.07
579.85	53659.12
580.01	53261.23
580.17	52729.93
580.33	52858.66
580.49	52526.30
580.65	53153.57
580.82	53450.81
580.98	53336.13
581.14	53118.46
581.30	53242.51
581.46	52856.32
581.62	52935.90
581.78	53186.33
581.94	53605.29
582.10	53275.27
582.26	53448.47
582.42	53361.87
582.58	53567.84
582.74	53242.51
582.90	53230.80
583.06	53258.89
583.22	53102.07
583.38	53071.65
583.54	52959.30
583.70	53006.11
583.86	53116.12
584.02	52945.26
584.18	53148.88
584.34	52919.51
584.50	52711.20
584.66	52547.37
584.82	52369.49
584.98	52121.39
585.14	51459.02
585.30	51229.65
