SpectraSuite Data File
++++++++++++++++++++++++++++++++++++
Date: Mon Oct 07 14:53:56 GMT-05:00 2013
User: price-jones
Dark Spectrum Present: No
Reference Spectrum Present: No
Number of Sampled Component Spectra: 1
Spectrometers: USB2+H05261
Integration Time (usec): 100000 (USB2+H05261)
Spectra Averaged: 1 (USB2+H05261)
Boxcar Smoothing: 0 (USB2+H05261)
Correct for Electrical Dark: No (USB2+H05261)
Strobe/Lamp Enabled: No (USB2+H05261)
Correct for Detector Non-linearity: No (USB2+H05261)
Correct for Stray Light: No (USB2+H05261)
Number of Pixels in Processed Spectrum: 2048
>>>>>Begin Processed Spectral Data<<<<<
365.73	0.00
365.92	0.00
366.12	0.00
366.32	0.00
366.52	0.00
366.72	0.00
366.91	0.00
367.11	0.00
367.31	0.00
367.51	0.00
367.70	0.00
367.90	0.00
368.10	0.00
368.30	0.00
368.49	0.00
368.69	0.00
368.89	0.00
369.09	0.00
369.28	0.00
369.48	0.00
369.68	0.00
369.87	0.00
370.07	0.00
370.27	0.00
370.47	608.54
370.66	3033.33
370.86	3499.10
371.06	3875.93
371.25	4138.07
371.45	3571.66
371.65	3103.55
371.84	3054.40
372.04	3119.93
372.24	3503.78
372.44	3721.45
372.63	3630.17
372.83	3419.52
373.03	2937.37
373.22	2698.64
373.42	2876.52
373.62	3258.03
373.81	3569.32
374.01	3623.15
374.21	3272.07
374.40	3080.14
374.60	3169.09
374.79	3456.97
374.99	4292.54
375.19	4547.66
375.38	4461.06
375.58	4121.68
375.78	4138.07
375.97	4070.19
376.17	4351.06
376.37	4262.12
376.56	4601.49
376.76	4891.72
376.95	5041.51
377.15	5413.66
377.35	5516.64
377.54	5764.74
377.74	5940.28
377.93	5975.39
378.13	5724.95
378.33	5439.40
378.52	5156.20
378.72	4833.21
378.91	4863.63
379.11	4762.99
379.31	4559.36
379.50	4514.89
379.70	4844.91
379.89	5371.53
380.09	5703.89
380.28	5860.70
380.48	5942.62
380.68	5600.90
380.87	5558.77
381.07	5210.03
381.26	4786.40
381.46	4493.83
381.65	4383.82
381.85	4093.60
382.04	3957.85
382.24	3824.44
382.43	3571.66
382.63	3461.65
382.83	3508.46
383.02	3585.70
383.22	3492.08
383.41	3517.83
383.61	3772.94
383.80	4383.82
384.00	4954.91
384.19	5413.66
384.39	5865.38
384.58	5600.90
384.78	5710.91
384.97	5530.69
385.17	5420.68
385.36	5050.88
385.56	4966.62
385.75	5107.05
385.95	5589.20
386.14	5944.96
386.34	5954.32
386.53	5533.03
386.72	5446.43
386.92	5226.42
387.11	5673.46
387.31	5909.85
387.50	5928.58
387.70	5633.67
387.89	5687.50
388.09	5631.33
388.28	5624.31
388.48	5661.76
388.67	6164.97
388.86	6684.57
389.06	7248.64
389.25	7517.80
389.45	7815.05
389.64	7527.16
389.84	7620.78
390.03	7419.50
390.22	7400.77
390.42	7801.01
390.61	8271.45
390.81	8791.05
391.00	9064.89
391.19	8793.39
391.39	8538.27
391.58	8109.96
391.78	7550.57
391.97	7349.28
392.16	6691.59
392.36	6310.08
392.55	5081.30
392.75	4042.11
392.94	3353.99
393.13	3171.43
393.33	3833.80
393.52	4873.00
393.71	6106.46
393.91	6583.93
394.10	7344.60
394.29	8255.07
394.49	8557.00
394.68	9362.14
394.88	9364.48
395.07	9689.82
395.26	9820.89
395.46	9200.65
395.65	8760.63
395.84	7651.21
396.04	6527.75
396.23	5331.74
396.42	4442.34
396.62	4156.79
396.81	4957.25
397.00	6258.59
397.19	7871.22
397.39	9359.80
397.58	10583.90
397.77	11215.85
397.97	11686.29
398.16	11749.49
398.35	12058.44
398.55	12592.08
398.74	12945.50
398.93	13334.03
399.12	13312.97
399.32	12608.47
399.51	12800.39
399.70	13809.16
399.90	13563.40
400.09	13692.13
400.28	13434.68
400.47	13790.44
400.67	14155.56
400.86	14628.35
401.05	14778.14
401.24	14476.21
401.44	14988.79
401.63	14743.03
401.82	14920.92
402.01	14967.73
402.21	15229.87
402.40	15276.68
402.59	14689.20
402.78	14185.99
402.97	13762.35
403.17	14118.11
403.36	15169.01
403.55	15723.72
403.74	16332.26
403.93	15421.79
404.13	14174.28
404.32	13790.44
404.51	14520.68
404.70	15667.55
404.89	15538.82
405.09	15290.72
405.28	14789.85
405.47	14902.19
405.66	14693.88
405.85	14705.59
406.05	14085.34
406.24	14127.47
406.43	14820.27
406.62	15541.16
406.81	15571.58
407.00	15037.94
407.20	14499.62
407.39	14626.01
407.58	15463.92
407.77	15852.45
407.96	16531.20
408.15	16615.46
408.34	16479.71
408.54	17378.48
408.73	17682.75
408.92	17282.52
409.11	16891.65
409.30	15831.38
409.49	15068.37
409.68	14183.65
409.87	13589.15
410.07	14476.21
410.26	15627.76
410.45	16521.84
410.64	17109.32
410.83	17598.49
411.02	18001.06
411.21	18775.78
411.40	18396.61
411.59	18530.02
411.78	18504.28
411.98	18022.12
412.17	18618.96
412.36	17928.50
412.55	17961.27
412.74	17565.72
412.93	17502.53
413.12	17422.95
413.31	18906.85
413.50	19171.33
413.69	19901.58
413.88	18787.48
414.07	18216.39
414.26	18616.62
414.45	19171.33
414.64	19667.52
414.83	19503.68
415.02	18979.40
415.22	18923.23
415.41	19499.00
415.60	19878.17
415.79	21034.39
415.98	21600.80
416.17	21118.65
416.36	20519.48
416.55	20538.20
416.74	19779.87
416.93	19075.37
417.12	19386.66
417.31	19349.21
417.50	19793.91
417.69	20269.04
417.88	20341.60
418.07	20423.51
418.26	19641.78
418.45	19896.89
418.64	20982.90
418.83	21490.80
419.02	21097.59
419.21	20938.43
419.39	20383.73
419.58	19054.30
419.77	19035.58
419.96	20058.39
420.15	21238.02
420.34	21565.70
420.53	22478.50
420.72	22616.60
420.91	22801.50
421.10	22532.34
421.29	22515.95
421.48	21280.15
421.67	22579.15
421.86	22022.10
422.05	20725.44
422.24	18302.99
422.43	18003.40
422.61	20086.48
422.80	21685.06
422.99	21724.85
423.18	20968.86
423.37	20549.90
423.56	20357.98
423.75	20664.59
423.94	20943.11
424.13	20353.30
424.32	20353.30
424.50	20355.64
424.69	20004.56
424.88	20093.50
425.07	19934.34
425.26	20238.61
425.45	19641.78
425.64	19412.40
425.83	19426.45
426.01	20570.97
426.20	21235.68
426.39	20919.71
426.58	19611.35
426.77	18001.06
426.96	17542.32
427.15	18181.28
427.33	19442.83
427.52	20503.09
427.71	20645.87
427.90	20238.61
428.09	20144.99
428.28	19822.00
428.46	19122.18
428.65	18752.37
428.84	19091.75
429.03	19293.04
429.22	18366.18
429.40	17357.41
429.59	15786.91
429.78	13806.82
429.97	13900.44
430.16	14286.63
430.34	14216.41
430.53	14125.13
430.72	14380.25
430.91	16264.38
431.10	18904.51
431.28	22478.50
431.47	23768.14
431.66	24453.92
431.85	22132.11
432.03	20809.70
432.22	19187.71
432.41	20135.63
432.60	22199.98
432.79	23400.68
432.97	23969.43
433.16	23571.54
433.35	21422.92
433.54	19112.81
433.72	17982.34
433.91	18403.63
434.10	21048.44
434.28	22162.53
434.47	23611.32
434.66	23309.40
434.85	22698.52
435.03	22314.67
435.22	22726.60
435.41	24276.04
435.59	24140.29
435.78	24664.57
435.97	25394.81
436.16	25125.65
436.34	24975.86
436.53	24538.18
436.72	24589.67
436.90	23611.32
437.09	23351.52
437.28	22815.54
437.46	23435.78
437.65	23496.64
437.84	22022.10
438.02	20180.10
438.21	20102.86
438.40	20980.56
438.58	23145.56
438.77	23648.77
438.96	23873.46
439.14	24802.66
439.33	25493.12
439.52	25701.42
439.70	25422.90
439.89	24830.74
440.08	23840.70
440.26	23859.42
440.45	24709.04
440.63	26265.49
440.82	27255.54
441.01	27138.51
441.19	26883.39
441.38	27164.26
441.57	28718.37
441.75	28601.35
441.94	29137.33
442.12	28765.18
442.31	29268.40
442.50	28877.53
442.68	28662.20
442.87	28507.72
443.05	27828.97
443.24	28886.89
443.43	28636.45
443.61	30066.52
443.80	29715.44
443.98	28797.95
444.17	28025.57
444.35	30057.16
444.54	30536.97
444.73	30246.74
444.91	28870.51
445.10	27871.10
445.28	26377.84
445.47	25734.19
445.65	26387.20
445.84	27171.28
446.02	27730.67
446.21	28224.52
446.39	28477.30
446.58	29137.33
446.77	29057.75
446.95	29057.75
447.14	30422.28
447.32	31042.53
447.51	30022.05
447.69	29039.03
447.88	28423.47
448.06	29085.84
448.25	29773.95
448.43	30174.19
448.62	29209.89
448.80	29256.70
448.99	29722.46
449.17	29869.92
449.36	29888.64
449.54	30426.96
449.73	31215.72
449.91	31672.13
450.10	31964.70
450.28	32479.61
450.46	33041.34
450.65	32687.92
450.83	32416.42
451.02	31489.57
451.20	31814.90
451.39	31721.28
451.57	31187.64
451.76	31328.07
451.94	31157.21
452.13	30450.37
452.31	29186.48
452.49	27714.28
452.68	28037.28
452.86	28449.21
453.05	28664.54
453.23	29532.88
453.42	29998.65
453.60	30789.75
453.78	31016.78
453.97	30705.49
454.15	30749.96
454.34	29968.22
454.52	30270.15
454.70	29560.97
454.89	30160.14
455.07	30270.15
455.26	30586.12
455.44	31667.45
455.62	32112.15
455.81	32699.62
455.99	32261.94
456.17	31377.22
456.36	31777.45
456.54	32725.37
456.73	32830.69
456.91	33654.56
457.09	33254.33
457.28	34174.16
457.46	32606.00
457.64	32449.19
457.83	31737.66
458.01	30670.38
458.19	31576.17
458.38	31875.76
458.56	32905.59
458.74	32994.53
458.93	31835.97
459.11	31707.24
459.29	31550.42
459.48	31831.29
459.66	31599.57
459.84	32240.88
460.03	32519.40
460.21	32765.16
460.39	33656.90
460.57	33717.76
460.76	33563.28
460.94	33874.57
461.12	33329.23
461.31	33696.69
461.49	33134.96
461.67	33254.33
461.85	34455.03
462.04	34036.07
462.22	34569.71
462.40	34288.85
462.59	34354.38
462.77	34469.07
462.95	34015.01
463.13	33586.69
463.32	33727.12
463.50	33172.41
463.68	33364.34
463.86	33233.27
464.05	32926.66
464.23	32126.19
464.41	32088.74
464.59	31545.74
464.78	33270.72
464.96	33081.13
465.14	32517.06
465.32	33383.06
465.50	34445.66
465.69	34328.64
465.87	33975.22
466.05	33539.88
466.23	31606.59
466.41	30778.04
466.60	31805.54
466.78	31676.81
466.96	32376.63
467.14	32926.66
467.32	33202.84
467.51	33406.47
467.69	31756.39
467.87	32336.84
468.05	32919.63
468.23	32835.38
468.41	32905.59
468.60	33156.03
468.78	33448.60
468.96	32793.25
469.14	33811.38
469.32	33773.93
469.50	32182.37
469.69	32891.55
469.87	32011.51
470.05	31927.25
470.23	31850.01
470.41	32023.21
470.59	32533.45
470.77	32683.24
470.95	33181.77
471.14	33397.10
471.32	34003.30
471.50	35557.42
471.68	35672.10
471.86	36278.30
472.04	35786.79
472.22	36280.64
472.40	34478.43
472.58	34094.58
472.77	33549.24
472.95	34202.25
473.13	35618.27
473.31	34300.55
473.49	34653.97
473.67	34962.92
473.85	35463.80
474.03	36301.71
474.21	36575.55
474.39	36573.21
474.57	37083.45
474.75	37191.11
474.93	36844.71
475.12	35716.58
475.30	35608.91
475.48	35653.38
475.66	36498.31
475.84	35957.65
476.02	35597.21
476.20	35358.47
476.38	35814.88
476.56	36943.02
476.74	37816.04
476.92	37736.46
477.10	37926.04
477.28	39583.14
477.46	39161.84
477.64	39945.92
477.82	39594.84
478.00	39777.40
478.18	39147.80
478.36	38965.24
478.54	39255.46
478.72	39679.10
478.90	40484.25
479.08	41755.16
479.26	41935.38
479.44	41947.08
479.62	41490.68
479.80	41677.92
479.98	41797.29
480.16	41928.36
480.34	41570.25
480.52	41696.64
480.70	42169.43
480.88	42380.08
481.06	43351.40
481.24	43428.64
481.41	44318.04
481.59	44919.56
481.77	44594.23
481.95	43777.38
482.13	43938.88
482.31	44011.43
482.49	44512.31
482.67	44095.69
482.85	44568.48
483.03	45485.97
483.21	45691.94
483.39	45591.30
483.57	44699.55
483.74	44547.42
483.92	44645.72
484.10	44931.26
484.28	45977.48
484.46	46176.43
484.64	46841.14
484.82	45771.52
485.00	45443.84
485.18	44348.47
485.35	43229.69
485.53	40334.45
485.71	37074.09
485.89	36503.00
486.07	37759.86
486.25	41207.47
486.43	43730.57
486.61	44046.54
486.78	44172.93
486.96	44093.35
487.14	46309.84
487.32	47016.68
487.50	47739.91
487.68	49078.69
487.85	49654.47
488.03	49282.32
488.21	49132.53
488.39	48423.34
488.57	48020.77
488.75	47182.86
488.92	48474.84
489.10	50483.01
489.28	52107.35
489.46	52748.65
489.64	52683.12
489.81	52732.27
489.99	52060.54
490.17	52240.76
490.35	52538.01
490.53	52128.41
490.70	51814.78
490.88	51737.54
491.06	52769.72
491.24	52865.68
491.41	51824.14
491.59	49743.41
491.77	49137.21
491.95	50178.75
492.13	51620.52
492.30	52774.40
492.48	53790.19
492.66	54033.61
492.84	54115.53
493.01	54017.22
493.19	53371.24
493.37	53200.38
493.54	52582.48
493.72	53448.47
493.90	54485.33
494.08	55150.04
494.25	55398.14
494.43	55384.10
494.61	55861.57
494.79	56023.06
494.96	55870.93
495.14	55255.37
495.32	54391.71
495.49	53689.55
495.67	54621.08
495.85	56016.04
496.02	56509.89
496.20	56339.04
496.38	55859.23
496.55	55721.13
496.73	56320.31
496.91	56406.91
497.09	57055.24
497.26	56970.98
497.44	56453.72
497.62	56247.75
497.79	55147.70
497.97	53942.33
498.14	53846.36
498.32	55257.71
498.50	56039.45
498.67	56809.48
498.85	56624.58
499.03	56577.77
499.20	57010.77
499.38	57109.07
499.56	56739.27
499.73	56399.89
499.91	56161.15
500.08	55351.33
500.26	54813.01
500.44	55255.37
500.61	56102.64
500.79	55920.08
500.97	55292.82
501.14	55414.52
501.32	54827.05
501.49	55173.45
501.67	55391.12
501.84	55887.31
502.02	55992.64
502.20	56296.91
502.37	56402.23
502.55	56514.58
502.72	57277.59
502.90	57565.48
503.07	57179.29
503.25	56645.65
503.43	55943.48
503.60	55168.77
503.78	54593.00
503.95	55346.65
504.13	56406.91
504.30	57455.47
504.48	57219.08
504.65	56856.29
504.83	57010.77
505.01	57462.49
505.18	57560.79
505.36	58356.58
505.53	58298.06
505.71	58876.18
505.88	58651.48
506.06	57991.45
506.23	57673.14
506.41	57172.27
506.58	57558.45
506.76	57380.57
506.93	57528.03
507.11	57050.56
507.28	57476.54
507.46	56933.53
507.63	56437.34
507.81	55997.32
507.98	56432.66
508.16	56987.36
508.33	57602.92
508.50	57836.98
508.68	58127.20
508.85	58749.79
509.03	58742.77
509.20	58702.98
509.38	57696.55
509.55	56921.83
509.73	57183.97
509.90	57708.25
510.08	58010.18
510.25	57844.00
510.42	57822.93
510.60	57581.86
510.77	57869.75
510.95	58401.05
511.12	58567.23
511.30	58733.40
511.47	59091.51
511.64	59112.57
511.82	58562.54
511.99	58073.37
512.17	57528.03
512.34	57263.55
512.51	57249.50
512.69	57680.16
512.86	57612.29
513.04	57961.03
513.21	57989.11
513.38	57471.85
513.56	57106.73
513.73	56486.49
513.90	56851.61
514.08	56816.50
514.25	57036.51
514.43	57359.51
514.60	57436.75
514.77	57715.27
514.95	57900.17
515.12	57722.29
515.29	57886.13
515.47	58096.78
515.64	58443.18
515.81	58092.10
515.99	57418.02
516.16	56229.03
516.33	53942.33
516.51	52320.34
516.68	51398.16
516.85	51215.60
517.03	51196.88
517.20	54042.97
517.37	56762.67
517.54	57525.69
517.72	57052.90
517.89	54588.31
518.06	52245.44
518.24	52135.43
518.41	54871.52
518.58	56245.41
518.75	56409.25
518.93	56769.69
519.10	56542.66
519.27	57020.13
519.45	57085.67
519.62	57474.20
519.79	58185.72
519.96	57977.41
520.14	57623.99
520.31	56790.76
520.48	56584.79
520.65	56882.04
520.83	57996.13
521.00	58309.77
521.17	57991.45
521.34	57584.20
521.52	57944.64
521.69	58698.30
521.86	58927.67
522.03	58433.81
522.20	57279.93
522.38	56287.54
522.55	56189.24
522.72	57038.86
522.89	57038.86
523.07	57265.89
523.24	57584.20
523.41	58239.55
523.58	58375.30
523.75	59241.30
523.92	59007.25
524.10	58939.37
524.27	59047.04
524.44	58862.13
524.61	58623.40
524.78	58101.46
524.96	58326.15
525.13	58344.87
525.30	58616.38
525.47	58974.48
525.64	59028.31
525.81	58075.71
525.98	56760.33
526.16	55351.33
526.33	54614.06
526.50	54262.98
526.67	53890.83
526.84	54719.38
527.01	55580.70
527.18	56491.17
527.36	57329.08
527.53	58269.98
527.70	58368.28
527.87	57717.61
528.04	57333.76
528.21	57834.64
528.38	58438.50
528.55	59253.00
528.72	59224.92
528.89	59491.74
529.07	59274.07
529.24	58614.04
529.41	57935.28
529.58	57396.96
529.75	57265.89
529.92	57914.22
530.09	58419.77
530.26	58887.88
530.43	58883.20
530.60	59110.23
530.77	59238.96
530.94	59360.67
531.11	58890.22
531.28	58473.60
531.46	58223.17
531.63	58672.55
531.80	58312.11
531.97	58003.16
532.14	57137.16
532.31	56308.61
532.48	55681.34
532.65	55683.69
532.82	56603.52
532.99	57647.39
533.16	57883.79
533.33	58363.60
533.50	58354.24
533.67	57956.35
533.84	57190.99
534.01	57521.01
534.18	57698.89
534.35	58066.35
534.52	57581.86
534.69	57965.71
534.86	58335.51
535.03	58494.67
535.20	58906.60
535.37	59028.31
535.54	59096.19
535.71	58922.99
535.88	58789.58
536.05	57972.73
536.22	57691.86
536.38	57450.79
536.55	56835.23
536.72	56353.08
536.89	56154.13
537.06	56954.60
537.23	57928.26
537.40	58408.07
537.57	57982.09
537.74	57811.23
537.91	58080.39
538.08	57829.96
538.25	57893.15
538.42	58122.52
538.59	58164.65
538.75	57331.42
538.92	56954.60
539.09	56949.92
539.26	56643.30
539.43	56427.98
539.60	56767.35
539.77	56823.53
539.94	56692.46
540.11	55983.27
540.28	55618.15
540.44	55646.24
540.61	55543.25
540.78	55899.01
540.95	56369.46
541.12	56720.54
541.29	56832.89
541.46	57359.51
541.62	57553.77
541.79	57237.80
541.96	56406.91
542.13	56423.29
542.30	56786.08
542.47	56989.70
542.63	56711.18
542.80	56364.78
542.97	56809.48
543.14	56507.55
543.31	56432.66
543.48	57085.67
543.64	57752.72
543.81	58155.29
543.98	57820.59
544.15	57188.65
544.32	56734.59
544.48	56795.44
544.65	57209.71
544.82	57717.61
544.99	57181.63
545.16	56907.79
545.32	56701.82
545.49	57439.09
545.66	57942.30
545.83	57368.87
546.00	56945.23
546.16	56472.45
546.33	56687.78
546.50	56860.97
546.67	57221.42
546.83	56776.72
547.00	56879.70
547.17	56474.79
547.34	55711.77
547.50	55508.14
547.67	55910.72
547.84	56027.74
548.00	56530.96
548.17	56877.36
548.34	56741.61
548.51	56708.84
548.67	56755.65
548.84	56994.39
549.01	56706.50
549.18	56907.79
549.34	56727.56
549.51	56577.77
549.68	56685.43
549.84	56343.72
550.01	56427.98
550.18	56207.97
550.34	55908.38
550.51	56170.52
550.68	56418.61
550.84	55604.11
551.01	56053.49
551.18	55870.93
551.34	56147.11
551.51	56570.75
551.68	56603.52
551.84	56875.02
552.01	56465.42
552.18	56416.27
552.34	55618.15
552.51	55175.79
552.68	55051.74
552.84	55819.44
553.01	56023.06
553.18	55779.65
553.34	55903.70
553.51	55952.85
553.67	56357.76
553.84	56435.00
554.01	56203.28
554.17	56102.64
554.34	56046.47
554.51	56367.12
554.67	56816.50
554.84	56556.70
555.00	56112.00
555.17	55781.99
555.33	55854.54
555.50	55828.80
555.67	55803.05
555.83	55458.99
556.00	55391.12
556.16	55402.82
556.33	55004.93
556.50	55070.46
556.66	54958.12
556.83	54372.99
556.99	54536.82
557.16	54780.24
557.32	55332.60
557.49	55440.27
557.65	55297.50
557.82	55442.61
557.98	55143.02
558.15	54794.28
558.32	53841.68
558.48	52947.60
558.65	53095.05
558.81	53759.76
558.98	54049.99
559.14	54073.40
559.31	53970.41
559.47	54075.74
559.64	53574.86
559.80	53176.97
559.97	53373.58
560.13	53633.38
560.30	54932.37
560.46	55412.18
560.63	55664.96
560.79	55660.28
560.96	55325.58
561.12	54017.22
561.29	52949.94
561.45	53066.97
561.61	53956.37
561.78	54117.87
561.94	54340.22
562.11	53813.60
562.27	53485.92
562.44	54155.32
562.60	54595.34
562.77	54892.58
562.93	54539.16
563.10	54546.18
563.26	53804.24
563.42	54181.06
563.59	53715.29
563.75	53446.13
563.92	53883.81
564.08	53715.29
564.24	53799.55
564.41	54049.99
564.57	53839.34
564.74	53453.15
564.90	53750.40
565.07	53326.77
565.23	53118.46
565.39	52439.70
565.56	52409.28
565.72	52013.73
565.88	52402.25
566.05	52554.39
566.21	52643.33
566.38	52669.08
566.54	53013.13
566.70	53474.22
566.87	53556.14
567.03	53624.01
567.19	53797.21
567.36	53368.90
567.52	53221.44
567.68	52765.04
567.85	52275.87
568.01	51959.89
568.17	51416.89
568.34	51622.86
568.50	51325.61
568.66	51356.03
568.83	51985.64
568.99	52112.03
569.15	52526.30
569.32	52140.11
569.48	51870.95
569.64	51812.44
569.81	51704.77
569.97	51641.58
570.13	51341.99
570.30	50838.78
570.46	50248.96
570.62	49991.50
570.78	49691.91
570.95	49932.99
571.11	50946.44
571.27	50632.81
571.43	51447.32
571.60	51545.62
571.76	51772.65
571.92	51922.44
572.09	52182.24
572.25	52254.80
572.41	52133.09
572.57	52175.22
572.74	51744.56
572.90	51473.06
573.06	51051.76
573.22	51299.86
573.38	51657.96
573.55	51442.63
573.71	51828.82
573.87	51751.59
574.03	51253.05
574.20	51341.99
574.36	50780.26
574.52	50806.01
574.68	50649.19
574.84	50333.22
575.01	49869.79
575.17	49385.30
575.33	50054.70
575.49	50094.49
575.65	50600.04
575.82	50176.40
575.98	49769.15
576.14	50134.28
576.30	50347.26
576.46	50637.49
576.62	50382.37
576.79	50143.64
576.95	49804.26
577.11	50103.85
577.27	49834.69
577.43	50218.53
577.59	49895.54
577.75	49287.00
577.92	48598.88
578.08	48566.12
578.24	48275.89
578.40	48947.62
578.56	49137.21
578.72	49146.57
578.88	49125.50
579.04	49411.05
579.21	49514.03
579.37	49771.49
579.53	49258.91
579.69	49528.08
579.85	49801.92
580.01	49633.40
580.17	48956.99
580.33	48809.53
580.49	49045.93
580.65	49406.37
580.82	49621.70
580.98	49626.38
581.14	49418.07
581.30	49483.61
581.46	49200.40
581.62	49689.57
581.78	49448.50
581.94	49925.97
582.10	49745.75
582.26	49670.85
582.42	49551.48
582.58	49682.55
582.74	49542.12
582.90	49759.79
583.06	49666.17
583.22	49563.18
583.38	49134.87
583.54	49263.60
583.70	49237.85
583.86	49277.64
584.02	49160.61
584.18	49010.82
584.34	49228.49
584.50	49268.28
584.66	48673.78
584.82	48198.65
584.98	48570.80
585.14	48144.82
585.30	47578.41
