SpectraSuite Data File
++++++++++++++++++++++++++++++++++++
Date: Mon Oct 07 14:53:20 GMT-05:00 2013
User: price-jones
Dark Spectrum Present: No
Reference Spectrum Present: No
Number of Sampled Component Spectra: 1
Spectrometers: USB2+H05261
Integration Time (usec): 100000 (USB2+H05261)
Spectra Averaged: 1 (USB2+H05261)
Boxcar Smoothing: 0 (USB2+H05261)
Correct for Electrical Dark: No (USB2+H05261)
Strobe/Lamp Enabled: No (USB2+H05261)
Correct for Detector Non-linearity: No (USB2+H05261)
Correct for Stray Light: No (USB2+H05261)
Number of Pixels in Processed Spectrum: 2048
>>>>>Begin Processed Spectral Data<<<<<
365.73	0.00
365.92	0.00
366.12	0.00
366.32	0.00
366.52	0.00
366.72	0.00
366.91	0.00
367.11	0.00
367.31	0.00
367.51	0.00
367.70	0.00
367.90	0.00
368.10	0.00
368.30	0.00
368.49	0.00
368.69	0.00
368.89	0.00
369.09	0.00
369.28	0.00
369.48	0.00
369.68	0.00
369.87	0.00
370.07	0.00
370.27	0.00
370.47	985.37
370.66	4603.83
370.86	5226.42
371.06	5771.76
371.25	5678.14
371.45	5214.71
371.65	4631.92
371.84	4327.65
372.04	4528.94
372.24	5170.24
372.44	5413.66
372.63	5200.67
372.83	4833.21
373.03	4311.27
373.22	3948.48
373.42	4327.65
373.62	5018.11
373.81	5104.71
374.01	5231.10
374.21	4606.17
374.40	4280.84
374.60	4442.34
374.79	5252.16
374.99	6071.35
375.19	6476.26
375.38	6511.37
375.58	6073.69
375.78	5811.55
375.97	5919.21
376.17	6303.06
376.37	6195.40
376.56	6272.64
376.76	6860.11
376.95	7059.06
377.15	7588.02
377.35	8084.21
377.54	8353.37
377.74	8491.46
377.93	8575.72
378.13	8161.45
378.33	7810.37
378.52	7290.77
378.72	6817.98
378.91	6832.02
379.11	6609.67
379.31	6375.62
379.50	6504.35
379.70	6843.73
379.89	7662.91
380.09	8107.62
380.28	8231.66
380.48	8250.39
380.68	7939.10
380.87	7936.76
381.07	7197.15
381.26	6705.63
381.46	6260.93
381.65	6193.06
381.85	6115.82
382.04	5575.16
382.24	5238.12
382.43	5018.11
382.63	4961.94
382.83	5022.79
383.02	5029.81
383.22	5048.54
383.41	5214.71
383.61	5341.10
383.80	6207.10
384.00	6902.24
384.19	7871.22
384.39	8313.58
384.58	7873.56
384.78	7936.76
384.97	7995.27
385.17	7426.52
385.36	7178.42
385.56	6958.41
385.75	7148.00
385.95	7901.65
386.14	8306.56
386.34	8400.18
386.53	7824.41
386.72	7466.31
386.92	7566.95
387.11	8149.75
387.31	8479.76
387.50	8163.79
387.70	7929.74
387.89	7770.58
388.09	7943.78
388.28	7927.39
388.48	8124.00
388.67	8861.27
388.86	9490.87
389.06	10209.42
389.25	10590.92
389.45	11049.67
389.64	10799.23
389.84	10747.74
390.03	10359.21
390.22	10525.39
390.42	10759.44
390.61	11648.85
390.81	12559.31
391.00	12341.64
391.19	12114.61
391.39	11995.25
391.58	11019.24
391.78	10569.86
391.97	10321.76
392.16	9685.14
392.36	8793.39
392.55	7133.95
392.75	5636.01
392.94	4648.30
393.13	4517.23
393.33	5474.51
393.52	6958.41
393.71	8416.57
393.91	9570.45
394.10	10171.97
394.29	11239.25
394.49	12184.83
394.68	13153.81
394.88	12823.80
395.07	13408.93
395.26	13275.52
395.46	12863.58
395.65	12086.53
395.84	10513.69
396.04	9095.32
396.23	7463.97
396.42	6057.31
396.62	5959.00
396.81	7082.46
397.00	8830.84
397.19	11108.18
397.39	13060.19
397.58	14794.53
397.77	15583.29
397.97	16397.79
398.16	16414.18
398.35	17064.85
398.55	17549.34
398.74	18263.20
398.93	18686.84
399.12	18476.19
399.32	17476.78
399.51	17928.50
399.70	19075.37
399.90	19005.15
400.09	19066.00
400.28	18677.48
400.47	18848.33
400.67	19756.46
400.86	20365.00
401.05	20627.14
401.24	20297.13
401.44	20982.90
401.63	21039.08
401.82	20938.43
402.01	20744.17
402.21	21242.70
402.40	20982.90
402.59	20582.67
402.78	19777.53
402.97	19185.37
403.17	19999.88
403.36	21046.10
403.55	21769.32
403.74	22111.04
403.93	21380.79
404.13	19735.40
404.32	19044.94
404.51	19983.49
404.70	21764.64
404.89	21891.03
405.09	21376.11
405.28	20538.20
405.47	20533.52
405.66	20776.94
405.85	20093.50
406.05	19658.16
406.24	20156.69
406.43	20718.42
406.62	21289.51
406.81	21422.92
407.00	20357.98
407.20	20376.70
407.39	20475.01
407.58	21366.75
407.77	21961.25
407.96	22796.82
408.15	22948.95
408.34	23278.97
408.54	24285.40
408.73	24622.44
408.92	23775.16
409.11	23131.51
409.30	22160.19
409.49	21036.74
409.68	19386.66
409.87	18998.13
410.07	20210.53
410.26	21584.42
410.45	22911.50
410.64	23702.61
410.83	24304.12
411.02	24940.75
411.21	25804.41
411.40	25640.57
411.59	25394.81
411.78	25645.25
411.98	25488.43
412.17	25572.69
412.36	25296.51
412.55	25263.74
412.74	24442.21
412.93	24226.89
413.12	24269.01
413.31	26801.47
413.50	26815.52
413.69	27140.85
413.88	26001.01
414.07	25411.20
414.26	25961.22
414.45	26782.75
414.64	27344.48
414.83	26918.50
415.02	26408.26
415.22	26576.78
415.41	27037.87
415.60	28128.56
415.79	29198.18
415.98	29635.86
416.17	29820.77
416.36	28723.05
416.55	28332.18
416.74	27686.20
416.93	26792.11
417.12	26728.92
417.31	27161.92
417.50	27583.21
417.69	28514.75
417.88	28339.21
418.07	27920.25
418.26	27999.83
418.45	27967.06
418.64	28849.44
418.83	29834.81
419.02	29507.13
419.21	29324.57
419.39	27569.17
419.58	26581.46
419.77	26778.07
419.96	27981.10
420.15	29207.55
420.34	30384.83
420.53	31358.50
420.72	31721.28
420.91	31594.89
421.10	30874.01
421.29	30806.13
421.48	29792.68
421.67	31232.11
421.86	30761.66
422.05	28219.84
422.24	25439.28
422.43	25289.49
422.61	27690.88
422.80	29809.06
422.99	29865.24
423.18	29130.31
423.37	28535.81
423.56	28753.48
423.75	28999.24
423.94	29776.30
424.13	28208.14
424.32	28355.59
424.50	28596.67
424.69	28109.83
424.88	28142.60
425.07	28381.34
425.26	27929.61
425.45	27751.73
425.64	27454.48
425.83	27410.01
426.01	28685.61
426.20	29570.33
426.39	29333.93
426.58	27164.26
426.77	25228.63
426.96	24301.78
427.15	25385.45
427.33	27587.89
427.52	28252.61
427.71	28718.37
427.90	27924.93
428.09	27435.76
428.28	27414.69
428.46	26286.56
428.65	25949.52
428.84	26471.46
429.03	27161.92
429.22	25537.59
429.40	24467.96
429.59	22075.93
429.78	19482.62
429.97	19660.50
430.16	19754.12
430.34	19880.51
430.53	19882.85
430.72	20622.46
430.91	22537.02
431.10	26829.56
431.28	31072.95
431.47	33427.53
431.66	33890.96
431.85	30469.09
432.03	28364.95
432.22	27239.15
432.41	28414.10
432.60	31447.44
432.79	32538.13
432.97	33455.62
433.16	32505.36
433.35	29668.63
433.54	26700.83
433.72	25429.92
433.91	26466.78
434.10	29502.45
434.28	31297.64
434.47	32374.29
434.66	32165.98
434.85	31220.41
435.03	31150.19
435.22	32156.62
435.41	34384.81
435.59	34347.36
435.78	34225.65
435.97	35138.46
436.16	35473.16
436.34	35044.84
436.53	34015.01
436.72	34195.23
436.90	32556.85
437.09	32701.96
437.28	31901.50
437.46	33518.81
437.65	32807.29
437.84	30632.93
438.02	28109.83
438.21	28400.06
438.40	29511.81
438.58	32037.25
438.77	32921.98
438.96	33153.69
439.14	34845.90
439.33	35398.26
439.52	36140.21
439.70	35136.12
439.89	34323.96
440.08	33268.37
440.26	33628.82
440.45	34857.60
440.63	36954.72
440.82	38347.34
441.01	37755.18
441.19	37495.38
441.38	38345.00
441.57	39519.95
441.75	40081.67
441.94	40048.91
442.12	39945.92
442.31	40938.31
442.50	40622.34
442.68	40360.20
442.87	39618.25
443.05	39051.84
443.24	39639.31
443.43	40505.31
443.61	41439.18
443.80	41317.48
443.98	39559.73
444.17	39311.64
444.35	41670.90
444.54	42480.72
444.73	41911.97
444.91	39777.40
445.10	38796.72
445.28	37118.56
445.47	36556.83
445.65	36933.65
445.84	37579.64
446.02	39187.59
446.21	39772.72
446.39	39533.99
446.58	39938.90
446.77	40952.35
446.95	40940.65
447.14	42206.88
447.32	43000.32
447.51	41832.39
447.69	40385.94
447.88	39782.09
448.06	40453.82
448.25	41696.64
448.43	41375.99
448.62	40800.22
448.80	40797.88
448.99	41247.26
449.17	41446.21
449.36	41399.40
449.54	42920.74
449.73	43342.04
449.91	44072.29
450.10	45151.27
450.28	45516.40
450.46	45317.45
450.65	45338.52
450.83	44844.66
451.02	43885.04
451.20	44069.95
451.39	43686.10
451.57	43304.59
451.76	43878.02
451.94	43283.53
452.13	42616.47
452.31	40811.92
452.49	39229.72
452.68	39639.31
452.86	39306.96
453.05	40170.61
453.23	41256.62
453.42	42064.11
453.60	43353.74
453.78	43697.80
453.97	43213.31
454.15	43058.84
454.34	42380.08
454.52	41879.21
454.70	41729.41
454.89	41830.05
455.07	42862.23
455.26	42972.24
455.44	44458.48
455.62	44797.85
455.81	45455.54
455.99	44947.65
456.17	44130.80
456.36	44685.51
456.54	45361.92
456.73	45509.38
456.91	46340.27
457.09	46157.70
457.28	47365.42
457.46	45743.43
457.64	45207.45
457.83	43863.98
458.01	43304.59
458.19	43988.03
458.38	44484.22
458.56	45748.11
458.74	45195.74
458.93	44453.79
459.11	44715.93
459.29	44814.24
459.48	44692.53
459.66	44795.51
459.84	44788.49
460.03	45448.52
460.21	45092.76
460.39	46483.04
460.57	46579.00
460.76	46747.52
460.94	47224.99
461.12	46344.95
461.31	46696.03
461.49	46288.77
461.67	46761.56
461.85	47906.08
462.04	47760.97
462.22	47894.38
462.40	47466.06
462.59	47679.05
462.77	47580.75
462.95	47276.48
463.13	46763.90
463.32	46181.11
463.50	46085.15
463.68	46490.06
463.86	46316.86
464.05	45982.16
464.23	44996.80
464.41	45181.70
464.59	44306.34
464.78	46298.14
464.96	45942.38
465.14	45556.19
465.32	46454.95
465.50	47470.75
465.69	47920.13
465.87	47077.54
466.05	46239.62
466.23	44495.92
466.41	43569.07
466.60	44423.37
466.78	44334.43
466.96	45535.12
467.14	46410.48
467.32	46330.90
467.51	46644.54
467.69	44554.44
467.87	45612.36
468.05	46260.69
468.23	46256.01
468.41	46078.13
468.60	46476.02
468.78	46237.28
468.96	45996.21
469.14	47168.82
469.32	47100.94
469.50	45677.90
469.69	45453.20
469.87	45043.61
470.05	44701.89
470.23	44917.22
470.41	45294.05
470.59	45865.14
470.77	45544.48
470.95	46848.16
471.14	47082.22
471.32	47203.92
471.50	49193.38
471.68	49198.06
471.86	49347.86
472.04	49605.31
472.22	49624.04
472.40	47917.79
472.58	47519.90
472.77	47086.90
472.95	47800.76
473.13	48975.71
473.31	47540.96
473.49	47999.71
473.67	48605.91
473.85	48964.01
474.03	49940.01
474.21	50092.15
474.39	50202.15
474.57	50672.60
474.75	50541.53
474.93	50581.32
475.12	49698.94
475.30	49792.56
475.48	49450.84
475.66	50176.40
475.84	49450.84
476.02	49621.70
476.20	48879.75
476.38	49696.59
476.56	50979.21
476.74	51192.20
476.92	51388.80
477.10	51999.68
477.28	52781.42
477.46	52811.85
477.64	53013.13
477.82	53085.69
478.00	53389.96
478.18	52835.25
478.36	52729.93
478.54	52729.93
478.72	52825.89
478.90	53881.47
479.08	54581.29
479.26	54630.44
479.44	54684.28
479.62	54443.20
479.80	54536.82
479.98	54688.96
480.16	54967.48
480.34	54436.18
480.52	54960.46
480.70	54901.95
480.88	54815.35
481.06	55728.16
481.24	55945.83
481.41	56568.41
481.59	56692.46
481.77	56360.10
481.95	56214.99
482.13	55903.70
482.31	56210.31
482.49	56474.79
482.67	56732.25
482.85	56886.72
483.03	57226.10
483.21	57289.29
483.39	57425.04
483.57	56914.81
483.74	56603.52
483.92	56807.14
484.10	56868.00
484.28	57588.88
484.46	57921.24
484.64	58056.99
484.82	57659.10
485.00	57411.00
485.18	56580.11
485.35	55861.57
485.53	53675.51
485.71	50546.21
485.89	50192.79
486.07	51852.23
486.25	54511.08
486.43	55868.59
486.61	56505.21
486.78	56666.71
486.96	56605.86
487.14	57647.39
487.32	58122.52
487.50	58859.79
487.68	59625.15
487.85	59880.27
488.03	60023.04
488.21	59505.78
488.39	59119.59
488.57	58569.57
488.75	58536.80
488.92	59250.66
489.10	60811.80
489.28	61907.17
489.46	62489.96
489.64	62117.82
489.81	62468.90
489.99	62028.88
490.17	62155.27
490.35	62536.77
490.53	61991.43
490.70	61822.91
490.88	61675.46
491.06	62211.44
491.24	62363.57
491.41	61722.27
491.59	60245.39
491.77	59870.90
491.95	60872.65
492.13	61757.38
492.30	62621.03
492.48	63299.79
492.66	63414.47
492.84	63716.40
493.01	63138.29
493.19	62855.09
493.37	62787.21
493.54	62520.39
493.72	63061.05
493.90	63854.50
494.08	64470.06
494.25	64570.70
494.43	64580.06
494.61	65104.34
494.79	65167.54
494.96	64889.01
495.14	64411.54
495.32	63674.27
495.49	63290.43
495.67	63983.22
495.85	65272.86
496.02	65535.00
496.20	65380.52
496.38	65022.42
496.55	64877.31
496.73	65340.74
496.91	65324.35
497.09	65535.00
497.26	65535.00
497.44	65535.00
497.62	64952.21
497.79	64282.81
497.97	63358.30
498.14	63510.44
498.32	64573.04
498.50	65237.75
498.67	65535.00
498.85	65535.00
499.03	65535.00
499.20	65535.00
499.38	65535.00
499.56	65535.00
499.73	65357.12
499.91	65181.58
500.08	64718.15
500.26	64137.70
500.44	64640.92
500.61	65069.23
500.79	64949.87
500.97	64631.55
501.14	64493.46
501.32	64376.43
501.49	64322.60
501.67	64573.04
501.84	64956.89
502.02	65132.43
502.20	65457.76
502.37	65535.00
502.55	65535.00
502.72	65535.00
502.90	65535.00
503.07	65535.00
503.25	65535.00
503.43	65289.24
503.60	64671.34
503.78	64074.51
503.95	64610.49
504.13	65535.00
504.30	65535.00
504.48	65535.00
504.65	65535.00
504.83	65535.00
505.01	65535.00
505.18	65535.00
505.36	65535.00
505.53	65535.00
505.71	65535.00
505.88	65535.00
506.06	65535.00
506.23	65535.00
506.41	65535.00
506.58	65535.00
506.76	65535.00
506.93	65535.00
507.11	65535.00
507.28	65535.00
507.46	65535.00
507.63	65443.72
507.81	65469.46
507.98	65499.89
508.16	65535.00
508.33	65535.00
508.50	65535.00
508.68	65535.00
508.85	65535.00
509.03	65535.00
509.20	65535.00
509.38	65535.00
509.55	65535.00
509.73	65535.00
509.90	65535.00
510.08	65535.00
510.25	65535.00
510.42	65535.00
510.60	65535.00
510.77	65535.00
510.95	65535.00
511.12	65535.00
511.30	65535.00
511.47	65535.00
511.64	65535.00
511.82	65535.00
511.99	65535.00
512.17	65535.00
512.34	65535.00
512.51	65535.00
512.69	65535.00
512.86	65535.00
513.04	65535.00
513.21	65535.00
513.38	65535.00
513.56	65535.00
513.73	65535.00
513.90	65535.00
514.08	65535.00
514.25	65535.00
514.43	65535.00
514.60	65535.00
514.77	65535.00
514.95	65535.00
515.12	65535.00
515.29	65535.00
515.47	65535.00
515.64	65535.00
515.81	65535.00
515.99	65535.00
516.16	65535.00
516.33	63723.43
516.51	62616.35
516.68	61790.14
516.85	61478.85
517.03	61961.00
517.20	64121.32
517.37	65535.00
517.54	65535.00
517.72	65535.00
517.89	64376.43
518.06	62269.95
518.24	62611.67
518.41	64392.82
518.58	65373.50
518.75	65535.00
518.93	65535.00
519.10	65535.00
519.27	65535.00
519.45	65535.00
519.62	65535.00
519.79	65535.00
519.96	65535.00
520.14	65535.00
520.31	65535.00
520.48	65535.00
520.65	65535.00
520.83	65535.00
521.00	65535.00
521.17	65535.00
521.34	65535.00
521.52	65535.00
521.69	65535.00
521.86	65535.00
522.03	65535.00
522.20	65535.00
522.38	65535.00
522.55	65535.00
522.72	65535.00
522.89	65535.00
523.07	65535.00
523.24	65535.00
523.41	65535.00
523.58	65535.00
523.75	65535.00
523.92	65535.00
524.10	65535.00
524.27	65535.00
524.44	65535.00
524.61	65535.00
524.78	65535.00
524.96	65535.00
525.13	65535.00
525.30	65535.00
525.47	65535.00
525.64	65535.00
525.81	65535.00
525.98	65535.00
526.16	65535.00
526.33	64596.45
526.50	64147.06
526.67	63905.99
526.84	64413.88
527.01	65254.14
527.18	65535.00
527.36	65535.00
527.53	65535.00
527.70	65535.00
527.87	65535.00
528.04	65535.00
528.21	65535.00
528.38	65535.00
528.55	65535.00
528.72	65535.00
528.89	65535.00
529.07	65535.00
529.24	65535.00
529.41	65535.00
529.58	65535.00
529.75	65535.00
529.92	65535.00
530.09	65535.00
530.26	65535.00
530.43	65535.00
530.60	65535.00
530.77	65535.00
530.94	65535.00
531.11	65535.00
531.28	65535.00
531.46	65535.00
531.63	65535.00
531.80	65535.00
531.97	65535.00
532.14	65535.00
532.31	65535.00
532.48	65535.00
532.65	65343.08
532.82	65535.00
532.99	65535.00
533.16	65535.00
533.33	65535.00
533.50	65535.00
533.67	65535.00
533.84	65535.00
534.01	65535.00
534.18	65535.00
534.35	65535.00
534.52	65535.00
534.69	65535.00
534.86	65535.00
535.03	65535.00
535.20	65535.00
535.37	65535.00
535.54	65535.00
535.71	65535.00
535.88	65535.00
536.05	65535.00
536.22	65535.00
536.38	65535.00
536.55	65535.00
536.72	65535.00
536.89	65535.00
537.06	65535.00
537.23	65535.00
537.40	65535.00
537.57	65535.00
537.74	65535.00
537.91	65535.00
538.08	65535.00
538.25	65535.00
538.42	65535.00
538.59	65535.00
538.75	65535.00
538.92	65535.00
539.09	65535.00
539.26	65535.00
539.43	65535.00
539.60	65535.00
539.77	65535.00
539.94	65535.00
540.11	65535.00
540.28	65057.53
540.44	65268.18
540.61	65382.87
540.78	65535.00
540.95	65535.00
541.12	65535.00
541.29	65535.00
541.46	65535.00
541.62	65535.00
541.79	65535.00
541.96	65535.00
542.13	65535.00
542.30	65535.00
542.47	65535.00
542.63	65535.00
542.80	65535.00
542.97	65535.00
543.14	65535.00
543.31	65535.00
543.48	65535.00
543.64	65535.00
543.81	65535.00
543.98	65535.00
544.15	65535.00
544.32	65535.00
544.48	65535.00
544.65	65535.00
544.82	65535.00
544.99	65535.00
545.16	65535.00
545.32	65535.00
545.49	65535.00
545.66	65535.00
545.83	65535.00
546.00	65535.00
546.16	65535.00
546.33	65535.00
546.50	65535.00
546.67	65535.00
546.83	65535.00
547.00	65535.00
547.17	65535.00
547.34	65429.68
547.50	65429.68
547.67	65535.00
547.84	65535.00
548.00	65535.00
548.17	65535.00
548.34	65535.00
548.51	65535.00
548.67	65535.00
548.84	65535.00
549.01	65535.00
549.18	65535.00
549.34	65535.00
549.51	65535.00
549.68	65535.00
549.84	65535.00
550.01	65535.00
550.18	65535.00
550.34	65535.00
550.51	65535.00
550.68	65535.00
550.84	65535.00
551.01	65535.00
551.18	65535.00
551.34	65535.00
551.51	65535.00
551.68	65535.00
551.84	65535.00
552.01	65535.00
552.18	65535.00
552.34	65535.00
552.51	65307.97
552.68	65223.71
552.84	65471.81
553.01	65535.00
553.18	65535.00
553.34	65535.00
553.51	65535.00
553.67	65535.00
553.84	65535.00
554.01	65535.00
554.17	65535.00
554.34	65535.00
554.51	65535.00
554.67	65535.00
554.84	65535.00
555.00	65535.00
555.17	65535.00
555.33	65535.00
555.50	65535.00
555.67	65535.00
555.83	65535.00
556.00	65535.00
556.16	65446.06
556.33	65167.54
556.50	64968.59
556.66	64999.02
556.83	64680.70
556.99	64968.59
557.16	65041.15
557.32	65251.80
557.49	65502.23
557.65	65345.42
557.82	65410.95
557.98	65448.40
558.15	64781.35
558.32	64189.19
558.48	63496.39
558.65	63854.50
558.81	63915.35
558.98	64186.85
559.14	64505.16
559.31	64423.25
559.47	64584.74
559.64	64097.91
559.80	63908.33
559.97	64121.32
560.13	64502.82
560.30	65085.62
560.46	65460.10
560.63	65535.00
560.79	65535.00
560.96	65289.24
561.12	64322.60
561.29	63854.50
561.45	63491.71
561.61	64315.58
561.78	64638.57
561.94	64533.25
562.11	64320.26
562.27	64257.07
562.44	64535.59
562.60	64760.28
562.77	64860.93
562.93	65055.19
563.10	64870.29
563.26	64404.52
563.42	64360.05
563.59	64231.32
563.75	64175.15
563.92	64282.81
564.08	64137.70
564.24	64507.50
564.41	64591.76
564.57	64409.20
564.74	64420.90
564.90	64161.11
565.07	63957.48
565.23	63655.55
565.39	63250.64
565.56	63110.20
565.72	63007.22
565.88	63260.00
566.05	63400.43
566.21	63524.48
566.38	63599.38
566.54	63695.34
566.70	63948.12
566.87	64221.96
567.03	64149.40
567.19	64498.14
567.36	64172.81
567.52	64100.25
567.68	63664.91
567.85	63323.19
568.01	63093.82
568.17	62574.22
568.34	62766.15
568.50	62773.17
568.66	62695.93
568.83	62932.32
568.99	63222.55
569.15	63472.99
569.32	63388.73
569.48	63142.97
569.64	63007.22
569.81	62770.83
569.97	62597.63
570.13	62653.80
570.30	62239.53
570.46	61881.42
570.62	61205.01
570.78	61338.42
570.95	61748.01
571.11	62239.53
571.27	62272.29
571.43	62513.37
571.60	62775.51
571.76	62899.56
571.92	63185.10
572.09	63271.70
572.25	63075.10
572.41	63023.61
572.57	62922.96
572.74	63051.69
572.90	62724.02
573.06	62780.19
573.22	62775.51
573.38	62674.87
573.55	62845.72
573.71	62920.62
573.87	62693.59
574.03	62766.15
574.20	62637.42
574.36	62417.41
574.52	62433.79
574.68	62314.42
574.84	61780.78
575.01	61296.29
575.17	61420.34
575.33	61757.38
575.49	61970.36
575.65	61989.09
575.82	61656.73
575.98	61581.84
576.14	61694.18
576.30	62000.79
576.46	62211.44
576.62	62110.80
576.79	62017.17
576.95	61607.58
577.11	61778.44
577.27	61661.41
577.43	61893.13
577.59	61588.86
577.75	61160.54
577.92	60687.75
578.08	60608.17
578.24	60507.53
578.40	60891.38
578.56	61059.90
578.72	60985.00
578.88	61338.42
579.04	61350.12
579.21	61570.13
579.37	61490.55
579.53	61406.30
579.69	61420.34
579.85	61677.80
580.01	61469.49
580.17	61258.84
580.33	60961.59
580.49	61078.62
580.65	61265.86
580.82	61539.71
580.98	61394.59
581.14	61254.16
581.30	61258.84
581.46	61298.63
581.62	61525.66
581.78	61490.55
581.94	61738.65
582.10	61722.27
582.26	61698.86
582.42	61609.92
582.58	61820.57
582.74	61553.75
582.90	61652.05
583.06	61661.41
583.22	61389.91
583.38	61436.72
583.54	61469.49
583.70	61268.20
583.86	61429.70
584.02	61219.05
584.18	61462.47
584.34	61282.25
584.50	61197.99
584.66	61104.37
584.82	60790.73
584.98	60823.50
