SpectraSuite Data File
++++++++++++++++++++++++++++++++++++
Date: Mon Oct 07 14:53:47 GMT-05:00 2013
User: price-jones
Dark Spectrum Present: No
Reference Spectrum Present: No
Number of Sampled Component Spectra: 1
Spectrometers: USB2+H05261
Integration Time (usec): 100000 (USB2+H05261)
Spectra Averaged: 1 (USB2+H05261)
Boxcar Smoothing: 0 (USB2+H05261)
Correct for Electrical Dark: No (USB2+H05261)
Strobe/Lamp Enabled: No (USB2+H05261)
Correct for Detector Non-linearity: No (USB2+H05261)
Correct for Stray Light: No (USB2+H05261)
Number of Pixels in Processed Spectrum: 2048
>>>>>Begin Processed Spectral Data<<<<<
365.73	0.00
365.92	0.00
366.12	0.00
366.32	0.00
366.52	0.00
366.72	0.00
366.91	0.00
367.11	0.00
367.31	0.00
367.51	0.00
367.70	0.00
367.90	0.00
368.10	0.00
368.30	0.00
368.49	0.00
368.69	0.00
368.89	0.00
369.09	0.00
369.28	0.00
369.48	0.00
369.68	0.00
369.87	0.00
370.07	0.00
370.27	0.00
370.47	613.22
370.66	3225.26
370.86	3667.62
371.06	3941.46
371.25	4147.43
371.45	3658.26
371.65	3262.71
371.84	3122.27
372.04	3239.30
372.24	3592.72
372.44	3939.12
372.63	3758.90
372.83	3550.59
373.03	3173.77
373.22	2942.05
373.42	2928.01
373.62	3442.93
373.81	3826.78
374.01	3801.03
374.21	3283.77
374.40	3117.59
374.60	3185.47
374.79	3749.54
374.99	4231.69
375.19	4620.22
375.38	4606.17
375.58	4351.06
375.78	4243.39
375.97	4299.56
376.17	4444.68
376.37	4402.55
376.56	4645.96
376.76	4875.34
376.95	5277.91
377.15	5689.84
377.35	5736.65
377.54	5959.00
377.74	5970.71
377.93	6216.46
378.13	6015.18
378.33	5874.74
378.52	5277.91
378.72	5050.88
378.91	5029.81
379.11	4987.68
379.31	4786.40
379.50	4627.24
379.70	4983.00
379.89	5320.04
380.09	5898.15
380.28	6160.29
380.48	6113.48
380.68	5973.05
380.87	5816.23
381.07	5528.35
381.26	5071.94
381.46	4676.39
381.65	4510.21
381.85	4505.53
382.04	4124.02
382.24	3854.86
382.43	3737.84
382.63	3616.13
382.83	3714.43
383.02	3562.30
383.22	3583.36
383.41	3688.68
383.61	3920.40
383.80	4566.39
384.00	5170.24
384.19	5778.78
384.39	6083.05
384.58	6190.72
384.78	5973.05
384.97	5856.02
385.17	5425.36
385.36	5380.89
385.56	5085.98
385.75	5167.90
385.95	5673.46
386.14	6221.14
386.34	6300.72
386.53	5940.28
386.72	5605.58
386.92	5813.89
387.11	5795.17
387.31	6066.67
387.50	6019.86
387.70	5881.77
387.89	5715.59
388.09	5912.19
388.28	5881.77
388.48	5954.32
388.67	6579.25
388.86	7241.62
389.06	7691.00
389.25	8011.65
389.45	8042.08
389.64	7967.18
389.84	7880.58
390.03	7761.22
390.22	7669.94
390.42	8032.72
390.61	8601.47
390.81	9137.45
391.00	9350.44
391.19	9392.57
391.39	9153.84
391.58	8498.49
391.78	7922.71
391.97	7641.85
392.16	7112.89
392.36	6642.44
392.55	5373.87
392.75	4285.52
392.94	3405.48
393.13	3384.41
393.33	4011.68
393.52	5102.37
393.71	6408.39
393.91	7152.68
394.10	7653.55
394.29	8552.32
394.49	9085.96
394.68	9914.51
394.88	9846.63
395.07	10132.18
395.26	10181.33
395.46	9956.64
395.65	9275.54
395.84	8166.13
396.04	6825.00
396.23	5502.60
396.42	4617.88
396.62	4440.00
396.81	5139.82
397.00	6654.14
397.19	8107.62
397.39	9867.70
397.58	11208.83
397.77	11630.12
397.97	12109.93
398.16	12472.71
398.35	12912.74
398.55	13362.12
398.74	13790.44
398.93	13973.00
399.12	13731.92
399.32	13261.48
399.51	13650.00
399.70	14558.13
399.90	14555.79
400.09	14583.88
400.28	14174.28
400.47	14457.49
400.67	15152.63
400.86	15604.35
401.05	15754.15
401.24	15559.88
401.44	16027.99
401.63	15726.06
401.82	15943.73
402.01	15878.19
402.21	15910.96
402.40	16285.45
402.59	15775.21
402.78	15014.54
402.97	14455.15
403.17	15082.41
403.36	16079.48
403.55	16573.33
403.74	16943.14
403.93	16374.39
404.13	15063.69
404.32	14518.34
404.51	15260.29
404.70	16830.79
404.89	16231.62
405.09	16318.22
405.28	15620.74
405.47	15889.90
405.66	15786.91
405.85	15449.88
406.05	14665.80
406.24	15070.71
406.43	15901.60
406.62	16428.22
406.81	16292.47
407.00	15740.10
407.20	15583.29
407.39	15634.78
407.58	16201.19
407.77	17060.16
407.96	17441.67
408.15	17640.62
408.34	17795.09
408.54	18766.42
408.73	18551.09
408.92	18295.97
409.11	18237.45
409.30	16905.69
409.49	15749.46
409.68	14932.62
409.87	14265.57
410.07	15356.25
410.26	16751.21
410.45	17532.95
410.64	18211.71
410.83	18480.87
411.02	19058.98
411.21	19609.01
411.40	19559.86
411.59	19424.11
411.78	19337.51
411.98	19122.18
412.17	19700.29
412.36	19426.45
412.55	19468.58
412.74	19257.93
412.93	18396.61
413.12	18551.09
413.31	20428.20
413.50	20334.57
413.69	20837.79
413.88	19866.47
414.07	19269.63
414.26	19941.36
414.45	20556.93
414.64	20648.21
414.83	20755.87
415.02	20339.26
415.22	20116.90
415.41	20781.62
415.60	21469.73
415.79	22185.94
415.98	22593.19
416.17	22719.58
416.36	21970.61
416.55	22087.64
416.74	21092.91
416.93	20470.33
417.12	20315.85
417.31	20807.36
417.50	21448.67
417.69	21951.88
417.88	21680.38
418.07	21408.88
418.26	21212.28
418.45	21724.85
418.64	22132.11
418.83	22712.56
419.02	22759.37
419.21	22567.45
419.39	21722.51
419.58	20519.48
419.77	20615.44
419.96	21474.42
420.15	22581.49
420.34	23175.98
420.53	24247.95
420.72	24453.92
420.91	24299.44
421.10	23931.98
421.29	23850.06
421.48	22661.07
421.67	23908.57
421.86	23241.52
422.05	22040.82
422.24	19721.35
422.43	19491.98
422.61	21144.40
422.80	23370.25
422.99	23426.42
423.18	22314.67
423.37	22071.25
423.56	21881.67
423.75	22480.85
423.94	22906.82
424.13	21528.25
424.32	21900.39
424.50	21710.81
424.69	21486.12
424.88	21930.82
425.07	21493.14
425.26	21907.41
425.45	21355.05
425.64	20957.16
425.83	20875.24
426.01	22389.56
426.20	22717.24
426.39	22752.35
426.58	21102.27
426.77	19297.72
426.96	18871.74
427.15	19082.39
427.33	21205.25
427.52	21720.17
427.71	22064.23
427.90	21556.33
428.09	21628.89
428.28	20971.20
428.46	20341.60
428.65	19941.36
428.84	20411.81
429.03	20882.26
429.22	19592.62
429.40	18927.91
429.59	16896.33
429.78	15026.24
429.97	15288.38
430.16	15435.83
430.34	15370.30
430.53	15328.17
430.72	15351.57
430.91	17235.70
431.10	20222.23
431.28	23817.29
431.47	25675.68
431.66	26511.25
431.85	24091.13
432.03	22331.05
432.22	20655.23
432.41	21701.45
432.60	24086.45
432.79	25081.18
432.97	25844.20
433.16	25277.79
433.35	23192.37
433.54	20826.09
433.72	19522.41
433.91	19892.21
434.10	22478.50
434.28	23990.49
434.47	25439.28
434.66	25256.72
434.85	24247.95
435.03	24166.03
435.22	24849.47
435.41	26352.09
435.59	26214.00
435.78	26775.73
435.97	27634.71
436.16	27587.89
436.34	27353.84
436.53	26822.54
436.72	26515.93
436.90	25411.20
437.09	25010.96
437.28	24397.74
437.46	25373.75
437.65	25642.91
437.84	23871.12
438.02	22019.76
438.21	21497.82
438.40	22733.62
438.58	24809.68
438.77	25277.79
438.96	26029.10
439.14	26717.22
439.33	27559.81
439.52	27555.13
439.70	27222.77
439.89	26487.84
440.08	25720.15
440.26	25570.35
440.45	26536.99
440.63	28105.15
440.82	30064.18
441.01	29425.22
441.19	29165.42
441.38	29717.78
441.57	30754.64
441.75	31321.05
441.94	31321.05
442.12	30691.44
442.31	31475.52
442.50	31208.70
442.68	31758.73
442.87	30993.37
443.05	30457.39
443.24	30923.16
443.43	31644.04
443.61	31976.40
443.80	32694.94
443.98	30859.96
444.17	30824.86
444.35	32149.60
444.54	32559.19
444.73	32652.81
444.91	31047.21
445.10	29750.55
445.28	28769.86
445.47	28203.46
445.65	28350.91
445.84	29390.11
446.02	30036.09
446.21	30497.18
446.39	31000.40
446.58	31192.32
446.77	31573.83
446.95	32039.59
447.14	32840.06
447.32	33673.29
447.51	32601.32
447.69	31491.91
447.88	30904.43
448.06	31538.72
448.25	32294.71
448.43	32622.39
448.62	32180.03
448.80	31503.61
448.99	32081.72
449.17	32233.86
449.36	32184.71
449.54	33441.57
449.73	33846.49
449.91	34347.36
450.10	35372.52
450.28	35751.68
450.46	35288.26
450.65	35447.41
450.83	35072.93
451.02	34146.08
451.20	34600.14
451.39	34117.99
451.57	34026.71
451.76	33869.89
451.94	33785.63
452.13	33134.96
452.31	32023.21
452.49	30209.29
452.68	30609.53
452.86	30787.41
453.05	31358.50
453.23	32198.75
453.42	32900.91
453.60	33493.07
453.78	33942.45
453.97	33626.48
454.15	33174.75
454.34	32601.32
454.52	33205.18
454.70	32112.15
454.89	32582.60
455.07	32893.89
455.26	33336.25
455.44	34422.26
455.62	35222.72
455.81	35040.16
455.99	35314.00
456.17	34401.19
456.36	34787.38
456.54	35655.72
456.73	35594.87
456.91	36282.98
457.09	36378.95
457.28	37397.08
457.46	35775.09
457.64	35634.66
457.83	33806.70
458.01	33392.42
458.19	34157.78
458.38	34361.40
458.56	35775.09
458.74	35122.08
458.93	35253.15
459.11	34937.18
459.29	34731.21
459.48	35005.05
459.66	34623.54
459.84	35449.75
460.03	35718.92
460.21	35470.82
460.39	36519.38
460.57	36318.09
460.76	36605.98
460.94	36725.35
461.12	36285.33
461.31	36648.11
461.49	36236.17
461.67	36297.03
461.85	37338.57
462.04	37404.10
462.22	37429.85
462.40	37574.96
462.59	37170.05
462.77	37156.00
462.95	37376.01
463.13	36329.80
463.32	36329.80
463.50	35943.61
463.68	36222.13
463.86	36467.89
464.05	35861.69
464.23	35283.58
464.41	34948.88
464.59	34492.47
464.78	35969.35
464.96	35957.65
465.14	35505.93
465.32	36409.37
465.50	37668.58
465.69	37816.04
465.87	36907.91
466.05	36217.45
466.23	34642.27
466.41	33865.21
466.60	34560.35
466.78	34857.60
466.96	35454.44
467.14	35976.37
467.32	36306.39
467.51	36512.36
467.69	34906.75
467.87	35571.46
468.05	36060.63
468.23	36201.07
468.41	36098.08
468.60	36318.09
468.78	36573.21
468.96	36100.42
469.14	37060.04
469.32	37371.33
469.50	35885.09
469.69	35959.99
469.87	35391.24
470.05	35009.73
470.23	35241.45
470.41	35211.02
470.59	35234.42
470.77	35791.47
470.95	36804.92
471.14	37514.11
471.32	37116.22
471.50	38822.47
471.68	38808.42
471.86	39328.02
472.04	39592.50
472.22	39763.36
472.40	37467.30
472.58	37525.81
472.77	37378.36
472.95	37844.12
473.13	38972.26
473.31	37865.19
473.49	38204.56
473.67	38773.31
473.85	38934.81
474.03	40025.50
474.21	40018.48
474.39	40395.31
474.57	40835.33
474.75	40627.02
474.93	40495.95
475.12	38892.68
475.30	39428.66
475.48	39625.27
475.66	40212.74
475.84	39770.38
476.02	39622.93
476.20	38829.49
476.38	39405.26
476.56	40741.71
476.74	41048.32
476.92	41228.54
477.10	42120.28
477.28	43456.73
477.46	43082.24
477.64	43402.89
477.82	43608.86
478.00	43812.49
478.18	43187.56
478.36	43068.20
478.54	43117.35
478.72	43461.41
478.90	44102.71
479.08	45478.95
479.26	46225.58
479.44	45818.33
479.62	45668.53
479.80	45771.52
479.98	45614.70
480.16	46007.91
480.34	45574.91
480.52	45825.35
480.70	46326.22
480.88	46541.55
481.06	47063.49
481.24	47253.08
481.41	48088.65
481.59	48755.70
481.77	48296.95
481.95	47903.74
482.13	47533.94
482.31	47700.12
482.49	48446.75
482.67	48406.96
482.85	48814.21
483.03	48783.79
483.21	49698.94
483.39	49404.03
483.57	48727.61
483.74	48566.12
483.92	48779.10
484.10	48924.22
484.28	49815.96
484.46	50253.64
484.64	50260.66
484.82	49954.05
485.00	49499.99
485.18	48839.96
485.35	47482.45
485.53	43938.88
485.71	40395.31
485.89	39763.36
486.07	41347.90
486.25	45155.96
486.43	47625.22
486.61	47992.68
486.78	48226.74
486.96	48484.20
487.14	49696.59
487.32	50574.30
487.50	51812.44
487.68	52481.83
487.85	52858.66
488.03	52729.93
488.21	52362.46
488.39	51714.14
488.57	51175.81
488.75	51035.38
488.92	51866.27
489.10	53956.37
489.28	54976.84
489.46	55814.76
489.64	55466.02
489.81	55838.16
489.99	55377.08
490.17	55231.96
490.35	55554.96
490.53	55274.09
490.70	55007.27
490.88	54852.80
491.06	55777.31
491.24	56020.72
491.41	54686.62
491.59	53425.07
491.77	52500.56
491.95	53734.02
492.13	54658.53
492.30	55826.46
492.48	56718.20
492.66	57078.64
492.84	56970.98
493.01	56722.88
493.19	56353.08
493.37	56154.13
493.54	55899.01
493.72	56505.21
493.90	57120.77
494.08	57996.13
494.25	58237.21
494.43	58239.55
494.61	58848.09
494.79	58639.78
494.96	58487.65
495.14	58017.20
495.32	57368.87
495.49	56519.26
495.67	57598.24
495.85	58885.54
496.02	59304.49
496.20	59016.61
496.38	58707.66
496.55	58592.97
496.73	58784.90
496.91	59065.76
497.09	59709.41
497.26	59669.62
497.44	59271.73
497.62	58864.47
497.79	57970.39
497.97	57141.84
498.14	57102.05
498.32	58033.58
498.50	58871.49
498.67	59543.23
498.85	59189.81
499.03	59552.59
499.20	59604.08
499.38	59824.09
499.56	59568.97
499.73	59032.99
499.91	59000.22
500.08	58417.43
500.26	57621.65
500.44	57998.48
500.61	58845.75
500.79	58569.57
500.97	58265.30
501.14	58017.20
501.32	57853.36
501.49	57855.70
501.67	58164.65
501.84	58623.40
502.02	58906.60
502.20	59276.41
502.37	59269.39
502.55	59269.39
502.72	59915.37
502.90	60301.56
503.07	60095.60
503.25	59709.41
503.43	59042.35
503.60	58272.32
503.78	57722.29
503.95	58117.84
504.13	59395.77
504.30	60109.64
504.48	59873.24
504.65	59505.78
504.83	59533.87
505.01	60130.70
505.18	60526.25
505.36	60959.25
505.53	61017.77
505.71	61193.31
505.88	61336.08
506.06	60858.61
506.23	60495.83
506.41	60158.79
506.58	60271.14
506.76	60355.39
506.93	60385.82
507.11	60058.15
507.28	60179.85
507.46	59913.03
507.63	59367.69
507.81	59131.29
507.98	59482.37
508.16	59894.31
508.33	60512.21
508.50	60970.96
508.68	61090.32
508.85	61373.53
509.03	61483.53
509.20	61619.28
509.38	60706.47
509.55	59861.54
509.73	60051.12
509.90	60390.50
510.08	60781.37
510.25	60694.77
510.42	60650.30
510.60	60470.08
510.77	60858.61
510.95	61092.66
511.12	61305.65
511.30	61724.61
511.47	61609.92
511.64	61726.95
511.82	61551.41
511.99	60732.22
512.17	60472.42
512.34	60161.13
512.51	60163.47
512.69	60348.37
512.86	60605.83
513.04	60692.43
513.21	60807.12
513.38	60493.49
513.56	59992.61
513.73	59489.40
513.90	59702.38
514.08	59873.24
514.25	60121.34
514.43	60236.03
514.60	60261.77
514.77	60268.79
514.95	60573.06
515.12	60303.90
515.29	60509.87
515.47	61036.49
515.64	61326.72
515.81	60992.02
515.99	60355.39
516.16	59222.58
516.33	56975.66
516.51	55674.32
516.68	55009.61
516.85	54593.00
517.03	54742.79
517.20	57223.76
517.37	59746.86
517.54	60530.93
517.72	60334.33
517.89	57925.92
518.06	55760.92
518.24	55803.05
518.41	58066.35
518.58	59138.32
518.75	59484.72
518.93	59578.34
519.10	59370.03
519.27	59714.09
519.45	59938.78
519.62	60783.71
519.79	61179.26
519.96	60896.06
520.14	60453.70
520.31	59821.75
520.48	59735.15
520.65	60119.00
520.83	60921.80
521.00	61329.06
521.17	60933.51
521.34	60542.64
521.52	60741.58
521.69	61443.74
521.86	61689.50
522.03	61455.45
522.20	60378.80
522.38	59367.69
522.55	59224.92
522.72	59819.41
522.89	60037.08
523.07	60381.14
523.24	60643.28
523.41	61303.31
523.58	61593.54
523.75	62033.56
523.92	61595.88
524.10	61740.99
524.27	61815.89
524.44	61778.44
524.61	61621.62
524.78	61446.08
524.96	61237.78
525.13	61403.95
525.30	61399.27
525.47	61944.62
525.64	61867.38
525.81	61003.72
525.98	60044.10
526.16	58548.50
526.33	58040.60
526.50	57750.38
526.67	57373.55
526.84	57804.21
527.01	58665.53
527.18	59599.40
527.36	60149.43
527.53	60989.68
527.70	61305.65
527.87	61001.38
528.04	60388.16
528.21	60926.49
528.38	61382.89
528.55	62012.49
528.72	62038.24
528.89	62363.57
529.07	62052.28
529.24	61565.45
529.41	61015.43
529.58	60374.12
529.75	60500.51
529.92	61015.43
530.09	61282.25
530.26	61642.69
530.43	61836.95
530.60	62148.24
530.77	62293.36
530.94	62143.56
531.11	61867.38
531.28	61586.52
531.46	61530.34
531.63	61551.41
531.80	61443.74
531.97	60910.10
532.14	60327.31
532.31	59384.07
532.48	58876.18
532.65	58805.96
532.82	59730.47
532.99	60750.94
533.16	61144.16
533.33	61565.45
533.50	61443.74
533.67	60683.07
533.84	60306.24
534.01	60500.51
534.18	60711.16
534.35	61048.19
534.52	60722.86
534.69	60825.84
534.86	61193.31
535.03	61436.72
535.20	61949.30
535.37	62269.95
535.54	62405.70
535.71	62068.67
535.88	61748.01
536.05	61015.43
536.22	60891.38
536.38	60516.89
536.55	59976.23
536.72	59496.42
536.89	59611.10
537.06	60535.62
537.23	60987.34
537.40	61205.01
537.57	61389.91
537.74	60793.07
537.91	61109.05
538.08	60739.24
538.25	61006.06
538.42	61127.77
538.59	60877.33
538.75	60404.55
538.92	60097.94
539.09	60135.38
539.26	60018.36
539.43	59643.87
539.60	59798.35
539.77	59847.50
539.94	59889.63
540.11	59121.93
540.28	58726.38
540.44	58688.93
540.61	58855.11
540.78	59147.68
540.95	59496.42
541.12	60154.11
541.29	59980.91
541.46	60317.95
541.62	60383.48
541.79	60596.47
541.96	59906.01
542.13	59854.52
542.30	60109.64
542.47	60296.88
542.63	59976.23
542.80	59707.07
542.97	59882.61
543.14	59891.97
543.31	59901.33
543.48	60341.35
543.64	61247.14
543.81	61275.22
543.98	61160.54
544.15	60437.31
544.32	59866.22
544.48	59973.89
544.65	60598.81
544.82	60762.65
544.99	60458.38
545.16	60371.78
545.32	59817.07
545.49	60460.72
545.66	60917.12
545.83	60467.74
546.00	60357.74
546.16	59835.80
546.33	59985.59
546.50	60027.72
546.67	60385.82
546.83	60163.47
547.00	60109.64
547.17	59573.66
547.34	59002.56
547.50	58972.14
547.67	59409.82
547.84	59475.35
548.00	59723.45
548.17	60144.75
548.34	60069.85
548.51	60142.41
548.67	59784.30
548.84	60254.75
549.01	60123.68
549.18	60137.72
549.34	60065.17
549.51	59894.31
549.68	60191.56
549.84	59693.02
550.01	59398.12
550.18	59547.91
550.34	59407.48
550.51	59587.70
550.68	59838.14
550.84	59079.80
551.01	59304.49
551.18	59334.92
551.34	59334.92
551.51	59697.70
551.68	59983.25
551.84	60018.36
552.01	59973.89
552.18	59796.01
552.34	59054.06
552.51	58569.57
552.68	58438.50
552.84	59194.49
553.01	59395.77
553.18	59367.69
553.34	59217.89
553.51	59470.67
553.67	59800.69
553.84	59796.01
554.01	59594.72
554.17	59707.07
554.34	59444.93
554.51	59742.17
554.67	59994.95
554.84	59786.64
555.00	59461.31
555.17	59334.92
555.33	59346.62
555.50	59241.30
555.67	59119.59
555.83	59208.53
556.00	58894.90
556.16	58906.60
556.33	58429.13
556.50	58305.09
556.66	58284.02
556.83	58131.89
556.99	58174.02
557.16	58213.80
557.32	58651.48
557.49	58927.67
557.65	58787.24
557.82	58637.44
557.98	58649.14
558.15	58026.56
558.32	57373.55
558.48	56568.41
558.65	56889.06
558.81	57214.40
558.98	57598.24
559.14	57865.06
559.31	57808.89
559.47	57722.29
559.64	57556.11
559.80	57214.40
559.97	57326.74
560.13	57659.10
560.30	58487.65
560.46	59079.80
560.63	59117.25
560.79	58967.46
560.96	58855.11
561.12	57766.76
561.29	57146.52
561.45	56788.42
561.61	57506.96
561.78	57719.95
561.94	57780.81
562.11	57736.34
562.27	57792.51
562.44	57818.25
562.60	58099.12
562.77	58300.40
562.93	58103.80
563.10	58071.03
563.26	57631.01
563.42	57556.11
563.59	57298.65
563.75	57411.00
563.92	57551.43
564.08	57499.94
564.24	57715.27
564.41	57745.70
564.57	57474.20
564.74	57544.41
564.90	57221.42
565.07	57411.00
565.23	56762.67
565.39	56465.42
565.56	56231.37
565.72	56151.79
565.88	56437.34
566.05	56467.76
566.21	56769.69
566.38	56811.82
566.54	56884.38
566.70	57008.43
566.87	57296.31
567.03	57478.88
567.19	57659.10
567.36	57198.01
567.52	57024.81
567.68	56865.66
567.85	56470.11
568.01	56013.70
568.17	55735.18
568.34	55891.99
568.50	55477.72
568.66	55749.22
568.83	56119.02
568.99	55936.46
569.15	56442.02
569.32	56310.95
569.48	56266.48
569.64	55880.29
569.81	55786.67
569.97	55564.32
570.13	55533.89
570.30	54822.37
570.46	54656.19
570.62	54167.02
570.78	53937.65
570.95	54293.41
571.11	55000.25
571.27	55173.45
571.43	55554.96
571.60	55835.82
571.76	55805.39
571.92	56053.49
572.09	56203.28
572.25	56219.67
572.41	56327.33
572.57	56250.09
572.74	56200.94
572.90	55590.06
573.06	55613.47
573.22	55749.22
573.38	55789.01
573.55	55810.07
573.71	55657.94
573.87	55805.39
574.03	55576.02
574.20	55482.40
574.36	55313.88
574.52	54953.44
574.68	54831.73
574.84	54632.78
575.01	53989.14
575.17	54183.40
575.33	54426.82
575.49	54597.68
575.65	54890.24
575.82	54707.68
575.98	54424.48
576.14	54557.89
576.30	54969.82
576.46	54908.97
576.62	55072.81
576.79	54707.68
576.95	54508.74
577.11	54490.01
577.27	54443.20
577.43	54574.27
577.59	54574.27
577.75	53897.86
577.92	53158.25
578.08	52926.53
578.24	53404.00
578.40	53532.73
578.56	53605.29
578.72	53783.17
578.88	54007.86
579.04	53624.01
579.21	54211.49
579.37	54183.40
579.53	54162.34
579.69	54567.25
579.85	54609.38
580.01	54363.62
580.17	53474.22
580.33	53778.49
580.49	54017.22
580.65	54295.75
580.82	54295.75
580.98	54508.74
581.14	54092.12
581.30	54171.70
581.46	53951.69
581.62	54454.90
581.78	54188.08
581.94	54497.03
582.10	54438.52
582.26	54160.00
582.42	54277.02
582.58	54298.09
582.74	54422.14
582.90	54347.24
583.06	54424.48
583.22	54082.76
583.38	53771.47
583.54	53879.13
583.70	54028.93
583.86	54038.29
584.02	53991.48
584.18	53939.99
584.34	53736.36
584.50	53792.53
584.66	53485.92
584.82	53467.20
584.98	53549.12
585.14	52968.66
