SpectraSuite Data File
++++++++++++++++++++++++++++++++++++
Date: Mon Oct 07 14:53:56 GMT-05:00 2013
User: price-jones
Dark Spectrum Present: No
Reference Spectrum Present: No
Number of Sampled Component Spectra: 1
Spectrometers: USB2+H05261
Integration Time (usec): 100000 (USB2+H05261)
Spectra Averaged: 1 (USB2+H05261)
Boxcar Smoothing: 0 (USB2+H05261)
Correct for Electrical Dark: No (USB2+H05261)
Strobe/Lamp Enabled: No (USB2+H05261)
Correct for Detector Non-linearity: No (USB2+H05261)
Correct for Stray Light: No (USB2+H05261)
Number of Pixels in Processed Spectrum: 2048
>>>>>Begin Processed Spectral Data<<<<<
365.73	0.00
365.92	0.00
366.12	0.00
366.32	0.00
366.52	0.00
366.72	0.00
366.91	0.00
367.11	0.00
367.31	0.00
367.51	0.00
367.70	0.00
367.90	0.00
368.10	0.00
368.30	0.00
368.49	0.00
368.69	0.00
368.89	0.00
369.09	0.00
369.28	0.00
369.48	0.00
369.68	0.00
369.87	0.00
370.07	0.00
370.27	0.00
370.47	784.08
370.66	3864.22
370.86	4557.02
371.06	5151.52
371.25	5064.92
371.45	4447.02
371.65	4105.30
371.84	3756.56
372.04	3976.57
372.24	4503.19
372.44	4606.17
372.63	4512.55
372.83	4362.76
373.03	3805.71
373.22	3585.70
373.42	3674.64
373.62	4189.56
373.81	4627.24
374.01	4519.57
374.21	4243.39
374.40	3817.41
374.60	4018.70
374.79	4498.51
374.99	5156.20
375.19	5579.84
375.38	5584.52
375.58	5296.63
375.78	5186.63
375.97	5174.92
376.17	5493.24
376.37	5420.68
376.56	5535.37
376.76	5827.93
376.95	6256.25
377.15	6731.38
377.35	7042.67
377.54	7239.28
377.74	7595.04
377.93	7463.97
378.13	7199.49
378.33	6988.84
378.52	6345.19
378.72	6122.84
378.91	6202.42
379.11	5769.42
379.31	5750.70
379.50	5518.98
379.70	6085.39
379.89	6558.18
380.09	7026.29
380.28	7379.71
380.48	7311.83
380.68	6970.12
380.87	6888.20
381.07	6408.39
381.26	5860.70
381.46	5605.58
381.65	5523.66
381.85	5004.07
382.04	4877.68
382.24	4873.00
382.43	4535.96
382.63	4327.65
382.83	4498.51
383.02	4407.23
383.22	4514.89
383.41	4437.66
383.61	4702.14
383.80	5427.70
384.00	6057.31
384.19	6930.33
384.39	7101.19
384.58	7199.49
384.78	7148.00
384.97	7080.12
385.17	6651.80
385.36	6223.48
385.56	6010.50
385.75	6108.80
385.95	6757.13
386.14	7386.73
386.34	7391.41
386.53	6913.94
386.72	6600.31
386.92	6635.42
387.11	7082.46
387.31	7330.56
387.50	7293.11
387.70	6960.75
387.89	7009.90
388.09	7016.93
388.28	6867.13
388.48	7087.14
388.67	7571.63
388.86	8320.60
389.06	8807.44
389.25	9455.76
389.45	9462.79
389.64	9605.56
389.84	9273.20
390.03	9149.15
390.22	9210.01
390.42	9542.36
390.61	10073.67
390.81	10677.52
391.00	11098.82
391.19	10806.25
391.39	10602.63
391.58	9816.21
391.78	9320.01
391.97	8952.55
392.16	8449.33
392.36	7557.59
392.55	6195.40
392.75	5093.01
392.94	4042.11
393.13	3929.76
393.33	4746.61
393.52	6129.86
393.71	7325.88
393.91	8065.49
394.10	8849.57
394.29	9874.72
394.49	10523.05
394.68	11297.77
394.88	11438.20
395.07	11836.09
395.26	11545.86
395.46	11293.08
395.65	10623.69
395.84	9376.19
396.04	7969.52
396.23	6494.99
396.42	5394.93
396.62	5207.69
396.81	5879.43
397.00	7770.58
397.19	9816.21
397.39	11606.72
397.58	13034.44
397.77	13631.28
397.97	14293.65
398.16	14398.98
398.35	14970.07
398.55	15538.82
398.74	15948.41
398.93	16086.50
399.12	16053.73
399.32	15281.36
399.51	15653.50
399.70	16688.02
399.90	16622.48
400.09	16847.18
400.28	16355.66
400.47	16477.37
400.67	17539.97
400.86	17572.74
401.05	17872.33
401.24	17818.50
401.44	18382.57
401.63	18333.42
401.82	18335.76
402.01	18209.37
402.21	18677.48
402.40	18661.09
402.59	17877.01
402.78	17289.54
402.97	16765.26
403.17	17142.08
403.36	18237.45
403.55	19014.51
403.74	19648.80
403.93	18485.55
404.13	17212.30
404.32	16896.33
404.51	17355.07
404.70	18960.68
404.89	18843.65
405.09	18719.60
405.28	18019.78
405.47	18122.77
405.66	17898.08
405.85	17647.64
406.05	17032.08
406.24	16936.12
406.43	18202.35
406.62	18558.11
406.81	19075.37
407.00	17933.18
407.20	17671.04
407.39	18162.56
407.58	18841.31
407.77	19225.16
407.96	20034.99
408.15	20065.41
408.34	20367.34
408.54	21172.49
408.73	20664.59
408.92	20830.77
409.11	20514.80
409.30	19330.48
409.49	18155.54
409.68	17200.60
409.87	16343.96
410.07	17514.23
410.26	18635.35
410.45	20339.26
410.64	20568.63
410.83	21209.93
411.02	21614.85
411.21	22562.76
411.40	22249.13
411.59	22635.32
411.78	22104.02
411.98	21572.72
412.17	22342.75
412.36	21797.41
412.55	21757.62
412.74	21479.10
412.93	20992.26
413.12	21048.44
413.31	23110.45
413.50	23597.28
413.69	23697.92
413.88	22885.76
414.07	22129.77
414.26	22356.80
414.45	23508.34
414.64	23367.91
414.83	23676.86
415.02	23019.17
415.22	23150.24
415.41	23697.92
415.60	24238.59
415.79	25205.23
415.98	26092.29
416.17	25607.80
416.36	25130.33
416.55	24943.09
416.74	23620.69
416.93	23023.85
417.12	23133.86
417.31	23365.57
417.50	24126.24
417.69	24978.20
417.88	24430.51
418.07	24577.97
418.26	23772.82
418.45	23974.11
418.64	24800.32
418.83	26068.89
419.02	25816.11
419.21	25383.11
419.39	24114.54
419.58	22740.64
419.77	23325.78
419.96	23828.99
420.15	25582.06
420.34	26321.66
420.53	26820.20
420.72	27627.68
420.91	27405.33
421.10	26834.24
421.29	26782.75
421.48	25635.89
421.67	27339.80
421.86	26536.99
422.05	24615.41
422.24	21933.16
422.43	22040.82
422.61	24018.58
422.80	26239.75
422.99	26345.07
423.18	25076.50
423.37	24683.29
423.56	24589.67
423.75	24889.26
423.94	25560.99
424.13	24357.96
424.32	24477.32
424.50	25022.67
424.69	23857.08
424.88	24299.44
425.07	24531.15
425.26	24154.33
425.45	24306.46
425.64	23508.34
425.83	23578.56
426.01	25139.69
426.20	25729.51
426.39	25640.57
426.58	23683.88
426.77	21942.52
426.96	21095.25
427.15	21673.36
427.33	23527.06
427.52	24489.03
427.71	24390.72
427.90	24449.24
428.09	24322.85
428.28	23714.31
428.46	22628.30
428.65	22317.01
428.84	22618.94
429.03	23482.59
429.22	21984.65
429.40	21139.72
429.59	18920.89
429.78	17018.04
429.97	16774.62
430.16	17034.42
430.34	17170.17
430.53	17528.27
430.72	17511.89
430.91	19192.39
431.10	22672.77
431.28	26326.35
431.47	28774.55
431.66	29340.96
431.85	26686.79
432.03	24566.26
432.22	23538.77
432.41	24236.25
432.60	27143.19
432.79	27665.13
432.97	28474.96
433.16	28339.21
433.35	25666.31
433.54	22944.27
433.72	21671.02
433.91	22340.41
434.10	24716.06
434.28	26761.69
434.47	28198.77
434.66	28077.07
434.85	26944.25
435.03	26436.35
435.22	27587.89
435.41	29034.35
435.59	29071.79
435.78	29729.48
435.97	30054.82
436.16	30457.39
436.34	30298.23
436.53	29582.03
436.72	29263.72
436.90	28025.57
437.09	27782.16
437.28	27206.39
437.46	28116.86
437.65	28425.81
437.84	26375.50
438.02	24168.37
438.21	23999.85
438.40	25563.33
438.58	27489.59
438.77	28039.62
438.96	28245.58
439.14	29507.13
439.33	30216.32
439.52	30976.99
439.70	29748.21
439.89	29645.23
440.08	28851.78
440.26	28507.72
440.45	29582.03
440.63	31220.41
440.82	33188.80
441.01	32760.48
441.19	32271.31
441.38	32868.14
441.57	33830.10
441.75	34366.09
441.94	34515.88
442.12	33954.15
442.31	34822.49
442.50	35108.04
442.68	34469.07
442.87	33752.87
443.05	33572.64
443.24	33996.28
443.43	34944.20
443.61	35318.68
443.80	36147.23
443.98	34059.48
444.17	34108.63
444.35	35538.69
444.54	36706.62
444.73	36060.63
444.91	34220.97
445.10	32999.21
445.28	31489.57
445.47	31157.21
445.65	31707.24
445.84	32444.51
446.02	32957.08
446.21	34047.77
446.39	34134.37
446.58	34309.91
446.77	35185.27
446.95	35571.46
447.14	36077.02
447.32	36825.99
447.51	36184.68
447.69	34515.88
447.88	34155.44
448.06	34408.22
448.25	35129.10
448.43	35639.34
448.62	35026.12
448.80	35082.29
448.99	35379.54
449.17	35424.01
449.36	35625.29
449.54	36912.59
449.73	37202.82
449.91	37546.87
450.10	38609.48
450.28	39161.84
450.46	38679.69
450.65	38841.19
450.83	38609.48
451.02	37511.77
451.20	38003.28
451.39	37366.65
451.57	37359.63
451.76	37170.05
451.94	37301.12
452.13	36554.49
452.31	34679.72
452.49	33553.92
452.68	33923.72
452.86	33942.45
453.05	34113.31
453.23	35068.25
453.42	36261.92
453.60	36556.83
453.78	37453.25
453.97	36959.40
454.15	36781.52
454.34	36109.78
454.52	36102.76
454.70	35035.48
454.89	35831.26
455.07	35985.74
455.26	36383.63
455.44	38139.03
455.62	38824.81
455.81	38838.85
455.99	38010.30
456.17	37675.60
456.36	38225.63
456.54	39159.50
456.73	39311.64
456.91	39772.72
457.09	39920.18
457.28	40708.94
457.46	39402.92
457.64	38548.62
457.83	37830.08
458.01	37020.25
458.19	37750.50
458.38	38029.02
458.56	38974.60
458.74	39550.37
458.93	38143.71
459.11	38059.45
459.29	37858.17
459.48	38485.43
459.66	38022.00
459.84	38356.70
460.03	39068.22
460.21	38609.48
460.39	39955.29
460.57	39779.74
460.76	40451.48
460.94	40374.24
461.12	39487.18
461.31	39690.80
461.49	39704.85
461.67	39742.30
461.85	41043.63
462.04	40435.10
462.22	41062.36
462.40	40795.54
462.59	40708.94
462.77	40746.39
462.95	40514.67
463.13	40189.34
463.32	39749.32
463.50	39744.64
463.68	39765.70
463.86	39452.07
464.05	39056.52
464.23	38216.27
464.41	37872.21
464.59	37663.90
464.78	39386.54
464.96	39021.41
465.14	38752.25
465.32	39590.16
465.50	40715.96
465.69	41429.82
465.87	40081.67
466.05	39374.83
466.23	37738.80
466.41	36795.56
466.60	37790.29
466.78	37823.06
466.96	38508.83
467.14	39035.45
467.32	39445.05
467.51	39915.50
467.69	37825.40
467.87	38864.60
468.05	39431.01
468.23	38986.30
468.41	39402.92
468.60	39278.87
468.78	39899.11
468.96	39243.76
469.14	40327.43
469.32	39859.32
469.50	38646.93
469.69	39201.63
469.87	38202.22
470.05	37722.41
470.23	38258.40
470.41	38230.31
470.59	38494.79
470.77	38862.26
470.95	39543.35
471.14	39814.85
471.32	39475.48
471.50	41783.24
471.68	42344.97
471.86	42653.92
472.04	42721.80
472.22	42775.63
472.40	41249.60
472.58	40605.95
472.77	39484.84
472.95	40898.52
473.13	42080.49
473.31	41102.15
473.49	41345.56
473.67	41804.31
473.85	41986.87
474.03	42979.26
474.21	42946.49
474.39	43328.00
474.57	43728.23
474.75	43650.99
474.93	43524.60
475.12	42354.33
475.30	42279.44
475.48	42656.26
475.66	43416.94
475.84	42447.96
476.02	42698.39
476.20	41759.84
476.38	42569.66
476.56	43536.30
476.74	44638.70
476.92	44261.87
477.10	45081.06
477.28	46316.86
477.46	45890.88
477.64	46550.91
477.82	46958.17
478.00	46780.29
478.18	46375.37
478.36	45982.16
478.54	45750.45
478.72	46234.94
478.90	47358.40
479.08	48336.74
479.26	48554.41
479.44	48753.36
479.62	48568.46
479.80	48027.79
479.98	48924.22
480.16	49083.37
480.34	48877.41
480.52	49165.29
480.70	49008.48
480.88	49123.16
481.06	49808.94
481.24	49921.29
481.41	51007.29
481.59	51498.81
481.77	51213.26
481.95	50494.72
482.13	50497.06
482.31	50319.18
482.49	51264.75
482.67	51136.02
482.85	51224.96
483.03	51615.83
483.21	51711.80
483.39	51955.21
483.57	51384.12
483.74	51192.20
483.92	51489.45
484.10	51667.33
484.28	52264.16
484.46	52790.78
484.64	52849.30
484.82	52261.82
485.00	51950.53
485.18	51021.34
485.35	49961.08
485.53	46976.89
485.71	43154.80
485.89	42810.74
486.07	44959.35
486.25	47966.94
486.43	50389.39
486.61	50820.05
486.78	50749.84
486.96	50841.12
487.14	52552.05
487.32	53066.97
487.50	53970.41
487.68	54543.84
487.85	54990.89
488.03	55079.83
488.21	54674.91
488.39	54049.99
488.57	53591.25
488.75	53179.31
488.92	53986.80
489.10	56062.85
489.28	57069.28
489.46	57593.56
489.64	57565.48
489.81	57675.48
489.99	57450.79
490.17	57120.77
490.35	57513.98
490.53	57296.31
490.70	56797.78
490.88	56683.09
491.06	57673.14
491.24	57705.91
491.41	56680.75
491.59	55325.58
491.77	54815.35
491.95	55737.52
492.13	56563.73
492.30	57649.74
492.48	58328.49
492.66	58843.41
492.84	58850.43
493.01	58368.28
493.19	58162.31
493.37	57942.30
493.54	57741.02
493.72	58288.70
493.90	59079.80
494.08	59634.51
494.25	59786.64
494.43	59971.55
494.61	60310.92
494.79	60446.68
494.96	60339.01
495.14	59489.40
495.32	59061.08
495.49	58351.90
495.67	59409.82
495.85	60495.83
496.02	60889.04
496.20	60814.14
496.38	60357.74
496.55	60322.63
496.73	60725.20
496.91	60638.60
497.09	61467.15
497.26	61443.74
497.44	60884.36
497.62	60514.55
497.79	59854.52
497.97	58660.85
498.14	58829.37
498.32	59693.02
498.50	60720.52
498.67	61174.58
498.85	60973.30
499.03	61020.11
499.20	61268.20
499.38	61443.74
499.56	61183.94
499.73	60844.57
499.91	60507.53
500.08	60069.85
500.26	59248.32
500.44	59697.70
500.61	60341.35
500.79	60303.90
500.97	59882.61
501.14	59805.37
501.32	59484.72
501.49	59517.48
501.67	59749.20
501.84	60257.09
502.02	60563.70
502.20	60830.52
502.37	60893.72
502.55	60863.29
502.72	61509.28
502.90	61918.87
503.07	61687.16
503.25	61118.41
503.43	60285.18
503.60	59756.22
503.78	59194.49
503.95	59540.89
504.13	60772.01
504.30	61771.42
504.48	61520.98
504.65	61226.07
504.83	61052.87
505.01	61729.29
505.18	61874.40
505.36	62604.65
505.53	62726.36
505.71	62763.81
505.88	62829.34
506.06	62356.55
506.23	61890.79
506.41	61544.39
506.58	61801.85
506.76	61942.28
506.93	61975.05
507.11	61467.15
507.28	61776.10
507.46	61336.08
507.63	60704.13
507.81	60654.98
507.98	60617.53
508.16	61282.25
508.33	61860.36
508.50	62298.04
508.68	62358.89
508.85	62962.75
509.03	63028.29
509.20	62717.00
509.38	62150.59
509.55	61544.39
509.73	61429.70
509.90	61879.08
510.08	62220.80
510.25	62166.97
510.42	61979.73
510.60	61881.42
510.77	62166.97
510.95	62499.33
511.12	62775.51
511.30	63051.69
511.47	63353.62
511.64	63161.70
511.82	63002.54
511.99	62284.00
512.17	61848.66
512.34	61366.51
512.51	61680.14
512.69	61736.31
512.86	61729.29
513.04	62262.93
513.21	62227.82
513.38	61846.32
513.56	61574.81
513.73	60947.55
513.90	61176.92
514.08	61183.94
514.25	61373.53
514.43	61556.09
514.60	61766.74
514.77	61904.83
514.95	62017.17
515.12	61867.38
515.29	62047.60
515.47	62529.75
515.64	62759.12
515.81	62417.41
515.99	61572.47
516.16	60243.05
516.33	58527.44
516.51	57202.69
516.68	56765.01
516.85	56259.46
517.03	56341.38
517.20	58960.44
517.37	60968.61
517.54	62045.26
517.72	61364.17
517.89	59465.99
518.06	57322.06
518.24	57581.86
518.41	59533.87
518.58	60453.70
518.75	60809.46
518.93	60959.25
519.10	60837.54
519.27	61153.52
519.45	61272.88
519.62	62026.54
519.79	62365.91
519.96	62316.76
520.14	61820.57
520.31	60907.76
520.48	60985.00
520.65	61392.25
520.83	62190.37
521.00	62602.31
521.17	62157.61
521.34	62138.88
521.52	62141.22
521.69	62693.59
521.86	63082.12
522.03	62766.15
522.20	61593.54
522.38	60722.86
522.55	60830.52
522.72	61190.97
522.89	61350.12
523.07	61483.53
523.24	61855.68
523.41	62604.65
523.58	62829.34
523.75	63217.87
523.92	63032.97
524.10	63047.01
524.27	63107.86
524.44	62995.52
524.61	62588.27
524.78	62714.65
524.96	62513.37
525.13	62670.18
525.30	62611.67
525.47	63206.17
525.64	63084.46
525.81	62398.68
525.98	61134.79
526.16	59807.71
526.33	59185.13
526.50	58759.15
526.67	58548.50
526.84	59112.57
527.01	59880.27
527.18	60561.36
527.36	61523.32
527.53	62260.59
527.70	62534.43
527.87	62075.69
528.04	61640.35
528.21	62068.67
528.38	62679.55
528.55	63370.00
528.72	63419.16
528.89	63582.99
529.07	63210.85
529.24	62812.96
529.41	62120.16
529.58	61743.33
529.75	61792.48
529.92	62171.65
530.09	62440.81
530.26	62941.69
530.43	63023.61
530.60	63154.68
530.77	63426.18
530.94	63632.14
531.11	63138.29
531.28	62667.84
531.46	62412.73
531.63	62773.17
531.80	62677.21
531.97	62206.76
532.14	61553.75
532.31	60793.07
532.48	60093.25
532.65	60013.68
532.82	60959.25
532.99	61890.79
533.16	62239.53
533.33	62688.91
533.50	62567.20
533.67	61953.98
533.84	61481.19
534.01	61670.78
534.18	61916.53
534.35	62169.31
534.52	62047.60
534.69	62213.78
534.86	62536.77
535.03	62609.33
535.20	63157.02
535.37	63360.64
535.54	63360.64
535.71	63185.10
535.88	62747.42
536.05	62225.48
536.22	61822.91
536.38	61483.53
536.55	61240.12
536.72	60692.43
536.89	60395.18
537.06	61422.68
537.23	62202.08
537.40	62347.19
537.57	62391.66
537.74	62096.75
537.91	61984.41
538.08	62138.88
538.25	62131.86
538.42	62284.00
538.59	62026.54
538.75	61471.83
538.92	61504.60
539.09	61008.40
539.26	60903.08
539.43	60898.40
539.60	60626.90
539.77	61132.45
539.94	61104.37
540.11	60472.42
540.28	59870.90
540.44	59913.03
540.61	60214.96
540.78	60294.54
540.95	60664.35
541.12	61020.11
541.29	61195.65
541.46	61518.64
541.62	61813.55
541.79	61666.09
541.96	60996.70
542.13	60931.17
542.30	61338.42
542.47	61359.48
542.63	61134.79
542.80	60767.33
542.97	60830.52
543.14	60851.59
543.31	61034.15
543.48	61434.38
543.64	61989.09
543.81	62302.72
543.98	62284.00
544.15	61619.28
544.32	61099.68
544.48	61226.07
544.65	61670.78
544.82	61890.79
544.99	61497.58
545.16	61197.99
545.32	60889.04
545.49	61684.82
545.66	61972.70
545.83	61801.85
546.00	61338.42
546.16	60947.55
546.33	61080.96
546.50	61200.33
546.67	61343.10
546.83	61120.75
547.00	61045.85
547.17	60392.84
547.34	59994.95
547.50	60156.45
547.67	60502.85
547.84	60346.03
548.00	60924.14
548.17	61298.63
548.34	61125.43
548.51	61059.90
548.67	61151.18
548.84	61214.37
549.01	61137.13
549.18	61001.38
549.34	60879.67
549.51	60917.12
549.68	60959.25
549.84	60739.24
550.01	60690.09
550.18	60678.39
550.34	60800.10
550.51	60708.82
550.68	60842.23
550.84	60219.64
551.01	60470.08
551.18	60254.75
551.34	60549.66
551.51	60896.06
551.68	60846.91
551.84	61207.35
552.01	60865.63
552.18	60718.18
552.34	60027.72
552.51	59763.24
552.68	59840.48
552.84	60186.88
553.01	60413.91
553.18	60434.97
553.34	60285.18
553.51	60582.43
553.67	60727.54
553.84	60783.71
554.01	60666.69
554.17	60516.89
554.34	60547.32
554.51	60729.88
554.67	60945.21
554.84	60725.20
555.00	60458.38
555.17	60275.82
555.33	60374.12
555.50	60229.01
555.67	60294.54
555.83	60189.22
556.00	59927.08
556.16	59819.41
556.33	59435.56
556.50	59391.09
556.66	59503.44
556.83	58911.28
556.99	59344.28
557.16	59278.75
557.32	59529.19
557.49	59999.63
557.65	59779.62
557.82	59739.83
557.98	59461.31
558.15	59145.34
558.32	58712.34
558.48	57815.91
558.65	57771.44
558.81	57986.77
558.98	58527.44
559.14	58522.76
559.31	58789.58
559.47	58752.13
559.64	58447.86
559.80	58073.37
559.97	58220.83
560.13	58644.46
560.30	59686.00
560.46	59929.42
560.63	60128.36
560.79	60102.62
560.96	59779.62
561.12	58780.21
561.29	57893.15
561.45	57923.58
561.61	58525.10
561.78	58848.09
561.94	58901.92
562.11	58777.87
562.27	58403.39
562.44	58698.30
562.60	59054.06
562.77	59180.45
562.93	59082.14
563.10	59119.59
563.26	58422.11
563.42	58698.30
563.59	58354.24
563.75	58513.39
563.92	58328.49
564.08	58295.72
564.24	58616.38
564.41	58656.17
564.57	58532.12
564.74	58482.97
564.90	58281.68
565.07	58206.78
565.23	57572.50
565.39	57523.35
565.56	57102.05
565.72	56947.57
565.88	57329.08
566.05	57385.25
566.21	57577.18
566.38	57565.48
566.54	57785.49
566.70	58089.76
566.87	58365.94
567.03	58260.62
567.19	58651.48
567.36	58307.43
567.52	58035.92
567.68	57865.06
567.85	57289.29
568.01	57099.71
568.17	56753.31
568.34	56741.61
568.50	56559.05
568.66	56746.29
568.83	56992.04
568.99	57373.55
569.15	57469.51
569.32	57338.44
569.48	57069.28
569.64	56882.04
569.81	56547.34
569.97	56552.02
570.13	56502.87
570.30	55987.95
570.46	55784.33
570.62	55416.86
570.78	55002.59
570.95	55592.40
571.11	55880.29
571.27	55990.30
571.43	56193.92
571.60	56554.36
571.76	57155.88
571.92	57202.69
572.09	57167.58
572.25	57078.64
572.41	56970.98
572.57	57069.28
572.74	57045.88
572.90	56608.20
573.06	56741.61
573.22	56662.03
573.38	56563.73
573.55	56472.45
573.71	56659.69
573.87	56821.19
574.03	56374.14
574.20	56364.78
574.36	56261.80
574.52	56130.73
574.68	55765.60
574.84	55749.22
575.01	54918.33
575.17	54894.92
575.33	55084.51
575.49	55657.94
575.65	55831.14
575.82	55194.51
575.98	55393.46
576.14	55421.55
576.30	55688.37
576.46	55730.50
576.62	55866.25
576.79	55571.34
576.95	55304.52
577.11	55246.00
577.27	55594.74
577.43	55423.89
577.59	55320.90
577.75	54934.71
577.92	54309.79
578.08	54162.34
578.24	54052.33
578.40	54160.00
578.56	54630.44
578.72	54677.25
578.88	54644.49
579.04	54808.32
579.21	55065.78
579.37	54852.80
579.53	55290.48
579.69	55344.31
579.85	55253.03
580.01	55035.36
580.17	54747.47
580.33	54735.77
580.49	54838.75
580.65	55070.46
580.82	55229.62
580.98	54913.65
581.14	55070.46
581.30	55166.43
581.46	54745.13
581.62	55229.62
581.78	55107.91
581.94	55309.20
582.10	55154.72
582.26	55068.12
582.42	55082.17
582.58	55133.66
582.74	55040.04
582.90	55241.32
583.06	54951.10
583.22	54824.71
583.38	55154.72
583.54	54848.11
583.70	54890.24
583.86	54618.74
584.02	54731.09
584.18	55035.36
584.34	54604.70
584.50	54588.31
584.66	54431.50
584.82	54185.74
584.98	54202.13
585.14	53743.38
