SpectraSuite Data File
++++++++++++++++++++++++++++++++++++
Date: Mon Oct 07 14:53:22 GMT-05:00 2013
User: price-jones
Dark Spectrum Present: No
Reference Spectrum Present: No
Number of Sampled Component Spectra: 1
Spectrometers: USB2+H05261
Integration Time (usec): 100000 (USB2+H05261)
Spectra Averaged: 1 (USB2+H05261)
Boxcar Smoothing: 0 (USB2+H05261)
Correct for Electrical Dark: No (USB2+H05261)
Strobe/Lamp Enabled: No (USB2+H05261)
Correct for Detector Non-linearity: No (USB2+H05261)
Correct for Stray Light: No (USB2+H05261)
Number of Pixels in Processed Spectrum: 2048
>>>>>Begin Processed Spectral Data<<<<<
365.73	0.00
365.92	0.00
366.12	0.00
366.32	0.00
366.52	0.00
366.72	0.00
366.91	0.00
367.11	0.00
367.31	0.00
367.51	0.00
367.70	0.00
367.90	0.00
368.10	0.00
368.30	0.00
368.49	0.00
368.69	0.00
368.89	0.00
369.09	0.00
369.28	0.00
369.48	0.00
369.68	0.00
369.87	0.00
370.07	0.00
370.27	0.00
370.47	554.71
370.66	2935.03
370.86	3365.69
371.06	3887.63
371.25	3957.85
371.45	3698.05
371.65	3108.23
371.84	3009.93
372.04	3080.14
372.24	3653.58
372.44	3817.41
372.63	3566.98
372.83	3302.50
373.03	3096.53
373.22	2752.47
373.42	2918.65
373.62	3295.47
373.81	3550.59
374.01	3578.68
374.21	3321.22
374.40	2920.99
374.60	3141.00
374.79	3585.70
374.99	4093.60
375.19	4404.89
375.38	4421.27
375.58	4154.45
375.78	4154.45
375.97	4257.43
376.17	4388.50
376.37	4465.74
376.56	4498.51
376.76	4660.01
376.95	5013.43
377.15	5254.50
377.35	5446.43
377.54	5776.44
377.74	6017.52
377.93	5954.32
378.13	5818.57
378.33	5348.12
378.52	5128.11
378.72	4858.95
378.91	4863.63
379.11	4678.73
379.31	4482.13
379.50	4463.40
379.70	4901.08
379.89	5371.53
380.09	5657.07
380.28	5781.12
380.48	5923.90
380.68	5640.69
380.87	5570.48
381.07	5266.21
381.26	4727.88
381.46	4421.27
381.65	4348.72
381.85	4250.41
382.04	3981.25
382.24	3772.94
382.43	3566.98
382.63	3534.21
382.83	3571.66
383.02	3508.46
383.22	3513.14
383.41	3435.91
383.61	3786.99
383.80	4205.94
384.00	4753.63
384.19	5504.94
384.39	5724.95
384.58	5760.06
384.78	5668.78
384.97	5551.75
385.17	5238.12
385.36	5034.49
385.56	4945.55
385.75	5064.92
385.95	5493.24
386.14	6010.50
386.34	5799.85
386.53	5579.84
386.72	5109.39
386.92	5528.35
387.11	5657.07
387.31	5846.66
387.50	5699.20
387.70	5636.01
387.89	5556.43
388.09	5614.95
388.28	5624.31
388.48	5734.31
388.67	6094.76
388.86	6932.67
389.06	7330.56
389.25	7655.89
389.45	7592.70
389.64	7576.31
389.84	7513.12
390.03	7349.28
390.22	7578.65
390.42	7606.74
390.61	8229.32
390.81	9062.55
391.00	8758.28
391.19	8737.22
391.39	8645.94
391.58	7887.61
391.78	7529.50
391.97	7290.77
392.16	6937.35
392.36	6260.93
392.55	4980.66
392.75	4088.92
392.94	3328.24
393.13	3269.73
393.33	3836.14
393.52	5006.41
393.71	6122.84
393.91	6785.21
394.10	7143.32
394.29	8079.53
394.49	8542.96
394.68	9444.06
394.88	9507.26
395.07	9715.56
395.26	9628.96
395.46	9310.65
395.65	8894.04
395.84	7777.60
396.04	6532.44
396.23	5214.71
396.42	4315.95
396.62	4257.43
396.81	4905.76
397.00	6230.51
397.19	7889.95
397.39	9437.04
397.58	10628.37
397.77	11239.25
397.97	11648.85
398.16	12028.01
398.35	12142.70
398.55	12526.55
398.74	13025.08
398.93	13624.26
399.12	13474.46
399.32	12723.15
399.51	12844.86
399.70	14176.62
399.90	13872.36
400.09	13830.23
400.28	13348.08
400.47	13944.91
400.67	14422.38
400.86	14803.89
401.05	14785.16
401.24	14752.40
401.44	15026.24
401.63	15077.73
401.82	15091.77
402.01	15143.27
402.21	15206.46
402.40	15541.16
402.59	14911.55
402.78	14459.83
402.97	13708.52
403.17	14380.25
403.36	15220.50
403.55	15721.38
403.74	16114.59
403.93	15370.30
404.13	14384.93
404.32	13673.41
404.51	14464.51
404.70	15587.97
404.89	15702.65
405.09	15440.51
405.28	15138.58
405.47	14927.94
405.66	15042.62
405.85	14523.02
406.05	14125.13
406.24	14434.08
406.43	15096.46
406.62	15604.35
406.81	15723.72
407.00	14963.04
407.20	14675.16
407.39	14736.01
407.58	15314.13
407.77	16182.46
407.96	16634.19
408.15	16442.26
408.34	16594.40
408.54	17748.28
408.73	17575.08
408.92	17387.84
409.11	16938.46
409.30	16147.36
409.49	15339.87
409.68	14073.64
409.87	13696.82
410.07	14551.11
410.26	15815.00
410.45	16858.88
410.64	17214.64
410.83	17474.44
411.02	18148.51
411.21	19194.73
411.40	18761.73
411.59	18829.61
411.78	18506.62
411.98	18300.65
412.17	18771.10
412.36	18230.43
412.55	18005.74
412.74	18045.53
412.93	17673.39
413.12	17666.36
413.31	19557.52
413.50	19473.26
413.69	19833.70
413.88	18984.09
414.07	18422.36
414.26	18869.40
414.45	19845.40
414.64	19529.43
414.83	19744.76
415.02	19536.45
415.22	19204.10
415.41	19711.99
415.60	20528.84
415.79	21364.41
415.98	21593.78
416.17	21848.90
416.36	21090.57
416.55	20758.21
416.74	20367.34
416.93	19344.53
417.12	19515.39
417.31	19859.45
417.50	20201.16
417.69	20650.55
417.88	20320.53
418.07	20318.19
418.26	19740.08
418.45	20404.79
418.64	21092.91
418.83	21933.16
419.02	21577.40
419.21	21535.27
419.39	20395.43
419.58	19243.88
419.77	19325.80
419.96	20154.35
420.15	21032.05
420.34	21790.39
420.53	22778.09
420.72	23068.32
420.91	23164.28
421.10	22848.31
421.29	22508.93
421.48	21848.90
421.67	22860.01
421.86	22031.46
422.05	20638.84
422.24	18576.83
422.43	18511.30
422.61	20170.74
422.80	21898.05
422.99	22001.04
423.18	21355.05
423.37	20870.56
423.56	20816.72
423.75	21497.82
423.94	21593.78
424.13	20563.95
424.32	20709.06
424.50	20624.80
424.69	20439.90
424.88	20868.22
425.07	20592.03
425.26	20800.34
425.45	20542.88
425.64	19950.73
425.83	19868.81
426.01	21221.64
426.20	21626.55
426.39	21514.20
426.58	19843.06
426.77	18457.46
426.96	17813.82
427.15	18265.54
427.33	20105.20
427.52	20428.20
427.71	20837.79
427.90	20594.37
428.09	20177.76
428.28	19892.21
428.46	19449.85
428.65	19398.36
428.84	19447.51
429.03	19850.08
429.22	18743.01
429.40	18026.81
429.59	15936.71
429.78	14155.56
429.97	14373.23
430.16	14642.39
430.34	14532.39
430.53	14761.76
430.72	14939.64
430.91	16358.00
431.10	19197.07
431.28	22850.65
431.47	24622.44
431.66	25076.50
431.85	22600.21
432.03	21001.63
432.22	20042.01
432.41	20950.14
432.60	23019.17
432.79	23992.83
432.97	24568.60
433.16	23910.91
433.35	22157.85
433.54	19971.79
433.72	18405.97
433.91	19262.61
434.10	21376.11
434.28	22637.66
434.47	24044.32
434.66	23742.39
434.85	23103.43
435.03	22888.10
435.22	23264.92
435.41	25120.97
435.59	24650.52
435.78	25591.42
435.97	25991.65
436.16	25963.56
436.34	25921.43
436.53	24795.64
436.72	25385.45
436.90	23981.13
437.09	23803.25
437.28	23019.17
437.46	24596.69
437.65	24056.03
437.84	22328.71
438.02	20643.52
438.21	20624.80
438.40	21720.17
438.58	23812.61
438.77	24100.50
438.96	24474.98
439.14	25436.94
439.33	26211.66
439.52	26384.86
439.70	25813.77
439.89	24966.49
440.08	24641.16
440.26	24781.59
440.45	25516.52
440.63	27154.90
440.82	28418.78
441.01	28268.99
441.19	27594.92
441.38	28205.80
441.57	29357.34
441.75	29729.48
441.94	29869.92
442.12	29549.26
442.31	29874.60
442.50	29954.18
442.68	29682.67
442.87	29268.40
443.05	28914.98
443.24	29076.48
443.43	29727.14
443.61	30878.69
443.80	30546.33
443.98	28900.94
444.17	29139.67
444.35	30712.51
444.54	31271.90
444.73	31005.08
444.91	29736.51
445.10	28807.31
445.28	27417.04
445.47	27213.41
445.65	27075.32
445.84	27995.15
446.02	28945.41
446.21	29069.45
446.39	29411.17
446.58	29759.91
446.77	30342.70
446.95	30733.57
447.14	31578.51
447.32	31580.85
447.51	31257.85
447.69	29832.47
447.88	29626.50
448.06	29699.06
448.25	30560.37
448.43	30911.46
448.62	30366.11
448.80	30059.50
448.99	30433.99
449.17	30560.37
449.36	30408.24
449.54	31477.86
449.73	31990.44
449.91	32559.19
450.10	33333.91
450.28	33916.70
450.46	33593.71
450.65	33979.90
450.83	33338.59
451.02	32811.97
451.20	32636.43
451.39	32624.73
451.57	32439.82
451.76	32332.16
451.94	32378.97
452.13	31564.46
452.31	29989.28
452.49	28833.06
452.68	28868.17
452.86	28809.65
453.05	29172.44
453.23	30492.50
453.42	31147.85
453.60	31707.24
453.78	32252.58
453.97	31758.73
454.15	31791.50
454.34	31281.26
454.52	31201.68
454.70	30813.15
454.89	30841.24
455.07	31096.36
455.26	31714.26
455.44	32891.55
455.62	33324.55
455.81	33593.71
455.99	33434.55
456.17	32739.41
456.36	33392.42
456.54	34153.10
456.73	33813.72
456.91	34490.13
457.09	34223.31
457.28	35145.48
457.46	34480.77
457.64	33991.60
457.83	32474.93
458.01	31997.46
458.19	32912.61
458.38	32921.98
458.56	34192.89
458.74	34223.31
458.93	33251.99
459.11	33301.14
459.29	33006.23
459.48	33057.73
459.66	32893.89
459.84	33640.52
460.03	34089.90
460.21	34092.24
460.39	34546.31
460.57	34923.13
460.76	34930.16
460.94	35152.51
461.12	34742.91
461.31	34932.50
461.49	34602.48
461.67	34607.16
461.85	35817.22
462.04	35421.67
462.22	36294.69
462.40	35835.94
462.59	35669.76
462.77	35817.22
462.95	35999.78
463.13	35283.58
463.32	34684.40
463.50	34375.45
463.68	34370.77
463.86	35040.16
464.05	34487.79
464.23	33722.44
464.41	33483.70
464.59	32767.50
464.78	34813.13
464.96	34487.79
465.14	33926.07
465.32	35105.70
465.50	35821.90
465.69	35800.83
465.87	35288.26
466.05	34494.82
466.23	33064.75
466.41	32308.76
466.60	33579.67
466.78	33242.63
466.96	33727.12
467.14	34314.59
467.32	34794.40
467.51	34808.45
467.69	33392.42
467.87	33886.28
468.05	34373.11
468.23	34487.79
468.41	34251.40
468.60	34590.78
468.78	34962.92
468.96	34415.24
469.14	35276.55
469.32	35260.17
469.50	33900.32
469.69	33572.64
469.87	33469.66
470.05	33469.66
470.23	33345.61
470.41	33474.34
470.59	34167.14
470.77	34078.20
470.95	34653.97
471.14	35306.98
471.32	35321.02
471.50	37027.28
471.68	37460.27
471.86	37738.80
472.04	37633.47
472.22	38012.64
472.40	36044.25
472.58	35894.46
472.77	35314.00
472.95	36343.84
473.13	36950.04
473.31	35821.90
473.49	36292.35
473.67	36711.30
473.85	37212.18
474.03	38117.96
474.21	38471.39
474.39	38197.54
474.57	38693.74
474.75	38665.65
474.93	38759.27
475.12	37734.12
475.30	37591.34
475.48	37916.68
475.66	38642.24
475.84	38092.22
476.02	37312.82
476.20	37116.22
476.38	37631.13
476.56	38710.12
476.74	39393.56
476.92	39056.52
477.10	40076.99
477.28	41684.94
477.46	41394.71
477.64	41638.13
477.82	41591.32
478.00	41841.76
478.18	41308.11
478.36	41198.11
478.54	41109.17
478.72	41696.64
478.90	42462.00
479.08	43400.55
479.26	43814.83
479.44	43981.01
479.62	43320.98
479.80	43679.08
479.98	43812.49
480.16	44346.13
480.34	43690.78
480.52	43966.96
480.70	44243.15
480.88	44406.98
481.06	45511.72
481.24	45308.09
481.41	46607.09
481.59	47117.32
481.77	46887.95
481.95	45818.33
482.13	46066.42
482.31	45736.41
482.49	46733.48
482.67	46396.44
482.85	46782.63
483.03	47002.64
483.21	47714.16
483.39	47746.93
483.57	47131.37
483.74	46536.87
483.92	46997.96
484.10	47145.41
484.28	48034.81
484.46	48608.25
484.64	48797.83
484.82	47845.23
485.00	47466.06
485.18	46911.36
485.35	45464.91
485.53	42330.93
485.71	38508.83
485.89	38005.62
486.07	40107.42
486.25	43325.66
486.43	45794.92
486.61	46604.75
486.78	46799.01
486.96	46089.83
487.14	48067.58
487.32	49188.70
487.50	50157.68
487.68	51019.00
487.85	51210.92
488.03	51552.64
488.21	50974.53
488.39	50347.26
488.57	49338.49
488.75	49251.89
488.92	50564.93
489.10	52446.72
489.28	53731.68
489.46	54766.20
489.64	54164.68
489.81	54567.25
489.99	54007.86
490.17	53932.96
490.35	54391.71
490.53	53895.52
490.70	53471.88
490.88	53705.93
491.06	54375.33
491.24	54618.74
491.41	53464.86
491.59	52083.94
491.77	51082.19
491.95	52261.82
492.13	53127.82
492.30	54585.97
492.48	55435.59
492.66	55753.90
492.84	55824.12
493.01	55643.90
493.19	55161.75
493.37	54805.98
493.54	54225.53
493.72	55257.71
493.90	55971.57
494.08	56664.37
494.25	57020.13
494.43	57317.38
494.61	57680.16
494.79	57663.78
494.96	57602.92
495.14	57031.83
495.32	55840.50
495.49	55341.97
495.67	56301.59
495.85	57902.51
496.02	58164.65
496.20	57778.46
496.38	57375.89
496.55	57134.82
496.73	57677.82
496.91	57879.11
497.09	58447.86
497.26	58857.45
497.44	58251.25
497.62	57609.95
497.79	56767.35
497.97	55566.66
498.14	55964.55
498.32	56935.87
498.50	57968.05
498.67	58609.35
498.85	58230.19
499.03	58553.18
499.20	58478.28
499.38	58555.52
499.56	58429.13
499.73	58103.80
499.91	57600.58
500.08	57354.83
500.26	56631.60
500.44	56942.89
500.61	57663.78
500.79	57427.38
500.97	57059.92
501.14	56975.66
501.32	56573.09
501.49	56917.15
501.67	56853.95
501.84	57640.37
502.02	57792.51
502.20	58085.07
502.37	58363.60
502.55	58319.13
502.72	58719.36
502.90	59241.30
503.07	58670.21
503.25	58457.22
503.43	57776.12
503.60	57036.51
503.78	56577.77
503.95	56992.04
504.13	58248.91
504.30	58885.54
504.48	58789.58
504.65	58562.54
504.83	58321.47
505.01	59175.76
505.18	59468.33
505.36	59985.59
505.53	60004.31
505.71	60182.19
505.88	60371.78
506.06	59702.38
506.23	59414.50
506.41	59086.82
506.58	59250.66
506.76	59243.64
506.93	59157.04
507.11	58866.81
507.28	59025.97
507.46	58590.63
507.63	57881.45
507.81	57846.34
507.98	58176.36
508.16	58850.43
508.33	59302.15
508.50	59407.48
508.68	60109.64
508.85	60371.78
509.03	60348.37
509.20	60287.52
509.38	59622.81
509.55	58878.52
509.73	59143.00
509.90	59393.43
510.08	59657.91
510.25	59536.21
510.42	59400.46
510.60	59330.24
510.77	59503.44
510.95	60081.55
511.12	60498.17
511.30	60418.59
511.47	60772.01
511.64	60706.47
511.82	60453.70
511.99	59810.05
512.17	59264.70
512.34	58993.20
512.51	59206.19
512.69	59143.00
512.86	59157.04
513.04	59737.49
513.21	59711.75
513.38	59449.61
513.56	58937.03
513.73	58431.47
513.90	58590.63
514.08	58508.71
514.25	58876.18
514.43	59430.88
514.60	59327.90
514.77	59423.86
514.95	59416.84
515.12	59468.33
515.29	59503.44
515.47	60121.34
515.64	60271.14
515.81	59999.63
515.99	59400.46
516.16	58000.82
516.33	55686.03
516.51	54731.09
516.68	53425.07
516.85	53223.78
517.03	53457.84
517.20	56435.00
517.37	58485.31
517.54	59365.35
517.72	59086.82
517.89	56488.83
518.06	54443.20
518.24	54983.86
518.41	56889.06
518.58	58068.69
518.75	58379.98
518.93	58351.90
519.10	58445.52
519.27	58859.79
519.45	58955.75
519.62	59634.51
519.79	59941.12
519.96	59690.68
520.14	59468.33
520.31	58674.89
520.48	58520.41
520.65	58920.65
520.83	59880.27
521.00	60083.89
521.17	59674.30
521.34	59444.93
521.52	59760.90
521.69	60266.45
521.86	60587.11
522.03	60315.61
522.20	59236.62
522.38	58312.11
522.55	58431.47
522.72	58873.84
522.89	59128.95
523.07	59260.02
523.24	59480.03
523.41	60219.64
523.58	60502.85
523.75	61071.60
523.92	60776.69
524.10	60821.16
524.27	60708.82
524.44	60685.41
524.61	60446.68
524.78	60114.32
524.96	60088.57
525.13	60280.50
525.30	60413.91
525.47	61024.79
525.64	60769.67
525.81	59943.46
525.98	58770.85
526.16	57406.32
526.33	56722.88
526.50	56479.47
526.67	56030.08
526.84	56699.48
527.01	57691.86
527.18	58244.23
527.36	59091.51
527.53	60156.45
527.70	60191.56
527.87	59980.91
528.04	59379.39
528.21	59903.67
528.38	60596.47
528.55	60856.27
528.72	61268.20
528.89	61389.91
529.07	61109.05
529.24	60746.26
529.41	59875.58
529.58	59341.94
529.75	59625.15
529.92	59779.62
530.09	60233.69
530.26	60645.62
530.43	60933.51
530.60	60982.66
530.77	61228.41
530.94	61385.23
531.11	60893.72
531.28	60413.91
531.46	60261.77
531.63	60427.95
531.80	60444.33
531.97	59889.63
532.14	59276.41
532.31	58375.30
532.48	57900.17
532.65	57783.15
532.82	58630.42
532.99	59723.45
533.16	59824.09
533.33	60383.48
533.50	60264.11
533.67	59760.90
533.84	59428.54
534.01	59578.34
534.18	59810.05
534.35	59903.67
534.52	59524.50
534.69	59941.12
534.86	60327.31
535.03	60324.97
535.20	60945.21
535.37	61202.67
535.54	61324.38
535.71	60954.57
535.88	60664.35
536.05	60020.70
536.22	59697.70
536.38	59494.08
536.55	59140.66
536.72	58532.12
536.89	58321.47
537.06	59400.46
537.23	60060.49
537.40	60097.94
537.57	60177.51
537.74	60111.98
537.91	60130.70
538.08	59826.43
538.25	60137.72
538.42	60329.65
538.59	59980.91
538.75	59339.60
538.92	59126.61
539.09	59075.12
539.26	58747.45
539.43	58630.42
539.60	58880.86
539.77	58899.58
539.94	58717.02
540.11	58012.52
540.28	57862.72
540.44	57722.29
540.61	57890.81
540.78	58056.99
540.95	58590.63
541.12	58855.11
541.29	59250.66
541.46	59412.16
541.62	59437.90
541.79	59262.36
541.96	58738.08
542.13	58763.83
542.30	59234.28
542.47	59222.58
542.63	58988.52
542.80	58906.60
542.97	59000.22
543.14	58920.65
543.31	58761.49
543.48	59316.20
543.64	60128.36
543.81	60427.95
543.98	60051.12
544.15	59402.80
544.32	58801.28
544.48	58969.80
544.65	59503.44
544.82	59826.43
544.99	59299.81
545.16	59222.58
545.32	58796.60
545.49	59678.98
545.66	59985.59
545.83	59557.27
546.00	59299.81
546.16	59229.60
546.33	58974.48
546.50	58906.60
546.67	59461.31
546.83	58981.50
547.00	59065.76
547.17	58403.39
547.34	57890.81
547.50	57928.26
547.67	58508.71
547.84	58258.27
548.00	58784.90
548.17	59283.43
548.34	59119.59
548.51	59009.59
548.67	59000.22
548.84	59065.76
549.01	59171.08
549.18	58990.86
549.34	58911.28
549.51	58981.50
549.68	59025.97
549.84	58714.68
550.01	58639.78
550.18	58356.58
550.34	58508.71
550.51	58663.19
550.68	58827.02
550.84	58197.42
551.01	58452.54
551.18	58319.13
551.34	58267.64
551.51	58845.75
551.68	59077.46
551.84	59217.89
552.01	58885.54
552.18	58766.17
552.34	57935.28
552.51	57602.92
552.68	57633.35
552.84	58134.23
553.01	58110.82
553.18	58162.31
553.34	58274.66
553.51	58424.45
553.67	58773.19
553.84	58738.08
554.01	58639.78
554.17	58246.57
554.34	58501.69
554.51	58611.70
554.67	59171.08
554.84	58829.37
555.00	58464.24
555.17	58305.09
555.33	58244.23
555.50	58272.32
555.67	58267.64
555.83	58075.71
556.00	57827.62
556.16	57916.56
556.33	57488.24
556.50	57396.96
556.66	57352.49
556.83	57111.41
556.99	57130.14
557.16	57453.13
557.32	57677.82
557.49	57738.68
557.65	57752.72
557.82	57591.22
557.98	57471.85
558.15	57188.65
558.32	56287.54
558.48	55416.86
558.65	55819.44
558.81	56051.15
558.98	56505.21
559.14	56704.16
559.31	56769.69
559.47	56821.19
559.64	56437.34
559.80	56109.66
559.97	56367.12
560.13	56678.41
560.30	57668.46
560.46	57827.62
560.63	58124.86
560.79	58178.70
560.96	57654.42
561.12	56603.52
561.29	55793.69
561.45	55798.37
561.61	56484.15
561.78	56858.63
561.94	56907.79
562.11	56640.96
562.27	56486.49
562.44	56884.38
562.60	56896.08
562.77	57237.80
562.93	57176.95
563.10	56921.83
563.26	56397.55
563.42	56596.49
563.59	56390.53
563.75	56287.54
563.92	56500.53
564.08	56430.32
564.24	56699.48
564.41	56554.36
564.57	56582.45
564.74	56418.61
564.90	56395.21
565.07	56032.42
565.23	55826.46
565.39	55173.45
565.56	55257.71
565.72	54831.73
565.88	55203.88
566.05	55318.56
566.21	55660.28
566.38	55725.81
566.54	55789.01
566.70	56170.52
566.87	56411.59
567.03	56287.54
567.19	56392.87
567.36	56322.65
567.52	56191.58
567.68	55910.72
567.85	55250.69
568.01	55079.83
568.17	54511.08
568.34	54824.71
568.50	54518.10
568.66	54621.08
568.83	55150.04
568.99	54993.23
569.15	55351.33
569.32	55365.37
569.48	54834.07
569.64	54742.79
569.81	54855.14
569.97	54408.09
570.13	54361.28
570.30	53881.47
570.46	53429.75
570.62	52996.75
570.78	52905.47
570.95	53176.97
571.11	53727.00
571.27	54080.42
571.43	54372.99
571.60	54532.14
571.76	54623.42
571.92	55119.62
572.09	55281.11
572.25	55458.99
572.41	55033.02
572.57	54639.81
572.74	55140.68
572.90	54361.28
573.06	54555.55
573.22	54550.87
573.38	54593.00
573.55	54452.56
573.71	54593.00
573.87	54850.45
574.03	54447.88
574.20	54539.16
574.36	54131.91
574.52	53914.24
574.68	53661.46
574.84	53279.96
575.01	53081.01
575.17	53090.37
575.33	52926.53
575.49	53324.43
575.65	53783.17
575.82	53151.23
575.98	52797.80
576.14	53333.79
576.30	53687.21
576.46	53993.82
576.62	53654.44
576.79	53549.12
576.95	53282.30
577.11	53270.59
577.27	53558.48
577.43	53436.77
577.59	53109.10
577.75	52631.63
577.92	52294.59
578.08	51646.26
578.24	51545.62
578.40	52006.70
578.56	52521.62
578.72	52727.59
578.88	52648.01
579.04	52917.17
579.21	52877.38
579.37	53116.12
579.53	52999.09
579.69	52870.36
579.85	53071.65
580.01	52975.69
580.17	52755.68
580.33	52287.57
580.49	52406.94
580.65	52924.19
580.82	53134.84
580.98	53010.79
581.14	52692.48
581.30	53102.07
581.46	53006.11
581.62	52973.34
581.78	53188.67
581.94	53366.55
582.10	53396.98
582.26	53237.83
582.42	53111.44
582.58	53137.18
582.74	53212.08
582.90	53364.21
583.06	53001.43
583.22	52704.18
583.38	52935.90
583.54	52982.71
583.70	52568.43
583.86	52856.32
584.02	52577.79
584.18	52725.25
584.34	52676.10
584.50	52652.69
584.66	52212.67
584.82	51840.53
584.98	52088.62
585.14	51753.93
585.30	50904.31
