SpectraSuite Data File
++++++++++++++++++++++++++++++++++++
Date: Mon Oct 07 14:53:57 GMT-05:00 2013
User: price-jones
Dark Spectrum Present: No
Reference Spectrum Present: No
Number of Sampled Component Spectra: 1
Spectrometers: USB2+H05261
Integration Time (usec): 100000 (USB2+H05261)
Spectra Averaged: 1 (USB2+H05261)
Boxcar Smoothing: 0 (USB2+H05261)
Correct for Electrical Dark: No (USB2+H05261)
Strobe/Lamp Enabled: No (USB2+H05261)
Correct for Detector Non-linearity: No (USB2+H05261)
Correct for Stray Light: No (USB2+H05261)
Number of Pixels in Processed Spectrum: 2048
>>>>>Begin Processed Spectral Data<<<<<
365.73	0.00
365.92	0.00
366.12	0.00
366.32	0.00
366.52	0.00
366.72	0.00
366.91	0.00
367.11	0.00
367.31	0.00
367.51	0.00
367.70	0.00
367.90	0.00
368.10	0.00
368.30	0.00
368.49	0.00
368.69	0.00
368.89	0.00
369.09	0.00
369.28	0.00
369.48	0.00
369.68	0.00
369.87	0.00
370.07	0.00
370.27	0.00
370.47	1446.45
370.66	6061.99
370.86	7098.84
371.06	7627.81
371.25	7693.34
371.45	6993.52
371.65	6200.08
371.84	5966.03
372.04	6258.59
372.24	6853.09
372.44	6998.20
372.63	6972.46
372.83	6347.53
373.03	5731.97
373.22	5432.38
373.42	5781.12
373.62	6476.26
373.81	6937.35
374.01	6827.34
374.21	6197.74
374.40	5797.51
374.60	5942.62
374.79	6815.64
374.99	7861.86
375.19	8386.14
375.38	8341.67
375.58	7882.92
375.78	7882.92
375.97	7824.41
376.17	8266.77
376.37	8131.02
376.56	8241.03
376.76	9048.51
376.95	9233.41
377.15	9966.00
377.35	10244.52
377.54	10745.40
377.74	10848.38
377.93	11061.37
378.13	10352.19
378.33	10113.45
378.52	9394.91
378.72	8992.34
378.91	8718.50
379.11	8472.74
379.31	8346.35
379.50	8278.47
379.70	8882.33
379.89	10115.80
380.09	10380.28
380.28	10773.49
380.48	10726.68
380.68	10354.53
380.87	10066.64
381.07	9312.99
381.26	8571.04
381.46	8229.32
381.65	7840.79
381.85	7735.47
382.04	7321.20
382.24	6782.87
382.43	6298.38
382.63	6459.88
382.83	6490.31
383.02	6183.70
383.22	6363.92
383.41	6314.77
383.61	6895.22
383.80	7798.66
384.00	8894.04
384.19	9696.84
384.39	10401.34
384.58	10237.50
384.78	10104.09
384.97	9947.28
385.17	9423.00
385.36	9135.11
385.56	8760.63
385.75	8802.75
385.95	9834.93
386.14	10569.86
386.34	10504.32
386.53	9839.61
386.72	9394.91
386.92	9371.50
387.11	9968.34
387.31	10370.91
387.50	10141.54
387.70	9867.70
387.89	9645.35
388.09	9830.25
388.28	9753.01
388.48	9928.55
388.67	10523.05
388.86	12035.03
389.06	12580.38
389.25	12994.65
389.45	13437.02
389.64	13130.41
389.84	12985.29
390.03	12982.95
390.22	12833.16
390.42	13348.08
390.61	14008.11
390.81	14927.94
391.00	15419.45
391.19	15176.03
391.39	14572.18
391.58	13530.64
391.78	12940.82
391.97	12147.38
392.16	11496.71
392.36	10375.59
392.55	8442.31
392.75	6656.48
392.94	5652.39
393.13	5799.85
393.33	6700.95
393.52	8638.92
393.71	10356.87
393.91	11344.58
394.10	12468.03
394.29	13664.05
394.49	14707.93
394.68	15410.09
394.88	15815.00
395.07	16570.99
395.26	16095.86
395.46	15543.50
395.65	14665.80
395.84	12889.33
396.04	10726.68
396.23	8667.00
396.42	7272.04
396.62	7391.41
396.81	8482.10
397.00	10932.64
397.19	13579.79
397.39	16013.95
397.58	17720.20
397.77	18810.89
397.97	19484.96
398.16	19885.19
398.35	20393.09
398.55	20982.90
398.74	21539.95
398.93	22031.46
399.12	21928.48
399.32	21137.38
399.51	21525.91
399.70	22970.02
399.90	22441.06
400.09	22614.26
400.28	22331.05
400.47	22658.73
400.67	23943.68
400.86	24156.67
401.05	24514.77
401.24	24173.05
401.44	24416.47
401.63	24538.18
401.82	24458.60
402.01	24589.67
402.21	25153.74
402.40	25146.72
402.59	24362.64
402.78	23302.37
402.97	22958.31
403.17	23503.66
403.36	24807.34
403.55	25715.47
403.74	26148.46
403.93	24683.29
404.13	23026.19
404.32	22658.73
404.51	23648.77
404.70	25092.88
404.89	25284.81
405.09	24999.26
405.28	24095.82
405.47	24163.69
405.66	24027.94
405.85	23318.76
406.05	22801.50
406.24	22932.57
406.43	23899.21
406.62	24992.24
406.81	25139.69
407.00	24266.67
407.20	23571.54
407.39	23566.85
407.58	24613.07
407.77	26426.99
407.96	26183.57
408.15	27068.30
408.34	26590.83
408.54	27819.61
408.73	28137.92
408.92	27915.57
409.11	27070.64
409.30	25724.83
409.49	24154.33
409.68	22927.89
409.87	22265.52
410.07	23772.82
410.26	25233.32
410.45	26677.43
410.64	27447.46
410.83	28301.76
411.02	28870.51
411.21	29607.78
411.40	29575.01
411.59	29549.26
411.78	29476.71
411.98	29017.96
412.17	29303.51
412.36	28940.72
412.55	28982.85
412.74	28379.00
412.93	27709.60
413.12	28194.09
413.31	30448.03
413.50	30951.24
413.69	31016.78
413.88	29853.53
414.07	29228.61
414.26	29553.94
414.45	30855.28
414.64	30565.06
414.83	30742.94
415.02	30235.04
415.22	30206.95
415.41	30904.43
415.60	31952.99
415.79	33212.20
415.98	33539.88
416.17	33696.69
416.36	32664.52
416.55	32140.24
416.74	31484.89
416.93	30228.02
417.12	30441.01
417.31	30796.77
417.50	30892.73
417.69	32259.60
417.88	32041.93
418.07	31929.59
418.26	31393.61
418.45	31868.73
418.64	33083.47
418.83	34106.29
419.02	33366.68
419.21	33022.62
419.39	31810.22
419.58	30153.12
419.77	30218.66
419.96	31332.75
420.15	33237.95
420.34	34120.33
420.53	35021.44
420.72	36025.53
420.91	35517.63
421.10	35234.42
421.29	34962.92
421.48	33736.48
421.67	35587.85
421.86	34637.59
422.05	32046.62
422.24	29099.88
422.43	28903.28
422.61	31735.32
422.80	33982.24
422.99	33914.36
423.18	32493.66
423.37	32453.87
423.56	31981.08
423.75	33226.24
423.94	32875.16
424.13	31779.79
424.32	32055.98
424.50	31639.36
424.69	31503.61
424.88	32055.98
425.07	31538.72
425.26	31145.51
425.45	31367.86
425.64	30923.16
425.83	30607.19
426.01	32507.70
426.20	33240.29
426.39	32872.82
426.58	30693.79
426.77	28428.15
426.96	27206.39
427.15	28624.75
427.33	30822.51
427.52	32048.96
427.71	31903.84
427.90	31248.49
428.09	31246.15
428.28	30820.17
428.46	29762.25
428.65	28884.55
428.84	29984.60
429.03	30368.45
429.22	28636.45
429.40	27047.23
429.59	24699.67
429.78	21572.72
429.97	21664.00
430.16	22047.85
430.34	22211.68
430.53	22171.89
430.72	22918.53
430.91	25905.05
431.10	29666.29
431.28	34440.98
431.47	37406.44
431.66	37603.05
431.85	33961.17
432.03	31821.92
432.22	30546.33
432.41	31789.16
432.60	35150.17
432.79	35702.53
432.97	37160.69
433.16	35950.63
433.35	33043.68
433.54	29717.78
433.72	27854.72
433.91	29069.45
434.10	32753.46
434.28	34576.73
434.47	36025.53
434.66	35311.66
434.85	34726.53
435.03	34555.67
435.22	35290.60
435.41	37008.55
435.59	37170.05
435.78	37736.46
435.97	38880.98
436.16	38639.90
436.34	38071.15
436.53	37385.38
436.72	37572.62
436.90	36079.36
437.09	35672.10
437.28	35419.33
437.46	36334.48
437.65	35833.60
437.84	33708.40
438.02	31646.38
438.21	31063.59
438.40	32196.41
438.58	35330.39
438.77	36004.46
438.96	36570.87
439.14	38080.52
439.33	38752.25
439.52	38930.13
439.70	38541.60
439.89	37645.18
440.08	37111.53
440.26	36301.71
440.45	37961.15
440.63	40332.11
440.82	42071.13
441.01	41642.81
441.19	41254.28
441.38	41883.89
441.57	43054.15
441.75	43847.60
441.94	44182.29
442.12	43765.68
442.31	44203.36
442.50	44481.88
442.68	43620.56
442.87	42965.21
443.05	42763.93
443.24	43037.77
443.43	44332.09
443.61	44657.42
443.80	45495.33
443.98	43215.65
444.17	42930.11
444.35	45137.23
444.54	45724.71
444.73	45095.10
444.91	43480.13
445.10	41883.89
445.28	39861.66
445.47	39548.03
445.65	39700.17
445.84	41125.55
446.02	42036.02
446.21	42749.88
446.39	42787.33
446.58	43351.40
446.77	44172.93
446.95	44463.16
447.14	45425.12
447.32	46457.29
447.51	44905.52
447.69	43763.34
447.88	43531.62
448.06	43503.54
448.25	44402.30
448.43	45034.25
448.62	44229.10
448.80	43311.61
448.99	44027.82
449.17	43973.98
449.36	44390.60
449.54	45387.67
449.73	46209.20
449.91	46864.55
450.10	47592.45
450.28	48123.75
450.46	47812.46
450.65	47683.73
450.83	47903.74
451.02	46831.78
451.20	46628.15
451.39	47180.52
451.57	46494.74
451.76	46518.15
451.94	46663.26
452.13	45532.78
452.31	43856.96
452.49	41565.57
452.68	41806.65
452.86	42490.09
453.05	43079.90
453.23	44114.42
453.42	45055.31
453.60	45209.79
453.78	46087.49
453.97	45675.55
454.15	45670.87
454.34	44996.80
454.52	45296.39
454.70	43934.20
454.89	44594.23
455.07	44928.92
455.26	45420.44
455.44	46759.22
455.62	47852.25
455.81	47870.98
455.99	46976.89
456.17	47232.01
456.36	46951.15
456.54	48355.47
456.73	48257.17
456.91	48762.72
457.09	49120.82
457.28	49720.00
457.46	47622.88
457.64	47540.96
457.83	46433.89
458.01	45382.99
458.19	46679.64
458.38	47077.54
458.56	48528.67
458.74	48280.57
458.93	47063.49
459.11	47281.16
459.29	47075.19
459.48	46988.60
459.66	46841.14
459.84	47353.72
460.03	47950.56
460.21	47620.54
460.39	48268.87
460.57	48842.30
460.76	48809.53
460.94	49474.24
461.12	48428.02
461.31	48779.10
461.49	48582.50
461.67	48568.46
461.85	49954.05
462.04	49392.33
462.22	49893.20
462.40	49483.61
462.59	49525.74
462.77	49698.94
462.95	49345.51
463.13	48821.23
463.32	48903.15
463.50	48486.54
463.68	48364.83
463.86	48280.57
464.05	47854.59
464.23	46885.61
464.41	46902.00
464.59	46291.12
464.78	48086.31
464.96	47718.84
465.14	47517.56
465.32	48769.74
465.50	49518.71
465.69	49780.85
465.87	48924.22
466.05	47739.91
466.23	46204.52
466.41	45670.87
466.60	46726.46
466.78	46604.75
466.96	47749.27
467.14	47636.92
467.32	47636.92
467.51	48334.40
467.69	46220.90
467.87	47421.59
468.05	47826.51
468.23	47983.32
468.41	47714.16
468.60	48240.78
468.78	48109.71
468.96	47599.47
469.14	48289.93
469.32	48879.75
469.50	46913.70
469.69	47068.17
469.87	46766.24
470.05	46454.95
470.23	46628.15
470.41	47049.45
470.59	47323.29
470.77	47325.63
470.95	48154.18
471.14	48968.69
471.32	48697.19
471.50	50590.68
471.68	50665.58
471.86	50887.93
472.04	51112.62
472.22	50789.62
472.40	49336.15
472.58	49191.04
472.77	47936.51
472.95	49333.81
473.13	49727.02
473.31	48882.09
473.49	49647.44
473.67	50096.83
473.85	50171.72
474.03	51164.11
474.21	51377.10
474.39	51922.44
474.57	51835.84
474.75	51576.04
474.93	51786.69
475.12	50401.10
475.30	50625.79
475.48	50897.29
475.66	51201.56
475.84	51180.49
476.02	50468.97
476.20	49975.12
476.38	50829.41
476.56	51695.41
476.74	51847.55
476.92	52186.92
477.10	52772.06
477.28	53600.61
477.46	53317.40
477.64	53778.49
477.82	54087.44
478.00	54019.56
478.18	53563.16
478.36	53326.77
478.54	53654.44
478.72	53848.71
478.90	54560.23
479.08	55091.53
479.26	55679.00
479.44	55613.47
479.62	55569.00
479.80	55285.79
479.98	55613.47
480.16	55739.86
480.34	55370.05
480.52	55660.28
480.70	55899.01
480.88	55477.72
481.06	56172.86
481.24	56479.47
481.41	57198.01
481.59	57668.46
481.77	56954.60
481.95	56933.53
482.13	56818.84
482.31	56811.82
482.49	57317.38
482.67	56954.60
482.85	57237.80
483.03	57359.51
483.21	58035.92
483.39	57914.22
483.57	57420.36
483.74	57418.02
483.92	57513.98
484.10	57518.67
484.28	58419.77
484.46	58298.06
484.64	58693.61
484.82	58101.46
485.00	57792.51
485.18	57188.65
485.35	56324.99
485.53	54047.65
485.71	51220.28
485.89	50806.01
486.07	52655.03
486.25	55023.65
486.43	56865.66
486.61	57151.20
486.78	56947.57
486.96	57244.82
487.14	58131.89
487.32	58522.76
487.50	59400.46
487.68	60151.77
487.85	60348.37
488.03	60257.09
488.21	60069.85
488.39	59465.99
488.57	58946.39
488.75	58890.22
488.92	59774.94
489.10	61392.25
489.28	62206.76
489.46	62719.34
489.64	62368.26
489.81	62670.18
489.99	62255.91
490.17	62337.83
490.35	62665.50
490.53	62267.61
490.70	61769.08
490.88	61780.78
491.06	62527.41
491.24	62639.76
491.41	61670.78
491.59	60589.45
491.77	60137.72
491.95	60966.27
492.13	61855.68
492.30	62742.74
492.48	63524.48
492.66	63779.60
492.84	63641.51
493.01	63494.05
493.19	63238.93
493.37	62894.88
493.54	62686.57
493.72	63351.28
493.90	63882.58
494.08	64605.81
494.25	64907.74
494.43	64881.99
494.61	64970.93
494.79	65151.15
494.96	65020.08
495.14	64350.69
495.32	63529.16
495.49	63407.45
495.67	64214.94
495.85	65148.81
496.02	65535.00
496.20	65415.63
496.38	64945.18
496.55	64816.46
496.73	65247.11
496.91	65497.55
497.09	65535.00
497.26	65535.00
497.44	65535.00
497.62	65310.31
497.79	64521.55
497.97	63575.97
498.14	63543.20
498.32	64474.74
498.50	65272.86
498.67	65535.00
498.85	65527.98
499.03	65535.00
499.20	65535.00
499.38	65535.00
499.56	65535.00
499.73	65471.81
499.91	65069.23
500.08	64746.24
500.26	64219.62
500.44	64448.99
500.61	64980.29
500.79	64959.23
500.97	64584.74
501.14	64601.13
501.32	64467.72
501.49	64406.86
501.67	64568.36
501.84	65027.10
502.02	65265.84
502.20	65413.29
502.37	65499.89
502.55	65485.85
502.72	65535.00
502.90	65535.00
503.07	65535.00
503.25	65535.00
503.43	65153.49
503.60	64334.31
503.78	63941.10
503.95	64516.87
504.13	65523.30
504.30	65535.00
504.48	65535.00
504.65	65535.00
504.83	65535.00
505.01	65535.00
505.18	65535.00
505.36	65535.00
505.53	65535.00
505.71	65535.00
505.88	65535.00
506.06	65535.00
506.23	65535.00
506.41	65535.00
506.58	65535.00
506.76	65535.00
506.93	65535.00
507.11	65535.00
507.28	65535.00
507.46	65535.00
507.63	65275.20
507.81	64984.97
507.98	65333.71
508.16	65535.00
508.33	65535.00
508.50	65535.00
508.68	65535.00
508.85	65535.00
509.03	65535.00
509.20	65535.00
509.38	65535.00
509.55	65535.00
509.73	65535.00
509.90	65535.00
510.08	65535.00
510.25	65535.00
510.42	65535.00
510.60	65535.00
510.77	65535.00
510.95	65535.00
511.12	65535.00
511.30	65535.00
511.47	65535.00
511.64	65535.00
511.82	65535.00
511.99	65535.00
512.17	65535.00
512.34	65535.00
512.51	65535.00
512.69	65535.00
512.86	65535.00
513.04	65535.00
513.21	65535.00
513.38	65535.00
513.56	65535.00
513.73	65455.42
513.90	65488.19
514.08	65506.91
514.25	65535.00
514.43	65535.00
514.60	65535.00
514.77	65535.00
514.95	65535.00
515.12	65535.00
515.29	65535.00
515.47	65535.00
515.64	65535.00
515.81	65535.00
515.99	65535.00
516.16	65043.49
516.33	62979.14
516.51	61759.72
516.68	61340.76
516.85	61052.87
517.03	61425.02
517.20	63770.24
517.37	65535.00
517.54	65535.00
517.72	65535.00
517.89	63894.28
518.06	62078.03
518.24	62307.40
518.41	64104.93
518.58	65064.55
518.75	65406.27
518.93	65469.46
519.10	65474.15
519.27	65535.00
519.45	65535.00
519.62	65535.00
519.79	65535.00
519.96	65535.00
520.14	65535.00
520.31	65535.00
520.48	65535.00
520.65	65535.00
520.83	65535.00
521.00	65535.00
521.17	65535.00
521.34	65535.00
521.52	65535.00
521.69	65535.00
521.86	65535.00
522.03	65535.00
522.20	65535.00
522.38	65478.83
522.55	65169.88
522.72	65535.00
522.89	65535.00
523.07	65535.00
523.24	65535.00
523.41	65535.00
523.58	65535.00
523.75	65535.00
523.92	65535.00
524.10	65535.00
524.27	65535.00
524.44	65535.00
524.61	65535.00
524.78	65535.00
524.96	65535.00
525.13	65535.00
525.30	65535.00
525.47	65535.00
525.64	65535.00
525.81	65535.00
525.98	65535.00
526.16	64362.39
526.33	63735.13
526.50	63419.16
526.67	63309.15
526.84	63765.56
527.01	64446.65
527.18	65242.43
527.36	65535.00
527.53	65535.00
527.70	65535.00
527.87	65535.00
528.04	65535.00
528.21	65535.00
528.38	65535.00
528.55	65535.00
528.72	65535.00
528.89	65535.00
529.07	65535.00
529.24	65535.00
529.41	65535.00
529.58	65535.00
529.75	65535.00
529.92	65535.00
530.09	65535.00
530.26	65535.00
530.43	65535.00
530.60	65535.00
530.77	65535.00
530.94	65535.00
531.11	65535.00
531.28	65535.00
531.46	65535.00
531.63	65535.00
531.80	65535.00
531.97	65535.00
532.14	65535.00
532.31	64874.97
532.48	64561.34
532.65	64652.62
532.82	65223.71
532.99	65535.00
533.16	65535.00
533.33	65535.00
533.50	65535.00
533.67	65535.00
533.84	65535.00
534.01	65535.00
534.18	65535.00
534.35	65535.00
534.52	65535.00
534.69	65535.00
534.86	65535.00
535.03	65535.00
535.20	65535.00
535.37	65535.00
535.54	65535.00
535.71	65535.00
535.88	65535.00
536.05	65535.00
536.22	65535.00
536.38	65535.00
536.55	65436.70
536.72	65102.00
536.89	64863.27
537.06	65535.00
537.23	65535.00
537.40	65535.00
537.57	65535.00
537.74	65535.00
537.91	65535.00
538.08	65535.00
538.25	65535.00
538.42	65535.00
538.59	65535.00
538.75	65535.00
538.92	65462.44
539.09	65535.00
539.26	65469.46
539.43	65230.73
539.60	65237.75
539.77	65322.01
539.94	65261.16
540.11	64708.79
540.28	64278.13
540.44	64294.52
540.61	64451.33
540.78	64673.68
540.95	64853.90
541.12	65228.39
541.29	65495.21
541.46	65535.00
541.62	65535.00
541.79	65535.00
541.96	65162.85
542.13	65125.41
542.30	65394.57
542.47	65535.00
542.63	65401.59
542.80	64987.31
542.97	65310.31
543.14	65071.57
543.31	65181.58
543.48	65535.00
543.64	65535.00
543.81	65535.00
543.98	65535.00
544.15	65535.00
544.32	65249.45
544.48	65485.85
544.65	65535.00
544.82	65535.00
544.99	65535.00
545.16	65450.74
545.32	65057.53
545.49	65535.00
545.66	65535.00
545.83	65535.00
546.00	65434.36
546.16	65221.37
546.33	65453.08
546.50	65535.00
546.67	65535.00
546.83	65530.32
547.00	65495.21
547.17	64823.48
547.34	64413.88
547.50	64364.73
547.67	64832.84
547.84	64828.16
548.00	65221.37
548.17	65439.04
548.34	65212.01
548.51	65350.10
548.67	65263.50
548.84	65506.91
549.01	65389.89
549.18	65186.26
549.34	65080.94
549.51	65134.77
549.68	65240.09
549.84	64935.82
550.01	64900.71
550.18	64484.10
550.34	64891.35
550.51	64828.16
550.68	65064.55
550.84	64575.38
551.01	64638.57
551.18	64683.04
551.34	64846.88
551.51	65216.69
551.68	65333.71
551.84	65420.31
552.01	65127.75
552.18	65059.87
552.34	64437.29
552.51	64271.11
552.68	64020.67
552.84	64601.13
553.01	64783.69
553.18	64446.65
553.34	64671.34
553.51	64793.05
553.67	64968.59
553.84	65146.47
554.01	64786.03
554.17	64886.67
554.34	64790.71
554.51	64959.23
554.67	65389.89
554.84	65069.23
555.00	64779.01
555.17	64652.62
555.33	64631.55
555.50	64493.46
555.67	64453.67
555.83	64566.02
556.00	64271.11
556.16	64441.97
556.33	63985.57
556.50	63716.40
556.66	63784.28
556.83	63407.45
556.99	63489.37
557.16	63685.98
557.32	63760.87
557.49	64083.87
557.65	64039.40
557.82	63924.71
557.98	63913.01
558.15	63515.12
558.32	62951.05
558.48	62288.68
558.65	62527.41
558.81	62677.21
558.98	62904.24
559.14	62892.54
559.31	63000.20
559.47	63178.08
559.64	62897.22
559.80	62752.10
559.97	62754.44
560.13	63065.73
560.30	64060.46
560.46	64264.09
560.63	64423.25
560.79	64502.82
560.96	64039.40
561.12	62953.39
561.29	62625.71
561.45	62691.25
561.61	63044.67
561.78	63311.49
561.94	63100.84
562.11	62880.83
562.27	62749.76
562.44	63124.25
562.60	63362.98
562.77	63440.22
562.93	63337.24
563.10	63320.85
563.26	62852.75
563.42	62876.15
563.59	62649.12
563.75	62754.44
563.92	62660.82
564.08	62702.95
564.24	63168.72
564.41	63131.27
564.57	63018.92
564.74	63114.89
564.90	62831.68
565.07	62798.91
565.23	62496.98
565.39	61895.47
565.56	61509.28
565.72	61375.87
565.88	61663.75
566.05	61752.69
566.21	62045.26
566.38	62031.22
566.54	62230.16
566.70	62532.09
566.87	62894.88
567.03	62920.62
567.19	63079.78
567.36	62686.57
567.52	62475.92
567.68	62466.56
567.85	61860.36
568.01	61656.73
568.17	61418.00
568.34	61193.31
568.50	61331.40
568.66	61378.21
568.83	61523.32
568.99	61701.20
569.15	61801.85
569.32	61818.23
569.48	61300.97
569.64	61549.07
569.81	61029.47
569.97	60928.83
570.13	60940.53
570.30	60650.30
570.46	60364.76
570.62	60065.17
570.78	59894.31
570.95	60221.98
571.11	60659.66
571.27	60786.05
571.43	61041.17
571.60	61247.14
571.76	61553.75
571.92	61848.66
572.09	61773.76
572.25	61764.40
572.41	61633.33
572.57	61434.38
572.74	61490.55
572.90	61317.35
573.06	60961.59
573.22	61179.26
573.38	61242.46
573.55	61029.47
573.71	61282.25
573.87	61333.74
574.03	61172.24
574.20	61162.88
574.36	60662.00
574.52	60870.31
574.68	60575.40
574.84	60243.05
575.01	60147.09
575.17	59849.84
575.33	59992.61
575.49	60261.77
575.65	60381.14
575.82	60186.88
575.98	59938.78
576.14	60186.88
576.30	60664.35
576.46	60449.02
576.62	60236.03
576.79	60111.98
576.95	59997.29
577.11	60088.57
577.27	60308.58
577.43	60243.05
577.59	59990.27
577.75	59943.46
577.92	59009.59
578.08	59000.22
578.24	59063.42
578.40	59180.45
578.56	59554.93
578.72	59543.23
578.88	59732.81
579.04	59669.62
579.21	59686.00
579.37	59943.46
579.53	59985.59
579.69	60053.47
579.85	60076.87
580.01	59868.56
580.17	59339.60
580.33	59482.37
580.49	59587.70
580.65	59662.60
580.82	59901.33
580.98	59913.03
581.14	59681.32
581.30	59990.27
581.46	59568.97
581.62	59812.39
581.78	59889.63
581.94	60097.94
582.10	59999.63
582.26	59999.63
582.42	59877.93
582.58	60154.11
582.74	59718.77
582.90	59552.59
583.06	59716.43
583.22	59447.27
583.38	59451.95
583.54	59498.76
583.70	59363.01
583.86	59632.17
584.02	59540.89
584.18	59695.36
584.34	59494.08
584.50	59297.47
584.66	59128.95
