SpectraSuite Data File
++++++++++++++++++++++++++++++++++++
Date: Mon Oct 07 14:55:03 GMT-05:00 2013
User: price-jones
Dark Spectrum Present: No
Reference Spectrum Present: No
Number of Sampled Component Spectra: 1
Spectrometers: USB2+H05261
Integration Time (usec): 10000 (USB2+H05261)
Spectra Averaged: 1 (USB2+H05261)
Boxcar Smoothing: 0 (USB2+H05261)
Correct for Electrical Dark: No (USB2+H05261)
Strobe/Lamp Enabled: No (USB2+H05261)
Correct for Detector Non-linearity: No (USB2+H05261)
Correct for Stray Light: No (USB2+H05261)
Number of Pixels in Processed Spectrum: 2048
>>>>>Begin Processed Spectral Data<<<<<
365.73	0.00
365.92	0.00
366.12	0.00
366.32	0.00
366.52	0.00
366.72	0.00
366.91	0.00
367.11	0.00
367.31	0.00
367.51	0.00
367.70	0.00
367.90	0.00
368.10	0.00
368.30	0.00
368.49	0.00
368.69	0.00
368.89	0.00
369.09	0.00
369.28	0.00
369.48	0.00
369.68	0.00
369.87	0.00
370.07	0.00
370.27	0.00
370.47	519.60
370.66	2719.70
370.86	3323.56
371.06	3508.46
371.25	3466.33
371.45	3155.04
371.65	2846.09
371.84	2675.23
372.04	2977.16
372.24	3248.66
372.44	3213.56
372.63	3344.63
372.83	3012.27
373.03	2717.36
373.22	2520.76
373.42	2656.51
373.62	3192.49
373.81	3276.75
374.01	3190.15
374.21	2930.35
374.40	2719.70
374.60	2853.11
374.79	3351.65
374.99	3824.44
375.19	4039.76
375.38	3896.99
375.58	3763.58
375.78	3875.93
375.97	3866.56
376.17	3948.48
376.37	3868.91
376.56	4007.00
376.76	4339.35
376.95	4561.70
377.15	4987.68
377.35	4975.98
377.54	5322.38
377.74	5359.83
377.93	5327.06
378.13	5158.54
378.33	4844.91
378.52	4528.94
378.72	4395.53
378.91	4428.29
379.11	4201.26
379.31	3962.53
379.50	4135.73
379.70	4484.47
379.89	4847.25
380.09	5245.14
380.28	5420.68
380.48	5301.31
380.68	5238.12
380.87	4994.70
381.07	4648.30
381.26	4320.63
381.46	4098.28
381.65	4032.74
381.85	3763.58
382.04	3611.45
382.24	3400.80
382.43	3288.45
382.63	3248.66
382.83	3248.66
383.02	3232.28
383.22	3089.51
383.41	3253.34
383.61	3606.77
383.80	4084.23
384.00	4678.73
384.19	5195.99
384.39	5467.49
384.58	5467.49
384.78	5153.86
384.97	5156.20
385.17	4905.76
385.36	4580.43
385.56	4475.10
385.75	4931.51
385.95	5397.28
386.14	5547.07
386.34	5488.56
386.53	5261.52
386.72	4889.38
386.92	4968.96
387.11	5371.53
387.31	5563.45
387.50	5467.49
387.70	5156.20
387.89	5268.55
388.09	5235.78
388.28	5275.57
388.48	5540.05
388.67	5942.62
388.86	6619.04
389.06	6789.89
389.25	7274.38
389.45	7225.23
389.64	7185.44
389.84	7159.70
390.03	6932.67
390.22	7316.51
390.42	7358.64
390.61	7999.95
390.81	8531.25
391.00	8585.08
391.19	8491.46
391.39	7920.37
391.58	7597.38
391.78	6984.16
391.97	6937.35
392.16	6394.34
392.36	5621.97
392.55	4428.29
392.75	3618.47
392.94	2977.16
393.13	3150.36
393.33	3866.56
393.52	5053.22
393.71	5977.73
393.91	6717.34
394.10	7108.21
394.29	7922.71
394.49	8386.14
394.68	8910.42
394.88	8765.31
395.07	9254.48
395.26	9111.71
395.46	9025.11
395.65	8133.36
395.84	7023.95
396.04	5568.13
396.23	4933.85
396.42	3929.76
396.62	4145.09
396.81	4983.00
397.00	6443.49
397.19	8276.13
397.39	9486.19
397.58	10628.37
397.77	11094.14
397.97	11566.93
398.16	11468.62
398.35	11859.49
398.55	12325.26
398.74	12793.37
398.93	13032.10
399.12	12744.22
399.32	12236.32
399.51	12566.34
399.70	13420.63
399.90	13156.15
400.09	13247.43
400.28	12980.61
400.47	13366.80
400.67	14057.26
400.86	14150.88
401.05	14288.97
401.24	14569.83
401.44	14431.74
401.63	14508.98
401.82	14450.47
402.01	14824.95
402.21	14871.76
402.40	14913.89
402.59	14249.18
402.78	13497.87
402.97	13551.70
403.17	14321.74
403.36	15164.33
403.55	15447.54
403.74	15365.62
403.93	14773.46
404.13	13446.38
404.32	13610.22
404.51	14565.15
404.70	15302.42
404.89	15356.25
405.09	14878.79
405.28	14700.90
405.47	14525.36
405.66	14686.86
405.85	14178.97
406.05	14033.85
406.24	14218.75
406.43	14736.01
406.62	14993.47
406.81	15510.73
407.00	14843.68
407.20	14359.19
407.39	14541.75
407.58	15332.85
407.77	16182.46
407.96	16402.47
408.15	16812.07
408.34	17092.93
408.54	17598.49
408.73	17516.57
408.92	17193.58
409.11	16353.32
409.30	15459.24
409.49	14829.63
409.68	13762.35
409.87	13687.45
410.07	14941.98
410.26	15927.35
410.45	16655.25
410.64	16910.37
410.83	17666.36
411.02	18068.94
411.21	18672.79
411.40	18059.57
411.59	18778.12
411.78	18527.68
411.98	18113.41
412.17	18494.91
412.36	18389.59
412.55	18120.43
412.74	17958.93
412.93	17455.72
413.12	18260.86
413.31	20152.01
413.50	19779.87
413.69	19768.16
413.88	18930.25
414.07	18539.38
414.26	19049.62
414.45	19793.91
414.64	19829.02
414.83	19651.14
415.02	19030.90
415.22	19587.94
415.41	19964.77
415.60	20276.06
415.79	21142.06
415.98	21495.48
416.17	21635.91
416.36	21106.95
416.55	20753.53
416.74	19688.59
416.93	19590.28
417.12	19784.55
417.31	19833.70
417.50	20451.60
417.69	21032.05
417.88	20615.44
418.07	20643.52
418.26	20421.17
418.45	20606.08
418.64	21357.39
418.83	22164.87
419.02	21504.84
419.21	21231.00
419.39	20493.73
419.58	19990.52
419.77	19885.19
419.96	21067.16
420.15	22225.73
420.34	22647.02
420.53	22974.70
420.72	23344.50
420.91	23288.33
421.10	22904.48
421.29	22848.31
421.48	22169.55
421.67	23405.36
421.86	21954.22
422.05	20538.20
422.24	18558.11
422.43	19499.00
422.61	21752.94
422.80	22775.75
422.99	22185.94
423.18	21497.82
423.37	21699.11
423.56	21539.95
423.75	22258.49
423.94	22483.19
424.13	21282.49
424.32	20975.88
424.50	20978.22
424.69	21284.83
424.88	21369.09
425.07	21605.49
425.26	21366.75
425.45	20500.75
425.64	20208.19
425.83	20673.95
426.01	22230.41
426.20	22319.35
426.39	22005.72
426.58	20156.69
426.77	18937.27
426.96	18625.98
427.15	19644.12
427.33	21329.30
427.52	21774.00
427.71	22148.49
427.90	21448.67
428.09	20863.54
428.28	20512.46
428.46	19545.81
428.65	19751.78
428.84	20388.41
429.03	20596.71
429.22	19346.87
429.40	17858.29
429.59	16360.34
429.78	14534.73
429.97	14967.73
430.16	15021.56
430.34	15047.30
430.53	15342.21
430.72	16222.25
430.91	17921.48
431.10	21078.86
431.28	24229.23
431.47	25949.52
431.66	25216.93
431.85	22452.76
432.03	21074.18
432.22	21156.10
432.41	22808.52
432.60	24222.20
432.79	24842.45
432.97	25392.47
433.16	24163.69
433.35	22068.91
433.54	20091.16
433.72	19255.59
433.91	20503.09
434.10	23150.24
434.28	24114.54
434.47	25078.84
434.66	24322.85
434.85	23826.65
435.03	24311.14
435.22	25111.61
435.41	26286.56
435.59	26586.15
435.78	26951.27
435.97	27447.46
436.16	27042.55
436.34	26536.99
436.53	26120.38
436.72	26476.14
436.90	24807.34
437.09	24835.42
437.28	24650.52
437.46	25830.15
437.65	24421.15
437.84	22703.20
438.02	21771.66
438.21	21827.84
438.40	22780.43
438.58	25020.33
438.77	26244.43
438.96	25979.95
439.14	27220.43
439.33	27253.20
439.52	27410.01
439.70	26810.84
439.89	25537.59
440.08	25575.03
440.26	26040.80
440.45	27171.28
440.63	28926.68
440.82	29645.23
441.01	29134.99
441.19	29401.81
441.38	30272.49
441.57	30878.69
441.75	30794.43
441.94	31201.68
442.12	31040.18
442.31	32203.43
442.50	31648.72
442.68	31033.16
442.87	31447.44
443.05	30541.65
443.24	31129.12
443.43	31962.36
443.61	32573.24
443.80	32666.86
443.98	32210.45
444.17	31255.51
444.35	32425.78
444.54	33015.60
444.73	32383.65
444.91	31122.10
445.10	29916.73
445.28	29153.71
445.47	28411.76
445.65	28709.01
445.84	29893.32
446.02	30270.15
446.21	31489.57
446.39	31637.02
446.58	32245.56
446.77	32690.26
446.95	32828.35
447.14	33614.77
447.32	34195.23
447.51	33317.53
447.69	31988.10
447.88	31920.23
448.06	32201.09
448.25	32903.25
448.43	32308.76
448.62	31805.54
448.80	31866.39
448.99	32416.42
449.17	32837.72
449.36	33385.40
449.54	34197.57
449.73	34553.33
449.91	34899.73
450.10	36577.89
450.28	36142.55
450.46	36048.93
450.65	36252.56
450.83	35419.33
451.02	35365.49
451.20	34796.74
451.39	35077.61
451.57	34574.39
451.76	35206.34
451.94	33954.15
452.13	33390.08
452.31	31517.65
452.49	30560.37
452.68	31515.31
452.86	31791.50
453.05	31559.78
453.23	33237.95
453.42	33567.96
453.60	34630.57
453.78	34686.74
453.97	34169.48
454.15	33804.36
454.34	32657.49
454.52	33289.44
454.70	32947.72
454.89	33127.94
455.07	33806.70
455.26	34057.14
455.44	35819.56
455.62	35510.61
455.81	35812.54
455.99	35496.56
456.17	35534.01
456.36	36081.70
456.54	36706.62
456.73	36210.43
456.91	36907.91
457.09	36910.25
457.28	38185.84
457.46	35945.95
457.64	35690.83
457.83	34731.21
458.01	34909.09
458.19	35796.15
458.38	36151.91
458.56	36821.31
458.74	36938.33
458.93	35477.84
459.11	35620.61
459.29	35601.89
459.48	35997.44
459.66	35754.02
459.84	35379.54
460.03	35718.92
460.21	36730.03
460.39	37734.12
460.57	36884.50
460.76	37343.25
460.94	37607.73
461.12	37720.07
461.31	37621.77
461.49	37951.79
461.67	37954.13
461.85	38742.89
462.04	38426.92
462.22	38492.45
462.40	38518.20
462.59	38057.11
462.77	38792.04
462.95	38192.86
463.13	37832.42
463.32	36943.02
463.50	36903.23
463.68	37092.81
463.86	37846.46
464.05	36910.25
464.23	36027.87
464.41	35777.43
464.59	35758.70
464.78	37570.28
464.96	36563.85
465.14	36023.19
465.32	38071.15
465.50	38899.70
465.69	39395.90
465.87	38188.18
466.05	36959.40
466.23	35828.92
466.41	34532.26
466.60	35739.98
466.78	36095.74
466.96	36397.67
467.14	37219.20
467.32	37233.24
467.51	37432.19
467.69	35707.21
467.87	37350.27
468.05	38162.43
468.23	37301.12
468.41	37600.71
468.60	37851.14
468.78	37572.62
468.96	37495.38
469.14	38581.39
469.32	38094.56
469.50	36374.27
469.69	36973.44
469.87	36252.56
470.05	36032.55
470.23	36268.94
470.41	36804.92
470.59	37055.36
470.77	37420.48
470.95	37493.04
471.14	38445.64
471.32	38843.53
471.50	41045.97
471.68	40893.84
471.86	41273.01
472.04	40858.73
472.22	41109.17
472.40	39079.92
472.58	39089.29
472.77	39187.59
472.95	39438.03
473.13	40858.73
473.31	39299.94
473.49	39880.39
473.67	40577.87
473.85	41031.93
474.03	42499.45
474.21	42986.28
474.39	43030.75
474.57	42256.03
474.75	42389.44
474.93	42087.51
475.12	40643.40
475.30	41212.15
475.48	40737.02
475.66	41656.85
475.84	41010.87
476.02	41092.79
476.20	40505.31
476.38	41879.21
476.56	42653.92
476.74	42979.26
476.92	43262.46
477.10	43426.30
477.28	44854.03
477.46	45055.31
477.64	45968.12
477.82	45794.92
478.00	45729.39
478.18	45361.92
478.36	44472.52
478.54	44341.45
478.72	45670.87
478.90	47213.29
479.08	47618.20
479.26	47449.68
479.44	47889.70
479.62	47440.32
479.80	48055.88
479.98	47463.72
480.16	47920.13
480.34	47550.32
480.52	48278.23
480.70	47866.30
480.88	48385.89
481.06	48776.76
481.24	49235.51
481.41	49958.73
481.59	50548.55
481.77	49406.37
481.95	49504.67
482.13	50045.33
482.31	50110.87
482.49	50883.25
482.67	50307.47
482.85	50560.25
483.03	50749.84
483.21	51723.50
483.39	51274.12
483.57	50541.53
483.74	50939.42
483.92	50850.48
484.10	51004.95
484.28	51086.87
484.46	51454.34
484.64	52573.11
484.82	51817.12
485.00	51037.72
485.18	50609.40
485.35	48210.35
485.53	43597.16
485.71	40966.40
485.89	42227.95
486.07	45434.48
486.25	47278.82
486.43	49729.36
486.61	50291.09
486.78	49492.97
486.96	50581.32
487.14	51952.87
487.32	52411.62
487.50	53401.66
487.68	54553.21
487.85	55061.10
488.03	54326.17
488.21	53918.92
488.39	53495.28
488.57	52114.37
488.75	52533.32
488.92	53954.03
489.10	55833.48
489.28	55952.85
489.46	57256.53
489.64	56980.34
489.81	57270.57
489.99	56638.62
490.17	56868.00
490.35	57144.18
490.53	56629.26
490.70	56556.70
490.88	56362.44
491.06	57305.68
491.24	57710.59
491.41	56725.22
491.59	55299.84
491.77	54808.32
491.95	55781.99
492.13	57024.81
492.30	57464.83
492.48	58520.41
492.66	58468.92
492.84	58246.57
493.01	57743.36
493.19	57839.32
493.37	57373.55
493.54	57432.07
493.72	58595.31
493.90	59348.96
494.08	59381.73
494.25	59976.23
494.43	60102.62
494.61	60467.74
494.79	60282.84
494.96	60659.66
495.14	60072.19
495.32	58721.70
495.49	58899.58
495.67	59938.78
495.85	60753.29
496.02	61364.17
496.20	60587.11
496.38	60135.38
496.55	60301.56
496.73	60807.12
496.91	61364.17
497.09	61268.20
497.26	61797.16
497.44	60753.29
497.62	60346.03
497.79	59730.47
497.97	58965.12
498.14	59440.24
498.32	60552.00
498.50	60694.77
498.67	60615.19
498.85	60779.03
499.03	61097.34
499.20	61169.90
499.38	60914.78
499.56	60273.48
499.73	60189.22
499.91	60299.22
500.08	59585.36
500.26	59014.27
500.44	59910.69
500.61	60317.95
500.79	60121.34
500.97	60121.34
501.14	59344.28
501.32	59035.33
501.49	59484.72
501.67	60207.94
501.84	59739.83
502.02	60463.06
502.20	60769.67
502.37	60837.54
502.55	61120.75
502.72	62117.82
502.90	62419.75
503.07	61923.55
503.25	61092.66
503.43	60343.69
503.60	59901.33
503.78	59903.67
503.95	60320.29
504.13	61504.60
504.30	61855.68
504.48	61200.33
504.65	61258.84
504.83	61516.30
505.01	62026.54
505.18	62354.21
505.36	62630.40
505.53	62571.88
505.71	62276.97
505.88	63039.99
506.06	62649.12
506.23	62309.74
506.41	62092.07
506.58	62054.62
506.76	61975.05
506.93	61483.53
507.11	61516.30
507.28	62021.86
507.46	60999.04
507.63	61291.61
507.81	60776.69
507.98	61263.52
508.16	62195.06
508.33	61939.94
508.50	62045.26
508.68	62824.66
508.85	63234.25
509.03	63440.22
509.20	62684.23
509.38	61843.98
509.55	62255.91
509.73	62248.89
509.90	62115.48
510.08	62307.40
510.25	62005.47
510.42	61748.01
510.60	62145.90
510.77	62599.97
510.95	62595.29
511.12	63227.23
511.30	63781.94
511.47	64030.04
511.64	63573.63
511.82	63655.55
511.99	62651.46
512.17	62466.56
512.34	61942.28
512.51	62335.49
512.69	62695.93
512.86	62206.76
513.04	62555.50
513.21	62049.94
513.38	61656.73
513.56	60975.64
513.73	60821.16
513.90	61729.29
514.08	61492.89
514.25	61712.91
514.43	62082.71
514.60	62394.00
514.77	62663.16
514.95	62707.63
515.12	62578.90
515.29	62855.09
515.47	63215.53
515.64	63332.56
515.81	62948.71
515.99	61834.61
516.16	60460.72
516.33	58391.68
516.51	58202.10
516.68	56629.26
516.85	55941.14
517.03	57504.62
517.20	60116.66
517.37	61928.23
517.54	62276.97
517.72	61371.19
517.89	58489.99
518.06	57202.69
518.24	58377.64
518.41	60343.69
518.58	61635.67
518.75	61385.23
518.93	61298.63
519.10	60889.04
519.27	62082.71
519.45	62157.61
519.62	62922.96
519.79	63009.56
519.96	62302.72
520.14	62272.29
520.31	61443.74
520.48	61226.07
520.65	62269.95
520.83	62929.98
521.00	62717.00
521.17	62351.87
521.34	62564.86
521.52	62733.38
521.69	63178.08
521.86	63629.80
522.03	63213.19
522.20	61982.07
522.38	61462.47
522.55	61897.81
522.72	61984.41
522.89	61277.57
523.07	62522.73
523.24	63175.74
523.41	63472.99
523.58	63629.80
523.75	63833.43
523.92	63671.93
524.10	63653.21
524.27	63580.65
524.44	63112.55
524.61	62244.21
524.78	63044.67
524.96	63039.99
525.13	63035.31
525.30	63260.00
525.47	63962.16
525.64	63915.35
525.81	62986.16
525.98	61563.11
526.16	60140.07
526.33	60107.30
526.50	59737.49
526.67	59494.08
526.84	60441.99
527.01	61350.12
527.18	61638.01
527.36	62300.38
527.53	63096.16
527.70	62766.15
527.87	61511.62
528.04	62330.81
528.21	62628.05
528.38	63444.90
528.55	63936.41
528.72	63777.26
528.89	63627.46
529.07	63742.15
529.24	62663.16
529.41	62473.58
529.58	62269.95
529.75	63107.86
529.92	63379.37
530.09	63508.10
530.26	64100.25
530.43	64608.15
530.60	63810.03
530.77	64315.58
530.94	64383.46
531.11	63334.90
531.28	63313.83
531.46	63297.45
531.63	63358.30
531.80	63276.38
531.97	63149.99
532.14	62691.25
532.31	61221.39
532.48	60594.13
532.65	61251.82
532.82	61544.39
532.99	63435.54
533.16	63540.86
533.33	63306.81
533.50	63629.80
533.67	62885.51
533.84	62588.27
534.01	63157.02
534.18	62946.37
534.35	62527.41
534.52	62272.29
534.69	62848.06
534.86	63171.06
535.03	63547.89
535.20	63503.42
535.37	64179.83
535.54	64266.43
535.71	63952.80
535.88	64065.14
536.05	62864.45
536.22	62323.78
536.38	62438.47
536.55	61867.38
536.72	61528.00
536.89	62309.74
537.06	62216.12
537.23	62480.60
537.40	62443.15
537.57	62276.97
537.74	62742.74
537.91	62958.07
538.08	63007.22
538.25	63149.99
538.42	63854.50
538.59	63147.65
538.75	62335.49
538.92	61719.93
539.09	62396.34
539.26	61928.23
539.43	61890.79
539.60	61595.88
539.77	62288.68
539.94	61993.77
540.11	61207.35
540.28	61097.34
540.44	60823.50
540.61	61055.21
540.78	61628.65
540.95	62003.13
541.12	62103.77
541.29	62136.54
541.46	62384.64
541.62	62775.51
541.79	62143.56
541.96	61698.86
542.13	61890.79
542.30	61879.08
542.47	62068.67
542.63	62379.96
542.80	62342.51
542.97	61855.68
543.14	61621.62
543.31	61972.70
543.48	62663.16
543.64	63114.89
543.81	63587.67
543.98	63351.28
544.15	62152.93
544.32	62396.34
544.48	62178.67
544.65	62340.17
544.82	62705.29
544.99	61762.06
545.16	61591.20
545.32	61715.25
545.49	62419.75
545.66	62487.62
545.83	62326.13
546.00	62473.58
546.16	62225.48
546.33	61930.58
546.50	62038.24
546.67	62756.78
546.83	62082.71
547.00	62583.58
547.17	60926.49
547.34	60650.30
547.50	60650.30
547.67	61331.40
547.84	62110.80
548.00	62368.26
548.17	62183.35
548.34	62253.57
548.51	62183.35
548.67	62049.94
548.84	62115.48
549.01	62426.77
549.18	62094.41
549.34	62335.49
549.51	62740.40
549.68	62808.28
549.84	61902.49
550.01	61043.51
550.18	61254.16
550.34	61441.40
550.51	61785.46
550.68	62262.93
550.84	62108.46
551.01	61186.28
551.18	61347.78
551.34	61263.52
551.51	62468.90
551.68	62319.10
551.84	63164.04
552.01	62248.89
552.18	61759.72
552.34	60935.85
552.51	60788.39
552.68	60725.20
552.84	61265.86
553.01	61118.41
553.18	61176.92
553.34	61359.48
553.51	61710.56
553.67	61516.30
553.84	62068.67
554.01	62372.94
554.17	61506.94
554.34	61762.06
554.51	61748.01
554.67	61062.24
554.84	61427.36
555.00	60853.93
555.17	60743.92
555.33	60926.49
555.50	60650.30
555.67	61228.41
555.83	61630.99
556.00	60959.25
556.16	60814.14
556.33	60399.86
556.50	60636.26
556.66	60589.45
556.83	60135.38
556.99	60041.76
557.16	60750.94
557.32	60446.68
557.49	60797.76
557.65	60786.05
557.82	60666.69
557.98	61139.47
558.15	60254.75
558.32	59622.81
558.48	59264.70
558.65	59131.29
558.81	59531.53
558.98	60079.21
559.14	60210.28
559.31	59950.48
559.47	59613.44
559.64	59824.09
559.80	58908.94
559.97	59728.13
560.13	60411.57
560.30	61310.33
560.46	61612.26
560.63	61853.34
560.79	61677.80
560.96	60921.80
561.12	60072.19
561.29	59639.19
561.45	59590.04
561.61	60528.59
561.78	59683.66
561.94	60151.77
562.11	60009.00
562.27	59440.24
562.44	60537.96
562.60	60598.81
562.77	60851.59
562.93	60025.38
563.10	60156.45
563.26	60610.51
563.42	60521.57
563.59	60324.97
563.75	59824.09
563.92	59477.69
564.08	59332.58
564.24	60331.99
564.41	59852.18
564.57	60821.16
564.74	60322.63
564.90	59922.40
565.07	59529.19
565.23	58452.54
565.39	58295.72
565.56	58663.19
565.72	58906.60
565.88	58232.53
566.05	59840.48
566.21	59671.96
566.38	59402.80
566.54	59952.82
566.70	60561.36
566.87	60048.78
567.03	59650.89
567.19	60603.49
567.36	60800.10
567.52	59590.04
567.68	58930.01
567.85	58784.90
568.01	59178.10
568.17	58925.33
568.34	58880.86
568.50	58574.25
568.66	58377.64
568.83	58260.62
568.99	58272.32
569.15	58604.67
569.32	58000.82
569.48	58342.53
569.64	58649.14
569.81	58253.59
569.97	58190.40
570.13	57425.04
570.30	56797.78
570.46	56521.60
570.62	56093.28
570.78	56526.28
570.95	56940.55
571.11	57633.35
571.27	57298.65
571.43	57588.88
571.60	57441.43
571.76	58110.82
571.92	58756.81
572.09	58969.80
572.25	58443.18
572.41	58419.77
572.57	58344.87
572.74	58721.70
572.90	59606.42
573.06	59245.98
573.22	59274.07
573.38	58862.13
573.55	59618.13
573.71	58319.13
573.87	58478.28
574.03	58679.57
574.20	58108.48
574.36	57806.55
574.52	57324.40
574.68	57539.73
574.84	57083.33
575.01	56849.27
575.17	56720.54
575.33	57181.63
575.49	57277.59
575.65	56165.84
575.82	56460.74
575.98	56594.15
576.14	57635.69
576.30	58702.98
576.46	57017.79
576.62	57298.65
576.79	57663.78
576.95	57579.52
577.11	57792.51
577.27	57506.96
577.43	57652.08
577.59	57329.08
577.75	56350.74
577.92	56584.79
578.08	56692.46
578.24	56865.66
578.40	57022.47
578.56	56135.41
578.72	56828.21
578.88	56453.72
579.04	56956.94
579.21	56729.90
579.37	56748.63
579.53	56935.87
579.69	56465.42
579.85	56306.27
580.01	56144.77
580.17	55985.61
580.33	56601.18
580.49	57045.88
580.65	56320.31
580.82	56666.71
580.98	57116.09
581.14	56811.82
581.30	56523.94
581.46	56030.08
581.62	56575.43
581.78	57153.54
581.94	57350.15
582.10	57448.45
582.26	57141.84
582.42	57249.50
582.58	56886.72
582.74	56470.11
582.90	56811.82
583.06	57298.65
583.22	57202.69
583.38	56879.70
583.54	57223.76
583.70	57350.15
583.86	57118.43
584.02	56130.73
584.18	56301.59
584.34	56144.77
584.50	55828.80
584.66	55866.25
584.82	56032.42
584.98	56212.65
585.14	55255.37
585.30	55491.76
