SpectraSuite Data File
++++++++++++++++++++++++++++++++++++
Date: Mon Oct 07 14:53:37 GMT-05:00 2013
User: price-jones
Dark Spectrum Present: No
Reference Spectrum Present: No
Number of Sampled Component Spectra: 1
Spectrometers: USB2+H05261
Integration Time (usec): 100000 (USB2+H05261)
Spectra Averaged: 1 (USB2+H05261)
Boxcar Smoothing: 0 (USB2+H05261)
Correct for Electrical Dark: No (USB2+H05261)
Strobe/Lamp Enabled: No (USB2+H05261)
Correct for Detector Non-linearity: No (USB2+H05261)
Correct for Stray Light: No (USB2+H05261)
Number of Pixels in Processed Spectrum: 2048
>>>>>Begin Processed Spectral Data<<<<<
365.73	0.00
365.92	0.00
366.12	0.00
366.32	0.00
366.52	0.00
366.72	0.00
366.91	0.00
367.11	0.00
367.31	0.00
367.51	0.00
367.70	0.00
367.90	0.00
368.10	0.00
368.30	0.00
368.49	0.00
368.69	0.00
368.89	0.00
369.09	0.00
369.28	0.00
369.48	0.00
369.68	0.00
369.87	0.00
370.07	0.00
370.27	0.00
370.47	667.05
370.66	2991.20
370.86	3520.17
371.06	4077.21
371.25	4037.42
371.45	3723.79
371.65	3112.91
371.84	3012.27
372.04	3112.91
372.24	3667.62
372.44	3473.36
372.63	3658.26
372.83	3473.36
373.03	3122.27
373.22	2754.81
373.42	2888.22
373.62	3286.11
373.81	3742.52
374.01	3613.79
374.21	3269.73
374.40	3108.23
374.60	3180.79
374.79	3499.10
374.99	4114.66
375.19	4573.41
375.38	4503.19
375.58	4229.35
375.78	4243.39
375.97	4168.49
376.17	4493.83
376.37	4447.02
376.56	4594.47
376.76	4877.68
376.95	5008.75
377.15	5530.69
377.35	5699.20
377.54	5926.24
377.74	5959.00
377.93	6209.44
378.13	5949.64
378.33	5603.24
378.52	5376.21
378.72	4849.59
378.91	4999.38
379.11	4695.11
379.31	4449.36
379.50	4564.04
379.70	5095.35
379.89	5523.66
380.09	5858.36
380.28	6076.03
380.48	6118.16
380.68	5937.94
380.87	5657.07
381.07	5451.11
381.26	4966.62
381.46	4601.49
381.65	4507.87
381.85	4329.99
382.04	4161.47
382.24	3974.23
382.43	3700.39
382.63	3559.95
382.83	3566.98
383.02	3623.15
383.22	3686.34
383.41	3691.02
383.61	3794.01
383.80	4575.75
384.00	4933.85
384.19	5621.97
384.39	5949.64
384.58	5916.87
384.78	5898.15
384.97	5806.87
385.17	5617.29
385.36	5231.10
385.56	4978.32
385.75	5060.24
385.95	5729.63
386.14	6129.86
386.34	6029.22
386.53	6054.97
386.72	5563.45
386.92	5610.26
387.11	5771.76
387.31	6204.76
387.50	6101.78
387.70	5851.34
387.89	5818.57
388.09	5893.47
388.28	5961.34
388.48	5989.43
388.67	6347.53
388.86	7115.23
389.06	7632.49
389.25	7857.18
389.45	8102.93
389.64	7971.86
389.84	7974.21
390.03	7651.21
390.22	7590.36
390.42	8081.87
390.61	8601.47
390.81	9324.69
391.00	9254.48
391.19	9032.13
391.39	8898.72
391.58	8465.72
391.78	7852.50
391.97	7613.76
392.16	7194.81
392.36	6583.93
392.55	5406.64
392.75	4264.46
392.94	3393.78
393.13	3389.10
393.33	3999.98
393.52	5167.90
393.71	6335.83
393.91	6761.81
394.10	7412.48
394.29	8397.84
394.49	8896.38
394.68	9825.57
394.88	9982.38
395.07	10186.01
395.26	10024.51
395.46	9977.70
395.65	9179.58
395.84	7988.25
396.04	6930.33
396.23	5570.48
396.42	4636.60
396.62	4395.53
396.81	5219.39
397.00	6410.73
397.19	8168.47
397.39	9858.34
397.58	11056.69
397.77	11735.45
397.97	11948.43
398.16	12208.23
398.35	12886.99
398.55	12961.89
398.74	13563.40
398.93	13862.99
399.12	13762.35
399.32	13198.28
399.51	13612.56
399.70	14347.48
399.90	14303.01
400.09	14703.25
400.28	13996.40
400.47	14326.42
400.67	14831.97
400.86	15651.16
401.05	15363.28
401.24	15627.76
401.44	15967.13
401.63	15805.64
401.82	15967.13
402.01	15604.35
402.21	15786.91
402.40	16276.09
402.59	15492.01
402.78	14670.48
402.97	14370.89
403.17	15131.56
403.36	15868.83
403.55	16276.09
403.74	17083.57
403.93	16140.33
404.13	15007.52
404.32	14705.59
404.51	15208.80
404.70	16730.15
404.89	16350.98
405.09	15990.54
405.28	15499.03
405.47	15737.76
405.66	15702.65
405.85	15302.42
406.05	14913.89
406.24	14857.72
406.43	15520.09
406.62	16231.62
406.81	16507.80
407.00	15679.25
407.20	15269.66
407.39	15534.14
407.58	16210.55
407.77	16769.94
407.96	17331.67
408.15	17373.80
408.34	17689.77
408.54	18551.09
408.73	18628.32
408.92	18604.92
409.11	17605.51
409.30	16716.11
409.49	15967.13
409.68	15274.34
409.87	14331.10
410.07	15391.36
410.26	16465.67
410.45	17556.36
410.64	17958.93
410.83	18637.69
411.02	18778.12
411.21	19957.75
411.40	19782.21
411.59	19611.35
411.78	19447.51
411.98	19103.45
412.17	19756.46
412.36	19211.12
412.55	19082.39
412.74	18782.80
412.93	18464.49
413.12	18260.86
413.31	20144.99
413.50	20615.44
413.69	20830.77
413.88	20240.95
414.07	19328.14
414.26	19372.61
414.45	20645.87
414.64	20332.23
414.83	20383.73
415.02	20130.95
415.22	20219.89
415.41	20788.64
415.60	21453.35
415.79	22019.76
415.98	22520.63
416.17	22932.57
416.36	22148.49
416.55	21621.87
416.74	21462.71
416.93	20432.88
417.12	20582.67
417.31	20741.83
417.50	21125.68
417.69	21874.65
417.88	21645.27
418.07	21315.26
418.26	21048.44
418.45	21373.77
418.64	22101.68
418.83	22871.72
419.02	22604.89
419.21	22190.62
419.39	21563.36
419.58	20301.81
419.77	20313.51
419.96	21120.99
420.15	22773.41
420.34	23295.35
420.53	24049.00
420.72	24357.96
420.91	24020.92
421.10	24084.11
421.29	23587.92
421.48	22934.91
421.67	24278.38
421.86	23777.50
422.05	22171.89
422.24	19632.41
422.43	19204.10
422.61	21408.88
422.80	23594.94
422.99	23381.95
423.18	22647.02
423.37	21909.75
423.56	21947.20
423.75	22043.17
423.94	22918.53
424.13	21809.11
424.32	21699.11
424.50	22054.87
424.69	21432.29
424.88	21504.84
425.07	21582.08
425.26	21422.92
425.45	21535.27
425.64	20896.30
425.83	21139.72
426.01	22239.77
426.20	22747.67
426.39	22532.34
426.58	21303.56
426.77	19180.69
426.96	18579.17
427.15	19403.04
427.33	20947.79
427.52	21963.59
427.71	21799.75
427.90	21703.79
428.09	21256.75
428.28	21390.16
428.46	20285.42
428.65	20205.84
428.84	20744.17
429.03	20776.94
429.22	20102.86
429.40	18703.22
429.59	17064.85
429.78	14881.13
429.97	14831.97
430.16	15276.68
430.34	15325.83
430.53	15222.84
430.72	15658.18
430.91	16776.96
431.10	20482.03
431.28	23936.66
431.47	25898.03
431.66	26260.81
431.85	23924.96
432.03	22249.13
432.22	20762.89
432.41	21823.16
432.60	24273.70
432.79	25207.57
432.97	25755.26
433.16	25291.83
433.35	23049.60
433.54	20659.91
433.72	19386.66
433.91	20027.96
434.10	22565.10
434.28	24037.30
434.47	25427.58
434.66	25001.60
434.85	24404.77
435.03	23948.36
435.22	24685.63
435.41	26197.62
435.59	26136.76
435.78	26492.52
435.97	27370.22
436.16	27672.15
436.34	27187.66
436.53	26869.35
436.72	26754.66
436.90	25331.62
437.09	24828.40
437.28	24561.58
437.46	25453.33
437.65	25673.34
437.84	23903.89
438.02	21799.75
438.21	21645.27
438.40	23108.11
438.58	24687.97
438.77	25600.78
438.96	25757.60
439.14	26719.56
439.33	27538.74
439.52	27889.82
439.70	27157.24
439.89	26473.80
440.08	26347.41
440.26	25862.92
440.45	26895.10
440.63	28797.95
440.82	30246.74
441.01	29902.68
441.19	29434.58
441.38	29713.10
441.57	30611.87
441.75	31489.57
441.94	31232.11
442.12	30775.70
442.31	31697.88
442.50	31669.79
442.68	31480.21
442.87	31351.48
443.05	30642.29
443.24	30771.02
443.43	31651.06
443.61	32133.21
443.80	32896.23
443.98	30948.90
444.17	30822.51
444.35	32828.35
444.54	32821.33
444.73	32821.33
444.91	31133.81
445.10	30361.43
445.28	28692.63
445.47	28575.60
445.65	29039.03
445.84	29511.81
446.02	30946.56
446.21	30981.67
446.39	31201.68
446.58	31367.86
446.77	31999.80
446.95	32081.72
447.14	33373.70
447.32	33235.61
447.51	33415.83
447.69	31264.88
447.88	30993.37
448.06	31534.04
448.25	32161.30
448.43	32835.38
448.62	32002.14
448.80	31721.28
448.99	32154.28
449.17	32070.02
449.36	32596.64
449.54	33446.26
449.73	34256.08
449.91	34412.90
450.10	35402.94
450.28	35735.30
450.46	35255.49
450.65	35828.92
450.83	35512.95
451.02	34981.65
451.20	34586.10
451.39	34787.38
451.57	34141.39
451.76	34377.79
451.94	34129.69
452.13	33881.60
452.31	31842.99
452.49	30260.79
452.68	30590.80
452.86	31012.10
453.05	31426.37
453.23	31828.95
453.42	33186.46
453.60	33778.61
453.78	34120.33
453.97	33734.14
454.15	34174.16
454.34	32664.52
454.52	33294.12
454.70	32404.72
454.89	33242.63
455.07	33181.77
455.26	33371.36
455.44	34593.12
455.62	35501.25
455.81	35826.58
455.99	35756.36
456.17	35000.37
456.36	34541.63
456.54	36177.66
456.73	35562.10
456.91	36748.75
457.09	36636.41
457.28	37479.00
457.46	36212.77
457.64	35711.89
457.83	34726.53
458.01	33677.97
458.19	34471.41
458.38	35117.40
458.56	36463.21
458.74	36163.62
458.93	35363.15
459.11	35433.37
459.29	35044.84
459.48	35381.88
459.66	35239.11
459.84	35821.90
460.03	35990.42
460.21	36072.34
460.39	36992.17
460.57	36760.45
460.76	37345.59
460.94	37097.49
461.12	36849.39
461.31	36671.51
461.49	36868.12
461.67	37043.66
461.85	38103.92
462.04	37464.96
462.22	38099.24
462.40	38237.33
462.59	37617.09
462.77	37961.15
462.95	37511.77
463.13	37141.96
463.32	37125.58
463.50	36807.26
463.68	36790.88
463.86	36484.27
464.05	36411.71
464.23	35758.70
464.41	35189.95
464.59	34471.41
464.78	36664.49
464.96	36301.71
465.14	36236.17
465.32	36781.52
465.50	37652.20
465.69	38270.10
465.87	37532.83
466.05	36247.88
466.23	35484.86
466.41	34117.99
466.60	35168.89
466.78	34838.87
466.96	35922.54
467.14	36385.97
467.32	36842.37
467.51	36910.25
467.69	34939.52
467.87	35962.33
468.05	36437.46
468.23	36435.12
468.41	36458.52
468.60	36596.62
468.78	37024.93
468.96	36416.40
469.14	37191.11
469.32	37521.13
469.50	36177.66
469.69	36261.92
469.87	35651.04
470.05	35374.86
470.23	34813.13
470.41	35662.74
470.59	36091.06
470.77	36301.71
470.95	36921.95
471.14	37247.29
471.32	37474.32
471.50	39332.70
471.68	39728.25
471.86	40053.59
472.04	40261.90
472.22	40554.46
472.40	38227.97
472.58	37820.72
472.77	37731.78
472.95	38256.06
473.13	39274.19
473.31	38113.28
473.49	38347.34
473.67	39412.28
473.85	39573.78
474.03	40528.72
474.21	40629.36
474.39	40978.10
474.57	41411.10
474.75	41223.86
474.93	40554.46
475.12	39866.34
475.30	39943.58
475.48	40123.80
475.66	40680.85
475.84	40032.52
476.02	39892.09
476.20	39014.39
476.38	40112.10
476.56	41202.79
476.74	41965.81
476.92	42061.77
477.10	42583.71
477.28	44418.69
477.46	43615.88
477.64	44355.49
477.82	43856.96
478.00	44360.17
478.18	43924.83
478.36	43838.23
478.54	43599.50
478.72	44067.61
478.90	44830.62
479.08	45933.01
479.26	46691.35
479.44	46122.60
479.62	46202.18
479.80	46183.45
479.98	46171.75
480.16	46689.01
480.34	45752.79
480.52	46405.80
480.70	47063.49
480.88	46806.03
481.06	47384.15
481.24	47807.78
481.41	48811.87
481.59	49216.78
481.77	49111.46
481.95	48130.78
482.13	48463.13
482.31	48406.96
482.49	48835.28
482.67	48779.10
482.85	49141.89
483.03	49401.69
483.21	49897.88
483.39	49811.28
483.57	49738.72
483.74	48926.56
483.92	49490.63
484.10	49553.82
484.28	50115.55
484.46	50560.25
484.64	51215.60
484.82	50230.24
485.00	49778.51
485.18	49228.49
485.35	47739.91
485.53	44851.69
485.71	41523.44
485.89	40271.26
486.07	42195.18
486.25	46047.70
486.43	48086.31
486.61	49048.27
486.78	48755.70
486.96	49116.14
487.14	50567.27
487.32	51372.42
487.50	52285.23
487.68	52718.23
487.85	53396.98
488.03	53389.96
488.21	53258.89
488.39	52573.11
488.57	51730.52
488.75	51590.09
488.92	52388.21
489.10	54475.97
489.28	55419.20
489.46	56151.79
489.64	56193.92
489.81	56212.65
489.99	55976.25
490.17	55964.55
490.35	56102.64
490.53	55854.54
490.70	55292.82
490.88	55351.33
491.06	56137.75
491.24	56184.56
491.41	55545.59
491.59	53961.05
491.77	52989.73
491.95	54057.01
492.13	55222.60
492.30	56303.93
492.48	57090.35
492.66	57579.52
492.84	57598.24
493.01	57153.54
493.19	56774.37
493.37	56718.20
493.54	56285.20
493.72	57050.56
493.90	57677.82
494.08	58628.08
494.25	58597.65
494.43	58855.11
494.61	59274.07
494.79	59257.68
494.96	59166.40
495.14	58667.87
495.32	57776.12
495.49	57223.76
495.67	57958.69
495.85	59465.99
496.02	59671.96
496.20	59552.59
496.38	59138.32
496.55	58939.37
496.73	59405.14
496.91	59629.83
497.09	59999.63
497.26	60364.76
497.44	59744.51
497.62	59316.20
497.79	58630.42
497.97	57511.64
498.14	57467.17
498.32	58660.85
498.50	59374.71
498.67	59856.86
498.85	59983.25
499.03	60090.91
499.20	60217.30
499.38	60240.71
499.56	60032.40
499.73	59725.79
499.91	59475.35
500.08	58986.18
500.26	58176.36
500.44	58614.04
500.61	59178.10
500.79	59110.23
500.97	58836.39
501.14	58717.02
501.32	58415.09
501.49	58431.47
501.67	58621.06
501.84	59433.22
502.02	59400.46
502.20	59859.20
502.37	59800.69
502.55	59957.50
502.72	60582.43
502.90	60870.31
503.07	60413.91
503.25	60212.62
503.43	59540.89
503.60	58731.06
503.78	58239.55
503.95	58632.76
504.13	59786.64
504.30	60498.17
504.48	60425.61
504.65	60119.00
504.83	60121.34
505.01	60739.24
505.18	60821.16
505.36	61598.22
505.53	61649.71
505.71	61886.10
505.88	61829.93
506.06	61235.44
506.23	60935.85
506.41	60587.11
506.58	60912.44
506.76	60966.27
506.93	60982.66
507.11	60699.45
507.28	60954.57
507.46	60327.31
507.63	59735.15
507.81	59587.70
507.98	59987.93
508.16	60486.46
508.33	60977.98
508.50	61443.74
508.68	61523.32
508.85	62061.64
509.03	61986.75
509.20	61839.29
509.38	61212.03
509.55	60434.97
509.73	60392.84
509.90	61127.77
510.08	61361.82
510.25	61319.70
510.42	61097.34
510.60	61076.28
510.77	61286.93
510.95	61736.31
511.12	61881.42
511.30	62155.27
511.47	62173.99
511.64	62108.46
511.82	62071.01
511.99	61375.87
512.17	61024.79
512.34	60610.51
512.51	60846.91
512.69	60786.05
512.86	61043.51
513.04	61331.40
513.21	61235.44
513.38	61113.73
513.56	60786.05
513.73	59983.25
513.90	60170.49
514.08	60346.03
514.25	60640.94
514.43	60739.24
514.60	60853.93
514.77	60893.72
514.95	61195.65
515.12	60992.02
515.29	61104.37
515.47	61492.89
515.64	61907.17
515.81	61495.24
515.99	60924.14
516.16	59688.34
516.33	57633.35
516.51	56582.45
516.68	55491.76
516.85	55304.52
517.03	55704.75
517.20	57841.66
517.37	60355.39
517.54	61205.01
517.72	60622.22
517.89	58562.54
518.06	56184.56
518.24	56353.08
518.41	58286.36
518.58	59721.11
518.75	60020.70
518.93	60226.66
519.10	59957.50
519.27	60521.57
519.45	60441.99
519.62	61310.33
519.79	61619.28
519.96	61572.47
520.14	61139.47
520.31	60303.90
520.48	60324.97
520.65	60584.77
520.83	61565.45
521.00	61801.85
521.17	61506.94
521.34	60996.70
521.52	61506.94
521.69	62019.52
521.86	62354.21
522.03	61998.45
522.20	61045.85
522.38	59749.20
522.55	59959.84
522.72	60650.30
522.89	60552.00
523.07	60727.54
523.24	61080.96
523.41	61843.98
523.58	62265.27
523.75	62536.77
523.92	62276.97
524.10	62431.45
524.27	62281.66
524.44	62129.52
524.61	62190.37
524.78	61991.43
524.96	61801.85
525.13	61797.16
525.30	62103.77
525.47	62604.65
525.64	62300.38
525.81	61801.85
525.98	60612.85
526.16	59124.27
526.33	58651.48
526.50	58440.84
526.67	57977.41
526.84	58286.36
527.01	59451.95
527.18	59980.91
527.36	60886.70
527.53	61602.90
527.70	61982.07
527.87	61478.85
528.04	61172.24
528.21	61513.96
528.38	62176.33
528.55	62726.36
528.72	62855.09
528.89	63032.97
529.07	62815.30
529.24	62300.38
529.41	61544.39
529.58	60959.25
529.75	61134.79
529.92	61551.41
530.09	61787.80
530.26	62298.04
530.43	62539.11
530.60	62670.18
530.77	62831.68
530.94	62908.92
531.11	62529.75
531.28	62183.35
531.46	61928.23
531.63	62171.65
531.80	62033.56
531.97	61656.73
532.14	60968.61
532.31	60184.54
532.48	59547.91
532.65	59580.68
532.82	60481.78
532.99	61324.38
533.16	61588.86
533.33	62185.69
533.50	62071.01
533.67	61518.64
533.84	60900.74
534.01	61256.50
534.18	61434.38
534.35	61609.92
534.52	61567.79
534.69	61666.09
534.86	61914.19
535.03	62080.37
535.20	62541.45
535.37	63014.24
535.54	62948.71
535.71	62639.76
535.88	62382.30
536.05	61851.00
536.22	61387.57
536.38	61296.29
536.55	60818.82
536.72	60364.76
536.89	60151.77
537.06	60896.06
537.23	61591.20
537.40	61968.02
537.57	61895.47
537.74	61682.48
537.91	61705.88
538.08	61563.11
538.25	61806.53
538.42	61907.17
538.59	61628.65
538.75	61090.32
538.92	60786.05
539.09	60783.71
539.26	60598.81
539.43	60324.97
539.60	60544.98
539.77	60776.69
539.94	60575.40
540.11	60009.00
540.28	59215.55
540.44	59430.88
540.61	59861.54
540.78	59854.52
540.95	60250.07
541.12	60678.39
541.29	60711.16
541.46	61193.31
541.62	61146.50
541.79	61212.03
541.96	60519.23
542.13	60652.64
542.30	60919.46
542.47	60893.72
542.63	60638.60
542.80	60413.91
542.97	60573.06
543.14	60465.40
543.31	60512.21
543.48	61029.47
543.64	61799.50
543.81	62014.83
543.98	61762.06
544.15	61357.14
544.32	60769.67
544.48	60772.01
544.65	61144.16
544.82	61614.60
544.99	61062.24
545.16	60879.67
545.32	60523.91
545.49	61396.93
545.66	61701.20
545.83	61373.53
546.00	60900.74
546.16	60622.22
546.33	60905.42
546.50	60760.31
546.67	61200.33
546.83	60772.01
547.00	60762.65
547.17	60292.20
547.34	59732.81
547.50	59629.83
547.67	60088.57
547.84	59990.27
548.00	60493.49
548.17	61027.13
548.34	60774.35
548.51	60947.55
548.67	60844.57
548.84	60999.04
549.01	60713.50
549.18	60708.82
549.34	60811.80
549.51	60692.43
549.68	60704.13
549.84	60395.18
550.01	60423.27
550.18	60339.01
550.34	60432.63
550.51	60299.22
550.68	60486.46
550.84	59922.40
551.01	60149.43
551.18	60268.79
551.34	60275.82
551.51	60772.01
551.68	60889.04
551.84	60975.64
552.01	60669.03
552.18	60673.71
552.34	60100.28
552.51	59465.99
552.68	59449.61
552.84	60011.34
553.01	60030.06
553.18	60142.41
553.34	60130.70
553.51	60243.05
553.67	60331.99
553.84	60767.33
554.01	60406.89
554.17	60406.89
554.34	60205.60
554.51	60521.57
554.67	60755.63
554.84	60526.25
555.00	60254.75
555.17	60163.47
555.33	60030.06
555.50	60111.98
555.67	59997.29
555.83	60041.76
556.00	59686.00
556.16	59767.92
556.33	59283.43
556.50	59058.74
556.66	59363.01
556.83	58962.78
556.99	59093.85
557.16	59150.02
557.32	59639.19
557.49	60044.10
557.65	59377.05
557.82	59856.86
557.98	59381.73
558.15	59047.04
558.32	58529.78
558.48	57495.26
558.65	57715.27
558.81	57869.75
558.98	58314.45
559.14	58499.35
559.31	58410.41
559.47	58653.82
559.64	58230.19
559.80	58136.57
559.97	58101.46
560.13	58482.97
560.30	59391.09
560.46	59955.16
560.63	60001.97
560.79	59994.95
560.96	59796.01
561.12	58635.10
561.29	57544.41
561.45	57972.73
561.61	58445.52
561.78	58824.68
561.94	58656.17
562.11	58637.44
562.27	58578.93
562.44	58754.47
562.60	58850.43
562.77	59346.62
562.93	59135.98
563.10	59002.56
563.26	58583.61
563.42	58511.05
563.59	58281.68
563.75	58377.64
563.92	58485.31
564.08	58417.43
564.24	58614.04
564.41	58553.18
564.57	58379.98
564.74	58621.06
564.90	58333.17
565.07	58162.31
565.23	57696.55
565.39	57373.55
565.56	57036.51
565.72	56725.22
565.88	57301.00
566.05	57270.57
566.21	57563.14
566.38	57694.21
566.54	57773.78
566.70	57932.94
566.87	58515.73
567.03	58419.77
567.19	58590.63
567.36	58026.56
567.52	58087.42
567.68	58007.84
567.85	57338.44
568.01	57085.67
568.17	56645.65
568.34	56655.01
568.50	56561.39
568.66	56537.98
568.83	57359.51
568.99	57158.22
569.15	57343.12
569.32	57462.49
569.48	57200.35
569.64	57179.29
569.81	56678.41
569.97	56694.80
570.13	56666.71
570.30	56484.15
570.46	55590.06
570.62	55451.97
570.78	55168.77
570.95	55461.33
571.11	56051.15
571.27	56238.39
571.43	56317.97
571.60	56879.70
571.76	57099.71
571.92	57127.80
572.09	57291.63
572.25	57399.30
572.41	57174.61
572.57	56846.93
572.74	56821.19
572.90	56877.36
573.06	56739.27
573.22	56783.74
573.38	56671.39
573.55	56533.30
573.71	56907.79
573.87	56535.64
574.03	56615.22
574.20	56596.49
574.36	56292.22
574.52	56250.09
574.68	55838.16
574.84	55671.98
575.01	55288.13
575.17	55388.78
575.33	55536.23
575.49	55601.77
575.65	55969.23
575.82	55531.55
575.98	55482.40
576.14	55798.37
576.30	55950.51
576.46	56149.45
576.62	55875.61
576.79	55891.99
576.95	55807.73
577.11	55643.90
577.27	55503.46
577.43	55466.02
577.59	55381.76
577.75	54766.20
577.92	54298.09
578.08	53993.82
578.24	54403.41
578.40	54314.47
578.56	54766.20
578.72	54747.47
578.88	54955.78
579.04	55128.98
579.21	55274.09
579.37	55351.33
579.53	55430.91
579.69	55159.41
579.85	55395.80
580.01	55222.60
580.17	54976.84
580.33	54733.43
580.49	54920.67
580.65	55028.34
580.82	55379.42
580.98	55051.74
581.14	55119.62
581.30	55440.27
581.46	55182.81
581.62	55688.37
581.78	55267.07
581.94	55566.66
582.10	55330.26
582.26	55730.50
582.42	55599.43
582.58	55344.31
582.74	55454.31
582.90	55246.00
583.06	55358.35
583.22	54962.80
583.38	55253.03
583.54	54986.21
583.70	55337.29
583.86	55098.55
584.02	55002.59
584.18	55023.65
584.34	54904.29
584.50	54869.18
584.66	54770.88
584.82	54553.21
584.98	54288.73
585.14	54120.21
