SpectraSuite Data File
++++++++++++++++++++++++++++++++++++
Date: Mon Oct 07 14:54:55 GMT-05:00 2013
User: price-jones
Dark Spectrum Present: No
Reference Spectrum Present: No
Number of Sampled Component Spectra: 1
Spectrometers: USB2+H05261
Integration Time (usec): 10000 (USB2+H05261)
Spectra Averaged: 1 (USB2+H05261)
Boxcar Smoothing: 0 (USB2+H05261)
Correct for Electrical Dark: No (USB2+H05261)
Strobe/Lamp Enabled: No (USB2+H05261)
Correct for Detector Non-linearity: No (USB2+H05261)
Correct for Stray Light: No (USB2+H05261)
Number of Pixels in Processed Spectrum: 2048
>>>>>Begin Processed Spectral Data<<<<<
365.73	0.00
365.92	0.00
366.12	0.00
366.32	0.00
366.52	0.00
366.72	0.00
366.91	0.00
367.11	0.00
367.31	0.00
367.51	0.00
367.70	0.00
367.90	0.00
368.10	0.00
368.30	0.00
368.49	0.00
368.69	0.00
368.89	0.00
369.09	0.00
369.28	0.00
369.48	0.00
369.68	0.00
369.87	0.00
370.07	0.00
370.27	0.00
370.47	0.00
370.66	0.00
370.86	0.00
371.06	28.09
371.25	21.06
371.45	4.68
371.65	21.06
371.84	0.00
372.04	46.81
372.24	98.30
372.44	65.54
372.63	0.00
372.83	51.49
373.03	11.70
373.22	0.00
373.42	0.00
373.62	28.09
373.81	21.06
374.01	112.35
374.21	30.43
374.40	35.11
374.60	16.38
374.79	35.11
374.99	42.13
375.19	114.69
375.38	212.99
375.58	72.56
375.78	110.01
375.97	110.01
376.17	177.88
376.37	149.79
376.56	161.50
376.76	126.39
376.95	245.76
377.15	241.08
377.35	241.08
377.54	266.82
377.74	250.44
377.93	222.35
378.13	121.71
378.33	238.73
378.52	196.60
378.72	250.44
378.91	217.67
379.11	110.01
379.31	86.60
379.50	138.09
379.70	170.86
379.89	173.20
380.09	191.92
380.28	248.10
380.48	227.03
380.68	220.01
380.87	175.54
381.07	152.13
381.26	140.43
381.46	135.75
381.65	88.94
381.85	84.26
382.04	128.73
382.24	79.58
382.43	56.17
382.63	65.54
382.83	58.51
383.02	93.62
383.22	58.51
383.41	81.92
383.61	149.79
383.80	114.69
384.00	241.08
384.19	177.88
384.39	205.97
384.58	159.16
384.78	229.37
384.97	161.50
385.17	203.63
385.36	154.48
385.56	152.13
385.75	189.58
385.95	177.88
386.14	248.10
386.34	252.78
386.53	208.31
386.72	196.60
386.92	163.84
387.11	224.69
387.31	220.01
387.50	180.22
387.70	217.67
387.89	220.01
388.09	215.33
388.28	210.65
388.48	287.89
388.67	264.48
388.86	344.06
389.06	437.68
389.25	404.91
389.45	358.10
389.64	421.30
389.84	393.21
390.03	344.06
390.22	386.19
390.42	369.80
390.61	442.36
390.81	484.49
391.00	596.84
391.19	437.68
391.39	411.93
391.58	454.06
391.78	346.40
391.97	447.04
392.16	292.57
392.36	297.25
392.55	304.27
392.75	70.22
392.94	32.77
393.13	0.00
393.33	39.79
393.52	147.45
393.71	222.35
393.91	299.59
394.10	297.25
394.29	414.27
394.49	479.81
394.68	489.17
394.88	458.74
395.07	610.88
395.26	608.54
395.46	571.09
395.65	500.87
395.84	449.38
396.04	262.14
396.23	217.67
396.42	135.75
396.62	74.90
396.81	163.84
397.00	276.18
397.19	404.91
397.39	521.94
397.58	676.41
397.77	629.60
397.97	767.70
398.16	746.63
398.35	901.11
398.55	748.97
398.74	674.07
398.93	835.57
399.12	791.10
399.32	784.08
399.51	758.33
399.70	835.57
399.90	889.40
400.09	823.87
400.28	959.62
400.47	968.98
400.67	875.36
400.86	959.62
401.05	875.36
401.24	929.19
401.44	901.11
401.63	917.49
401.82	999.41
402.01	880.04
402.21	933.87
402.40	873.02
402.59	1062.60
402.78	884.72
402.97	882.38
403.17	854.30
403.36	976.00
403.55	1046.22
403.74	1041.54
403.93	1022.81
404.13	891.74
404.32	819.19
404.51	908.13
404.70	947.92
404.89	940.90
405.09	1041.54
405.28	901.11
405.47	966.64
405.66	938.55
405.85	924.51
406.05	866.00
406.24	828.55
406.43	931.53
406.62	1013.45
406.81	1076.65
407.00	903.45
407.20	940.90
407.39	908.13
407.58	987.71
407.77	1057.92
407.96	1078.99
408.15	1156.22
408.34	1074.31
408.54	1083.67
408.73	1249.85
408.92	1121.12
409.11	1022.81
409.30	999.41
409.49	915.15
409.68	847.27
409.87	840.25
410.07	919.83
410.26	997.07
410.45	1088.35
410.64	1118.78
410.83	1207.72
411.02	1212.40
411.21	1203.04
411.40	1240.48
411.59	1327.08
411.78	1165.59
411.98	1296.66
412.17	1240.48
412.36	1240.48
412.55	1184.31
412.74	1149.20
412.93	1109.41
413.12	1060.26
413.31	1345.81
413.50	1259.21
413.69	1301.34
413.88	1287.29
414.07	1177.29
414.26	1203.04
414.45	1352.83
414.64	1142.18
414.83	1313.04
415.02	1233.46
415.22	1310.70
415.41	1238.14
415.60	1336.45
415.79	1334.11
415.98	1322.40
416.17	1397.30
416.36	1336.45
416.55	1303.68
416.74	1259.21
416.93	1371.55
417.12	1224.10
417.31	1259.21
417.50	1275.59
417.69	1310.70
417.88	1387.94
418.07	1455.81
418.26	1259.21
418.45	1331.76
418.64	1371.55
418.83	1413.68
419.02	1427.73
419.21	1336.45
419.39	1467.52
419.58	1235.80
419.77	1184.31
419.96	1324.74
420.15	1397.30
420.34	1474.54
420.53	1521.35
420.72	1507.30
420.91	1476.88
421.10	1418.36
421.29	1540.07
421.48	1385.60
421.67	1497.94
421.86	1462.83
422.05	1331.76
422.24	1331.76
422.43	1200.69
422.61	1320.06
422.80	1507.30
422.99	1488.58
423.18	1313.04
423.37	1413.68
423.56	1345.81
423.75	1287.29
423.94	1378.58
424.13	1303.68
424.32	1336.45
424.50	1423.05
424.69	1294.32
424.88	1383.26
425.07	1355.17
425.26	1373.89
425.45	1277.93
425.64	1261.55
425.83	1322.40
426.01	1299.00
426.20	1387.94
426.39	1376.24
426.58	1217.08
426.77	1160.91
426.96	1050.90
427.15	1184.31
427.33	1352.83
427.52	1308.36
427.71	1348.15
427.90	1322.40
428.09	1362.19
428.28	1334.11
428.46	1270.91
428.65	1266.23
428.84	1324.74
429.03	1212.40
429.22	1296.66
429.40	1198.35
429.59	1032.18
429.78	861.32
429.97	805.14
430.16	861.32
430.34	821.53
430.53	851.96
430.72	877.70
430.91	1022.81
431.10	1263.89
431.28	1430.07
431.47	1568.16
431.66	1565.82
431.85	1420.71
432.03	1378.58
432.22	1261.55
432.41	1315.38
432.60	1425.39
432.79	1469.86
432.97	1598.59
433.16	1535.39
433.35	1359.85
433.54	1186.65
433.72	1214.74
433.91	1224.10
434.10	1373.89
434.28	1392.62
434.47	1579.86
434.66	1547.09
434.85	1479.22
435.03	1488.58
435.22	1570.50
435.41	1657.10
435.59	1591.56
435.78	1650.08
435.97	1696.89
436.16	1678.16
436.34	1603.27
436.53	1706.25
436.72	1579.86
436.90	1551.78
437.09	1504.96
437.28	1511.99
437.46	1556.46
437.65	1586.88
437.84	1465.18
438.02	1256.87
438.21	1306.02
438.40	1409.00
438.58	1481.56
438.77	1514.33
438.96	1535.39
439.14	1568.16
439.33	1647.74
439.52	1701.57
439.70	1547.09
439.89	1673.48
440.08	1565.82
440.26	1575.18
440.45	1743.70
440.63	1713.27
440.82	1739.02
441.01	1797.53
441.19	1830.30
441.38	1888.81
441.57	1884.13
441.75	1858.39
441.94	1893.49
442.12	1872.43
442.31	2076.06
442.50	1816.26
442.68	1926.26
442.87	1926.26
443.05	1795.19
443.24	1895.83
443.43	1998.82
443.61	1933.28
443.80	1952.01
443.98	1888.81
444.17	1832.64
444.35	2045.63
444.54	2092.44
444.73	2001.16
444.91	2033.93
445.10	1879.45
445.28	1762.42
445.47	1724.97
445.65	1668.80
445.84	1884.13
446.02	1820.94
446.21	1914.56
446.39	1926.26
446.58	1956.69
446.77	1928.60
446.95	1893.49
447.14	2064.35
447.32	2017.54
447.51	2003.50
447.69	2026.90
447.88	1870.09
448.06	1947.33
448.25	1923.92
448.43	2005.84
448.62	1959.03
448.80	2087.76
448.99	1961.37
449.17	1956.69
449.36	1968.39
449.54	2050.31
449.73	2026.90
449.91	2141.59
450.10	2267.98
450.28	2202.44
450.46	2186.06
450.65	2305.43
450.83	2228.19
451.02	2188.40
451.20	2129.89
451.39	2160.31
451.57	1994.14
451.76	1921.58
451.94	2214.15
452.13	2043.29
452.31	1895.83
452.49	1813.92
452.68	1757.74
452.86	1820.94
453.05	1921.58
453.23	1886.47
453.42	1933.28
453.60	2092.44
453.78	2040.95
453.97	2087.76
454.15	2069.03
454.34	1991.80
454.52	1998.82
454.70	2033.93
454.89	2043.29
455.07	1921.58
455.26	1966.05
455.44	2106.48
455.62	2019.88
455.81	2162.66
455.99	2186.06
456.17	2083.08
456.36	2033.93
456.54	2127.55
456.73	2176.70
456.91	2179.04
457.09	2207.13
457.28	2272.66
457.46	2132.23
457.64	2218.83
457.83	2129.89
458.01	2143.93
458.19	2113.50
458.38	2024.56
458.56	2174.36
458.74	2111.16
458.93	2157.97
459.11	2251.60
459.29	2186.06
459.48	2040.95
459.66	2186.06
459.84	2115.84
460.03	2176.70
460.21	2216.49
460.39	2242.23
460.57	2246.91
460.76	2253.94
460.94	2162.66
461.12	2195.42
461.31	2197.76
461.49	2251.60
461.67	2256.28
461.85	2345.22
462.04	2214.15
462.22	2377.98
462.40	2338.20
462.59	2331.17
462.77	2396.71
462.95	2328.83
463.13	2296.07
463.32	2216.49
463.50	2143.93
463.68	2256.28
463.86	2270.32
464.05	2090.10
464.23	2150.95
464.41	2106.48
464.59	2050.31
464.78	2141.59
464.96	2160.31
465.14	2167.34
465.32	2083.08
465.50	2190.74
465.69	2270.32
465.87	2122.87
466.05	2134.57
466.23	2010.52
466.41	1991.80
466.60	1980.09
466.78	2040.95
466.96	2066.69
467.14	2064.35
467.32	2146.27
467.51	2244.57
467.69	2069.03
467.87	2090.10
468.05	2162.66
468.23	2146.27
468.41	2094.78
468.60	2146.27
468.78	2209.47
468.96	2251.60
469.14	2312.45
469.32	2195.42
469.50	2115.84
469.69	2113.50
469.87	2146.27
470.05	2012.86
470.23	2183.72
470.41	2059.67
470.59	2127.55
470.77	2141.59
470.95	2136.91
471.14	2225.85
471.32	2251.60
471.50	2368.62
471.68	2389.69
471.86	2312.45
472.04	2377.98
472.22	2370.96
472.40	2228.19
472.58	2127.55
472.77	2284.36
472.95	2298.41
473.13	2331.17
473.31	2235.21
473.49	2167.34
473.67	2345.22
473.85	2225.85
474.03	2429.48
474.21	2429.48
474.39	2462.24
474.57	2356.92
474.75	2469.27
474.93	2441.18
475.12	2172.02
475.30	2366.28
475.48	2277.34
475.66	2436.50
475.84	2441.18
476.02	2347.56
476.20	2345.22
476.38	2403.73
476.56	2396.71
476.74	2605.02
476.92	2555.86
477.10	2455.22
477.28	2574.59
477.46	2567.57
477.64	2612.04
477.82	2506.71
478.00	2586.29
478.18	2576.93
478.36	2532.46
478.54	2513.74
478.72	2623.74
478.90	2600.34
479.08	2778.22
479.26	2818.00
479.44	2745.45
479.62	2654.17
479.80	2787.58
479.98	2768.85
480.16	2719.70
480.34	2747.79
480.52	2740.77
480.70	2843.75
480.88	2717.36
481.06	2766.51
481.24	2799.28
481.41	2843.75
481.59	2878.86
481.77	2981.84
481.95	2946.73
482.13	2839.07
482.31	2803.96
482.49	2981.84
482.67	2963.12
482.85	2874.18
483.03	3047.38
483.21	3143.34
483.39	2956.10
483.57	3049.72
483.74	3014.61
483.92	3084.83
484.10	2935.03
484.28	3038.02
484.46	3068.44
484.64	3258.03
484.82	3066.10
485.00	3066.10
485.18	3028.65
485.35	2843.75
485.53	2700.98
485.71	2387.35
485.89	2310.11
486.07	2403.73
486.25	2492.67
486.43	2991.20
486.61	2846.09
486.78	3012.27
486.96	2958.44
487.14	3126.96
487.32	3206.53
487.50	3290.79
487.68	3258.03
487.85	3288.45
488.03	3370.37
488.21	3342.28
488.39	3225.26
488.57	3087.17
488.75	3108.23
488.92	3300.16
489.10	3564.64
489.28	3719.11
489.46	3602.08
489.64	3639.53
489.81	3749.54
489.99	3798.69
490.17	3681.66
490.35	3761.24
490.53	3761.24
490.70	3676.98
490.88	3772.94
491.06	3716.77
491.24	3815.07
491.41	3583.36
491.59	3396.12
491.77	3227.60
491.95	3494.42
492.13	3669.96
492.30	3747.20
492.48	3868.91
492.66	4070.19
492.84	3817.41
493.01	3868.91
493.19	3728.47
493.37	3754.22
493.54	3653.58
493.72	3733.15
493.90	3880.61
494.08	4023.38
494.25	4145.09
494.43	4121.68
494.61	4292.54
494.79	4163.81
494.96	3995.29
495.14	4095.94
495.32	4224.67
495.49	3899.33
495.67	4011.68
495.85	4074.87
496.02	4217.65
496.20	4360.42
496.38	4222.33
496.55	4208.28
496.73	4081.89
496.91	4262.12
497.09	4198.92
497.26	4304.25
497.44	4212.96
497.62	4142.75
497.79	4067.85
497.97	3899.33
498.14	3978.91
498.32	4018.70
498.50	4224.67
498.67	4248.07
498.85	4170.83
499.03	4285.52
499.20	4318.29
499.38	4290.20
499.56	4409.57
499.73	4175.52
499.91	4072.53
500.08	4205.94
500.26	4002.32
500.44	3983.59
500.61	4046.79
500.79	4039.76
500.97	4063.17
501.14	3953.16
501.32	3913.38
501.49	3964.87
501.67	3941.46
501.84	4170.83
502.02	4014.02
502.20	4241.05
502.37	4358.08
502.55	4196.58
502.72	4355.74
502.90	4243.39
503.07	4217.65
503.25	4187.22
503.43	4208.28
503.60	4063.17
503.78	3913.38
503.95	4088.92
504.13	4184.88
504.30	4280.84
504.48	4208.28
504.65	4383.82
504.83	4294.88
505.01	4320.63
505.18	4372.12
505.36	4409.57
505.53	4528.94
505.71	4585.11
505.88	4507.87
506.06	4531.28
506.23	4358.08
506.41	4131.05
506.58	4496.17
506.76	4447.02
506.93	4280.84
507.11	4395.53
507.28	4259.78
507.46	4451.70
507.63	4182.54
507.81	4147.43
507.98	4175.52
508.16	4093.60
508.33	4271.48
508.50	4519.57
508.68	4477.44
508.85	4760.65
509.03	4688.09
509.20	4428.29
509.38	4465.74
509.55	4224.67
509.73	4294.88
509.90	4339.35
510.08	4496.17
510.25	4358.08
510.42	4463.40
510.60	4217.65
510.77	4407.23
510.95	4423.61
511.12	4507.87
511.30	4559.36
511.47	4650.64
511.64	4599.15
511.82	4587.45
511.99	4215.30
512.17	4489.15
512.34	4365.10
512.51	4329.99
512.69	4409.57
512.86	4437.66
513.04	4393.19
513.21	4547.66
513.38	4442.34
513.56	4322.97
513.73	4030.40
513.90	4173.18
514.08	4128.70
514.25	4231.69
514.43	4372.12
514.60	4404.89
514.77	4311.27
514.95	4428.29
515.12	4414.25
515.29	4428.29
515.47	4444.68
515.64	4477.44
515.81	4461.06
515.99	4273.82
516.16	4142.75
516.33	3817.41
516.51	3625.49
516.68	3386.76
516.85	3321.22
517.03	3506.12
517.20	3810.39
517.37	4182.54
517.54	4215.30
517.72	4259.78
517.89	3918.06
518.06	3435.91
518.24	3660.60
518.41	3915.72
518.58	4063.17
518.75	4046.79
518.93	4168.49
519.10	4234.03
519.27	4128.70
519.45	4147.43
519.62	4397.87
519.79	4379.14
519.96	4416.59
520.14	4283.18
520.31	4131.05
520.48	4100.62
520.65	4292.54
520.83	4545.32
521.00	4475.10
521.17	4507.87
521.34	4318.29
521.52	4477.44
521.69	4367.44
521.86	4571.07
522.03	4456.38
522.20	4257.43
522.38	4276.16
522.55	4149.77
522.72	4182.54
522.89	4280.84
523.07	4334.67
523.24	4294.88
523.41	4526.60
523.58	4482.13
523.75	4678.73
523.92	4571.07
524.10	4409.57
524.27	4709.16
524.44	4674.05
524.61	4615.54
524.78	4617.88
524.96	4376.80
525.13	4395.53
525.30	4599.15
525.47	4493.83
525.64	4554.68
525.81	4388.50
525.98	4231.69
526.16	3850.18
526.33	3826.78
526.50	3859.54
526.67	3824.44
526.84	3868.91
527.01	3990.61
527.18	4107.64
527.36	4124.02
527.53	4322.97
527.70	4482.13
527.87	4386.16
528.04	4404.89
528.21	4414.25
528.38	4435.32
528.55	4547.66
528.72	4683.41
528.89	4690.43
529.07	4578.09
529.24	4397.87
529.41	4404.89
529.58	4304.25
529.75	4234.03
529.92	4360.42
530.09	4421.27
530.26	4437.66
530.43	4554.68
530.60	4299.56
530.77	4594.47
530.94	4739.58
531.11	4505.53
531.28	4547.66
531.46	4657.67
531.63	4552.34
531.80	4428.29
531.97	4432.97
532.14	4299.56
532.31	4203.60
532.48	4028.06
532.65	3974.23
532.82	4086.58
532.99	4355.74
533.16	4397.87
533.33	4447.02
533.50	4444.68
533.67	4327.65
533.84	4119.34
534.01	4411.91
534.18	4440.00
534.35	4358.08
534.52	4358.08
534.69	4308.93
534.86	4337.01
535.03	4369.78
535.20	4542.98
535.37	4594.47
535.54	4535.96
535.71	4610.86
535.88	4435.32
536.05	4248.07
536.22	4257.43
536.38	4294.88
536.55	4189.56
536.72	3971.89
536.89	3997.64
537.06	4395.53
537.23	4327.65
537.40	4449.36
537.57	4369.78
537.74	4365.10
537.91	4409.57
538.08	4245.73
538.25	4449.36
538.42	4308.93
538.59	4276.16
538.75	4360.42
538.92	4187.22
539.09	4128.70
539.26	4004.66
539.43	4100.62
539.60	3983.59
539.77	4100.62
539.94	4152.11
540.11	3988.27
540.28	3815.07
540.44	3805.71
540.61	4011.68
540.78	4138.07
540.95	4058.49
541.12	4196.58
541.29	4093.60
541.46	4184.88
541.62	4201.26
541.79	4430.63
541.96	4065.51
542.13	3988.27
542.30	4133.39
542.47	4241.05
542.63	4175.52
542.80	4095.94
542.97	4063.17
543.14	4131.05
543.31	4236.37
543.48	4285.52
543.64	4278.50
543.81	4294.88
543.98	4278.50
544.15	4294.88
544.32	4152.11
544.48	4009.34
544.65	4187.22
544.82	4245.73
544.99	4063.17
545.16	4142.75
545.32	4159.13
545.49	4215.30
545.66	4341.69
545.83	4140.41
546.00	4269.14
546.16	3990.61
546.33	4152.11
546.50	4154.45
546.67	4145.09
546.83	4140.41
547.00	4114.66
547.17	4018.70
547.34	3882.95
547.50	3990.61
547.67	4084.23
547.84	4002.32
548.00	4107.64
548.17	4173.18
548.34	4070.19
548.51	4133.39
548.67	4107.64
548.84	4252.75
549.01	4212.96
549.18	4145.09
549.34	4079.55
549.51	4025.72
549.68	3969.55
549.84	4203.60
550.01	4175.52
550.18	4042.11
550.34	3974.23
550.51	4058.49
550.68	3974.23
550.84	3983.59
551.01	4021.04
551.18	4058.49
551.34	4035.08
551.51	4058.49
551.68	4081.89
551.84	4070.19
552.01	3983.59
552.18	4058.49
552.34	3941.46
552.51	4014.02
552.68	3941.46
552.84	3889.97
553.01	3854.86
553.18	3826.78
553.34	3934.44
553.51	3836.14
553.67	3955.51
553.84	4145.09
554.01	3922.74
554.17	4051.47
554.34	4028.06
554.51	4198.92
554.67	4170.83
554.84	3960.19
555.00	4058.49
555.17	3918.06
555.33	3932.10
555.50	4121.68
555.67	4023.38
555.83	3695.71
556.00	3983.59
556.16	3693.37
556.33	3761.24
556.50	3676.98
556.66	3737.84
556.83	3672.30
556.99	3775.28
557.16	3667.62
557.32	3868.91
557.49	3929.76
557.65	3868.91
557.82	3990.61
557.98	3915.72
558.15	3749.54
558.32	3632.51
558.48	3522.51
558.65	3520.17
558.81	3552.93
558.98	3768.26
559.14	3674.64
559.31	3770.60
559.47	3723.79
559.64	3602.08
559.80	3536.55
559.97	3588.04
560.13	3768.26
560.30	3627.83
560.46	3854.86
560.63	3936.78
560.79	3953.16
560.96	3833.80
561.12	3637.19
561.29	3543.57
561.45	3597.40
561.61	3667.62
561.78	3627.83
561.94	3864.22
562.11	3740.18
562.27	3763.58
562.44	3571.66
562.60	3702.73
562.77	3782.31
562.93	3815.07
563.10	3679.32
563.26	3627.83
563.42	3688.68
563.59	3625.49
563.75	3698.05
563.92	3468.67
564.08	3794.01
564.24	3660.60
564.41	3726.13
564.57	3756.56
564.74	3609.11
564.90	3569.32
565.07	3665.28
565.23	3538.89
565.39	3475.70
565.56	3426.54
565.72	3445.27
565.88	3442.93
566.05	3613.79
566.21	3449.95
566.38	3513.14
566.54	3625.49
566.70	3485.06
566.87	3595.06
567.03	3564.64
567.19	3644.21
567.36	3520.17
567.52	3581.02
567.68	3592.72
567.85	3417.18
568.01	3435.91
568.17	3435.91
568.34	3283.77
568.50	3421.86
568.66	3318.88
568.83	3433.57
568.99	3508.46
569.15	3559.95
569.32	3400.80
569.48	3389.10
569.64	3503.78
569.81	3368.03
569.97	3311.86
570.13	3295.47
570.30	3286.11
570.46	3272.07
570.62	3204.19
570.78	3201.85
570.95	3035.67
571.11	3185.47
571.27	3272.07
571.43	3286.11
571.60	3309.52
571.76	3440.59
571.92	3400.80
572.09	3433.57
572.25	3524.85
572.41	3438.25
572.57	3499.10
572.74	3508.46
572.90	3482.72
573.06	3384.41
573.22	3473.36
573.38	3272.07
573.55	3365.69
573.71	3351.65
573.87	3393.78
574.03	3321.22
574.20	3473.36
574.36	3236.96
574.52	3265.05
574.68	3126.96
574.84	3169.09
575.01	3180.79
575.17	3311.86
575.33	3155.04
575.49	3272.07
575.65	3150.36
575.82	3288.45
575.98	3187.81
576.14	3300.16
576.30	3339.94
576.46	3281.43
576.62	3136.32
576.79	3229.94
576.95	3211.22
577.11	3227.60
577.27	3159.72
577.43	3295.47
577.59	3204.19
577.75	3126.96
577.92	3075.46
578.08	2972.48
578.24	3033.33
578.40	3187.81
578.56	3136.32
578.72	3059.08
578.88	3183.13
579.04	3089.51
579.21	3222.92
579.37	3201.85
579.53	3243.98
579.69	3342.28
579.85	3187.81
580.01	3248.66
580.17	3164.40
580.33	3159.72
580.49	3075.46
580.65	3059.08
580.82	3124.62
580.98	3253.34
581.14	3103.55
581.30	3080.14
581.46	3117.59
581.62	3103.55
581.78	3222.92
581.94	3131.64
582.10	3241.64
582.26	3190.15
582.42	3098.87
582.58	3201.85
582.74	3171.43
582.90	3016.95
583.06	3199.51
583.22	3169.09
583.38	3115.25
583.54	3080.14
583.70	3117.59
583.86	3108.23
584.02	3040.36
584.18	3131.64
584.34	2974.82
584.50	3009.93
584.66	3091.85
584.82	2991.20
584.98	3019.29
585.14	2963.12
585.30	2904.60
585.46	2874.18
585.62	2899.92
585.78	2862.48
585.94	2949.08
586.10	2977.16
586.26	3000.57
586.42	2967.80
586.58	2942.05
586.74	2923.33
586.90	3056.74
587.06	3098.87
587.22	3049.72
587.38	2899.92
587.54	2960.78
587.70	3019.29
587.86	2911.63
588.02	2829.71
588.18	2822.69
588.34	2724.38
588.49	2532.46
588.65	2565.23
588.81	2392.03
588.97	2375.64
589.13	2441.18
589.29	2448.20
589.45	2434.16
589.61	2597.99
589.77	2712.68
589.93	2712.68
590.08	2672.89
590.24	2862.48
590.40	2825.03
590.56	2832.05
590.72	2813.32
590.88	2656.51
591.04	2661.19
591.20	2747.79
591.35	2691.62
591.51	2710.34
591.67	2759.49
591.83	2663.53
591.99	2827.37
592.15	2787.58
592.31	2895.24
592.46	2799.28
592.62	2700.98
592.78	2773.53
592.94	2773.53
593.10	2717.36
593.26	2719.70
593.41	2796.94
593.57	2789.92
593.73	2593.31
593.89	2787.58
594.05	2605.02
594.20	2593.31
594.36	2686.94
594.52	2668.21
594.68	2574.59
594.84	2525.44
594.99	2686.94
595.15	2626.08
595.31	2593.31
595.47	2729.06
595.62	2649.49
595.78	2658.85
595.94	2736.09
596.10	2722.04
596.25	2684.59
596.41	2729.06
596.57	2672.89
596.73	2516.08
596.88	2602.68
597.04	2705.66
597.20	2595.65
597.36	2558.21
597.51	2630.76
597.67	2715.02
597.83	2684.59
597.99	2593.31
598.14	2588.63
598.30	2583.95
598.46	2619.06
598.61	2546.50
598.77	2560.55
598.93	2560.55
599.09	2635.44
