SpectraSuite Data File
++++++++++++++++++++++++++++++++++++
Date: Mon Oct 07 14:53:33 GMT-05:00 2013
User: price-jones
Dark Spectrum Present: No
Reference Spectrum Present: No
Number of Sampled Component Spectra: 1
Spectrometers: USB2+H05261
Integration Time (usec): 100000 (USB2+H05261)
Spectra Averaged: 1 (USB2+H05261)
Boxcar Smoothing: 0 (USB2+H05261)
Correct for Electrical Dark: No (USB2+H05261)
Strobe/Lamp Enabled: No (USB2+H05261)
Correct for Detector Non-linearity: No (USB2+H05261)
Correct for Stray Light: No (USB2+H05261)
Number of Pixels in Processed Spectrum: 2048
>>>>>Begin Processed Spectral Data<<<<<
365.73	0.00
365.92	0.00
366.12	0.00
366.32	0.00
366.52	0.00
366.72	0.00
366.91	0.00
367.11	0.00
367.31	0.00
367.51	0.00
367.70	0.00
367.90	0.00
368.10	0.00
368.30	0.00
368.49	0.00
368.69	0.00
368.89	0.00
369.09	0.00
369.28	0.00
369.48	0.00
369.68	0.00
369.87	0.00
370.07	0.00
370.27	0.00
370.47	629.60
370.66	3253.34
370.86	3854.86
371.06	4210.62
371.25	4053.81
371.45	3826.78
371.65	3330.58
371.84	3206.53
372.04	3304.84
372.24	3669.96
372.44	3983.59
372.63	3826.78
372.83	3693.37
373.03	3206.53
373.22	2874.18
373.42	3016.95
373.62	3590.38
373.81	3845.50
374.01	3847.84
374.21	3569.32
374.40	3084.83
374.60	3332.92
374.79	3735.50
374.99	4322.97
375.19	4702.14
375.38	4561.70
375.58	4454.04
375.78	4344.03
375.97	4531.28
376.17	4559.36
376.37	4550.00
376.56	4723.20
376.76	4975.98
376.95	5254.50
377.15	5591.54
377.35	5893.47
377.54	6171.99
377.74	6375.62
377.93	6408.39
378.13	6256.25
378.33	5748.36
378.52	5380.89
378.72	5130.45
378.91	5078.96
379.11	4987.68
379.31	4772.35
379.50	4748.95
379.70	4987.68
379.89	5626.65
380.09	5863.04
380.28	6293.70
380.48	6202.42
380.68	6186.04
380.87	6083.05
381.07	5518.98
381.26	5135.14
381.46	4608.51
381.65	4589.79
381.85	4571.07
382.04	4142.75
382.24	4072.53
382.43	3896.99
382.63	3817.41
382.83	3742.52
383.02	3915.72
383.22	3765.92
383.41	3782.31
383.61	4004.66
383.80	4491.49
384.00	5186.63
384.19	5912.19
384.39	6296.04
384.58	6202.42
384.78	6033.90
384.97	5954.32
385.17	5638.35
385.36	5687.50
385.56	5090.67
385.75	5343.44
385.95	5804.53
386.14	6333.49
386.34	6370.94
386.53	6080.71
386.72	5645.37
386.92	5743.67
387.11	6090.07
387.31	6392.00
387.50	6134.54
387.70	6073.69
387.89	6008.16
388.09	6092.41
388.28	6003.47
388.48	6087.73
388.67	6562.86
388.86	7363.33
389.06	7815.05
389.25	8234.00
389.45	8297.20
389.64	8201.24
389.84	8170.81
390.03	7969.52
390.22	8009.31
390.42	8276.13
390.61	8781.69
390.81	9376.19
391.00	9734.29
391.19	9488.53
391.39	9231.07
391.58	8477.42
391.78	8114.64
391.97	7941.44
392.16	7236.94
392.36	6883.52
392.55	5324.72
392.75	4465.74
392.94	3412.50
393.13	3571.66
393.33	4109.98
393.52	5266.21
393.71	6375.62
393.91	7239.28
394.10	7847.82
394.29	8554.66
394.49	9217.03
394.68	10036.22
394.88	10022.17
395.07	10307.72
395.26	10127.50
395.46	9893.44
395.65	9654.71
395.84	8318.26
396.04	7070.76
396.23	5685.16
396.42	4896.40
396.62	4657.67
396.81	5376.21
397.00	6766.49
397.19	8439.97
397.39	9998.77
397.58	11218.19
397.77	12152.06
397.97	12526.55
398.16	12683.36
398.35	12931.46
398.55	13565.74
398.74	14143.86
398.93	14356.85
399.12	14045.55
399.32	13399.57
399.51	13872.36
399.70	14726.65
399.90	14733.67
400.09	14750.06
400.28	14494.94
400.47	14829.63
400.67	15679.25
400.86	16091.18
401.05	15798.62
401.24	15903.94
401.44	16322.90
401.63	16074.80
401.82	16201.19
402.01	16358.00
402.21	16622.48
402.40	16388.43
402.59	16156.72
402.78	15351.57
402.97	14736.01
403.17	15360.94
403.36	16233.96
403.55	16891.65
403.74	17364.43
403.93	16238.64
404.13	15164.33
404.32	14853.04
404.51	15536.48
404.70	16835.47
404.89	16561.63
405.09	16231.62
405.28	15932.03
405.47	16102.89
405.66	15896.92
405.85	15515.41
406.05	15227.53
406.24	15435.83
406.43	16044.37
406.62	16868.24
406.81	16908.03
407.00	15953.09
407.20	15852.45
407.39	15686.27
407.58	16648.23
407.77	16971.22
407.96	17500.19
408.15	17912.12
408.34	18223.41
408.54	19035.58
408.73	18728.97
408.92	18590.88
409.11	18242.14
409.30	16915.05
409.49	16271.40
409.68	15410.09
409.87	14487.92
410.07	15871.17
410.26	17055.48
410.45	17940.21
410.64	18441.08
410.83	19314.10
411.02	19496.66
411.21	20512.46
411.40	20198.82
411.59	20128.61
411.78	19894.55
411.98	19604.33
412.17	20224.57
412.36	19400.70
412.55	19735.40
412.74	19260.27
412.93	18864.72
413.12	19157.28
413.31	20802.68
413.50	21071.84
413.69	21413.56
413.88	20739.49
414.07	20032.65
414.26	20292.44
414.45	21053.12
414.64	20950.14
414.83	21275.47
415.02	20762.89
415.22	20645.87
415.41	21181.85
415.60	21687.40
415.79	22742.99
415.98	23014.49
416.17	22867.03
416.36	22670.43
416.55	22143.81
416.74	21696.77
416.93	20737.15
417.12	21034.39
417.31	21048.44
417.50	21579.74
417.69	22080.61
417.88	22345.09
418.07	21991.67
418.26	21923.80
418.45	21619.53
418.64	22298.28
418.83	23428.76
419.02	23543.45
419.21	22885.76
419.39	21994.01
419.58	20727.78
419.77	20917.37
419.96	21762.30
420.15	23349.18
420.34	23718.99
420.53	24437.53
420.72	24840.11
420.91	24989.90
421.10	24383.70
421.29	24238.59
421.48	23328.12
421.67	24465.62
421.86	23672.18
422.05	22499.57
422.24	20011.58
422.43	19822.00
422.61	21678.04
422.80	23676.86
422.99	23494.30
423.18	22806.18
423.37	22338.07
423.56	22384.88
423.75	22228.07
423.94	23524.72
424.13	22183.60
424.32	22199.98
424.50	22422.33
424.69	22094.66
424.88	22057.21
425.07	22251.47
425.26	22363.82
425.45	21865.28
425.64	21675.70
425.83	21446.33
426.01	22312.33
426.20	23012.15
426.39	23487.28
426.58	21252.06
426.77	19845.40
426.96	18960.68
427.15	19932.00
427.33	21226.32
427.52	22665.75
427.71	22129.77
427.90	22052.53
428.09	21972.95
428.28	21523.57
428.46	20863.54
428.65	20388.41
428.84	20830.77
429.03	21235.68
429.22	20357.98
429.40	19314.10
429.59	17474.44
429.78	15257.95
429.97	15185.40
430.16	15501.37
430.34	15740.10
430.53	15236.89
430.72	16224.59
430.91	17671.04
431.10	20931.41
431.28	24037.30
431.47	26422.31
431.66	26637.64
431.85	24432.85
432.03	22452.76
432.22	21291.85
432.41	22328.71
432.60	24739.46
432.79	25504.82
432.97	26185.91
433.16	25715.47
433.35	23810.27
433.54	21235.68
433.72	19833.70
433.91	20357.98
434.10	22700.86
434.28	24425.83
434.47	25467.37
434.66	25544.61
434.85	24992.24
435.03	24456.26
435.22	25633.55
435.41	26679.77
435.59	26333.37
435.78	26810.84
435.97	28023.23
436.16	28594.32
436.34	27686.20
436.53	26906.80
436.72	26993.40
436.90	25479.07
437.09	25338.64
437.28	25067.14
437.46	25937.82
437.65	25996.33
437.84	24350.93
438.02	22522.98
438.21	22216.36
438.40	23225.14
438.58	25411.20
438.77	25668.66
438.96	26181.23
439.14	27276.60
439.33	27765.78
439.52	28130.90
439.70	27597.26
439.89	27337.46
440.08	26513.59
440.26	25919.09
440.45	27232.13
440.63	29153.71
440.82	30621.23
441.01	30026.73
441.19	29567.99
441.38	30176.53
441.57	31405.31
441.75	31922.57
441.94	32156.62
442.12	31608.93
442.31	32086.40
442.50	31894.48
442.68	32093.43
442.87	32060.66
443.05	31009.76
443.24	31725.96
443.43	32247.90
443.61	32573.24
443.80	33228.59
443.98	31548.08
444.17	31161.89
444.35	33275.40
444.54	33839.47
444.73	33282.42
444.91	31536.38
445.10	30558.03
445.28	29448.62
445.47	28978.17
445.65	28926.68
445.84	29806.72
446.02	31189.98
446.21	31531.70
446.39	31716.60
446.58	32140.24
446.77	32100.45
446.95	32481.95
447.14	33179.43
447.32	33963.51
447.51	33340.93
447.69	32486.64
447.88	31873.42
448.06	32191.73
448.25	32982.83
448.43	33408.81
448.62	32669.20
448.80	32201.09
448.99	32355.57
449.17	33111.56
449.36	32734.73
449.54	34244.38
449.73	34881.00
449.91	35241.45
450.10	35976.37
450.28	36463.21
450.46	36259.58
450.65	35669.76
450.83	35812.54
451.02	35438.05
451.20	35391.24
451.39	35288.26
451.57	34270.12
451.76	34988.67
451.94	34483.11
452.13	33645.20
452.31	32823.67
452.49	30951.24
452.68	31587.87
452.86	31510.63
453.05	31878.10
453.23	32594.30
453.42	33329.23
453.60	34314.59
453.78	34513.54
453.97	34553.33
454.15	34054.79
454.34	33635.84
454.52	33301.14
454.70	33205.18
454.89	33343.27
455.07	33376.04
455.26	34167.14
455.44	35613.59
455.62	35899.14
455.81	36011.48
455.99	35552.74
456.17	35393.58
456.36	35255.49
456.54	36357.88
456.73	36662.15
456.91	37050.68
457.09	37509.43
457.28	38256.06
457.46	36421.08
457.64	36107.44
457.83	34927.81
458.01	33792.65
458.19	35351.45
458.38	35241.45
458.56	36776.84
458.74	36615.34
458.93	35758.70
459.11	35798.49
459.29	35524.65
459.48	35548.06
459.66	35356.13
459.84	35997.44
460.03	36753.43
460.21	36409.37
460.39	36957.06
460.57	37092.81
460.76	37624.11
460.94	37460.27
461.12	37493.04
461.31	36891.52
461.49	37411.12
461.67	37228.56
461.85	38312.23
462.04	37909.66
462.22	38747.57
462.40	38302.87
462.59	38232.65
462.77	38300.53
462.95	38066.47
463.13	37254.31
463.32	37738.80
463.50	37144.30
463.68	37041.32
463.86	37553.90
464.05	36790.88
464.23	35976.37
464.41	36009.14
464.59	35096.33
464.78	37146.64
464.96	36666.83
465.14	36250.22
465.32	37518.79
465.50	38590.75
465.69	38529.90
465.87	37954.13
466.05	36807.26
466.23	35501.25
466.41	34574.39
466.60	35372.52
466.78	34927.81
466.96	36020.84
467.14	36886.84
467.32	37397.08
467.51	37474.32
467.69	35662.74
467.87	36133.19
468.05	36882.16
468.23	36828.33
468.41	36840.03
468.60	37361.97
468.78	37617.09
468.96	36645.77
469.14	37558.58
469.32	37919.02
469.50	36304.05
469.69	36659.81
469.87	35833.60
470.05	35814.88
470.23	36013.82
470.41	35981.06
470.59	36388.31
470.77	36715.98
470.95	37390.06
471.14	37661.56
471.32	37958.81
471.50	40037.20
471.68	39861.66
471.86	40547.44
472.04	40528.72
472.22	40690.21
472.40	38843.53
472.58	38583.73
472.77	37790.29
472.95	38843.53
473.13	39735.27
473.31	39033.11
473.49	38553.30
473.67	39679.10
473.85	39718.89
474.03	41219.17
474.21	40699.58
474.39	41397.06
474.57	41022.57
474.75	41219.17
474.93	41134.92
475.12	40149.55
475.30	40334.45
475.48	40498.29
475.66	41024.91
475.84	40414.03
476.02	40093.38
476.20	39438.03
476.38	40584.89
476.56	41911.97
476.74	42234.97
476.92	42602.43
477.10	43140.75
477.28	43873.34
477.46	44069.95
477.64	44559.12
477.82	44116.76
478.00	44657.42
478.18	43908.45
478.36	43969.30
478.54	44418.69
478.72	43725.89
478.90	45226.17
479.08	46064.08
479.26	47068.17
479.44	46857.52
479.62	46447.93
479.80	46796.67
479.98	46602.41
480.16	46939.44
480.34	46534.53
480.52	47002.64
480.70	47250.74
480.88	47082.22
481.06	47952.90
481.24	47943.53
481.41	49113.80
481.59	49303.38
481.77	49406.37
481.95	48872.73
482.13	48657.40
482.31	48704.21
482.49	49247.21
482.67	49013.16
482.85	49361.90
483.03	49729.36
483.21	50461.95
483.39	50138.96
483.57	49628.72
483.74	49612.34
483.92	49862.77
484.10	49553.82
484.28	50693.66
484.46	50777.92
484.64	51419.23
484.82	50536.85
485.00	49940.01
485.18	49024.86
485.35	48224.40
485.53	45532.78
485.71	41020.23
485.89	40985.12
486.07	42445.62
486.25	46267.71
486.43	48395.26
486.61	49277.64
486.78	49141.89
486.96	49380.62
487.14	50527.48
487.32	51199.22
487.50	52383.53
487.68	53125.48
487.85	53439.11
488.03	53579.54
488.21	53066.97
488.39	52325.02
488.57	51976.28
488.75	51810.10
488.92	52863.34
489.10	54546.18
489.28	55721.13
489.46	56374.14
489.64	56317.97
489.81	56238.39
489.99	55943.48
490.17	55718.79
490.35	56521.60
490.53	56039.45
490.70	55784.33
490.88	55526.87
491.06	56381.16
491.24	56388.19
491.41	55524.53
491.59	54192.76
491.77	53387.62
491.95	54593.00
492.13	55529.21
492.30	56296.91
492.48	57153.54
492.66	57673.14
492.84	57696.55
493.01	57497.60
493.19	57052.90
493.37	56629.26
493.54	56500.53
493.72	57097.37
493.90	57766.76
494.08	58494.67
494.25	58857.45
494.43	58838.73
494.61	59400.46
494.79	59643.87
494.96	59363.01
495.14	58529.78
495.32	57689.52
495.49	57420.36
495.67	58047.63
495.85	59276.41
496.02	59814.73
496.20	59803.03
496.38	59021.29
496.55	59131.29
496.73	59777.28
496.91	59494.08
497.09	60055.81
497.26	60446.68
497.44	59880.27
497.62	59498.76
497.79	58578.93
497.97	57846.34
498.14	57670.80
498.32	58787.24
498.50	59580.68
498.67	60095.60
498.85	59824.09
499.03	60289.86
499.20	60336.67
499.38	60259.43
499.56	60182.19
499.73	59882.61
499.91	59374.71
500.08	58974.48
500.26	58473.60
500.44	58822.34
500.61	59288.11
500.79	59227.26
500.97	58815.32
501.14	58686.59
501.32	58773.19
501.49	58487.65
501.67	58880.86
501.84	59309.18
502.02	59606.42
502.20	59817.07
502.37	60067.51
502.55	59985.59
502.72	60699.45
502.90	60825.84
503.07	60736.90
503.25	60374.12
503.43	59428.54
503.60	58834.05
503.78	58363.60
503.95	58717.02
504.13	59957.50
504.30	60657.32
504.48	60603.49
504.65	60399.86
504.83	60233.69
505.01	60779.03
505.18	61240.12
505.36	61825.25
505.53	61801.85
505.71	61914.19
505.88	61932.92
506.06	61272.88
506.23	61183.94
506.41	60779.03
506.58	61017.77
506.76	60814.14
506.93	61020.11
507.11	60718.18
507.28	60734.56
507.46	60509.87
507.63	59910.69
507.81	59678.98
507.98	59903.67
508.16	60413.91
508.33	61205.01
508.50	61359.48
508.68	61710.56
508.85	61883.76
509.03	62213.78
509.20	62033.56
509.38	61034.15
509.55	60470.08
509.73	60626.90
509.90	61230.75
510.08	61478.85
510.25	61169.90
510.42	61069.26
510.60	61064.58
510.77	61338.42
510.95	61748.01
511.12	61935.26
511.30	62218.46
511.47	62319.10
511.64	62344.85
511.82	62017.17
511.99	61366.51
512.17	60956.91
512.34	60814.14
512.51	60940.53
512.69	60886.70
512.86	61010.74
513.04	61506.94
513.21	61450.77
513.38	61256.50
513.56	60739.24
513.73	60149.43
513.90	60280.50
514.08	60268.79
514.25	60591.79
514.43	60942.87
514.60	60896.06
514.77	61038.83
514.95	61233.10
515.12	61158.20
515.29	61085.64
515.47	61645.03
515.64	61907.17
515.81	61605.24
515.99	61041.17
516.16	59896.65
516.33	57717.61
516.51	56472.45
516.68	55686.03
516.85	55276.43
517.03	55702.41
517.20	57968.05
517.37	60350.71
517.54	61293.95
517.72	60793.07
517.89	58520.41
518.06	56446.70
518.24	56722.88
518.41	58562.54
518.58	59887.29
518.75	60165.81
518.93	60144.75
519.10	60161.13
519.27	60472.42
519.45	60793.07
519.62	61469.49
519.79	61726.95
519.96	61506.94
520.14	61279.91
520.31	60193.90
520.48	60320.29
520.65	60654.98
520.83	61577.15
521.00	61783.12
521.17	61680.14
521.34	61305.65
521.52	61469.49
521.69	61808.87
521.86	62583.58
522.03	62054.62
522.20	60987.34
522.38	59922.40
522.55	59964.52
522.72	60533.28
522.89	60591.79
523.07	60980.32
523.24	61179.26
523.41	61965.68
523.58	62291.02
523.75	62405.70
523.92	62520.39
524.10	62363.57
524.27	62454.86
524.44	62321.44
524.61	61951.64
524.78	62110.80
524.96	61808.87
525.13	61813.55
525.30	62171.65
525.47	62637.42
525.64	62450.17
525.81	61813.55
525.98	60392.84
526.16	59100.87
526.33	58583.61
526.50	58349.56
526.67	57944.64
526.84	58408.07
527.01	59157.04
527.18	60198.58
527.36	61092.66
527.53	61839.29
527.70	62059.30
527.87	61640.35
528.04	61097.34
528.21	61401.61
528.38	62127.18
528.55	62621.03
528.72	62948.71
528.89	63103.18
529.07	62824.66
529.24	62351.87
529.41	61743.33
529.58	61139.47
529.75	61296.29
529.92	61551.41
530.09	61982.07
530.26	62583.58
530.43	62513.37
530.60	62611.67
530.77	62862.11
530.94	62845.72
531.11	62555.50
531.28	62265.27
531.46	62206.76
531.63	62159.95
531.80	62042.92
531.97	61769.08
532.14	61085.64
532.31	60137.72
532.48	59578.34
532.65	59447.27
532.82	60261.77
532.99	61352.46
533.16	61630.99
533.33	62267.61
533.50	62014.83
533.67	61354.80
533.84	61024.79
534.01	61382.89
534.18	61413.32
534.35	61682.48
534.52	61284.59
534.69	61722.27
534.86	62038.24
535.03	62274.63
535.20	62616.35
535.37	63061.05
535.54	63004.88
535.71	62756.78
535.88	62335.49
536.05	61605.24
536.22	61535.02
536.38	61113.73
536.55	60781.37
536.72	60327.31
536.89	59934.10
537.06	60851.59
537.23	61661.41
537.40	61832.27
537.57	61783.12
537.74	61708.22
537.91	61752.69
538.08	61457.79
538.25	61736.31
538.42	61939.94
538.59	61677.80
538.75	61083.30
538.92	60898.40
539.09	60678.39
539.26	60580.09
539.43	60214.96
539.60	60378.80
539.77	60629.24
539.94	60598.81
540.11	59920.05
540.28	59501.10
540.44	59234.28
540.61	59695.36
540.78	59887.29
540.95	60123.68
541.12	60753.29
541.29	60860.95
541.46	61144.16
541.62	61258.84
541.79	60914.78
541.96	60451.36
542.13	60437.31
542.30	60697.11
542.47	60802.44
542.63	60568.38
542.80	60441.99
542.97	60439.65
543.14	60528.59
543.31	60530.93
543.48	61104.37
543.64	61726.95
543.81	62052.28
543.98	61670.78
544.15	61076.28
544.32	60654.98
544.48	60446.68
544.65	61183.94
544.82	61518.64
544.99	61179.26
545.16	61008.40
545.32	60633.92
545.49	61284.59
545.66	61719.93
545.83	61230.75
546.00	60982.66
546.16	60788.39
546.33	60814.14
546.50	60832.86
546.67	61165.22
546.83	60809.46
547.00	60846.91
547.17	60238.37
547.34	59861.54
547.50	59592.38
547.67	60114.32
547.84	60004.31
548.00	60397.52
548.17	60959.25
548.34	60828.18
548.51	60889.04
548.67	60760.31
548.84	60797.76
549.01	60853.93
549.18	60519.23
549.34	60678.39
549.51	60612.85
549.68	60636.26
549.84	60521.57
550.01	60282.84
550.18	60285.18
550.34	60294.54
550.51	60238.37
550.68	60404.55
550.84	60016.02
551.01	60060.49
551.18	60107.30
551.34	60203.26
551.51	60535.62
551.68	60889.04
551.84	60713.50
552.01	60477.10
552.18	60526.25
552.34	59863.88
552.51	59512.80
552.68	59245.98
552.84	59774.94
553.01	60170.49
553.18	59877.93
553.34	60067.51
553.51	60388.16
553.67	60315.61
553.84	60615.19
554.01	60353.05
554.17	60217.30
554.34	60418.59
554.51	60486.46
554.67	60636.26
554.84	60491.15
555.00	60243.05
555.17	60102.62
555.33	60076.87
555.50	60088.57
555.67	59875.58
555.83	59983.25
556.00	59636.85
556.16	59573.66
556.33	59311.52
556.50	59290.45
556.66	59173.42
556.83	58976.82
556.99	59171.08
557.16	59119.59
557.32	59456.63
557.49	59615.79
557.65	59674.30
557.82	59653.23
557.98	59351.30
558.15	58937.03
558.32	58363.60
558.48	57516.32
558.65	57963.37
558.81	58024.22
558.98	58298.06
559.14	58660.85
559.31	58471.26
559.47	58635.10
559.64	58181.04
559.80	58049.97
559.97	58035.92
560.13	58237.21
560.30	59278.75
560.46	59796.01
560.63	59959.84
560.79	59877.93
560.96	59622.81
561.12	58574.25
561.29	57628.67
561.45	57598.24
561.61	58415.09
561.78	58712.34
561.94	58576.59
562.11	58592.97
562.27	58307.43
562.44	58461.90
562.60	59117.25
562.77	59110.23
562.93	58953.41
563.10	58946.39
563.26	58188.06
563.42	58424.45
563.59	58199.76
563.75	58120.18
563.92	58520.41
564.08	58314.45
564.24	58478.28
564.41	58377.64
564.57	58379.98
564.74	58284.02
564.90	58230.19
565.07	58082.73
565.23	57612.29
565.39	57146.52
565.56	57034.17
565.72	56720.54
565.88	57195.67
566.05	57249.50
566.21	57703.57
566.38	57647.39
566.54	57605.26
566.70	58085.07
566.87	58174.02
567.03	58202.10
567.19	58419.77
567.36	58052.31
567.52	58031.24
567.68	57832.30
567.85	57261.21
568.01	56992.04
568.17	56610.54
568.34	56484.15
568.50	56392.87
568.66	56783.74
568.83	57125.46
568.99	56921.83
569.15	57216.74
569.32	57078.64
569.48	56973.32
569.64	56889.06
569.81	56533.30
569.97	56371.80
570.13	56357.76
570.30	55934.12
570.46	55615.81
570.62	54944.08
570.78	54930.03
570.95	55311.54
571.11	55913.06
571.27	56130.73
571.43	56437.34
571.60	56828.21
571.76	56622.24
571.92	57006.09
572.09	57134.82
572.25	57099.71
572.41	56987.36
572.57	56755.65
572.74	57104.39
572.90	56596.49
573.06	56514.58
573.22	56561.39
573.38	56498.19
573.55	56411.59
573.71	56643.30
573.87	56573.09
574.03	56388.19
574.20	56601.18
574.36	55941.14
574.52	56034.77
574.68	56009.02
574.84	55517.51
575.01	55084.51
575.17	55131.32
575.33	55491.76
575.49	55552.62
575.65	55934.12
575.82	55592.40
575.98	55222.60
576.14	55512.83
576.30	55760.92
576.46	55817.10
576.62	55826.46
576.79	55793.69
576.95	55587.72
577.11	55487.08
577.27	55215.58
577.43	55683.69
577.59	55178.13
577.75	55091.53
577.92	54232.55
578.08	54073.40
578.24	54176.38
578.40	54433.84
578.56	54576.61
578.72	54667.89
578.88	54810.67
579.04	54960.46
579.21	55487.08
579.37	55047.06
579.53	55182.81
579.69	55117.28
579.85	55159.41
580.01	55105.57
580.17	54628.10
580.33	54637.47
580.49	54869.18
580.65	54951.10
580.82	55121.96
580.98	55049.40
581.14	55037.70
581.30	54990.89
581.46	55180.47
581.62	55166.43
581.78	55276.43
581.94	55271.75
582.10	55100.89
582.26	55421.55
582.42	55201.53
582.58	55276.43
582.74	55192.17
582.90	55297.50
583.06	55175.79
583.22	55154.72
583.38	54763.85
583.54	55126.64
583.70	54951.10
583.86	55173.45
584.02	54808.32
584.18	54693.64
584.34	54688.96
584.50	54602.36
584.66	54618.74
584.82	54108.50
584.98	54370.64
585.14	53815.94
