SpectraSuite Data File
++++++++++++++++++++++++++++++++++++
Date: Mon Oct 07 14:54:59 GMT-05:00 2013
User: price-jones
Dark Spectrum Present: No
Reference Spectrum Present: No
Number of Sampled Component Spectra: 1
Spectrometers: USB2+H05261
Integration Time (usec): 10000 (USB2+H05261)
Spectra Averaged: 1 (USB2+H05261)
Boxcar Smoothing: 0 (USB2+H05261)
Correct for Electrical Dark: No (USB2+H05261)
Strobe/Lamp Enabled: No (USB2+H05261)
Correct for Detector Non-linearity: No (USB2+H05261)
Correct for Stray Light: No (USB2+H05261)
Number of Pixels in Processed Spectrum: 2048
>>>>>Begin Processed Spectral Data<<<<<
365.73	0.00
365.92	0.00
366.12	0.00
366.32	0.00
366.52	0.00
366.72	0.00
366.91	0.00
367.11	0.00
367.31	0.00
367.51	0.00
367.70	0.00
367.90	0.00
368.10	0.00
368.30	0.00
368.49	0.00
368.69	0.00
368.89	0.00
369.09	0.00
369.28	0.00
369.48	0.00
369.68	0.00
369.87	0.00
370.07	0.00
370.27	0.00
370.47	0.00
370.66	858.98
370.86	1088.35
371.06	1172.61
371.25	1071.97
371.45	910.47
371.65	884.72
371.84	898.77
372.04	947.92
372.24	1039.20
372.44	999.41
372.63	990.05
372.83	894.08
373.03	802.80
373.22	746.63
373.42	830.89
373.62	1074.31
373.81	1060.26
374.01	1095.37
374.21	884.72
374.40	866.00
374.60	940.90
374.79	1135.16
374.99	1181.97
375.19	1310.70
375.38	1355.17
375.58	1128.14
375.78	1284.95
375.97	1231.12
376.17	1287.29
376.37	1266.23
376.56	1371.55
376.76	1497.94
376.95	1434.75
377.15	1771.79
377.35	1764.76
377.54	1900.52
377.74	1846.68
377.93	1849.02
378.13	1640.72
378.33	1617.31
378.52	1437.09
378.72	1385.60
378.91	1406.66
379.11	1313.04
379.31	1362.19
379.50	1352.83
379.70	1502.62
379.89	1497.94
380.09	1715.61
380.28	1816.26
380.48	1741.36
380.68	1645.40
380.87	1682.85
381.07	1523.69
381.26	1385.60
381.46	1291.98
381.65	1315.38
381.85	1259.21
382.04	1055.58
382.24	1146.86
382.43	957.28
382.63	992.39
382.83	1090.69
383.02	931.53
383.22	889.40
383.41	1008.77
383.61	1071.97
383.80	1299.00
384.00	1500.28
384.19	1643.06
384.39	1795.19
384.58	1743.70
384.78	1746.04
384.97	1724.97
385.17	1528.37
385.36	1542.41
385.56	1406.66
385.75	1362.19
385.95	1607.95
386.14	1827.96
386.34	1739.02
386.53	1596.25
386.72	1556.46
386.92	1647.74
387.11	1748.38
387.31	1827.96
387.50	1640.72
387.70	1781.15
387.89	1732.00
388.09	1687.53
388.28	1636.03
388.48	1764.76
388.67	2015.20
388.86	2052.65
389.06	2286.70
389.25	2413.09
389.45	2420.11
389.64	2186.06
389.84	2296.07
390.03	2275.00
390.22	2277.34
390.42	2375.64
390.61	2621.40
390.81	2778.22
391.00	2750.13
391.19	2626.08
391.39	2450.54
391.58	2443.52
391.78	2272.66
391.97	2204.78
392.16	1963.71
392.36	1647.74
392.55	1362.19
392.75	1022.81
392.94	854.30
393.13	842.59
393.33	1191.33
393.52	1575.18
393.71	1851.36
393.91	2073.71
394.10	2284.36
394.29	2544.16
394.49	2719.70
394.68	2923.33
394.88	2862.48
395.07	2878.86
395.26	2970.14
395.46	2672.89
395.65	2537.14
395.84	2143.93
396.04	1877.11
396.23	1519.01
396.42	1160.91
396.62	1221.76
396.81	1537.73
397.00	2010.52
397.19	2537.14
397.39	3089.51
397.58	3222.92
397.77	3541.23
397.97	3503.78
398.16	3604.42
398.35	3676.98
398.55	3969.55
398.74	4021.04
398.93	4173.18
399.12	4126.36
399.32	4032.74
399.51	4107.64
399.70	4259.78
399.90	4152.11
400.09	4231.69
400.28	4266.80
400.47	4098.28
400.67	4351.06
400.86	4507.87
401.05	4470.42
401.24	4489.15
401.44	4564.04
401.63	4554.68
401.82	4638.94
402.01	4676.39
402.21	4706.82
402.40	4594.47
402.59	4407.23
402.78	4311.27
402.97	4329.99
403.17	4596.81
403.36	4603.83
403.55	4849.59
403.74	4762.99
403.93	4533.62
404.13	4409.57
404.32	4482.13
404.51	4667.03
404.70	4863.63
404.89	4835.55
405.09	4634.26
405.28	4755.97
405.47	4603.83
405.66	4437.66
405.85	4332.33
406.05	4269.14
406.24	4566.39
406.43	4671.71
406.62	4671.71
406.81	4812.14
407.00	4606.17
407.20	4451.70
407.39	4470.42
407.58	4781.71
407.77	4777.03
407.96	4933.85
408.15	5022.79
408.34	5172.58
408.54	5416.00
408.73	5397.28
408.92	5228.76
409.11	4968.96
409.30	4819.16
409.49	4407.23
409.68	4346.37
409.87	4098.28
410.07	4613.20
410.26	4896.40
410.45	5050.88
410.64	5186.63
410.83	5586.86
411.02	5671.12
411.21	5755.38
411.40	5497.92
411.59	5633.67
411.78	5668.78
411.98	5558.77
412.17	5586.86
412.36	5605.58
412.55	5514.30
412.74	5476.85
412.93	5242.80
413.12	5619.63
413.31	6106.46
413.50	5921.56
413.69	5989.43
413.88	5699.20
414.07	5565.79
414.26	5806.87
414.45	5919.21
414.64	5809.21
414.83	5926.24
415.02	5895.81
415.22	5778.78
415.41	6017.52
415.60	6064.33
415.79	6392.00
415.98	6499.67
416.17	6523.07
416.36	6347.53
416.55	6064.33
416.74	5902.83
416.93	5710.91
417.12	6033.90
417.31	5975.39
417.50	5998.79
417.69	6244.55
417.88	6239.87
418.07	6104.12
418.26	6043.26
418.45	6209.44
418.64	6373.28
418.83	6424.77
419.02	6195.40
419.21	6228.17
419.39	6069.01
419.58	5729.63
419.77	5820.91
419.96	6120.50
420.15	6399.02
420.34	6588.61
420.53	6820.32
420.72	6960.75
420.91	6918.62
421.10	6712.66
421.29	6731.38
421.48	6637.76
421.67	6822.66
421.86	6534.78
422.05	6012.84
422.24	5650.05
422.43	5701.54
422.61	6307.74
422.80	6438.81
422.99	6502.01
423.18	6310.08
423.37	6122.84
423.56	6265.61
423.75	6258.59
423.94	6354.55
424.13	6104.12
424.32	6094.76
424.50	5980.07
424.69	6174.33
424.88	6209.44
425.07	6207.10
425.26	5841.98
425.45	5963.68
425.64	5762.40
425.83	6080.71
426.01	6328.81
426.20	6403.71
426.39	6125.18
426.58	5661.76
426.77	5593.88
426.96	5195.99
427.15	5654.73
427.33	5809.21
427.52	5877.09
427.71	6174.33
427.90	6064.33
428.09	5940.28
428.28	5652.39
428.46	5518.98
428.65	5687.50
428.84	5893.47
429.03	5575.16
429.22	5359.83
429.40	4922.15
429.59	4493.83
429.78	4091.26
429.97	4175.52
430.16	4051.47
430.34	4187.22
430.53	4231.69
430.72	4559.36
430.91	5118.75
431.10	5895.81
431.28	6745.42
431.47	7213.53
431.66	7023.95
431.85	6401.37
432.03	5813.89
432.22	5769.42
432.41	6221.14
432.60	7014.59
432.79	7115.23
432.97	7101.19
433.16	6871.81
433.35	6258.59
433.54	5467.49
433.72	5289.61
433.91	5502.60
434.10	6363.92
434.28	6761.81
434.47	6963.09
434.66	6621.38
434.85	6593.29
435.03	6703.29
435.22	6869.47
435.41	7302.47
435.59	7218.21
435.78	7438.22
435.97	7337.58
436.16	7344.60
436.34	7445.24
436.53	7201.83
436.72	7218.21
436.90	6726.70
437.09	6855.43
437.28	6822.66
437.46	7005.22
437.65	6932.67
437.84	6499.67
438.02	6019.86
438.21	6080.71
438.40	6502.01
438.58	6803.94
438.77	6832.02
438.96	7199.49
439.14	7417.16
439.33	7398.43
439.52	7321.20
439.70	7339.92
439.89	7056.72
440.08	7030.97
440.26	7056.72
440.45	7325.88
440.63	7833.77
440.82	7971.86
441.01	7967.18
441.19	8093.57
441.38	8194.22
441.57	8456.36
441.75	8425.93
441.94	8503.17
442.12	8430.61
442.31	8470.40
442.50	8540.61
442.68	8428.27
442.87	8189.53
443.05	8009.31
443.24	8496.14
443.43	8809.78
443.61	8678.71
443.80	8795.73
443.98	8299.54
444.17	8503.17
444.35	8739.56
444.54	8777.01
444.73	8592.11
444.91	8344.01
445.10	7960.16
445.28	7700.36
445.47	7808.03
445.65	7520.14
445.84	7871.22
446.02	7932.08
446.21	8311.24
446.39	8065.49
446.58	8318.26
446.77	8262.09
446.95	8400.18
447.14	8828.50
447.32	8910.42
447.51	8503.17
447.69	8320.60
447.88	8196.56
448.06	8503.17
448.25	8463.38
448.43	8442.31
448.62	8524.23
448.80	8444.65
448.99	8683.39
449.17	8613.17
449.36	8631.90
449.54	8706.79
449.73	8990.00
449.91	9085.96
450.10	9013.40
450.28	9619.60
450.46	9165.54
450.65	9387.89
450.83	9224.05
451.02	8936.17
451.20	9036.81
451.39	8875.31
451.57	8786.37
451.76	8924.46
451.94	8816.80
452.13	8674.03
452.31	8241.03
452.49	7847.82
452.68	8021.02
452.86	8154.43
453.05	8229.32
453.23	8800.41
453.42	8589.77
453.60	8901.06
453.78	8840.20
453.97	8566.36
454.15	8858.93
454.34	8306.56
454.52	8461.04
454.70	8362.73
454.89	8521.89
455.07	8678.71
455.26	8973.61
455.44	9125.75
455.62	9376.19
455.81	9153.84
455.99	8922.12
456.17	9076.60
456.36	9121.07
456.54	9177.24
456.73	9085.96
456.91	9207.67
457.09	9563.43
457.28	9612.58
457.46	9158.52
457.64	8908.08
457.83	8566.36
458.01	8748.92
458.19	8828.50
458.38	9006.38
458.56	8849.57
458.74	9100.00
458.93	8884.67
459.11	8982.98
459.29	9102.34
459.48	9006.38
459.66	9006.38
459.84	8879.99
460.03	9170.22
460.21	8966.59
460.39	9455.76
460.57	9598.54
460.76	9446.40
460.94	9378.53
461.12	9160.86
461.31	9298.95
461.49	9191.28
461.67	9238.09
461.85	9497.89
462.04	9420.66
462.22	9474.49
462.40	9383.21
462.59	9497.89
462.77	9521.30
462.95	9451.08
463.13	9521.30
463.32	9238.09
463.50	8662.32
463.68	9291.93
463.86	9057.87
464.05	8957.23
464.23	8915.10
464.41	8905.74
464.59	8739.56
464.78	9280.22
464.96	9069.58
465.14	9018.08
465.32	9067.24
465.50	9268.52
465.69	9514.28
465.87	9298.95
466.05	8746.58
466.23	8416.57
466.41	8444.65
466.60	8706.79
466.78	8882.33
466.96	8910.42
467.14	8926.80
467.32	8826.16
467.51	9144.47
467.69	8585.08
467.87	8732.54
468.05	8667.00
468.23	8922.12
468.41	8868.29
468.60	8748.92
468.78	9125.75
468.96	8999.36
469.14	9172.56
469.32	9266.18
469.50	8793.39
469.69	8603.81
469.87	8571.04
470.05	8791.05
470.23	8475.08
470.41	8566.36
470.59	8800.41
470.77	8840.20
470.95	8875.31
471.14	9069.58
471.32	9121.07
471.50	9542.36
471.68	9750.67
471.86	10001.11
472.04	9668.75
472.22	9909.83
472.40	9453.42
472.58	9100.00
472.77	8947.87
472.95	9130.43
473.13	9430.02
473.31	9156.18
473.49	9174.90
473.67	9586.83
473.85	9462.79
474.03	10003.45
474.21	9659.39
474.39	9708.54
474.57	9884.08
474.75	9753.01
474.93	9547.05
475.12	9364.48
475.30	9420.66
475.48	9453.42
475.66	9989.41
475.84	9540.02
476.02	9448.74
476.20	9425.34
476.38	9493.21
476.56	10017.49
476.74	10099.41
476.92	9839.61
477.10	10047.92
477.28	10581.56
477.46	10523.05
477.64	10513.69
477.82	10501.98
478.00	10356.87
478.18	10263.25
478.36	10265.59
478.54	10406.02
478.72	10289.00
478.90	10740.72
479.08	10885.83
479.26	10970.09
479.44	10988.82
479.62	10803.91
479.80	10911.58
479.98	10946.69
480.16	10696.25
480.34	10705.61
480.52	10939.66
480.70	11323.51
480.88	10977.11
481.06	11477.99
481.24	11309.47
481.41	11545.86
481.59	11456.92
481.77	11389.05
481.95	11522.46
482.13	11265.00
482.31	11485.01
482.49	11681.61
482.67	11609.06
482.85	11431.18
483.03	11793.96
483.21	11974.18
483.39	11812.68
483.57	11878.22
483.74	11786.94
483.92	11719.06
484.10	11932.05
484.28	11784.60
484.46	11901.62
484.64	11976.52
484.82	11651.19
485.00	11384.37
485.18	11403.09
485.35	11082.44
485.53	10015.15
485.71	9287.25
485.89	9544.70
486.07	9991.75
486.25	10853.06
486.43	11279.04
486.61	11620.76
486.78	11337.56
486.96	11447.56
487.14	11667.57
487.32	11903.96
487.50	12463.35
487.68	12578.04
487.85	12774.64
488.03	13025.08
488.21	12835.50
488.39	12376.75
488.57	12084.19
488.75	12400.16
488.92	12968.91
489.10	13654.69
489.28	13975.34
489.46	14249.18
489.64	13797.46
489.81	13778.73
489.99	13685.11
490.17	13813.84
490.35	14532.39
490.53	13855.97
490.70	13818.52
490.88	13729.58
491.06	14583.88
491.24	13757.67
491.41	13345.73
491.59	12978.27
491.77	12435.27
491.95	13221.69
492.13	13444.04
492.30	13928.53
492.48	14548.77
492.66	14562.81
492.84	14827.29
493.01	14403.66
493.19	14083.00
493.37	14281.95
493.54	13818.52
493.72	14396.64
493.90	14827.29
494.08	15089.43
494.25	15131.56
494.43	15576.27
494.61	15763.51
494.79	15433.49
494.96	15697.97
495.14	14691.54
495.32	14670.48
495.49	14560.47
495.67	14719.63
495.85	15604.35
496.02	15843.09
496.20	15463.92
496.38	15344.55
496.55	15276.68
496.73	15655.84
496.91	15723.72
497.09	16126.29
497.26	15845.43
497.44	15590.31
497.62	14941.98
497.79	14670.48
497.97	14417.70
498.14	14796.87
498.32	15094.11
498.50	15428.81
498.67	16067.78
498.85	15627.76
499.03	15854.79
499.20	15960.11
499.38	15800.96
499.56	15913.30
499.73	15665.21
499.91	15377.32
500.08	14984.11
500.26	14602.60
500.44	15000.49
500.61	15393.70
500.79	14696.22
500.97	14743.03
501.14	14930.28
501.32	14754.74
501.49	15358.60
501.67	15143.27
501.84	15396.04
502.02	15286.04
502.20	15386.68
502.37	15468.60
502.55	15133.90
502.72	15646.48
502.90	16060.76
503.07	15950.75
503.25	15679.25
503.43	14768.78
503.60	14312.38
503.78	14122.79
503.95	14370.89
504.13	15108.16
504.30	15623.08
504.48	15379.66
504.65	15290.72
504.83	15466.26
505.01	15873.51
505.18	16414.18
505.36	16542.91
505.53	16636.53
505.71	16456.31
505.88	16538.23
506.06	16119.27
506.23	15857.13
506.41	15452.22
506.58	15641.80
506.76	15585.63
506.93	15955.43
507.11	15620.74
507.28	15405.41
507.46	15382.00
507.63	14878.79
507.81	14839.00
507.98	15241.57
508.16	15379.66
508.33	15592.65
508.50	16032.67
508.68	16088.84
508.85	16430.56
509.03	16538.23
509.20	16116.93
509.38	15602.01
509.55	15225.18
509.73	15379.66
509.90	15510.73
510.08	15688.61
510.25	15307.10
510.42	15243.91
510.60	15728.40
510.77	15704.99
510.95	16147.36
511.12	15983.52
511.30	16140.33
511.47	16184.80
511.64	16423.54
511.82	15782.23
511.99	15435.83
512.17	15236.89
512.34	15435.83
512.51	15211.14
512.69	15468.60
512.86	15077.73
513.04	15875.85
513.21	15632.44
513.38	15138.58
513.56	14684.52
513.73	14630.69
513.90	15033.26
514.08	14743.03
514.25	14874.10
514.43	15286.04
514.60	15494.35
514.77	15169.01
514.95	15484.98
515.12	15295.40
515.29	15150.29
515.47	15513.07
515.64	15789.25
515.81	16095.86
515.99	15286.04
516.16	14441.11
516.33	13081.25
516.51	12669.32
516.68	12046.74
516.85	11866.52
517.03	12255.04
517.20	13427.65
517.37	14626.01
517.54	14656.43
517.72	14366.21
517.89	12975.93
518.06	12318.24
518.24	12758.26
518.41	13722.56
518.58	14209.39
518.75	14427.06
518.93	14616.65
519.10	14590.90
519.27	15000.49
519.45	14853.04
519.62	14750.06
519.79	15131.56
519.96	15056.67
520.14	14607.28
520.31	14260.88
520.48	14356.85
520.65	14661.12
520.83	15115.18
521.00	15192.42
521.17	15157.31
521.34	14782.82
521.52	14981.77
521.69	15583.29
521.86	14944.32
522.03	15253.27
522.20	14675.16
522.38	14162.58
522.55	14356.85
522.72	14508.98
522.89	14523.02
523.07	14979.43
523.24	15344.55
523.41	15449.88
523.58	15630.10
523.75	15405.41
523.92	15466.26
524.10	15721.38
524.27	15454.56
524.44	15183.06
524.61	15384.34
524.78	15250.93
524.96	14649.41
525.13	15040.28
525.30	15178.37
525.47	15075.39
525.64	15232.21
525.81	14618.99
525.98	13479.15
526.16	13282.54
526.33	12587.40
526.50	12781.67
526.67	12655.28
526.84	12868.27
527.01	13804.48
527.18	14047.90
527.36	14700.90
527.53	14883.47
527.70	14750.06
527.87	14448.13
528.04	14295.99
528.21	14602.60
528.38	15122.20
528.55	15878.19
528.72	15346.89
528.89	15161.99
529.07	15318.81
529.24	14944.32
529.41	14719.63
529.58	14143.86
529.75	14408.34
529.92	14293.65
530.09	14932.62
530.26	14803.89
530.43	14918.57
530.60	15068.37
530.77	15562.22
530.94	14829.63
531.11	14604.94
531.28	14738.35
531.46	14757.08
531.63	14525.36
531.80	14157.90
531.97	14600.26
532.14	13944.91
532.31	13067.21
532.48	13088.28
532.65	13163.17
532.82	14038.53
532.99	14384.93
533.16	14705.59
533.33	14724.31
533.50	14391.95
533.67	13816.18
533.84	13650.00
534.01	13872.36
534.18	14019.81
534.35	14293.65
534.52	14075.98
534.69	14438.76
534.86	14494.94
535.03	14604.94
535.20	14719.63
535.37	14909.21
535.54	15005.17
535.71	14579.20
535.88	14754.74
536.05	14436.42
536.22	14466.85
536.38	13823.20
536.55	13474.46
536.72	13572.77
536.89	13523.62
537.06	13561.06
537.23	13802.14
537.40	14129.81
537.57	14263.22
537.74	14008.11
537.91	13886.40
538.08	14071.30
538.25	14132.15
538.42	14085.34
538.59	14136.84
538.75	13820.86
538.92	13596.17
539.09	13097.64
539.26	13043.81
539.43	12580.38
539.60	12973.59
539.77	13088.28
539.94	13238.07
540.11	12769.96
540.28	12561.66
540.44	12755.92
540.61	12685.70
540.78	12889.33
540.95	13497.87
541.12	13659.37
541.29	13355.10
541.46	13310.63
541.62	13413.61
541.79	13369.14
541.96	13083.59
542.13	13088.28
542.30	13263.82
542.47	13322.33
542.63	12994.65
542.80	12837.84
542.97	12966.57
543.14	12924.44
543.31	12760.60
543.48	13312.97
543.64	13465.10
543.81	13331.69
543.98	13406.59
544.15	13069.55
544.32	12912.74
544.48	13013.38
544.65	13425.31
544.82	13137.43
544.99	13046.15
545.16	13205.30
545.32	13116.36
545.49	13266.16
545.66	13495.53
545.83	13523.62
546.00	13303.60
546.16	13055.51
546.33	13460.42
546.50	13135.09
546.67	13350.42
546.83	13205.30
547.00	13015.72
547.17	12776.98
547.34	12798.05
547.50	12568.68
547.67	12528.89
547.84	12659.96
548.00	12982.95
548.17	13303.60
548.34	12943.16
548.51	13156.15
548.67	13109.34
548.84	13181.90
549.01	13453.40
549.18	12800.39
549.34	12791.03
549.51	12449.31
549.68	12767.62
549.84	12741.88
550.01	12634.21
550.18	12758.26
550.34	12435.27
550.51	12271.43
550.68	12468.03
550.84	12545.27
551.01	12521.87
551.18	12582.72
551.34	12741.88
551.51	12531.23
551.68	12886.99
551.84	12851.88
552.01	12505.48
552.18	12400.16
552.34	12191.85
552.51	12046.74
552.68	12245.68
552.84	12126.32
553.01	12390.80
553.18	12493.78
553.34	12702.09
553.51	12435.27
553.67	12152.06
553.84	12191.85
554.01	12168.45
554.17	12631.87
554.34	12603.78
554.51	12755.92
554.67	12428.24
554.84	12573.36
555.00	12725.49
555.17	12421.22
555.33	12765.28
555.50	12709.11
555.67	12203.55
555.83	12524.21
556.00	12065.46
556.16	11817.36
556.33	11915.67
556.50	11777.58
556.66	11571.61
556.83	11648.85
556.99	11878.22
557.16	11686.29
557.32	11730.76
557.49	12203.55
557.65	11726.08
557.82	12023.33
557.98	11698.00
558.15	11435.86
558.32	11356.28
558.48	11012.22
558.65	10970.09
558.81	11372.66
558.98	11356.28
559.14	11452.24
559.31	11625.44
559.47	11229.89
559.64	11154.99
559.80	11089.46
559.97	11293.08
560.13	11587.99
560.30	11894.60
560.46	12397.82
560.63	12077.16
560.79	12100.57
560.96	12070.14
561.12	11342.24
561.29	11124.57
561.45	10965.41
561.61	11068.39
561.78	11180.74
561.94	11246.27
562.11	11286.06
562.27	11323.51
562.44	11482.67
562.60	11492.03
562.77	11681.61
562.93	11426.50
563.10	11632.46
563.26	11227.55
563.42	10846.04
563.59	11061.37
563.75	11108.18
563.92	11297.77
564.08	11112.86
564.24	11286.06
564.41	10965.41
564.57	11171.38
564.74	11091.80
564.90	10750.08
565.07	10932.64
565.23	10862.43
565.39	10693.91
565.56	10530.07
565.72	10520.71
565.88	10649.44
566.05	10796.89
566.21	10579.22
566.38	10471.56
566.54	10839.02
566.70	10827.32
566.87	10789.87
567.03	11047.33
567.19	11171.38
567.36	10445.81
567.52	10867.11
567.68	10874.13
567.85	10431.77
568.01	10200.05
568.17	10162.61
568.34	10200.05
568.50	9966.00
568.66	9994.09
568.83	10382.62
568.99	10417.72
569.15	10001.11
569.32	10429.43
569.48	10223.46
569.64	10459.85
569.81	10310.06
569.97	9984.73
570.13	10139.20
570.30	9867.70
570.46	9745.99
570.62	9502.58
570.78	9516.62
570.95	9577.47
571.11	9944.94
571.27	10193.03
571.43	10132.18
571.60	10279.63
571.76	10136.86
571.92	10363.89
572.09	10155.58
572.25	9998.77
572.41	10373.25
572.57	10317.08
572.74	10200.05
572.90	9865.36
573.06	10209.42
573.22	10171.97
573.38	10244.52
573.55	9977.70
573.71	10127.50
573.87	10274.95
574.03	9958.98
574.20	9921.53
574.36	9802.16
574.52	9624.28
574.68	9961.32
574.84	9530.66
575.01	9289.59
575.17	9287.25
575.33	9446.40
575.49	9591.52
575.65	9345.76
575.82	9525.98
575.98	9392.57
576.14	9364.48
576.30	9577.47
576.46	9458.10
576.62	9359.80
576.79	9818.55
576.95	9451.08
577.11	9476.83
577.27	9535.34
577.43	9366.82
577.59	9514.28
577.75	9371.50
577.92	9378.53
578.08	9118.73
578.24	9167.88
578.40	9177.24
578.56	9149.15
578.72	8966.59
578.88	9083.62
579.04	9132.77
579.21	9355.12
579.37	9584.49
579.53	9153.84
579.69	9018.08
579.85	9191.28
580.01	8882.33
580.17	9022.77
580.33	9380.87
580.49	9390.23
580.65	9263.84
580.82	9191.28
580.98	9210.01
581.14	9252.14
581.30	9219.37
581.46	9366.82
581.62	9495.55
581.78	9401.93
581.94	9619.60
582.10	9256.82
582.26	9584.49
582.42	9217.03
582.58	9369.16
582.74	9383.21
582.90	9411.29
583.06	9542.36
583.22	9537.68
583.38	9397.25
583.54	9261.50
583.70	9291.93
583.86	9301.29
584.02	9432.36
584.18	9240.44
584.34	9224.05
584.50	9425.34
584.66	9364.48
584.82	9071.92
584.98	9130.43
585.14	8791.05
585.30	8561.68
585.46	8454.02
585.62	8491.46
585.78	8561.68
585.94	8580.40
586.10	8891.70
586.26	8982.98
586.42	9144.47
586.58	8805.10
586.74	8737.22
586.90	8896.38
587.06	8519.55
587.22	8533.59
587.38	8533.59
587.54	8512.53
587.70	8397.84
587.86	8079.53
588.02	8507.85
588.18	8088.89
588.34	7934.42
588.49	7630.15
588.65	7197.15
588.81	6918.62
588.97	7349.28
589.13	7365.67
589.29	7206.51
589.45	7506.10
589.61	7499.08
589.77	7857.18
589.93	8021.02
590.08	8093.57
590.24	8432.95
590.40	8208.26
590.56	8241.03
590.72	8091.23
590.88	7950.80
