SpectraSuite Data File
++++++++++++++++++++++++++++++++++++
Date: Mon Oct 07 14:53:04 GMT-05:00 2013
User: price-jones
Dark Spectrum Present: No
Reference Spectrum Present: No
Number of Sampled Component Spectra: 1
Spectrometers: USB2+H05261
Integration Time (usec): 100000 (USB2+H05261)
Spectra Averaged: 1 (USB2+H05261)
Boxcar Smoothing: 0 (USB2+H05261)
Correct for Electrical Dark: No (USB2+H05261)
Strobe/Lamp Enabled: No (USB2+H05261)
Correct for Detector Non-linearity: No (USB2+H05261)
Correct for Stray Light: No (USB2+H05261)
Number of Pixels in Processed Spectrum: 2048
>>>>>Begin Processed Spectral Data<<<<<
365.73	0.00
365.92	0.00
366.12	0.00
366.32	0.00
366.52	0.00
366.72	0.00
366.91	0.00
367.11	0.00
367.31	0.00
367.51	0.00
367.70	0.00
367.90	0.00
368.10	0.00
368.30	0.00
368.49	0.00
368.69	0.00
368.89	0.00
369.09	0.00
369.28	0.00
369.48	0.00
369.68	0.00
369.87	0.00
370.07	0.00
370.27	0.00
370.47	414.27
370.66	2579.27
370.86	2942.05
371.06	3094.19
371.25	3129.30
371.45	2780.56
371.65	2448.20
371.84	2331.17
372.04	2476.29
372.24	2874.18
372.44	3019.29
372.63	3000.57
372.83	2775.88
373.03	2417.77
373.22	2242.23
373.42	2382.67
373.62	2656.51
373.81	2902.26
374.01	2949.08
374.21	2614.38
374.40	2513.74
374.60	2630.76
374.79	2848.43
374.99	3454.63
375.19	3648.90
375.38	3604.42
375.58	3363.35
375.78	3449.95
375.97	3358.67
376.17	3510.80
376.37	3543.57
376.56	3742.52
376.76	3918.06
376.95	4051.47
377.15	4383.82
377.35	4521.92
377.54	4784.06
377.74	4875.34
377.93	4760.65
378.13	4695.11
378.33	4428.29
378.52	4292.54
378.72	3836.14
378.91	4014.02
379.11	3894.65
379.31	3735.50
379.50	3651.24
379.70	4121.68
379.89	4470.42
380.09	4538.30
380.28	4767.67
380.48	4697.46
380.68	4526.60
380.87	4486.81
381.07	4189.56
381.26	3906.35
381.46	3604.42
381.65	3445.27
381.85	3482.72
382.04	3304.84
382.24	3080.14
382.43	2937.37
382.63	2808.64
382.83	2899.92
383.02	2860.13
383.22	2834.39
383.41	2928.01
383.61	3077.80
383.80	3651.24
384.00	4042.11
384.19	4404.89
384.39	4781.71
384.58	4692.77
384.78	4540.64
384.97	4545.32
385.17	4231.69
385.36	4168.49
385.56	4023.38
385.75	4173.18
385.95	4524.26
386.14	4933.85
386.34	4779.37
386.53	4608.51
386.72	4390.84
386.92	4451.70
387.11	4603.83
387.31	4919.81
387.50	4706.82
387.70	4552.34
387.89	4526.60
388.09	4643.62
388.28	4627.24
388.48	4746.61
388.67	5004.07
388.86	5636.01
389.06	6019.86
389.25	6274.98
389.45	6459.88
389.64	6274.98
389.84	6146.25
390.03	6083.05
390.22	6080.71
390.42	6445.84
390.61	6722.02
390.81	7208.85
391.00	7260.34
391.19	6998.20
391.39	7026.29
391.58	6768.83
391.78	6289.02
391.97	5968.37
392.16	5554.09
392.36	5053.22
392.55	4177.86
392.75	3262.71
392.94	2658.85
393.13	2600.34
393.33	3119.93
393.52	4074.87
393.71	5050.88
393.91	5708.57
394.10	5984.75
394.29	6387.32
394.49	7145.66
394.68	7803.35
394.88	7688.66
395.07	7985.91
395.26	7765.90
395.46	7510.78
395.65	7178.42
395.84	6232.85
396.04	5268.55
396.23	4182.54
396.42	3681.66
396.62	3368.03
396.81	4086.58
397.00	5137.48
397.19	6410.73
397.39	7772.92
397.58	8669.34
397.77	9322.35
397.97	9551.73
398.16	9720.24
398.35	10043.24
398.55	10441.13
398.74	10726.68
398.93	10853.06
399.12	10778.17
399.32	10342.83
399.51	10829.66
399.70	11468.62
399.90	11199.46
400.09	11227.55
400.28	11250.96
400.47	11124.57
400.67	11894.60
400.86	12002.27
401.05	12147.38
401.24	12135.68
401.44	12320.58
401.63	12259.73
401.82	12482.08
402.01	12030.35
402.21	12695.07
402.40	12428.24
402.59	11974.18
402.78	11613.74
402.97	11332.87
403.17	11831.41
403.36	12468.03
403.55	12807.41
403.74	13083.59
403.93	12470.37
404.13	11325.85
404.32	11461.60
404.51	11953.12
404.70	12851.88
404.89	12929.12
405.09	12463.35
405.28	12241.00
405.47	12187.17
405.66	12077.16
405.85	11903.96
406.05	11438.20
406.24	11793.96
406.43	12297.17
406.62	12664.64
406.81	12610.81
407.00	12334.62
407.20	12002.27
407.39	11974.18
407.58	12711.45
407.77	13006.36
407.96	13617.24
408.15	13865.33
408.34	13708.52
408.54	14183.65
408.73	14319.40
408.92	14148.54
409.11	13708.52
409.30	13050.83
409.49	12446.97
409.68	11485.01
409.87	11367.98
410.07	11850.13
410.26	12910.40
410.45	13879.38
410.64	14127.47
410.83	14471.53
411.02	14960.70
411.21	15246.25
411.40	15152.63
411.59	15286.04
411.78	15101.14
411.98	15037.94
412.17	15290.72
412.36	15035.60
412.55	15012.20
412.74	14476.21
412.93	14122.79
413.12	14363.87
413.31	15723.72
413.50	16032.67
413.69	16109.91
413.88	15775.21
414.07	15054.33
414.26	15552.86
414.45	15995.22
414.64	15807.98
414.83	16355.66
415.02	15609.03
415.22	15761.17
415.41	16025.65
415.60	16390.77
415.79	17453.37
415.98	17474.44
416.17	17460.40
416.36	16828.45
416.55	16947.82
416.74	16353.32
416.93	15569.24
417.12	15826.70
417.31	16320.56
417.50	16358.00
417.69	17029.74
417.88	16725.47
418.07	16587.38
418.26	16358.00
418.45	16477.37
418.64	17027.40
418.83	17680.41
419.02	17422.95
419.21	17132.72
419.39	16645.89
419.58	15639.46
419.77	15840.75
419.96	16395.45
420.15	17465.08
420.34	17984.68
420.53	18693.86
420.72	19117.50
420.91	18853.02
421.10	18178.94
421.29	18258.52
421.48	17755.30
421.67	18609.60
421.86	18010.42
422.05	17062.51
422.24	14981.77
422.43	14981.77
422.61	16465.67
422.80	17872.33
422.99	17783.39
423.18	17329.33
423.37	16912.71
423.56	16985.27
423.75	17111.66
423.94	17699.13
424.13	16905.69
424.32	17053.14
424.50	17039.10
424.69	16706.74
424.88	16908.03
425.07	16482.05
425.26	16727.81
425.45	16430.56
425.64	16159.06
425.83	16203.53
426.01	17582.10
426.20	17664.02
426.39	17542.32
426.58	16313.53
426.77	15239.23
426.96	14539.41
427.15	15098.80
427.33	16437.58
427.52	16905.69
427.71	16725.47
427.90	16891.65
428.09	16704.40
428.28	16063.10
428.46	15604.35
428.65	15473.28
428.84	15922.66
429.03	16116.93
429.22	15257.95
429.40	14387.27
429.59	13144.45
429.78	11655.87
429.97	11901.62
430.16	11723.74
430.34	11779.92
430.53	11754.17
430.72	12416.54
430.91	13444.04
431.10	15789.25
431.28	18487.89
431.47	20119.24
431.66	20341.60
431.85	18417.68
432.03	16692.70
432.22	16449.28
432.41	17247.41
432.60	18902.17
432.79	19571.56
432.97	19932.00
433.16	19494.32
433.35	17614.87
433.54	15812.66
433.72	15218.16
433.91	15847.77
434.10	17415.93
434.28	18551.09
434.47	19765.82
434.66	19325.80
434.85	18965.36
435.03	18710.24
435.22	19566.88
435.41	20624.80
435.59	20362.66
435.78	20423.51
435.97	21291.85
436.16	21280.15
436.34	20760.55
436.53	20475.01
436.72	20699.70
436.90	19751.78
437.09	19480.28
437.28	19356.23
437.46	19859.45
437.65	19737.74
437.84	18434.06
438.02	16849.52
438.21	16809.73
438.40	17774.03
438.58	19183.03
438.77	19653.48
438.96	19922.64
439.14	20659.91
439.33	21036.74
439.52	21338.66
439.70	21102.27
439.89	20652.89
440.08	20250.32
440.26	20095.84
440.45	20786.30
440.63	21940.18
440.82	23524.72
441.01	22836.61
441.19	22661.07
441.38	22754.69
441.57	23985.81
441.75	23910.91
441.94	24505.41
442.12	23833.68
442.31	24498.39
442.50	24416.47
442.68	24306.46
442.87	23995.17
443.05	23529.41
443.24	24123.90
443.43	24411.79
443.61	25233.32
443.80	25593.76
443.98	23913.25
444.17	23515.36
444.35	25195.87
444.54	25532.90
444.73	25364.39
444.91	23779.84
445.10	23183.01
445.28	22265.52
445.47	21879.33
445.65	21998.70
445.84	22700.86
446.02	23789.20
446.21	24044.32
446.39	23964.75
446.58	24177.73
446.77	24915.00
446.95	25284.81
447.14	26003.35
447.32	25773.98
447.51	25460.35
447.69	24397.74
447.88	24182.42
448.06	24634.14
448.25	25296.51
448.43	25392.47
448.62	24559.24
448.80	24613.07
448.99	24840.11
449.17	24690.31
449.36	25081.18
449.54	26092.29
449.73	26288.90
449.91	26855.31
450.10	27487.25
450.28	27253.20
450.46	27494.27
450.65	27800.88
450.83	27433.42
451.02	26742.96
451.20	26820.20
451.39	26684.45
451.57	26396.56
451.76	26347.41
451.94	26387.20
452.13	25678.02
452.31	24629.46
452.49	23578.56
452.68	23772.82
452.86	24013.90
453.05	24107.52
453.23	25078.84
453.42	25804.41
453.60	26171.87
453.78	26171.87
453.97	26169.53
454.15	26286.56
454.34	25490.77
454.52	26096.97
454.70	25404.17
454.89	25535.24
455.07	25432.26
455.26	25916.75
455.44	26808.50
455.62	27461.51
455.81	27302.35
455.99	27618.32
456.17	27269.58
456.36	26951.27
456.54	28156.64
456.73	27899.19
456.91	28573.26
457.09	28407.08
457.28	28943.06
457.46	27648.75
457.64	27552.79
457.83	27063.61
458.01	26204.64
458.19	26883.39
458.38	27019.14
458.56	27899.19
458.74	27927.27
458.93	27353.84
459.11	27208.73
459.29	26937.23
459.48	27281.28
459.66	27194.68
459.84	27201.71
460.03	27566.83
460.21	28009.19
460.39	28507.72
460.57	28596.67
460.76	28673.90
460.94	28776.89
461.12	28362.61
461.31	28486.66
461.49	28467.94
461.67	28559.22
461.85	29322.23
462.04	29097.54
462.22	30148.44
462.40	29132.65
462.59	28975.83
462.77	29092.86
462.95	29188.82
463.13	28811.99
463.32	28570.92
463.50	28400.06
463.68	28556.88
463.86	28734.76
464.05	28215.16
464.23	27555.13
464.41	26984.04
464.59	27157.24
464.78	28418.78
464.96	28346.23
465.14	27885.14
465.32	28620.07
465.50	29682.67
465.69	29804.38
465.87	28917.32
466.05	28168.35
466.23	26733.60
466.41	26235.06
466.60	27250.86
466.78	27140.85
466.96	27763.43
467.14	28383.68
467.32	28788.59
467.51	28451.55
467.69	27133.83
467.87	27763.43
468.05	28437.51
468.23	28386.02
468.41	28320.48
468.60	28364.95
468.78	28540.49
468.96	28100.47
469.14	28758.16
469.32	28570.92
469.50	27590.24
469.69	28135.58
469.87	27461.51
470.05	27646.41
470.23	27538.74
470.41	27349.16
470.59	27843.01
470.77	28133.24
470.95	28776.89
471.14	29027.32
471.32	29263.72
471.50	30831.88
471.68	30841.24
471.86	30951.24
472.04	30972.31
472.22	31302.32
472.40	29383.09
472.58	29680.33
472.77	29003.92
472.95	29493.09
473.13	30436.33
473.31	29703.74
473.49	30012.69
473.67	30558.03
473.85	30862.30
474.03	31414.67
474.21	31524.68
474.39	31835.97
474.57	31885.12
474.75	32037.25
474.93	31512.97
475.12	31145.51
475.30	31402.97
475.48	31395.95
475.66	31672.13
475.84	31613.62
476.02	31019.12
476.20	30588.46
476.38	31466.16
476.56	32041.93
476.74	32484.30
476.92	32840.06
477.10	33401.79
477.28	34361.40
477.46	34445.66
477.64	34829.51
477.82	34513.54
478.00	34714.83
478.18	34270.12
478.36	33972.88
478.54	33684.99
478.72	34440.98
478.90	35316.34
479.08	36423.42
479.26	36400.01
479.44	36030.21
479.62	36463.21
479.80	36222.13
479.98	35866.37
480.16	36673.85
480.34	36297.03
480.52	36802.58
480.70	36673.85
480.88	37354.95
481.06	37839.44
481.24	37930.72
481.41	39005.03
481.59	39576.12
481.77	39056.52
481.95	38796.72
482.13	38658.63
482.31	38066.47
482.49	38916.09
482.67	38785.02
482.85	39358.45
483.03	39838.26
483.21	40325.09
483.39	40018.48
483.57	39122.05
483.74	39189.93
483.92	39473.13
484.10	39037.80
484.28	40416.37
484.46	40959.38
484.64	41188.75
484.82	40219.77
485.00	39849.96
485.18	39229.72
485.35	38249.03
485.53	34808.45
485.71	31740.00
485.89	31711.92
486.07	33500.09
486.25	36144.89
486.43	38340.32
486.61	39459.09
486.78	38700.76
486.96	39206.31
487.14	40964.06
487.32	41549.19
487.50	42766.27
487.68	43821.85
487.85	44119.10
488.03	43899.09
488.21	43435.66
488.39	42897.34
488.57	42106.24
488.75	41743.45
488.92	43360.76
489.10	45668.53
489.28	47323.29
489.46	48205.67
489.64	47957.58
489.81	47695.44
489.99	47672.03
490.17	47812.46
490.35	48423.34
490.53	47440.32
490.70	47367.76
490.88	46859.87
491.06	48463.13
491.24	48098.01
491.41	46677.30
491.59	44870.41
491.77	44069.95
491.95	45244.90
492.13	46852.84
492.30	48275.89
492.48	49298.70
492.66	50145.98
492.84	49610.00
493.01	49689.57
493.19	48924.22
493.37	48261.85
493.54	48374.19
493.72	49352.54
493.90	50614.08
494.08	51175.81
494.25	51365.40
494.43	51641.58
494.61	52095.64
494.79	52348.42
494.96	51997.34
495.14	51100.92
495.32	50171.72
495.49	49694.25
495.67	50483.01
495.85	52231.40
496.02	52580.13
496.20	52575.45
496.38	51847.55
496.55	51997.34
496.73	52172.88
496.91	52619.92
497.09	53127.82
497.26	53202.72
497.44	52596.52
497.62	52123.73
497.79	51475.40
497.97	49731.70
498.14	50141.30
498.32	51646.26
498.50	52339.06
498.67	52928.87
498.85	52987.39
499.03	53116.12
499.20	53340.81
499.38	53329.11
499.56	53183.99
499.73	52505.24
499.91	52217.35
500.08	51444.98
500.26	50546.21
500.44	51374.76
500.61	52437.36
500.79	52069.90
500.97	51735.20
501.14	51365.40
501.32	51026.02
501.49	51334.97
501.67	51592.43
501.84	51861.59
502.02	52519.28
502.20	53052.92
502.37	53062.29
502.55	52900.79
502.72	53944.67
502.90	54314.47
503.07	53628.69
503.25	53226.12
503.43	52215.01
503.60	51522.21
503.78	50452.59
503.95	51393.48
504.13	53277.61
504.30	53757.42
504.48	53743.38
504.65	53244.85
504.83	53422.73
505.01	54073.40
505.18	54504.06
505.36	54993.23
505.53	55192.17
505.71	55421.55
505.88	55433.25
506.06	54754.49
506.23	54525.12
506.41	54110.85
506.58	54127.23
506.76	54101.48
506.93	54302.77
507.11	53961.05
507.28	54131.91
507.46	53471.88
507.63	52919.51
507.81	52741.63
507.98	52989.73
508.16	53701.25
508.33	54557.89
508.50	54667.89
508.68	55189.83
508.85	55519.85
509.03	55393.46
509.20	55351.33
509.38	54632.78
509.55	53874.45
509.73	54017.22
509.90	54646.83
510.08	54773.22
510.25	54663.21
510.42	54499.37
510.60	54686.62
510.77	54787.26
510.95	55505.80
511.12	55292.82
511.30	55723.47
511.47	55976.25
511.64	55908.38
511.82	55641.56
511.99	54494.69
512.17	54375.33
512.34	53680.19
512.51	54035.95
512.69	54291.07
512.86	54363.62
513.04	54901.95
513.21	54990.89
513.38	54433.84
513.56	53902.54
513.73	53343.15
513.90	53661.46
514.08	53546.78
514.25	53942.33
514.43	54108.50
514.60	54220.85
514.77	54508.74
514.95	54417.46
515.12	54225.53
515.29	54827.05
515.47	55344.31
515.64	55473.04
515.81	55002.59
515.99	54340.22
516.16	52793.12
516.33	50005.55
516.51	48428.02
516.68	47105.62
516.85	46490.06
517.03	47629.90
517.20	51033.04
517.37	53556.14
517.54	54419.80
517.72	54010.20
517.89	50768.56
518.06	48498.24
518.24	49223.81
518.41	51440.29
518.58	52996.75
518.75	53120.80
518.93	53336.13
519.10	53404.00
519.27	53897.86
519.45	54110.85
519.62	54770.88
519.79	55182.81
519.96	54993.23
520.14	54625.76
520.31	53677.85
520.48	53537.41
520.65	53979.78
520.83	55157.06
521.00	55491.76
521.17	54663.21
521.34	54567.25
521.52	54979.18
521.69	55543.25
521.86	55978.59
522.03	55615.81
522.20	54295.75
522.38	53272.93
522.55	53553.80
522.72	53867.43
522.89	53991.48
523.07	54356.60
523.24	54745.13
523.41	55622.83
523.58	55976.25
523.75	56392.87
523.92	56179.88
524.10	56175.20
524.27	56023.06
524.44	55798.37
524.61	55554.96
524.78	55515.17
524.96	55290.48
525.13	55414.52
525.30	55910.72
525.47	56317.97
525.64	56254.78
525.81	55318.56
525.98	53624.01
526.16	52294.59
526.33	51643.92
526.50	51416.89
526.67	50714.73
526.84	51503.49
527.01	52610.56
527.18	53506.99
527.36	54731.09
527.53	55353.67
527.70	55772.63
527.87	55140.68
528.04	54688.96
528.21	55194.51
528.38	55679.00
528.55	56479.47
528.72	56917.15
528.89	56912.47
529.07	56371.80
529.24	55814.76
529.41	55131.32
529.58	54679.60
529.75	54714.70
529.92	55255.37
530.09	55664.96
530.26	56385.85
530.43	56266.48
530.60	56371.80
530.77	56610.54
530.94	56690.12
531.11	56266.48
531.28	55927.10
531.46	55590.06
531.63	56025.40
531.80	55746.88
531.97	55065.78
532.14	54307.45
532.31	53478.90
532.48	52640.99
532.65	52924.19
532.82	53778.49
532.99	54883.22
533.16	55096.21
533.33	55854.54
533.50	55664.96
533.67	55028.34
533.84	54663.21
534.01	54878.54
534.18	55182.81
534.35	55187.49
534.52	55143.02
534.69	55187.49
534.86	55777.31
535.03	55894.33
535.20	56486.49
535.37	56715.86
535.54	56793.10
535.71	56292.22
535.88	56163.50
536.05	55454.31
536.22	54855.14
536.38	54642.15
536.55	53963.39
536.72	53429.75
536.89	53748.06
537.06	54511.08
537.23	55629.85
537.40	55735.18
537.57	55557.30
537.74	55075.15
537.91	55393.46
538.08	55496.44
538.25	55339.63
538.42	55597.09
538.59	55082.17
538.75	54632.78
538.92	54239.57
539.09	54330.86
539.26	53921.26
539.43	53829.98
539.60	54213.83
539.77	54405.75
539.94	53886.15
540.11	53045.90
540.28	52601.20
540.44	52952.28
540.61	53153.57
540.78	53256.55
540.95	53827.64
541.12	54265.32
541.29	54511.08
541.46	54817.69
541.62	54866.84
541.79	54581.29
541.96	53961.05
542.13	54197.44
542.30	54284.04
542.47	54419.80
542.63	54272.34
542.80	54014.88
542.97	54380.01
543.14	54244.26
543.31	53989.14
543.48	54899.61
543.64	55714.11
543.81	55620.49
543.98	55449.63
544.15	54808.32
544.32	54035.95
544.48	54569.59
544.65	54974.50
544.82	55234.30
544.99	54506.40
545.16	54195.10
545.32	54167.02
545.49	55016.63
545.66	55267.07
545.83	55159.41
546.00	54515.76
546.16	54092.12
546.33	54262.98
546.50	54532.14
546.67	55033.02
546.83	54508.74
547.00	54445.54
547.17	53780.83
547.34	52886.74
547.50	53109.10
547.67	53443.79
547.84	53542.10
548.00	53932.96
548.17	54630.44
548.34	54384.69
548.51	54525.12
548.67	54501.71
548.84	54337.88
549.01	54410.43
549.18	54312.13
549.34	54314.47
549.51	54429.16
549.68	54136.59
549.84	53858.07
550.01	53902.54
550.18	53684.87
550.34	53689.55
550.51	53829.98
550.68	54028.93
550.84	53329.11
551.01	53666.14
551.18	53680.19
551.34	53499.97
551.51	54183.40
551.68	54422.14
551.84	54452.56
552.01	54389.37
552.18	54190.42
552.34	53066.97
552.51	52725.25
552.68	53109.10
552.84	53322.08
553.01	53851.05
553.18	53176.97
553.34	53645.08
553.51	53970.41
553.67	54082.76
553.84	54040.63
554.01	53939.99
554.17	53872.11
554.34	53736.36
554.51	53979.78
554.67	54307.45
554.84	54185.74
555.00	53776.15
555.17	53350.17
555.33	53404.00
555.50	53221.44
555.67	53696.57
555.83	53310.38
556.00	52985.05
556.16	53048.24
556.33	52680.78
556.50	52706.52
556.66	52388.21
556.83	51882.66
556.99	52264.16
557.16	52615.24
557.32	52947.60
557.49	52877.38
557.65	52807.17
557.82	52868.02
557.98	52629.29
558.15	52109.69
558.32	51199.22
558.48	50480.67
558.65	50677.28
558.81	51175.81
558.98	51402.85
559.14	51723.50
559.31	51531.57
559.47	51688.39
559.64	51487.10
559.80	51065.81
559.97	51405.19
560.13	51632.22
560.30	52741.63
560.46	53303.36
560.63	53315.06
560.79	53165.27
560.96	52776.74
561.12	51615.83
561.29	50600.04
561.45	50876.22
561.61	51480.08
561.78	51817.12
561.94	51515.19
562.11	51861.59
562.27	51714.14
562.44	52088.62
562.60	52458.43
562.77	52559.07
562.93	52198.63
563.10	52097.98
563.26	51819.46
563.42	51732.86
563.59	51405.19
563.75	51412.21
563.92	51622.86
564.08	51751.59
564.24	51910.74
564.41	51835.84
564.57	51547.96
564.74	51615.83
564.90	51222.62
565.07	51274.12
565.23	50534.51
565.39	50272.37
565.56	49909.58
565.72	49467.22
565.88	50323.86
566.05	50473.65
566.21	50248.96
566.38	50780.26
566.54	50904.31
566.70	50965.17
566.87	51522.21
567.03	51601.79
567.19	51849.89
567.36	51498.81
567.52	51346.67
567.68	50782.60
567.85	50040.65
568.01	49654.47
568.17	48924.22
568.34	49392.33
568.50	49359.56
568.66	49411.05
568.83	49694.25
568.99	49499.99
569.15	50192.79
569.32	50277.05
569.48	49642.76
569.64	49839.37
569.81	49563.18
569.97	49031.88
570.13	48673.78
570.30	48158.86
570.46	47763.31
570.62	47409.89
570.78	47269.46
570.95	47784.38
571.11	48718.25
571.27	48514.62
571.43	48573.14
571.60	49626.38
571.76	49502.33
571.92	49776.17
572.09	49925.97
572.25	49928.31
572.41	50316.84
572.57	49869.79
572.74	49439.14
572.90	49324.45
573.06	48961.67
573.22	49406.37
573.38	49455.52
573.55	49279.98
573.71	49481.27
573.87	49113.80
574.03	49265.94
574.20	49099.76
574.36	48875.07
574.52	48456.11
574.68	48048.86
574.84	47573.73
575.01	47466.06
575.17	46904.34
575.33	48027.79
575.49	48198.65
575.65	48013.75
575.82	47784.38
575.98	47583.09
576.14	48088.65
576.30	48502.92
576.46	48257.17
576.62	48371.85
576.79	47707.14
576.95	47854.59
577.11	47711.82
577.27	47934.17
577.43	48144.82
577.59	47386.49
577.75	46857.52
577.92	45844.07
578.08	46347.29
578.24	45982.16
578.40	46052.38
578.56	46756.88
578.72	46953.49
578.88	46993.28
579.04	47327.97
579.21	47629.90
579.37	47473.09
579.53	47175.84
579.69	47470.75
579.85	47833.53
580.01	47421.59
580.17	47203.92
580.33	46976.89
580.49	46838.80
580.65	47365.42
580.82	47648.63
580.98	47250.74
581.14	47264.78
581.30	47576.07
581.46	47171.16
581.62	47590.11
581.78	47386.49
581.94	47875.66
582.10	47522.24
582.26	47580.75
582.42	47604.16
582.58	47730.54
582.74	47772.67
582.90	47903.74
583.06	47667.35
583.22	47339.68
583.38	47199.24
583.54	47281.16
583.70	47468.40
583.86	47327.97
584.02	47072.85
584.18	47098.60
584.34	46927.74
584.50	46754.54
584.66	46782.63
584.82	46361.33
584.98	45925.99
585.14	45352.56
585.30	45001.48
