SpectraSuite Data File
++++++++++++++++++++++++++++++++++++
Date: Mon Oct 07 14:54:55 GMT-05:00 2013
User: price-jones
Dark Spectrum Present: No
Reference Spectrum Present: No
Number of Sampled Component Spectra: 1
Spectrometers: USB2+H05261
Integration Time (usec): 10000 (USB2+H05261)
Spectra Averaged: 1 (USB2+H05261)
Boxcar Smoothing: 0 (USB2+H05261)
Correct for Electrical Dark: No (USB2+H05261)
Strobe/Lamp Enabled: No (USB2+H05261)
Correct for Detector Non-linearity: No (USB2+H05261)
Correct for Stray Light: No (USB2+H05261)
Number of Pixels in Processed Spectrum: 2048
>>>>>Begin Processed Spectral Data<<<<<
365.73	0.00
365.92	0.00
366.12	0.00
366.32	0.00
366.52	0.00
366.72	0.00
366.91	0.00
367.11	0.00
367.31	0.00
367.51	0.00
367.70	0.00
367.90	0.00
368.10	0.00
368.30	0.00
368.49	0.00
368.69	0.00
368.89	0.00
369.09	0.00
369.28	0.00
369.48	0.00
369.68	0.00
369.87	0.00
370.07	0.00
370.27	0.00
370.47	0.00
370.66	0.00
370.86	23.41
371.06	28.09
371.25	0.00
371.45	2.34
371.65	0.00
371.84	0.00
372.04	0.00
372.24	7.02
372.44	39.79
372.63	51.49
372.83	28.09
373.03	63.19
373.22	0.00
373.42	0.00
373.62	58.51
373.81	72.56
374.01	81.92
374.21	0.00
374.40	35.11
374.60	0.00
374.79	56.17
374.99	81.92
375.19	98.30
375.38	63.19
375.58	65.54
375.78	65.54
375.97	46.81
376.17	149.79
376.37	37.45
376.56	81.92
376.76	110.01
376.95	156.82
377.15	154.48
377.35	236.39
377.54	248.10
377.74	198.95
377.93	198.95
378.13	227.03
378.33	243.42
378.52	220.01
378.72	149.79
378.91	187.24
379.11	95.96
379.31	91.28
379.50	114.69
379.70	131.07
379.89	135.75
380.09	156.82
380.28	250.44
380.48	236.39
380.68	215.33
380.87	138.09
381.07	145.11
381.26	79.58
381.46	95.96
381.65	65.54
381.85	84.26
382.04	126.39
382.24	44.47
382.43	49.15
382.63	0.00
382.83	0.00
383.02	49.15
383.22	7.02
383.41	0.00
383.61	79.58
383.80	117.03
384.00	166.18
384.19	152.13
384.39	257.46
384.58	156.82
384.78	128.73
384.97	194.26
385.17	194.26
385.36	145.11
385.56	126.39
385.75	133.41
385.95	205.97
386.14	182.56
386.34	290.23
386.53	234.05
386.72	156.82
386.92	131.07
387.11	238.73
387.31	250.44
387.50	290.23
387.70	198.95
387.89	203.63
388.09	201.29
388.28	187.24
388.48	222.35
388.67	205.97
388.86	308.95
389.06	330.02
389.25	266.82
389.45	379.17
389.64	367.46
389.84	414.27
390.03	252.78
390.22	278.52
390.42	313.63
390.61	463.43
390.81	484.49
391.00	435.34
391.19	414.27
391.39	404.91
391.58	468.11
391.78	395.55
391.97	360.44
392.16	234.05
392.36	201.29
392.55	131.07
392.75	28.09
392.94	0.00
393.13	65.54
393.33	88.94
393.52	196.60
393.71	217.67
393.91	245.76
394.10	297.25
394.29	390.87
394.49	414.27
394.68	409.59
394.88	416.62
395.07	538.32
395.26	528.96
395.46	550.03
395.65	379.17
395.84	337.04
396.04	250.44
396.23	227.03
396.42	39.79
396.62	70.22
396.81	161.50
397.00	210.65
397.19	341.72
397.39	468.11
397.58	622.58
397.77	643.65
397.97	655.35
398.16	629.60
398.35	676.41
398.55	795.78
398.74	847.27
398.93	760.67
399.12	751.31
399.32	727.91
399.51	760.67
399.70	919.83
399.90	800.46
400.09	798.12
400.28	833.23
400.47	835.57
400.67	905.79
400.86	887.06
401.05	926.85
401.24	905.79
401.44	802.80
401.63	947.92
401.82	933.87
402.01	884.72
402.21	966.64
402.40	961.96
402.59	924.51
402.78	823.87
402.97	739.61
403.17	919.83
403.36	889.40
403.55	964.30
403.74	994.73
403.93	891.74
404.13	887.06
404.32	816.85
404.51	844.93
404.70	856.64
404.89	1027.50
405.09	950.26
405.28	887.06
405.47	910.47
405.66	933.87
405.85	908.13
406.05	849.61
406.24	887.06
406.43	877.70
406.62	985.37
406.81	929.19
407.00	887.06
407.20	830.89
407.39	929.19
407.58	936.21
407.77	1008.77
407.96	990.05
408.15	1064.94
408.34	983.02
408.54	1142.18
408.73	1104.73
408.92	1057.92
409.11	990.05
409.30	1034.52
409.49	868.34
409.68	795.78
409.87	730.25
410.07	795.78
410.26	964.30
410.45	1104.73
410.64	1121.12
410.83	1039.20
411.02	1221.76
411.21	1151.54
411.40	1196.01
411.59	1102.39
411.78	1174.95
411.98	1142.18
412.17	1235.80
412.36	1219.42
412.55	1121.12
412.74	1125.80
412.93	1027.50
413.12	1064.94
413.31	1128.14
413.50	1210.06
413.69	1308.36
413.88	1132.82
414.07	1160.91
414.26	1128.14
414.45	1177.29
414.64	1205.38
414.83	1191.33
415.02	1193.67
415.22	1240.48
415.41	1270.91
415.60	1256.87
415.79	1366.87
415.98	1385.60
416.17	1409.00
416.36	1366.87
416.55	1299.00
416.74	1174.95
416.93	1139.84
417.12	1167.93
417.31	1254.53
417.50	1252.19
417.69	1369.21
417.88	1299.00
418.07	1165.59
418.26	1219.42
418.45	1210.06
418.64	1296.66
418.83	1259.21
419.02	1331.76
419.21	1163.25
419.39	1355.17
419.58	1139.84
419.77	1226.44
419.96	1280.27
420.15	1313.04
420.34	1322.40
420.53	1423.05
420.72	1514.33
420.91	1493.26
421.10	1460.49
421.29	1404.32
421.48	1416.02
421.67	1418.36
421.86	1397.30
422.05	1296.66
422.24	1130.48
422.43	1123.46
422.61	1184.31
422.80	1324.74
422.99	1343.47
423.18	1294.32
423.37	1303.68
423.56	1291.98
423.75	1336.45
423.94	1310.70
424.13	1231.12
424.32	1261.55
424.50	1303.68
424.69	1259.21
424.88	1268.57
425.07	1233.46
425.26	1198.35
425.45	1308.36
425.64	1245.16
425.83	1259.21
426.01	1235.80
426.20	1287.29
426.39	1315.38
426.58	1207.72
426.77	1116.44
426.96	1097.71
427.15	1076.65
427.33	1212.40
427.52	1254.53
427.71	1268.57
427.90	1242.82
428.09	1242.82
428.28	1235.80
428.46	1188.99
428.65	1198.35
428.84	1179.63
429.03	1252.19
429.22	1149.20
429.40	1029.84
429.59	880.04
429.78	809.83
429.97	777.06
430.16	812.17
430.34	753.65
430.53	814.51
430.72	772.38
430.91	882.38
431.10	1165.59
431.28	1380.92
431.47	1554.12
431.66	1472.20
431.85	1350.49
432.03	1212.40
432.22	1245.16
432.41	1273.25
432.60	1362.19
432.79	1462.83
432.97	1600.93
433.16	1540.07
433.35	1394.96
433.54	1174.95
433.72	1078.99
433.91	1198.35
434.10	1299.00
434.28	1369.21
434.47	1521.35
434.66	1542.41
434.85	1430.07
435.03	1425.39
435.22	1362.19
435.41	1469.86
435.59	1511.99
435.78	1589.22
435.97	1586.88
436.16	1638.38
436.34	1556.46
436.53	1561.14
436.72	1404.32
436.90	1547.09
437.09	1418.36
437.28	1441.77
437.46	1418.36
437.65	1486.24
437.84	1301.34
438.02	1226.44
438.21	1231.12
438.40	1350.49
438.58	1409.00
438.77	1500.28
438.96	1488.58
439.14	1582.20
439.33	1544.75
439.52	1675.82
439.70	1474.54
439.89	1551.78
440.08	1516.67
440.26	1521.35
440.45	1647.74
440.63	1689.87
440.82	1633.69
441.01	1769.44
441.19	1781.15
441.38	1717.95
441.57	1858.39
441.75	1811.57
441.94	1781.15
442.12	1799.87
442.31	1881.79
442.50	1799.87
442.68	1771.79
442.87	1856.04
443.05	1734.34
443.24	1748.38
443.43	1849.02
443.61	1891.15
443.80	1886.47
443.98	1762.42
444.17	1769.44
444.35	1788.17
444.54	1881.79
444.73	1893.49
444.91	1795.19
445.10	1722.63
445.28	1600.93
445.47	1549.43
445.65	1696.89
445.84	1736.68
446.02	1757.74
446.21	1837.32
446.39	1809.23
446.58	1879.45
446.77	1696.89
446.95	1727.32
447.14	1849.02
447.32	1982.43
447.51	1952.01
447.69	1867.75
447.88	1722.63
448.06	1827.96
448.25	1863.07
448.43	1790.51
448.62	1732.00
448.80	1874.77
448.99	1827.96
449.17	1881.79
449.36	1844.34
449.54	1905.20
449.73	1916.90
449.91	2113.50
450.10	1968.39
450.28	2162.66
450.46	2064.35
450.65	2057.33
450.83	2047.97
451.02	1933.28
451.20	1977.75
451.39	1982.43
451.57	1970.73
451.76	1879.45
451.94	1968.39
452.13	2078.40
452.31	1727.32
452.49	1769.44
452.68	1703.91
452.86	1771.79
453.05	1774.13
453.23	1837.32
453.42	1888.81
453.60	2017.54
453.78	1994.14
453.97	1860.73
454.15	1942.64
454.34	1813.92
454.52	1837.32
454.70	1851.36
454.89	1790.51
455.07	1832.64
455.26	1844.34
455.44	1849.02
455.62	2073.71
455.81	2036.27
455.99	2069.03
456.17	2106.48
456.36	2073.71
456.54	1940.30
456.73	1926.26
456.91	2094.78
457.09	2120.53
457.28	2146.27
457.46	2069.03
457.64	2115.84
457.83	2015.20
458.01	1898.17
458.19	1919.24
458.38	1994.14
458.56	2019.88
458.74	2047.97
458.93	1963.71
459.11	1998.82
459.29	1937.96
459.48	2066.69
459.66	1996.48
459.84	2026.90
460.03	2038.61
460.21	2015.20
460.39	2207.13
460.57	2050.31
460.76	2057.33
460.94	2043.29
461.12	2090.10
461.31	2104.14
461.49	2064.35
461.67	2038.61
461.85	2172.02
462.04	2085.42
462.22	2270.32
462.40	2183.72
462.59	2043.29
462.77	2080.74
462.95	2083.08
463.13	2108.82
463.32	2134.57
463.50	1989.46
463.68	2003.50
463.86	2188.40
464.05	2087.76
464.23	2031.58
464.41	1872.43
464.59	1935.62
464.78	2057.33
464.96	2069.03
465.14	2010.52
465.32	1956.69
465.50	2202.44
465.69	2134.57
465.87	2008.18
466.05	2036.27
466.23	1870.09
466.41	1928.60
466.60	1912.22
466.78	1998.82
466.96	1959.03
467.14	2057.33
467.32	2008.18
467.51	2054.99
467.69	1944.99
467.87	1961.37
468.05	2127.55
468.23	2143.93
468.41	2031.58
468.60	2033.93
468.78	2052.65
468.96	2167.34
469.14	2143.93
469.32	2078.40
469.50	2003.50
469.69	2040.95
469.87	2054.99
470.05	1907.54
470.23	2033.93
470.41	2008.18
470.59	2005.84
470.77	1980.09
470.95	2003.50
471.14	2113.50
471.32	2024.56
471.50	2183.72
471.68	2186.06
471.86	2260.96
472.04	2282.02
472.22	2277.34
472.40	2043.29
472.58	2083.08
472.77	2165.00
472.95	2139.25
473.13	2284.36
473.31	2085.42
473.49	2090.10
473.67	2073.71
473.85	2200.10
474.03	2181.38
474.21	2223.51
474.39	2251.60
474.57	2270.32
474.75	2291.38
474.93	2300.75
475.12	2232.87
475.30	2263.30
475.48	2209.47
475.66	2340.54
475.84	2284.36
476.02	2232.87
476.20	2143.93
476.38	2197.76
476.56	2349.90
476.74	2296.07
476.92	2324.15
477.10	2324.15
477.28	2392.03
477.46	2473.95
477.64	2466.92
477.82	2609.70
478.00	2457.56
478.18	2434.16
478.36	2462.24
478.54	2417.77
478.72	2576.93
478.90	2480.97
479.08	2635.44
479.26	2628.42
479.44	2623.74
479.62	2562.89
479.80	2668.21
479.98	2612.04
480.16	2602.68
480.34	2619.06
480.52	2693.96
480.70	2623.74
480.88	2654.17
481.06	2635.44
481.24	2771.19
481.41	2782.90
481.59	2874.18
481.77	2850.77
481.95	2715.02
482.13	2794.60
482.31	2703.32
482.49	2836.73
482.67	2832.05
482.85	2895.24
483.03	2881.20
483.21	2846.09
483.39	2944.39
483.57	2778.22
483.74	2822.69
483.92	2635.44
484.10	2789.92
484.28	2792.26
484.46	2916.31
484.64	3045.04
484.82	2628.42
485.00	2862.48
485.18	2799.28
485.35	2642.46
485.53	2520.76
485.71	2176.70
485.89	2120.53
486.07	2314.79
486.25	2499.69
486.43	2761.83
486.61	2911.63
486.78	2771.19
486.96	2787.58
487.14	2867.16
487.32	2939.71
487.50	3070.78
487.68	3007.59
487.85	3258.03
488.03	3204.19
488.21	3232.28
488.39	3171.43
488.57	3094.19
488.75	2949.08
488.92	3143.34
489.10	3311.86
489.28	3524.85
489.46	3391.44
489.64	3588.04
489.81	3555.27
489.99	3485.06
490.17	3433.57
490.35	3478.04
490.53	3414.84
490.70	3492.08
490.88	3431.23
491.06	3583.36
491.24	3461.65
491.41	3396.12
491.59	3290.79
491.77	3110.57
491.95	3019.29
492.13	3344.63
492.30	3576.34
492.48	3592.72
492.66	3655.92
492.84	3655.92
493.01	3564.64
493.19	3672.30
493.37	3442.93
493.54	3592.72
493.72	3555.27
493.90	3726.13
494.08	3765.92
494.25	3857.20
494.43	3861.88
494.61	3761.24
494.79	3971.89
494.96	3892.31
495.14	3829.12
495.32	3651.24
495.49	3758.90
495.67	3665.28
495.85	3824.44
496.02	4004.66
496.20	3946.14
496.38	3833.80
496.55	3786.99
496.73	3946.14
496.91	3920.40
497.09	4170.83
497.26	4152.11
497.44	4039.76
497.62	4004.66
497.79	3758.90
497.97	3730.81
498.14	3637.19
498.32	3836.14
498.50	3864.22
498.67	4063.17
498.85	4042.11
499.03	3999.98
499.20	4166.15
499.38	4086.58
499.56	4018.70
499.73	3950.82
499.91	3868.91
500.08	3810.39
500.26	3765.92
500.44	3655.92
500.61	4014.02
500.79	3784.65
500.97	3817.41
501.14	3822.09
501.32	3786.99
501.49	3637.19
501.67	3864.22
501.84	3676.98
502.02	3871.25
502.20	3889.97
502.37	3857.20
502.55	3925.08
502.72	3946.14
502.90	4131.05
503.07	3992.95
503.25	4065.51
503.43	3943.80
503.60	3681.66
503.78	3829.12
503.95	3782.31
504.13	4058.49
504.30	4051.47
504.48	4056.15
504.65	4084.23
504.83	4058.49
505.01	4060.83
505.18	4196.58
505.36	4194.24
505.53	4255.09
505.71	4276.16
505.88	4320.63
506.06	4238.71
506.23	4149.77
506.41	4063.17
506.58	4088.92
506.76	4119.34
506.93	4159.13
507.11	4039.76
507.28	3999.98
507.46	4081.89
507.63	3920.40
507.81	3964.87
507.98	4056.15
508.16	3992.95
508.33	4011.68
508.50	4117.00
508.68	4271.48
508.85	4435.32
509.03	4283.18
509.20	4355.74
509.38	4140.41
509.55	3922.74
509.73	4046.79
509.90	4084.23
510.08	4187.22
510.25	4229.35
510.42	3974.23
510.60	4210.62
510.77	4149.77
510.95	4217.65
511.12	4168.49
511.30	4210.62
511.47	4369.78
511.64	4337.01
511.82	4280.84
511.99	4145.09
512.17	4156.79
512.34	3911.04
512.51	4051.47
512.69	4112.32
512.86	4126.36
513.04	4126.36
513.21	4131.05
513.38	4067.85
513.56	3829.12
513.73	4074.87
513.90	3861.88
514.08	3943.80
514.25	4028.06
514.43	4154.45
514.60	3990.61
514.77	4114.66
514.95	4145.09
515.12	4025.72
515.29	4004.66
515.47	4203.60
515.64	4301.90
515.81	4166.15
515.99	3988.27
516.16	3925.08
516.33	3557.61
516.51	3346.97
516.68	3426.54
516.85	3279.09
517.03	3405.48
517.20	3693.37
517.37	3899.33
517.54	4121.68
517.72	4067.85
517.89	3651.24
518.06	3379.73
518.24	3393.78
518.41	3744.86
518.58	3899.33
518.75	4011.68
518.93	3887.63
519.10	3798.69
519.27	4021.04
519.45	4016.36
519.62	4084.23
519.79	4198.92
519.96	4152.11
520.14	4074.87
520.31	3852.52
520.48	3854.86
520.65	3852.52
520.83	4060.83
521.00	4273.82
521.17	4135.73
521.34	4018.70
521.52	4053.81
521.69	4112.32
521.86	4163.81
522.03	4201.26
522.20	4196.58
522.38	3983.59
522.55	3892.31
522.72	3803.37
522.89	3705.07
523.07	4046.79
523.24	4067.85
523.41	4227.01
523.58	4252.75
523.75	4304.25
523.92	4344.03
524.10	4234.03
524.27	4456.38
524.44	4322.97
524.61	4194.24
524.78	4081.89
524.96	4191.90
525.13	4030.40
525.30	4264.46
525.47	4301.90
525.64	4196.58
525.81	4315.95
525.98	4065.51
526.16	3719.11
526.33	3653.58
526.50	3625.49
526.67	3585.70
526.84	3627.83
527.01	3735.50
527.18	3838.48
527.36	3953.16
527.53	4133.39
527.70	4149.77
527.87	4156.79
528.04	3875.93
528.21	4009.34
528.38	4205.94
528.55	4423.61
528.72	4346.37
528.89	4491.49
529.07	4346.37
529.24	4142.75
529.41	4215.30
529.58	4021.04
529.75	4093.60
529.92	4273.82
530.09	4219.99
530.26	4257.43
530.43	4257.43
530.60	4304.25
530.77	4236.37
530.94	4386.16
531.11	4210.62
531.28	4287.86
531.46	4077.21
531.63	4095.94
531.80	4264.46
531.97	4241.05
532.14	4028.06
532.31	3822.09
532.48	3702.73
532.65	3779.97
532.82	3887.63
532.99	4035.08
533.16	4042.11
533.33	4067.85
533.50	4088.92
533.67	4095.94
533.84	3857.20
534.01	3943.80
534.18	4016.36
534.35	4051.47
534.52	3990.61
534.69	4107.64
534.86	4142.75
535.03	4222.33
535.20	4212.96
535.37	4306.59
535.54	4252.75
535.71	4187.22
535.88	4114.66
536.05	4112.32
536.22	3943.80
536.38	3906.35
536.55	3850.18
536.72	3674.64
536.89	3904.01
537.06	3899.33
537.23	4021.04
537.40	4147.43
537.57	4313.61
537.74	4011.68
537.91	4135.73
538.08	3990.61
538.25	4011.68
538.42	4091.26
538.59	4035.08
538.75	4074.87
538.92	4021.04
539.09	3878.27
539.26	3824.44
539.43	3749.54
539.60	3803.37
539.77	3953.16
539.94	3873.59
540.11	3691.02
540.28	3695.71
540.44	3733.15
540.61	3864.22
540.78	3641.87
540.95	3705.07
541.12	3887.63
541.29	3978.91
541.46	4053.81
541.62	3927.42
541.79	3908.69
541.96	3801.03
542.13	3817.41
542.30	3896.99
542.47	3899.33
542.63	3962.53
542.80	3815.07
542.97	3779.97
543.14	3864.22
543.31	3758.90
543.48	3969.55
543.64	4051.47
543.81	4135.73
543.98	4032.74
544.15	3866.56
544.32	3901.67
544.48	3974.23
544.65	3922.74
544.82	3976.57
544.99	3859.54
545.16	3918.06
545.32	3901.67
545.49	4044.45
545.66	4081.89
545.83	3990.61
546.00	4009.34
546.16	3845.50
546.33	3908.69
546.50	3836.14
546.67	3981.25
546.83	3789.33
547.00	3878.27
547.17	3826.78
547.34	3765.92
547.50	3749.54
547.67	3691.02
547.84	3794.01
548.00	3810.39
548.17	3976.57
548.34	3906.35
548.51	3789.33
548.67	3913.38
548.84	3829.12
549.01	3880.61
549.18	3934.44
549.34	3758.90
549.51	3969.55
549.68	3915.72
549.84	3728.47
550.01	3934.44
550.18	3637.19
550.34	3730.81
550.51	3843.16
550.68	3892.31
550.84	3733.15
551.01	3754.22
551.18	3693.37
551.34	3838.48
551.51	3803.37
551.68	3810.39
551.84	3887.63
552.01	3747.20
552.18	3779.97
552.34	3651.24
552.51	3581.02
552.68	3613.79
552.84	3812.73
553.01	3721.45
553.18	3632.51
553.34	3817.41
553.51	3674.64
553.67	3815.07
553.84	3892.31
554.01	3824.44
554.17	3707.41
554.34	3707.41
554.51	3784.65
554.67	3786.99
554.84	3854.86
555.00	3899.33
555.17	3667.62
555.33	3644.21
555.50	3801.03
555.67	3595.06
555.83	3566.98
556.00	3616.13
556.16	3742.52
556.33	3672.30
556.50	3503.78
556.66	3592.72
556.83	3531.87
556.99	3574.00
557.16	3758.90
557.32	3625.49
557.49	3555.27
557.65	3562.30
557.82	3651.24
557.98	3662.94
558.15	3646.55
558.32	3428.88
558.48	3344.63
558.65	3276.75
558.81	3485.06
558.98	3424.20
559.14	3506.12
559.31	3435.91
559.47	3433.57
559.64	3393.78
559.80	3304.84
559.97	3431.23
560.13	3344.63
560.30	3489.74
560.46	3574.00
560.63	3665.28
560.79	3705.07
560.96	3559.95
561.12	3485.06
561.29	3176.11
561.45	3463.99
561.61	3445.27
561.78	3405.48
561.94	3508.46
562.11	3471.01
562.27	3407.82
562.44	3426.54
562.60	3527.19
562.77	3489.74
562.93	3417.18
563.10	3438.25
563.26	3438.25
563.42	3346.97
563.59	3370.37
563.75	3440.59
563.92	3442.93
564.08	3386.76
564.24	3398.46
564.41	3295.47
564.57	3321.22
564.74	3375.05
564.90	3309.52
565.07	3337.60
565.23	3309.52
565.39	3251.00
565.56	3070.78
565.72	3136.32
565.88	3197.17
566.05	3159.72
566.21	3353.99
566.38	3265.05
566.54	3372.71
566.70	3255.69
566.87	3363.35
567.03	3433.57
567.19	3419.52
567.36	3330.58
567.52	3234.62
567.68	3405.48
567.85	3288.45
568.01	3258.03
568.17	3040.36
568.34	3180.79
568.50	3225.26
568.66	3222.92
568.83	3253.34
568.99	3201.85
569.15	3293.13
569.32	3267.39
569.48	3169.09
569.64	3199.51
569.81	3197.17
569.97	3028.65
570.13	3016.95
570.30	2993.55
570.46	2960.78
570.62	2935.03
570.78	2892.90
570.95	2925.67
571.11	3007.59
571.27	3110.57
571.43	3255.69
571.60	3056.74
571.76	3035.67
571.92	3192.49
572.09	3180.79
572.25	3194.83
572.41	3227.60
572.57	3075.46
572.74	3126.96
572.90	3173.77
573.06	3000.57
573.22	3124.62
573.38	3014.61
573.55	3094.19
573.71	3155.04
573.87	3096.53
574.03	2984.18
574.20	3007.59
574.36	3054.40
574.52	3098.87
574.68	3035.67
574.84	3038.02
575.01	2949.08
575.17	2839.07
575.33	2998.23
575.49	3098.87
575.65	2981.84
575.82	2984.18
575.98	3028.65
576.14	3056.74
576.30	3084.83
576.46	3089.51
576.62	3019.29
576.79	3073.12
576.95	3108.23
577.11	2988.86
577.27	3049.72
577.43	3059.08
577.59	2965.46
577.75	3038.02
577.92	2813.32
578.08	2864.82
578.24	2862.48
578.40	2810.98
578.56	2904.60
578.72	2876.52
578.88	2920.99
579.04	2932.69
579.21	2869.50
579.37	2984.18
579.53	2871.84
579.69	2995.89
579.85	2918.65
580.01	2857.79
580.17	2874.18
580.33	2806.30
580.49	2803.96
580.65	2827.37
580.82	2855.45
580.98	3056.74
581.14	2904.60
581.30	2867.16
581.46	3021.63
581.62	2920.99
581.78	2960.78
581.94	2928.01
582.10	2932.69
582.26	2935.03
582.42	2892.90
582.58	2881.20
582.74	2920.99
582.90	2885.88
583.06	2906.95
583.22	2988.86
583.38	2911.63
583.54	2853.11
583.70	2771.19
583.86	2984.18
584.02	2855.45
584.18	2839.07
584.34	2878.86
584.50	2888.22
584.66	2899.92
584.82	2885.88
584.98	2949.08
585.14	2766.51
585.30	2712.68
585.46	2745.45
585.62	2813.32
585.78	2647.15
585.94	2796.94
586.10	2677.57
586.26	2740.77
586.42	2752.47
586.58	2818.00
586.74	2836.73
586.90	2712.68
587.06	2834.39
587.22	2841.41
587.38	2684.59
587.54	2738.43
587.70	2827.37
587.86	2782.90
588.02	2555.86
588.18	2628.42
588.34	2619.06
588.49	2375.64
588.65	2258.62
588.81	2267.98
588.97	2242.23
589.13	2270.32
589.29	2270.32
589.45	2356.92
589.61	2331.17
589.77	2429.48
589.93	2504.37
590.08	2567.57
590.24	2637.78
590.40	2590.97
590.56	2640.12
590.72	2605.02
590.88	2623.74
591.04	2600.34
591.20	2532.46
591.35	2532.46
591.51	2597.99
591.67	2331.17
591.83	2506.71
591.99	2555.86
592.15	2576.93
592.31	2619.06
592.46	2567.57
592.62	2499.69
592.78	2555.86
592.94	2485.65
593.10	2478.63
593.26	2471.61
593.41	2605.02
593.57	2679.91
593.73	2480.97
593.89	2349.90
594.05	2530.12
594.20	2438.84
594.36	2375.64
594.52	2373.30
594.68	2469.27
594.84	2422.45
594.99	2438.84
595.15	2588.63
595.31	2509.05
595.47	2464.58
595.62	2572.25
595.78	2490.33
595.94	2483.31
596.10	2534.80
596.25	2413.09
596.41	2499.69
596.57	2450.54
596.73	2490.33
596.88	2429.48
597.04	2389.69
597.20	2480.97
597.36	2443.52
597.51	2504.37
597.67	2490.33
597.83	2473.95
597.99	2307.77
598.14	2445.86
598.30	2499.69
598.46	2530.12
598.61	2347.56
598.77	2310.11
598.93	2326.49
599.09	2445.86
599.24	2377.98
599.40	2424.80
