SpectraSuite Data File
++++++++++++++++++++++++++++++++++++
Date: Mon Oct 07 14:53:28 GMT-05:00 2013
User: price-jones
Dark Spectrum Present: No
Reference Spectrum Present: No
Number of Sampled Component Spectra: 1
Spectrometers: USB2+H05261
Integration Time (usec): 100000 (USB2+H05261)
Spectra Averaged: 1 (USB2+H05261)
Boxcar Smoothing: 0 (USB2+H05261)
Correct for Electrical Dark: No (USB2+H05261)
Strobe/Lamp Enabled: No (USB2+H05261)
Correct for Detector Non-linearity: No (USB2+H05261)
Correct for Stray Light: No (USB2+H05261)
Number of Pixels in Processed Spectrum: 2048
>>>>>Begin Processed Spectral Data<<<<<
365.73	0.00
365.92	0.00
366.12	0.00
366.32	0.00
366.52	0.00
366.72	0.00
366.91	0.00
367.11	0.00
367.31	0.00
367.51	0.00
367.70	0.00
367.90	0.00
368.10	0.00
368.30	0.00
368.49	0.00
368.69	0.00
368.89	0.00
369.09	0.00
369.28	0.00
369.48	0.00
369.68	0.00
369.87	0.00
370.07	0.00
370.27	0.00
370.47	636.63
370.66	3211.22
370.86	3913.38
371.06	4163.81
371.25	4290.20
371.45	3782.31
371.65	3403.14
371.84	3157.38
372.04	3215.90
372.24	3850.18
372.44	3929.76
372.63	3854.86
372.83	3667.62
373.03	3248.66
373.22	2925.67
373.42	3089.51
373.62	3503.78
373.81	3927.42
374.01	3936.78
374.21	3499.10
374.40	3164.40
374.60	3454.63
374.79	3761.24
374.99	4498.51
375.19	4861.29
375.38	4884.70
375.58	4711.50
375.78	4376.80
375.97	4554.68
376.17	4727.88
376.37	4641.28
376.56	4772.35
376.76	5200.67
376.95	5305.99
377.15	5675.80
377.35	5858.36
377.54	6136.88
377.74	6410.73
377.93	6441.15
378.13	6099.44
378.33	5926.24
378.52	5462.81
378.72	5259.18
378.91	5210.03
379.11	5008.75
379.31	4842.57
379.50	4814.48
379.70	5210.03
379.89	5621.97
380.09	6066.67
380.28	6342.85
380.48	6375.62
380.68	6132.20
380.87	6010.50
381.07	5551.75
381.26	5102.37
381.46	4784.06
381.65	4552.34
381.85	4578.09
382.04	4339.35
382.24	4109.98
382.43	3927.42
382.63	3669.96
382.83	3709.75
383.02	3859.54
383.22	3934.44
383.41	3887.63
383.61	4086.58
383.80	4617.88
384.00	5224.08
384.19	5834.96
384.39	6408.39
384.58	6251.57
384.78	6031.56
384.97	5994.11
385.17	5776.44
385.36	5371.53
385.56	5151.52
385.75	5425.36
385.95	5921.56
386.14	6422.43
386.34	6417.75
386.53	6214.12
386.72	5746.02
386.92	5823.25
387.11	6071.35
387.31	6307.74
387.50	6335.83
387.70	6122.84
387.89	6083.05
388.09	6134.54
388.28	6193.06
388.48	6092.41
388.67	6696.27
388.86	7307.15
389.06	7779.94
389.25	8311.24
389.45	8376.78
389.64	8159.11
389.84	8065.49
390.03	7995.27
390.22	8028.04
390.42	8189.53
390.61	8615.51
390.81	9441.72
391.00	9678.12
391.19	9664.07
391.39	9214.69
391.58	8549.98
391.78	8131.02
391.97	7957.82
392.16	7276.73
392.36	6686.91
392.55	5394.93
392.75	4395.53
392.94	3548.25
393.13	3414.84
393.33	4093.60
393.52	5357.49
393.71	6445.84
393.91	7236.94
394.10	7808.03
394.29	8601.47
394.49	9334.06
394.68	10195.37
394.88	10071.33
395.07	10427.09
395.26	10324.10
395.46	10026.86
395.65	9528.32
395.84	8362.73
396.04	7061.40
396.23	5734.31
396.42	4873.00
396.62	4568.73
396.81	5270.89
397.00	7028.63
397.19	8582.74
397.39	10228.14
397.58	11468.62
397.77	12191.85
397.97	12645.91
398.16	12856.56
398.35	13163.17
398.55	13490.85
398.74	14214.07
398.93	14382.59
399.12	14019.81
399.32	13657.03
399.51	14038.53
399.70	14731.33
399.90	14604.94
400.09	14574.52
400.28	14602.60
400.47	14984.11
400.67	15520.09
400.86	16077.14
401.05	15688.61
401.24	15960.11
401.44	16152.04
401.63	16016.29
401.82	16290.13
402.01	16465.67
402.21	16369.71
402.40	16634.19
402.59	16121.61
402.78	15583.29
402.97	14834.32
403.17	15564.56
403.36	16379.07
403.55	16924.41
403.74	17542.32
403.93	16130.97
404.13	15208.80
404.32	14782.82
404.51	15571.58
404.70	16842.50
404.89	16978.25
405.09	16554.61
405.28	15903.94
405.47	16030.33
405.66	15749.46
405.85	15480.30
406.05	15232.21
406.24	15382.00
406.43	15948.41
406.62	16589.72
406.81	16690.36
407.00	16390.77
407.20	15847.77
407.39	15845.43
407.58	16624.83
407.77	17263.79
407.96	17682.75
408.15	18108.72
408.34	18064.25
408.54	19194.73
408.73	19056.64
408.92	18834.29
409.11	18080.64
409.30	17465.08
409.49	16105.23
409.68	15410.09
409.87	14726.65
410.07	15592.65
410.26	16893.99
410.45	18026.81
410.64	18637.69
410.83	19112.81
411.02	19454.53
411.21	20301.81
411.40	19899.23
411.59	19882.85
411.78	20215.21
411.98	19943.70
412.17	19934.34
412.36	19763.48
412.55	19426.45
412.74	19227.50
412.93	18934.93
413.12	18941.96
413.31	20814.38
413.50	21111.63
413.69	21577.40
413.88	20781.62
414.07	19679.22
414.26	20297.13
414.45	21125.68
414.64	21106.95
414.83	21294.19
415.02	20624.80
415.22	20753.53
415.41	21326.96
415.60	21617.19
415.79	22588.51
415.98	23178.33
416.17	23140.88
416.36	22927.89
416.55	22401.27
416.74	21605.49
416.93	20805.02
417.12	20886.94
417.31	21160.78
417.50	21628.89
417.69	22279.56
417.88	22068.91
418.07	21813.79
418.26	21673.36
418.45	21862.94
418.64	22511.27
418.83	23496.64
419.02	23246.20
419.21	23040.23
419.39	22050.19
419.58	20748.85
419.77	20879.92
419.96	21972.95
420.15	23187.69
420.34	23669.84
420.53	24540.52
420.72	24959.47
420.91	25036.71
421.10	24446.90
421.29	24269.01
421.48	23704.95
421.67	24446.90
421.86	24166.03
422.05	22298.28
422.24	19997.54
422.43	19484.96
422.61	21738.90
422.80	23988.15
422.99	23585.58
423.18	22768.73
423.37	22689.15
423.56	22565.10
423.75	22899.80
423.94	23199.39
424.13	22026.78
424.32	22277.22
424.50	22427.01
424.69	22012.74
424.88	22218.71
425.07	22162.53
425.26	22508.93
425.45	21565.70
425.64	21411.22
425.83	21319.94
426.01	23129.17
426.20	23400.68
426.39	23414.72
426.58	21373.77
426.77	19669.86
426.96	19049.62
427.15	19632.41
427.33	21593.78
427.52	22515.95
427.71	22508.93
427.90	22127.42
428.09	22108.70
428.28	21600.80
428.46	20692.68
428.65	20477.35
428.84	21067.16
429.03	21266.11
429.22	20112.22
429.40	19428.79
429.59	17678.07
429.78	15281.36
429.97	15712.02
430.16	15414.77
430.34	15782.23
430.53	15573.92
430.72	15967.13
430.91	17589.13
431.10	20879.92
431.28	24334.55
431.47	26551.04
431.66	26796.79
431.85	24673.93
432.03	22625.96
432.22	21280.15
432.41	22501.91
432.60	24166.03
432.79	25624.18
432.97	26478.48
433.16	25715.47
433.35	23552.81
433.54	20957.16
433.72	19908.60
433.91	20510.11
434.10	22518.29
434.28	24177.73
434.47	25865.26
434.66	25476.73
434.85	24842.45
435.03	24552.22
435.22	25350.34
435.41	26794.45
435.59	26661.04
435.78	27112.77
435.97	27938.97
436.16	28219.84
436.34	27889.82
436.53	26991.06
436.72	27028.51
436.90	25525.88
437.09	25652.27
437.28	25331.62
437.46	26230.38
437.65	25998.67
437.84	24397.74
438.02	22295.94
438.21	21912.10
438.40	23590.26
438.58	25558.65
438.77	25830.15
438.96	26345.07
439.14	27585.55
439.33	27852.38
439.52	28444.53
439.70	27721.30
439.89	26951.27
440.08	26370.82
440.26	26375.50
440.45	27412.35
440.63	28985.19
440.82	30431.65
441.01	29979.92
441.19	29876.94
441.38	30377.81
441.57	31241.47
441.75	32091.09
441.94	32304.07
442.12	31732.98
442.31	32596.64
442.50	32238.54
442.68	31873.42
442.87	31487.23
443.05	31047.21
443.24	31599.57
443.43	31505.95
443.61	32905.59
443.80	33233.27
443.98	31583.19
444.17	31316.37
444.35	32713.67
444.54	33745.84
444.73	32804.95
444.91	31791.50
445.10	30735.92
445.28	29254.36
445.47	29032.00
445.65	28989.88
445.84	30438.67
446.02	30979.33
446.21	31328.07
446.39	31541.06
446.58	31718.94
446.77	31878.10
446.95	32730.05
447.14	33479.02
447.32	34291.19
447.51	33521.15
447.69	32032.57
447.88	31948.31
448.06	32048.96
448.25	32886.87
448.43	33589.03
448.62	32126.19
448.80	32280.67
448.99	32818.99
449.17	32608.34
449.36	32891.55
449.54	33853.51
449.73	34801.43
449.91	35007.39
450.10	36079.36
450.28	36182.34
450.46	36105.10
450.65	36105.10
450.83	35548.06
451.02	34684.40
451.20	34988.67
451.39	34672.70
451.57	34726.53
451.76	34972.28
451.94	34368.43
452.13	33556.26
452.31	32060.66
452.49	31049.55
452.68	31447.44
452.86	31087.00
453.05	31510.63
453.23	32554.51
453.42	33172.41
453.60	34211.61
453.78	34546.31
453.97	34225.65
454.15	34242.04
454.34	33497.75
454.52	33914.36
454.70	33036.66
454.89	33675.63
455.07	33282.42
455.26	34075.86
455.44	35388.90
455.62	35978.72
455.81	36498.31
455.99	36048.93
456.17	35426.35
456.36	35487.20
456.54	36381.29
456.73	36395.33
456.91	36840.03
457.09	37041.32
457.28	37940.08
457.46	36217.45
457.64	36172.98
457.83	35285.92
458.01	34335.66
458.19	35178.25
458.38	35349.11
458.56	36453.84
458.74	36350.86
458.93	35728.28
459.11	35709.55
459.29	35672.10
459.48	35594.87
459.66	35379.54
459.84	35959.99
460.03	36264.26
460.21	36278.30
460.39	37319.84
460.57	36994.51
460.76	37706.03
460.94	37572.62
461.12	37179.41
461.31	36975.78
461.49	37235.58
461.67	37322.18
461.85	37961.15
462.04	38115.62
462.22	38763.95
462.40	38340.32
462.59	38192.86
462.77	38082.86
462.95	38457.34
463.13	37799.65
463.32	36704.28
463.50	37186.43
463.68	36907.91
463.86	37158.34
464.05	36886.84
464.23	35934.24
464.41	36217.45
464.59	34951.22
464.78	36980.46
464.96	36732.37
465.14	36198.73
465.32	37240.26
465.50	37977.53
465.69	38326.27
465.87	37600.71
466.05	36935.99
466.23	35723.60
466.41	34689.08
466.60	35634.66
466.78	35501.25
466.96	35985.74
467.14	36477.25
467.32	36842.37
467.51	37413.46
467.69	35840.62
467.87	36362.56
468.05	36755.77
468.23	37010.89
468.41	36769.82
468.60	36961.74
468.78	37415.80
468.96	36865.78
469.14	37790.29
469.32	37762.20
469.50	36261.92
469.69	36540.44
469.87	35770.41
470.05	35503.59
470.23	36112.13
470.41	35786.79
470.59	36355.54
470.77	36575.55
470.95	37324.52
471.14	37858.17
471.32	37450.91
471.50	40062.95
471.68	39763.36
471.86	40170.61
472.04	40512.33
472.22	40189.34
472.40	38646.93
472.58	38103.92
472.77	37816.04
472.95	38361.38
473.13	39807.83
473.31	38574.37
473.49	38902.04
473.67	39763.36
473.85	39735.27
474.03	40774.47
474.21	40900.86
474.39	41265.99
474.57	41265.99
474.75	41553.87
474.93	41411.10
475.12	40271.26
475.30	40060.61
475.48	40289.98
475.66	40959.38
475.84	40928.95
476.02	40364.88
476.20	39672.08
476.38	40409.35
476.56	41668.56
476.74	41799.63
476.92	42066.45
477.10	43051.81
477.28	43585.46
477.46	44175.27
477.64	44610.61
477.82	44418.69
478.00	44694.87
478.18	44088.67
478.36	44072.29
478.54	43868.66
478.72	44074.63
478.90	45144.25
479.08	46227.92
479.26	46925.40
479.44	46333.24
479.62	46213.88
479.80	46375.37
479.98	46618.79
480.16	46766.24
480.34	46454.95
480.52	47126.69
480.70	47133.71
480.88	47239.03
481.06	47894.38
481.24	48086.31
481.41	49205.08
481.59	49418.07
481.77	49378.28
481.95	48800.17
482.13	48736.98
482.31	48659.74
482.49	49357.22
482.67	49504.67
482.85	49237.85
483.03	49940.01
483.21	50270.03
483.39	50094.49
483.57	49502.33
483.74	49270.62
483.92	49415.73
484.10	49909.58
484.28	50700.68
484.46	51084.53
484.64	51672.01
484.82	50375.35
485.00	50223.22
485.18	49378.28
485.35	48025.45
485.53	44994.46
485.71	41556.21
485.89	40910.22
486.07	42656.26
486.25	46031.32
486.43	48282.91
486.61	49155.93
486.78	49104.44
486.96	49272.96
487.14	50567.27
487.32	51615.83
487.50	52458.43
487.68	53109.10
487.85	53525.71
488.03	53539.75
488.21	52994.41
488.39	52734.61
488.57	52126.07
488.75	51767.97
488.92	52678.44
489.10	54796.62
489.28	55639.22
489.46	56332.01
489.64	56051.15
489.81	56303.93
489.99	55891.99
490.17	56046.47
490.35	56327.33
490.53	55887.31
490.70	55714.11
490.88	55585.38
491.06	56299.25
491.24	56449.04
491.41	55458.99
491.59	54192.76
491.77	53563.16
491.95	54562.57
492.13	55360.69
492.30	56371.80
492.48	57425.04
492.66	57841.66
492.84	57621.65
493.01	57469.51
493.19	57010.77
493.37	56692.46
493.54	56413.93
493.72	56786.08
493.90	58038.26
494.08	58780.21
494.25	58822.34
494.43	58913.62
494.61	59433.22
494.79	59465.99
494.96	59250.66
495.14	58637.44
495.32	57897.83
495.49	57116.09
495.67	58227.85
495.85	59325.56
496.02	59910.69
496.20	59739.83
496.38	59164.06
496.55	59009.59
496.73	59538.55
496.91	59709.41
497.09	60390.50
497.26	60364.76
497.44	59929.42
497.62	59332.58
497.79	58625.74
497.97	57745.70
498.14	57640.37
498.32	58738.08
498.50	59529.19
498.67	59915.37
498.85	59929.42
499.03	59978.57
499.20	60226.66
499.38	60341.35
499.56	60231.35
499.73	59718.77
499.91	59327.90
500.08	58969.80
500.26	58326.15
500.44	58520.41
500.61	59217.89
500.79	59077.46
500.97	58887.88
501.14	58740.42
501.32	58569.57
501.49	58480.63
501.67	58700.64
501.84	59194.49
502.02	59508.12
502.20	59777.28
502.37	59877.93
502.55	59969.21
502.72	60306.24
502.90	60924.14
503.07	60671.37
503.25	60271.14
503.43	59489.40
503.60	58642.12
503.78	58321.47
503.95	58756.81
504.13	59915.37
504.30	60867.97
504.48	60673.71
504.65	60219.64
504.83	60156.45
505.01	60818.82
505.18	61214.37
505.36	61666.09
505.53	61570.13
505.71	61921.21
505.88	61986.75
506.06	61410.98
506.23	61034.15
506.41	60633.92
506.58	60823.50
506.76	60994.36
506.93	60970.96
507.11	60587.11
507.28	60772.01
507.46	60467.74
507.63	59882.61
507.81	59681.32
507.98	59924.74
508.16	60484.12
508.33	61102.03
508.50	61343.10
508.68	61755.03
508.85	62117.82
509.03	62049.94
509.20	61928.23
509.38	61200.33
509.55	60453.70
509.73	60732.22
509.90	61148.84
510.08	61446.08
510.25	61408.64
510.42	61111.39
510.60	61099.68
510.77	61261.18
510.95	61958.66
511.12	61942.28
511.30	62274.63
511.47	62511.03
511.64	62344.85
511.82	62073.35
511.99	61392.25
512.17	61052.87
512.34	60769.67
512.51	60898.40
512.69	60851.59
512.86	61043.51
513.04	61616.94
513.21	61703.54
513.38	61160.54
513.56	60566.04
513.73	60083.89
513.90	60294.54
514.08	60484.12
514.25	60757.97
514.43	60849.25
514.60	60907.76
514.77	61013.08
514.95	61008.40
515.12	61059.90
515.29	61263.52
515.47	61640.35
515.64	61942.28
515.81	61612.26
515.99	60893.72
516.16	59920.05
516.33	57635.69
516.51	56172.86
516.68	55784.33
516.85	55419.20
517.03	55657.94
517.20	58089.76
517.37	60315.61
517.54	61331.40
517.72	60589.45
517.89	58564.88
518.06	56460.74
518.24	56502.87
518.41	58810.64
518.58	59898.99
518.75	60086.23
518.93	60371.78
519.10	59952.82
519.27	60601.15
519.45	60720.52
519.62	61319.70
519.79	61745.67
519.96	61448.42
520.14	61095.00
520.31	60331.99
520.48	60355.39
520.65	60830.52
520.83	61436.72
521.00	61808.87
521.17	61567.79
521.34	60952.23
521.52	61469.49
521.69	62033.56
521.86	62485.28
522.03	61829.93
522.20	61010.74
522.38	60184.54
522.55	59906.01
522.72	60467.74
522.89	60680.73
523.07	60823.50
523.24	61378.21
523.41	61745.67
523.58	62082.71
523.75	62532.09
523.92	62422.09
524.10	62372.94
524.27	62590.61
524.44	62188.03
524.61	62078.03
524.78	61780.78
524.96	61860.36
525.13	61881.42
525.30	62178.67
525.47	62595.29
525.64	62419.75
525.81	61689.50
525.98	60416.25
526.16	59154.70
526.33	58461.90
526.50	58300.40
526.67	58014.86
526.84	58560.20
527.01	59428.54
527.18	60088.57
527.36	60849.25
527.53	61680.14
527.70	62101.43
527.87	61490.55
528.04	61111.39
528.21	61719.93
528.38	62213.78
528.55	62595.29
528.72	62901.90
528.89	63149.99
529.07	62749.76
529.24	62204.42
529.41	61591.20
529.58	61137.13
529.75	61242.46
529.92	61710.56
530.09	61923.55
530.26	62452.51
530.43	62695.93
530.60	62796.57
530.77	62948.71
530.94	63124.25
531.11	62553.16
531.28	62288.68
531.46	62061.64
531.63	62178.67
531.80	62115.48
531.97	61677.80
532.14	60914.78
532.31	60037.08
532.48	59629.83
532.65	59547.91
532.82	60334.33
532.99	61284.59
533.16	61565.45
533.33	62115.48
533.50	61965.68
533.67	61455.45
533.84	60907.76
534.01	61167.56
534.18	61371.19
534.35	61572.47
534.52	61338.42
534.69	61689.50
534.86	62059.30
535.03	62143.56
535.20	62403.36
535.37	62824.66
535.54	62972.11
535.71	62571.88
535.88	62262.93
536.05	61886.10
536.22	61464.81
536.38	61172.24
536.55	60701.79
536.72	60367.10
536.89	60236.03
537.06	60996.70
537.23	61762.06
537.40	62052.28
537.57	61956.32
537.74	61815.89
537.91	61652.05
538.08	61467.15
538.25	61771.42
538.42	61907.17
538.59	61783.12
538.75	60933.51
538.92	60830.52
539.09	61080.96
539.26	60575.40
539.43	60381.14
539.60	60643.28
539.77	60582.43
539.94	60706.47
540.11	59742.17
540.28	59564.29
540.44	59573.66
540.61	59611.10
540.78	59941.12
540.95	60378.80
541.12	60795.42
541.29	60858.61
541.46	61078.62
541.62	61190.97
541.79	61008.40
541.96	60535.62
542.13	60589.45
542.30	60699.45
542.47	60977.98
542.63	60669.03
542.80	60481.78
542.97	60666.69
543.14	60315.61
543.31	60444.33
543.48	60863.29
543.64	61764.40
543.81	61970.36
543.98	61918.87
544.15	61109.05
544.32	60631.58
544.48	60863.29
544.65	61216.71
544.82	61319.70
544.99	61183.94
545.16	60858.61
545.32	60622.22
545.49	61277.57
545.66	61570.13
545.83	61368.85
546.00	61146.50
546.16	60640.94
546.33	60575.40
546.50	60884.36
546.67	61282.25
546.83	60872.65
547.00	60877.33
547.17	59950.48
547.34	59737.49
547.50	59442.59
547.67	60074.53
547.84	60264.11
548.00	60458.38
548.17	61059.90
548.34	60673.71
548.51	60722.86
548.67	60669.03
548.84	60945.21
549.01	60842.23
549.18	60905.42
549.34	60640.94
549.51	60762.65
549.68	60610.51
549.84	60392.84
550.01	60292.20
550.18	60163.47
550.34	60371.78
550.51	60158.79
550.68	60446.68
550.84	60041.76
551.01	60030.06
551.18	60236.03
551.34	60376.46
551.51	60554.34
551.68	60912.44
551.84	60966.27
552.01	60657.32
552.18	60537.96
552.34	59695.36
552.51	59650.89
552.68	59388.75
552.84	59840.48
553.01	59906.01
553.18	59936.44
553.34	60016.02
553.51	60170.49
553.67	60327.31
553.84	60605.83
554.01	60378.80
554.17	60182.19
554.34	60346.03
554.51	60399.86
554.67	60928.83
554.84	60491.15
555.00	60315.61
555.17	60147.09
555.33	59980.91
555.50	59955.16
555.67	60154.11
555.83	59959.84
556.00	59681.32
556.16	59669.62
556.33	59105.55
556.50	59025.97
556.66	59276.41
556.83	58951.07
556.99	59107.89
557.16	59215.55
557.32	59414.50
557.49	59709.41
557.65	59498.76
557.82	59636.85
557.98	59384.07
558.15	59044.69
558.32	58213.80
558.48	57368.87
558.65	57635.69
558.81	57846.34
558.98	58553.18
559.14	58527.44
559.31	58698.30
559.47	58665.53
559.64	58286.36
559.80	57879.11
559.97	57979.75
560.13	58316.79
560.30	59030.65
560.46	59475.35
560.63	59765.58
560.79	59891.97
560.96	59395.77
561.12	58548.50
561.29	57832.30
561.45	57570.16
561.61	58370.62
561.78	58674.89
561.94	58391.68
562.11	58492.33
562.27	58468.92
562.44	58515.73
562.60	58871.49
562.77	59054.06
562.93	59105.55
563.10	58838.73
563.26	58506.37
563.42	58405.73
563.59	58183.38
563.75	58218.49
563.92	58337.85
564.08	58288.70
564.24	58557.86
564.41	58576.59
564.57	58410.41
564.74	58410.41
564.90	58319.13
565.07	58096.78
565.23	57649.74
565.39	57439.09
565.56	57057.58
565.72	56788.42
565.88	57340.78
566.05	57223.76
566.21	57600.58
566.38	57577.18
566.54	57652.08
566.70	58124.86
566.87	58241.89
567.03	58209.12
567.19	58450.20
567.36	58258.27
567.52	58145.93
567.68	57911.88
567.85	57179.29
568.01	56802.46
568.17	56505.21
568.34	56786.08
568.50	56519.26
568.66	56603.52
568.83	57333.76
568.99	57109.07
569.15	57298.65
569.32	57176.95
569.48	57015.45
569.64	56762.67
569.81	56484.15
569.97	56322.65
570.13	56617.56
570.30	56168.18
570.46	55700.07
570.62	55250.69
570.78	54820.03
570.95	55482.40
571.11	56023.06
571.27	56165.84
571.43	56512.23
571.60	56575.43
571.76	56790.76
571.92	57237.80
572.09	57380.57
572.25	57265.89
572.41	57104.39
572.57	56975.66
572.74	57146.52
572.90	56416.27
573.06	56753.31
573.22	56456.06
573.38	56427.98
573.55	56570.75
573.71	56844.59
573.87	56650.33
574.03	56491.17
574.20	56348.40
574.36	55859.23
574.52	56065.19
574.68	55777.31
574.84	55461.33
575.01	55164.09
575.17	55229.62
575.33	55576.02
575.49	55653.26
575.65	55774.97
575.82	55496.44
575.98	55283.45
576.14	55545.59
576.30	55730.50
576.46	55760.92
576.62	55999.66
576.79	55723.47
576.95	55526.87
577.11	55524.53
577.27	55590.06
577.43	55405.16
577.59	55145.36
577.75	54969.82
577.92	54328.52
578.08	54274.68
578.24	54171.70
578.40	54319.15
578.56	54787.26
578.72	54548.53
578.88	54794.28
579.04	55107.91
579.21	55075.15
579.37	55262.39
579.53	55227.28
579.69	55398.14
579.85	55253.03
580.01	55250.69
580.17	54841.09
580.33	54560.23
580.49	54513.42
580.65	55257.71
580.82	55419.20
580.98	55096.21
581.14	54974.50
581.30	55246.00
581.46	55187.49
581.62	55391.12
581.78	55253.03
581.94	55325.58
582.10	55203.88
582.26	55508.14
582.42	55414.52
582.58	55372.39
582.74	55320.90
582.90	55435.59
583.06	55372.39
583.22	55093.87
583.38	54974.50
583.54	54883.22
583.70	55000.25
583.86	55246.00
584.02	54920.67
584.18	54855.14
584.34	54803.64
584.50	54810.67
584.66	54511.08
584.82	54436.18
584.98	54227.87
585.14	54106.16
