SpectraSuite Data File
++++++++++++++++++++++++++++++++++++
Date: Mon Oct 07 14:53:46 GMT-05:00 2013
User: price-jones
Dark Spectrum Present: No
Reference Spectrum Present: No
Number of Sampled Component Spectra: 1
Spectrometers: USB2+H05261
Integration Time (usec): 100000 (USB2+H05261)
Spectra Averaged: 1 (USB2+H05261)
Boxcar Smoothing: 0 (USB2+H05261)
Correct for Electrical Dark: No (USB2+H05261)
Strobe/Lamp Enabled: No (USB2+H05261)
Correct for Detector Non-linearity: No (USB2+H05261)
Correct for Stray Light: No (USB2+H05261)
Number of Pixels in Processed Spectrum: 2048
>>>>>Begin Processed Spectral Data<<<<<
365.73	0.00
365.92	0.00
366.12	0.00
366.32	0.00
366.52	0.00
366.72	0.00
366.91	0.00
367.11	0.00
367.31	0.00
367.51	0.00
367.70	0.00
367.90	0.00
368.10	0.00
368.30	0.00
368.49	0.00
368.69	0.00
368.89	0.00
369.09	0.00
369.28	0.00
369.48	0.00
369.68	0.00
369.87	0.00
370.07	0.00
370.27	0.00
370.47	533.64
370.66	2743.11
370.86	3433.57
371.06	3794.01
371.25	3847.84
371.45	3361.01
371.65	3012.27
371.84	2785.24
372.04	2939.71
372.24	3328.24
372.44	3466.33
372.63	3545.91
372.83	3243.98
373.03	2827.37
373.22	2679.91
373.42	2628.42
373.62	3159.72
373.81	3639.53
374.01	3386.76
374.21	3068.44
374.40	2864.82
374.60	3030.99
374.79	3391.44
374.99	4039.76
375.19	4273.82
375.38	4329.99
375.58	3948.48
375.78	4119.34
375.97	4002.32
376.17	4126.36
376.37	4259.78
376.56	4482.13
376.76	4524.26
376.95	4777.03
377.15	5121.09
377.35	5434.72
377.54	5605.58
377.74	5600.90
377.93	5579.84
378.13	5628.99
378.33	5366.85
378.52	4830.87
378.72	4725.54
378.91	4643.62
379.11	4505.53
379.31	4292.54
379.50	4318.29
379.70	4669.37
379.89	5254.50
380.09	5392.59
380.28	5652.39
380.48	5701.54
380.68	5556.43
380.87	5413.66
381.07	5135.14
381.26	4624.90
381.46	4365.10
381.65	4032.74
381.85	4095.94
382.04	4072.53
382.24	3616.13
382.43	3426.54
382.63	3372.71
382.83	3267.39
383.02	3435.91
383.22	3403.14
383.41	3499.10
383.61	3688.68
383.80	4238.71
384.00	4744.27
384.19	5280.25
384.39	5516.64
384.58	5486.22
384.78	5561.11
384.97	5507.28
385.17	5088.32
385.36	4961.94
385.56	4795.76
385.75	4980.66
385.95	5305.99
386.14	5877.09
386.34	5909.85
386.53	5547.07
386.72	5191.31
386.92	5425.36
387.11	5467.49
387.31	5774.10
387.50	5551.75
387.70	5406.64
387.89	5383.23
388.09	5434.72
388.28	5628.99
388.48	5652.39
388.67	5968.37
388.86	6527.75
389.06	6981.82
389.25	7581.00
389.45	7555.25
389.64	7353.96
389.84	7445.24
390.03	7124.59
390.22	7183.10
390.42	7506.10
390.61	8049.10
390.81	8510.19
391.00	9095.32
391.19	8552.32
391.39	8329.97
391.58	7901.65
391.78	7426.52
391.97	7019.27
392.16	6815.64
392.36	6197.74
392.55	5011.09
392.75	3880.61
392.94	3208.87
393.13	2995.89
393.33	3742.52
393.52	4880.02
393.71	5724.95
393.91	6480.94
394.10	6970.12
394.29	7857.18
394.49	8442.31
394.68	9114.05
394.88	9273.20
395.07	9472.15
395.26	9270.86
395.46	9320.01
395.65	8594.45
395.84	7344.60
396.04	6312.42
396.23	5217.05
396.42	4327.65
396.62	4161.47
396.81	4746.61
397.00	6136.88
397.19	7815.05
397.39	9228.73
397.58	10291.34
397.77	11091.80
397.97	11552.88
398.16	11328.19
398.35	11786.94
398.55	12182.49
398.74	12781.67
398.93	13165.51
399.12	12989.97
399.32	12341.64
399.51	12538.25
399.70	13682.77
399.90	13270.84
400.09	13635.96
400.28	13132.75
400.47	13397.23
400.67	14169.60
400.86	14473.87
401.05	14314.72
401.24	14752.40
401.44	14473.87
401.63	14698.56
401.82	15077.73
402.01	14721.97
402.21	14909.21
402.40	14911.55
402.59	14394.29
402.78	14153.22
402.97	13467.44
403.17	13930.87
403.36	14963.04
403.55	15508.39
403.74	16051.39
403.93	14949.00
404.13	13860.65
404.32	13575.11
404.51	14155.56
404.70	15222.84
404.89	15454.56
405.09	15159.65
405.28	14611.96
405.47	14588.56
405.66	14768.78
405.85	14195.35
406.05	13640.64
406.24	13870.01
406.43	14413.02
406.62	15136.24
406.81	15330.51
407.00	14925.60
407.20	14324.08
407.39	14492.60
407.58	15288.38
407.77	15819.68
407.96	16278.43
408.15	16294.81
408.34	16645.89
408.54	17324.65
408.73	17642.96
408.92	17128.04
409.11	16629.51
409.30	15807.98
409.49	14853.04
409.68	13912.14
409.87	13287.22
410.07	14178.97
410.26	15321.15
410.45	16278.43
410.64	16748.87
410.83	17406.56
411.02	17490.82
411.21	18274.90
411.40	18197.67
411.59	18314.69
411.78	18347.46
411.98	18113.41
412.17	18445.76
412.36	17776.37
412.55	18192.98
412.74	17647.64
412.93	17142.08
413.12	17324.65
413.31	18951.32
413.50	19094.09
413.69	19660.50
413.88	18920.89
414.07	18260.86
414.26	18473.85
414.45	19070.68
414.64	19068.34
414.83	19428.79
415.02	18937.27
415.22	18883.44
415.41	19241.54
415.60	19896.89
415.79	20606.08
415.98	21238.02
416.17	21053.12
416.36	20432.88
416.55	20114.56
416.74	19728.38
416.93	18853.02
417.12	18904.51
417.31	19489.64
417.50	19585.60
417.69	20421.17
417.88	20397.77
418.07	19744.76
418.26	19896.89
418.45	20081.80
418.64	20744.17
418.83	21343.35
419.02	21181.85
419.21	21249.72
419.39	19967.11
419.58	19323.46
419.77	19133.88
419.96	19503.68
420.15	20926.73
420.34	21745.92
420.53	22382.54
420.72	22967.68
420.91	22724.26
421.10	22590.85
421.29	22026.78
421.48	21219.30
421.67	22471.48
421.86	21916.78
422.05	20325.21
422.24	18604.92
422.43	17884.03
422.61	19824.34
422.80	21778.68
422.99	21748.26
423.18	21144.40
423.37	20390.75
423.56	20774.60
423.75	20816.72
423.94	21362.07
424.13	20411.81
424.32	20489.05
424.50	20533.52
424.69	19915.62
424.88	20409.47
425.07	19988.18
425.26	19948.39
425.45	19777.53
425.64	19793.91
425.83	19508.37
426.01	20929.07
426.20	21137.38
426.39	21041.42
426.58	19452.19
426.77	18258.52
426.96	17626.57
427.15	18078.30
427.33	19714.33
427.52	20482.03
427.71	20444.58
427.90	20397.77
428.09	20262.02
428.28	19946.05
428.46	19028.56
428.65	18735.99
428.84	19056.64
429.03	19482.62
429.22	18541.72
429.40	17497.84
429.59	15906.28
429.78	13961.30
429.97	14256.20
430.16	14450.47
430.34	14359.19
430.53	13942.57
430.72	14377.91
430.91	15936.71
431.10	18871.74
431.28	22022.10
431.47	24025.60
431.66	24617.75
431.85	22593.19
432.03	20285.42
432.22	19456.87
432.41	20437.56
432.60	22628.30
432.79	23506.00
432.97	24072.41
433.16	23569.19
433.35	21593.78
433.54	19374.95
433.72	18106.38
433.91	18663.43
434.10	20772.25
434.28	22249.13
434.47	23606.64
434.66	23285.99
434.85	22738.30
435.03	22508.93
435.22	23260.24
435.41	24460.94
435.59	24854.15
435.78	24788.61
435.97	25238.00
436.16	25125.65
436.34	25076.50
436.53	25043.73
436.72	24758.19
436.90	23344.50
437.09	23477.91
437.28	23330.46
437.46	23576.22
437.65	23754.10
437.84	22204.66
438.02	20374.36
438.21	19997.54
438.40	21212.28
438.58	22852.99
438.77	23426.42
438.96	23819.63
439.14	24828.40
439.33	25565.67
439.52	25982.29
439.70	25418.22
439.89	24603.71
440.08	23948.36
440.26	23667.50
440.45	24950.11
440.63	26511.25
440.82	27559.81
441.01	27688.54
441.19	27154.90
441.38	27669.81
441.57	28863.49
441.75	28975.83
441.94	29537.56
442.12	28788.59
442.31	29490.75
442.50	29549.26
442.68	29333.93
442.87	28514.75
443.05	28481.98
443.24	28788.59
443.43	29174.78
443.61	30085.25
443.80	30558.03
443.98	28973.49
444.17	28491.34
444.35	30033.75
444.54	30962.95
444.73	30487.82
444.91	29142.01
445.10	28020.89
445.28	26724.24
445.47	26450.39
445.65	26780.41
445.84	27402.99
446.02	28343.89
446.21	28809.65
446.39	28563.90
446.58	29057.75
446.77	29757.57
446.95	29736.51
447.14	30787.41
447.32	31042.53
447.51	30782.73
447.69	29600.76
447.88	29263.72
448.06	29422.87
448.25	30139.08
448.43	30541.65
448.62	30068.86
448.80	29411.17
448.99	29600.76
449.17	30384.83
449.36	30235.04
449.54	31318.71
449.73	31917.89
449.91	32119.17
450.10	33001.55
450.28	33263.69
450.46	33095.18
450.65	33383.06
450.83	32929.00
451.02	31786.82
451.20	32151.94
451.39	32194.07
451.57	31660.43
451.76	31903.84
451.94	31601.91
452.13	30864.64
452.31	29591.39
452.49	28201.11
452.68	28720.71
452.86	28453.89
453.05	28943.06
453.23	29818.42
453.42	30698.47
453.60	31367.86
453.78	31667.45
453.97	31608.93
454.15	31618.30
454.34	30483.14
454.52	30749.96
454.70	29954.18
454.89	30363.77
455.07	30806.13
455.26	30831.88
455.44	32126.19
455.62	33046.02
455.81	33221.56
455.99	32596.64
456.17	32266.63
456.36	32809.63
456.54	33464.98
456.73	33495.41
456.91	33872.23
457.09	33991.60
457.28	34436.30
457.46	33284.76
457.64	33373.70
457.83	32257.26
458.01	31290.62
458.19	32189.39
458.38	32350.88
458.56	33553.92
458.74	33362.00
458.93	32844.74
459.11	32973.47
459.29	32488.98
459.48	32919.63
459.66	32540.47
459.84	32936.02
460.03	33467.32
460.21	32947.72
460.39	34242.04
460.57	33879.25
460.76	34665.67
460.94	34583.76
461.12	34265.44
461.31	34293.53
461.49	34223.31
461.67	34279.49
461.85	35133.78
462.04	35005.05
462.22	34625.89
462.40	35147.82
462.59	34600.14
462.77	34749.93
462.95	34712.49
463.13	34799.08
463.32	34401.19
463.50	33986.92
463.68	33930.75
463.86	34223.31
464.05	33757.55
464.23	33057.73
464.41	33092.83
464.59	32297.05
464.78	34033.73
464.96	33682.65
465.14	33497.75
465.32	34220.97
465.50	35262.51
465.69	35206.34
465.87	34965.26
466.05	33970.54
466.23	32346.20
466.41	31791.50
466.60	32304.07
466.78	32390.67
466.96	33055.39
467.14	33677.97
467.32	33741.16
467.51	34394.17
467.69	32376.63
467.87	33701.37
468.05	33432.21
468.23	33734.14
468.41	34054.79
468.60	34080.54
468.78	34471.41
468.96	33940.11
469.14	34726.53
469.32	34895.05
469.50	33109.22
469.69	33261.35
469.87	32872.82
470.05	33010.92
470.23	32760.48
470.41	33057.73
470.59	33450.94
470.77	34052.45
470.95	34071.18
471.14	34642.27
471.32	34583.76
471.50	36395.33
471.68	36762.79
471.86	37132.60
472.04	36961.74
472.22	36814.29
472.40	35199.32
472.58	35480.18
472.77	34698.44
472.95	35349.11
473.13	36671.51
473.31	35395.92
473.49	35655.72
473.67	36290.01
473.85	36385.97
474.03	37251.97
474.21	37074.09
474.39	37968.17
474.57	37860.51
474.75	38260.74
474.93	37476.66
475.12	36975.78
475.30	37038.98
475.48	37261.33
475.66	38134.35
475.84	36982.80
476.02	36694.92
476.20	36055.95
476.38	37226.22
476.56	37975.19
476.74	38904.38
476.92	39126.74
477.10	39229.72
477.28	40928.95
477.46	40856.39
477.64	40657.45
477.82	40926.61
478.00	41633.45
478.18	40453.82
478.36	40734.68
478.54	40203.38
478.72	40884.48
478.90	41670.90
479.08	42656.26
479.26	43426.30
479.44	43824.19
479.62	42960.53
479.80	42859.89
479.98	43470.77
480.16	43285.87
480.34	43030.75
480.52	43309.27
480.70	43325.66
480.88	43257.78
481.06	44514.65
481.24	44725.30
481.41	45694.28
481.59	46106.21
481.77	45687.26
481.95	45123.19
482.13	45146.59
482.31	45162.98
482.49	46195.15
482.67	45954.08
482.85	46436.23
483.03	46529.85
483.21	47196.90
483.39	46827.10
483.57	46302.82
483.74	45497.67
483.92	46195.15
484.10	46127.28
484.28	47487.13
484.46	47800.76
484.64	48116.73
484.82	47178.18
485.00	46756.88
485.18	45982.16
485.35	45006.16
485.53	41450.89
485.71	38291.16
485.89	37827.74
486.07	39367.81
486.25	42883.30
486.43	44786.15
486.61	45518.74
486.78	46026.63
486.96	45968.12
487.14	47620.54
487.32	48442.07
487.50	49673.19
487.68	50157.68
487.85	50908.99
488.03	50564.93
488.21	50291.09
488.39	49521.05
488.57	48961.67
488.75	48671.44
488.92	49752.77
489.10	51643.92
489.28	52938.24
489.46	54110.85
489.64	53792.53
489.81	53755.08
489.99	53570.18
490.17	53640.40
490.35	53928.28
490.53	53478.90
490.70	53261.23
490.88	53027.18
491.06	53986.80
491.24	53792.53
491.41	53045.90
491.59	51274.12
491.77	50562.59
491.95	51744.56
492.13	52598.86
492.30	53806.58
492.48	54791.94
492.66	55004.93
492.84	55121.96
493.01	55028.34
493.19	54625.76
493.37	54080.42
493.54	53963.39
493.72	54609.38
493.90	55447.29
494.08	56151.79
494.25	56488.83
494.43	56683.09
494.61	57277.59
494.79	57179.29
494.96	57020.13
495.14	56250.09
495.32	55325.58
495.49	54855.14
495.67	55863.91
495.85	57200.35
496.02	57574.84
496.20	57668.46
496.38	57216.74
496.55	56802.46
496.73	57090.35
496.91	57270.57
497.09	57991.45
497.26	58323.81
497.44	57766.76
497.62	57214.40
497.79	56437.34
497.97	55234.30
498.14	55529.21
498.32	56371.80
498.50	57296.31
498.67	57984.43
498.85	57712.93
499.03	57848.68
499.20	58026.56
499.38	58354.24
499.56	57790.17
499.73	57656.76
499.91	57123.11
500.08	56746.29
500.26	55650.92
500.44	56451.38
500.61	56987.36
500.79	57048.22
500.97	56397.55
501.14	56383.51
501.32	56432.66
501.49	56137.75
501.67	56498.19
501.84	57116.09
502.02	57338.44
502.20	57705.91
502.37	57645.05
502.55	57712.93
502.72	58211.46
502.90	58745.11
503.07	58307.43
503.25	57925.92
503.43	57277.59
503.60	56647.99
503.78	56018.38
503.95	56388.19
504.13	57787.83
504.30	58763.83
504.48	58237.21
504.65	58000.82
504.83	58012.52
505.01	58642.12
505.18	58946.39
505.36	59526.84
505.53	59613.44
505.71	59629.83
505.88	59868.56
506.06	59344.28
506.23	58756.81
506.41	58560.20
506.58	58855.11
506.76	58775.53
506.93	58852.77
507.11	58408.07
507.28	58887.88
507.46	58108.48
507.63	57682.50
507.81	57359.51
507.98	57626.33
508.16	58185.72
508.33	58677.23
508.50	59044.69
508.68	59473.01
508.85	60170.49
509.03	59798.35
509.20	59819.41
509.38	59175.76
509.55	58330.83
509.73	58382.32
509.90	58965.12
510.08	59384.07
510.25	59157.04
510.42	59047.04
510.60	58782.55
510.77	59040.01
510.95	59545.57
511.12	59863.88
511.30	59924.74
511.47	60086.23
511.64	60425.61
511.82	60016.02
511.99	59353.65
512.17	58752.13
512.34	58489.99
512.51	58651.48
512.69	58815.32
512.86	58993.20
513.04	59264.70
513.21	59358.33
513.38	58913.62
513.56	58316.79
513.73	57836.98
513.90	57968.05
514.08	58279.34
514.25	58408.07
514.43	58489.99
514.60	58707.66
514.77	58955.75
514.95	59004.91
515.12	58688.93
515.29	59131.29
515.47	59601.74
515.64	59618.13
515.81	59552.59
515.99	58834.05
516.16	57532.71
516.33	55379.42
516.51	53694.23
516.68	52994.41
516.85	52636.31
517.03	53322.08
517.20	55711.77
517.37	58129.54
517.54	58976.82
517.72	58501.69
517.89	56442.02
518.06	53879.13
518.24	54075.74
518.41	56353.08
518.58	57638.03
518.75	57839.32
518.93	58131.89
519.10	57916.56
519.27	58099.12
519.45	58497.01
519.62	59245.98
519.79	59667.28
519.96	59262.36
520.14	58997.88
520.31	58087.42
520.48	58078.05
520.65	58382.32
520.83	59302.15
521.00	59650.89
521.17	59482.37
521.34	59009.59
521.52	59201.51
521.69	59854.52
521.86	60196.24
522.03	59973.89
522.20	58859.79
522.38	57818.25
522.55	57752.72
522.72	58319.13
522.89	58541.48
523.07	58738.08
523.24	59082.14
523.41	59763.24
523.58	60221.98
523.75	60449.02
523.92	60245.39
524.10	60310.92
524.27	60285.18
524.44	60048.78
524.61	59835.80
524.78	59786.64
524.96	59629.83
525.13	59702.38
525.30	59927.08
525.47	60413.91
525.64	60280.50
525.81	59796.01
525.98	58197.42
526.16	56807.14
526.33	56193.92
526.50	55852.20
526.67	55770.28
526.84	56051.15
527.01	57130.14
527.18	57972.73
527.36	58705.32
527.53	59564.29
527.70	59753.88
527.87	59508.12
528.04	58834.05
528.21	59274.07
528.38	59990.27
528.55	60626.90
528.72	60797.76
528.89	60849.25
529.07	60830.52
529.24	60147.09
529.41	59531.53
529.58	58789.58
529.75	59009.59
529.92	59421.52
530.09	59828.77
530.26	60268.79
530.43	60491.15
530.60	60444.33
530.77	60715.84
530.94	60949.89
531.11	60519.23
531.28	60264.11
531.46	59847.50
531.63	60140.07
531.80	59784.30
531.97	59480.03
532.14	59000.22
532.31	57904.85
532.48	57364.19
532.65	57226.10
532.82	58319.13
532.99	59140.66
533.16	59255.34
533.33	59980.91
533.50	59662.60
533.67	59365.35
533.84	58782.55
534.01	59007.25
534.18	59295.13
534.35	59358.33
534.52	59201.51
534.69	59590.04
534.86	59887.29
535.03	59835.80
535.20	60282.84
535.37	60722.86
535.54	60961.59
535.71	60477.10
535.88	60207.94
536.05	59592.38
536.22	59311.52
536.38	58960.44
536.55	58700.64
536.72	57752.72
536.89	57956.35
537.06	58820.00
537.23	59517.48
537.40	59744.51
537.57	59702.38
537.74	59365.35
537.91	59611.10
538.08	59047.04
538.25	59491.74
538.42	59742.17
538.59	59501.10
538.75	58820.00
538.92	58614.04
539.09	58562.54
539.26	58384.66
539.43	58129.54
539.60	58323.81
539.77	58485.31
539.94	58377.64
540.11	57656.76
540.28	57083.33
540.44	57179.29
540.61	57179.29
540.78	57581.86
540.95	57965.71
541.12	58433.81
541.29	58693.61
541.46	58880.86
541.62	58974.48
541.79	58798.94
541.96	58248.91
542.13	58248.91
542.30	58405.73
542.47	58801.28
542.63	58489.99
542.80	58265.30
542.97	58314.45
543.14	58321.47
543.31	58195.08
543.48	58693.61
543.64	59632.17
543.81	59828.77
543.98	59517.48
544.15	58944.05
544.32	58436.16
544.48	58480.63
544.65	58948.73
544.82	59435.56
544.99	59004.91
545.16	58564.88
545.32	58108.48
545.49	59047.04
545.66	59543.23
545.83	59016.61
546.00	58859.79
546.16	58398.71
546.33	58539.14
546.50	58700.64
546.67	58726.38
546.83	58604.67
547.00	58700.64
547.17	57645.05
547.34	57521.01
547.50	57371.21
547.67	57907.19
547.84	57902.51
548.00	58370.62
548.17	58796.60
548.34	58677.23
548.51	58501.69
548.67	58529.78
548.84	58628.08
549.01	58487.65
549.18	58515.73
549.34	58485.31
549.51	58553.18
549.68	58457.22
549.84	58169.33
550.01	58106.14
550.18	57928.26
550.34	57881.45
550.51	58178.70
550.68	58230.19
550.84	57652.08
551.01	57792.51
551.18	57844.00
551.34	57991.45
551.51	58429.13
551.68	58630.42
551.84	58363.60
552.01	58592.97
552.18	58258.27
552.34	57542.07
552.51	57162.90
552.68	56839.91
552.84	57499.94
553.01	57762.08
553.18	57790.17
553.34	57757.40
553.51	57907.19
553.67	57946.98
553.84	58403.39
554.01	58265.30
554.17	58052.31
554.34	57799.53
554.51	58281.68
554.67	58492.33
554.84	58340.19
555.00	57792.51
555.17	57790.17
555.33	57719.95
555.50	57687.18
555.67	57848.68
555.83	57553.77
556.00	57137.16
556.16	57275.25
556.33	56931.19
556.50	56678.41
556.66	56849.27
556.83	56615.22
556.99	56685.43
557.16	56596.49
557.32	57315.04
557.49	57329.08
557.65	57345.47
557.82	57214.40
557.98	57076.30
558.15	56664.37
558.32	55765.60
558.48	54923.01
558.65	55276.43
558.81	55529.21
558.98	55931.78
559.14	56079.24
559.31	56207.97
559.47	56212.65
559.64	55845.18
559.80	55655.60
559.97	55409.84
560.13	56179.88
560.30	56659.69
560.46	57399.30
560.63	57469.51
560.79	57476.54
560.96	57202.69
561.12	55931.78
561.29	55215.58
561.45	55346.65
561.61	55819.44
561.78	56355.42
561.94	56271.16
562.11	55877.95
562.27	55835.82
562.44	56135.41
562.60	56626.92
562.77	56647.99
562.93	56442.02
563.10	56505.21
563.26	55774.97
563.42	56095.62
563.59	55781.99
563.75	55779.65
563.92	56048.81
564.08	55870.93
564.24	56081.58
564.41	56186.90
564.57	56002.00
564.74	55819.44
564.90	55676.66
565.07	55384.10
565.23	55140.68
565.39	54457.24
565.56	54632.78
565.72	54272.34
565.88	54642.15
566.05	54639.81
566.21	54904.29
566.38	54869.18
566.54	55187.49
566.70	55679.00
566.87	55803.05
567.03	55781.99
567.19	55875.61
567.36	55723.47
567.52	55676.66
567.68	55533.89
567.85	54639.81
568.01	54164.68
568.17	53853.39
568.34	54075.74
568.50	54005.52
568.66	54129.57
568.83	54429.16
568.99	54330.86
569.15	54717.04
569.32	54721.72
569.48	54518.10
569.64	54141.27
569.81	53846.36
569.97	54049.99
570.13	53677.85
570.30	53429.75
570.46	52706.52
570.62	52519.28
570.78	51931.81
570.95	52736.95
571.11	53310.38
571.27	53448.47
571.43	53787.85
571.60	54213.83
571.76	54227.87
571.92	54152.97
572.09	54499.37
572.25	54480.65
572.41	54511.08
572.57	54302.77
572.74	54473.63
572.90	53764.45
573.06	54284.04
573.22	54277.02
573.38	53794.87
573.55	54094.46
573.71	54405.75
573.87	54106.16
574.03	53748.06
574.20	54120.21
574.36	53474.22
574.52	53499.97
574.68	53530.39
574.84	52825.89
575.01	52315.65
575.17	52090.96
575.33	52776.74
575.49	52952.28
575.65	53031.86
575.82	52830.57
575.98	52498.22
576.14	53137.18
576.30	52947.60
576.46	53329.11
576.62	53193.36
576.79	52975.69
576.95	52474.81
577.11	52589.50
577.27	52828.23
577.43	52753.33
577.59	52500.56
577.75	51791.37
577.92	51257.73
578.08	51239.01
578.24	51264.75
578.40	51412.21
578.56	51812.44
578.72	52016.07
578.88	52083.94
579.04	52268.84
579.21	52392.89
579.37	52317.99
579.53	52519.28
579.69	52561.41
579.85	52694.82
580.01	52442.04
580.17	51889.68
580.33	51831.16
580.49	52217.35
580.65	52278.21
580.82	52369.49
580.98	52280.55
581.14	52519.28
581.30	52257.14
581.46	51999.68
581.62	52694.82
581.78	52535.66
581.94	52659.71
582.10	52790.78
582.26	52648.01
582.42	52601.20
582.58	53001.43
582.74	52423.32
582.90	52617.58
583.06	52584.82
583.22	52222.03
583.38	52177.56
583.54	52498.22
583.70	52119.05
583.86	51997.34
584.02	51962.23
584.18	52058.20
584.34	51976.28
584.50	51852.23
584.66	51735.20
584.82	51468.38
584.98	51395.82
585.14	51002.61
585.30	50061.72
