SpectraSuite Data File
++++++++++++++++++++++++++++++++++++
Date: Mon Oct 07 14:54:57 GMT-05:00 2013
User: price-jones
Dark Spectrum Present: No
Reference Spectrum Present: No
Number of Sampled Component Spectra: 1
Spectrometers: USB2+H05261
Integration Time (usec): 10000 (USB2+H05261)
Spectra Averaged: 1 (USB2+H05261)
Boxcar Smoothing: 0 (USB2+H05261)
Correct for Electrical Dark: No (USB2+H05261)
Strobe/Lamp Enabled: No (USB2+H05261)
Correct for Detector Non-linearity: No (USB2+H05261)
Correct for Stray Light: No (USB2+H05261)
Number of Pixels in Processed Spectrum: 2048
>>>>>Begin Processed Spectral Data<<<<<
365.73	0.00
365.92	0.00
366.12	0.00
366.32	0.00
366.52	0.00
366.72	0.00
366.91	0.00
367.11	0.00
367.31	0.00
367.51	0.00
367.70	0.00
367.90	0.00
368.10	0.00
368.30	0.00
368.49	0.00
368.69	0.00
368.89	0.00
369.09	0.00
369.28	0.00
369.48	0.00
369.68	0.00
369.87	0.00
370.07	0.00
370.27	0.00
370.47	1081.33
370.66	4880.02
370.86	5591.54
371.06	6033.90
371.25	5935.60
371.45	5549.41
371.65	4880.02
371.84	4725.54
372.04	5011.09
372.24	5516.64
372.44	5898.15
372.63	5678.14
372.83	5195.99
373.03	4601.49
373.22	4250.41
373.42	4601.49
373.62	5245.14
373.81	5638.35
374.01	5392.59
374.21	5069.60
374.40	4594.47
374.60	4814.48
374.79	5722.61
374.99	6675.21
375.19	6808.62
375.38	6862.45
375.58	6485.62
375.78	6389.66
375.97	6565.20
376.17	6789.89
376.37	6808.62
376.56	7096.50
376.76	7279.07
376.95	8149.75
377.15	8465.72
377.35	8760.63
377.54	9135.11
377.74	9270.86
377.93	9460.45
378.13	9004.04
378.33	8638.92
378.52	8142.72
378.72	7906.33
378.91	7564.61
379.11	7332.90
379.31	7236.94
379.50	7155.02
379.70	7819.73
379.89	8526.57
380.09	9078.94
380.28	9186.60
380.48	9121.07
380.68	9238.09
380.87	8910.42
381.07	8142.72
381.26	7520.14
381.46	7323.54
381.65	6801.60
381.85	6597.97
382.04	6384.98
382.24	5785.80
382.43	5694.52
382.63	5537.71
382.83	5628.99
383.02	5565.79
383.22	5636.01
383.41	5603.24
383.61	6080.71
383.80	6974.80
384.00	8177.83
384.19	8933.82
384.39	9453.42
384.58	9397.25
384.78	9214.69
384.97	9282.56
385.17	8339.33
385.36	8259.75
385.56	7719.09
385.75	8395.50
385.95	9090.64
386.14	9713.22
386.34	9528.32
386.53	9144.47
386.72	8641.26
386.92	8889.35
387.11	9413.63
387.31	9610.24
387.50	9460.45
387.70	9111.71
387.89	9095.32
388.09	9114.05
388.28	9177.24
388.48	9528.32
388.67	10223.46
388.86	11459.26
389.06	12182.49
389.25	12657.62
389.45	12718.47
389.64	12421.22
389.84	12222.28
390.03	12285.47
390.22	12444.63
390.42	13013.38
390.61	13713.20
390.81	14647.07
391.00	15178.37
391.19	14796.87
391.39	14174.28
391.58	13184.24
391.78	12388.46
391.97	12243.34
392.16	11382.03
392.36	10068.98
392.55	7927.39
392.75	6319.45
392.94	5291.95
393.13	5514.30
393.33	6640.10
393.52	8610.83
393.71	10333.47
393.91	11693.32
394.10	12554.63
394.29	13860.65
394.49	15117.52
394.68	16006.92
394.88	15892.24
395.07	16264.38
395.26	16411.84
395.46	15452.22
395.65	14361.53
395.84	12624.85
396.04	10375.59
396.23	8568.70
396.42	7215.87
396.62	7101.19
396.81	8755.94
397.00	11183.08
397.19	13947.25
397.39	16620.14
397.58	18263.20
397.77	19255.59
397.97	19857.10
398.16	20475.01
398.35	20973.54
398.55	22019.76
398.74	22349.78
398.93	22939.59
399.12	22466.80
399.32	21493.14
399.51	22721.92
399.70	23826.65
399.90	23569.19
400.09	23372.59
400.28	23538.77
400.47	23871.12
400.67	24989.90
400.86	25560.99
401.05	25436.94
401.24	25460.35
401.44	26335.71
401.63	26223.36
401.82	26494.86
402.01	26122.72
402.21	26677.43
402.40	26487.84
402.59	25495.46
402.78	24929.05
402.97	23777.50
403.17	25429.92
403.36	27101.06
403.55	27466.19
403.74	28168.35
403.93	26731.26
404.13	24655.20
404.32	24388.38
404.51	25928.45
404.70	27590.24
404.89	27225.11
405.09	26464.44
405.28	26214.00
405.47	26445.71
405.66	26867.01
405.85	25298.85
406.05	25055.43
406.24	25507.16
406.43	26504.23
406.62	27620.66
406.81	27480.23
407.00	26714.87
407.20	25799.73
407.39	26579.12
407.58	27604.28
407.77	29076.48
407.96	29184.14
408.15	29668.63
408.34	30080.56
408.54	31620.64
408.73	31498.93
408.92	30864.64
409.11	30080.56
409.30	28411.76
409.49	26803.82
409.68	24919.68
409.87	24568.60
410.07	27110.43
410.26	28936.04
410.45	30181.21
410.64	30958.27
410.83	32095.77
411.02	32652.81
411.21	33851.17
411.40	32676.22
411.59	33343.27
411.78	32835.38
411.98	32460.89
412.17	33043.68
412.36	33008.58
412.55	32795.59
412.74	31955.33
412.93	31281.26
413.12	32617.71
413.31	35377.20
413.50	35585.50
413.69	35391.24
413.88	34209.27
414.07	33701.37
414.26	34658.65
414.45	35185.27
414.64	34937.18
414.83	35424.01
415.02	34394.17
415.22	34724.19
415.41	36245.54
415.60	37106.85
415.79	38770.97
415.98	39363.13
416.17	39005.03
416.36	37930.72
416.55	37631.13
416.74	36453.84
416.93	35358.47
417.12	35302.30
417.31	36013.82
417.50	36868.12
417.69	38209.25
417.88	37699.01
418.07	36847.05
418.26	36446.82
418.45	37085.79
418.64	38295.85
418.83	39901.45
419.02	39100.99
419.21	38506.49
419.39	36755.77
419.58	35421.67
419.77	35646.36
419.96	37497.72
420.15	39440.37
420.34	40341.47
420.53	41750.48
420.72	42183.48
420.91	41689.62
421.10	41198.11
421.29	41003.85
421.48	39931.88
421.67	41808.99
421.86	40552.12
422.05	37848.80
422.24	34459.71
422.43	34939.52
422.61	38408.19
422.80	40528.72
422.99	40084.01
423.18	39182.91
423.37	38616.50
423.56	39522.29
423.75	40748.73
423.94	40968.74
424.13	39068.22
424.32	38902.04
424.50	38347.34
424.69	37914.34
424.88	38560.33
425.07	38349.68
425.26	38831.83
425.45	37785.61
425.64	36982.80
425.83	37677.94
426.01	40198.70
426.20	40786.18
426.39	40535.74
426.58	37427.51
426.77	33799.68
426.96	33071.77
427.15	35360.81
427.33	37944.76
427.52	39143.12
427.71	39096.31
427.90	38197.54
428.09	38492.45
428.28	37137.28
428.46	36311.07
428.65	35611.25
428.84	36924.29
429.03	37090.47
429.22	35398.26
429.40	33415.83
429.59	30167.16
429.78	27021.48
429.97	27138.51
430.16	27543.42
430.34	27466.19
430.53	27321.07
430.72	29085.84
430.91	32219.81
431.10	38176.48
431.28	43889.73
431.47	46230.26
431.66	46192.81
431.85	41989.21
432.03	38649.27
432.22	37565.60
432.41	40847.03
432.60	43915.47
432.79	45181.70
432.97	45996.21
433.16	44935.95
433.35	40989.80
433.54	37139.62
433.72	35204.00
433.91	37628.79
434.10	41085.76
434.28	44105.06
434.47	45537.46
434.66	44044.20
434.85	43290.55
435.03	43573.75
435.22	44308.68
435.41	46466.66
435.59	46527.51
435.78	47264.78
435.97	48683.14
436.16	48641.01
436.34	47681.39
436.53	47576.07
436.72	47220.31
436.90	45188.72
437.09	45457.88
437.28	44683.17
437.46	45961.10
437.65	45427.46
437.84	42351.99
438.02	39021.41
438.21	40222.11
438.40	42256.03
438.58	44999.14
438.77	46426.87
438.96	47075.19
439.14	48147.16
439.33	49160.61
439.52	49560.84
439.70	48215.04
439.89	47711.82
440.08	46450.27
440.26	46937.10
440.45	48921.88
440.63	51330.29
440.82	52383.53
441.01	51388.80
441.19	51597.11
441.38	52097.98
441.57	53649.76
441.75	53331.45
441.94	53769.13
442.12	53928.28
442.31	54415.11
442.50	54419.80
442.68	53853.39
442.87	53408.68
443.05	52631.63
443.24	53801.89
443.43	54354.26
443.61	54878.54
443.80	54820.03
443.98	53483.58
444.17	53392.30
444.35	54646.83
444.54	55152.38
444.73	55119.62
444.91	53148.88
445.10	52055.85
445.28	51515.19
445.47	50768.56
445.65	50813.03
445.84	52336.72
446.02	53303.36
446.21	53640.40
446.39	53703.59
446.58	54160.00
446.77	54529.80
446.95	55000.25
447.14	55395.80
447.32	55800.71
447.51	55262.39
447.69	54003.18
447.88	54085.10
448.06	54899.61
448.25	55145.36
448.43	55220.26
448.62	54780.24
448.80	54822.37
448.99	54901.95
449.17	55150.04
449.36	55009.61
449.54	55707.09
449.73	56137.75
449.91	56868.00
450.10	57628.67
450.28	57858.04
450.46	57858.04
450.65	57687.18
450.83	57202.69
451.02	56992.04
451.20	56720.54
451.39	56872.68
451.57	56711.18
451.76	56729.90
451.94	56659.69
452.13	55660.28
452.31	54026.59
452.49	52828.23
452.68	54045.31
452.86	54424.48
453.05	54698.32
453.23	55650.92
453.42	56282.86
453.60	56278.18
453.78	56713.52
453.97	56563.73
454.15	56472.45
454.34	56369.46
454.52	56126.05
454.70	55510.49
454.89	55824.12
455.07	55718.79
455.26	56577.77
455.44	57429.72
455.62	57982.09
455.81	57996.13
455.99	57446.11
456.17	57532.71
456.36	58014.86
456.54	58433.81
456.73	58578.93
456.91	58913.62
457.09	59023.63
457.28	59234.28
457.46	58244.23
457.64	57846.34
457.83	57385.25
458.01	56729.90
458.19	57724.63
458.38	58010.18
458.56	58412.75
458.74	58262.96
458.93	57930.60
459.11	57305.68
459.29	57270.57
459.48	57773.78
459.66	57516.32
459.84	57977.41
460.03	58178.70
460.21	58482.97
460.39	59529.19
460.57	58981.50
460.76	59414.50
460.94	59505.78
461.12	59234.28
461.31	59145.34
461.49	59166.40
461.67	59173.42
461.85	59845.16
462.04	59550.25
462.22	59779.62
462.40	59875.58
462.59	59487.06
462.77	59597.06
462.95	59814.73
463.13	59503.44
463.32	59152.36
463.50	59278.75
463.68	59133.63
463.86	59423.86
464.05	59089.16
464.23	58330.83
464.41	58031.24
464.59	58106.14
464.78	59657.91
464.96	59267.05
465.14	58700.64
465.32	59309.18
465.50	60020.70
465.69	60374.12
465.87	59952.82
466.05	58780.21
466.23	57640.37
466.41	57523.35
466.60	58279.34
466.78	58450.20
466.96	58761.49
467.14	59421.52
467.32	59292.79
467.51	59784.30
467.69	58698.30
467.87	58939.37
468.05	59119.59
468.23	59615.79
468.41	59585.36
468.60	59777.28
468.78	59868.56
468.96	59388.75
469.14	59686.00
469.32	59826.43
469.50	58824.68
469.69	58712.34
469.87	58522.76
470.05	58492.33
470.23	58583.61
470.41	58920.65
470.59	59168.74
470.77	59435.56
470.95	59873.24
471.14	60423.27
471.32	60449.02
471.50	61858.02
471.68	61368.85
471.86	61396.93
472.04	61752.69
472.22	61485.87
472.40	60025.38
472.58	60093.25
472.77	60385.82
472.95	60491.15
473.13	61001.38
473.31	60388.16
473.49	60917.12
473.67	61293.95
473.85	61352.46
474.03	61944.62
474.21	62026.54
474.39	62735.72
474.57	62852.75
474.75	62705.29
474.93	62499.33
475.12	61647.37
475.30	62056.96
475.48	61975.05
475.66	62152.93
475.84	61970.36
476.02	61645.03
476.20	61708.22
476.38	61755.03
476.56	62752.10
476.74	62997.86
476.92	63128.93
477.10	63470.65
477.28	64046.42
477.46	63763.21
477.64	64303.88
477.82	64603.47
478.00	64268.77
478.18	64245.36
478.36	64039.40
478.54	64299.20
478.72	64608.15
478.90	65197.96
479.08	65535.00
479.26	65535.00
479.44	65535.00
479.62	65535.00
479.80	65509.25
479.98	65535.00
480.16	65535.00
480.34	65535.00
480.52	65535.00
480.70	65535.00
480.88	65535.00
481.06	65535.00
481.24	65535.00
481.41	65535.00
481.59	65535.00
481.77	65535.00
481.95	65535.00
482.13	65535.00
482.31	65535.00
482.49	65535.00
482.67	65535.00
482.85	65535.00
483.03	65535.00
483.21	65535.00
483.39	65535.00
483.57	65535.00
483.74	65535.00
483.92	65535.00
484.10	65535.00
484.28	65535.00
484.46	65535.00
484.64	65535.00
484.82	65535.00
485.00	65535.00
485.18	65535.00
485.35	65535.00
485.53	65275.20
485.71	61820.57
485.89	62787.21
486.07	64390.48
486.25	65535.00
486.43	65535.00
486.61	65535.00
486.78	65535.00
486.96	65535.00
487.14	65535.00
487.32	65535.00
487.50	65535.00
487.68	65535.00
487.85	65535.00
488.03	65535.00
488.21	65535.00
488.39	65535.00
488.57	65535.00
488.75	65535.00
488.92	65535.00
489.10	65535.00
489.28	65535.00
489.46	65535.00
489.64	65535.00
489.81	65535.00
489.99	65535.00
490.17	65535.00
490.35	65535.00
490.53	65535.00
490.70	65535.00
490.88	65535.00
491.06	65535.00
491.24	65535.00
491.41	65535.00
491.59	65535.00
491.77	65535.00
491.95	65535.00
492.13	65535.00
492.30	65535.00
492.48	65535.00
492.66	65535.00
492.84	65535.00
493.01	65535.00
493.19	65535.00
493.37	65535.00
493.54	65535.00
493.72	65535.00
493.90	65535.00
494.08	65535.00
494.25	65535.00
494.43	65535.00
494.61	65535.00
494.79	65535.00
494.96	65535.00
495.14	65535.00
495.32	65535.00
495.49	65535.00
495.67	65535.00
495.85	65535.00
496.02	65535.00
496.20	65535.00
496.38	65535.00
496.55	65535.00
496.73	65535.00
496.91	65535.00
497.09	65535.00
497.26	65535.00
497.44	65535.00
497.62	65535.00
497.79	65535.00
497.97	65535.00
498.14	65535.00
498.32	65535.00
498.50	65535.00
498.67	65535.00
498.85	65535.00
499.03	65535.00
499.20	65535.00
499.38	65535.00
499.56	65535.00
499.73	65535.00
499.91	65535.00
500.08	65535.00
500.26	65535.00
500.44	65535.00
500.61	65535.00
500.79	65535.00
500.97	65535.00
501.14	65535.00
501.32	65535.00
501.49	65535.00
501.67	65535.00
501.84	65535.00
502.02	65535.00
502.20	65535.00
502.37	65535.00
502.55	65535.00
502.72	65535.00
502.90	65535.00
503.07	65535.00
503.25	65535.00
503.43	65535.00
503.60	65535.00
503.78	65535.00
503.95	65535.00
504.13	65535.00
504.30	65535.00
504.48	65535.00
504.65	65535.00
504.83	65535.00
505.01	65535.00
505.18	65535.00
505.36	65535.00
505.53	65535.00
505.71	65535.00
505.88	65535.00
506.06	65535.00
506.23	65535.00
506.41	65535.00
506.58	65535.00
506.76	65535.00
506.93	65535.00
507.11	65535.00
507.28	65535.00
507.46	65535.00
507.63	65535.00
507.81	65535.00
507.98	65535.00
508.16	65535.00
508.33	65535.00
508.50	65535.00
508.68	65535.00
508.85	65535.00
509.03	65535.00
509.20	65535.00
509.38	65535.00
509.55	65535.00
509.73	65535.00
509.90	65535.00
510.08	65535.00
510.25	65535.00
510.42	65535.00
510.60	65535.00
510.77	65535.00
510.95	65535.00
511.12	65535.00
511.30	65535.00
511.47	65535.00
511.64	65535.00
511.82	65535.00
511.99	65535.00
512.17	65535.00
512.34	65535.00
512.51	65535.00
512.69	65535.00
512.86	65535.00
513.04	65535.00
513.21	65535.00
513.38	65535.00
513.56	65535.00
513.73	65535.00
513.90	65535.00
514.08	65535.00
514.25	65535.00
514.43	65535.00
514.60	65535.00
514.77	65535.00
514.95	65535.00
515.12	65535.00
515.29	65535.00
515.47	65535.00
515.64	65535.00
515.81	65535.00
515.99	65535.00
516.16	65535.00
516.33	65535.00
516.51	65535.00
516.68	65535.00
516.85	65535.00
517.03	65535.00
517.20	65535.00
517.37	65535.00
517.54	65535.00
517.72	65535.00
517.89	65535.00
518.06	65535.00
518.24	65535.00
518.41	65535.00
518.58	65535.00
518.75	65535.00
518.93	65535.00
519.10	65535.00
519.27	65535.00
519.45	65535.00
519.62	65535.00
519.79	65535.00
519.96	65535.00
520.14	65535.00
520.31	65535.00
520.48	65535.00
520.65	65535.00
520.83	65535.00
521.00	65535.00
521.17	65535.00
521.34	65535.00
521.52	65535.00
521.69	65535.00
521.86	65535.00
522.03	65535.00
522.20	65535.00
522.38	65535.00
522.55	65535.00
522.72	65535.00
522.89	65535.00
523.07	65535.00
523.24	65535.00
523.41	65535.00
523.58	65535.00
523.75	65535.00
523.92	65535.00
524.10	65535.00
524.27	65535.00
524.44	65535.00
524.61	65535.00
524.78	65535.00
524.96	65535.00
525.13	65535.00
525.30	65535.00
525.47	65535.00
525.64	65535.00
525.81	65535.00
525.98	65535.00
526.16	65535.00
526.33	65535.00
526.50	65535.00
526.67	65535.00
526.84	65535.00
527.01	65535.00
527.18	65535.00
527.36	65535.00
527.53	65535.00
527.70	65535.00
527.87	65535.00
528.04	65535.00
528.21	65535.00
528.38	65535.00
528.55	65535.00
528.72	65535.00
528.89	65535.00
529.07	65535.00
529.24	65535.00
529.41	65535.00
529.58	65535.00
529.75	65535.00
529.92	65535.00
530.09	65535.00
530.26	65535.00
530.43	65535.00
530.60	65535.00
530.77	65535.00
530.94	65535.00
531.11	65535.00
531.28	65535.00
531.46	65535.00
531.63	65535.00
531.80	65535.00
531.97	65535.00
532.14	65535.00
532.31	65535.00
532.48	65535.00
532.65	65535.00
532.82	65535.00
532.99	65535.00
533.16	65535.00
533.33	65535.00
533.50	65535.00
533.67	65535.00
533.84	65535.00
534.01	65535.00
534.18	65535.00
534.35	65535.00
534.52	65535.00
534.69	65535.00
534.86	65535.00
535.03	65535.00
535.20	65535.00
535.37	65535.00
535.54	65535.00
535.71	65535.00
535.88	65535.00
536.05	65535.00
536.22	65535.00
536.38	65535.00
536.55	65535.00
536.72	65535.00
536.89	65535.00
537.06	65535.00
537.23	65535.00
537.40	65535.00
537.57	65535.00
537.74	65535.00
537.91	65535.00
538.08	65535.00
538.25	65535.00
538.42	65535.00
538.59	65535.00
538.75	65535.00
538.92	65535.00
539.09	65535.00
539.26	65535.00
539.43	65535.00
539.60	65535.00
539.77	65535.00
539.94	65535.00
540.11	65535.00
540.28	65535.00
540.44	65535.00
540.61	65535.00
540.78	65535.00
540.95	65535.00
541.12	65535.00
541.29	65535.00
541.46	65535.00
541.62	65535.00
541.79	65535.00
541.96	65535.00
542.13	65535.00
542.30	65535.00
542.47	65535.00
542.63	65535.00
542.80	65535.00
542.97	65535.00
543.14	65535.00
543.31	65535.00
543.48	65535.00
543.64	65535.00
543.81	65535.00
543.98	65535.00
544.15	65535.00
544.32	65535.00
544.48	65535.00
544.65	65535.00
544.82	65535.00
544.99	65535.00
545.16	65535.00
545.32	65535.00
545.49	65535.00
545.66	65535.00
545.83	65535.00
546.00	65535.00
546.16	65535.00
546.33	65535.00
546.50	65535.00
546.67	65535.00
546.83	65535.00
547.00	65535.00
547.17	65535.00
547.34	65535.00
547.50	65535.00
547.67	65535.00
547.84	65535.00
548.00	65535.00
548.17	65535.00
548.34	65535.00
548.51	65535.00
548.67	65535.00
548.84	65535.00
549.01	65535.00
549.18	65535.00
549.34	65535.00
549.51	65535.00
549.68	65535.00
549.84	65535.00
550.01	65535.00
550.18	65535.00
550.34	65535.00
550.51	65535.00
550.68	65535.00
550.84	65535.00
551.01	65535.00
551.18	65535.00
551.34	65535.00
551.51	65535.00
551.68	65535.00
551.84	65535.00
552.01	65535.00
552.18	65535.00
552.34	65535.00
552.51	65535.00
552.68	65535.00
552.84	65535.00
553.01	65535.00
553.18	65535.00
553.34	65535.00
553.51	65535.00
553.67	65535.00
553.84	65535.00
554.01	65535.00
554.17	65535.00
554.34	65535.00
554.51	65535.00
554.67	65535.00
554.84	65535.00
555.00	65535.00
555.17	65535.00
555.33	65535.00
555.50	65535.00
555.67	65535.00
555.83	65535.00
556.00	65535.00
556.16	65535.00
556.33	65535.00
556.50	65535.00
556.66	65535.00
556.83	65535.00
556.99	65535.00
557.16	65535.00
557.32	65535.00
557.49	65535.00
557.65	65535.00
557.82	65535.00
557.98	65535.00
558.15	65535.00
558.32	65535.00
558.48	65535.00
558.65	65535.00
558.81	65535.00
558.98	65535.00
559.14	65535.00
559.31	65535.00
559.47	65535.00
559.64	65535.00
559.80	65535.00
559.97	65535.00
560.13	65535.00
560.30	65535.00
560.46	65535.00
560.63	65535.00
560.79	65535.00
560.96	65535.00
561.12	65535.00
561.29	65535.00
561.45	65535.00
561.61	65535.00
561.78	65535.00
561.94	65535.00
562.11	65535.00
562.27	65535.00
562.44	65535.00
562.60	65535.00
562.77	65535.00
562.93	65535.00
563.10	65535.00
563.26	65535.00
563.42	65535.00
563.59	65535.00
563.75	65535.00
563.92	65535.00
564.08	65535.00
564.24	65535.00
564.41	65535.00
564.57	65535.00
564.74	65535.00
564.90	65535.00
565.07	65535.00
565.23	65535.00
565.39	65535.00
565.56	65535.00
565.72	65535.00
565.88	65535.00
566.05	65535.00
566.21	65535.00
566.38	65535.00
566.54	65535.00
566.70	65535.00
566.87	65535.00
567.03	65535.00
567.19	65535.00
567.36	65535.00
567.52	65535.00
567.68	65535.00
567.85	65535.00
568.01	65535.00
568.17	65535.00
568.34	65535.00
568.50	65535.00
568.66	65535.00
568.83	65535.00
568.99	65535.00
569.15	65535.00
569.32	65535.00
569.48	65535.00
569.64	65535.00
569.81	65535.00
569.97	65535.00
570.13	65535.00
570.30	65535.00
570.46	65535.00
570.62	65535.00
570.78	65535.00
570.95	65535.00
571.11	65535.00
571.27	65535.00
571.43	65535.00
571.60	65535.00
571.76	65535.00
571.92	65535.00
572.09	65535.00
572.25	65535.00
572.41	65535.00
572.57	65535.00
572.74	65535.00
572.90	65535.00
573.06	65535.00
573.22	65535.00
573.38	65535.00
573.55	65535.00
573.71	65535.00
573.87	65535.00
574.03	65535.00
574.20	65535.00
574.36	65535.00
574.52	65535.00
574.68	65535.00
574.84	65535.00
575.01	65535.00
575.17	65535.00
575.33	65535.00
575.49	65535.00
575.65	65535.00
575.82	65535.00
575.98	65535.00
576.14	65535.00
576.30	65535.00
576.46	65535.00
576.62	65535.00
576.79	65535.00
576.95	65535.00
577.11	65535.00
577.27	65535.00
577.43	65535.00
577.59	65535.00
577.75	65535.00
577.92	65535.00
578.08	65535.00
578.24	65535.00
578.40	65535.00
578.56	65535.00
578.72	65535.00
578.88	65535.00
579.04	65535.00
579.21	65535.00
579.37	65535.00
579.53	65535.00
579.69	65535.00
579.85	65535.00
580.01	65535.00
580.17	65535.00
580.33	65535.00
580.49	65535.00
580.65	65535.00
580.82	65535.00
580.98	65535.00
581.14	65535.00
581.30	65535.00
581.46	65535.00
581.62	65535.00
581.78	65535.00
581.94	65535.00
582.10	65535.00
582.26	65535.00
582.42	65535.00
582.58	65535.00
582.74	65535.00
582.90	65535.00
583.06	65535.00
583.22	65535.00
583.38	65535.00
583.54	65535.00
583.70	65535.00
583.86	65535.00
584.02	65535.00
584.18	65535.00
584.34	65535.00
584.50	65535.00
584.66	65535.00
584.82	65535.00
