SpectraSuite Data File
++++++++++++++++++++++++++++++++++++
Date: Mon Oct 07 14:54:56 GMT-05:00 2013
User: price-jones
Dark Spectrum Present: No
Reference Spectrum Present: No
Number of Sampled Component Spectra: 1
Spectrometers: USB2+H05261
Integration Time (usec): 10000 (USB2+H05261)
Spectra Averaged: 1 (USB2+H05261)
Boxcar Smoothing: 0 (USB2+H05261)
Correct for Electrical Dark: No (USB2+H05261)
Strobe/Lamp Enabled: No (USB2+H05261)
Correct for Detector Non-linearity: No (USB2+H05261)
Correct for Stray Light: No (USB2+H05261)
Number of Pixels in Processed Spectrum: 2048
>>>>>Begin Processed Spectral Data<<<<<
365.73	0.00
365.92	0.00
366.12	0.00
366.32	0.00
366.52	0.00
366.72	0.00
366.91	0.00
367.11	0.00
367.31	0.00
367.51	0.00
367.70	0.00
367.90	0.00
368.10	0.00
368.30	0.00
368.49	0.00
368.69	0.00
368.89	0.00
369.09	0.00
369.28	0.00
369.48	0.00
369.68	0.00
369.87	0.00
370.07	0.00
370.27	0.00
370.47	418.96
370.66	2548.84
370.86	2897.58
371.06	3229.94
371.25	3068.44
371.45	2796.94
371.65	2487.99
371.84	2352.24
372.04	2595.65
372.24	2829.71
372.44	3042.70
372.63	2871.84
372.83	2590.97
373.03	2223.51
373.22	2209.47
373.42	2363.94
373.62	2862.48
373.81	2906.95
374.01	2825.03
374.21	2609.70
374.40	2399.05
374.60	2572.25
374.79	3026.31
374.99	3482.72
375.19	3566.98
375.38	3447.61
375.58	3370.37
375.78	3410.16
375.97	3335.26
376.17	3538.89
376.37	3536.55
376.56	3581.02
376.76	3962.53
376.95	4306.59
377.15	4435.32
377.35	4557.02
377.54	4723.20
377.74	4753.63
377.93	4835.55
378.13	4547.66
378.33	4339.35
378.52	4081.89
378.72	3882.95
378.91	3786.99
379.11	3847.84
379.31	3613.79
379.50	3857.20
379.70	4039.76
379.89	4437.66
380.09	4678.73
380.28	4760.65
380.48	4610.86
380.68	4465.74
380.87	4304.25
381.07	4091.26
381.26	3796.35
381.46	3482.72
381.65	3424.20
381.85	3222.92
382.04	3204.19
382.24	3026.31
382.43	2825.03
382.63	2906.95
382.83	2796.94
383.02	2864.82
383.22	2839.07
383.41	2848.43
383.61	3105.89
383.80	3667.62
384.00	4196.58
384.19	4662.35
384.39	4779.37
384.58	4732.56
384.78	4458.72
384.97	4683.41
385.17	4322.97
385.36	4177.86
385.56	3911.04
385.75	4208.28
385.95	4613.20
386.14	4959.60
386.34	4737.24
386.53	4627.24
386.72	4421.27
386.92	4512.55
387.11	4690.43
387.31	4926.83
387.50	4894.06
387.70	4833.21
387.89	4594.47
388.09	4690.43
388.28	4692.77
388.48	4858.95
388.67	5420.68
388.86	5919.21
389.06	5919.21
389.25	6228.17
389.45	6417.75
389.64	6338.17
389.84	6305.40
390.03	6101.78
390.22	6207.10
390.42	6745.42
390.61	7091.82
390.81	7599.72
391.00	7536.52
391.19	7421.84
391.39	7007.56
391.58	6569.88
391.78	6258.59
391.97	6024.54
392.16	5884.11
392.36	4990.02
392.55	3836.14
392.75	3117.59
392.94	2628.42
393.13	2764.17
393.33	3492.08
393.52	4374.46
393.71	5282.59
393.91	5846.66
394.10	6434.13
394.29	7105.87
394.49	7646.53
394.68	8149.75
394.88	8138.04
395.07	8273.79
395.26	8067.83
395.46	7810.37
395.65	7304.81
395.84	6239.87
396.04	5203.01
396.23	4224.67
396.42	3595.06
396.62	3719.11
396.81	4425.95
397.00	5671.12
397.19	7159.70
397.39	8493.80
397.58	9249.80
397.77	9914.51
397.97	10125.16
398.16	10010.47
398.35	10436.45
398.55	11028.60
398.74	11243.93
398.93	11044.99
399.12	11140.95
399.32	10932.64
399.51	11351.60
399.70	12074.82
399.90	11681.61
400.09	11751.83
400.28	11578.63
400.47	11871.20
400.67	12395.48
400.86	12617.83
401.05	12933.80
401.24	12805.07
401.44	12996.99
401.63	12837.84
401.82	13081.25
402.01	13062.53
402.21	12992.31
402.40	13441.70
402.59	12868.27
402.78	12203.55
402.97	11896.94
403.17	12699.75
403.36	13181.90
403.55	13530.64
403.74	13928.53
403.93	13057.85
404.13	12226.96
404.32	12318.24
404.51	12732.51
404.70	13804.48
404.89	13521.27
405.09	13158.49
405.28	12989.97
405.47	12999.34
405.66	12812.09
405.85	12358.03
406.05	12194.19
406.24	12575.70
406.43	13291.90
406.62	13544.68
406.81	13397.23
407.00	13109.34
407.20	12575.70
407.39	12968.91
407.58	13633.62
407.77	14349.82
407.96	14693.88
408.15	14712.61
408.34	14981.77
408.54	15679.25
408.73	15475.62
408.92	15255.61
409.11	14677.50
409.30	14045.55
409.49	12931.46
409.68	12243.34
409.87	12208.23
410.07	13446.38
410.26	14099.39
410.45	14717.29
410.64	15269.66
410.83	15831.38
411.02	16009.26
411.21	16383.75
411.40	16339.28
411.59	16842.50
411.78	16748.87
411.98	16245.66
412.17	16416.52
412.36	16166.08
412.55	16030.33
412.74	15433.49
412.93	15433.49
413.12	16224.59
413.31	17296.56
413.50	16915.05
413.69	17006.33
413.88	16191.83
414.07	16198.85
414.26	16931.44
414.45	17224.00
414.64	17050.80
414.83	17252.09
415.02	16978.25
415.22	17319.96
415.41	17661.68
415.60	18054.89
415.79	18815.57
415.98	18874.08
416.17	19054.30
416.36	18546.40
416.55	18288.95
416.74	17666.36
416.93	16851.86
417.12	17074.21
417.31	17345.71
417.50	17944.89
417.69	18569.81
417.88	18270.22
418.07	18106.38
418.26	18031.49
418.45	18387.25
418.64	18913.87
418.83	19772.85
419.02	19154.94
419.21	18586.19
419.39	17912.12
419.58	17331.67
419.77	17479.12
419.96	18377.89
420.15	19030.90
420.34	19943.70
420.53	20695.02
420.72	21083.55
420.91	20645.87
421.10	20247.97
421.29	20552.24
421.48	19803.27
421.67	20414.15
421.86	19765.82
422.05	18155.54
422.24	16479.71
422.43	17226.34
422.61	19419.42
422.80	19917.96
422.99	19344.53
423.18	19232.18
423.37	18831.95
423.56	19073.03
423.75	19508.37
423.94	19604.33
424.13	18232.77
424.32	18691.52
424.50	18621.30
424.69	18424.70
424.88	18764.07
425.07	18689.18
425.26	18670.45
425.45	18019.78
425.64	17846.58
425.83	18331.08
426.01	19442.83
426.20	19845.40
426.39	19192.39
426.58	17397.20
426.77	16486.73
426.96	16294.81
427.15	17249.75
427.33	18232.77
427.52	18569.81
427.71	19009.83
427.90	18675.13
428.09	18279.58
428.28	17696.79
428.46	16992.29
428.65	17326.99
428.84	18024.47
429.03	17668.70
429.22	16783.98
429.40	15901.60
429.59	14604.94
429.78	12954.87
429.97	13205.30
430.16	13135.09
430.34	12861.24
430.53	13099.98
430.72	13977.68
430.91	15580.95
431.10	18527.68
431.28	21694.43
431.47	22647.02
431.66	22192.96
431.85	20184.78
432.03	18644.71
432.22	18567.47
432.41	19974.13
432.60	21270.79
432.79	21942.52
432.97	22314.67
433.16	21301.22
433.35	19073.03
433.54	17083.57
433.72	16917.39
433.91	17659.34
434.10	20264.36
434.28	21476.76
434.47	22221.05
434.66	21343.35
434.85	21109.29
435.03	21238.02
435.22	21809.11
435.41	22941.93
435.59	22794.48
435.78	23166.62
435.97	23623.03
436.16	23693.24
436.34	23360.89
436.53	22920.87
436.72	22946.61
436.90	21942.52
437.09	21961.25
437.28	21930.82
437.46	22504.25
437.65	22366.16
437.84	19981.15
438.02	19117.50
438.21	19655.82
438.40	20369.68
438.58	21577.40
438.77	22618.94
438.96	23075.34
439.14	24191.78
439.33	24535.84
439.52	24318.17
439.70	23618.35
439.89	22897.46
440.08	22583.83
440.26	22796.82
440.45	23803.25
440.63	25799.73
440.82	26426.99
441.01	25619.50
441.19	25523.54
441.38	26396.56
441.57	27185.32
441.75	26794.45
441.94	26988.72
442.12	27367.88
442.31	28039.62
442.50	27786.84
442.68	27892.16
442.87	26593.17
443.05	26471.46
443.24	28130.90
443.43	28187.07
443.61	28428.15
443.80	28678.58
443.98	27428.74
444.17	27438.10
444.35	29233.29
444.54	28919.66
444.73	28430.49
444.91	27082.34
445.10	26204.64
445.28	25149.06
445.47	24844.79
445.65	24886.92
445.84	26300.60
446.02	27442.78
446.21	27861.74
446.39	27683.86
446.58	28477.30
446.77	28631.77
446.95	28898.59
447.14	29652.25
447.32	29757.57
447.51	28903.28
447.69	27529.38
447.88	27513.00
448.06	28252.61
448.25	28725.39
448.43	29027.32
448.62	27950.68
448.80	28353.25
448.99	28367.29
449.17	28634.11
449.36	29172.44
449.54	29493.09
449.73	30574.42
449.91	30778.04
450.10	31934.27
450.28	31721.28
450.46	31709.58
450.65	31466.16
450.83	31309.35
451.02	30529.95
451.20	30579.10
451.39	30850.60
451.57	31009.76
451.76	30738.26
451.94	30118.01
452.13	29034.35
452.31	28261.97
452.49	27756.41
452.68	27934.29
452.86	27452.14
453.05	28151.96
453.23	29090.52
453.42	30106.31
453.60	30747.62
453.78	30918.48
453.97	30391.86
454.15	30792.09
454.34	29455.64
454.52	29708.42
454.70	29263.72
454.89	29855.87
455.07	29570.33
455.26	30466.75
455.44	31365.52
455.62	31988.10
455.81	31768.09
455.99	31955.33
456.17	31606.59
456.36	31995.12
456.54	32013.85
456.73	32355.57
456.91	33048.36
457.09	32818.99
457.28	33273.06
457.46	31498.93
457.64	31461.48
457.83	29685.01
458.01	30429.30
458.19	31456.80
458.38	32559.19
458.56	32943.04
458.74	31463.82
458.93	31154.87
459.11	31896.82
459.29	31321.05
459.48	31281.26
459.66	31468.50
459.84	31646.38
460.03	31763.41
460.21	32226.84
460.39	33350.29
460.57	32554.51
460.76	33319.87
460.94	32868.14
461.12	32524.08
461.31	33207.52
461.49	32701.96
461.67	32554.51
461.85	34202.25
462.04	34377.79
462.22	33570.30
462.40	34244.38
462.59	33759.89
462.77	34235.02
462.95	33748.18
463.13	33841.81
463.32	33282.42
463.50	33174.75
463.68	33542.22
463.86	33317.53
464.05	32339.18
464.23	31892.14
464.41	31077.63
464.59	31381.90
464.78	33427.53
464.96	32762.82
465.14	32870.48
465.32	33560.94
465.50	33989.26
465.69	34024.37
465.87	33359.66
466.05	31868.73
466.23	30789.75
466.41	31040.18
466.60	32493.66
466.78	31756.39
466.96	31889.80
467.14	32826.01
467.32	32636.43
467.51	33050.70
467.69	31845.33
467.87	32322.80
468.05	33177.09
468.23	32996.87
468.41	33240.29
468.60	33352.63
468.78	33378.38
468.96	32622.39
469.14	33481.36
469.32	33675.63
469.50	32165.98
469.69	32079.38
469.87	31908.52
470.05	32187.05
470.23	31955.33
470.41	32189.39
470.59	33254.33
470.77	33191.14
470.95	33301.14
471.14	34302.89
471.32	34132.03
471.50	36074.68
471.68	35105.70
471.86	36783.86
472.04	36535.76
472.22	36013.82
472.40	34017.35
472.58	34136.71
472.77	33633.50
472.95	34651.63
473.13	34958.24
473.31	34338.00
473.49	35325.71
473.67	35665.08
473.85	35782.11
474.03	37315.16
474.21	37479.00
474.39	37659.22
474.57	37900.29
474.75	36863.44
474.93	36807.26
475.12	35601.89
475.30	36404.69
475.48	36835.35
475.66	37715.39
475.84	36608.32
476.02	36154.26
476.20	35281.24
476.38	36552.15
476.56	37553.90
476.74	37670.92
476.92	38232.65
477.10	39098.65
477.28	38974.60
477.46	39412.28
477.64	39831.24
477.82	40257.21
478.00	40243.17
478.18	39711.87
478.36	39756.34
478.54	40364.88
478.72	41024.91
478.90	41804.31
479.08	42192.84
479.26	42316.89
479.44	41565.57
479.62	42834.14
479.80	42995.64
479.98	42895.00
480.16	43054.15
480.34	42066.45
480.52	43098.62
480.70	42600.09
480.88	43243.74
481.06	44294.64
481.24	44158.89
481.41	44212.72
481.59	45074.04
481.77	44659.76
481.95	44240.81
482.13	44336.77
482.31	44734.66
482.49	44865.73
482.67	44879.77
482.85	45385.33
483.03	46183.45
483.21	45773.86
483.39	46003.23
483.57	45125.53
483.74	45303.41
483.92	45441.50
484.10	45516.40
484.28	47126.69
484.46	47756.29
484.64	47793.74
484.82	46611.77
485.00	45862.80
485.18	44563.80
485.35	43250.76
485.53	39438.03
485.71	36748.75
485.89	37970.51
486.07	39866.34
486.25	42394.12
486.43	44360.17
486.61	44959.35
486.78	44470.18
486.96	45921.31
487.14	47185.20
487.32	47592.45
487.50	48191.63
487.68	49619.36
487.85	50160.02
488.03	49446.16
488.21	49937.67
488.39	48788.47
488.57	48229.08
488.75	48924.22
488.92	50279.39
489.10	51964.57
489.28	53205.06
489.46	53614.65
489.64	53198.04
489.81	54057.01
489.99	53492.94
490.17	53951.69
490.35	54143.61
490.53	53247.19
490.70	53286.98
490.88	53073.99
491.06	54225.53
491.24	53993.82
491.41	52140.11
491.59	51269.43
491.77	50595.36
491.95	51433.27
492.13	53137.18
492.30	54045.31
492.48	55079.83
492.66	55096.21
492.84	54604.70
493.01	54618.74
493.19	54005.52
493.37	53888.49
493.54	54181.06
493.72	55681.34
493.90	55983.27
494.08	56516.92
494.25	56002.00
494.43	56151.79
494.61	57076.30
494.79	56956.94
494.96	56926.51
495.14	56109.66
495.32	55660.28
495.49	55554.96
495.67	56683.09
495.85	57476.54
496.02	57605.26
496.20	57523.35
496.38	57097.37
496.55	56853.95
496.73	57144.18
496.91	57794.85
497.09	58340.19
497.26	58178.70
497.44	57286.95
497.62	56767.35
497.79	55938.80
497.97	54794.28
498.14	55379.42
498.32	56598.83
498.50	57535.05
498.67	57942.30
498.85	57607.61
499.03	57949.32
499.20	58005.50
499.38	57560.79
499.56	57605.26
499.73	57319.72
499.91	57368.87
500.08	56458.40
500.26	56016.04
500.44	56542.66
500.61	57118.43
500.79	56743.95
500.97	56573.09
501.14	56200.94
501.32	56079.24
501.49	56947.57
501.67	56575.43
501.84	57668.46
502.02	57420.36
502.20	57190.99
502.37	57015.45
502.55	57722.29
502.72	58157.63
502.90	58827.02
503.07	58131.89
503.25	58274.66
503.43	57359.51
503.60	56238.39
503.78	56149.45
503.95	56809.48
504.13	58213.80
504.30	58609.35
504.48	58267.64
504.65	57577.18
504.83	58190.40
505.01	59065.76
505.18	58768.51
505.36	59774.94
505.53	59772.60
505.71	59671.96
505.88	59068.10
506.06	58742.77
506.23	59112.57
506.41	58770.85
506.58	59072.78
506.76	58983.84
506.93	58911.28
507.11	58265.30
507.28	58848.09
507.46	58267.64
507.63	58616.38
507.81	57776.12
507.98	58068.69
508.16	58529.78
508.33	59620.47
508.50	59772.60
508.68	60388.16
508.85	60502.85
509.03	60062.83
509.20	59784.30
509.38	58855.11
509.55	58700.64
509.73	58897.24
509.90	59229.60
510.08	58993.20
510.25	58822.34
510.42	58773.19
510.60	58272.32
510.77	59288.11
510.95	59377.05
511.12	59269.39
511.30	59917.71
511.47	60488.80
511.64	60554.34
511.82	60149.43
511.99	59379.39
512.17	58815.32
512.34	58150.61
512.51	58616.38
512.69	59449.61
512.86	59384.07
513.04	58993.20
513.21	58962.78
513.38	58412.75
513.56	58740.42
513.73	58410.41
513.90	58075.71
514.08	58667.87
514.25	58337.85
514.43	58438.50
514.60	58597.65
514.77	59107.89
514.95	59075.12
515.12	58892.56
515.29	59887.29
515.47	60577.75
515.64	60350.71
515.81	59112.57
515.99	58487.65
516.16	56563.73
516.33	54789.60
516.51	53916.58
516.68	52254.80
516.85	53380.60
517.03	55140.68
517.20	57102.05
517.37	58190.40
517.54	59220.23
517.72	57874.43
517.89	55260.05
518.06	54475.97
518.24	54777.90
518.41	56954.60
518.58	58412.75
518.75	58166.99
518.93	58108.48
519.10	58211.46
519.27	58251.25
519.45	58684.25
519.62	59489.40
519.79	59955.16
519.96	59667.28
520.14	59316.20
520.31	58162.31
520.48	58717.02
520.65	58745.11
520.83	59735.15
521.00	59746.86
521.17	59213.21
521.34	59372.37
521.52	60151.77
521.69	60329.65
521.86	60521.57
522.03	59889.63
522.20	58967.46
522.38	58693.61
522.55	58143.59
522.72	58897.24
522.89	58583.61
523.07	58539.14
523.24	59325.56
523.41	60566.04
523.58	59898.99
523.75	60317.95
523.92	60271.14
524.10	60041.76
524.27	60612.85
524.44	60495.83
524.61	60067.51
524.78	60140.07
524.96	59620.47
525.13	60058.15
525.30	60331.99
525.47	60149.43
525.64	60430.29
525.81	59650.89
525.98	58482.97
526.16	56697.14
526.33	55817.10
526.50	55800.71
526.67	56346.06
526.84	57080.98
527.01	58162.31
527.18	58726.38
527.36	59943.46
527.53	59758.56
527.70	59786.64
527.87	59592.38
528.04	60076.87
528.21	60498.17
528.38	60905.42
528.55	61661.41
528.72	61481.19
528.89	61525.66
529.07	60645.62
529.24	59477.69
529.41	59288.11
529.58	59370.03
529.75	60608.17
529.92	60816.48
530.09	60757.97
530.26	60135.38
530.43	61439.06
530.60	61347.78
530.77	61272.88
530.94	61846.32
531.11	60933.51
531.28	60945.21
531.46	60577.75
531.63	60631.58
531.80	60427.95
531.97	59522.16
532.14	58447.86
532.31	57347.81
532.48	57279.93
532.65	57436.75
532.82	58253.59
532.99	59742.17
533.16	60659.66
533.33	60659.66
533.50	60186.88
533.67	60268.79
533.84	58988.52
534.01	59531.53
534.18	59650.89
534.35	59903.67
534.52	59428.54
534.69	59760.90
534.86	60282.84
535.03	60191.56
535.20	60516.89
535.37	60346.03
535.54	61010.74
535.71	61492.89
535.88	61368.85
536.05	59880.27
536.22	60453.70
536.38	59568.97
536.55	59498.76
536.72	58754.47
536.89	58820.00
537.06	59428.54
537.23	60023.04
537.40	59842.82
537.57	60088.57
537.74	59454.29
537.91	60444.33
538.08	59756.22
538.25	59702.38
538.42	59952.82
538.59	59753.88
538.75	59007.25
538.92	59526.84
539.09	59009.59
539.26	58536.80
539.43	58625.74
539.60	58777.87
539.77	58365.94
539.94	58501.69
540.11	58171.67
540.28	57244.82
540.44	57792.51
540.61	57888.47
540.78	58766.17
540.95	58454.88
541.12	58485.31
541.29	59358.33
541.46	59166.40
541.62	59222.58
541.79	58656.17
541.96	57776.12
542.13	58178.70
542.30	58766.17
542.47	57787.83
542.63	58639.78
542.80	58590.63
542.97	58557.86
543.14	58454.88
543.31	58555.52
543.48	59365.35
543.64	60229.01
543.81	60390.50
543.98	60411.57
544.15	59075.12
544.32	58829.37
544.48	59793.67
544.65	59465.99
544.82	60755.63
544.99	60369.44
545.16	59880.27
545.32	59138.32
545.49	59580.68
545.66	60151.77
545.83	60280.50
546.00	59245.98
546.16	59400.46
546.33	59079.80
546.50	58520.41
546.67	58599.99
546.83	58838.73
547.00	57991.45
547.17	57733.99
547.34	57324.40
547.50	57757.40
547.67	57432.07
547.84	57937.62
548.00	58873.84
548.17	58843.41
548.34	58562.54
548.51	59161.72
548.67	59044.69
548.84	59051.72
549.01	58829.37
549.18	58754.47
549.34	58763.83
549.51	58506.37
549.68	58361.26
549.84	57649.74
550.01	58309.77
550.18	58277.00
550.34	58595.31
550.51	58012.52
550.68	57755.06
550.84	57855.70
551.01	58356.58
551.18	58590.63
551.34	58810.64
551.51	58974.48
551.68	58581.27
551.84	59084.48
552.01	59147.68
552.18	58255.93
552.34	57565.48
552.51	57469.51
552.68	57719.95
552.84	58384.66
553.01	58717.02
553.18	59028.31
553.34	58461.90
553.51	58405.73
553.67	59306.83
553.84	58731.06
554.01	58499.35
554.17	58649.14
554.34	58588.29
554.51	58309.77
554.67	58712.34
554.84	58885.54
555.00	59297.47
555.17	58831.71
555.33	59201.51
555.50	58639.78
555.67	58607.01
555.83	57918.90
556.00	57195.67
556.16	57052.90
556.33	57350.15
556.50	56903.10
556.66	56692.46
556.83	57167.58
556.99	57677.82
557.16	57504.62
557.32	57851.02
557.49	57467.17
557.65	57616.97
557.82	58298.06
557.98	58038.26
558.15	57221.42
558.32	55693.05
558.48	56285.20
558.65	56100.30
558.81	57141.84
558.98	56491.17
559.14	56456.06
559.31	56889.06
559.47	57015.45
559.64	56582.45
559.80	56687.78
559.97	57095.03
560.13	57336.10
560.30	58382.32
560.46	58394.03
560.63	58532.12
560.79	58333.17
560.96	56851.61
561.12	55440.27
561.29	55840.50
561.45	56495.85
561.61	56706.50
561.78	56729.90
561.94	56427.98
562.11	57073.96
562.27	57151.20
562.44	56727.56
562.60	57954.00
562.77	57436.75
562.93	57031.83
563.10	56718.20
563.26	56472.45
563.42	56437.34
563.59	55494.10
563.75	56502.87
563.92	56795.44
564.08	56446.70
564.24	57111.41
564.41	56896.08
564.57	56994.39
564.74	55777.31
564.90	56102.64
565.07	55753.90
565.23	55543.25
565.39	56067.53
565.56	56554.36
565.72	55789.01
565.88	55674.32
566.05	56006.68
566.21	57102.05
566.38	56310.95
566.54	56875.02
566.70	57118.43
566.87	56643.30
567.03	56612.88
567.19	57612.29
567.36	56186.90
567.52	55828.80
567.68	55260.05
567.85	54993.23
568.01	54705.34
568.17	53614.65
568.34	54195.10
568.50	54347.24
568.66	54129.57
568.83	55763.26
568.99	55187.49
569.15	54630.44
569.32	54703.00
569.48	53930.62
569.64	54262.98
569.81	55063.44
569.97	54958.12
570.13	54298.09
570.30	54284.04
570.46	53357.19
570.62	53460.18
570.78	53474.22
570.95	53434.43
571.11	54562.57
571.27	55599.43
571.43	55381.76
571.60	55634.53
571.76	54368.30
571.92	54834.07
572.09	55585.38
572.25	55702.41
572.41	55173.45
572.57	55161.75
572.74	55105.57
572.90	54501.71
573.06	55505.80
573.22	54901.95
573.38	54756.83
573.55	55564.32
573.71	56292.22
573.87	55917.74
574.03	56002.00
574.20	54560.23
574.36	53963.39
574.52	53794.87
574.68	53214.42
574.84	53069.31
575.01	52652.69
575.17	53254.21
575.33	53551.46
575.49	53979.78
575.65	53860.41
575.82	53207.40
575.98	52884.40
576.14	52928.87
576.30	53270.59
576.46	53083.35
576.62	53982.12
576.79	54614.06
576.95	54681.94
577.11	54466.61
577.27	54064.03
577.43	53256.55
577.59	52554.39
577.75	52587.16
577.92	52507.58
578.08	53514.01
578.24	52933.56
578.40	53015.47
578.56	52963.98
578.72	54101.48
578.88	52608.22
579.04	52687.80
579.21	54220.85
579.37	54195.10
579.53	53626.35
579.69	53642.74
579.85	54363.62
580.01	53015.47
580.17	52760.36
580.33	53272.93
580.49	51924.78
580.65	52708.86
580.82	52739.29
580.98	53132.50
581.14	53925.94
581.30	53717.64
581.46	53991.48
581.62	54167.02
581.78	53329.11
581.94	53303.36
582.10	52868.02
582.26	53794.87
582.42	54148.29
582.58	54602.36
582.74	55246.00
582.90	54396.39
583.06	53932.96
583.22	54192.76
583.38	54066.38
583.54	52853.98
583.70	51751.59
583.86	52165.86
584.02	52200.97
584.18	52444.38
584.34	53165.27
584.50	54094.46
584.66	53038.88
584.82	52212.67
584.98	52081.60
585.14	53146.54
585.30	51325.61
