SpectraSuite Data File
++++++++++++++++++++++++++++++++++++
Date: Mon Oct 07 14:52:53 GMT-05:00 2013
User: price-jones
Dark Spectrum Present: No
Reference Spectrum Present: No
Number of Sampled Component Spectra: 1
Spectrometers: USB2+H05261
Integration Time (usec): 100000 (USB2+H05261)
Spectra Averaged: 1 (USB2+H05261)
Boxcar Smoothing: 0 (USB2+H05261)
Correct for Electrical Dark: No (USB2+H05261)
Strobe/Lamp Enabled: No (USB2+H05261)
Correct for Detector Non-linearity: No (USB2+H05261)
Correct for Stray Light: No (USB2+H05261)
Number of Pixels in Processed Spectrum: 2048
>>>>>Begin Processed Spectral Data<<<<<
365.73	0.00
365.92	0.00
366.12	0.00
366.32	0.00
366.52	0.00
366.72	0.00
366.91	0.00
367.11	0.00
367.31	0.00
367.51	0.00
367.70	0.00
367.90	0.00
368.10	0.00
368.30	0.00
368.49	0.00
368.69	0.00
368.89	0.00
369.09	0.00
369.28	0.00
369.48	0.00
369.68	0.00
369.87	0.00
370.07	0.00
370.27	0.00
370.47	1025.15
370.66	4196.58
370.86	4985.34
371.06	5427.70
371.25	5121.09
371.45	4814.48
371.65	4203.60
371.84	3976.57
372.04	4348.72
372.24	4805.12
372.44	5050.88
372.63	4833.21
372.83	4437.66
373.03	3819.75
373.22	3623.15
373.42	4016.36
373.62	4603.83
373.81	4751.29
374.01	4585.11
374.21	4163.81
374.40	4074.87
374.60	4241.05
374.79	4606.17
374.99	5289.61
375.19	5813.89
375.38	5652.39
375.58	5579.84
375.78	5366.85
375.97	5535.37
376.17	5612.60
376.37	5710.91
376.56	5818.57
376.76	6303.06
376.95	6597.97
377.15	7176.08
377.35	7286.09
377.54	7501.42
377.74	7665.25
377.93	7705.04
378.13	7693.34
378.33	7082.46
378.52	6546.48
378.72	6356.90
378.91	6071.35
379.11	5919.21
379.31	5781.12
379.50	5750.70
379.70	6331.15
379.89	7047.35
380.09	7272.04
380.28	7487.37
380.48	7503.76
380.68	7279.07
380.87	7026.29
381.07	6469.24
381.26	6204.76
381.46	5708.57
381.65	5516.64
381.85	5561.11
382.04	4985.34
382.24	4561.70
382.43	4582.77
382.63	4397.87
382.83	4566.39
383.02	4575.75
383.22	4447.02
383.41	4430.63
383.61	4926.83
383.80	5760.06
384.00	6282.00
384.19	6918.62
384.39	7365.67
384.58	7150.34
384.78	7054.37
384.97	7082.46
385.17	6675.21
385.36	6469.24
385.56	6181.35
385.75	6331.15
385.95	7197.15
386.14	7445.24
386.34	7400.77
386.53	7075.44
386.72	6679.89
386.92	6771.17
387.11	7211.19
387.31	7510.78
387.50	7309.49
387.70	7054.37
387.89	7148.00
388.09	7157.36
388.28	7136.29
388.48	7318.86
388.67	7789.30
388.86	8549.98
389.06	9100.00
389.25	9451.08
389.45	9678.12
389.64	9579.81
389.84	9430.02
390.03	9322.35
390.22	9572.79
390.42	9715.56
390.61	10361.55
390.81	10951.37
391.00	11358.62
391.19	11159.67
391.39	10923.28
391.58	10024.51
391.78	9439.38
391.97	9029.79
392.16	8573.38
392.36	7716.75
392.55	6115.82
392.75	5104.71
392.94	4105.30
393.13	4131.05
393.33	4908.10
393.52	6237.53
393.71	7627.81
393.91	8454.02
394.10	9455.76
394.29	10291.34
394.49	10775.83
394.68	11740.13
394.88	11754.17
395.07	11976.52
395.26	11798.64
395.46	11550.54
395.65	10644.76
395.84	9376.19
396.04	8056.12
396.23	6422.43
396.42	5530.69
396.62	5369.19
396.81	6370.94
397.00	8386.14
397.19	10178.99
397.39	11990.56
397.58	13193.60
397.77	14026.83
397.97	14972.41
398.16	14965.39
398.35	15075.39
398.55	15445.20
398.74	16367.37
398.93	16615.46
399.12	16042.03
399.32	16105.23
399.51	16233.96
399.70	16978.25
399.90	16720.79
400.09	16915.05
400.28	16769.94
400.47	17099.95
400.67	17860.63
400.86	18225.75
401.05	18136.81
401.24	18469.17
401.44	18576.83
401.63	18518.32
401.82	18675.13
402.01	18918.55
402.21	18960.68
402.40	18857.70
402.59	17982.34
402.78	17518.91
402.97	17486.14
403.17	17940.21
403.36	18745.35
403.55	19321.12
403.74	19742.42
403.93	18473.85
404.13	17451.03
404.32	17280.18
404.51	18073.62
404.70	19580.92
404.89	19129.20
405.09	18953.66
405.28	18518.32
405.47	18485.55
405.66	18207.03
405.85	17947.23
406.05	17525.93
406.24	17844.24
406.43	18408.31
406.62	19201.76
406.81	19161.97
407.00	18567.47
407.20	18036.17
407.39	18230.43
407.58	19028.56
407.77	19805.61
407.96	20336.91
408.15	20847.15
408.34	20657.57
408.54	21458.03
408.73	21481.44
408.92	21242.70
409.11	20994.61
409.30	19782.21
409.49	18501.93
409.68	17198.26
409.87	17008.67
410.07	18085.32
410.26	19276.65
410.45	20383.73
410.64	21055.46
410.83	21876.99
411.02	22181.26
411.21	23260.24
411.40	22892.78
411.59	22897.46
411.78	22977.04
411.98	22527.66
412.17	22977.04
412.36	22122.74
412.55	22532.34
412.74	22029.12
412.93	21565.70
413.12	21818.47
413.31	23957.72
413.50	24074.75
413.69	24215.18
413.88	23208.75
414.07	22665.75
414.26	23304.71
414.45	23943.68
414.64	24554.56
414.83	23908.57
415.02	23419.40
415.22	23297.69
415.41	24086.45
415.60	24973.52
415.79	25996.33
415.98	26251.45
416.17	26817.86
416.36	25465.03
416.55	25235.66
416.74	24720.74
416.93	23475.57
417.12	23733.03
417.31	24503.07
417.50	24322.85
417.69	25270.76
417.88	25195.87
418.07	24996.92
418.26	24311.14
418.45	24751.17
418.64	25886.32
418.83	26670.40
419.02	26314.64
419.21	26099.31
419.39	24760.53
419.58	23733.03
419.77	23513.02
419.96	25069.48
420.15	26576.78
420.34	26974.67
420.53	28116.86
420.72	28453.89
420.91	28023.23
421.10	27770.46
421.29	27323.41
421.48	26707.85
421.67	28231.54
421.86	27194.68
422.05	25118.63
422.24	22890.44
422.43	22724.26
422.61	25106.93
422.80	26939.57
422.99	27014.46
423.18	26162.51
423.37	25577.37
423.56	25638.23
423.75	26349.75
423.94	26740.62
424.13	24952.45
424.32	25193.53
424.50	25443.96
424.69	25071.82
424.88	25364.39
425.07	25270.76
425.26	25017.99
425.45	24952.45
425.64	24226.89
425.83	24716.06
426.01	26223.36
426.20	26382.52
426.39	26434.01
426.58	24086.45
426.77	22546.38
426.96	21862.94
427.15	22504.25
427.33	24458.60
427.52	25551.63
427.71	25579.71
427.90	24882.24
428.09	25130.33
428.28	24460.94
428.46	23634.73
428.65	23426.42
428.84	24098.16
429.03	24444.56
429.22	22820.22
429.40	21392.50
429.59	19817.32
429.78	17383.16
429.97	17715.51
430.16	17942.55
430.34	17855.95
430.53	17944.89
430.72	18389.59
430.91	20542.88
431.10	24170.71
431.28	28114.52
431.47	30246.74
431.66	30260.79
431.85	27377.25
432.03	25476.73
432.22	24769.89
432.41	25841.85
432.60	28456.23
432.79	28975.83
432.97	29930.77
433.16	28879.87
433.35	26654.02
433.54	24009.22
433.72	22796.82
433.91	23496.64
434.10	26728.92
434.28	27765.78
434.47	29090.52
434.66	28711.35
434.85	28175.37
435.03	27999.83
435.22	28734.76
435.41	30501.86
435.59	30677.40
435.78	31028.48
435.97	31604.25
436.16	31697.88
436.34	30874.01
436.53	30211.64
436.72	31426.37
436.90	29249.67
437.09	28680.92
437.28	29043.71
437.46	29839.49
437.65	28968.81
437.84	27019.14
438.02	25254.38
438.21	25305.87
438.40	26862.33
438.58	28968.81
438.77	29394.79
438.96	29895.66
439.14	31337.43
439.33	31913.20
439.52	32271.31
439.70	31674.47
439.89	30642.29
440.08	30209.29
440.26	30656.34
440.45	31358.50
440.63	33345.61
440.82	34719.51
441.01	34279.49
441.19	33909.68
441.38	34717.17
441.57	35681.47
441.75	36294.69
441.94	36215.11
442.12	35847.64
442.31	37062.38
442.50	36968.76
442.68	35999.78
442.87	35945.95
443.05	35175.91
443.24	35887.43
443.43	36751.09
443.61	37144.30
443.80	37853.48
443.98	35922.54
444.17	35344.43
444.35	37776.25
444.54	38272.44
444.73	37965.83
444.91	36217.45
445.10	34178.84
445.28	33481.36
445.47	32617.71
445.65	33598.39
445.84	34485.45
446.02	35044.84
446.21	35732.96
446.39	35803.17
446.58	36119.15
446.77	36968.76
446.95	37237.92
447.14	38134.35
447.32	38506.49
447.51	38029.02
447.69	36889.18
447.88	36004.46
448.06	37191.11
448.25	37446.23
448.43	37954.13
448.62	36629.38
448.80	36844.71
448.99	37031.96
449.17	37680.28
449.36	37596.03
449.54	38335.63
449.73	39908.47
449.91	40100.40
450.10	40828.30
450.28	41436.84
450.46	41036.61
450.65	40608.29
450.83	40378.92
451.02	39737.62
451.20	39948.26
451.39	39704.85
451.57	39269.51
451.76	39620.59
451.94	39295.25
452.13	38410.53
452.31	37043.66
452.49	35218.04
452.68	35791.47
452.86	35494.22
453.05	36311.07
453.23	37429.85
453.42	38368.40
453.60	39159.50
453.78	39634.63
453.97	38967.58
454.15	38841.19
454.34	37982.21
454.52	38684.37
454.70	37935.40
454.89	38422.23
455.07	38583.73
455.26	38518.20
455.44	40191.68
455.62	40940.65
455.81	41118.53
455.99	40751.07
456.17	40360.20
456.36	40570.85
456.54	41261.30
456.73	42106.24
456.91	42263.05
457.09	42703.07
457.28	42958.19
457.46	41544.51
457.64	41163.00
457.83	40130.83
458.01	38911.41
458.19	40903.20
458.38	40722.98
458.56	42148.37
458.74	41586.64
458.93	40905.54
459.11	40842.35
459.29	40353.18
459.48	40898.52
459.66	40346.15
459.84	41127.89
460.03	41352.58
460.21	41603.02
460.39	42829.46
460.57	41940.06
460.76	43082.24
460.94	42960.53
461.12	42541.58
461.31	42302.84
461.49	42391.78
461.67	42454.98
461.85	43573.75
462.04	43185.22
462.22	43608.86
462.40	43555.03
462.59	43409.92
462.77	43824.19
462.95	43817.17
463.13	43145.44
463.32	42586.05
463.50	42384.76
463.68	42611.79
463.86	42887.98
464.05	42085.17
464.23	41443.87
464.41	40788.52
464.59	40790.86
464.78	42494.77
464.96	42061.77
465.14	41291.73
465.32	42824.78
465.50	43573.75
465.69	43981.01
465.87	43058.84
466.05	41982.19
466.23	40201.04
466.41	39196.95
466.60	40910.22
466.78	40708.94
466.96	41457.91
467.14	42178.79
467.32	42494.77
467.51	42644.56
467.69	40566.16
467.87	41434.50
468.05	42674.99
468.23	42394.12
468.41	42335.61
468.60	42450.30
468.78	43070.54
468.96	41979.85
469.14	43253.10
469.32	43222.67
469.50	41394.71
469.69	41624.09
469.87	40837.67
470.05	40994.48
470.23	40570.85
470.41	41106.83
470.59	42096.88
470.77	42134.32
470.95	43103.31
471.14	43126.71
471.32	43299.91
471.50	45209.79
471.68	45427.46
471.86	45715.34
472.04	45764.49
472.22	45844.07
472.40	44194.00
472.58	43536.30
472.77	43473.11
472.95	44102.71
473.13	45052.97
473.31	44404.64
473.49	44142.50
473.67	44938.29
473.85	45518.74
474.03	46494.74
474.21	46527.51
474.39	46857.52
474.57	47157.11
474.75	47126.69
474.93	46487.72
475.12	45778.54
475.30	45956.42
475.48	46087.49
475.66	46920.72
475.84	45986.85
476.02	45666.19
476.20	45031.91
476.38	45944.72
476.56	47437.98
476.74	47639.26
476.92	48013.75
477.10	48610.59
477.28	49738.72
477.46	49750.43
477.64	50181.09
477.82	50160.02
478.00	50342.58
478.18	49408.71
478.36	49602.97
478.54	49712.98
478.72	49940.01
478.90	50937.08
479.08	51547.96
479.26	51990.32
479.44	51929.47
479.62	51484.76
479.80	51800.74
479.98	51711.80
480.16	52224.37
480.34	51601.79
480.52	52121.39
480.70	52105.01
480.88	51992.66
481.06	52896.11
481.24	53223.78
481.41	53888.49
481.59	54185.74
481.77	53911.90
481.95	53352.51
482.13	53418.05
482.31	53240.17
482.49	54101.48
482.67	54007.86
482.85	54103.82
483.03	54578.95
483.21	54817.69
483.39	54658.53
483.57	54220.85
483.74	54169.36
483.92	54188.08
484.10	54548.53
484.28	54946.42
484.46	55274.09
484.64	55571.34
484.82	54848.11
485.00	54829.39
485.18	53982.12
485.35	52741.63
485.53	50443.23
485.71	46920.72
485.89	47002.64
486.07	49106.78
486.25	51606.47
486.43	53361.87
486.61	53858.07
486.78	53839.34
486.96	54171.70
487.14	55283.45
487.32	55863.91
487.50	56844.59
487.68	57387.60
487.85	57708.25
488.03	57757.40
488.21	57350.15
488.39	56793.10
488.57	56147.11
488.75	56076.90
488.92	56949.92
489.10	58759.15
489.28	59444.93
489.46	60032.40
489.64	59966.87
489.81	59990.27
489.99	59854.52
490.17	60081.55
490.35	60200.92
490.53	59821.75
490.70	59334.92
490.88	59393.43
491.06	60093.25
491.24	59945.80
491.41	59388.75
491.59	58068.69
491.77	57340.78
491.95	58457.22
492.13	59554.93
492.30	60299.22
492.48	61251.82
492.66	61446.08
492.84	61375.87
493.01	61155.86
493.19	60727.54
493.37	60554.34
493.54	60339.01
493.72	61024.79
493.90	61553.75
494.08	62260.59
494.25	62466.56
494.43	62794.23
494.61	63016.58
494.79	62946.37
494.96	62740.40
495.14	62178.67
495.32	61558.43
495.49	61144.16
495.67	61942.28
495.85	63107.86
496.02	63597.04
496.20	63068.08
496.38	62810.62
496.55	62653.80
496.73	63220.21
496.91	63086.80
497.09	63817.05
497.26	64044.08
497.44	63566.61
497.62	62932.32
497.79	62019.52
497.97	61144.16
498.14	61661.41
498.32	62452.51
498.50	63262.34
498.67	63646.19
498.85	63463.63
499.03	63805.34
499.20	64161.11
499.38	64046.42
499.56	63725.77
499.73	63257.66
499.91	62962.75
500.08	62536.77
500.26	61972.70
500.44	62663.16
500.61	63011.90
500.79	62717.00
500.97	62468.90
501.14	62546.14
501.32	62410.38
501.49	62258.25
501.67	62506.35
501.84	62841.04
502.02	63131.27
502.20	63463.63
502.37	63770.24
502.55	63529.16
502.72	64086.21
502.90	64507.50
503.07	64240.68
503.25	63924.71
503.43	63021.26
503.60	62492.30
503.78	62124.84
503.95	62658.48
504.13	63716.40
504.30	64324.94
504.48	64221.96
504.65	63859.18
504.83	64001.95
505.01	64573.04
505.18	64779.01
505.36	65324.35
505.53	65347.76
505.71	65403.93
505.88	65535.00
506.06	64762.62
506.23	64594.10
506.41	64320.26
506.58	64383.46
506.76	64453.67
506.93	64568.36
507.11	64186.85
507.28	64502.82
507.46	63959.82
507.63	63339.58
507.81	63402.77
507.98	63632.14
508.16	64444.31
508.33	64633.89
508.50	64921.78
508.68	65179.24
508.85	65535.00
509.03	65535.00
509.20	65338.40
509.38	64809.43
509.55	64172.81
509.73	64233.66
509.90	64996.68
510.08	65057.53
510.25	64999.02
510.42	64547.29
510.60	64797.73
510.77	64921.78
510.95	65497.55
511.12	65513.94
511.30	65535.00
511.47	65535.00
511.64	65535.00
511.82	65520.96
511.99	64947.53
512.17	64704.11
512.34	64369.41
512.51	64647.94
512.69	64671.34
512.86	64563.68
513.04	64956.89
513.21	64970.93
513.38	64458.35
513.56	64404.52
513.73	63643.85
513.90	64095.57
514.08	64004.29
514.25	64310.90
514.43	64683.04
514.60	64701.77
514.77	64566.02
514.95	64783.69
515.12	64947.53
515.29	65071.57
515.47	65394.57
515.64	65361.80
515.81	65195.62
515.99	64460.69
516.16	63318.51
516.33	61399.27
516.51	60479.44
516.68	59779.62
516.85	59194.49
517.03	60107.30
517.20	62108.46
517.37	64020.67
517.54	64966.25
517.72	64133.02
517.89	62192.72
518.06	60537.96
518.24	60985.00
518.41	62646.78
518.58	63798.32
518.75	63767.90
518.93	64058.12
519.10	63999.61
519.27	64294.52
519.45	64423.25
519.62	64973.27
519.79	65261.16
519.96	65190.94
520.14	64779.01
520.31	63922.37
520.48	63983.22
520.65	64348.35
520.83	65207.32
521.00	65467.12
521.17	65106.68
521.34	64931.14
521.52	65235.41
521.69	65535.00
521.86	65535.00
522.03	65535.00
522.20	64472.40
522.38	63889.60
522.55	64006.63
522.72	64561.34
522.89	64472.40
523.07	64622.19
523.24	64989.66
523.41	65535.00
523.58	65535.00
523.75	65535.00
523.92	65535.00
524.10	65535.00
524.27	65535.00
524.44	65535.00
524.61	65535.00
524.78	65535.00
524.96	65469.46
525.13	65535.00
525.30	65535.00
525.47	65535.00
525.64	65535.00
525.81	65535.00
525.98	64168.13
526.16	62939.35
526.33	62480.60
526.50	62047.60
526.67	62204.42
526.84	62419.75
527.01	63372.34
527.18	64001.95
527.36	64952.21
527.53	65535.00
527.70	65535.00
527.87	65020.08
528.04	64757.94
528.21	65471.81
528.38	65535.00
528.55	65535.00
528.72	65535.00
528.89	65535.00
529.07	65535.00
529.24	65535.00
529.41	65317.33
529.58	64776.67
529.75	64914.76
529.92	65319.67
530.09	65535.00
530.26	65535.00
530.43	65535.00
530.60	65535.00
530.77	65535.00
530.94	65535.00
531.11	65535.00
531.28	65535.00
531.46	65535.00
531.63	65535.00
531.80	65535.00
531.97	65476.49
532.14	64863.27
532.31	63852.15
532.48	63234.25
532.65	63709.38
532.82	64376.43
532.99	65104.34
533.16	65474.15
533.33	65535.00
533.50	65535.00
533.67	65190.94
533.84	64975.61
534.01	65059.87
534.18	65219.03
534.35	65268.18
534.52	65120.73
534.69	65460.10
534.86	65535.00
535.03	65535.00
535.20	65535.00
535.37	65535.00
535.54	65535.00
535.71	65535.00
535.88	65535.00
536.05	65535.00
536.22	65291.58
536.38	64889.01
536.55	64376.43
536.72	64037.06
536.89	64030.04
537.06	64793.05
537.23	65535.00
537.40	65535.00
537.57	65535.00
537.74	65422.65
537.91	65441.38
538.08	65535.00
538.25	65535.00
538.42	65535.00
538.59	65450.74
538.75	64645.60
538.92	64699.43
539.09	64416.22
539.26	64413.88
539.43	64353.03
539.60	64399.84
539.77	64512.19
539.94	64243.02
540.11	63636.83
540.28	63430.86
540.44	63400.43
540.61	63824.07
540.78	63901.31
540.95	64257.07
541.12	64790.71
541.29	64771.99
541.46	65027.10
541.62	64949.87
541.79	64846.88
541.96	64355.37
542.13	64521.55
542.30	64781.35
542.47	64776.67
542.63	64626.87
542.80	64439.63
542.97	64488.78
543.14	64451.33
543.31	64481.76
543.48	64914.76
543.64	65535.00
543.81	65535.00
543.98	65535.00
544.15	64982.63
544.32	64643.26
544.48	64720.49
544.65	65162.85
544.82	65336.05
544.99	65120.73
545.16	64825.82
545.32	64643.26
545.49	65326.69
545.66	65516.28
545.83	65116.04
546.00	64879.65
546.16	64647.94
546.33	64577.72
546.50	64779.01
546.67	65097.32
546.83	64479.42
547.00	64743.90
547.17	64114.29
547.34	63777.26
547.50	63824.07
547.67	64156.42
547.84	64072.17
548.00	64561.34
548.17	64839.86
548.34	64968.59
548.51	64687.73
548.67	64750.92
548.84	64741.56
549.01	64636.23
549.18	64715.81
549.34	64851.56
549.51	64664.32
549.68	64491.12
549.84	64203.24
550.01	64254.73
550.18	64123.66
550.34	64275.79
550.51	64453.67
550.68	64448.99
550.84	64037.06
551.01	64149.40
551.18	64156.42
551.34	64266.43
551.51	64587.08
551.68	64771.99
551.84	64643.26
552.01	64493.46
552.18	64306.22
552.34	63751.51
552.51	63611.08
552.68	63678.96
552.84	63950.46
553.01	64107.27
553.18	64018.33
553.34	64093.23
553.51	64406.86
553.67	64591.76
553.84	64664.32
554.01	64383.46
554.17	64453.67
554.34	64430.27
554.51	64488.78
554.67	64835.18
554.84	64807.09
555.00	64292.18
555.17	63950.46
555.33	64121.32
555.50	64081.53
555.67	64032.38
555.83	64044.08
556.00	63905.99
556.16	63777.26
556.33	63297.45
556.50	63393.41
556.66	63224.89
556.83	63021.26
556.99	63140.63
557.16	63419.16
557.32	63433.20
557.49	63877.90
557.65	63615.76
557.82	63566.61
557.98	63407.45
558.15	63007.22
558.32	62597.63
558.48	61740.99
558.65	62134.20
558.81	62347.19
558.98	62679.55
559.14	62632.74
559.31	62686.57
559.47	62819.98
559.64	62433.79
559.80	62185.69
559.97	62468.90
560.13	62642.10
560.30	63372.34
560.46	63693.00
560.63	64214.94
560.79	63901.31
560.96	63573.63
561.12	62754.44
561.29	62063.99
561.45	62007.81
561.61	62775.51
561.78	62892.54
561.94	62845.72
562.11	62728.70
562.27	62731.04
562.44	62656.14
562.60	63126.59
562.77	63138.29
562.93	63260.00
563.10	63194.46
563.26	62630.40
563.42	62478.26
563.59	62286.34
563.75	62550.82
563.92	62429.11
564.08	62307.40
564.24	62794.23
564.41	62939.35
564.57	62712.31
564.74	62548.48
564.90	62480.60
565.07	62396.34
565.23	62110.80
565.39	61504.60
565.56	61343.10
565.72	61254.16
565.88	61588.86
566.05	61680.14
566.21	61731.63
566.38	61961.00
566.54	61949.30
566.70	62300.38
566.87	62487.62
567.03	62574.22
567.19	62578.90
567.36	62398.68
567.52	62440.81
567.68	61792.48
567.85	61619.28
568.01	61413.32
568.17	60748.60
568.34	60989.68
568.50	61097.34
568.66	61008.40
568.83	61310.33
568.99	61499.92
569.15	61647.37
569.32	61724.61
569.48	61410.98
569.64	61382.89
569.81	60919.46
569.97	60966.27
570.13	60935.85
570.30	60549.66
570.46	60086.23
570.62	59646.21
570.78	59742.17
570.95	59934.10
571.11	60566.04
571.27	60748.60
571.43	60863.29
571.60	61197.99
571.76	61413.32
571.92	61673.12
572.09	61530.34
572.25	61630.99
572.41	61581.84
572.57	61394.59
572.74	61289.27
572.90	61034.15
573.06	61109.05
573.22	61125.43
573.38	61200.33
573.55	61132.45
573.71	61209.69
573.87	60933.51
574.03	60886.70
574.20	61118.41
574.36	60472.42
574.52	60633.92
574.68	60135.38
574.84	59985.59
575.01	59688.34
575.17	59737.49
575.33	60126.02
575.49	60243.05
575.65	60299.22
575.82	60186.88
575.98	59913.03
576.14	59978.57
576.30	60315.61
576.46	60317.95
576.62	60406.89
576.79	60186.88
576.95	60175.17
577.11	59945.80
577.27	60081.55
577.43	60142.41
577.59	59877.93
577.75	59398.12
577.92	59096.19
578.08	59152.36
578.24	58993.20
578.40	59267.05
578.56	59473.01
578.72	59372.37
578.88	59622.81
579.04	59774.94
579.21	59934.10
579.37	59887.29
579.53	60067.51
579.69	59891.97
579.85	59971.55
580.01	59831.11
580.17	59416.84
580.33	59238.96
580.49	59409.82
580.65	59646.21
580.82	59901.33
580.98	59854.52
581.14	59770.26
581.30	60039.42
581.46	59664.94
581.62	59952.82
581.78	59784.30
581.94	59898.99
582.10	59898.99
582.26	60161.13
582.42	59852.18
582.58	60107.30
582.74	59849.84
582.90	60177.51
583.06	59863.88
583.22	59760.90
583.38	59564.29
583.54	59746.86
583.70	59807.71
583.86	59686.00
584.02	59564.29
584.18	59765.58
584.34	59587.70
584.50	59554.93
584.66	59393.43
584.82	59070.44
584.98	59173.42
