SpectraSuite Data File
++++++++++++++++++++++++++++++++++++
Date: Mon Oct 07 14:53:52 GMT-05:00 2013
User: price-jones
Dark Spectrum Present: No
Reference Spectrum Present: No
Number of Sampled Component Spectra: 1
Spectrometers: USB2+H05261
Integration Time (usec): 100000 (USB2+H05261)
Spectra Averaged: 1 (USB2+H05261)
Boxcar Smoothing: 0 (USB2+H05261)
Correct for Electrical Dark: No (USB2+H05261)
Strobe/Lamp Enabled: No (USB2+H05261)
Correct for Detector Non-linearity: No (USB2+H05261)
Correct for Stray Light: No (USB2+H05261)
Number of Pixels in Processed Spectrum: 2048
>>>>>Begin Processed Spectral Data<<<<<
365.73	0.00
365.92	0.00
366.12	0.00
366.32	0.00
366.52	0.00
366.72	0.00
366.91	0.00
367.11	0.00
367.31	0.00
367.51	0.00
367.70	0.00
367.90	0.00
368.10	0.00
368.30	0.00
368.49	0.00
368.69	0.00
368.89	0.00
369.09	0.00
369.28	0.00
369.48	0.00
369.68	0.00
369.87	0.00
370.07	0.00
370.27	0.00
370.47	620.24
370.66	2890.56
370.86	3424.20
371.06	3676.98
371.25	3728.47
371.45	3407.82
371.65	3005.25
371.84	2801.62
372.04	2857.79
372.24	3232.28
372.44	3417.18
372.63	3412.50
372.83	3258.03
373.03	2815.66
373.22	2562.89
373.42	2693.96
373.62	3119.93
373.81	3370.37
374.01	3410.16
374.21	2993.55
374.40	2818.00
374.60	3042.70
374.79	3262.71
374.99	3941.46
375.19	4301.90
375.38	4395.53
375.58	3932.10
375.78	3850.18
375.97	4091.26
376.17	4140.41
376.37	4102.96
376.56	4219.99
376.76	4393.19
376.95	4807.46
377.15	5053.22
377.35	5322.38
377.54	5465.15
377.74	5577.50
377.93	5738.99
378.13	5514.30
378.33	5167.90
378.52	4795.76
378.72	4645.96
378.91	4484.47
379.11	4421.27
379.31	4205.94
379.50	4152.11
379.70	4629.58
379.89	4999.38
380.09	5378.55
380.28	5558.77
380.48	5416.00
380.68	5408.98
380.87	5371.53
381.07	4870.65
381.26	4493.83
381.46	4278.50
381.65	4147.43
381.85	4077.21
382.04	3786.99
382.24	3529.53
382.43	3379.73
382.63	3330.58
382.83	3382.07
383.02	3368.03
383.22	3255.69
383.41	3337.60
383.61	3616.13
383.80	4273.82
384.00	4650.64
384.19	5266.21
384.39	5589.20
384.58	5408.98
384.78	5359.83
384.97	5371.53
385.17	5067.26
385.36	4793.42
385.56	4592.13
385.75	4713.84
385.95	5121.09
386.14	5483.88
386.34	5741.33
386.53	5495.58
386.72	5104.71
386.92	5144.50
387.11	5320.04
387.31	5612.60
387.50	5514.30
387.70	5355.15
387.89	5296.63
388.09	5425.36
388.28	5076.62
388.48	5303.65
388.67	5813.89
388.86	6450.52
389.06	6986.50
389.25	6995.86
389.45	7330.56
389.64	7267.36
389.84	7119.91
390.03	6890.54
390.22	7150.34
390.42	7358.64
390.61	7815.05
390.81	8280.82
391.00	8395.50
391.19	8458.70
391.39	8049.10
391.58	7552.91
391.78	7084.80
391.97	7045.01
392.16	6693.93
392.36	6010.50
392.55	4748.95
392.75	3847.84
392.94	3045.04
393.13	3070.78
393.33	3679.32
393.52	4629.58
393.71	5668.78
393.91	6478.60
394.10	6864.79
394.29	7667.60
394.49	8180.17
394.68	8887.01
394.88	8891.70
395.07	9294.27
395.26	9142.13
395.46	8807.44
395.65	8369.76
395.84	7330.56
396.04	6258.59
396.23	5078.96
396.42	4198.92
396.62	3967.21
396.81	4587.45
397.00	5811.55
397.19	7524.82
397.39	8952.55
397.58	10129.84
397.77	10909.24
397.97	11222.87
398.16	11283.72
398.35	11672.25
398.55	12046.74
398.74	12318.24
398.93	12674.00
399.12	12070.14
399.32	12063.12
399.51	12505.48
399.70	13111.68
399.90	13004.02
400.09	13193.60
400.28	12561.66
400.47	13193.60
400.67	13593.83
400.86	14050.24
401.05	13965.98
401.24	14043.21
401.44	14471.53
401.63	14319.40
401.82	14249.18
402.01	14347.48
402.21	14647.07
402.40	14562.81
402.59	14548.77
402.78	13523.62
402.97	13193.60
403.17	13535.32
403.36	14654.09
403.55	15063.69
403.74	15318.81
403.93	14541.75
404.13	13563.40
404.32	12966.57
404.51	13715.54
404.70	14888.15
404.89	14937.30
405.09	14724.31
405.28	13905.12
405.47	14029.17
405.66	14274.93
405.85	13738.94
406.05	13406.59
406.24	13687.45
406.43	14015.13
406.62	14782.82
406.81	14925.60
407.00	14078.32
407.20	13694.47
407.39	14160.24
407.58	14583.88
407.77	14920.92
407.96	15674.57
408.15	15983.52
408.34	16091.18
408.54	16709.08
408.73	16973.56
408.92	16460.99
409.11	15812.66
409.30	15150.29
409.49	14305.35
409.68	13547.02
409.87	12863.58
410.07	13998.74
410.26	14686.86
410.45	15697.97
410.64	16248.00
410.83	16819.09
411.02	17142.08
411.21	17701.47
411.40	17858.29
411.59	17657.00
411.78	17523.59
411.98	17139.74
412.17	17661.68
412.36	17069.53
412.55	17312.94
412.74	16877.60
412.93	16463.33
413.12	16503.12
413.31	18258.52
413.50	18288.95
413.69	18820.25
413.88	18167.24
414.07	17575.08
414.26	17891.06
414.45	18813.23
414.64	18785.14
414.83	18848.33
415.02	18335.76
415.22	17919.14
415.41	18478.53
415.60	19173.67
415.79	19943.70
415.98	20191.80
416.17	20114.56
416.36	19475.60
416.55	19300.06
416.74	18944.30
416.93	17991.70
417.12	18396.61
417.31	18939.62
417.50	18698.54
417.69	19461.55
417.88	19686.25
418.07	19255.59
418.26	18939.62
418.45	19264.95
418.64	19559.86
418.83	20379.04
419.02	20173.08
419.21	20084.14
419.39	19187.71
419.58	18101.70
419.77	18162.56
419.96	19419.42
420.15	20142.65
420.34	20683.31
420.53	21610.17
420.72	21996.35
420.91	21701.45
421.10	21355.05
421.29	21231.00
421.48	20599.05
421.67	21596.12
421.86	20776.94
422.05	19552.84
422.24	17582.10
422.43	17317.62
422.61	19087.07
422.80	20692.68
422.99	20760.55
423.18	20276.06
423.37	19466.24
423.56	19620.71
423.75	20084.14
423.94	20276.06
424.13	19384.32
424.32	19501.34
424.50	19747.10
424.69	19232.18
424.88	19421.77
425.07	19281.33
425.26	19342.19
425.45	18965.36
425.64	18464.49
425.83	18902.17
426.01	19775.19
426.20	20320.53
426.39	20219.89
426.58	18710.24
426.77	17441.67
426.96	16917.39
427.15	17497.84
427.33	18579.17
427.52	19330.48
427.71	19459.21
427.90	19234.52
428.09	18899.83
428.28	18841.31
428.46	18319.37
428.65	17572.74
428.84	18085.32
429.03	18616.62
429.22	17642.96
429.40	16673.98
429.59	14843.68
429.78	13509.57
429.97	13418.29
430.16	13521.27
430.34	13717.88
430.53	13458.08
430.72	13778.73
430.91	15363.28
431.10	18029.15
431.28	21149.08
431.47	22920.87
431.66	23335.14
431.85	21397.18
432.03	19536.45
432.22	18630.66
432.41	19307.08
432.60	21392.50
432.79	22192.96
432.97	23236.84
433.16	22370.84
433.35	20528.84
433.54	18281.92
433.72	17062.51
433.91	17980.00
434.10	19625.39
434.28	21399.52
434.47	22530.00
434.66	22403.61
434.85	21891.03
435.03	21165.46
435.22	22384.88
435.41	23147.90
435.59	23285.99
435.78	23836.02
435.97	24350.93
436.16	24561.58
436.34	23880.49
436.53	23644.09
436.72	23449.83
436.90	22380.20
437.09	22368.50
437.28	22164.87
437.46	22651.70
437.65	22403.61
437.84	21029.71
438.02	19199.41
438.21	19159.63
438.40	20297.13
438.58	21937.84
438.77	22487.87
438.96	22506.59
439.14	23714.31
439.33	24114.54
439.52	24884.58
439.70	23985.81
439.89	23669.84
440.08	22705.54
440.26	22836.61
440.45	23426.42
440.63	25516.52
440.82	26544.02
441.01	26398.90
441.19	26054.84
441.38	26483.16
441.57	27398.31
441.75	27821.95
441.94	27852.38
442.12	27344.48
442.31	28161.33
442.50	28074.73
442.68	27536.40
442.87	27400.65
443.05	27264.90
443.24	27292.99
443.43	27468.53
443.61	28254.95
443.80	28554.54
443.98	27260.22
444.17	26925.52
444.35	28769.86
444.54	29041.37
444.73	28802.63
444.91	27590.24
445.10	26551.04
445.28	25355.02
445.47	25142.03
445.65	25146.72
445.84	25902.71
446.02	27248.52
446.21	27337.46
446.39	27218.09
446.58	27779.82
446.77	28184.73
446.95	28027.92
447.14	29263.72
447.32	29614.80
447.51	28823.70
447.69	27740.03
447.88	27566.83
448.06	27777.48
448.25	28528.79
448.43	28650.50
448.62	27833.65
448.80	27938.97
448.99	28257.29
449.17	28570.92
449.36	28278.35
449.54	29362.02
449.73	29949.50
449.91	30340.36
450.10	30993.37
450.28	31255.51
450.46	31491.91
450.65	31402.97
450.83	31091.68
451.02	30277.17
451.20	30228.02
451.39	30197.59
451.57	30246.74
451.76	30061.84
451.94	29701.40
452.13	29181.80
452.31	27990.47
452.49	26883.39
452.68	26948.93
452.86	27201.71
453.05	27620.66
453.23	28266.65
453.42	28886.89
453.60	29319.89
453.78	30003.33
453.97	29446.28
454.15	29483.73
454.34	29008.60
454.52	29172.44
454.70	28407.08
454.89	29081.16
455.07	28814.34
455.26	29479.05
455.44	30529.95
455.62	31185.30
455.81	31211.04
455.99	31101.04
456.17	30555.69
456.36	30782.73
456.54	31796.18
456.73	31197.00
456.91	32329.82
457.09	31908.52
457.28	32713.67
457.46	31393.61
457.64	31405.31
457.83	30139.08
458.01	29439.26
458.19	30122.69
458.38	30635.27
458.56	31667.45
458.74	31461.48
458.93	30869.33
459.11	30735.92
459.29	30288.87
459.48	31122.10
459.66	30803.79
459.84	31292.96
460.03	31297.64
460.21	31426.37
460.39	32177.68
460.57	31943.63
460.76	32896.23
460.94	32713.67
461.12	32072.36
461.31	32215.13
461.49	31938.95
461.67	31857.03
461.85	33207.52
462.04	32961.76
462.22	33247.31
462.40	32964.10
462.59	33048.36
462.77	32856.44
462.95	32804.95
463.13	32610.68
463.32	32407.06
463.50	31967.04
463.68	32023.21
463.86	32388.33
464.05	31395.95
464.23	31494.25
464.41	30712.51
464.59	30558.03
464.78	32116.83
464.96	31824.26
465.14	31243.81
465.32	32224.50
465.50	32919.63
465.69	33383.06
465.87	32566.21
466.05	31819.58
466.23	30118.01
466.41	29956.52
466.60	30263.13
466.78	30583.78
466.96	31178.28
467.14	31651.06
467.32	32060.66
467.51	31931.93
467.69	30527.61
467.87	31150.19
468.05	31700.22
468.23	31819.58
468.41	31690.85
468.60	31779.79
468.78	32180.03
468.96	31552.76
469.14	32294.71
469.32	32416.42
469.50	30948.90
469.69	31014.44
469.87	31051.89
470.05	30794.43
470.23	30834.22
470.41	30761.66
470.59	31356.16
470.77	31417.01
470.95	32009.17
471.14	32261.94
471.32	32503.02
471.50	34323.96
471.68	34305.23
471.86	34878.66
472.04	34689.08
472.22	34897.39
472.40	33149.01
472.58	32755.80
472.77	32505.36
472.95	33153.69
473.13	33912.02
473.31	32840.06
473.49	33237.95
473.67	33806.70
473.85	34141.39
474.03	35302.30
474.21	35314.00
474.39	35737.64
474.57	35515.29
474.75	35894.46
474.93	35218.04
475.12	34417.58
475.30	34904.41
475.48	34560.35
475.66	35262.51
475.84	34623.54
476.02	34359.06
476.20	33802.02
476.38	34703.12
476.56	35576.14
476.74	36545.12
476.92	36547.47
477.10	37195.79
477.28	38103.92
477.46	38071.15
477.64	38403.51
477.82	38356.70
478.00	38754.59
478.18	37982.21
478.36	37823.06
478.54	38195.20
478.72	38330.95
478.90	39267.17
479.08	39995.07
479.26	40430.41
479.44	40538.08
479.62	40313.39
479.80	39962.31
479.98	40360.20
480.16	40847.03
480.34	40481.91
480.52	40273.60
480.70	40587.23
480.88	40879.80
481.06	41422.80
481.24	41937.72
481.41	42852.87
481.59	43426.30
481.77	43274.16
481.95	42780.31
482.13	42139.00
482.31	42328.59
482.49	43194.59
482.67	43012.02
482.85	43175.86
483.03	43782.06
483.21	44538.05
483.39	44261.87
483.57	43267.14
483.74	42951.17
483.92	43536.30
484.10	43391.19
484.28	44196.34
484.46	44947.65
484.64	45186.38
484.82	44383.58
485.00	43592.48
485.18	43356.08
485.35	42197.52
485.53	38806.08
485.71	35622.95
485.89	34466.73
486.07	36591.94
486.25	39269.51
486.43	41968.15
486.61	42878.61
486.78	43288.21
486.96	43203.95
487.14	44552.10
487.32	45603.00
487.50	46887.95
487.68	47529.26
487.85	47995.03
488.03	48109.71
488.21	47753.95
488.39	46525.17
488.57	45872.16
488.75	45825.35
488.92	47112.64
489.10	49696.59
489.28	50791.97
489.46	51416.89
489.64	51276.46
489.81	51700.09
489.99	51260.07
490.17	51510.51
490.35	51480.08
490.53	51136.02
490.70	50728.77
490.88	50087.46
491.06	51423.91
491.24	51693.07
491.41	50553.23
491.59	48828.26
491.77	47409.89
491.95	48865.70
492.13	50136.62
492.30	51583.07
492.48	52594.18
492.66	52971.00
492.84	53020.16
493.01	52907.81
493.19	52147.14
493.37	52053.51
493.54	51557.32
493.72	52339.06
493.90	53396.98
494.08	54309.79
494.25	54412.77
494.43	54380.01
494.61	54976.84
494.79	55201.53
494.96	54944.08
495.14	54492.35
495.32	53256.55
495.49	52669.08
495.67	53549.12
495.85	55072.81
496.02	55749.22
496.20	55281.11
496.38	54965.14
496.55	54625.76
496.73	55157.06
496.91	55360.69
497.09	56011.36
497.26	56229.03
497.44	55540.91
497.62	55084.51
497.79	54003.18
497.97	53183.99
498.14	53048.24
498.32	54429.16
498.50	55255.37
498.67	55639.22
498.85	55657.94
499.03	55856.88
499.20	56090.94
499.38	56154.13
499.56	55880.29
499.73	55304.52
499.91	55044.72
500.08	54461.93
500.26	53757.42
500.44	54305.11
500.61	54871.52
500.79	54887.90
500.97	54209.15
501.14	54174.04
501.32	54071.06
501.49	53998.50
501.67	54080.42
501.84	54841.09
502.02	55103.23
502.20	55348.99
502.37	55531.55
502.55	55742.20
502.72	55828.80
502.90	56753.31
503.07	56266.48
503.25	55920.08
503.43	55292.82
503.60	54480.65
503.78	53577.20
503.95	54312.13
504.13	55760.92
504.30	56247.75
504.48	56420.95
504.65	55765.60
504.83	56137.75
505.01	56591.81
505.18	56882.04
505.36	57357.17
505.53	57490.58
505.71	57900.17
505.88	57939.96
506.06	56947.57
506.23	56886.72
506.41	56175.20
506.58	56650.33
506.76	56442.02
506.93	56472.45
507.11	56301.59
507.28	56617.56
507.46	56081.58
507.63	55487.08
507.81	55290.48
507.98	55475.38
508.16	56119.02
508.33	56952.26
508.50	57214.40
508.68	57378.23
508.85	57883.79
509.03	57855.70
509.20	57560.79
509.38	57153.54
509.55	56385.85
509.73	56226.69
509.90	56800.12
510.08	57132.48
510.25	56978.00
510.42	56694.80
510.60	56790.76
510.77	57338.44
510.95	57392.28
511.12	57673.14
511.30	58026.56
511.47	58164.65
511.64	58220.83
511.82	57972.73
511.99	57315.04
512.17	56512.23
512.34	56296.91
512.51	56463.08
512.69	57066.94
512.86	56690.12
513.04	57221.42
513.21	57226.10
513.38	56809.48
513.56	56308.61
513.73	55686.03
513.90	55861.57
514.08	55931.78
514.25	56257.12
514.43	56500.53
514.60	56552.02
514.77	56741.61
514.95	56851.61
515.12	56921.83
515.29	56643.30
515.47	57406.32
515.64	57769.10
515.81	57296.31
515.99	56629.26
516.16	55224.94
516.33	52814.19
516.51	51470.72
516.68	50106.19
516.85	49982.14
517.03	50703.03
517.20	53240.17
517.37	55683.69
517.54	57085.67
517.72	56306.27
517.89	53799.55
518.06	51449.66
518.24	51641.58
518.41	53914.24
518.58	55224.94
518.75	55545.59
518.93	55728.16
519.10	55547.93
519.27	56161.15
519.45	56182.22
519.62	56907.79
519.79	57312.70
519.96	57006.09
520.14	56629.26
520.31	55931.78
520.48	55950.51
520.65	56023.06
520.83	57055.24
521.00	57443.77
521.17	57027.15
521.34	57008.43
521.52	56870.34
521.69	57668.46
521.86	58108.48
522.03	57759.74
522.20	56636.28
522.38	55561.98
522.55	55327.92
522.72	56039.45
522.89	56226.69
523.07	56348.40
523.24	56638.62
523.41	57645.05
523.58	57771.44
523.75	58504.03
523.92	58192.74
524.10	57909.53
524.27	58085.07
524.44	58157.63
524.61	57766.76
524.78	57666.12
524.96	57598.24
525.13	57598.24
525.30	57598.24
525.47	58019.54
525.64	58143.59
525.81	57312.70
525.98	55758.58
526.16	54665.55
526.33	53631.04
526.50	53572.52
526.67	52821.21
526.84	53670.82
527.01	54798.96
527.18	55739.86
527.36	56086.26
527.53	57312.70
527.70	57570.16
527.87	57064.60
528.04	56523.94
528.21	57088.01
528.38	57801.87
528.55	58323.81
528.72	58553.18
528.89	58742.77
529.07	58485.31
529.24	57776.12
529.41	57190.99
529.58	56748.63
529.75	56907.79
529.92	57279.93
530.09	57523.35
530.26	58206.78
530.43	58260.62
530.60	58141.25
530.77	58747.45
530.94	58602.33
531.11	57991.45
531.28	57848.68
531.46	57509.30
531.63	57726.97
531.80	57560.79
531.97	57277.59
532.14	56640.96
532.31	55601.77
532.48	54801.30
532.65	54749.81
532.82	55753.90
532.99	56898.42
533.16	57167.58
533.33	57799.53
533.50	57305.68
533.67	56830.55
533.84	56488.83
534.01	56594.15
534.18	56662.03
534.35	57125.46
534.52	56832.89
534.69	57315.04
534.86	57762.08
535.03	57626.33
535.20	58358.92
535.37	58539.14
535.54	58749.79
535.71	58206.78
535.88	58031.24
536.05	57198.01
536.22	56994.39
536.38	56535.64
536.55	56264.14
536.72	55641.56
536.89	55426.23
537.06	56245.41
537.23	57298.65
537.40	57352.49
537.57	57303.34
537.74	57076.30
537.91	56970.98
538.08	57169.93
538.25	57223.76
538.42	57284.61
538.59	57289.29
538.75	56486.49
538.92	56214.99
539.09	56090.94
539.26	55962.21
539.43	55774.97
539.60	56027.74
539.77	55980.93
539.94	55711.77
540.11	55082.17
540.28	54724.07
540.44	54485.33
540.61	54637.47
540.78	55072.81
540.95	55772.63
541.12	56079.24
541.29	56369.46
541.46	56484.15
541.62	56409.25
541.79	56493.51
541.96	55681.34
542.13	55854.54
542.30	55959.87
542.47	56313.29
542.63	56224.35
542.80	55660.28
542.97	55971.57
543.14	55994.98
543.31	55695.39
543.48	56339.04
543.64	57022.47
543.81	57652.08
543.98	57315.04
544.15	56397.55
544.32	56065.19
544.48	55994.98
544.65	56516.92
544.82	56924.17
544.99	56549.68
545.16	56135.41
545.32	55781.99
545.49	56633.94
545.66	57069.28
545.83	56765.01
546.00	56107.32
546.16	56065.19
546.33	55945.83
546.50	55924.76
546.67	56669.05
546.83	56205.62
547.00	56324.99
547.17	55590.06
547.34	54773.22
547.50	54801.30
547.67	55175.79
547.84	55154.72
548.00	55753.90
548.17	56210.31
548.34	56247.75
548.51	56130.73
548.67	56229.03
548.84	56055.83
549.01	56264.14
549.18	55803.05
549.34	55917.74
549.51	56002.00
549.68	55847.52
549.84	55590.06
550.01	55536.23
550.18	55437.93
550.34	55489.42
550.51	55571.34
550.68	55496.44
550.84	55136.00
551.01	55173.45
551.18	55028.34
551.34	55358.35
551.51	55512.83
551.68	56196.26
551.84	55945.83
552.01	56016.04
552.18	55442.61
552.34	54927.69
552.51	54475.97
552.68	54347.24
552.84	55150.04
553.01	55145.36
553.18	55297.50
553.34	55393.46
553.51	55058.76
553.67	55475.38
553.84	55812.41
554.01	55524.53
554.17	55203.88
554.34	55386.44
554.51	55667.30
554.67	55950.51
554.84	55611.13
555.00	55451.97
555.17	55234.30
555.33	55107.91
555.50	55206.22
555.67	54941.74
555.83	54691.30
556.00	54436.18
556.16	54618.74
556.33	54239.57
556.50	54101.48
556.66	54117.87
556.83	53928.28
556.99	54085.10
557.16	54017.22
557.32	54342.56
557.49	54733.43
557.65	54518.10
557.82	54581.29
557.98	54536.82
558.15	53979.78
558.32	53183.99
558.48	51870.95
558.65	52355.44
558.81	52804.83
558.98	52765.04
559.14	53223.78
559.31	53148.88
559.47	53191.01
559.64	53027.18
559.80	52612.90
559.97	52720.57
560.13	53137.18
560.30	53968.07
560.46	54602.36
560.63	54880.88
560.79	54939.39
560.96	54508.74
561.12	53375.92
561.29	52341.40
561.45	52463.11
561.61	53020.16
561.78	53544.44
561.94	53469.54
562.11	53169.95
562.27	52804.83
562.44	53326.77
562.60	53560.82
562.77	54059.35
562.93	54019.56
563.10	53769.13
563.26	52589.50
563.42	53139.52
563.59	53010.79
563.75	52580.13
563.92	52903.13
564.08	52727.59
564.24	53230.80
564.41	53375.92
564.57	53092.71
564.74	53169.95
564.90	52973.34
565.07	52631.63
565.23	52245.44
565.39	51477.74
565.56	51351.35
565.72	50876.22
565.88	51430.93
566.05	51543.28
566.21	51938.83
566.38	52109.69
566.54	52428.00
566.70	52694.82
566.87	52961.64
567.03	52933.56
567.19	52996.75
567.36	52781.42
567.52	52554.39
567.68	52062.88
567.85	51398.16
568.01	51339.65
568.17	50815.37
568.34	50916.01
568.50	50754.52
568.66	50911.33
568.83	51302.20
568.99	51239.01
569.15	51384.12
569.32	51828.82
569.48	51187.52
569.64	51035.38
569.81	50717.07
569.97	50604.72
570.13	50504.08
570.30	49925.97
570.46	49790.22
570.62	48935.92
570.78	48596.54
570.95	49226.15
571.11	49738.72
571.27	49914.26
571.43	50321.52
571.60	50803.67
571.76	50817.71
571.92	51030.70
572.09	51358.38
572.25	51346.67
572.41	51316.25
572.57	51037.72
572.74	51363.06
572.90	50604.72
573.06	50960.48
573.22	50712.39
573.38	50871.54
573.55	50625.79
573.71	50468.97
573.87	50857.50
574.03	50120.23
574.20	50499.40
574.36	50113.21
574.52	50054.70
574.68	49727.02
574.84	49415.73
575.01	49034.22
575.17	48486.54
575.33	49052.95
575.49	49387.64
575.65	49467.22
575.82	49289.34
575.98	48807.19
576.14	49317.43
576.30	49322.11
576.46	50115.55
576.62	49663.83
576.79	49837.03
576.95	49322.11
577.11	48893.79
577.27	48994.43
577.43	49247.21
577.59	48912.52
577.75	48554.41
577.92	47555.00
578.08	47480.11
578.24	47620.54
578.40	47910.77
578.56	48210.35
578.72	48453.77
578.88	48231.42
579.04	48708.89
579.21	48528.67
579.37	48631.65
579.53	48800.17
579.69	48584.84
579.85	49104.44
580.01	48823.58
580.17	48381.21
580.33	48154.18
580.49	48086.31
580.65	48428.02
580.82	48964.01
580.98	48907.83
581.14	48694.85
581.30	48889.11
581.46	48849.32
581.62	48879.75
581.78	48416.32
581.94	48935.92
582.10	48643.35
582.26	49153.59
582.42	48795.49
582.58	48858.68
582.74	48818.89
582.90	49165.29
583.06	49001.46
583.22	48566.12
583.38	48652.72
583.54	48542.71
583.70	48650.38
583.86	48493.56
584.02	48126.10
584.18	48268.87
584.34	48453.77
584.50	48215.04
584.66	47796.08
584.82	47599.47
584.98	47454.36
585.14	47061.15
585.30	46230.26
