SpectraSuite Data File
++++++++++++++++++++++++++++++++++++
Date: Mon Oct 07 14:52:57 GMT-05:00 2013
User: price-jones
Dark Spectrum Present: No
Reference Spectrum Present: No
Number of Sampled Component Spectra: 1
Spectrometers: USB2+H05261
Integration Time (usec): 100000 (USB2+H05261)
Spectra Averaged: 1 (USB2+H05261)
Boxcar Smoothing: 0 (USB2+H05261)
Correct for Electrical Dark: No (USB2+H05261)
Strobe/Lamp Enabled: No (USB2+H05261)
Correct for Detector Non-linearity: No (USB2+H05261)
Correct for Stray Light: No (USB2+H05261)
Number of Pixels in Processed Spectrum: 2048
>>>>>Begin Processed Spectral Data<<<<<
365.73	0.00
365.92	0.00
366.12	0.00
366.32	0.00
366.52	0.00
366.72	0.00
366.91	0.00
367.11	0.00
367.31	0.00
367.51	0.00
367.70	0.00
367.90	0.00
368.10	0.00
368.30	0.00
368.49	0.00
368.69	0.00
368.89	0.00
369.09	0.00
369.28	0.00
369.48	0.00
369.68	0.00
369.87	0.00
370.07	0.00
370.27	0.00
370.47	407.25
370.66	2420.11
370.86	2871.84
371.06	2944.39
371.25	3087.17
371.45	2712.68
371.65	2483.31
371.84	2356.92
372.04	2555.86
372.24	2761.83
372.44	2794.60
372.63	2843.75
372.83	2712.68
373.03	2406.07
373.22	2111.16
373.42	2387.35
373.62	2651.83
373.81	2878.86
374.01	2930.35
374.21	2473.95
374.40	2366.28
374.60	2431.82
374.79	2689.28
374.99	3433.57
375.19	3655.92
375.38	3510.80
375.58	3248.66
375.78	3272.07
375.97	3204.19
376.17	3375.05
376.37	3393.78
376.56	3581.02
376.76	3786.99
376.95	3967.21
377.15	4135.73
377.35	4489.15
377.54	4428.29
377.74	4737.24
377.93	4741.93
378.13	4688.09
378.33	4423.61
378.52	3967.21
378.72	3777.62
378.91	3894.65
379.11	3644.21
379.31	3515.48
379.50	3501.44
379.70	3936.78
379.89	4393.19
380.09	4575.75
380.28	4624.90
380.48	4622.56
380.68	4568.73
380.87	4437.66
381.07	4086.58
381.26	3796.35
381.46	3555.27
381.65	3508.46
381.85	3375.05
382.04	3180.79
382.24	3028.65
382.43	2836.73
382.63	2764.17
382.83	2878.86
383.02	2803.96
383.22	2832.05
383.41	2848.43
383.61	2970.14
383.80	3419.52
384.00	3911.04
384.19	4374.46
384.39	4631.92
384.58	4568.73
384.78	4409.57
384.97	4498.51
385.17	4161.47
385.36	3829.12
385.56	3801.03
385.75	3981.25
385.95	4315.95
386.14	4812.14
386.34	4791.08
386.53	4386.16
386.72	4142.75
386.92	4248.07
387.11	4540.64
387.31	4723.20
387.50	4655.33
387.70	4477.44
387.89	4552.34
388.09	4620.22
388.28	4627.24
388.48	4484.47
388.67	5001.72
388.86	5584.52
389.06	5837.30
389.25	6010.50
389.45	6265.61
389.64	6001.13
389.84	6059.65
390.03	6108.80
390.22	6129.86
390.42	6076.03
390.61	6530.09
390.81	6925.65
391.00	7220.55
391.19	7140.97
391.39	6846.07
391.58	6593.29
391.78	6078.37
391.97	5771.76
392.16	5631.33
392.36	5027.47
392.55	3934.44
392.75	3176.11
392.94	2579.27
393.13	2640.12
393.33	3098.87
393.52	3946.14
393.71	4674.05
393.91	5488.56
394.10	5830.27
394.29	6401.37
394.49	6932.67
394.68	7487.37
394.88	7531.84
395.07	7971.86
395.26	7765.90
395.46	7522.48
395.65	7075.44
395.84	6120.50
396.04	5149.18
396.23	4098.28
396.42	3569.32
396.62	3414.84
396.81	4002.32
397.00	5125.77
397.19	6340.51
397.39	7510.78
397.58	8594.45
397.77	8856.59
397.97	9394.91
398.16	9336.40
398.35	9661.73
398.55	10040.90
398.74	10391.98
398.93	10759.44
399.12	10448.15
399.32	10171.97
399.51	10462.19
399.70	11143.29
399.90	11002.86
400.09	11080.10
400.28	10806.25
400.47	10834.34
400.67	11428.84
400.86	11800.98
401.05	11974.18
401.24	11695.66
401.44	12056.10
401.63	11943.75
401.82	11981.20
402.01	12112.27
402.21	11999.93
402.40	12428.24
402.59	11934.39
402.78	11442.88
402.97	11012.22
403.17	11492.03
403.36	12243.34
403.55	12833.16
403.74	12847.20
403.93	12311.22
404.13	11541.18
404.32	11187.76
404.51	11515.44
404.70	12641.23
404.89	12582.72
405.09	12182.49
405.28	11798.64
405.47	11852.47
405.66	12020.99
405.85	11875.88
406.05	11302.45
406.24	11477.99
406.43	11927.37
406.62	12496.12
406.81	12439.95
407.00	11943.75
407.20	11829.07
407.39	11927.37
407.58	12549.95
407.77	12889.33
407.96	13532.98
408.15	13451.06
408.34	13530.64
408.54	13994.06
408.73	14054.92
408.92	14207.05
409.11	13830.23
409.30	12865.92
409.49	12262.07
409.68	11396.07
409.87	11084.78
410.07	11747.15
410.26	12840.18
410.45	13551.70
410.64	13984.70
410.83	14129.81
411.02	14647.07
411.21	15272.00
411.40	15084.75
411.59	15136.24
411.78	14923.26
411.98	14813.25
412.17	14871.76
412.36	14806.23
412.55	14869.42
412.74	14516.00
412.93	14242.16
413.12	14520.68
413.31	15674.57
413.50	15822.02
413.69	16411.84
413.88	15517.75
414.07	14965.39
414.26	15403.07
414.45	15513.07
414.64	15571.58
414.83	15789.25
415.02	15396.04
415.22	15534.14
415.41	16032.67
415.60	16620.14
415.79	16936.12
415.98	17488.48
416.17	17600.83
416.36	16695.04
416.55	16886.97
416.74	16212.89
416.93	15903.94
417.12	15707.34
417.31	15948.41
417.50	16065.44
417.69	16563.97
417.88	16786.32
418.07	16549.93
418.26	15915.64
418.45	16266.72
418.64	16847.18
418.83	17376.14
419.02	17458.06
419.21	17401.88
419.39	16589.72
419.58	15747.12
419.77	15508.39
419.96	16325.24
420.15	17224.00
420.34	17783.39
420.53	18366.18
420.72	18422.36
420.91	18623.64
421.10	18492.57
421.29	18373.21
421.48	17518.91
421.67	18553.43
421.86	18031.49
422.05	16793.34
422.24	15075.39
422.43	14766.44
422.61	16404.81
422.80	17984.68
422.99	18075.96
423.18	17224.00
423.37	16886.97
423.56	16915.05
423.75	17422.95
423.94	17790.41
424.13	16828.45
424.32	16783.98
424.50	16624.83
424.69	16807.39
424.88	16643.55
425.07	16517.16
425.26	16484.39
425.45	16315.87
425.64	16067.78
425.83	16180.12
426.01	17032.08
426.20	17734.24
426.39	17380.82
426.58	16180.12
426.77	14885.81
426.96	14565.15
427.15	15232.21
427.33	16133.31
427.52	16917.39
427.71	16905.69
427.90	16798.02
428.09	16519.50
428.28	16348.64
428.46	15653.50
428.65	15400.72
428.84	15885.22
429.03	16018.63
429.22	15180.71
429.40	14239.82
429.59	13022.74
429.78	11279.04
429.97	11475.65
430.16	11693.32
430.34	11665.23
430.53	11819.71
430.72	12224.62
430.91	13219.35
431.10	16067.78
431.28	18644.71
431.47	20236.27
431.66	19873.49
431.85	18106.38
432.03	17006.33
432.22	16449.28
432.41	17013.35
432.60	18595.56
432.79	19747.10
432.97	20184.78
433.16	19220.48
433.35	17769.35
433.54	15903.94
433.72	14874.10
433.91	15859.47
434.10	17408.90
434.28	18574.49
434.47	19363.25
434.66	19103.45
434.85	18771.10
435.03	19094.09
435.22	19232.18
435.41	20126.27
435.59	20252.66
435.78	20713.74
435.97	21034.39
436.16	21371.43
436.34	20926.73
436.53	20519.48
436.72	20339.26
436.90	19494.32
437.09	19119.84
437.28	18993.45
437.46	19646.46
437.65	19676.88
437.84	18251.50
438.02	16966.54
438.21	16931.44
438.40	17825.52
438.58	19658.16
438.77	19721.35
438.96	20203.50
439.14	20908.01
439.33	21156.10
439.52	21476.76
439.70	21411.22
439.89	20339.26
440.08	20226.91
440.26	19845.40
440.45	20568.63
440.63	21874.65
440.82	23229.82
441.01	22757.03
441.19	22490.21
441.38	23161.94
441.57	23821.97
441.75	24437.53
441.94	24460.94
442.12	24215.18
442.31	24496.05
442.50	24538.18
442.68	24362.64
442.87	23901.55
443.05	23714.31
443.24	23843.04
443.43	24805.00
443.61	24797.98
443.80	25200.55
443.98	23536.43
444.17	23943.68
444.35	25284.81
444.54	26001.01
444.73	25298.85
444.91	24320.51
445.10	23051.94
445.28	22162.53
445.47	21977.63
445.65	21947.20
445.84	22719.58
446.02	23477.91
446.21	24130.92
446.39	24070.07
446.58	24414.13
446.77	24938.41
446.95	25003.94
447.14	25495.46
447.32	26260.81
447.51	25230.98
447.69	24725.42
447.88	24215.18
448.06	24510.09
448.25	25158.42
448.43	25369.07
448.62	24898.62
448.80	24477.32
448.99	25137.35
449.17	24900.96
449.36	24929.05
449.54	26019.74
449.73	26394.22
449.91	26359.11
450.10	27405.33
450.28	27992.81
450.46	27580.87
450.65	27683.86
450.83	27246.18
451.02	26991.06
451.20	26923.18
451.39	26752.32
451.57	26340.39
451.76	26462.10
451.94	26256.13
452.13	26052.50
452.31	24929.05
452.49	23702.61
452.68	24060.71
452.86	24503.07
453.05	24566.26
453.23	25095.22
453.42	25865.26
453.60	26256.13
453.78	26569.76
453.97	26258.47
454.15	26246.77
454.34	25715.47
454.52	25834.83
454.70	24982.88
454.89	25270.76
455.07	25958.88
455.26	25928.45
455.44	27281.28
455.62	27513.00
455.81	27569.17
455.99	27433.42
456.17	26904.46
456.36	27557.47
456.54	27892.16
456.73	28217.50
456.91	28519.43
457.09	28545.17
457.28	29277.76
457.46	27819.61
457.64	27711.94
457.83	26801.47
458.01	26618.91
458.19	27026.17
458.38	27077.66
458.56	28339.21
458.74	28123.88
458.93	27257.88
459.11	27201.71
459.29	27098.72
459.48	27824.29
459.66	27225.11
459.84	27606.62
460.03	28002.17
460.21	27981.10
460.39	28503.04
460.57	28683.27
460.76	28802.63
460.94	29333.93
461.12	28687.95
461.31	29111.58
461.49	28800.29
461.67	28669.22
461.85	29340.96
462.04	29610.12
462.22	29907.37
462.40	29102.22
462.59	29521.18
462.77	29542.24
462.95	29570.33
463.13	29064.77
463.32	28957.11
463.50	28800.29
463.68	28690.29
463.86	28657.52
464.05	28070.04
464.23	27948.34
464.41	27637.05
464.59	27072.98
464.78	28582.62
464.96	28465.60
465.14	28032.60
465.32	28680.92
465.50	29734.17
465.69	29701.40
465.87	29088.18
466.05	28460.91
466.23	27026.17
466.41	26906.80
466.60	27601.94
466.78	27564.49
466.96	27901.53
467.14	28481.98
467.32	28945.41
467.51	28568.58
467.69	27569.17
467.87	28046.64
468.05	28809.65
468.23	28744.12
468.41	28968.81
468.60	28727.74
468.78	28985.19
468.96	28238.56
469.14	28851.78
469.32	28996.90
469.50	28128.56
469.69	28259.63
469.87	27707.26
470.05	27971.74
470.23	27550.45
470.41	27716.62
470.59	28123.88
470.77	28599.01
470.95	29350.32
471.14	29429.90
471.32	29383.09
471.50	30953.58
471.68	31395.95
471.86	31105.72
472.04	31559.78
472.22	31255.51
472.40	29715.44
472.58	29441.60
472.77	29511.81
472.95	30153.12
473.13	30497.18
473.31	29895.66
473.49	30288.87
473.67	30803.79
473.85	31304.67
474.03	32037.25
474.21	31702.56
474.39	32063.00
474.57	32074.70
474.75	32135.56
474.93	32315.78
475.12	30895.07
475.30	31473.18
475.48	31651.06
475.66	32266.63
475.84	31154.87
476.02	30747.62
476.20	30803.79
476.38	31625.32
476.56	32397.70
476.74	32945.38
476.92	33373.70
477.10	33392.42
477.28	33942.45
477.46	34485.45
477.64	34967.60
477.82	34473.75
478.00	34885.68
478.18	34710.14
478.36	34525.24
478.54	34808.45
478.72	34731.21
478.90	35894.46
479.08	36587.25
479.26	36994.51
479.44	36615.34
479.62	36180.00
479.80	36584.91
479.98	36889.18
480.16	37031.96
480.34	36879.82
480.52	36762.79
480.70	37186.43
480.88	37528.15
481.06	37806.67
481.24	37972.85
481.41	39072.90
481.59	39545.69
481.77	39269.51
481.95	38621.18
482.13	38459.68
482.31	38738.21
482.49	39182.91
482.67	39260.15
482.85	39688.46
483.03	40381.26
483.21	40383.60
483.39	40627.02
483.57	39941.24
483.74	39321.00
483.92	40013.80
484.10	39859.32
484.28	41258.96
484.46	41226.20
484.64	41675.58
484.82	40987.46
485.00	40554.46
485.18	39552.71
485.35	38391.81
485.53	35342.09
485.71	32404.72
485.89	32285.35
486.07	34033.73
486.25	36517.04
486.43	38869.28
486.61	38862.26
486.78	39297.59
486.96	39328.02
487.14	40868.09
487.32	42024.32
487.50	43126.71
487.68	43892.07
487.85	44690.19
488.03	44605.93
488.21	43929.51
488.39	43480.13
488.57	42616.47
488.75	42387.10
488.92	43814.83
489.10	46057.06
489.28	47686.07
489.46	48388.24
489.64	48196.31
489.81	48397.60
489.99	48051.20
490.17	47686.07
490.35	48507.60
490.53	47798.42
490.70	47466.06
490.88	47220.31
491.06	48643.35
491.24	48692.50
491.41	47037.75
491.59	45198.09
491.77	44467.84
491.95	45783.22
492.13	47133.71
492.30	48603.56
492.48	50033.63
492.66	50548.55
492.84	49769.15
493.01	49975.12
493.19	49460.20
493.37	48879.75
493.54	48446.75
493.72	49741.06
493.90	50862.18
494.08	51655.62
494.25	51758.61
494.43	51997.34
494.61	52619.92
494.79	52729.93
494.96	52278.21
495.14	51686.05
495.32	50401.10
495.49	49780.85
495.67	51044.74
495.85	52367.15
496.02	52858.66
496.20	52896.11
496.38	52378.85
496.55	52231.40
496.73	52645.67
496.91	52825.89
497.09	53633.38
497.26	53614.65
497.44	53134.84
497.62	52491.19
497.79	51358.38
497.97	50267.69
498.14	50356.63
498.32	51877.97
498.50	52704.18
498.67	53354.85
498.85	53228.46
499.03	53652.10
499.20	53579.54
499.38	53944.67
499.56	53467.20
499.73	52811.85
499.91	52547.37
500.08	51714.14
500.26	51260.07
500.44	51803.08
500.61	52491.19
500.79	52175.22
500.97	51831.16
501.14	51697.75
501.32	51723.50
501.49	51728.18
501.67	51732.86
501.84	52449.06
502.02	52542.69
502.20	52963.98
502.37	53062.29
502.55	53371.24
502.72	54241.92
502.90	54384.69
503.07	53965.73
503.25	53478.90
503.43	52640.99
503.60	51931.81
503.78	51236.67
503.95	51866.27
504.13	53151.23
504.30	54279.36
504.48	53963.39
504.65	53902.54
504.83	53858.07
505.01	54333.20
505.18	54857.48
505.36	55463.67
505.53	55470.70
505.71	55973.91
505.88	55709.43
506.06	55072.81
506.23	54623.42
506.41	54384.69
506.58	54644.49
506.76	54534.48
506.93	54759.17
507.11	54033.61
507.28	54597.68
507.46	53549.12
507.63	53406.34
507.81	53027.18
507.98	53563.16
508.16	53862.75
508.33	54721.72
508.50	55030.68
508.68	55629.85
508.85	55819.44
509.03	55714.11
509.20	55587.72
509.38	54815.35
509.55	54291.07
509.73	54405.75
509.90	54864.50
510.08	55208.56
510.25	55056.42
510.42	54841.09
510.60	54920.67
510.77	55049.40
510.95	55643.90
511.12	55854.54
511.30	56142.43
511.47	56388.19
511.64	56088.60
511.82	55833.48
511.99	54894.92
512.17	54504.06
512.34	54351.92
512.51	54433.84
512.69	54663.21
512.86	54632.78
513.04	55161.75
513.21	55323.24
513.38	54873.86
513.56	54319.15
513.73	53661.46
513.90	53902.54
514.08	53881.47
514.25	54190.42
514.43	54461.93
514.60	54904.29
514.77	54798.96
514.95	54752.15
515.12	54658.53
515.29	55030.68
515.47	55381.76
515.64	55777.31
515.81	55487.08
515.99	54923.01
516.16	53088.03
516.33	50241.94
516.51	49013.16
516.68	47999.71
516.85	47325.63
517.03	48119.07
517.20	51398.16
517.37	54305.11
517.54	54866.84
517.72	54120.21
517.89	51395.82
518.06	48931.24
518.24	49673.19
518.41	51915.42
518.58	53130.16
518.75	53385.28
518.93	53614.65
519.10	53837.00
519.27	54230.21
519.45	54433.84
519.62	55304.52
519.79	55716.45
519.96	55353.67
520.14	54703.00
520.31	53680.19
520.48	53893.18
520.65	54450.22
520.83	55180.47
521.00	55803.05
521.17	55215.58
521.34	54927.69
521.52	55199.19
521.69	56067.53
521.86	56418.61
522.03	56002.00
522.20	54663.21
522.38	53837.00
522.55	53652.10
522.72	54209.15
522.89	54635.13
523.07	54738.11
523.24	55236.64
523.41	55948.17
523.58	56210.31
523.75	56568.41
523.92	56692.46
524.10	56549.68
524.27	56367.12
524.44	56168.18
524.61	55980.93
524.78	56086.26
524.96	55814.76
525.13	55824.12
525.30	56142.43
525.47	56418.61
525.64	56395.21
525.81	55819.44
525.98	54103.82
526.16	52762.70
526.33	51774.99
526.50	51494.13
526.67	51281.14
526.84	52212.67
527.01	52947.60
527.18	54047.65
527.36	54993.23
527.53	55781.99
527.70	55849.86
527.87	55477.72
528.04	55084.51
528.21	55409.84
528.38	56137.75
528.55	56713.52
528.72	56907.79
528.89	57202.69
529.07	56987.36
529.24	56179.88
529.41	55573.68
529.58	54813.01
529.75	55084.51
529.92	55468.36
530.09	55899.01
530.26	56385.85
530.43	56713.52
530.60	56921.83
530.77	56919.49
530.94	57148.86
531.11	56821.19
531.28	56264.14
531.46	56299.25
531.63	56339.04
531.80	56097.96
531.97	55700.07
532.14	54667.89
532.31	53478.90
532.48	52449.06
532.65	53113.78
532.82	54122.55
532.99	55070.46
533.16	55653.26
533.33	56226.69
533.50	55950.51
533.67	55264.73
533.84	55009.61
534.01	55180.47
534.18	55473.04
534.35	55629.85
534.52	55194.51
534.69	55456.65
534.86	55786.67
535.03	56137.75
535.20	56835.23
535.37	56970.98
535.54	57017.79
535.71	56699.48
535.88	56224.35
536.05	55653.26
536.22	55138.34
536.38	54883.22
536.55	54302.77
536.72	53914.24
536.89	54066.38
537.06	54733.43
537.23	55817.10
537.40	55927.10
537.57	56095.62
537.74	55641.56
537.91	55702.41
538.08	55845.18
538.25	55693.05
538.42	56067.53
538.59	55690.71
538.75	54836.41
538.92	54733.43
539.09	54639.81
539.26	54480.65
539.43	54106.16
539.60	54497.03
539.77	54403.41
539.94	54220.85
540.11	53406.34
540.28	52947.60
540.44	53308.04
540.61	53228.46
540.78	53551.46
540.95	53909.56
541.12	54506.40
541.29	55126.64
541.46	55253.03
541.62	55253.03
541.79	55054.08
541.96	54384.69
542.13	54504.06
542.30	54569.59
542.47	54880.88
542.63	54560.23
542.80	54387.03
542.97	54499.37
543.14	54232.55
543.31	54431.50
543.48	55187.49
543.64	55784.33
543.81	56200.94
543.98	55915.40
544.15	55159.41
544.32	54616.40
544.48	54567.25
544.65	55274.09
544.82	55608.79
544.99	55103.23
545.16	54808.32
545.32	54539.16
545.49	55451.97
545.66	55746.88
545.83	55332.60
546.00	54939.39
546.16	54611.72
546.33	54887.90
546.50	54475.97
546.67	55318.56
546.83	54452.56
547.00	54653.85
547.17	54010.20
547.34	53406.34
547.50	53460.18
547.67	53879.13
547.84	53996.16
548.00	54461.93
548.17	54754.49
548.34	54681.94
548.51	54997.91
548.67	54567.25
548.84	54691.30
549.01	54798.96
549.18	54677.25
549.34	54621.08
549.51	54717.04
549.68	54461.93
549.84	54157.66
550.01	54157.66
550.18	54021.90
550.34	54302.77
550.51	54333.20
550.68	54213.83
550.84	53301.02
551.01	53719.98
551.18	53829.98
551.34	54061.69
551.51	54342.56
551.68	54504.06
551.84	54658.53
552.01	54305.11
552.18	54415.11
552.34	53361.87
552.51	53160.59
552.68	53235.48
552.84	53806.58
553.01	53790.19
553.18	53387.62
553.34	53839.34
553.51	54152.97
553.67	54335.54
553.84	54401.07
554.01	54501.71
554.17	54099.14
554.34	54176.38
554.51	54384.69
554.67	54808.32
554.84	54394.05
555.00	53998.50
555.17	53743.38
555.33	53848.71
555.50	53939.99
555.67	54080.42
555.83	53546.78
556.00	53277.61
556.16	53415.71
556.33	53041.22
556.50	52842.27
556.66	52830.57
556.83	52636.31
556.99	52882.06
557.16	52870.36
557.32	53064.63
557.49	53420.39
557.65	53088.03
557.82	53345.49
557.98	53141.86
558.15	52629.29
558.32	51664.99
558.48	50824.73
558.65	50892.61
558.81	51009.64
558.98	51711.80
559.14	51880.31
559.31	51934.15
559.47	51938.83
559.64	51381.78
559.80	51386.46
559.97	51405.19
560.13	52081.60
560.30	52676.10
560.46	53291.66
560.63	53914.24
560.79	53600.61
560.96	53090.37
561.12	51831.16
561.29	50934.74
561.45	51210.92
561.61	51753.93
561.78	52212.67
561.94	52163.52
562.11	51814.78
562.27	51566.68
562.44	52165.86
562.60	52587.16
562.77	52711.20
562.93	52598.86
563.10	52357.78
563.26	51894.36
563.42	51833.50
563.59	51407.53
563.75	51892.02
563.92	51594.77
564.08	51793.71
564.24	52144.80
564.41	52072.24
564.57	51718.82
564.74	51966.91
564.90	51779.67
565.07	51510.51
565.23	50688.98
565.39	50277.05
565.56	50113.21
565.72	50040.65
565.88	50157.68
566.05	50298.11
566.21	50745.15
566.38	51000.27
566.54	51070.49
566.70	51398.16
566.87	51714.14
567.03	51753.93
567.19	52093.30
567.36	51459.02
567.52	51540.94
567.68	50974.53
567.85	50340.24
568.01	49886.18
568.17	49247.21
568.34	49579.57
568.50	49600.63
568.66	49696.59
568.83	50145.98
568.99	50071.08
569.15	50485.36
569.32	50454.93
569.48	50068.74
569.64	49764.47
569.81	49624.04
569.97	49471.90
570.13	49155.93
570.30	48589.52
570.46	48744.00
570.62	47679.05
570.78	47650.97
570.95	47746.93
571.11	48472.49
571.27	49085.72
571.43	48989.75
571.60	49743.41
571.76	50005.55
571.92	50014.91
572.09	50232.58
572.25	50326.20
572.41	50136.62
572.57	49984.48
572.74	49715.32
572.90	49420.41
573.06	49523.40
573.22	49764.47
573.38	49532.76
573.55	49502.33
573.71	49815.96
573.87	49305.73
574.03	49684.89
574.20	49102.10
574.36	48762.72
574.52	48912.52
574.68	48467.81
574.84	48004.39
575.01	47510.53
575.17	47580.75
575.33	47875.66
575.49	48626.97
575.65	48385.89
575.82	48189.29
575.98	48013.75
576.14	48016.09
576.30	48168.22
576.46	48676.12
576.62	48868.05
576.79	48355.47
576.95	48098.01
577.11	48083.97
577.27	47863.96
577.43	48378.87
577.59	47983.32
577.75	47185.20
577.92	46740.50
578.08	46639.86
578.24	46469.00
578.40	47103.28
578.56	47283.50
578.72	47339.68
578.88	47332.65
579.04	47746.93
579.21	47889.70
579.37	47880.34
579.53	48383.55
579.69	48039.50
579.85	48179.93
580.01	47510.53
580.17	47316.27
580.33	47260.10
580.49	46937.10
580.65	47264.78
580.82	48336.74
580.98	47459.04
581.14	47735.23
581.30	47980.98
581.46	47447.34
581.62	47868.64
581.78	47854.59
581.94	47959.92
582.10	48016.09
582.26	48076.94
582.42	48048.86
582.58	48102.69
582.74	47988.00
582.90	48154.18
583.06	48123.75
583.22	47683.73
583.38	47388.83
583.54	47407.55
583.70	47470.75
583.86	47599.47
584.02	47405.21
584.18	47540.96
584.34	47253.08
584.50	47210.95
584.66	46883.27
584.82	46593.04
584.98	46569.64
585.14	46241.96
585.30	44715.93
