SpectraSuite Data File
++++++++++++++++++++++++++++++++++++
Date: Mon Oct 07 14:55:30 GMT-05:00 2013
User: price-jones
Dark Spectrum Present: No
Reference Spectrum Present: No
Number of Sampled Component Spectra: 1
Spectrometers: USB2+H05261
Integration Time (usec): 1000000 (USB2+H05261)
Spectra Averaged: 1 (USB2+H05261)
Boxcar Smoothing: 0 (USB2+H05261)
Correct for Electrical Dark: No (USB2+H05261)
Strobe/Lamp Enabled: No (USB2+H05261)
Correct for Detector Non-linearity: No (USB2+H05261)
Correct for Stray Light: No (USB2+H05261)
Number of Pixels in Processed Spectrum: 2048
>>>>>Begin Processed Spectral Data<<<<<
365.73	0.00
365.92	0.00
366.12	0.00
366.32	0.00
366.52	0.00
366.72	163.84
366.91	0.00
367.11	227.03
367.31	60.85
367.51	170.86
367.70	152.13
367.90	383.85
368.10	187.24
368.30	236.39
368.49	0.00
368.69	416.62
368.89	163.84
369.09	28.09
369.28	147.45
369.48	0.00
369.68	77.24
369.87	205.97
370.07	77.24
370.27	510.24
370.47	2087.76
370.66	7211.19
370.86	8697.43
371.06	9378.53
371.25	9493.21
371.45	8379.12
371.65	7733.13
371.84	7206.51
372.04	7145.66
372.24	8124.00
372.44	8830.84
372.63	8601.47
372.83	8243.37
373.03	7061.40
373.22	6616.69
373.42	6757.13
373.62	7793.98
373.81	8344.01
374.01	8493.80
374.21	7906.33
374.40	7129.27
374.60	7527.16
374.79	8088.89
374.99	9385.55
375.19	10406.02
375.38	10155.58
375.58	9568.11
375.78	9628.96
375.97	9687.48
376.17	10413.04
376.37	9748.33
376.56	10296.02
376.76	10340.49
376.95	11005.20
377.15	12126.32
377.35	12617.83
377.54	12973.59
377.74	12891.67
377.93	13151.47
378.13	12975.93
378.33	12456.33
378.52	11424.15
378.72	11056.69
378.91	11169.04
379.11	10403.68
379.31	10003.45
379.50	9926.21
379.70	11023.92
379.89	12032.69
380.09	12278.45
380.28	12638.89
380.48	13057.85
380.68	12505.48
380.87	12245.68
381.07	11454.58
381.26	10890.51
381.46	10256.23
381.65	9851.31
381.85	9390.23
382.04	9238.09
382.24	8531.25
382.43	7967.18
382.63	7744.83
382.83	7913.35
383.02	8229.32
383.22	8255.07
383.41	7838.45
383.61	8578.06
383.80	9827.91
384.00	10682.20
384.19	11859.49
384.39	12512.50
384.58	12526.55
384.78	12238.66
384.97	12135.68
385.17	11272.02
385.36	11002.86
385.56	10654.12
385.75	10670.50
385.95	11653.53
386.14	12870.61
386.34	12779.32
386.53	12098.23
386.72	11321.17
386.92	11761.19
387.11	12245.68
387.31	12826.14
387.50	12559.31
387.70	11887.58
387.89	11925.03
388.09	11967.16
388.28	11803.32
388.48	11721.40
388.67	13109.34
388.86	14303.01
389.06	15187.74
389.25	16142.67
389.45	16046.71
389.64	16016.29
389.84	16154.38
390.03	15630.10
390.22	15761.17
390.42	15850.11
390.61	16725.47
390.81	17783.39
391.00	18515.98
391.19	18443.42
391.39	17139.74
391.58	16697.38
391.78	15690.95
391.97	15279.02
392.16	13745.97
392.36	13015.72
392.55	10895.19
392.75	8547.64
392.94	7068.42
393.13	7169.06
393.33	8112.30
393.52	9980.04
393.71	12786.35
393.91	13977.68
394.10	14860.06
394.29	16180.12
394.49	17181.87
394.68	19035.58
394.88	19112.81
395.07	19730.72
395.26	18965.36
395.46	18609.60
395.65	17928.50
395.84	15646.48
396.04	13900.44
396.23	10803.91
396.42	9179.58
396.62	8961.91
396.81	10399.00
397.00	12903.37
397.19	16009.26
397.39	18890.46
397.58	21242.70
397.77	22457.44
397.97	23197.05
398.16	23143.22
398.35	24411.79
398.55	24325.19
398.74	25769.30
398.93	26476.14
399.12	25500.14
399.32	24561.58
399.51	25172.46
399.70	26972.33
399.90	26665.72
400.09	26464.44
400.28	26398.90
400.47	26471.46
400.67	28226.86
400.86	28416.44
401.05	28236.22
401.24	28840.08
401.44	28994.56
401.63	28891.57
401.82	29654.59
402.01	29092.86
402.21	29518.84
402.40	29502.45
402.59	28795.61
402.78	27419.38
402.97	26068.89
403.17	27300.01
403.36	29165.42
403.55	29783.32
403.74	30759.32
403.93	29153.71
404.13	27908.55
404.32	26705.51
404.51	27730.67
404.70	30403.56
404.89	29497.77
405.09	29661.61
405.28	28283.03
405.47	28362.61
405.66	28599.01
405.85	27824.29
406.05	26616.57
406.24	27152.55
406.43	28435.17
406.62	29773.95
406.81	30209.29
407.00	28374.31
407.20	27840.67
407.39	28451.55
407.58	29340.96
407.77	30274.83
407.96	31222.75
408.15	31498.93
408.34	31868.73
408.54	32575.58
408.73	32870.48
408.92	32378.97
409.11	31779.79
409.30	30359.09
409.49	28170.69
409.68	26651.68
409.87	26036.12
410.07	27323.41
410.26	29549.26
410.45	31187.64
410.64	31850.01
410.83	32893.89
411.02	33383.06
411.21	34876.32
411.40	34789.72
411.59	34256.08
411.78	33996.28
411.98	33743.50
412.17	34422.26
412.36	33764.57
412.55	33565.62
412.74	33095.18
412.93	32659.84
413.12	32631.75
413.31	35754.02
413.50	35849.99
413.69	36259.58
413.88	35400.60
414.07	33977.56
414.26	34309.91
414.45	35730.62
414.64	36128.51
414.83	36037.23
415.02	35016.75
415.22	35091.65
415.41	36039.57
415.60	36622.36
415.79	38043.07
415.98	39384.19
416.17	38880.98
416.36	38160.09
416.55	37251.97
416.74	36645.77
416.93	35384.22
417.12	35234.42
417.31	36072.34
417.50	36507.68
417.69	37450.91
417.88	36980.46
418.07	36474.91
418.26	36041.91
418.45	36158.94
418.64	38319.25
418.83	38761.61
419.02	38405.85
419.21	38239.67
419.39	36472.57
419.58	34593.12
419.77	34656.31
419.96	36802.58
420.15	38218.61
420.34	39033.11
420.53	40491.27
420.72	41287.05
420.91	40678.51
421.10	39948.26
421.29	39487.18
421.48	38557.99
421.67	40643.40
421.86	39173.55
422.05	36835.35
422.24	33223.90
422.43	32744.09
422.61	35651.04
422.80	38815.44
422.99	39070.56
423.18	37226.22
423.37	37249.63
423.56	37406.44
423.75	37614.75
423.94	37890.93
424.13	35885.09
424.32	36395.33
424.50	36315.75
424.69	35538.69
424.88	36503.00
425.07	36428.10
425.26	36465.55
425.45	35943.61
425.64	34749.93
425.83	34962.92
426.01	37174.73
426.20	37954.13
426.39	37565.60
426.58	34747.59
426.77	32528.77
426.96	31168.91
427.15	32414.08
427.33	34925.47
427.52	36339.16
427.71	36027.87
427.90	35854.67
428.09	35625.29
428.28	34904.41
428.46	33680.31
428.65	33041.34
428.84	33675.63
429.03	34965.26
429.22	32432.80
429.40	30955.93
429.59	28077.07
429.78	25118.63
429.97	25326.94
430.16	25518.86
430.34	25635.89
430.53	25652.27
430.72	26195.28
430.91	28978.17
431.10	33200.50
431.28	38667.99
431.47	41806.65
431.66	41942.40
431.85	38384.79
432.03	35704.87
432.22	35138.46
432.41	35372.52
432.60	39739.96
432.79	40498.29
432.97	41741.11
433.16	40715.96
433.35	37212.18
433.54	33879.25
433.72	32250.24
433.91	33172.41
434.10	36582.57
434.28	38976.94
434.47	40498.29
434.66	40495.95
434.85	39302.28
435.03	39302.28
435.22	42230.29
435.41	45841.73
435.59	44973.39
435.78	44343.79
435.97	44378.90
436.16	43711.84
436.34	42892.66
436.53	42464.34
436.72	42497.11
436.90	39936.56
437.09	40285.30
437.28	39351.43
437.46	40332.11
437.65	40795.54
437.84	38305.21
438.02	34623.54
438.21	34448.00
438.40	36514.70
438.58	39566.76
438.77	40039.54
438.96	41120.87
439.14	42274.76
439.33	43002.66
439.52	43803.13
439.70	42347.31
439.89	41605.36
440.08	40980.44
440.26	40863.41
440.45	42014.96
440.63	44495.92
440.82	46230.26
441.01	45933.01
441.19	45214.47
441.38	45937.69
441.57	47220.31
441.75	47779.70
441.94	47868.64
442.12	47648.63
442.31	48217.38
442.50	47856.93
442.68	47260.10
442.87	47304.57
443.05	46859.87
443.24	47136.05
443.43	47901.40
443.61	49001.46
443.80	49001.46
443.98	46323.88
444.17	47023.70
444.35	49439.14
444.54	49457.86
444.73	48882.09
444.91	47908.43
445.10	45869.82
445.28	44306.34
445.47	43880.36
445.65	44062.93
445.84	44823.60
446.02	46445.59
446.21	47033.07
446.39	46824.76
446.58	46958.17
446.77	47789.06
446.95	47739.91
447.14	48891.45
447.32	49886.18
447.51	48727.61
447.69	47241.37
447.88	46873.91
448.06	47901.40
448.25	48458.45
448.43	48449.09
448.62	47608.84
448.80	47793.74
448.99	47531.60
449.17	47746.93
449.36	48121.41
449.54	49940.01
449.73	49160.61
449.91	50138.96
450.10	51203.90
450.28	51934.15
450.46	51538.60
450.65	51332.63
450.83	50939.42
451.02	50134.28
451.20	49895.54
451.39	49874.48
451.57	49738.72
451.76	49715.32
451.94	49420.41
452.13	48664.42
452.31	47627.56
452.49	45565.55
452.68	45422.78
452.86	45925.99
453.05	46557.94
453.23	47470.75
453.42	47672.03
453.60	49020.18
453.78	49556.16
453.97	48594.20
454.15	48758.04
454.34	47997.37
454.52	48486.54
454.70	47988.00
454.89	48013.75
455.07	47863.96
455.26	48486.54
455.44	50050.02
455.62	50677.28
455.81	50712.39
455.99	50700.68
456.17	50220.87
456.36	49876.82
456.54	51147.73
456.73	50829.41
456.91	51831.16
457.09	51842.87
457.28	52369.49
457.46	50770.90
457.64	50981.55
457.83	48964.01
458.01	48673.78
458.19	49759.79
458.38	49277.64
458.56	50913.67
458.74	50424.50
458.93	49862.77
459.11	50178.75
459.29	49696.59
459.48	49982.14
459.66	49921.29
459.84	50101.51
460.03	51217.94
460.21	50354.29
460.39	51014.32
460.57	51334.97
460.76	51704.77
460.94	51629.88
461.12	51306.88
461.31	51414.55
461.49	51119.64
461.67	51196.88
461.85	52128.41
462.04	51831.16
462.22	53052.92
462.40	51730.52
462.59	51931.81
462.77	51875.63
462.95	51957.55
463.13	51452.00
463.32	51306.88
463.50	50890.27
463.68	50880.91
463.86	51058.79
464.05	50171.72
464.23	49663.83
464.41	49586.59
464.59	48940.60
464.78	50562.59
464.96	50305.13
465.14	50150.66
465.32	50934.74
465.50	51941.17
465.69	51875.63
465.87	51215.60
466.05	50607.06
466.23	49230.83
466.41	47941.19
466.60	49212.10
466.78	48949.96
466.96	49970.44
467.14	49883.84
467.32	51124.32
467.51	50897.29
467.69	49322.11
467.87	50134.28
468.05	50181.09
468.23	50740.47
468.41	50555.57
468.60	50330.88
468.78	50770.90
468.96	50443.23
469.14	51276.46
469.32	51239.01
469.50	49209.76
469.69	50010.23
469.87	49165.29
470.05	48690.16
470.23	48713.57
470.41	49638.08
470.59	49532.76
470.77	49579.57
470.95	50302.79
471.14	50801.33
471.32	50433.86
471.50	52912.49
471.68	52961.64
471.86	52678.44
472.04	52699.50
472.22	53134.84
472.40	51536.26
472.58	51239.01
472.77	50777.92
472.95	51559.66
473.13	52701.84
473.31	51435.61
473.49	51377.10
473.67	51767.97
473.85	52446.72
474.03	53324.43
474.21	52889.09
474.39	53633.38
474.57	53654.44
474.75	53846.36
474.93	53326.77
475.12	52119.05
475.30	52126.07
475.48	52435.02
475.66	53169.95
475.84	52495.88
476.02	52238.42
476.20	51866.27
476.38	52697.16
476.56	53343.15
476.74	53471.88
476.92	54106.16
477.10	54234.89
477.28	55278.77
477.46	55033.02
477.64	54995.57
477.82	55629.85
478.00	55515.17
478.18	54871.52
478.36	55063.44
478.54	55093.87
478.72	55428.57
478.90	55693.05
479.08	56793.10
479.26	56697.14
479.44	56664.37
479.62	56463.08
479.80	56610.54
479.98	56317.97
480.16	56746.29
480.34	56715.86
480.52	56767.35
480.70	57141.84
480.88	57242.48
481.06	57415.68
481.24	57502.28
481.41	58087.42
481.59	58866.81
481.77	58611.70
481.95	58059.33
482.13	58122.52
482.31	57708.25
482.49	58267.64
482.67	58178.70
482.85	58653.82
483.03	58803.62
483.21	59384.07
483.39	59245.98
483.57	58482.97
483.74	58052.31
483.92	58564.88
484.10	57904.85
484.28	58960.44
484.46	59604.08
484.64	59756.22
484.82	59178.10
485.00	58707.66
485.18	58422.11
485.35	57780.81
485.53	55210.90
485.71	53450.81
485.89	52514.60
486.07	54124.89
486.25	56420.95
486.43	57972.73
486.61	58288.70
486.78	58213.80
486.96	58209.12
487.14	59353.65
487.32	59723.45
487.50	60577.75
487.68	60793.07
487.85	60987.34
488.03	61413.32
488.21	61010.74
488.39	60605.83
488.57	60172.83
488.75	59898.99
488.92	61256.50
489.10	62330.81
489.28	63311.49
489.46	63288.09
489.64	63370.00
489.81	63264.68
489.99	63124.25
490.17	62899.56
490.35	63732.79
490.53	62742.74
490.70	62330.81
490.88	62319.10
491.06	63489.37
491.24	63384.05
491.41	62817.64
491.59	61469.49
491.77	61064.58
491.95	61935.26
492.13	62405.70
492.30	63620.44
492.48	64095.57
492.66	64324.94
492.84	64217.28
493.01	63985.57
493.19	63831.09
493.37	63599.38
493.54	63334.90
493.72	63784.28
493.90	64669.00
494.08	65036.47
494.25	65270.52
494.43	64942.84
494.61	65235.41
494.79	65467.12
494.96	65535.00
495.14	64577.72
495.32	64416.22
495.49	63620.44
495.67	64996.68
495.85	65535.00
496.02	65535.00
496.20	65535.00
496.38	65368.82
496.55	65535.00
496.73	65535.00
496.91	65375.84
497.09	65535.00
497.26	65535.00
497.44	65387.55
497.62	65319.67
497.79	64870.29
497.97	63884.92
498.14	63854.50
498.32	64673.68
498.50	65240.09
498.67	65535.00
498.85	65535.00
499.03	65535.00
499.20	65535.00
499.38	65535.00
499.56	65535.00
499.73	65535.00
499.91	65535.00
500.08	65102.00
500.26	64411.54
500.44	64804.75
500.61	65535.00
500.79	65024.76
500.97	64654.96
501.14	64727.52
501.32	64486.44
501.49	64615.17
501.67	65195.62
501.84	65272.86
502.02	65448.40
502.20	65535.00
502.37	65535.00
502.55	65535.00
502.72	65535.00
502.90	65535.00
503.07	65535.00
503.25	65535.00
503.43	65455.42
503.60	64722.83
503.78	64076.85
503.95	64795.39
504.13	65535.00
504.30	65535.00
504.48	65535.00
504.65	65535.00
504.83	65535.00
505.01	65535.00
505.18	65535.00
505.36	65535.00
505.53	65535.00
505.71	65535.00
505.88	65535.00
506.06	65535.00
506.23	65535.00
506.41	65535.00
506.58	65535.00
506.76	65535.00
506.93	65535.00
507.11	65535.00
507.28	65535.00
507.46	65535.00
507.63	65167.54
507.81	65207.32
507.98	65535.00
508.16	65535.00
508.33	65535.00
508.50	65535.00
508.68	65535.00
508.85	65535.00
509.03	65535.00
509.20	65535.00
509.38	65535.00
509.55	65535.00
509.73	65535.00
509.90	65535.00
510.08	65535.00
510.25	65535.00
510.42	65535.00
510.60	65535.00
510.77	65535.00
510.95	65535.00
511.12	65535.00
511.30	65535.00
511.47	65535.00
511.64	65535.00
511.82	65535.00
511.99	65535.00
512.17	65535.00
512.34	65535.00
512.51	65535.00
512.69	65535.00
512.86	65535.00
513.04	65535.00
513.21	65535.00
513.38	65535.00
513.56	65535.00
513.73	65535.00
513.90	65535.00
514.08	65525.64
514.25	65535.00
514.43	65535.00
514.60	65535.00
514.77	65535.00
514.95	65535.00
515.12	65535.00
515.29	65535.00
515.47	65535.00
515.64	65535.00
515.81	65535.00
515.99	65535.00
516.16	65535.00
516.33	63573.63
516.51	62358.89
516.68	61902.49
516.85	61581.84
517.03	61825.25
517.20	63936.41
517.37	65535.00
517.54	65535.00
517.72	65535.00
517.89	64399.84
518.06	62606.99
518.24	62941.69
518.41	64615.17
518.58	65457.76
518.75	65535.00
518.93	65535.00
519.10	65317.33
519.27	65535.00
519.45	65535.00
519.62	65535.00
519.79	65535.00
519.96	65535.00
520.14	65535.00
520.31	65535.00
520.48	65535.00
520.65	65535.00
520.83	65535.00
521.00	65535.00
521.17	65535.00
521.34	65535.00
521.52	65535.00
521.69	65535.00
521.86	65535.00
522.03	65535.00
522.20	65535.00
522.38	65535.00
522.55	65535.00
522.72	65535.00
522.89	65535.00
523.07	65535.00
523.24	65535.00
523.41	65535.00
523.58	65535.00
523.75	65535.00
523.92	65535.00
524.10	65535.00
524.27	65535.00
524.44	65535.00
524.61	65535.00
524.78	65535.00
524.96	65535.00
525.13	65535.00
525.30	65535.00
525.47	65535.00
525.64	65535.00
525.81	65535.00
525.98	65535.00
526.16	65535.00
526.33	64378.78
526.50	63278.72
526.67	63444.90
526.84	63898.97
527.01	64451.33
527.18	65485.85
527.36	65535.00
527.53	65535.00
527.70	65535.00
527.87	65535.00
528.04	65535.00
528.21	65535.00
528.38	65535.00
528.55	65535.00
528.72	65535.00
528.89	65535.00
529.07	65535.00
529.24	65535.00
529.41	65535.00
529.58	65535.00
529.75	65535.00
529.92	65535.00
530.09	65535.00
530.26	65535.00
530.43	65535.00
530.60	65535.00
530.77	65535.00
530.94	65535.00
531.11	65535.00
531.28	65535.00
531.46	65535.00
531.63	65535.00
531.80	65535.00
531.97	65535.00
532.14	65535.00
532.31	65535.00
532.48	64636.23
532.65	64849.22
532.82	65436.70
532.99	65535.00
533.16	65535.00
533.33	65535.00
533.50	65535.00
533.67	65535.00
533.84	65535.00
534.01	65535.00
534.18	65535.00
534.35	65535.00
534.52	65535.00
534.69	65535.00
534.86	65535.00
535.03	65535.00
535.20	65535.00
535.37	65535.00
535.54	65535.00
535.71	65535.00
535.88	65535.00
536.05	65535.00
536.22	65535.00
536.38	65535.00
536.55	65535.00
536.72	65535.00
536.89	65476.49
537.06	65535.00
537.23	65535.00
537.40	65535.00
537.57	65535.00
537.74	65535.00
537.91	65535.00
538.08	65535.00
538.25	65535.00
538.42	65535.00
538.59	65535.00
538.75	65535.00
538.92	65535.00
539.09	65535.00
539.26	65535.00
539.43	65535.00
539.60	65535.00
539.77	65535.00
539.94	65535.00
540.11	65535.00
540.28	65221.37
540.44	65340.74
540.61	65450.74
540.78	65535.00
540.95	65535.00
541.12	65535.00
541.29	65535.00
541.46	65535.00
541.62	65535.00
541.79	65535.00
541.96	65535.00
542.13	65535.00
542.30	65535.00
542.47	65535.00
542.63	65535.00
542.80	65535.00
542.97	65535.00
543.14	65535.00
543.31	65535.00
543.48	65535.00
543.64	65535.00
543.81	65535.00
543.98	65535.00
544.15	65535.00
544.32	65535.00
544.48	65535.00
544.65	65535.00
544.82	65535.00
544.99	65535.00
545.16	65535.00
545.32	65535.00
545.49	65535.00
545.66	65535.00
545.83	65535.00
546.00	65535.00
546.16	65535.00
546.33	65535.00
546.50	65535.00
546.67	65535.00
546.83	65535.00
547.00	65535.00
547.17	65535.00
547.34	65221.37
547.50	65251.80
547.67	65535.00
547.84	65535.00
548.00	65535.00
548.17	65535.00
548.34	65535.00
548.51	65535.00
548.67	65535.00
548.84	65535.00
549.01	65535.00
549.18	65535.00
549.34	65535.00
549.51	65535.00
549.68	65535.00
549.84	65535.00
550.01	65455.42
550.18	65535.00
550.34	65535.00
550.51	65453.08
550.68	65509.25
550.84	64961.57
551.01	65141.79
551.18	65076.26
551.34	65256.48
551.51	65476.49
551.68	65535.00
551.84	65535.00
552.01	65249.45
552.18	65535.00
552.34	64910.08
552.51	64727.52
552.68	64250.05
552.84	65003.70
553.01	65265.84
553.18	65141.79
553.34	65062.21
553.51	65097.32
553.67	65499.89
553.84	65535.00
554.01	65523.30
554.17	65347.76
554.34	65137.11
554.51	65361.80
554.67	65535.00
554.84	65399.25
555.00	65172.22
555.17	64987.31
555.33	64996.68
555.50	64687.73
555.67	64830.50
555.83	64851.56
556.00	64608.15
556.16	65202.64
556.33	64053.44
556.50	63990.25
556.66	64282.81
556.83	63920.03
556.99	64034.72
557.16	64346.01
557.32	64463.03
557.49	64734.54
557.65	64582.40
557.82	64133.02
557.98	64369.41
558.15	63777.26
558.32	63058.71
558.48	62550.82
558.65	62466.56
558.81	62997.86
558.98	63267.02
559.14	63274.04
559.31	63302.13
559.47	63798.32
559.64	63325.53
559.80	62887.85
559.97	63018.92
560.13	63248.30
560.30	63831.09
560.46	64411.54
560.63	64654.96
560.79	64418.56
560.96	64027.70
561.12	63147.65
561.29	62288.68
561.45	62440.81
561.61	62735.72
561.78	63629.80
561.94	63407.45
562.11	63157.02
562.27	63168.72
562.44	63313.83
562.60	63578.31
562.77	63859.18
562.93	63739.81
563.10	63608.74
563.26	63131.27
563.42	63229.57
563.59	63004.88
563.75	62574.22
563.92	63222.55
564.08	62922.96
564.24	63316.17
564.41	63384.05
564.57	63025.95
564.74	62714.65
564.90	62415.07
565.07	62726.36
565.23	62415.07
565.39	62152.93
565.56	61689.50
565.72	61731.63
565.88	62080.37
566.05	62110.80
566.21	62272.29
566.38	62447.83
566.54	62075.69
566.70	62651.46
566.87	62852.75
567.03	62670.18
567.19	63049.35
567.36	62775.51
567.52	62548.48
567.68	62127.18
567.85	61743.33
568.01	61399.27
568.17	61385.23
568.34	61415.66
568.50	61352.46
568.66	61448.42
568.83	61909.51
568.99	61731.63
569.15	62042.92
569.32	61834.61
569.48	61783.12
569.64	61499.92
569.81	61146.50
569.97	60956.91
570.13	61209.69
570.30	60851.59
570.46	60308.58
570.62	60016.02
570.78	59695.36
570.95	60093.25
571.11	60458.38
571.27	60788.39
571.43	60910.10
571.60	61286.93
571.76	61036.49
571.92	61425.02
572.09	61733.97
572.25	61616.94
572.41	61471.83
572.57	61364.17
572.74	61642.69
572.90	60966.27
573.06	61190.97
573.22	61001.38
573.38	61212.03
573.55	61165.22
573.71	61380.55
573.87	61298.63
574.03	60832.86
574.20	61003.72
574.36	60879.67
574.52	60769.67
574.68	60170.49
574.84	60444.33
575.01	59873.24
575.17	59742.17
575.33	60151.77
575.49	60294.54
575.65	60493.49
575.82	60088.57
575.98	60179.85
576.14	60104.96
576.30	60505.19
576.46	61078.62
576.62	61010.74
576.79	60790.73
576.95	60477.10
577.11	60154.11
577.27	60179.85
577.43	60484.12
577.59	59917.71
577.75	59622.81
577.92	59018.95
578.08	58571.91
578.24	58866.81
578.40	59568.97
578.56	59664.94
578.72	60013.68
578.88	60172.83
579.04	59704.73
579.21	59842.82
579.37	59821.75
579.53	60048.78
579.69	59861.54
579.85	59861.54
580.01	59870.90
580.17	59325.56
580.33	59381.73
580.49	59674.30
580.65	59788.98
580.82	59882.61
580.98	59730.47
581.14	59470.67
581.30	59840.48
581.46	59540.89
581.62	59945.80
581.78	59451.95
581.94	60331.99
582.10	59636.85
582.26	60041.76
582.42	59882.61
582.58	59966.87
582.74	59859.20
582.90	59943.46
583.06	59898.99
583.22	59669.62
583.38	59812.39
583.54	59870.90
583.70	60006.65
583.86	59866.22
584.02	59700.04
