SpectraSuite Data File
++++++++++++++++++++++++++++++++++++
Date: Mon Oct 07 14:53:29 GMT-05:00 2013
User: price-jones
Dark Spectrum Present: No
Reference Spectrum Present: No
Number of Sampled Component Spectra: 1
Spectrometers: USB2+H05261
Integration Time (usec): 100000 (USB2+H05261)
Spectra Averaged: 1 (USB2+H05261)
Boxcar Smoothing: 0 (USB2+H05261)
Correct for Electrical Dark: No (USB2+H05261)
Strobe/Lamp Enabled: No (USB2+H05261)
Correct for Detector Non-linearity: No (USB2+H05261)
Correct for Stray Light: No (USB2+H05261)
Number of Pixels in Processed Spectrum: 2048
>>>>>Begin Processed Spectral Data<<<<<
365.73	0.00
365.92	0.00
366.12	0.00
366.32	0.00
366.52	0.00
366.72	0.00
366.91	0.00
367.11	0.00
367.31	0.00
367.51	0.00
367.70	0.00
367.90	0.00
368.10	0.00
368.30	0.00
368.49	0.00
368.69	0.00
368.89	0.00
369.09	0.00
369.28	0.00
369.48	0.00
369.68	0.00
369.87	0.00
370.07	0.00
370.27	0.00
370.47	648.33
370.66	3332.92
370.86	3833.80
371.06	4250.41
371.25	4432.97
371.45	3892.31
371.65	3648.90
371.84	3330.58
372.04	3447.61
372.24	3847.84
372.44	4056.15
372.63	3974.23
372.83	3868.91
373.03	3290.79
373.22	3028.65
373.42	3218.24
373.62	3744.86
373.81	3950.82
374.01	4044.45
374.21	3531.87
374.40	3302.50
374.60	3438.25
374.79	3899.33
374.99	4592.13
375.19	4922.15
375.38	5060.24
375.58	4557.02
375.78	4683.41
375.97	4596.81
376.17	4755.97
376.37	4751.29
376.56	4940.87
376.76	5406.64
376.95	5528.35
377.15	5902.83
377.35	6083.05
377.54	6244.55
377.74	6443.49
377.93	6565.20
378.13	6356.90
378.33	6008.16
378.52	5781.12
378.72	5469.83
378.91	5270.89
379.11	5170.24
379.31	4851.93
379.50	4856.61
379.70	5420.68
379.89	5881.77
380.09	6143.91
380.28	6523.07
380.48	6534.78
380.68	6324.13
380.87	6005.81
381.07	5827.93
381.26	5228.76
381.46	4943.21
381.65	4905.76
381.85	4704.48
382.04	4407.23
382.24	4182.54
382.43	3955.51
382.63	3817.41
382.83	3875.93
383.02	3913.38
383.22	4016.36
383.41	3854.86
383.61	4128.70
383.80	4823.84
384.00	5483.88
384.19	6153.27
384.39	6455.20
384.58	6537.12
384.78	6356.90
384.97	6146.25
385.17	5970.71
385.36	5469.83
385.56	5355.15
385.75	5584.52
385.95	6003.47
386.14	6441.15
386.34	6628.40
386.53	6099.44
386.72	5886.45
386.92	6099.44
387.11	6139.23
387.31	6628.40
387.50	6457.54
387.70	6155.61
387.89	6118.16
388.09	6314.77
388.28	6427.11
388.48	6499.67
388.67	6654.14
388.86	7550.57
389.06	8126.34
389.25	8627.21
389.45	8514.87
389.64	8784.03
389.84	8344.01
390.03	8465.72
390.22	8208.26
390.42	8578.06
390.61	9018.08
390.81	9865.36
391.00	9785.78
391.19	9792.80
391.39	9397.25
391.58	8964.25
391.78	8582.74
391.97	8212.94
392.16	7798.66
392.36	7164.38
392.55	5582.18
392.75	4568.73
392.94	3662.94
393.13	3536.55
393.33	4173.18
393.52	5263.86
393.71	6574.56
393.91	7634.83
394.10	8035.06
394.29	8964.25
394.49	9633.64
394.68	10272.61
394.88	10509.01
395.07	10810.93
395.26	10469.22
395.46	10331.12
395.65	9991.75
395.84	8622.53
396.04	7241.62
396.23	5874.74
396.42	5018.11
396.62	4884.70
396.81	5593.88
397.00	7082.46
397.19	8716.16
397.39	10478.58
397.58	11843.11
397.77	12648.26
397.97	12978.27
398.16	13116.36
398.35	13497.87
398.55	13898.10
398.74	14389.61
398.93	14780.48
399.12	14438.76
399.32	13895.76
399.51	14326.42
399.70	15417.11
399.90	15051.99
400.09	15365.62
400.28	15042.62
400.47	15190.08
400.67	15789.25
400.86	16346.30
401.05	16245.66
401.24	16407.16
401.44	16791.00
401.63	17015.69
401.82	16631.85
402.01	16819.09
402.21	17041.44
402.40	17043.78
402.59	16449.28
402.78	15807.98
402.97	15379.66
403.17	15967.13
403.36	16870.58
403.55	17535.29
403.74	18120.43
403.93	16931.44
404.13	15829.04
404.32	15349.23
404.51	15929.69
404.70	17411.25
404.89	17209.96
405.09	17128.04
405.28	16521.84
405.47	16662.27
405.66	16776.96
405.85	16049.05
406.05	15861.81
406.24	15800.96
406.43	16470.35
406.62	17207.62
406.81	17432.31
407.00	16524.18
407.20	16325.24
407.39	16126.29
407.58	17298.90
407.77	17912.12
407.96	18347.46
408.15	18663.43
408.34	18422.36
408.54	19592.62
408.73	19798.59
408.92	19510.71
409.11	18984.09
409.30	17951.91
409.49	17088.25
409.68	15840.75
409.87	15447.54
410.07	16065.44
410.26	17385.50
410.45	18700.88
410.64	19166.65
410.83	19775.19
411.02	20086.48
411.21	20835.45
411.40	20563.95
411.59	20610.76
411.78	20603.74
411.98	20114.56
412.17	20746.51
412.36	20182.44
412.55	20498.41
412.74	19803.27
412.93	19506.02
413.12	19669.86
413.31	21699.11
413.50	21781.03
413.69	22281.90
413.88	21291.85
414.07	20556.93
414.26	21008.65
414.45	21596.12
414.64	21717.83
414.83	22111.04
415.02	21348.03
415.22	21488.46
415.41	21860.60
415.60	22537.02
415.79	23311.74
415.98	23812.61
416.17	24095.82
416.36	23538.77
416.55	22792.14
416.74	22185.94
416.93	21649.96
417.12	21624.21
417.31	22064.23
417.50	22010.40
417.69	22937.25
417.88	22675.11
418.07	22761.71
418.26	22373.18
418.45	22384.88
418.64	23517.70
418.83	24231.57
419.02	23983.47
419.21	23782.18
419.39	22291.26
419.58	21376.11
419.77	21277.81
419.96	22665.75
420.15	23775.16
420.34	24313.48
420.53	25282.47
420.72	25984.63
420.91	25418.22
421.10	24833.08
421.29	25039.05
421.48	23889.85
421.67	25221.61
421.86	24933.73
422.05	22909.16
422.24	20835.45
422.43	20184.78
422.61	22293.60
422.80	24514.77
422.99	24566.26
423.18	23559.83
423.37	23143.22
423.56	23047.26
423.75	23510.68
423.94	24163.69
424.13	22593.19
424.32	22951.29
424.50	22761.71
424.69	22932.57
424.88	23019.17
425.07	22808.52
425.26	22717.24
425.45	22604.89
425.64	22031.46
425.83	22033.80
426.01	23335.14
426.20	24100.50
426.39	23585.58
426.58	21792.73
426.77	20407.13
426.96	19693.27
427.15	20360.32
427.33	22082.95
427.52	23302.37
427.71	23260.24
427.90	22726.60
428.09	22754.69
428.28	22207.00
428.46	21589.10
428.65	21261.43
428.84	21500.16
429.03	21795.07
429.22	20755.87
429.40	19927.32
429.59	17750.62
429.78	15592.65
429.97	15782.23
430.16	16222.25
430.34	16020.97
430.53	15920.32
430.72	16301.83
430.91	18239.79
431.10	21282.49
431.28	25284.81
431.47	27398.31
431.66	27552.79
431.85	25160.76
432.03	23080.02
432.22	21968.27
432.41	22677.45
432.60	25369.07
432.79	26345.07
432.97	27531.72
433.16	26642.32
433.35	24086.45
433.54	21823.16
433.72	20229.25
433.91	21160.78
434.10	23578.56
434.28	25263.74
434.47	26258.47
434.66	26384.86
434.85	25631.21
435.03	25399.49
435.22	25965.90
435.41	27880.46
435.59	27351.50
435.78	27971.74
435.97	28594.32
436.16	28982.85
436.34	28446.87
436.53	27868.76
436.72	28112.17
436.90	26710.19
437.09	26061.87
437.28	25979.95
437.46	26920.84
437.65	27037.87
437.84	25020.33
438.02	23030.87
438.21	22902.14
438.40	23908.57
438.58	26326.35
438.77	26735.94
438.96	26946.59
439.14	28322.82
439.33	28446.87
439.52	29352.66
439.70	28451.55
439.89	27887.48
440.08	27365.54
440.26	27201.71
440.45	28011.53
440.63	29750.55
440.82	31269.56
441.01	30740.60
441.19	30881.03
441.38	30918.48
441.57	32137.90
441.75	32673.88
441.94	32931.34
442.12	32470.25
442.31	33429.87
442.50	33249.65
442.68	32606.00
442.87	32275.99
443.05	32098.11
443.24	32383.65
443.43	33205.18
443.61	33738.82
443.80	34110.97
443.98	32077.04
444.17	32013.85
444.35	33998.62
444.54	34682.06
444.73	34174.16
444.91	32449.19
445.10	31182.96
445.28	29933.11
445.47	29841.83
445.65	29890.98
445.84	30899.75
446.02	32154.28
446.21	32629.41
446.39	32563.87
446.58	32903.25
446.77	33207.52
446.95	33919.04
447.14	34668.02
447.32	35028.46
447.51	34157.78
447.69	33109.22
447.88	32629.41
448.06	32811.97
448.25	33881.60
448.43	33827.76
448.62	33385.40
448.80	33539.88
448.99	33467.32
449.17	34319.28
449.36	34265.44
449.54	35101.01
449.73	35388.90
449.91	36252.56
450.10	36931.31
450.28	37516.45
450.46	37027.28
450.65	36847.05
450.83	37003.87
451.02	36364.90
451.20	35718.92
451.39	35828.92
451.57	35651.04
451.76	36060.63
451.94	35688.49
452.13	34850.58
452.31	33415.83
452.49	31952.99
452.68	32161.30
452.86	32128.53
453.05	32135.56
453.23	33663.93
453.42	34735.89
453.60	35152.51
453.78	35608.91
453.97	35496.56
454.15	35189.95
454.34	34024.37
454.52	34684.40
454.70	33865.21
454.89	34562.69
455.07	34539.29
455.26	35306.98
455.44	36285.33
455.62	36800.24
455.81	37284.73
455.99	36561.51
456.17	36062.97
456.36	36187.02
456.54	37125.58
456.73	37404.10
456.91	38274.78
457.09	38244.35
457.28	38976.94
457.46	37317.50
457.64	37085.79
457.83	35936.59
458.01	35526.99
458.19	36432.78
458.38	36294.69
458.56	37579.64
458.74	37448.57
458.93	36893.86
459.11	36540.44
459.29	36788.54
459.48	36694.92
459.66	36355.54
459.84	36830.67
460.03	37109.19
460.21	37111.53
460.39	38342.66
460.57	38363.72
460.76	38302.87
460.94	38635.22
461.12	38181.16
461.31	38389.47
461.49	38361.38
461.67	37919.02
461.85	39697.83
462.04	39311.64
462.22	39475.48
462.40	39669.74
462.59	39274.19
462.77	39100.99
462.95	39108.01
463.13	38646.93
463.32	38256.06
463.50	38298.19
463.68	38141.37
463.86	38052.43
464.05	37965.83
464.23	37067.06
464.41	36961.74
464.59	36163.62
464.78	38302.87
464.96	38061.79
465.14	37301.12
465.32	38607.14
465.50	39679.10
465.69	39688.46
465.87	38937.15
466.05	37801.99
466.23	36360.22
466.41	35351.45
466.60	36381.29
466.78	36006.80
466.96	37006.21
467.14	37589.00
467.32	38487.77
467.51	38670.33
467.69	36161.28
467.87	37392.40
468.05	37771.57
468.23	38286.48
468.41	37848.80
468.60	37755.18
468.78	38625.86
468.96	37649.86
469.14	39299.94
469.32	38993.32
469.50	37324.52
469.69	37495.38
469.87	36706.62
470.05	36643.43
470.23	37048.34
470.41	37062.38
470.59	37422.83
470.77	37801.99
470.95	38504.15
471.14	38705.44
471.32	39086.95
471.50	40842.35
471.68	41088.10
471.86	41378.33
472.04	41436.84
472.22	41275.35
472.40	39585.48
472.58	39309.30
472.77	38962.90
472.95	39721.23
473.13	40395.31
473.31	39351.43
473.49	39924.86
473.67	40650.42
473.85	41010.87
474.03	41958.78
474.21	41752.82
474.39	41942.40
474.57	42518.17
474.75	42525.19
474.93	42085.17
475.12	41067.04
475.30	41305.77
475.48	41446.21
475.66	41914.31
475.84	41628.77
476.02	41467.27
476.20	40655.11
476.38	41441.53
476.56	42747.54
476.74	43093.94
476.92	43089.26
477.10	44156.55
477.28	45560.87
477.46	44863.39
477.64	45476.61
477.82	45340.86
478.00	45998.55
478.18	45359.58
478.36	44957.01
478.54	45453.20
478.72	45460.23
478.90	46586.02
479.08	47325.63
479.26	47824.17
479.44	47611.18
479.62	46983.91
479.80	47365.42
479.98	47831.19
480.16	48231.42
480.34	47337.33
480.52	47749.27
480.70	48121.41
480.88	48362.49
481.06	48875.07
481.24	49331.47
481.41	49799.58
481.59	50300.45
481.77	50204.49
481.95	49422.75
482.13	49663.83
482.31	49649.78
482.49	50714.73
482.67	50089.80
482.85	50534.51
483.03	50761.54
483.21	51253.05
483.39	51323.27
483.57	50857.50
483.74	50398.76
483.92	50691.32
484.10	50347.26
484.28	51657.96
484.46	51889.68
484.64	52229.05
484.82	51419.23
485.00	50700.68
485.18	50314.50
485.35	49184.02
485.53	46017.27
485.71	42485.40
485.89	41844.10
486.07	43992.71
486.25	47105.62
486.43	49308.07
486.61	50265.34
486.78	49937.67
486.96	50061.72
487.14	51847.55
487.32	52334.38
487.50	53130.16
487.68	53949.35
487.85	54536.82
488.03	54265.32
488.21	53961.05
488.39	53485.92
488.57	53064.63
488.75	52797.80
488.92	53556.14
489.10	55180.47
489.28	56432.66
489.46	57024.81
489.64	56591.81
489.81	57162.90
489.99	56736.93
490.17	56891.40
490.35	57162.90
490.53	56636.28
490.70	56350.74
490.88	56390.53
491.06	57242.48
491.24	56853.95
491.41	56097.96
491.59	55009.61
491.77	54110.85
491.95	55114.94
492.13	56121.37
492.30	57059.92
492.48	57750.38
492.66	58550.84
492.84	58251.25
493.01	58190.40
493.19	57827.62
493.37	57315.04
493.54	56968.64
493.72	57731.65
493.90	58604.67
494.08	59543.23
494.25	59531.53
494.43	59657.91
494.61	59964.52
494.79	60027.72
494.96	59924.74
495.14	59330.24
495.32	58604.67
495.49	57979.75
495.67	58871.49
495.85	60172.83
496.02	60488.80
496.20	60498.17
496.38	59924.74
496.55	59779.62
496.73	60268.79
496.91	60355.39
497.09	60945.21
497.26	61076.28
497.44	60500.51
497.62	60114.32
497.79	59496.42
497.97	58319.13
498.14	58244.23
498.32	59405.14
498.50	60221.98
498.67	60764.99
498.85	60610.51
499.03	60629.24
499.20	60959.25
499.38	61111.39
499.56	60865.63
499.73	60392.84
499.91	60121.34
500.08	59721.11
500.26	58969.80
500.44	59260.02
500.61	59978.57
500.79	59854.52
500.97	59533.87
501.14	59341.94
501.32	59145.34
501.49	59372.37
501.67	59320.88
501.84	59903.67
502.02	60336.67
502.20	60612.85
502.37	60559.02
502.55	60643.28
502.72	61153.52
502.90	61366.51
503.07	61235.44
503.25	60882.02
503.43	60205.60
503.60	59611.10
503.78	58941.71
503.95	59564.29
504.13	60786.05
504.30	61326.72
504.48	61207.35
504.65	60800.10
504.83	60882.02
505.01	61504.60
505.18	61909.51
505.36	62450.17
505.53	62347.19
505.71	62492.30
505.88	62422.09
506.06	62099.09
506.23	61680.14
506.41	61352.46
506.58	61605.24
506.76	61595.88
506.93	61563.11
507.11	61331.40
507.28	61375.87
507.46	61095.00
507.63	60664.35
507.81	60406.89
507.98	60835.20
508.16	61235.44
508.33	61539.71
508.50	62061.64
508.68	62342.51
508.85	62801.25
509.03	62866.79
509.20	62621.03
509.38	61996.11
509.55	61315.01
509.73	61235.44
509.90	61682.48
510.08	61975.05
510.25	61776.10
510.42	61724.61
510.60	61787.80
510.77	61771.42
510.95	62492.30
511.12	62672.52
511.30	62667.84
511.47	63014.24
511.64	62976.79
511.82	62775.51
511.99	62092.07
512.17	61581.84
512.34	61279.91
512.51	61382.89
512.69	61567.79
512.86	61813.55
513.04	62143.56
513.21	62005.47
513.38	61785.46
513.56	61305.65
513.73	60739.24
513.90	61006.06
514.08	60999.04
514.25	61338.42
514.43	61537.36
514.60	61680.14
514.77	61705.88
514.95	61846.32
515.12	61769.08
515.29	61759.72
515.47	62560.18
515.64	62457.20
515.81	62319.10
515.99	61647.37
516.16	60390.50
516.33	58209.12
516.51	56921.83
516.68	56310.95
516.85	55990.30
517.03	56399.89
517.20	58574.25
517.37	61139.47
517.54	61932.92
517.72	61410.98
517.89	59278.75
518.06	57216.74
518.24	57310.36
518.41	59367.69
518.58	60575.40
518.75	60844.57
518.93	60662.00
519.10	60786.05
519.27	61300.97
519.45	61298.63
519.62	62101.43
519.79	62195.06
519.96	62019.52
520.14	61766.74
520.31	60849.25
520.48	60835.20
520.65	61279.91
520.83	62213.78
521.00	62450.17
521.17	62080.37
521.34	61752.69
521.52	62120.16
521.69	62604.65
521.86	62953.39
522.03	62749.76
522.20	61628.65
522.38	60596.47
522.55	60535.62
522.72	61303.31
522.89	61343.10
523.07	61574.81
523.24	61876.74
523.41	62712.31
523.58	62801.25
523.75	63318.51
523.92	63114.89
524.10	63192.12
524.27	63124.25
524.44	62808.28
524.61	62672.52
524.78	62450.17
524.96	62487.62
525.13	62553.16
525.30	62759.12
525.47	63325.53
525.64	63028.29
525.81	62489.96
525.98	61202.67
526.16	59859.20
526.33	59082.14
526.50	58803.62
526.67	58829.37
526.84	59178.10
527.01	60079.21
527.18	60828.18
527.36	61684.82
527.53	62438.47
527.70	62618.69
527.87	62150.59
528.04	61647.37
528.21	62218.46
528.38	62810.62
528.55	63393.41
528.72	63650.87
528.89	63683.64
529.07	63365.32
529.24	62801.25
529.41	62244.21
529.58	61783.12
529.75	61890.79
529.92	62218.46
530.09	62695.93
530.26	62967.43
530.43	63325.53
530.60	63430.86
530.77	63592.36
530.94	63594.70
531.11	63304.47
531.28	62819.98
531.46	62672.52
531.63	62801.25
531.80	62674.87
531.97	62302.72
532.14	61513.96
532.31	60617.53
532.48	60219.64
532.65	60212.62
532.82	60985.00
532.99	61932.92
533.16	62272.29
533.33	62803.59
533.50	62672.52
533.67	62085.05
533.84	61794.82
534.01	61839.29
534.18	62010.15
534.35	62166.97
534.52	62110.80
534.69	62307.40
534.86	62562.52
535.03	62728.70
535.20	63105.52
535.37	63632.14
535.54	63498.73
535.71	63339.58
535.88	62962.75
536.05	62272.29
536.22	62073.35
536.38	61928.23
536.55	61254.16
536.72	60837.54
536.89	60725.20
537.06	61666.09
537.23	62464.22
537.40	62482.94
537.57	62508.69
537.74	62454.86
537.91	62204.42
538.08	62176.33
538.25	62185.69
538.42	62539.11
538.59	62204.42
538.75	61783.12
538.92	61497.58
539.09	61553.75
539.26	61029.47
539.43	61127.77
539.60	61111.39
539.77	61167.56
539.94	61090.32
540.11	60322.63
540.28	60109.64
540.44	60090.91
540.61	60336.67
540.78	60626.90
540.95	61064.58
541.12	61443.74
541.29	61467.15
541.46	61829.93
541.62	61764.40
541.79	61719.93
541.96	61172.24
542.13	61148.84
542.30	61235.44
542.47	61528.00
542.63	61354.80
542.80	61212.03
542.97	61190.97
543.14	61003.72
543.31	61183.94
543.48	61572.47
543.64	62344.85
543.81	62644.44
543.98	62592.95
544.15	61785.46
544.32	61064.58
544.48	61207.35
544.65	61888.45
544.82	62021.86
544.99	61762.06
545.16	61684.82
545.32	61160.54
545.49	61965.68
545.66	62293.36
545.83	62162.29
546.00	61572.47
546.16	61366.51
546.33	61347.78
546.50	61343.10
546.67	61836.95
546.83	61413.32
547.00	61509.28
547.17	60865.63
547.34	60243.05
547.50	60348.37
547.67	60654.98
547.84	60860.95
548.00	60982.66
548.17	61670.78
548.34	61497.58
548.51	61151.18
548.67	61300.97
548.84	61432.04
549.01	61364.17
549.18	61322.04
549.34	61312.67
549.51	61488.21
549.68	61174.58
549.84	61055.21
550.01	60884.36
550.18	60748.60
550.34	60940.53
550.51	60779.03
550.68	61242.46
550.84	60580.09
551.01	60673.71
551.18	60729.88
551.34	60676.05
551.51	61193.31
551.68	61469.49
551.84	61429.70
552.01	61193.31
552.18	61118.41
552.34	60427.95
552.51	60102.62
552.68	60051.12
552.84	60584.77
553.01	60629.24
553.18	60673.71
553.34	60657.32
553.51	60884.36
553.67	61062.24
553.84	61300.97
554.01	61230.75
554.17	60889.04
554.34	60973.30
554.51	61228.41
554.67	61406.30
554.84	61181.60
555.00	60762.65
555.17	60486.46
555.33	60645.62
555.50	60690.09
555.67	60652.64
555.83	60493.49
556.00	60245.39
556.16	60147.09
556.33	59922.40
556.50	59810.05
556.66	59901.33
556.83	59667.28
556.99	59522.16
557.16	59678.98
557.32	60065.17
557.49	60324.97
557.65	60121.34
557.82	60140.07
557.98	60016.02
558.15	59540.89
558.32	58791.92
558.48	58277.00
558.65	58527.44
558.81	58679.57
558.98	58976.82
559.14	59135.98
559.31	59068.10
559.47	59391.09
559.64	58728.72
559.80	58759.15
559.97	58700.64
560.13	58843.41
560.30	59765.58
560.46	60423.27
560.63	60484.12
560.79	60540.30
560.96	60027.72
561.12	59377.05
561.29	58351.90
561.45	58265.30
561.61	59082.14
561.78	59332.58
561.94	59199.17
562.11	59154.70
562.27	59000.22
562.44	59107.89
562.60	59388.75
562.77	59774.94
562.93	59554.93
563.10	59732.81
563.26	59018.95
563.42	59079.80
563.59	59007.25
563.75	58805.96
563.92	58953.41
564.08	58831.71
564.24	59124.27
564.41	58997.88
564.57	59171.08
564.74	58876.18
564.90	58838.73
565.07	58667.87
565.23	58365.94
565.39	57813.57
565.56	57719.95
565.72	57673.14
565.88	57677.82
566.05	57759.74
566.21	58213.80
566.38	58209.12
566.54	58188.06
566.70	58635.10
566.87	59042.35
567.03	58953.41
567.19	59084.48
567.36	58948.73
567.52	58770.85
567.68	58534.46
567.85	57851.02
568.01	57661.44
568.17	57382.91
568.34	57261.21
568.50	57193.33
568.66	57350.15
568.83	57712.93
568.99	57710.59
569.15	57846.34
569.32	57890.81
569.48	57553.77
569.64	57588.88
569.81	57364.19
569.97	57123.11
570.13	57139.50
570.30	56755.65
570.46	56629.26
570.62	55714.11
570.78	55590.06
570.95	56072.21
571.11	56537.98
571.27	56952.26
571.43	56975.66
571.60	57450.79
571.76	57389.94
571.92	57616.97
572.09	57844.00
572.25	57773.78
572.41	57736.34
572.57	57586.54
572.74	57797.19
572.90	57242.48
573.06	57151.20
573.22	57345.47
573.38	57179.29
573.55	57183.97
573.71	57425.04
573.87	57214.40
574.03	57214.40
574.20	57022.47
574.36	56748.63
574.52	56605.86
574.68	56264.14
574.84	56069.87
575.01	55730.50
575.17	55758.58
575.33	56027.74
575.49	56224.35
575.65	56324.99
575.82	56222.01
575.98	55992.64
576.14	56371.80
576.30	56357.76
576.46	56376.48
576.62	56533.30
576.79	56409.25
576.95	56013.70
577.11	56264.14
577.27	56184.56
577.43	56097.96
577.59	55751.56
577.75	55732.84
577.92	55007.27
578.08	54995.57
578.24	54686.62
578.40	55201.53
578.56	55419.20
578.72	55454.31
578.88	55545.59
579.04	55917.74
579.21	56039.45
579.37	55894.33
579.53	55964.55
579.69	56044.13
579.85	56130.73
580.01	55875.61
580.17	55447.29
580.33	55536.23
580.49	55344.31
580.65	55887.31
580.82	55884.97
580.98	55962.21
581.14	55852.20
581.30	55753.90
581.46	55774.97
581.62	56107.32
581.78	55732.84
581.94	56186.90
582.10	56086.26
582.26	56112.00
582.42	55847.52
582.58	55934.12
582.74	56072.21
582.90	55987.95
583.06	56114.34
583.22	55730.50
583.38	55962.21
583.54	55899.01
583.70	55594.74
583.86	55569.00
584.02	55524.53
584.18	55700.07
584.34	55477.72
584.50	55281.11
584.66	55351.33
584.82	54752.15
584.98	55037.70
585.14	54623.42
