SpectraSuite Data File
++++++++++++++++++++++++++++++++++++
Date: Mon Oct 07 14:53:29 GMT-05:00 2013
User: price-jones
Dark Spectrum Present: No
Reference Spectrum Present: No
Number of Sampled Component Spectra: 1
Spectrometers: USB2+H05261
Integration Time (usec): 100000 (USB2+H05261)
Spectra Averaged: 1 (USB2+H05261)
Boxcar Smoothing: 0 (USB2+H05261)
Correct for Electrical Dark: No (USB2+H05261)
Strobe/Lamp Enabled: No (USB2+H05261)
Correct for Detector Non-linearity: No (USB2+H05261)
Correct for Stray Light: No (USB2+H05261)
Number of Pixels in Processed Spectrum: 2048
>>>>>Begin Processed Spectral Data<<<<<
365.73	0.00
365.92	0.00
366.12	0.00
366.32	0.00
366.52	0.00
366.72	0.00
366.91	0.00
367.11	0.00
367.31	0.00
367.51	0.00
367.70	0.00
367.90	0.00
368.10	0.00
368.30	0.00
368.49	0.00
368.69	0.00
368.89	0.00
369.09	0.00
369.28	0.00
369.48	0.00
369.68	0.00
369.87	0.00
370.07	0.00
370.27	0.00
370.47	531.30
370.66	2984.18
370.86	3574.00
371.06	4095.94
371.25	3946.14
371.45	3597.40
371.65	3346.97
371.84	2972.48
372.04	3164.40
372.24	3449.95
372.44	3576.34
372.63	3597.40
372.83	3529.53
373.03	2998.23
373.22	2825.03
373.42	2963.12
373.62	3386.76
373.81	3751.88
374.01	3648.90
374.21	3335.26
374.40	3098.87
374.60	3220.58
374.79	3564.64
374.99	4135.73
375.19	4660.01
375.38	4620.22
375.58	4227.01
375.78	4201.26
375.97	4227.01
376.17	4381.48
376.37	4421.27
376.56	4568.73
376.76	4716.18
376.95	5144.50
377.15	5465.15
377.35	5682.82
377.54	5834.96
377.74	5928.58
377.93	6122.84
378.13	5980.07
378.33	5633.67
378.52	5198.33
378.72	5055.56
378.91	5029.81
379.11	4739.58
379.31	4629.58
379.50	4690.43
379.70	5048.54
379.89	5451.11
380.09	5776.44
380.28	5994.11
380.48	5884.11
380.68	5977.73
380.87	5806.87
381.07	5247.48
381.26	4873.00
381.46	4608.51
381.65	4514.89
381.85	4269.14
382.04	4234.03
382.24	4044.45
382.43	3562.30
382.63	3520.17
382.83	3527.19
383.02	3691.02
383.22	3719.11
383.41	3662.94
383.61	3896.99
383.80	4608.51
384.00	4936.19
384.19	5654.73
384.39	5692.18
384.58	5856.02
384.78	5799.85
384.97	5900.49
385.17	5355.15
385.36	5331.74
385.56	4823.84
385.75	4999.38
385.95	5596.22
386.14	6043.26
386.34	6162.63
386.53	5799.85
386.72	5596.22
386.92	5607.92
387.11	5612.60
387.31	6176.67
387.50	6001.13
387.70	5914.53
387.89	5888.79
388.09	5820.91
388.28	5914.53
388.48	5884.11
388.67	6373.28
388.86	6867.13
389.06	7489.71
389.25	7779.94
389.45	8009.31
389.64	7751.85
389.84	7833.77
390.03	7798.66
390.22	7744.83
390.42	7822.07
390.61	8299.54
390.81	9001.70
391.00	9359.80
391.19	9109.36
391.39	8954.89
391.58	8299.54
391.78	7843.14
391.97	7592.70
392.16	7155.02
392.36	6551.16
392.55	5191.31
392.75	4133.39
392.94	3318.88
393.13	3290.79
393.33	3918.06
393.52	4924.49
393.71	6085.39
393.91	6977.14
394.10	7447.58
394.29	8201.24
394.49	8975.95
394.68	9762.37
394.88	9661.73
395.07	9994.09
395.26	9844.29
395.46	9720.24
395.65	9069.58
395.84	7906.33
396.04	6874.15
396.23	5458.13
396.42	4521.92
396.62	4411.91
396.81	4947.89
397.00	6452.86
397.19	7871.22
397.39	9650.03
397.58	10930.30
397.77	11777.58
397.97	12065.46
398.16	12077.16
398.35	12638.89
398.55	12945.50
398.74	13261.48
398.93	13738.94
399.12	13584.47
399.32	12987.63
399.51	13266.16
399.70	14436.42
399.90	13973.00
400.09	14200.03
400.28	13975.34
400.47	14033.85
400.67	14773.46
400.86	15407.75
401.05	15037.94
401.24	15213.48
401.44	15473.28
401.63	15763.51
401.82	15620.74
402.01	15517.75
402.21	15609.03
402.40	15716.70
402.59	15541.16
402.78	14885.81
402.97	14099.39
403.17	14824.95
403.36	15602.01
403.55	16224.59
403.74	16449.28
403.93	15925.00
404.13	14759.42
404.32	14438.76
404.51	14644.73
404.70	16262.04
404.89	16152.04
405.09	16020.97
405.28	15239.23
405.47	15318.81
405.66	15304.76
405.85	14839.00
406.05	14642.39
406.24	14513.66
406.43	15077.73
406.62	16056.08
406.81	16257.36
407.00	15426.47
407.20	15293.06
407.39	15197.10
407.58	16013.95
407.77	16643.55
407.96	17198.26
408.15	17188.89
408.34	17144.42
408.54	18256.18
408.73	18134.47
408.92	17898.08
409.11	17455.72
409.30	16748.87
409.49	15562.22
409.68	14518.34
409.87	14373.23
410.07	14909.21
410.26	16334.60
410.45	17362.09
410.64	17827.86
410.83	18136.81
411.02	18740.67
411.21	19496.66
411.40	19311.76
411.59	19693.27
411.78	19211.12
411.98	18974.72
412.17	19260.27
412.36	18782.80
412.55	18918.55
412.74	18415.34
412.93	18075.96
413.12	18417.68
413.31	19964.77
413.50	20140.31
413.69	20615.44
413.88	19749.44
414.07	19152.60
414.26	19428.79
414.45	20423.51
414.64	20121.59
414.83	20156.69
415.02	20079.46
415.22	19824.34
415.41	19964.77
415.60	21231.00
415.79	22059.55
415.98	22015.08
416.17	22008.06
416.36	21762.30
416.55	21446.33
416.74	20816.72
416.93	20013.92
417.12	20056.05
417.31	20350.96
417.50	20814.38
417.69	21455.69
417.88	21315.26
418.07	20917.37
418.26	20807.36
418.45	21142.06
418.64	21572.72
418.83	22628.30
419.02	22293.60
419.21	22022.10
419.39	21228.66
419.58	19985.83
419.77	20018.60
419.96	21104.61
420.15	22204.66
420.34	22916.19
420.53	23278.97
420.72	24056.03
420.91	23679.20
421.10	23735.37
421.29	23147.90
421.48	22553.40
421.67	23482.59
421.86	22878.74
422.05	21619.53
422.24	19316.44
422.43	18841.31
422.61	20957.16
422.80	22693.83
422.99	22551.06
423.18	21970.61
423.37	21472.07
423.56	21373.77
423.75	21774.00
423.94	22064.23
424.13	20992.26
424.32	21612.51
424.50	21378.45
424.69	21083.55
424.88	21013.33
425.07	21448.67
425.26	21158.44
425.45	21149.08
425.64	20596.71
425.83	20294.79
426.01	21607.83
426.20	22326.37
426.39	22024.44
426.58	20395.43
426.77	19094.09
426.96	18513.64
427.15	18951.32
427.33	20489.05
427.52	21329.30
427.71	21671.02
427.90	20933.75
428.09	21081.21
428.28	20596.71
428.46	19894.55
428.65	19424.11
428.84	20032.65
429.03	20233.93
429.22	19262.61
429.40	18405.97
429.59	16615.46
429.78	14640.05
429.97	14920.92
430.16	14909.21
430.34	14932.62
430.53	15009.86
430.72	15246.25
430.91	16636.53
431.10	19941.36
431.28	23255.56
431.47	25111.61
431.66	25900.37
431.85	23421.74
432.03	21572.72
432.22	20236.27
432.41	21310.58
432.60	23637.07
432.79	24535.84
432.97	25170.12
433.16	24739.46
433.35	22309.99
433.54	20290.10
433.72	19253.25
433.91	19573.90
434.10	21827.84
434.28	23573.88
434.47	24748.82
434.66	24762.87
434.85	23765.80
435.03	23686.22
435.22	23901.55
435.41	25518.86
435.59	25879.30
435.78	26033.78
435.97	26597.85
436.16	27096.38
436.34	26361.45
436.53	25951.86
436.72	25975.27
436.90	24737.12
437.09	24608.39
437.28	23857.08
437.46	24847.13
437.65	24924.36
437.84	23138.54
438.02	21202.91
438.21	21078.86
438.40	22544.04
438.58	24329.87
438.77	24608.39
438.96	24662.22
439.14	26235.06
439.33	26761.69
439.52	26838.92
439.70	26618.91
439.89	26174.21
440.08	25453.33
440.26	25542.27
440.45	25907.39
440.63	27988.13
440.82	29282.44
441.01	28954.77
441.19	28620.07
441.38	28931.36
441.57	29834.81
441.75	30532.29
441.94	30773.36
442.12	30307.60
442.31	31007.42
442.50	30869.33
442.68	30494.84
442.87	30155.46
443.05	29596.07
443.24	30211.64
443.43	30766.34
443.61	31543.40
443.80	31786.82
443.98	29851.19
444.17	30235.04
444.35	31800.86
444.54	32261.94
444.73	32205.77
444.91	30628.25
445.10	29589.05
445.28	27999.83
445.47	27615.98
445.65	27838.33
445.84	28629.43
446.02	30073.54
446.21	29837.15
446.39	30000.99
446.58	30773.36
446.77	31299.98
446.95	31421.69
447.14	32217.47
447.32	32484.30
447.51	32086.40
447.69	31047.21
447.88	30359.09
448.06	30654.00
448.25	31578.51
448.43	32390.67
448.62	31087.00
448.80	30972.31
448.99	31012.10
449.17	31480.21
449.36	31325.73
449.54	32978.15
449.73	33343.27
449.91	33188.80
450.10	35028.46
450.28	34740.57
450.46	34534.60
450.65	34642.27
450.83	34384.81
451.02	33825.42
451.20	33380.72
451.39	33586.69
451.57	33479.02
451.76	33425.19
451.94	33078.79
452.13	32561.53
452.31	31246.15
452.49	29663.95
452.68	30478.46
452.86	30113.33
453.05	30609.53
453.23	31222.75
453.42	32748.78
453.60	33261.35
453.78	33394.76
453.97	32622.39
454.15	33170.07
454.34	32177.68
454.52	32385.99
454.70	31484.89
454.89	32044.27
455.07	32547.49
455.26	32755.80
455.44	34050.11
455.62	34183.52
455.81	34466.73
455.99	34295.87
456.17	34293.53
456.36	34148.42
456.54	35260.17
456.73	34703.12
456.91	35297.62
457.09	35543.38
457.28	36219.79
457.46	35147.82
457.64	34436.30
457.83	33394.76
458.01	32767.50
458.19	33659.24
458.38	33780.95
458.56	35093.99
458.74	34785.04
458.93	34689.08
459.11	34630.57
459.29	33900.32
459.48	34033.73
459.66	33972.88
459.84	34466.73
460.03	35016.75
460.21	34726.53
460.39	35248.47
460.57	35660.40
460.76	36690.24
460.94	36161.28
461.12	35501.25
461.31	35826.58
461.49	35962.33
461.67	35440.39
461.85	36851.73
462.04	36547.47
462.22	37046.00
462.40	36959.40
462.59	36575.55
462.77	36566.19
462.95	36552.15
463.13	35782.11
463.32	35828.92
463.50	35749.34
463.68	35559.76
463.86	35732.96
464.05	35278.89
464.23	34560.35
464.41	34220.97
464.59	33677.97
464.78	35424.01
464.96	35236.77
465.14	34930.16
465.32	36027.87
465.50	36650.45
465.69	37186.43
465.87	36439.80
466.05	35576.14
466.23	33778.61
466.41	33296.46
466.60	33890.96
466.78	34150.76
466.96	34663.33
467.14	35164.21
467.32	36187.02
467.51	35747.00
467.69	33965.85
467.87	34763.98
468.05	35580.82
468.23	35592.53
468.41	35482.52
468.60	35157.19
468.78	35962.33
468.96	35171.23
469.14	36025.53
469.32	36348.52
469.50	34731.21
469.69	35206.34
469.87	34101.61
470.05	34368.43
470.23	34286.51
470.41	34810.79
470.59	34731.21
470.77	35445.07
470.95	35988.08
471.14	36503.00
471.32	36355.54
471.50	37701.35
471.68	38337.98
471.86	38665.65
472.04	38967.58
472.22	38923.11
472.40	36837.69
472.58	36926.63
472.77	36259.58
472.95	37137.28
473.13	38419.89
473.31	37244.94
473.49	37053.02
473.67	38433.94
473.85	38167.12
474.03	39414.62
474.21	39110.35
474.39	39606.55
474.57	39931.88
474.75	39812.51
474.93	39419.30
475.12	38565.01
475.30	38731.18
475.48	38602.46
475.66	39374.83
475.84	38913.75
476.02	38618.84
476.20	37893.27
476.38	38747.57
476.56	40194.02
476.74	40687.87
476.92	40519.35
477.10	41471.95
477.28	42548.60
477.46	42031.34
477.64	43056.50
477.82	43306.93
478.00	43005.00
478.18	42892.66
478.36	42043.04
478.54	42241.99
478.72	42810.74
478.90	43730.57
479.08	44804.88
479.26	45151.27
479.44	44722.96
479.62	44732.32
479.80	45113.83
479.98	45071.70
480.16	45315.11
480.34	44669.12
480.52	45373.63
480.70	45387.67
480.88	45722.37
481.06	46361.33
481.24	46480.70
481.41	47477.77
481.59	48053.54
481.77	47980.98
481.95	47168.82
482.13	46698.37
482.31	47056.47
482.49	48034.81
482.67	47641.60
482.85	47693.10
483.03	48289.93
483.21	48535.69
483.39	48488.88
483.57	47882.68
483.74	47976.30
483.92	47838.21
484.10	48514.62
484.28	48769.74
484.46	49434.45
484.64	49949.37
484.82	49244.87
485.00	48463.13
485.18	48074.60
485.35	46291.12
485.53	43957.60
485.71	39232.06
485.89	39026.09
486.07	41319.82
486.25	44456.14
486.43	46810.71
486.61	47861.61
486.78	47236.69
486.96	47620.54
487.14	49324.45
487.32	50188.11
487.50	51138.36
487.68	51796.06
487.85	52325.02
488.03	52479.49
488.21	51894.36
488.39	51267.09
488.57	50728.77
488.75	50148.32
488.92	51320.93
489.10	53446.13
489.28	54782.58
489.46	55203.88
489.64	54939.39
489.81	55248.35
489.99	54794.28
490.17	54981.52
490.35	55302.18
490.53	54958.12
490.70	54267.66
490.88	54082.76
491.06	55323.24
491.24	55227.28
491.41	54562.57
491.59	52877.38
491.77	52076.92
491.95	53069.31
492.13	54192.76
492.30	55206.22
492.48	56395.21
492.66	56294.56
492.84	56488.83
493.01	56147.11
493.19	55671.98
493.37	55611.13
493.54	55114.94
493.72	55969.23
493.90	56905.44
494.08	57556.11
494.25	57717.61
494.43	57993.79
494.61	58251.25
494.79	58457.22
494.96	58155.29
495.14	57556.11
495.32	56746.29
495.49	56114.34
495.67	57099.71
495.85	58480.63
496.02	58557.86
496.20	58459.56
496.38	58192.74
496.55	58059.33
496.73	58403.39
496.91	58422.11
497.09	59288.11
497.26	59318.54
497.44	58728.72
497.62	58253.59
497.79	57666.12
497.97	56343.72
498.14	56678.41
498.32	57513.98
498.50	58433.81
498.67	59058.74
498.85	59117.25
499.03	58838.73
499.20	59292.79
499.38	59381.73
499.56	59227.26
499.73	58745.11
499.91	58372.96
500.08	58056.99
500.26	57272.91
500.44	57661.44
500.61	58120.18
500.79	58045.29
500.97	57797.19
501.14	57616.97
501.32	57490.58
501.49	57467.17
501.67	57396.96
501.84	58248.91
502.02	58475.94
502.20	58672.55
502.37	59061.08
502.55	59025.97
502.72	59358.33
502.90	59714.09
503.07	59688.34
503.25	59253.00
503.43	58438.50
503.60	57865.06
503.78	57254.18
503.95	57546.75
504.13	58894.90
504.30	59634.51
504.48	59433.22
504.65	59100.87
504.83	59267.05
505.01	59779.62
505.18	60065.17
505.36	60811.80
505.53	60725.20
505.71	60867.97
505.88	60900.74
506.06	60420.93
506.23	60123.68
506.41	59597.06
506.58	60100.28
506.76	59931.76
506.93	59870.90
507.11	59400.46
507.28	59805.37
507.46	59220.23
507.63	58667.87
507.81	58567.23
507.98	58794.26
508.16	59515.14
508.33	60177.51
508.50	60411.57
508.68	60449.02
508.85	60889.04
509.03	61174.58
509.20	61118.41
509.38	60334.33
509.55	59334.92
509.73	59620.47
509.90	60144.75
510.08	60294.54
510.25	60245.39
510.42	60023.04
510.60	59936.44
510.77	60226.66
510.95	60643.28
511.12	60879.67
511.30	61130.11
511.47	61385.23
511.64	61190.97
511.82	61160.54
511.99	60434.97
512.17	60058.15
512.34	59421.52
512.51	59737.49
512.69	59908.35
512.86	59955.16
513.04	60341.35
513.21	60484.12
513.38	60027.72
513.56	59744.51
513.73	58962.78
513.90	59124.27
514.08	59318.54
514.25	59730.47
514.43	59674.30
514.60	59746.86
514.77	59859.20
514.95	60165.81
515.12	59978.57
515.29	60128.36
515.47	60617.53
515.64	60956.91
515.81	60507.53
515.99	60048.78
516.16	58761.49
516.33	56484.15
516.51	55231.96
516.68	54518.10
516.85	54024.25
517.03	54515.76
517.20	56809.48
517.37	59187.47
517.54	60128.36
517.72	59451.95
517.89	57368.87
518.06	55302.18
518.24	55487.08
518.41	57654.42
518.58	58864.47
518.75	59011.93
518.93	59054.06
519.10	58920.65
519.27	59288.11
519.45	59849.84
519.62	60294.54
519.79	60458.38
519.96	60467.74
520.14	60100.28
520.31	59536.21
520.48	59185.13
520.65	59536.21
520.83	60467.74
521.00	60830.52
521.17	60521.57
521.34	60212.62
521.52	60350.71
521.69	60865.63
521.86	61502.26
522.03	60886.70
522.20	60037.08
522.38	59049.38
522.55	58944.05
522.72	59491.74
522.89	59597.06
523.07	59877.93
523.24	60250.07
523.41	60919.46
523.58	61254.16
523.75	61724.61
523.92	61343.10
524.10	61560.77
524.27	61588.86
524.44	61293.95
524.61	61183.94
524.78	60811.80
524.96	60776.69
525.13	60945.21
525.30	61214.37
525.47	61544.39
525.64	61380.55
525.81	60647.96
525.98	59662.60
526.16	58092.10
526.33	57563.14
526.50	57212.06
526.67	56647.99
526.84	57427.38
527.01	58349.56
527.18	59178.10
527.36	59917.71
527.53	60910.10
527.70	60903.08
527.87	60470.08
528.04	59950.48
528.21	60327.31
528.38	61202.67
528.55	61525.66
528.72	61820.57
528.89	62038.24
529.07	61836.95
529.24	61256.50
529.41	60636.26
529.58	60041.76
529.75	59927.08
529.92	60594.13
530.09	61083.30
530.26	61396.93
530.43	61544.39
530.60	61696.52
530.77	61769.08
530.94	62012.49
531.11	61441.40
531.28	61263.52
531.46	61045.85
531.63	61106.71
531.80	61118.41
531.97	60727.54
532.14	60051.12
532.31	59065.76
532.48	58389.34
532.65	58377.64
532.82	59412.16
532.99	60306.24
533.16	60640.94
533.33	61221.39
533.50	60793.07
533.67	60430.29
533.84	60023.04
534.01	60252.41
534.18	60306.24
534.35	60615.19
534.52	60537.96
534.69	60697.11
534.86	60992.02
535.03	61244.80
535.20	61450.77
535.37	61858.02
535.54	62082.71
535.71	61705.88
535.88	61520.98
536.05	60722.86
536.22	60439.65
536.38	60102.62
536.55	59702.38
536.72	59288.11
536.89	59245.98
537.06	59915.37
537.23	60753.29
537.40	60926.49
537.57	60835.20
537.74	60697.11
537.91	60673.71
538.08	60594.13
538.25	60556.68
538.42	60587.11
538.59	60654.98
538.75	59873.24
538.92	60004.31
539.09	59767.92
539.26	59643.87
539.43	59346.62
539.60	59564.29
539.77	59779.62
539.94	59583.02
540.11	58775.53
540.28	58277.00
540.44	58422.11
540.61	58487.65
540.78	58901.92
540.95	59171.08
541.12	59676.64
541.29	59805.37
541.46	60271.14
541.62	60294.54
541.79	60011.34
541.96	59419.18
542.13	59416.84
542.30	59856.86
542.47	59943.46
542.63	59800.69
542.80	59526.84
542.97	59686.00
543.14	59547.91
543.31	59430.88
543.48	59767.92
543.64	60713.50
543.81	61029.47
543.98	60617.53
544.15	60140.07
544.32	59461.31
544.48	59728.13
544.65	60034.74
544.82	60629.24
544.99	60048.78
545.16	59924.74
545.32	59578.34
545.49	60210.28
545.66	60867.97
545.83	60486.46
546.00	59906.01
546.16	59515.14
546.33	59709.41
546.50	59693.02
546.67	60364.76
546.83	59735.15
547.00	59770.26
547.17	59243.64
547.34	58784.90
547.50	58595.31
547.67	58920.65
547.84	58932.35
548.00	59402.80
548.17	59805.37
548.34	59599.40
548.51	59578.34
548.67	59828.77
548.84	59758.56
549.01	59805.37
549.18	59737.49
549.34	59398.12
549.51	59543.23
549.68	59702.38
549.84	59386.41
550.01	59180.45
550.18	58988.52
550.34	59245.98
550.51	59213.21
550.68	59435.56
550.84	59049.38
551.01	58859.79
551.18	59051.72
551.34	59058.74
551.51	59531.53
551.68	59676.64
551.84	59786.64
552.01	59576.00
552.18	59648.55
552.34	58691.27
552.51	58475.94
552.68	58337.85
552.84	58798.94
553.01	58969.80
553.18	58901.92
553.34	59119.59
553.51	59103.21
553.67	59470.67
553.84	59552.59
554.01	59458.97
554.17	59255.34
554.34	59316.20
554.51	59355.99
554.67	59718.77
554.84	59508.12
555.00	59159.38
555.17	58918.31
555.33	58913.62
555.50	58988.52
555.67	58913.62
555.83	58817.66
556.00	58595.31
556.16	58522.76
556.33	58202.10
556.50	58152.95
556.66	58127.20
556.83	57757.40
556.99	58066.35
557.16	58342.53
557.32	58431.47
557.49	58684.25
557.65	58567.23
557.82	58307.43
557.98	58145.93
558.15	57972.73
558.32	57221.42
558.48	56282.86
558.65	56631.60
558.81	56872.68
558.98	57359.51
559.14	57099.71
559.31	57621.65
559.47	57694.21
559.64	57291.63
559.80	56769.69
559.97	56875.02
560.13	57338.44
560.30	57946.98
560.46	58628.08
560.63	58754.47
560.79	58887.88
560.96	58515.73
561.12	57506.96
561.29	56692.46
561.45	56505.21
561.61	57254.18
561.78	57570.16
561.94	57476.54
562.11	57331.42
562.27	57190.99
562.44	57687.18
562.60	57862.72
562.77	58045.29
562.93	57839.32
563.10	57888.47
563.26	57326.74
563.42	57364.19
563.59	57146.52
563.75	57205.03
563.92	57080.98
564.08	57235.46
564.24	57492.92
564.41	57272.91
564.57	57373.55
564.74	57066.94
564.90	57020.13
565.07	56769.69
565.23	56631.60
565.39	56137.75
565.56	55997.32
565.72	55683.69
565.88	56027.74
566.05	56292.22
566.21	56341.38
566.38	56582.45
566.54	56505.21
566.70	56985.02
566.87	56973.32
567.03	57193.33
567.19	57263.55
567.36	56994.39
567.52	57092.69
567.68	56793.10
567.85	56072.21
568.01	55618.15
568.17	55463.67
568.34	55477.72
568.50	55388.78
568.66	55501.12
568.83	55847.52
568.99	55803.05
569.15	56046.47
569.32	56069.87
569.48	55751.56
569.64	55554.96
569.81	55442.61
569.97	55325.58
570.13	55388.78
570.30	54672.57
570.46	54305.11
570.62	54134.25
570.78	53844.02
570.95	54115.53
571.11	54728.75
571.27	55103.23
571.43	55309.20
571.60	55302.18
571.76	55311.54
571.92	55817.10
572.09	55742.20
572.25	55877.95
572.41	55643.90
572.57	55681.34
572.74	55894.33
572.90	55377.08
573.06	55391.12
573.22	55365.37
573.38	55330.26
573.55	55407.50
573.71	55714.11
573.87	55634.53
574.03	55199.19
574.20	55409.84
574.36	54923.01
574.52	54885.56
574.68	55065.78
574.84	54412.77
575.01	53932.96
575.17	53495.28
575.33	54071.06
575.49	54475.97
575.65	54665.55
575.82	54178.72
575.98	54026.59
576.14	54461.93
576.30	54405.75
576.46	54787.26
576.62	54368.30
576.79	54714.70
576.95	54253.62
577.11	54527.46
577.27	54033.61
577.43	54429.16
577.59	53799.55
577.75	53588.91
577.92	52973.34
578.08	52715.89
578.24	52708.86
578.40	53202.72
578.56	53509.33
578.72	53469.54
578.88	53467.20
579.04	53750.40
579.21	53556.14
579.37	53825.30
579.53	54262.98
579.69	54138.93
579.85	53797.21
580.01	53954.03
580.17	53834.66
580.33	53460.18
580.49	53448.47
580.65	53495.28
580.82	53895.52
580.98	53837.00
581.14	53675.51
581.30	53640.40
581.46	53680.19
581.62	53883.81
581.78	53970.41
581.94	54136.59
582.10	54167.02
582.26	54244.26
582.42	54038.29
582.58	54370.64
582.74	54000.84
582.90	53961.05
583.06	53911.90
583.22	53691.89
583.38	53958.71
583.54	53729.34
583.70	53492.94
583.86	53874.45
584.02	53525.71
584.18	53778.49
584.34	53652.10
584.50	53350.17
584.66	53333.79
584.82	52645.67
584.98	53132.50
585.14	52769.72
585.30	52009.04
