SpectraSuite Data File
++++++++++++++++++++++++++++++++++++
Date: Mon Oct 07 14:54:57 GMT-05:00 2013
User: price-jones
Dark Spectrum Present: No
Reference Spectrum Present: No
Number of Sampled Component Spectra: 1
Spectrometers: USB2+H05261
Integration Time (usec): 10000 (USB2+H05261)
Spectra Averaged: 1 (USB2+H05261)
Boxcar Smoothing: 0 (USB2+H05261)
Correct for Electrical Dark: No (USB2+H05261)
Strobe/Lamp Enabled: No (USB2+H05261)
Correct for Detector Non-linearity: No (USB2+H05261)
Correct for Stray Light: No (USB2+H05261)
Number of Pixels in Processed Spectrum: 2048
>>>>>Begin Processed Spectral Data<<<<<
365.73	0.00
365.92	0.00
366.12	0.00
366.32	0.00
366.52	0.00
366.72	0.00
366.91	0.00
367.11	0.00
367.31	0.00
367.51	0.00
367.70	0.00
367.90	0.00
368.10	0.00
368.30	0.00
368.49	0.00
368.69	0.00
368.89	0.00
369.09	0.00
369.28	0.00
369.48	0.00
369.68	0.00
369.87	0.00
370.07	0.00
370.27	0.00
370.47	114.69
370.66	1488.58
370.86	1795.19
371.06	2040.95
371.25	1914.56
371.45	1762.42
371.65	1591.56
371.84	1486.24
372.04	1654.76
372.24	1788.17
372.44	1764.76
372.63	1792.85
372.83	1624.33
373.03	1348.15
373.22	1380.92
373.42	1401.98
373.62	1678.16
373.81	1739.02
374.01	1722.63
374.21	1488.58
374.40	1493.26
374.60	1652.42
374.79	1774.13
374.99	2097.12
375.19	2291.38
375.38	2244.57
375.58	2073.71
375.78	2101.80
375.97	2148.61
376.17	2125.21
376.37	2186.06
376.56	2216.49
376.76	2399.05
376.95	2546.50
377.15	2640.12
377.35	2857.79
377.54	2935.03
377.74	3047.38
377.93	2843.75
378.13	2862.48
378.33	2644.81
378.52	2487.99
378.72	2394.37
378.91	2211.81
379.11	2263.30
379.31	2256.28
379.50	2373.30
379.70	2427.14
379.89	2597.99
380.09	2813.32
380.28	2988.86
380.48	2892.90
380.68	2923.33
380.87	2743.11
381.07	2495.01
381.26	2361.60
381.46	2270.32
381.65	2115.84
381.85	1975.41
382.04	1987.11
382.24	1856.04
382.43	1729.66
382.63	1614.97
382.83	1741.36
383.02	1729.66
383.22	1636.03
383.41	1739.02
383.61	1900.52
383.80	2246.91
384.00	2530.12
384.19	2834.39
384.39	2904.60
384.58	2906.95
384.78	2892.90
384.97	2892.90
385.17	2658.85
385.36	2504.37
385.56	2380.32
385.75	2574.59
385.95	2822.69
386.14	2944.39
386.34	3126.96
386.53	2789.92
386.72	2663.53
386.92	2815.66
387.11	2778.22
387.31	2998.23
387.50	2956.10
387.70	2761.83
387.89	2752.47
388.09	2803.96
388.28	2787.58
388.48	3007.59
388.67	3208.87
388.86	3501.44
389.06	3709.75
389.25	3763.58
389.45	3990.61
389.64	4021.04
389.84	3714.43
390.03	3833.80
390.22	3840.82
390.42	3936.78
390.61	4320.63
390.81	4482.13
391.00	4521.92
391.19	4512.55
391.39	4271.48
391.58	3974.23
391.78	3817.41
391.97	3763.58
392.16	3356.33
392.36	2937.37
392.55	2324.15
392.75	1909.88
392.94	1446.45
393.13	1696.89
393.33	2010.52
393.52	2586.29
393.71	3159.72
393.91	3566.98
394.10	4035.08
394.29	4133.39
394.49	4486.81
394.68	4861.29
394.88	4800.44
395.07	5020.45
395.26	4718.52
395.46	4552.34
395.65	4327.65
395.84	3686.34
396.04	3014.61
396.23	2490.33
396.42	2148.61
396.62	2277.34
396.81	2626.08
397.00	3545.91
397.19	4238.71
397.39	5135.14
397.58	5647.71
397.77	5685.16
397.97	5895.81
398.16	6090.07
398.35	6335.83
398.55	6530.09
398.74	6602.65
398.93	6815.64
399.12	6698.61
399.32	6546.48
399.51	6593.29
399.70	6930.33
399.90	6778.19
400.09	6967.77
400.28	6977.14
400.47	6974.80
400.67	7456.95
400.86	7522.48
401.05	7424.18
401.24	7517.80
401.44	7716.75
401.63	7683.98
401.82	7627.81
402.01	7602.06
402.21	7693.34
402.40	7864.20
402.59	7351.62
402.78	7176.08
402.97	7136.29
403.17	7421.84
403.36	7779.94
403.55	7850.16
403.74	7948.46
403.93	7660.57
404.13	6995.86
404.32	7185.44
404.51	7728.45
404.70	7824.41
404.89	7967.18
405.09	7777.60
405.28	7445.24
405.47	7737.81
405.66	7688.66
405.85	7232.26
406.05	7063.74
406.24	7356.30
406.43	7672.28
406.62	7831.43
406.81	7812.71
407.00	7478.01
407.20	7438.22
407.39	7487.37
407.58	7714.41
407.77	8138.04
407.96	8138.04
408.15	8510.19
408.34	8442.31
408.54	8990.00
408.73	8872.97
408.92	8837.86
409.11	8355.71
409.30	8170.81
409.49	7784.62
409.68	7063.74
409.87	7398.43
410.07	7756.54
410.26	8084.21
410.45	8571.04
410.64	8837.86
410.83	9067.24
411.02	9348.10
411.21	9767.06
411.40	9570.45
411.59	9502.58
411.78	9537.68
411.98	9224.05
412.17	9397.25
412.36	9343.42
412.55	9212.35
412.74	8987.66
412.93	8915.10
413.12	9123.41
413.31	9870.04
413.50	9951.96
413.69	9879.40
413.88	9364.48
414.07	9397.25
414.26	9879.40
414.45	9951.96
414.64	9975.36
414.83	9727.27
415.02	9614.92
415.22	10068.98
415.41	10038.56
415.60	10225.80
415.79	10576.88
415.98	10855.40
416.17	10658.80
416.36	10497.30
416.55	10443.47
416.74	9790.46
416.93	9767.06
417.12	9804.50
417.31	9900.47
417.50	10071.33
417.69	10281.97
417.88	10274.95
418.07	9954.30
418.26	10300.70
418.45	10511.35
418.64	10693.91
418.83	11028.60
419.02	10738.38
419.21	10391.98
419.39	10099.41
419.58	9638.33
419.77	10104.09
419.96	10289.00
420.15	10902.22
420.34	11360.96
420.53	11686.29
420.72	11695.66
420.91	11407.77
421.10	11503.73
421.29	11442.88
421.48	10918.60
421.67	11274.36
421.86	11087.12
422.05	10024.51
422.24	9322.35
422.43	9638.33
422.61	10427.09
422.80	11073.07
422.99	10860.09
423.18	10382.62
423.37	10558.16
423.56	10455.17
423.75	10904.56
423.94	11007.54
424.13	10565.18
424.32	10523.05
424.50	10366.23
424.69	10345.17
424.88	10553.48
425.07	10441.13
425.26	10347.51
425.45	10024.51
425.64	10263.25
425.83	10420.06
426.01	10738.38
426.20	10824.98
426.39	10408.36
426.58	9734.29
426.77	9053.19
426.96	9090.64
427.15	9537.68
427.33	10373.25
427.52	10466.88
427.71	10485.60
427.90	9966.00
428.09	9996.43
428.28	9848.97
428.46	9617.26
428.65	9776.42
428.84	9851.31
429.03	9717.90
429.22	9085.96
429.40	8685.73
429.59	8021.02
429.78	7009.90
429.97	7295.45
430.16	7143.32
430.34	7016.93
430.53	7248.64
430.72	7522.48
430.91	8903.40
431.10	10249.21
431.28	11508.41
431.47	12175.47
431.66	12114.61
431.85	10761.78
432.03	9973.02
432.22	10068.98
432.41	10869.45
432.60	11548.20
432.79	12060.78
432.97	12152.06
433.16	11648.85
433.35	10537.09
433.54	9605.56
433.72	9439.38
433.91	9839.61
434.10	10850.72
434.28	11606.72
434.47	11894.60
434.66	11548.20
434.85	11531.82
435.03	11700.34
435.22	11786.94
435.41	12259.73
435.59	12313.56
435.78	12582.72
435.97	12879.97
436.16	12678.68
436.34	12531.23
436.53	12617.83
436.72	12524.21
436.90	11620.76
437.09	11639.48
437.28	11803.32
437.46	12077.16
437.65	11939.07
437.84	10923.28
438.02	10228.14
438.21	10354.53
438.40	11023.92
438.58	11676.93
438.77	11934.39
438.96	12025.67
439.14	12606.13
439.33	12718.47
439.52	12819.11
439.70	12821.45
439.89	12198.87
440.08	12037.38
440.26	12248.02
440.45	12767.62
440.63	13572.77
440.82	14164.92
441.01	13547.02
441.19	13855.97
441.38	14134.50
441.57	14237.48
441.75	14424.72
441.94	14794.53
442.12	14581.54
442.31	15012.20
442.50	14822.61
442.68	14738.35
442.87	14743.03
443.05	14534.73
443.24	14984.11
443.43	14939.64
443.61	14792.19
443.80	14988.79
443.98	14555.79
444.17	14513.66
444.35	15384.34
444.54	15506.05
444.73	15426.47
444.91	14260.88
445.10	14057.26
445.28	13762.35
445.47	13369.14
445.65	13338.71
445.84	13905.12
446.02	14185.99
446.21	14368.55
446.39	14647.07
446.58	15070.71
446.77	15094.11
446.95	15346.89
447.14	15674.57
447.32	15672.23
447.51	15173.69
447.69	14569.83
447.88	14457.49
448.06	14647.07
448.25	14920.92
448.43	14958.36
448.62	14822.61
448.80	14691.54
448.99	14827.29
449.17	14981.77
449.36	15222.84
449.54	15777.55
449.73	15782.23
449.91	15667.55
450.10	16477.37
450.28	16681.00
450.46	16301.83
450.65	16180.12
450.83	15967.13
451.02	15974.16
451.20	15784.57
451.39	15648.82
451.57	15616.05
451.76	15712.02
451.94	15564.56
452.13	15211.14
452.31	14401.32
452.49	14064.28
452.68	14188.33
452.86	14483.24
453.05	14930.28
453.23	15344.55
453.42	15686.27
453.60	15637.12
453.78	15398.38
453.97	15126.88
454.15	15255.61
454.34	14885.81
454.52	15304.76
454.70	15330.51
454.89	15255.61
455.07	15269.66
455.26	15499.03
455.44	15686.27
455.62	16133.31
455.81	16264.38
455.99	16170.76
456.17	16166.08
456.36	16077.14
456.54	16610.78
456.73	16432.90
456.91	16987.61
457.09	16882.28
457.28	17034.42
457.46	16231.62
457.64	16273.74
457.83	15634.78
458.01	15578.61
458.19	16292.47
458.38	15765.85
458.56	16077.14
458.74	16542.91
458.93	16051.39
459.11	15786.91
459.29	15768.19
459.48	15822.02
459.66	15550.52
459.84	16086.50
460.03	16379.07
460.21	16308.85
460.39	16599.08
460.57	16570.99
460.76	16851.86
460.94	16706.74
461.12	16844.84
461.31	17020.38
461.49	16793.34
461.67	17165.49
461.85	17652.32
462.04	17170.17
462.22	17167.83
462.40	17191.23
462.59	16816.75
462.77	16606.10
462.95	17104.64
463.13	17345.71
463.32	16877.60
463.50	16517.16
463.68	16489.07
463.86	16486.73
464.05	16739.51
464.23	15969.48
464.41	15805.64
464.59	15297.74
464.78	16119.27
464.96	16219.91
465.14	16149.70
465.32	16957.18
465.50	17032.08
465.69	17240.39
465.87	16711.42
466.05	15932.03
466.23	15440.51
466.41	15990.54
466.60	16388.43
466.78	16135.65
466.96	15824.36
467.14	16308.85
467.32	16278.43
467.51	16468.01
467.69	15880.53
467.87	15777.55
468.05	16215.23
468.23	16259.70
468.41	16631.85
468.60	16042.03
468.78	16252.68
468.96	16360.34
469.14	17001.65
469.32	16964.20
469.50	15948.41
469.69	15859.47
469.87	15604.35
470.05	15803.30
470.23	15815.00
470.41	16346.30
470.59	16065.44
470.77	16023.31
470.95	16638.87
471.14	16407.16
471.32	16840.15
471.50	18237.45
471.68	17900.42
471.86	17886.37
472.04	17397.20
472.22	17617.21
472.40	16629.51
472.58	17181.87
472.77	16723.13
472.95	17303.58
473.13	17420.61
473.31	17343.37
473.49	17385.50
473.67	17692.11
473.85	17212.30
474.03	17474.44
474.21	17862.97
474.39	17874.67
474.57	18099.36
474.75	17994.04
474.93	18370.86
475.12	17537.63
475.30	17640.62
475.48	17834.88
475.66	18242.14
475.84	17928.50
476.02	17865.31
476.20	17479.12
476.38	18087.66
476.56	18075.96
476.74	18408.31
476.92	18366.18
477.10	18822.59
477.28	19534.11
477.46	19311.76
477.64	19318.78
477.82	19255.59
478.00	19241.54
478.18	19138.56
478.36	19262.61
478.54	19058.98
478.72	19644.12
478.90	20402.45
479.08	20517.14
479.26	20725.44
479.44	20025.62
479.62	20610.76
479.80	20594.37
479.98	20425.86
480.16	21015.67
480.34	20912.69
480.52	20568.63
480.70	20552.24
480.88	21071.84
481.06	21469.73
481.24	21467.39
481.41	22530.00
481.59	22515.95
481.77	22059.55
481.95	21561.02
482.13	21928.48
482.31	21460.37
482.49	22457.44
482.67	21830.18
482.85	21898.05
483.03	21874.65
483.21	22300.62
483.39	22412.97
483.57	22251.47
483.74	22134.45
483.92	21752.94
484.10	22595.53
484.28	22792.14
484.46	22937.25
484.64	22429.35
484.82	22471.48
485.00	22452.76
485.18	21422.92
485.35	20278.40
485.53	18478.53
485.71	17193.58
485.89	17474.44
486.07	18747.69
486.25	20262.02
486.43	21343.35
486.61	20662.25
486.78	20989.92
486.96	21743.58
487.14	22892.78
487.32	23517.70
487.50	23723.67
487.68	23414.72
487.85	24383.70
488.03	24470.30
488.21	24046.66
488.39	23091.73
488.57	23400.68
488.75	22712.56
488.92	24732.44
489.10	26017.40
489.28	26541.68
489.46	27470.87
489.64	27630.02
489.81	27623.00
489.99	26930.20
490.17	26895.10
490.35	27428.74
490.53	26541.68
490.70	26511.25
490.88	26192.94
491.06	27211.07
491.24	27136.17
491.41	25865.26
491.59	24723.08
491.77	24156.67
491.95	25294.17
492.13	26143.78
492.30	26405.92
492.48	27892.16
492.66	28397.72
492.84	27864.08
493.01	27503.64
493.19	26759.34
493.37	26089.95
493.54	26754.66
493.72	27847.69
493.90	28442.19
494.08	28760.50
494.25	29703.74
494.43	29694.38
494.61	30675.06
494.79	30471.43
494.96	30419.94
495.14	29013.28
495.32	28584.96
495.49	28023.23
495.67	28627.09
495.85	30148.44
496.02	30148.44
496.20	30979.33
496.38	30391.86
496.55	30143.76
496.73	30218.66
496.91	29797.36
497.09	30335.68
497.26	30745.28
497.44	30967.63
497.62	30235.04
497.79	29448.62
497.97	28559.22
498.14	28369.63
498.32	29425.22
498.50	30108.65
498.67	31040.18
498.85	30267.81
499.03	29876.94
499.20	30452.71
499.38	30443.35
499.56	29926.09
499.73	29502.45
499.91	29373.72
500.08	28514.75
500.26	28123.88
500.44	28863.49
500.61	29479.05
500.79	29137.33
500.97	28877.53
501.14	28428.15
501.32	28158.99
501.49	27555.13
501.67	28945.41
501.84	29874.60
502.02	29865.24
502.20	29743.53
502.37	30946.56
502.55	30733.57
502.72	31206.36
502.90	31405.31
503.07	31098.70
503.25	30441.01
503.43	29963.54
503.60	28922.00
503.78	27730.67
503.95	29385.43
504.13	30026.73
504.30	31271.90
504.48	31197.00
504.65	30672.72
504.83	30719.53
505.01	30700.81
505.18	31175.94
505.36	32074.70
505.53	32154.28
505.71	32432.80
505.88	32575.58
506.06	32404.72
506.23	31197.00
506.41	30752.30
506.58	31084.65
506.76	30518.25
506.93	30902.09
507.11	29624.16
507.28	30497.18
507.46	30433.99
507.63	29610.12
507.81	29104.56
507.98	29827.79
508.16	30455.05
508.33	31243.81
508.50	30274.83
508.68	31831.29
508.85	32245.56
509.03	32095.77
509.20	30410.58
509.38	30637.61
509.55	30576.76
509.73	31096.36
509.90	31468.50
510.08	30513.56
510.25	30043.12
510.42	30431.65
510.60	30408.24
510.77	31365.52
510.95	32631.75
511.12	31187.64
511.30	32404.72
511.47	32863.46
511.64	31754.05
511.82	31868.73
511.99	31225.09
512.17	31082.31
512.34	30649.32
512.51	30213.98
512.69	30293.55
512.86	30822.51
513.04	31850.01
513.21	31356.16
513.38	31398.29
513.56	30876.35
513.73	29682.67
513.90	29099.88
514.08	29886.30
514.25	30094.61
514.43	30590.80
514.60	30778.04
514.77	30721.87
514.95	30728.89
515.12	30717.19
515.29	30948.90
515.47	31337.43
515.64	31117.42
515.81	31618.30
515.99	30307.60
516.16	27988.13
516.33	25809.09
516.51	25514.18
516.68	24507.75
516.85	23714.31
517.03	24999.26
517.20	27166.60
517.37	29689.70
517.54	29305.85
517.72	28500.70
517.89	26520.61
518.06	25376.09
518.24	25909.73
518.41	27704.92
518.58	28680.92
518.75	29113.92
518.93	29310.53
519.10	28669.22
519.27	29385.43
519.45	29975.24
519.62	30415.26
519.79	31278.92
519.96	30869.33
520.14	29479.05
520.31	29422.87
520.48	29172.44
520.65	29745.87
520.83	30487.82
521.00	30253.76
521.17	29937.79
521.34	29469.69
521.52	30026.73
521.69	30911.46
521.86	31264.88
522.03	30443.35
522.20	29165.42
522.38	28460.91
522.55	28446.87
522.72	29088.18
522.89	28615.39
523.07	29233.29
523.24	30375.47
523.41	30401.22
523.58	30492.50
523.75	29926.09
523.92	31243.81
524.10	31349.14
524.27	31051.89
524.44	30899.75
524.61	31482.55
524.78	31438.08
524.96	30794.43
525.13	30869.33
525.30	31817.24
525.47	32180.03
525.64	31555.10
525.81	29523.52
525.98	27882.80
526.16	26101.65
526.33	26331.03
526.50	26881.05
526.67	26647.00
526.84	26955.95
527.01	27981.10
527.18	28898.59
527.36	29216.91
527.53	31264.88
527.70	30017.37
527.87	29160.73
528.04	29043.71
528.21	30008.01
528.38	30611.87
528.55	31646.38
528.72	31545.74
528.89	31278.92
529.07	31079.97
529.24	29617.14
529.41	30099.29
529.58	29776.30
529.75	29244.99
529.92	29603.10
530.09	30253.76
530.26	30548.67
530.43	29062.43
530.60	30115.67
530.77	30789.75
530.94	31889.80
531.11	30518.25
531.28	30693.79
531.46	29834.81
531.63	30965.29
531.80	30923.16
531.97	29546.92
532.14	28444.53
532.31	27318.73
532.48	26757.00
532.65	26754.66
532.82	27510.66
532.99	28655.18
533.16	30279.51
533.33	31087.00
533.50	30256.11
533.67	29287.12
533.84	29247.33
534.01	29542.24
534.18	29198.18
534.35	28837.74
534.52	29266.06
534.69	29544.58
534.86	29495.43
535.03	29729.48
535.20	30511.22
535.37	30590.80
535.54	30874.01
535.71	30141.42
535.88	29633.52
536.05	28793.27
536.22	28521.77
536.38	28252.61
536.55	28226.86
536.72	28156.64
536.89	28037.28
537.06	29696.72
537.23	29546.92
537.40	29275.42
537.57	29645.23
537.74	28491.34
537.91	28395.38
538.08	29638.20
538.25	29380.74
538.42	28919.66
538.59	28973.49
538.75	29521.18
538.92	28725.39
539.09	28163.67
539.26	27398.31
539.43	27468.53
539.60	27037.87
539.77	27337.46
539.94	26450.39
540.11	26087.61
540.28	25425.24
540.44	26277.19
540.61	27026.17
540.78	27175.96
540.95	28308.78
541.12	26904.46
541.29	28556.88
541.46	27878.12
541.62	27232.13
541.79	27281.28
541.96	26859.99
542.13	27990.47
542.30	28285.37
542.47	27934.29
542.63	27288.31
542.80	26333.37
542.97	27138.51
543.14	26272.51
543.31	27204.05
543.48	28292.40
543.64	28636.45
543.81	28599.01
543.98	27630.02
544.15	27953.02
544.32	27037.87
544.48	27733.01
544.65	27019.14
544.82	27246.18
544.99	27695.56
545.16	27513.00
545.32	27854.72
545.49	28395.38
545.66	28254.95
545.83	27828.97
546.00	27562.15
546.16	27381.93
546.33	27222.77
546.50	27777.48
546.67	27384.27
546.83	27253.20
547.00	26794.45
547.17	26625.93
547.34	26967.65
547.50	26373.16
547.67	26595.51
547.84	26632.96
548.00	27063.61
548.17	26796.79
548.34	26457.42
548.51	26789.77
548.67	27955.36
548.84	27239.15
549.01	27819.61
549.18	27733.01
549.34	28484.32
549.51	27747.05
549.68	26934.88
549.84	26810.84
550.01	27456.82
550.18	26111.02
550.34	26569.76
550.51	26115.70
550.68	25586.74
550.84	24767.55
551.01	25149.06
551.18	24903.30
551.34	25301.19
551.51	26204.64
551.68	27302.35
551.84	26237.41
552.01	26773.39
552.18	26141.44
552.34	25858.24
552.51	26108.68
552.68	26913.82
552.84	25993.99
553.01	25898.03
553.18	26909.14
553.34	26712.53
553.51	26300.60
553.67	25802.07
553.84	26705.51
554.01	27253.20
554.17	25682.70
554.34	25891.01
554.51	27051.91
554.67	26551.04
554.84	25818.45
555.00	25525.88
555.17	25979.95
555.33	25390.13
555.50	26363.79
555.67	26511.25
555.83	26419.97
556.00	26340.39
556.16	25834.83
556.33	25275.45
556.50	25020.33
556.66	24575.62
556.83	24156.67
556.99	24802.66
557.16	25549.29
557.32	25483.75
557.49	24882.24
557.65	25427.58
557.82	24383.70
557.98	24376.68
558.15	24697.33
558.32	24011.56
558.48	23365.57
558.65	23325.78
558.81	23405.36
558.98	24135.60
559.14	24442.21
559.31	24767.55
559.47	24367.32
559.64	23344.50
559.80	24627.12
559.97	24067.73
560.13	24945.43
560.30	24994.58
560.46	24819.04
560.63	25394.81
560.79	25823.13
560.96	24547.54
561.12	24137.94
561.29	23836.02
561.45	23330.46
561.61	23639.41
561.78	23613.66
561.94	23859.42
562.11	23620.69
562.27	24004.53
562.44	24320.51
562.60	24514.77
562.77	24940.75
562.93	23737.71
563.10	23875.80
563.26	23452.17
563.42	23407.70
563.59	23365.57
563.75	23578.56
563.92	23763.46
564.08	23403.02
564.24	23693.24
564.41	22647.02
564.57	23232.16
564.74	22740.64
564.90	22363.82
565.07	22548.72
565.23	22317.01
565.39	21846.56
565.56	23250.88
565.72	22558.08
565.88	23351.52
566.05	22441.06
566.21	22874.06
566.38	22342.75
566.54	22375.52
566.70	22183.60
566.87	22848.31
567.03	23763.46
567.19	24697.33
567.36	22272.54
567.52	23475.57
567.68	22689.15
567.85	22717.24
568.01	22834.27
568.17	21621.87
568.34	21287.17
568.50	21245.04
568.66	21539.95
568.83	21867.63
568.99	22508.93
569.15	22569.79
569.32	22930.23
569.48	22349.78
569.64	21696.77
569.81	21200.57
569.97	21678.04
570.13	21628.89
570.30	21329.30
570.46	21123.33
570.62	20053.71
570.78	19569.22
570.95	19632.41
571.11	21074.18
571.27	20772.25
571.43	20673.95
571.60	21472.07
571.76	21671.02
571.92	21982.31
572.09	22106.36
572.25	21591.44
572.41	22637.66
572.57	22167.21
572.74	21546.97
572.90	21965.93
573.06	21598.46
573.22	21355.05
573.38	21233.34
573.55	20428.20
573.71	20762.89
573.87	21238.02
574.03	21165.46
574.20	21333.98
574.36	20922.05
574.52	21198.23
574.68	20594.37
574.84	20257.34
575.01	20947.79
575.17	20924.39
575.33	20622.46
575.49	20119.24
575.65	20465.64
575.82	20456.28
575.98	20336.91
576.14	20205.84
576.30	20210.53
576.46	19719.01
576.62	20346.28
576.79	20105.20
576.95	19852.42
577.11	19845.40
577.27	19644.12
577.43	19723.69
577.59	19859.45
577.75	20262.02
577.92	19379.64
578.08	19192.39
578.24	19129.20
578.40	19637.09
578.56	19660.50
578.72	19545.81
578.88	19885.19
579.04	19618.37
579.21	19639.44
579.37	20264.36
579.53	19676.88
579.69	19726.04
579.85	19417.08
580.01	19377.30
580.17	19674.54
580.33	19489.64
580.49	19646.46
580.65	19747.10
580.82	19431.13
580.98	19997.54
581.14	19522.41
581.30	20009.24
581.46	19641.78
581.62	19592.62
581.78	19594.96
581.94	19969.45
582.10	20039.67
582.26	19672.20
582.42	19531.77
582.58	20601.40
582.74	20255.00
582.90	19534.11
583.06	19981.15
583.22	19625.39
583.38	19955.41
583.54	19651.14
583.70	19704.97
583.86	19704.97
584.02	19822.00
584.18	19515.39
584.34	19822.00
584.50	20182.44
584.66	19714.33
584.82	19438.15
584.98	19264.95
585.14	19105.79
585.30	18546.40
585.46	18478.53
585.62	18129.79
585.78	18635.35
585.94	18272.56
586.10	19030.90
586.26	18684.50
586.42	18789.82
