SpectraSuite Data File
++++++++++++++++++++++++++++++++++++
Date: Mon Oct 07 14:53:34 GMT-05:00 2013
User: price-jones
Dark Spectrum Present: No
Reference Spectrum Present: No
Number of Sampled Component Spectra: 1
Spectrometers: USB2+H05261
Integration Time (usec): 100000 (USB2+H05261)
Spectra Averaged: 1 (USB2+H05261)
Boxcar Smoothing: 0 (USB2+H05261)
Correct for Electrical Dark: No (USB2+H05261)
Strobe/Lamp Enabled: No (USB2+H05261)
Correct for Detector Non-linearity: No (USB2+H05261)
Correct for Stray Light: No (USB2+H05261)
Number of Pixels in Processed Spectrum: 2048
>>>>>Begin Processed Spectral Data<<<<<
365.73	0.00
365.92	0.00
366.12	0.00
366.32	0.00
366.52	0.00
366.72	0.00
366.91	0.00
367.11	0.00
367.31	0.00
367.51	0.00
367.70	0.00
367.90	0.00
368.10	0.00
368.30	0.00
368.49	0.00
368.69	0.00
368.89	0.00
369.09	0.00
369.28	0.00
369.48	0.00
369.68	0.00
369.87	0.00
370.07	0.00
370.27	0.00
370.47	734.93
370.66	3588.04
370.86	4229.35
371.06	4622.56
371.25	4468.08
371.45	3981.25
371.65	3672.30
371.84	3475.70
372.04	3765.92
372.24	3983.59
372.44	4198.92
372.63	4205.94
372.83	3995.29
373.03	3438.25
373.22	3080.14
373.42	3246.32
373.62	3808.05
373.81	4070.19
374.01	4219.99
374.21	3674.64
374.40	3571.66
374.60	3524.85
374.79	4095.94
374.99	4720.86
375.19	5116.41
375.38	5329.40
375.58	4805.12
375.78	4762.99
375.97	4772.35
376.17	4910.44
376.37	4966.62
376.56	5198.33
376.76	5270.89
376.95	5687.50
377.15	6193.06
377.35	6401.37
377.54	6661.16
377.74	7019.27
377.93	6911.60
378.13	6661.16
378.33	6410.73
378.52	5827.93
378.72	5638.35
378.91	5392.59
379.11	5497.92
379.31	5160.88
379.50	5085.98
379.70	5654.73
379.89	5886.45
380.09	6462.22
380.28	6717.34
380.48	6593.29
380.68	6415.41
380.87	6574.56
381.07	5893.47
381.26	5486.22
381.46	5247.48
381.65	5100.03
381.85	4781.71
382.04	4645.96
382.24	4334.67
382.43	4039.76
382.63	4035.08
382.83	4109.98
383.02	4079.55
383.22	4095.94
383.41	3967.21
383.61	4381.48
383.80	5083.64
384.00	5516.64
384.19	6232.85
384.39	6670.53
384.58	6574.56
384.78	6689.25
384.97	6408.39
385.17	6108.80
385.36	5830.27
385.56	5518.98
385.75	5657.07
385.95	6406.05
386.14	6878.83
386.34	6925.65
386.53	6597.97
386.72	6143.91
386.92	6274.98
387.11	6338.17
387.31	6832.02
387.50	6967.77
387.70	6399.02
387.89	6291.36
388.09	6612.01
388.28	6546.48
388.48	6677.55
388.67	7005.22
388.86	7770.58
389.06	8322.94
389.25	8849.57
389.45	9046.17
389.64	8723.18
389.84	8732.54
390.03	8671.68
390.22	8751.26
390.42	8926.80
390.61	9647.69
390.81	10162.61
391.00	10328.78
391.19	10029.20
391.39	9973.02
391.58	9366.82
391.78	8732.54
391.97	8634.24
392.16	7868.88
392.36	7239.28
392.55	5949.64
392.75	4685.75
392.94	3838.48
393.13	3801.03
393.33	4458.72
393.52	5600.90
393.71	6841.39
393.91	7868.88
394.10	8472.74
394.29	9411.29
394.49	9937.91
394.68	10897.53
394.88	10932.64
395.07	11197.12
395.26	11173.72
395.46	10855.40
395.65	10293.68
395.84	8917.44
396.04	7576.31
396.23	6310.08
396.42	5376.21
396.62	4985.34
396.81	5717.93
397.00	7349.28
397.19	9109.36
397.39	10827.32
397.58	12266.75
397.77	12734.85
397.97	13469.78
398.16	13572.77
398.35	14295.99
398.55	14445.79
398.74	15087.09
398.93	15440.51
399.12	15295.40
399.32	14558.13
399.51	15077.73
399.70	15929.69
399.90	15936.71
400.09	16142.67
400.28	15611.37
400.47	15894.58
400.67	16322.90
400.86	16783.98
401.05	17118.68
401.24	16727.81
401.44	17341.03
401.63	17619.55
401.82	17659.34
402.01	17469.76
402.21	17762.33
402.40	17738.92
402.59	17511.89
402.78	16510.14
402.97	15988.20
403.17	16793.34
403.36	17706.15
403.55	18349.80
403.74	18993.45
403.93	17802.11
404.13	16706.74
404.32	16233.96
404.51	17015.69
404.70	18312.35
404.89	18235.11
405.09	17778.71
405.28	17289.54
405.47	17406.56
405.66	17163.15
405.85	16814.41
406.05	16252.68
406.24	16741.85
406.43	17338.69
406.62	18202.35
406.81	18216.39
407.00	17174.85
407.20	16842.50
407.39	17324.65
407.58	17937.87
407.77	18743.01
407.96	19314.10
408.15	19625.39
408.34	19300.06
408.54	20177.76
408.73	20870.56
408.92	20126.27
409.11	19665.18
409.30	18892.80
409.49	17589.13
409.68	16556.95
409.87	15992.88
410.07	17015.69
410.26	18373.21
410.45	19365.59
410.64	20231.59
410.83	20582.67
411.02	21006.31
411.21	21844.22
411.40	21706.13
411.59	21755.28
411.78	21537.61
411.98	21123.33
412.17	21715.49
412.36	21242.70
412.55	21441.65
412.74	20910.35
412.93	20407.13
413.12	20456.28
413.31	22347.44
413.50	22628.30
413.69	22963.00
413.88	22258.49
414.07	21563.36
414.26	21811.45
414.45	22815.54
414.64	22515.95
414.83	22656.39
415.02	22682.13
415.22	22197.64
415.41	22897.46
415.60	23466.21
415.79	24470.30
415.98	25179.48
416.17	25160.76
416.36	24765.21
416.55	24290.08
416.74	23381.95
416.93	22405.95
417.12	22398.93
417.31	22829.59
417.50	23358.55
417.69	23828.99
417.88	24070.07
418.07	23618.35
418.26	23297.69
418.45	23948.36
418.64	24580.31
418.83	25345.66
419.02	25200.55
419.21	24676.27
419.39	23840.70
419.58	22518.29
419.77	22621.28
419.96	23627.71
420.15	25226.29
420.34	25647.59
420.53	26803.82
420.72	26911.48
420.91	26864.67
421.10	26394.22
421.29	26190.59
421.48	25216.93
421.67	26717.22
421.86	25631.21
422.05	24533.50
422.24	21607.83
422.43	21294.19
422.61	23833.68
422.80	25736.53
422.99	25914.41
423.18	25034.37
423.37	24161.35
423.56	24116.88
423.75	24690.31
423.94	25081.18
424.13	23946.02
424.32	24130.92
424.50	24236.25
424.69	23964.75
424.88	24280.72
425.07	23852.40
425.26	23903.89
425.45	23552.81
425.64	23424.08
425.83	23065.98
426.01	24278.38
426.20	24790.95
426.39	24931.39
426.58	23700.26
426.77	21661.66
426.96	21181.85
427.15	20851.83
427.33	23403.02
427.52	24383.70
427.71	24304.12
427.90	24049.00
428.09	24159.01
428.28	23536.43
428.46	22441.06
428.65	22073.59
428.84	22256.15
429.03	23192.37
429.22	21671.02
429.40	20685.65
429.59	18864.72
429.78	16608.44
429.97	16774.62
430.16	16856.54
430.34	16891.65
430.53	16788.66
430.72	17322.30
430.91	18984.09
431.10	22464.46
431.28	26579.12
431.47	28788.59
431.66	28891.57
431.85	26546.36
432.03	24353.27
432.22	22923.21
432.41	24173.05
432.60	26831.90
432.79	27747.05
432.97	28643.48
433.16	27831.31
433.35	25582.06
433.54	23089.38
433.72	21514.20
433.91	22111.04
434.10	24910.32
434.28	26670.40
434.47	27908.55
434.66	27938.97
434.85	26799.13
435.03	26497.20
435.22	27625.34
435.41	29020.30
435.59	28987.53
435.78	29532.88
435.97	30010.35
436.16	30588.46
436.34	29759.91
436.53	29387.77
436.72	29277.76
436.90	28453.89
437.09	28231.54
437.28	27122.13
437.46	28100.47
437.65	28278.35
437.84	26426.99
438.02	23915.59
438.21	23730.69
438.40	25612.48
438.58	27456.82
438.77	28386.02
438.96	28376.66
439.14	29790.34
439.33	30300.58
439.52	30745.28
439.70	29963.54
439.89	29610.12
440.08	28446.87
440.26	28294.74
440.45	29322.23
440.63	31161.89
440.82	33228.59
441.01	32517.06
441.19	32165.98
441.38	32769.84
441.57	34354.38
441.75	34565.03
441.94	34703.12
442.12	34183.52
442.31	34817.81
442.50	35143.14
442.68	34485.45
442.87	34043.09
443.05	33542.22
443.24	34073.52
443.43	34658.65
443.61	35622.95
443.80	36196.38
443.98	33645.20
444.17	33736.48
444.35	35857.01
444.54	36601.30
444.73	35878.07
444.91	35028.46
445.10	33205.18
445.28	31761.07
445.47	31089.34
445.65	31608.93
445.84	32634.09
446.02	33586.69
446.21	34171.82
446.39	34539.29
446.58	34881.00
446.77	35028.46
446.95	35519.97
447.14	36573.21
447.32	36641.09
447.51	35807.86
447.69	35026.12
447.88	34616.52
448.06	34888.03
448.25	35723.60
448.43	36102.76
448.62	35040.16
448.80	34899.73
448.99	35246.13
449.17	35690.83
449.36	35496.56
449.54	36793.22
449.73	37294.10
449.91	37820.72
450.10	38740.55
450.28	39578.46
450.46	39580.80
450.65	38892.68
450.83	38817.78
451.02	38019.66
451.20	37961.15
451.39	37691.99
451.57	37413.46
451.76	37418.14
451.94	37659.22
452.13	36905.57
452.31	35379.54
452.49	33610.09
452.68	34007.98
452.86	34022.03
453.05	34698.44
453.23	35604.23
453.42	36278.30
453.60	37216.86
453.78	37418.14
453.97	36774.50
454.15	37645.18
454.34	36205.75
454.52	36268.94
454.70	35552.74
454.89	36123.83
455.07	36278.30
455.26	36650.45
455.44	37897.95
455.62	38719.48
455.81	39077.58
455.99	38951.20
456.17	38258.40
456.36	38522.88
456.54	39487.18
456.73	39288.23
456.91	40051.25
457.09	40252.53
457.28	41219.17
457.46	39779.74
457.64	39103.33
457.83	38288.82
458.01	37031.96
458.19	37991.58
458.38	38136.69
458.56	39665.06
458.74	39758.68
458.93	38590.75
459.11	38672.67
459.29	38562.67
459.48	38717.14
459.66	38466.70
459.84	38913.75
460.03	39360.79
460.21	39541.01
460.39	40409.35
460.57	40304.02
460.76	40512.33
460.94	40987.46
461.12	40006.78
461.31	40617.66
461.49	40306.37
461.67	40002.10
461.85	41556.21
462.04	41207.47
462.22	42328.59
462.40	41375.99
462.59	41329.18
462.77	41139.60
462.95	41532.81
463.13	40891.50
463.32	40383.60
463.50	40252.53
463.68	40605.95
463.86	40502.97
464.05	39861.66
464.23	38930.13
464.41	38693.74
464.59	38106.26
464.78	40264.24
464.96	40470.20
465.14	39732.93
465.32	40378.92
465.50	41553.87
465.69	41748.14
465.87	40811.92
466.05	40055.93
466.23	38658.63
466.41	37460.27
466.60	38298.19
466.78	38230.31
466.96	39402.92
467.14	39648.68
467.32	40390.62
467.51	40493.61
467.69	38464.36
467.87	39676.76
468.05	39597.18
468.23	40205.72
468.41	40240.83
468.60	40116.78
468.78	40453.82
468.96	40067.63
469.14	40762.77
469.32	41214.49
469.50	40123.80
469.69	39653.36
469.87	38749.91
470.05	38492.45
470.23	39077.58
470.41	38967.58
470.59	39498.88
470.77	39503.56
470.95	40999.16
471.14	40978.10
471.32	40875.12
471.50	42845.85
471.68	43168.84
471.86	43526.94
472.04	43924.83
472.22	43957.60
472.40	41844.10
472.58	41720.05
472.77	41123.21
472.95	41944.74
473.13	43360.76
473.31	41844.10
473.49	42019.64
473.67	42796.70
473.85	43152.46
474.03	43931.86
474.21	44561.46
474.39	44793.17
474.57	44879.77
474.75	45062.33
474.93	44151.87
475.12	43597.16
475.30	43978.67
475.48	43910.79
475.66	44058.24
475.84	44135.48
476.02	43999.73
476.20	42880.95
476.38	43482.47
476.56	45001.48
476.74	45633.42
476.92	46073.45
477.10	46321.54
477.28	47707.14
477.46	47325.63
477.64	47840.55
477.82	47828.85
478.00	48177.59
478.18	47526.92
478.36	47466.06
478.54	47269.46
478.72	47461.38
478.90	48219.72
479.08	49551.48
479.26	50274.71
479.44	49755.11
479.62	49893.20
479.80	49687.23
479.98	49724.68
480.16	50223.22
480.34	49820.64
480.52	50021.93
480.70	50398.76
480.88	50094.49
481.06	50930.06
481.24	51248.37
481.41	51915.42
481.59	52615.24
481.77	52259.48
481.95	51550.30
482.13	51578.39
482.31	51501.15
482.49	52273.52
482.67	51901.38
482.85	52004.36
483.03	52554.39
483.21	53055.26
483.39	53081.01
483.57	52217.35
483.74	52200.97
483.92	52364.81
484.10	52942.92
484.28	53415.71
484.46	53666.14
484.64	53780.83
484.82	53411.02
485.00	52636.31
485.18	52233.74
485.35	51440.29
485.53	48739.32
485.71	44875.09
485.89	44329.75
486.07	45942.38
486.25	49467.22
486.43	51334.97
486.61	52142.45
486.78	52016.07
486.96	52224.37
487.14	53478.90
487.32	54344.90
487.50	55023.65
487.68	55517.51
487.85	56292.22
488.03	55950.51
488.21	55620.49
488.39	55246.00
488.57	54894.92
488.75	54548.53
488.92	55196.85
489.10	57111.41
489.28	57853.36
489.46	58763.83
489.64	58471.26
489.81	58679.57
489.99	58253.59
490.17	58468.92
490.35	58635.10
490.53	58185.72
490.70	57944.64
490.88	57918.90
491.06	58597.65
491.24	58887.88
491.41	57909.53
491.59	56381.16
491.77	55943.48
491.95	56725.22
492.13	57846.34
492.30	58770.85
492.48	59564.29
492.66	59957.50
492.84	59767.92
493.01	59742.17
493.19	59262.36
493.37	58869.15
493.54	58777.87
493.72	59332.58
493.90	59980.91
494.08	60715.84
494.25	60959.25
494.43	61158.20
494.61	61464.81
494.79	61591.20
494.96	61352.46
495.14	60982.66
495.32	60172.83
495.49	59494.08
495.67	60287.52
495.85	61495.24
496.02	61904.83
496.20	61818.23
496.38	61410.98
496.55	61073.94
496.73	61633.33
496.91	61778.44
497.09	62382.30
497.26	62475.92
497.44	62035.90
497.62	61656.73
497.79	60741.58
497.97	59559.61
498.14	60053.47
498.32	60755.63
498.50	61764.40
498.67	62316.76
498.85	62031.22
499.03	62195.06
499.20	62438.47
499.38	62401.02
499.56	62262.93
499.73	61853.34
499.91	61654.39
500.08	61127.77
500.26	60587.11
500.44	61062.24
500.61	61537.36
500.79	61563.11
500.97	60935.85
501.14	60872.65
501.32	60652.64
501.49	61010.74
501.67	61038.83
501.84	61425.02
502.02	61513.96
502.20	61881.42
502.37	62145.90
502.55	62138.88
502.72	62515.71
502.90	63091.48
503.07	62667.84
503.25	62396.34
503.43	61691.84
503.60	61090.32
503.78	60505.19
503.95	60898.40
504.13	62134.20
504.30	62866.79
504.48	62557.84
504.65	62361.23
504.83	62466.56
505.01	63007.22
505.18	63213.19
505.36	63753.85
505.53	63847.47
505.71	63943.44
505.88	64044.08
506.06	63487.03
506.23	63185.10
506.41	62897.22
506.58	63295.11
506.76	62864.45
506.93	62983.82
507.11	62754.44
507.28	62803.59
507.46	62571.88
507.63	62014.83
507.81	61836.95
507.98	62108.46
508.16	62679.55
508.33	63171.06
508.50	63487.03
508.68	63636.83
508.85	64163.45
509.03	64123.66
509.20	64039.40
509.38	63416.82
509.55	62766.15
509.73	62777.85
509.90	63091.48
510.08	63632.14
510.25	63458.94
510.42	63281.06
510.60	63269.36
510.77	63468.31
510.95	63770.24
511.12	63941.10
511.30	64271.11
511.47	64671.34
511.64	64317.92
511.82	64109.61
511.99	63480.01
512.17	63199.15
512.34	62728.70
512.51	62887.85
512.69	63140.63
512.86	63084.46
513.04	63597.04
513.21	63522.14
513.38	63283.40
513.56	62721.68
513.73	62220.80
513.90	62365.91
514.08	62520.39
514.25	62749.76
514.43	62958.07
514.60	62876.15
514.77	63262.34
514.95	63173.40
515.12	63138.29
515.29	63449.58
515.47	63852.15
515.64	64111.95
515.81	63697.68
515.99	63063.39
516.16	62026.54
516.33	59779.62
516.51	58599.99
516.68	58066.35
516.85	57638.03
517.03	57961.03
517.20	60001.97
517.37	62361.23
517.54	63194.46
517.72	62976.79
517.89	60821.16
518.06	58710.00
518.24	58831.71
518.41	60779.03
518.58	62122.50
518.75	62293.36
518.93	62305.06
519.10	62063.99
519.27	62686.57
519.45	62955.73
519.62	63419.16
519.79	63781.94
519.96	63627.46
520.14	63164.04
520.31	62583.58
520.48	62347.19
520.65	62721.68
520.83	63477.67
521.00	64011.31
521.17	63777.26
521.34	63271.70
521.52	63618.10
521.69	64069.82
521.86	64420.90
522.03	64111.95
522.20	63248.30
522.38	62171.65
522.55	62045.26
522.72	62667.84
522.89	62979.14
523.07	62824.66
523.24	63332.56
523.41	63997.27
523.58	64292.18
523.75	64739.22
523.92	64617.51
524.10	64521.55
524.27	64320.26
524.44	64392.82
524.61	64161.11
524.78	63957.48
524.96	63964.50
525.13	63812.37
525.30	64081.53
525.47	64622.19
525.64	64594.10
525.81	64018.33
525.98	62719.34
526.16	61270.54
526.33	60669.03
526.50	60509.87
526.67	60142.41
526.84	60753.29
527.01	61598.22
527.18	62424.43
527.36	63149.99
527.53	63959.82
527.70	64030.04
527.87	63646.19
528.04	63231.91
528.21	63788.96
528.38	64184.51
528.55	64760.28
528.72	64912.42
528.89	65272.86
529.07	64889.01
529.24	64348.35
529.41	63751.51
529.58	63290.43
529.75	63194.46
529.92	63606.40
530.09	64100.25
530.26	64575.38
530.43	64828.16
530.60	64755.60
530.77	64935.82
530.94	64949.87
531.11	64530.91
531.28	64280.47
531.46	64343.67
531.63	64467.72
531.80	64257.07
531.97	64069.82
532.14	63185.10
532.31	62204.42
532.48	61729.29
532.65	61656.73
532.82	62445.49
532.99	63606.40
533.16	63774.92
533.33	64158.76
533.50	64015.99
533.67	63564.27
533.84	63028.29
534.01	63318.51
534.18	63498.73
534.35	63674.27
534.52	63332.56
534.69	63772.58
534.86	64128.34
535.03	64177.49
535.20	64725.17
535.37	65048.17
535.54	65120.73
535.71	64741.56
535.88	64301.54
536.05	63985.57
536.22	63554.91
536.38	63271.70
536.55	62808.28
536.72	62436.13
536.89	62361.23
537.06	63079.78
537.23	63898.97
537.40	63964.50
537.57	63999.61
537.74	63931.73
537.91	63833.43
538.08	63690.66
538.25	63863.86
538.42	63870.88
538.59	63709.38
538.75	63192.12
538.92	63047.01
539.09	62918.28
539.26	62635.08
539.43	62354.21
539.60	62599.97
539.77	62836.36
539.94	62700.61
540.11	62068.67
540.28	61425.02
540.44	61549.07
540.61	61778.44
540.78	62066.33
540.95	62492.30
541.12	62906.58
541.29	63032.97
541.46	63337.24
541.62	63337.24
541.79	63058.71
541.96	62714.65
542.13	62651.46
542.30	62974.45
542.47	63021.26
542.63	62944.03
542.80	62653.80
542.97	62946.37
543.14	62527.41
543.31	62810.62
543.48	63185.10
543.64	63938.75
543.81	64076.85
543.98	63959.82
544.15	63257.66
544.32	62731.04
544.48	62831.68
544.65	63334.90
544.82	63732.79
544.99	63487.03
545.16	62965.09
545.32	62756.78
545.49	63302.13
545.66	63763.21
545.83	63501.07
546.00	63224.89
546.16	62866.79
546.33	62817.64
546.50	62944.03
546.67	63255.32
546.83	62958.07
547.00	62880.83
547.17	62377.62
547.34	61815.89
547.50	61762.06
547.67	62094.41
547.84	62316.76
548.00	62695.93
548.17	62941.69
548.34	62855.09
548.51	62969.77
548.67	62887.85
548.84	63035.31
549.01	63068.08
549.18	62962.75
549.34	62906.58
549.51	62831.68
549.68	62756.78
549.84	62485.28
550.01	62482.94
550.18	62326.13
550.34	62464.22
550.51	62618.69
550.68	62562.52
550.84	62120.16
551.01	62148.24
551.18	62319.10
551.34	62433.79
551.51	62756.78
551.68	62843.38
551.84	62922.96
552.01	62759.12
552.18	62836.36
552.34	62071.01
552.51	61656.73
552.68	61654.39
552.84	62071.01
553.01	62042.92
553.18	62237.19
553.34	62321.44
553.51	62375.28
553.67	62581.24
553.84	62812.96
554.01	62599.97
554.17	62426.77
554.34	62433.79
554.51	62583.58
554.67	62726.36
554.84	62841.04
555.00	62419.75
555.17	62241.87
555.33	62164.63
555.50	62089.73
555.67	62319.10
555.83	61986.75
556.00	61874.40
556.16	61902.49
556.33	61483.53
556.50	61420.34
556.66	61190.97
556.83	61366.51
556.99	61244.80
557.16	61350.12
557.32	61682.48
557.49	61806.53
557.65	61778.44
557.82	61745.67
557.98	61535.02
558.15	61181.60
558.32	60664.35
558.48	59831.11
558.65	59861.54
558.81	60282.84
558.98	60669.03
559.14	60636.26
559.31	60853.93
559.47	60863.29
559.64	60458.38
559.80	60306.24
559.97	60039.42
560.13	60568.38
560.30	61420.34
560.46	61829.93
560.63	62024.20
560.79	62218.46
560.96	61584.18
561.12	60729.88
561.29	60116.66
561.45	60135.38
561.61	60626.90
561.78	61064.58
561.94	60839.89
562.11	60779.03
562.27	60725.20
562.44	60891.38
562.60	61228.41
562.77	61403.95
562.93	61312.67
563.10	61118.41
563.26	60664.35
563.42	60825.84
563.59	60512.21
563.75	60563.70
563.92	60587.11
564.08	60451.36
564.24	60734.56
564.41	60853.93
564.57	60465.40
564.74	60423.27
564.90	60420.93
565.07	60458.38
565.23	59739.83
565.39	59536.21
565.56	59379.39
565.72	59112.57
565.88	59571.32
566.05	59774.94
566.21	59749.20
566.38	59999.63
566.54	59943.46
566.70	60392.84
566.87	60486.46
567.03	60329.65
567.19	60741.58
567.36	60594.13
567.52	60198.58
567.68	60116.66
567.85	59501.10
568.01	59199.17
568.17	59047.04
568.34	58820.00
568.50	58850.43
568.66	58925.33
568.83	59271.73
568.99	59451.95
569.15	59655.57
569.32	59519.82
569.48	59316.20
569.64	59227.26
569.81	58932.35
569.97	58883.20
570.13	59065.76
570.30	58497.01
570.46	58277.00
570.62	57701.23
570.78	57670.80
570.95	57635.69
571.11	58403.39
571.27	58550.84
571.43	58843.41
571.60	59075.12
571.76	58913.62
571.92	59330.24
572.09	59519.82
572.25	59540.89
572.41	59442.59
572.57	59496.42
572.74	59119.59
572.90	58791.92
573.06	59110.23
573.22	58976.82
573.38	59007.25
573.55	58908.94
573.71	59187.47
573.87	59098.53
574.03	58534.46
574.20	58714.68
574.36	58688.93
574.52	58515.73
574.68	58340.19
574.84	58115.50
575.01	57638.03
575.17	57762.08
575.33	57932.94
575.49	58082.73
575.65	58220.83
575.82	57954.00
575.98	57741.02
576.14	58089.76
576.30	58124.86
576.46	58244.23
576.62	58330.83
576.79	58394.03
576.95	57949.32
577.11	57911.88
577.27	58171.67
577.43	58176.36
577.59	57523.35
577.75	57247.16
577.92	56683.09
578.08	56779.06
578.24	56638.62
578.40	57036.51
578.56	57080.98
578.72	57183.97
578.88	57432.07
579.04	57406.32
579.21	57581.86
579.37	57661.44
579.53	57602.92
579.69	57605.26
579.85	57979.75
580.01	57731.65
580.17	57088.01
580.33	57066.94
580.49	57165.24
580.65	57546.75
580.82	57687.18
580.98	57598.24
581.14	57528.03
581.30	57666.12
581.46	57216.74
581.62	57757.40
581.78	57923.58
581.94	57806.55
582.10	57759.74
582.26	57778.46
582.42	57855.70
582.58	57977.41
582.74	57535.05
582.90	57865.06
583.06	57783.15
583.22	57698.89
583.38	57394.62
583.54	57495.26
583.70	57352.49
583.86	57284.61
584.02	57169.93
584.18	57675.48
584.34	57247.16
584.50	57209.71
584.66	56949.92
584.82	56952.26
584.98	56809.48
585.14	56650.33
