SpectraSuite Data File
++++++++++++++++++++++++++++++++++++
Date: Mon Oct 07 14:54:55 GMT-05:00 2013
User: price-jones
Dark Spectrum Present: No
Reference Spectrum Present: No
Number of Sampled Component Spectra: 1
Spectrometers: USB2+H05261
Integration Time (usec): 10000 (USB2+H05261)
Spectra Averaged: 1 (USB2+H05261)
Boxcar Smoothing: 0 (USB2+H05261)
Correct for Electrical Dark: No (USB2+H05261)
Strobe/Lamp Enabled: No (USB2+H05261)
Correct for Detector Non-linearity: No (USB2+H05261)
Correct for Stray Light: No (USB2+H05261)
Number of Pixels in Processed Spectrum: 2048
>>>>>Begin Processed Spectral Data<<<<<
365.73	0.00
365.92	0.00
366.12	0.00
366.32	0.00
366.52	0.00
366.72	0.00
366.91	0.00
367.11	0.00
367.31	0.00
367.51	0.00
367.70	0.00
367.90	0.00
368.10	0.00
368.30	0.00
368.49	0.00
368.69	0.00
368.89	0.00
369.09	0.00
369.28	0.00
369.48	0.00
369.68	0.00
369.87	0.00
370.07	0.00
370.27	0.00
370.47	0.00
370.66	0.00
370.86	0.00
371.06	0.00
371.25	0.00
371.45	0.00
371.65	14.04
371.84	0.00
372.04	0.00
372.24	72.56
372.44	67.88
372.63	53.83
372.83	21.06
373.03	0.00
373.22	0.00
373.42	0.00
373.62	58.51
373.81	0.00
374.01	21.06
374.21	0.00
374.40	42.13
374.60	0.00
374.79	72.56
374.99	147.45
375.19	135.75
375.38	60.85
375.58	145.11
375.78	79.58
375.97	91.28
376.17	135.75
376.37	70.22
376.56	128.73
376.76	173.20
376.95	187.24
377.15	163.84
377.35	187.24
377.54	205.97
377.74	227.03
377.93	266.82
378.13	227.03
378.33	149.79
378.52	159.16
378.72	117.03
378.91	131.07
379.11	117.03
379.31	166.18
379.50	119.37
379.70	93.62
379.89	184.90
380.09	180.22
380.28	210.65
380.48	163.84
380.68	201.29
380.87	201.29
381.07	84.26
381.26	126.39
381.46	154.48
381.65	81.92
381.85	77.24
382.04	133.41
382.24	4.68
382.43	37.45
382.63	110.01
382.83	44.47
383.02	9.36
383.22	84.26
383.41	63.19
383.61	0.00
383.80	159.16
384.00	154.48
384.19	201.29
384.39	205.97
384.58	203.63
384.78	191.92
384.97	98.30
385.17	133.41
385.36	168.52
385.56	37.45
385.75	93.62
385.95	184.90
386.14	205.97
386.34	252.78
386.53	163.84
386.72	161.50
386.92	154.48
387.11	152.13
387.31	205.97
387.50	227.03
387.70	215.33
387.89	189.58
388.09	262.14
388.28	145.11
388.48	189.58
388.67	234.05
388.86	367.46
389.06	372.15
389.25	353.42
389.45	351.08
389.64	355.76
389.84	313.63
390.03	294.91
390.22	404.91
390.42	304.27
390.61	428.32
390.81	435.34
391.00	489.17
391.19	451.72
391.39	442.36
391.58	477.47
391.78	353.42
391.97	280.86
392.16	292.57
392.36	238.73
392.55	121.71
392.75	0.00
392.94	0.00
393.13	0.00
393.33	39.79
393.52	170.86
393.71	196.60
393.91	208.31
394.10	308.95
394.29	297.25
394.49	442.36
394.68	376.83
394.88	503.22
395.07	517.26
395.26	449.38
395.46	465.77
395.65	465.77
395.84	388.53
396.04	346.40
396.23	140.43
396.42	107.66
396.62	46.81
396.81	128.73
397.00	294.91
397.19	365.12
397.39	479.81
397.58	519.60
397.77	524.28
397.97	587.47
398.16	706.84
398.35	660.03
398.55	732.59
398.74	840.25
398.93	723.23
399.12	699.82
399.32	760.67
399.51	791.10
399.70	772.38
399.90	737.27
400.09	809.83
400.28	669.39
400.47	821.53
400.67	882.38
400.86	833.23
401.05	882.38
401.24	924.51
401.44	915.15
401.63	919.83
401.82	842.59
402.01	917.49
402.21	957.28
402.40	856.64
402.59	978.34
402.78	837.91
402.97	744.29
403.17	873.02
403.36	884.72
403.55	950.26
403.74	983.02
403.93	887.06
404.13	901.11
404.32	819.19
404.51	828.55
404.70	929.19
404.89	903.45
405.09	931.53
405.28	901.11
405.47	772.38
405.66	840.25
405.85	868.34
406.05	793.44
406.24	844.93
406.43	933.87
406.62	903.45
406.81	1027.50
407.00	795.78
407.20	786.42
407.39	887.06
407.58	849.61
407.77	987.71
407.96	992.39
408.15	901.11
408.34	994.73
408.54	1006.43
408.73	1100.05
408.92	1071.97
409.11	933.87
409.30	987.71
409.49	919.83
409.68	741.95
409.87	851.96
410.07	805.14
410.26	940.90
410.45	1095.37
410.64	1048.56
410.83	1095.37
411.02	1074.31
411.21	1123.46
411.40	1050.90
411.59	1088.35
411.78	1128.14
411.98	1008.77
412.17	1088.35
412.36	1196.01
412.55	1128.14
412.74	1151.54
412.93	1167.93
413.12	1086.01
413.31	1200.69
413.50	1196.01
413.69	1188.99
413.88	1144.52
414.07	1160.91
414.26	1132.82
414.45	1210.06
414.64	1217.08
414.83	1254.53
415.02	1118.78
415.22	1212.40
415.41	1165.59
415.60	1149.20
415.79	1320.06
415.98	1284.95
416.17	1401.98
416.36	1390.28
416.55	1219.42
416.74	1219.42
416.93	1146.86
417.12	1186.65
417.31	1261.55
417.50	1198.35
417.69	1266.23
417.88	1357.51
418.07	1191.33
418.26	1277.93
418.45	1254.53
418.64	1310.70
418.83	1331.76
419.02	1324.74
419.21	1348.15
419.39	1317.72
419.58	1144.52
419.77	1186.65
419.96	1205.38
420.15	1404.32
420.34	1366.87
420.53	1465.18
420.72	1465.18
420.91	1373.89
421.10	1547.09
421.29	1448.79
421.48	1378.58
421.67	1497.94
421.86	1329.42
422.05	1287.29
422.24	1167.93
422.43	1114.10
422.61	1266.23
422.80	1296.66
422.99	1348.15
423.18	1256.87
423.37	1280.27
423.56	1313.04
423.75	1348.15
423.94	1263.89
424.13	1301.34
424.32	1277.93
424.50	1160.91
424.69	1188.99
424.88	1270.91
425.07	1240.48
425.26	1266.23
425.45	1322.40
425.64	1210.06
425.83	1193.67
426.01	1205.38
426.20	1313.04
426.39	1350.49
426.58	1210.06
426.77	1114.10
426.96	1057.92
427.15	1177.29
427.33	1291.98
427.52	1172.61
427.71	1327.08
427.90	1207.72
428.09	1212.40
428.28	1259.21
428.46	1153.88
428.65	1146.86
428.84	1196.01
429.03	1172.61
429.22	1086.01
429.40	1116.44
429.59	924.51
429.78	753.65
429.97	786.42
430.16	863.66
430.34	746.63
430.53	842.59
430.72	847.27
430.91	868.34
431.10	1186.65
431.28	1327.08
431.47	1614.97
431.66	1474.54
431.85	1341.13
432.03	1181.97
432.22	1214.74
432.41	1125.80
432.60	1266.23
432.79	1488.58
432.97	1490.92
433.16	1509.65
433.35	1259.21
433.54	1200.69
433.72	1142.18
433.91	1025.15
434.10	1165.59
434.28	1301.34
434.47	1448.79
434.66	1427.73
434.85	1432.41
435.03	1425.39
435.22	1362.19
435.41	1619.65
435.59	1458.15
435.78	1586.88
435.97	1572.84
436.16	1547.09
436.34	1584.54
436.53	1479.22
436.72	1596.25
436.90	1493.26
437.09	1469.86
437.28	1434.75
437.46	1394.96
437.65	1448.79
437.84	1387.94
438.02	1186.65
438.21	1123.46
438.40	1299.00
438.58	1409.00
438.77	1446.45
438.96	1533.05
439.14	1593.90
439.33	1582.20
439.52	1582.20
439.70	1603.27
439.89	1474.54
440.08	1582.20
440.26	1385.60
440.45	1535.39
440.63	1631.35
440.82	1724.97
441.01	1659.44
441.19	1771.79
441.38	1582.20
441.57	1746.04
441.75	1762.42
441.94	1806.89
442.12	1713.27
442.31	1825.62
442.50	1872.43
442.68	1886.47
442.87	1790.51
443.05	1701.57
443.24	1694.55
443.43	1874.77
443.61	1923.92
443.80	1804.55
443.98	1750.72
444.17	1713.27
444.35	1741.36
444.54	1987.11
444.73	1860.73
444.91	1795.19
445.10	1724.97
445.28	1643.06
445.47	1631.35
445.65	1619.65
445.84	1631.35
446.02	1746.04
446.21	1762.42
446.39	1802.21
446.58	1750.72
446.77	1846.68
446.95	1778.81
447.14	1902.86
447.32	1975.41
447.51	1909.88
447.69	1853.70
447.88	1776.47
448.06	1795.19
448.25	1778.81
448.43	1900.52
448.62	1898.17
448.80	1905.20
448.99	1853.70
449.17	1905.20
449.36	1851.36
449.54	1874.77
449.73	1872.43
449.91	1956.69
450.10	2064.35
450.28	1966.05
450.46	2047.97
450.65	2141.59
450.83	1968.39
451.02	1909.88
451.20	1940.30
451.39	1982.43
451.57	1977.75
451.76	1937.96
451.94	2015.20
452.13	1900.52
452.31	1739.02
452.49	1710.93
452.68	1666.46
452.86	1666.46
453.05	1891.15
453.23	1746.04
453.42	1921.58
453.60	1877.11
453.78	1788.17
453.97	1947.33
454.15	1914.56
454.34	1912.22
454.52	1898.17
454.70	1790.51
454.89	1823.28
455.07	1954.35
455.26	1842.00
455.44	1933.28
455.62	2062.01
455.81	1949.67
455.99	2022.22
456.17	2019.88
456.36	1863.07
456.54	2092.44
456.73	1968.39
456.91	2101.80
457.09	2050.31
457.28	2066.69
457.46	2092.44
457.64	2026.90
457.83	1977.75
458.01	1966.05
458.19	2064.35
458.38	1984.77
458.56	2094.78
458.74	2064.35
458.93	1944.99
459.11	1961.37
459.29	1914.56
459.48	1891.15
459.66	2017.54
459.84	2040.95
460.03	1914.56
460.21	2143.93
460.39	2085.42
460.57	2148.61
460.76	2005.84
460.94	2148.61
461.12	2033.93
461.31	2064.35
461.49	2080.74
461.67	2094.78
461.85	2251.60
462.04	2094.78
462.22	2132.23
462.40	2146.27
462.59	2092.44
462.77	2097.12
462.95	2139.25
463.13	2120.53
463.32	2066.69
463.50	2017.54
463.68	2069.03
463.86	2153.29
464.05	2005.84
464.23	1937.96
464.41	1858.39
464.59	1935.62
464.78	2214.15
464.96	2108.82
465.14	1867.75
465.32	2066.69
465.50	2195.42
465.69	2190.74
465.87	2069.03
466.05	2022.22
466.23	1853.70
466.41	1809.23
466.60	1947.33
466.78	1877.11
466.96	2017.54
467.14	1989.46
467.32	2062.01
467.51	1989.46
467.69	1987.11
467.87	2031.58
468.05	2076.06
468.23	2087.76
468.41	2019.88
468.60	2003.50
468.78	2108.82
468.96	1994.14
469.14	2090.10
469.32	1980.09
469.50	1919.24
469.69	1926.26
469.87	1912.22
470.05	1891.15
470.23	1919.24
470.41	1884.13
470.59	2050.31
470.77	2001.16
470.95	1923.92
471.14	2036.27
471.32	2108.82
471.50	2150.95
471.68	2235.21
471.86	2150.95
472.04	2097.12
472.22	2328.83
472.40	2146.27
472.58	2141.59
472.77	2064.35
472.95	2073.71
473.13	2080.74
473.31	2106.48
473.49	2062.01
473.67	2153.29
473.85	2139.25
474.03	2235.21
474.21	2087.76
474.39	2293.72
474.57	2345.22
474.75	2190.74
474.93	2286.70
475.12	2181.38
475.30	2181.38
475.48	2286.70
475.66	2225.85
475.84	2085.42
476.02	2153.29
476.20	2132.23
476.38	2099.46
476.56	2373.30
476.74	2265.64
476.92	2249.25
477.10	2319.47
477.28	2392.03
477.46	2361.60
477.64	2450.54
477.82	2422.45
478.00	2424.80
478.18	2473.95
478.36	2291.38
478.54	2420.11
478.72	2401.39
478.90	2455.22
479.08	2562.89
479.26	2427.14
479.44	2597.99
479.62	2579.27
479.80	2693.96
479.98	2663.53
480.16	2661.19
480.34	2661.19
480.52	2644.81
480.70	2555.86
480.88	2586.29
481.06	2668.21
481.24	2677.57
481.41	2733.75
481.59	2794.60
481.77	2731.41
481.95	2698.64
482.13	2736.09
482.31	2827.37
482.49	2820.35
482.67	2773.53
482.85	2736.09
483.03	2874.18
483.21	2892.90
483.39	2801.62
483.57	2836.73
483.74	2810.98
483.92	2750.13
484.10	2743.11
484.28	2916.31
484.46	3066.10
484.64	3112.91
484.82	2902.26
485.00	2939.71
485.18	2759.49
485.35	2693.96
485.53	2424.80
485.71	2237.55
485.89	2169.68
486.07	2256.28
486.25	2422.45
486.43	2700.98
486.61	2806.30
486.78	2740.77
486.96	2752.47
487.14	2848.43
487.32	2972.48
487.50	3138.66
487.68	3124.62
487.85	3108.23
488.03	3030.99
488.21	3084.83
488.39	3183.13
488.57	2932.69
488.75	2949.08
488.92	3124.62
489.10	3332.92
489.28	3524.85
489.46	3496.76
489.64	3442.93
489.81	3407.82
489.99	3433.57
490.17	3421.86
490.35	3503.78
490.53	3494.42
490.70	3351.65
490.88	3419.52
491.06	3417.18
491.24	3468.67
491.41	3456.97
491.59	3208.87
491.77	3293.13
491.95	3246.32
492.13	3445.27
492.30	3475.70
492.48	3524.85
492.66	3576.34
492.84	3616.13
493.01	3555.27
493.19	3552.93
493.37	3496.76
493.54	3534.21
493.72	3571.66
493.90	3744.86
494.08	3763.58
494.25	3716.77
494.43	3721.45
494.61	3878.27
494.79	3922.74
494.96	4037.42
495.14	3833.80
495.32	3531.87
495.49	3548.25
495.67	3667.62
495.85	3887.63
496.02	3999.98
496.20	3999.98
496.38	3892.31
496.55	3808.05
496.73	3920.40
496.91	3978.91
497.09	4037.42
497.26	4065.51
497.44	3955.51
497.62	3915.72
497.79	3847.84
497.97	3728.47
498.14	3641.87
498.32	3801.03
498.50	3838.48
498.67	4128.70
498.85	4072.53
499.03	3943.80
499.20	4032.74
499.38	4032.74
499.56	3992.95
499.73	3836.14
499.91	3953.16
500.08	3761.24
500.26	3707.41
500.44	3927.42
500.61	3950.82
500.79	3852.52
500.97	3829.12
501.14	3693.37
501.32	3641.87
501.49	3803.37
501.67	3758.90
501.84	3854.86
502.02	3999.98
502.20	3899.33
502.37	3899.33
502.55	3971.89
502.72	3985.93
502.90	4133.39
503.07	4126.36
503.25	3983.59
503.43	3847.84
503.60	3681.66
503.78	3646.55
503.95	3691.02
504.13	3894.65
504.30	4119.34
504.48	4065.51
504.65	4117.00
504.83	3892.31
505.01	4067.85
505.18	4060.83
505.36	4264.46
505.53	4156.79
505.71	4327.65
505.88	4215.30
506.06	4065.51
506.23	4093.60
506.41	3985.93
506.58	3995.29
506.76	4086.58
506.93	3999.98
507.11	4128.70
507.28	4222.33
507.46	3777.62
507.63	3943.80
507.81	3941.46
507.98	3913.38
508.16	4046.79
508.33	4074.87
508.50	4219.99
508.68	4241.05
508.85	4269.14
509.03	4231.69
509.20	4313.61
509.38	4203.60
509.55	3964.87
509.73	4091.26
509.90	4161.47
510.08	4112.32
510.25	4140.41
510.42	3983.59
510.60	4077.21
510.77	4114.66
510.95	4121.68
511.12	4208.28
511.30	4250.41
511.47	4241.05
511.64	4245.73
511.82	4287.86
511.99	4189.56
512.17	4081.89
512.34	3948.48
512.51	4131.05
512.69	4074.87
512.86	4070.19
513.04	4173.18
513.21	4124.02
513.38	4140.41
513.56	4065.51
513.73	3885.29
513.90	3922.74
514.08	3971.89
514.25	3969.55
514.43	3985.93
514.60	4025.72
514.77	3866.56
514.95	4100.62
515.12	3999.98
515.29	4077.21
515.47	4135.73
515.64	4283.18
515.81	4049.13
515.99	4030.40
516.16	3957.85
516.33	3620.81
516.51	3351.65
516.68	3302.50
516.85	3265.05
517.03	3318.88
517.20	3501.44
517.37	3796.35
517.54	4231.69
517.72	4023.38
517.89	3576.34
518.06	3328.24
518.24	3349.31
518.41	3651.24
518.58	3777.62
518.75	3868.91
518.93	3808.05
519.10	3761.24
519.27	3969.55
519.45	3969.55
519.62	4035.08
519.79	4131.05
519.96	4049.13
520.14	4025.72
520.31	3852.52
520.48	3908.69
520.65	4002.32
520.83	4114.66
521.00	4074.87
521.17	4046.79
521.34	4046.79
521.52	4156.79
521.69	4444.68
521.86	4269.14
522.03	4203.60
522.20	3981.25
522.38	3882.95
522.55	3819.75
522.72	3932.10
522.89	3920.40
523.07	4119.34
523.24	4044.45
523.41	4194.24
523.58	4180.20
523.75	4205.94
523.92	4227.01
524.10	4184.88
524.27	4322.97
524.44	4236.37
524.61	4175.52
524.78	4086.58
524.96	4086.58
525.13	4133.39
525.30	4283.18
525.47	4329.99
525.64	4280.84
525.81	4250.41
525.98	3920.40
526.16	3686.34
526.33	3583.36
526.50	3590.38
526.67	3510.80
526.84	3620.81
527.01	3702.73
527.18	3840.82
527.36	4002.32
527.53	4159.13
527.70	4301.90
527.87	3992.95
528.04	3896.99
528.21	4011.68
528.38	4161.47
528.55	4273.82
528.72	4234.03
528.89	4241.05
529.07	4400.21
529.24	4355.74
529.41	4112.32
529.58	4004.66
529.75	3936.78
529.92	3988.27
530.09	4095.94
530.26	4191.90
530.43	4170.83
530.60	4210.62
530.77	4306.59
530.94	4393.19
531.11	4156.79
531.28	4212.96
531.46	4095.94
531.63	4283.18
531.80	4156.79
531.97	4212.96
532.14	4035.08
532.31	3969.55
532.48	3693.37
532.65	3695.71
532.82	3836.14
532.99	3833.80
533.16	3939.12
533.33	3887.63
533.50	4079.55
533.67	4105.30
533.84	3936.78
534.01	3887.63
534.18	4105.30
534.35	3988.27
534.52	3985.93
534.69	4095.94
534.86	4065.51
535.03	4161.47
535.20	4205.94
535.37	4381.48
535.54	4252.75
535.71	4245.73
535.88	4126.36
536.05	4107.64
536.22	4107.64
536.38	3976.57
536.55	3889.97
536.72	3777.62
536.89	3765.92
537.06	3971.89
537.23	4117.00
537.40	4175.52
537.57	4201.26
537.74	4014.02
537.91	4049.13
538.08	4028.06
538.25	4091.26
538.42	3995.29
538.59	4102.96
538.75	4063.17
538.92	3957.85
539.09	3836.14
539.26	3887.63
539.43	3789.33
539.60	3681.66
539.77	3866.56
539.94	3775.28
540.11	3623.15
540.28	3716.77
540.44	3655.92
540.61	3688.68
540.78	3637.19
540.95	3733.15
541.12	3747.20
541.29	3845.50
541.46	4004.66
541.62	4035.08
541.79	4030.40
541.96	3847.84
542.13	3803.37
542.30	3831.46
542.47	3854.86
542.63	3791.67
542.80	3894.65
542.97	3768.26
543.14	3932.10
543.31	3754.22
543.48	3789.33
543.64	4182.54
543.81	3906.35
543.98	4021.04
544.15	3868.91
544.32	3943.80
544.48	3836.14
544.65	3927.42
544.82	4042.11
544.99	3946.14
545.16	3878.27
545.32	3641.87
545.49	3878.27
545.66	4077.21
545.83	4077.21
546.00	3845.50
546.16	3861.88
546.33	3882.95
546.50	3779.97
546.67	3904.01
546.83	3901.67
547.00	3878.27
547.17	3639.53
547.34	3761.24
547.50	3648.90
547.67	3777.62
547.84	3885.29
548.00	3754.22
548.17	3838.48
548.34	3873.59
548.51	3854.86
548.67	3843.16
548.84	3812.73
549.01	3871.25
549.18	3702.73
549.34	3730.81
549.51	3754.22
549.68	3939.12
549.84	3782.31
550.01	3688.68
550.18	3728.47
550.34	3691.02
550.51	3691.02
550.68	3777.62
550.84	3609.11
551.01	3707.41
551.18	3583.36
551.34	3754.22
551.51	3852.52
551.68	3772.94
551.84	3822.09
552.01	3840.82
552.18	3854.86
552.34	3646.55
552.51	3719.11
552.68	3681.66
552.84	3770.60
553.01	3749.54
553.18	3749.54
553.34	3740.18
553.51	3576.34
553.67	3662.94
553.84	3702.73
554.01	3742.52
554.17	3695.71
554.34	3529.53
554.51	3712.09
554.67	3812.73
554.84	3864.22
555.00	3763.58
555.17	3803.37
555.33	3606.77
555.50	3613.79
555.67	3779.97
555.83	3639.53
556.00	3667.62
556.16	3578.68
556.33	3637.19
556.50	3623.15
556.66	3571.66
556.83	3571.66
556.99	3501.44
557.16	3576.34
557.32	3541.23
557.49	3618.47
557.65	3611.45
557.82	3665.28
557.98	3686.34
558.15	3496.76
558.32	3279.09
558.48	3241.64
558.65	3353.99
558.81	3412.50
558.98	3440.59
559.14	3487.40
559.31	3571.66
559.47	3438.25
559.64	3393.78
559.80	3398.46
559.97	3243.98
560.13	3382.07
560.30	3435.91
560.46	3538.89
560.63	3529.53
560.79	3585.70
560.96	3646.55
561.12	3353.99
561.29	3185.47
561.45	3365.69
561.61	3412.50
561.78	3358.67
561.94	3520.17
562.11	3405.48
562.27	3489.74
562.44	3492.08
562.60	3431.23
562.77	3494.42
562.93	3555.27
563.10	3466.33
563.26	3400.80
563.42	3428.88
563.59	3426.54
563.75	3375.05
563.92	3379.73
564.08	3321.22
564.24	3473.36
564.41	3295.47
564.57	3478.04
564.74	3361.01
564.90	3328.24
565.07	3293.13
565.23	3330.58
565.39	3265.05
565.56	3307.18
565.72	3171.43
565.88	3080.14
566.05	3206.53
566.21	3274.41
566.38	3201.85
566.54	3358.67
566.70	3342.28
566.87	3295.47
567.03	3288.45
567.19	3356.33
567.36	3283.77
567.52	3239.30
567.68	3180.79
567.85	3213.56
568.01	3159.72
568.17	3152.70
568.34	3145.68
568.50	3241.64
568.66	3131.64
568.83	3283.77
568.99	3108.23
569.15	3190.15
569.32	3218.24
569.48	3138.66
569.64	3045.04
569.81	3094.19
569.97	2993.55
570.13	3035.67
570.30	3126.96
570.46	2946.73
570.62	3028.65
570.78	2988.86
570.95	3042.70
571.11	3066.10
571.27	3089.51
571.43	3045.04
571.60	3162.06
571.76	3133.98
571.92	3101.21
572.09	3204.19
572.25	3265.05
572.41	3159.72
572.57	3213.56
572.74	3227.60
572.90	3019.29
573.06	3108.23
573.22	3087.17
573.38	3190.15
573.55	3084.83
573.71	2946.73
573.87	3103.55
574.03	3084.83
574.20	3129.30
574.36	2979.50
574.52	3145.68
574.68	3052.06
574.84	2834.39
575.01	3049.72
575.17	2918.65
575.33	2892.90
575.49	2949.08
575.65	2876.52
575.82	2834.39
575.98	2981.84
576.14	3068.44
576.30	2972.48
576.46	2967.80
576.62	3131.64
576.79	2916.31
576.95	2930.35
577.11	2965.46
577.27	3016.95
577.43	2876.52
577.59	2949.08
577.75	2841.41
577.92	2782.90
578.08	2834.39
578.24	2832.05
578.40	2871.84
578.56	2895.24
578.72	2864.82
578.88	2944.39
579.04	2892.90
579.21	2904.60
579.37	3009.93
579.53	3119.93
579.69	2944.39
579.85	3007.59
580.01	2897.58
580.17	2874.18
580.33	2902.26
580.49	2803.96
580.65	3009.93
580.82	3019.29
580.98	2785.24
581.14	2839.07
581.30	2899.92
581.46	2958.44
581.62	3026.31
581.78	2937.37
581.94	2979.50
582.10	2986.52
582.26	2965.46
582.42	2956.10
582.58	3061.42
582.74	2857.79
582.90	3054.40
583.06	2942.05
583.22	2892.90
583.38	2827.37
583.54	2946.73
583.70	2963.12
583.86	2848.43
584.02	2963.12
584.18	2895.24
584.34	2878.86
584.50	2928.01
584.66	2860.13
584.82	2827.37
584.98	2782.90
585.14	2726.72
585.30	2827.37
585.46	2850.77
585.62	2754.81
585.78	2703.32
585.94	2771.19
586.10	2766.51
586.26	2661.19
586.42	2787.58
586.58	2796.94
586.74	2904.60
586.90	2675.23
587.06	2654.17
587.22	2789.92
587.38	2686.94
587.54	2677.57
587.70	2785.24
587.86	2637.78
588.02	2712.68
588.18	2712.68
588.34	2572.25
588.49	2406.07
588.65	2237.55
588.81	2310.11
588.97	2214.15
589.13	2272.66
589.29	2136.91
589.45	2272.66
589.61	2450.54
589.77	2525.44
589.93	2593.31
590.08	2560.55
590.24	2595.65
590.40	2663.53
590.56	2588.63
590.72	2581.61
590.88	2525.44
591.04	2389.69
591.20	2518.42
591.35	2462.24
591.51	2537.14
591.67	2382.67
591.83	2567.57
591.99	2502.03
592.15	2586.29
592.31	2485.65
592.46	2485.65
592.62	2621.40
592.78	2487.99
592.94	2520.76
593.10	2380.32
593.26	2551.18
593.41	2593.31
593.57	2593.31
593.73	2469.27
593.89	2455.22
594.05	2284.36
594.20	2448.20
594.36	2380.32
594.52	2413.09
594.68	2310.11
594.84	2502.03
594.99	2361.60
595.15	2562.89
595.31	2443.52
595.47	2345.22
595.62	2406.07
595.78	2520.76
595.94	2654.17
596.10	2457.56
596.25	2499.69
596.41	2445.86
596.57	2478.63
596.73	2497.35
596.88	2525.44
597.04	2399.05
597.20	2445.86
597.36	2312.45
597.51	2450.54
597.67	2375.64
597.83	2593.31
597.99	2499.69
598.14	2471.61
598.30	2319.47
598.46	2424.80
598.61	2422.45
598.77	2373.30
598.93	2420.11
599.09	2406.07
599.24	2445.86
599.40	2354.58
