SpectraSuite Data File
++++++++++++++++++++++++++++++++++++
Date: Mon Oct 07 14:53:51 GMT-05:00 2013
User: price-jones
Dark Spectrum Present: No
Reference Spectrum Present: No
Number of Sampled Component Spectra: 1
Spectrometers: USB2+H05261
Integration Time (usec): 100000 (USB2+H05261)
Spectra Averaged: 1 (USB2+H05261)
Boxcar Smoothing: 0 (USB2+H05261)
Correct for Electrical Dark: No (USB2+H05261)
Strobe/Lamp Enabled: No (USB2+H05261)
Correct for Detector Non-linearity: No (USB2+H05261)
Correct for Stray Light: No (USB2+H05261)
Number of Pixels in Processed Spectrum: 2048
>>>>>Begin Processed Spectral Data<<<<<
365.73	0.00
365.92	0.00
366.12	0.00
366.32	0.00
366.52	0.00
366.72	0.00
366.91	0.00
367.11	0.00
367.31	0.00
367.51	0.00
367.70	0.00
367.90	0.00
368.10	0.00
368.30	0.00
368.49	0.00
368.69	0.00
368.89	0.00
369.09	0.00
369.28	0.00
369.48	0.00
369.68	0.00
369.87	0.00
370.07	0.00
370.27	0.00
370.47	566.41
370.66	3084.83
370.86	3665.28
371.06	3868.91
371.25	4056.15
371.45	3449.95
371.65	3204.19
371.84	2974.82
372.04	3194.83
372.24	3620.81
372.44	3726.13
372.63	3676.98
372.83	3375.05
373.03	3103.55
373.22	2675.23
373.42	2925.67
373.62	3330.58
373.81	3707.41
374.01	3653.58
374.21	3246.32
374.40	3021.63
374.60	3131.64
374.79	3468.67
374.99	4095.94
375.19	4407.23
375.38	4634.26
375.58	4222.33
375.78	4119.34
375.97	4093.60
376.17	4308.93
376.37	4341.69
376.56	4657.67
376.76	4873.00
376.95	4940.87
377.15	5371.53
377.35	5598.56
377.54	5729.63
377.74	5930.92
377.93	6054.97
378.13	5870.06
378.33	5605.58
378.52	5109.39
378.72	4905.76
378.91	4692.77
379.11	4655.33
379.31	4503.19
379.50	4596.81
379.70	4938.53
379.89	5416.00
380.09	5645.37
380.28	5813.89
380.48	5839.64
380.68	5605.58
380.87	5607.92
381.07	5093.01
381.26	4727.88
381.46	4402.55
381.65	4344.03
381.85	4264.46
382.04	3887.63
382.24	3730.81
382.43	3588.04
382.63	3574.00
382.83	3538.89
383.02	3595.06
383.22	3496.76
383.41	3508.46
383.61	3737.84
383.80	4266.80
384.00	4870.65
384.19	5558.77
384.39	5792.83
384.58	5628.99
384.78	5675.80
384.97	5668.78
385.17	5322.38
385.36	5004.07
385.56	5015.77
385.75	4938.53
385.95	5537.71
386.14	6104.12
386.34	6031.56
386.53	5598.56
386.72	5446.43
386.92	5327.06
387.11	5664.10
387.31	6097.10
387.50	5935.60
387.70	5469.83
387.89	5547.07
388.09	5748.36
388.28	5717.93
388.48	5753.04
388.67	6092.41
388.86	6691.59
389.06	7089.48
389.25	7639.51
389.45	7903.99
389.64	7637.17
389.84	7634.83
390.03	7295.45
390.22	7414.82
390.42	7808.03
390.61	8259.75
390.81	8842.54
391.00	9027.45
391.19	8816.80
391.39	8627.21
391.58	7962.50
391.78	7714.41
391.97	7225.23
392.16	6857.77
392.36	6223.48
392.55	4858.95
392.75	4095.94
392.94	3328.24
393.13	3143.34
393.33	3723.79
393.52	4840.23
393.71	6167.31
393.91	6782.87
394.10	7197.15
394.29	7875.90
394.49	8788.71
394.68	9430.02
394.88	9294.27
395.07	9664.07
395.26	9521.30
395.46	9305.97
395.65	8823.82
395.84	7747.17
396.04	6642.44
396.23	5277.91
396.42	4327.65
396.62	4149.77
396.81	4959.60
397.00	6305.40
397.19	8002.29
397.39	9380.87
397.58	10558.16
397.77	11349.26
397.97	11604.38
398.16	11618.42
398.35	11920.35
398.55	12664.64
398.74	12917.42
398.93	13221.69
399.12	13427.65
399.32	12648.26
399.51	12840.18
399.70	13717.88
399.90	13888.74
400.09	13919.17
400.28	13514.25
400.47	13549.36
400.67	14464.51
400.86	14630.69
401.05	14633.03
401.24	14696.22
401.44	14930.28
401.63	15264.97
401.82	15180.71
402.01	15000.49
402.21	15147.95
402.40	15419.45
402.59	14986.45
402.78	14211.73
402.97	13699.16
403.17	14487.92
403.36	15147.95
403.55	15981.18
403.74	16037.35
403.93	15103.48
404.13	14115.77
404.32	13586.81
404.51	14469.19
404.70	15550.52
404.89	15480.30
405.09	15433.49
405.28	14883.47
405.47	14869.42
405.66	15021.56
405.85	14700.90
406.05	14263.22
406.24	14106.41
406.43	14874.10
406.62	15290.72
406.81	15730.74
407.00	14824.95
407.20	14590.90
407.39	14904.53
407.58	15587.97
407.77	15962.45
407.96	16390.77
408.15	16877.60
408.34	16875.26
408.54	17661.68
408.73	17628.92
408.92	17050.80
409.11	16957.18
409.30	16126.29
409.49	14951.34
409.68	14324.08
409.87	13661.71
410.07	14485.58
410.26	15655.84
410.45	16858.88
410.64	16795.68
410.83	17771.69
411.02	17977.65
411.21	18787.48
411.40	18621.30
411.59	18492.57
411.78	18410.65
411.98	18310.01
412.17	18462.15
412.36	18195.32
412.55	18321.71
412.74	18129.79
412.93	17322.30
413.12	17701.47
413.31	19484.96
413.50	19403.04
413.69	19985.83
413.88	19098.77
414.07	18637.69
414.26	18956.00
414.45	19470.92
414.64	19370.27
414.83	19601.99
415.02	19419.42
415.22	18944.30
415.41	19723.69
415.60	19920.30
415.79	20861.19
415.98	21249.72
416.17	21483.78
416.36	20709.06
416.55	20573.31
416.74	19978.81
416.93	19461.55
417.12	19253.25
417.31	19772.85
417.50	19906.26
417.69	20776.94
417.88	20386.07
418.07	20350.96
418.26	20353.30
418.45	20102.86
418.64	21139.72
418.83	21593.78
419.02	21291.85
419.21	21345.69
419.39	20247.97
419.58	19302.40
419.77	19421.77
419.96	20236.27
420.15	21132.70
420.34	22167.21
420.53	22429.35
420.72	22991.08
420.91	22890.44
421.10	22532.34
421.29	22478.50
421.48	21460.37
421.67	22696.17
421.86	22195.30
422.05	20545.22
422.24	18434.06
422.43	17961.27
422.61	20423.51
422.80	21844.22
422.99	22274.88
423.18	21202.91
423.37	20716.08
423.56	20783.96
423.75	20966.52
423.94	21425.26
424.13	20294.79
424.32	20774.60
424.50	20449.26
424.69	20313.51
424.88	20599.05
425.07	20496.07
425.26	20507.77
425.45	19974.13
425.64	19786.89
425.83	19962.43
426.01	20989.92
426.20	21432.29
426.39	21277.81
426.58	19744.76
426.77	18167.24
426.96	17727.22
427.15	18024.47
427.33	19697.95
427.52	20350.96
427.71	20643.52
427.90	20594.37
428.09	20065.41
428.28	19957.75
428.46	19026.21
428.65	19063.66
428.84	19332.82
429.03	19517.73
429.22	18443.42
429.40	17710.83
429.59	16086.50
429.78	14026.83
429.97	14160.24
430.16	14588.56
430.34	14616.65
430.53	14375.57
430.72	14672.82
430.91	16285.45
431.10	19260.27
431.28	22267.86
431.47	24474.98
431.66	24669.25
431.85	22824.90
432.03	20594.37
432.22	19562.20
432.41	20531.18
432.60	22913.84
432.79	23756.44
432.97	24147.31
433.16	23747.08
433.35	21488.46
433.54	19702.63
433.72	18251.50
433.91	18717.26
434.10	20957.16
434.28	22548.72
434.47	23557.49
434.66	23456.85
434.85	22927.89
435.03	22778.09
435.22	23307.05
435.41	24699.67
435.59	24610.73
435.78	24957.13
435.97	25474.39
436.16	26092.29
436.34	25378.43
436.53	24994.58
436.72	24959.47
436.90	23417.06
437.09	23714.31
437.28	22902.14
437.46	23960.06
437.65	23798.57
437.84	22331.05
438.02	20634.16
438.21	20290.10
438.40	21525.91
438.58	23424.08
438.77	23639.41
438.96	24037.30
439.14	24943.09
439.33	25577.37
439.52	26075.91
439.70	25348.00
439.89	24800.32
440.08	24313.48
440.26	24102.84
440.45	24961.81
440.63	26649.34
440.82	27789.18
441.01	27688.54
441.19	27175.96
441.38	27749.39
441.57	28755.82
441.75	28903.28
441.94	29549.26
442.12	28816.68
442.31	29666.29
442.50	29521.18
442.68	29010.94
442.87	29071.79
443.05	28421.13
443.24	28891.57
443.43	29567.99
443.61	29921.41
443.80	30759.32
443.98	28629.43
444.17	28755.82
444.35	30506.54
444.54	30754.64
444.73	30382.49
444.91	29097.54
445.10	28182.39
445.28	27295.33
445.47	26614.23
445.65	26735.94
445.84	27447.46
446.02	28524.11
446.21	28732.42
446.39	28706.67
446.58	29109.24
446.77	29589.05
446.95	29986.94
447.14	30504.20
447.32	31393.61
447.51	30656.34
447.69	29530.54
447.88	29252.02
448.06	29404.15
448.25	30185.89
448.43	30354.41
448.62	30078.22
448.80	29237.97
448.99	29879.28
449.17	30132.06
449.36	29764.59
449.54	30991.03
449.73	32016.19
449.91	31927.25
450.10	32802.61
450.28	32987.51
450.46	32821.33
450.65	33207.52
450.83	32620.05
451.02	32030.23
451.20	32091.09
451.39	31768.09
451.57	31709.58
451.76	31634.68
451.94	31700.22
452.13	31386.58
452.31	29778.64
452.49	28201.11
452.68	28238.56
452.86	28744.12
453.05	28996.90
453.23	29783.32
453.42	31211.04
453.60	31381.90
453.78	31527.02
453.97	31222.75
454.15	31342.11
454.34	30597.82
454.52	30581.44
454.70	29996.31
454.89	30361.43
455.07	30448.03
455.26	31056.57
455.44	31960.02
455.62	32833.04
455.81	33067.09
455.99	32921.98
456.17	32584.94
456.36	32510.04
456.54	33486.04
456.73	33230.93
456.91	33930.75
457.09	33879.25
457.28	34431.62
457.46	33352.63
457.64	33067.09
457.83	31931.93
458.01	31250.83
458.19	32025.55
458.38	32210.45
458.56	33441.57
458.74	33551.58
458.93	32416.42
459.11	32486.64
459.29	32474.93
459.48	32505.36
459.66	32421.10
459.84	32320.46
460.03	33020.28
460.21	32999.21
460.39	33780.95
460.57	33776.27
460.76	34518.22
460.94	34291.19
461.12	33928.41
461.31	34270.12
461.49	33649.88
461.67	33862.87
461.85	35335.07
462.04	35035.48
462.22	34873.98
462.40	34845.90
462.59	34373.11
462.77	34946.54
462.95	34911.43
463.13	34363.75
463.32	33841.81
463.50	33251.99
463.68	33832.44
463.86	34103.95
464.05	33633.50
464.23	32868.14
464.41	32641.11
464.59	32336.84
464.78	33787.97
464.96	33553.92
465.14	33434.55
465.32	34043.09
465.50	34712.49
465.69	35360.81
465.87	34300.55
466.05	33741.16
466.23	31929.59
466.41	31426.37
466.60	32423.44
466.78	32229.18
466.96	32556.85
467.14	33249.65
467.32	33795.00
467.51	33928.41
467.69	31964.70
467.87	32968.79
468.05	33717.76
468.23	33319.87
468.41	33472.00
468.60	33687.33
468.78	33954.15
468.96	33563.28
469.14	34213.95
469.32	34958.24
469.50	33240.29
469.69	33036.66
469.87	32673.88
470.05	32121.51
470.23	32488.98
470.41	32533.45
470.59	33188.80
470.77	33113.90
470.95	33635.84
471.14	34178.84
471.32	33970.54
471.50	35969.35
471.68	36332.14
471.86	36334.48
472.04	36685.56
472.22	36659.81
472.40	34998.03
472.58	35000.37
472.77	34319.28
472.95	35112.72
473.13	36545.12
473.31	35255.49
473.49	35257.83
473.67	36018.50
473.85	36313.41
474.03	37158.34
474.21	37106.85
474.39	37436.87
474.57	37663.90
474.75	38014.98
474.93	37266.01
475.12	36526.40
475.30	36690.24
475.48	36811.95
475.66	37420.48
475.84	36858.76
476.02	36446.82
476.20	35674.45
476.38	36730.03
476.56	38089.88
476.74	38124.99
476.92	38639.90
477.10	38965.24
477.28	39838.26
477.46	40339.13
477.64	40755.75
477.82	40854.05
478.00	40493.61
478.18	40467.86
478.36	40027.84
478.54	39899.11
478.72	40416.37
478.90	41296.41
479.08	42005.59
479.26	42693.71
479.44	42586.05
479.62	42518.17
479.80	42436.25
479.98	42473.70
480.16	42742.86
480.34	42438.59
480.52	43220.33
480.70	43220.33
480.88	42941.81
481.06	43622.90
481.24	44285.28
481.41	45069.36
481.59	45294.05
481.77	45509.38
481.95	44912.54
482.13	44636.36
482.31	44842.32
482.49	45687.26
482.67	45394.69
482.85	45532.78
483.03	45848.75
483.21	46623.47
483.39	46560.28
483.57	45848.75
483.74	45282.34
483.92	45610.02
484.10	45595.98
484.28	46899.65
484.46	47468.40
484.64	47531.60
484.82	46801.35
485.00	46075.79
485.18	45469.59
485.35	44406.98
485.53	41163.00
485.71	37890.93
485.89	36905.57
486.07	38590.75
486.25	42405.83
486.43	44385.92
486.61	45408.73
486.78	45249.58
486.96	45301.07
487.14	46974.55
487.32	47732.89
487.50	49036.56
487.68	49752.77
487.85	50279.39
488.03	50337.90
488.21	49675.53
488.39	49153.59
488.57	48360.15
488.75	48594.20
488.92	49261.26
489.10	51536.26
489.28	52612.90
489.46	53420.39
489.64	53396.98
489.81	53579.54
489.99	53024.84
490.17	53176.97
490.35	53450.81
490.53	52816.53
490.70	52739.29
490.88	52538.01
491.06	53427.41
491.24	53680.19
491.41	52423.32
491.59	51000.27
491.77	49743.41
491.95	50946.44
492.13	52341.40
492.30	53666.14
492.48	54309.79
492.66	54969.82
492.84	54684.28
493.01	54548.53
493.19	54003.18
493.37	53829.98
493.54	53682.53
493.72	54176.38
493.90	55009.61
494.08	56079.24
494.25	56168.18
494.43	56369.46
494.61	56460.74
494.79	56552.02
494.96	56285.20
495.14	55899.01
495.32	55068.12
495.49	54365.96
495.67	55318.56
495.85	56552.02
496.02	56910.13
496.20	56999.07
496.38	56420.95
496.55	56392.87
496.73	56912.47
496.91	56994.39
497.09	57684.84
497.26	57902.51
497.44	57284.61
497.62	56690.12
497.79	55660.28
497.97	54429.16
498.14	54852.80
498.32	55950.51
498.50	56865.66
498.67	57616.97
498.85	57446.11
499.03	57434.41
499.20	57726.97
499.38	57570.16
499.56	57509.30
499.73	57106.73
499.91	56435.00
500.08	56261.80
500.26	55538.57
500.44	55667.30
500.61	56605.86
500.79	56568.41
500.97	56055.83
501.14	55819.44
501.32	55576.02
501.49	55791.35
501.67	55884.97
501.84	56406.91
502.02	56807.14
502.20	56966.30
502.37	57125.46
502.55	57315.04
502.72	57726.97
502.90	57998.48
503.07	57874.43
503.25	57558.45
503.43	56786.08
503.60	56025.40
503.78	55620.49
503.95	55611.13
504.13	57097.37
504.30	57993.79
504.48	57902.51
504.65	57553.77
504.83	57518.67
505.01	58150.61
505.18	58356.58
505.36	59105.55
505.53	59068.10
505.71	59180.45
505.88	59250.66
506.06	58649.14
506.23	58555.52
506.41	57836.98
506.58	58295.72
506.76	58368.28
506.93	58340.19
507.11	58056.99
507.28	57883.79
507.46	57565.48
507.63	57160.56
507.81	56839.91
507.98	57130.14
508.16	57893.15
508.33	58557.86
508.50	58759.15
508.68	59117.25
508.85	59395.77
509.03	59316.20
509.20	59407.48
509.38	58578.93
509.55	57670.80
509.73	57935.28
509.90	58464.24
510.08	58569.57
510.25	58564.88
510.42	58543.82
510.60	58197.42
510.77	58588.29
510.95	59077.46
511.12	59407.48
511.30	59461.31
511.47	59688.34
511.64	59819.41
511.82	59468.33
511.99	58717.02
512.17	58384.66
512.34	57848.68
512.51	57989.11
512.69	58066.35
512.86	58225.51
513.04	58770.85
513.21	58599.99
513.38	58181.04
513.56	57860.38
513.73	57418.02
513.90	57394.62
514.08	57521.01
514.25	57939.96
514.43	58014.86
514.60	58155.29
514.77	58307.43
514.95	58342.53
515.12	58251.25
515.29	58529.78
515.47	58843.41
515.64	59175.76
515.81	58759.15
515.99	58365.94
516.16	56793.10
516.33	54600.02
516.51	53315.06
516.68	52353.10
516.85	51730.52
517.03	52500.56
517.20	54920.67
517.37	57418.02
517.54	58333.17
517.72	57841.66
517.89	55611.13
518.06	53308.04
518.24	53326.77
518.41	55753.90
518.58	57006.09
518.75	57176.95
518.93	57296.31
519.10	57137.16
519.27	57687.18
519.45	57844.00
519.62	58548.50
519.79	59018.95
519.96	58653.82
520.14	58372.96
520.31	57315.04
520.48	57521.01
520.65	57712.93
520.83	58702.98
521.00	59112.57
521.17	58681.91
521.34	58370.62
521.52	58590.63
521.69	59236.62
521.86	59458.97
522.03	59316.20
522.20	58192.74
522.38	57090.35
522.55	56952.26
522.72	57619.31
522.89	57696.55
523.07	58136.57
523.24	58454.88
523.41	59138.32
523.58	59414.50
523.75	59945.80
523.92	59470.67
524.10	59793.67
524.27	59796.01
524.44	59515.14
524.61	59552.59
524.78	59072.78
524.96	59105.55
525.13	59063.42
525.30	59260.02
525.47	59744.51
525.64	59711.75
525.81	58913.62
525.98	57616.97
526.16	56308.61
526.33	55487.08
526.50	55229.62
526.67	54677.25
526.84	55295.16
527.01	56376.48
527.18	57219.08
527.36	58211.46
527.53	58859.79
527.70	58969.80
527.87	58630.42
528.04	58166.99
528.21	58684.25
528.38	59276.41
528.55	59742.17
528.72	59910.69
528.89	60420.93
529.07	59962.18
529.24	59292.79
529.41	58674.89
529.58	58185.72
529.75	58185.72
529.92	58789.58
530.09	59047.04
530.26	59770.26
530.43	59898.99
530.60	59777.28
530.77	60282.84
530.94	60233.69
531.11	59580.68
531.28	59473.01
531.46	59077.46
531.63	59351.30
531.80	59245.98
531.97	58578.93
532.14	58136.57
532.31	57265.89
532.48	56596.49
532.65	56507.55
532.82	57190.99
532.99	58361.26
533.16	58728.72
533.33	59299.81
533.50	59103.21
533.67	58419.77
533.84	58064.01
534.01	58358.92
534.18	58199.76
534.35	58803.62
534.52	58518.07
534.69	58883.20
534.86	59250.66
535.03	59384.07
535.20	59814.73
535.37	60079.21
535.54	60289.86
535.71	59725.79
535.88	59573.66
536.05	58787.24
536.22	58419.77
536.38	58049.97
536.55	57509.30
536.72	57244.82
536.89	57097.37
537.06	57858.04
537.23	58843.41
537.40	59091.51
537.57	59089.16
537.74	58775.53
537.91	58946.39
538.08	58621.06
538.25	58665.53
538.42	58658.51
538.59	58899.58
538.75	58049.97
538.92	57825.28
539.09	57804.21
539.26	57357.17
539.43	57179.29
539.60	57198.01
539.77	57528.03
539.94	57371.21
540.11	56669.05
540.28	56182.22
540.44	56486.49
540.61	56626.92
540.78	56802.46
540.95	57373.55
541.12	57551.43
541.29	57818.25
541.46	58171.67
541.62	58328.49
541.79	58129.54
541.96	57394.62
542.13	57462.49
542.30	57939.96
542.47	57710.59
542.63	57719.95
542.80	57478.88
542.97	57614.63
543.14	57443.77
543.31	57506.96
543.48	58056.99
543.64	58838.73
543.81	59056.40
543.98	58834.05
544.15	58333.17
544.32	57750.38
544.48	57680.16
544.65	58087.42
544.82	58464.24
544.99	58117.84
545.16	57848.68
545.32	57616.97
545.49	58436.16
545.66	58731.06
545.83	58251.25
546.00	57918.90
546.16	57647.39
546.33	57741.02
546.50	57698.89
546.67	58284.02
546.83	57851.02
547.00	57750.38
547.17	57174.61
547.34	56587.13
547.50	56526.28
547.67	57029.49
547.84	57155.88
548.00	57319.72
548.17	57860.38
548.34	57822.93
548.51	57790.17
548.67	57867.40
548.84	57820.59
549.01	57804.21
549.18	57359.51
549.34	57378.23
549.51	57286.95
549.68	57764.42
549.84	57167.58
550.01	57153.54
550.18	57038.86
550.34	57038.86
550.51	57172.27
550.68	57354.83
550.84	56994.39
551.01	56994.39
551.18	56809.48
551.34	57013.11
551.51	57329.08
551.68	57736.34
551.84	57635.69
552.01	57558.45
552.18	57317.38
552.34	56800.12
552.51	56339.04
552.68	56023.06
552.84	56816.50
553.01	56858.63
553.18	56945.23
553.34	56949.92
553.51	56900.76
553.67	57560.79
553.84	57572.50
554.01	57242.48
554.17	57015.45
554.34	57071.62
554.51	57317.38
554.67	57600.58
554.84	57343.12
555.00	57097.37
555.17	56893.74
555.33	56860.97
555.50	56516.92
555.67	56849.27
555.83	56741.61
556.00	56423.29
556.16	56470.11
556.33	55884.97
556.50	55945.83
556.66	55821.78
556.83	55676.66
556.99	55615.81
557.16	55917.74
557.32	56357.76
557.49	56383.51
557.65	56353.08
557.82	56458.40
557.98	56177.54
558.15	55669.64
558.32	54681.94
558.48	53794.87
558.65	54394.05
558.81	54532.14
558.98	54803.64
559.14	55250.69
559.31	55484.74
559.47	55098.55
559.64	55009.61
559.80	54351.92
559.97	54522.78
560.13	54969.82
560.30	55915.40
560.46	56296.91
560.63	56652.67
560.79	56676.07
560.96	56126.05
561.12	55236.64
561.29	54244.26
561.45	54110.85
561.61	54899.61
561.78	55215.58
561.94	55309.20
562.11	55089.19
562.27	54890.24
562.44	55117.28
562.60	55667.30
562.77	55601.77
562.93	55646.24
563.10	55374.73
563.26	54864.50
563.42	54855.14
563.59	54513.42
563.75	54742.79
563.92	54639.81
564.08	54621.08
564.24	55114.94
564.41	54993.23
564.57	55030.68
564.74	54798.96
564.90	54609.38
565.07	54391.71
565.23	53841.68
565.39	53577.20
565.56	53495.28
565.72	53144.20
565.88	53593.59
566.05	53682.53
566.21	53956.37
566.38	54220.85
566.54	54202.13
566.70	54656.19
566.87	55014.29
567.03	54705.34
567.19	54798.96
567.36	54815.35
567.52	54490.01
567.68	54101.48
567.85	53389.96
568.01	53031.86
568.17	52884.40
568.34	53001.43
568.50	52657.37
568.66	52849.30
568.83	53497.62
568.99	53277.61
569.15	53504.65
569.32	53645.08
569.48	53277.61
569.64	53249.53
569.81	52875.04
569.97	52797.80
570.13	52786.10
570.30	52074.58
570.46	51782.01
570.62	51086.87
570.78	51040.06
570.95	51145.39
571.11	52107.35
571.27	52236.08
571.43	52388.21
571.60	52765.04
571.76	53064.63
571.92	53247.19
572.09	53511.67
572.25	53240.17
572.41	53532.73
572.57	53200.38
572.74	53228.46
572.90	52842.27
573.06	52949.94
573.22	52816.53
573.38	52942.92
573.55	52268.84
573.71	52776.74
573.87	52870.36
574.03	52601.20
574.20	52355.44
574.36	52343.74
574.52	52097.98
574.68	52292.25
574.84	51559.66
575.01	51264.75
575.17	51000.27
575.33	51175.81
575.49	51491.79
575.65	51922.44
575.82	51320.93
575.98	51133.68
576.14	51662.64
576.30	51753.93
576.46	51760.95
576.62	51664.99
576.79	51842.87
576.95	51351.35
577.11	51592.43
577.27	51334.97
577.43	51416.89
577.59	51227.31
577.75	50422.16
577.92	50003.20
578.08	49703.62
578.24	50012.57
578.40	50356.63
578.56	50447.91
578.72	50101.51
578.88	50543.87
579.04	50808.35
579.21	51098.58
579.37	50796.65
579.53	51030.70
579.69	51269.43
579.85	51302.20
580.01	51405.19
580.17	50539.19
580.33	50429.18
580.49	50508.76
580.65	50578.98
580.82	50923.04
580.98	51056.45
581.14	50916.01
581.30	51133.68
581.46	50714.73
581.62	51033.04
581.78	51133.68
581.94	51173.47
582.10	51070.49
582.26	51271.78
582.42	51370.08
582.58	51215.60
582.74	50913.67
582.90	51100.92
583.06	51023.68
583.22	50916.01
583.38	50806.01
583.54	50745.15
583.70	50670.26
583.86	50731.11
584.02	50611.74
584.18	50658.56
584.34	50550.89
584.50	50281.73
584.66	50216.19
584.82	49848.73
584.98	50007.89
585.14	49261.26
585.30	49027.20
