SpectraSuite Data File
++++++++++++++++++++++++++++++++++++
Date: Mon Oct 07 14:53:09 GMT-05:00 2013
User: price-jones
Dark Spectrum Present: No
Reference Spectrum Present: No
Number of Sampled Component Spectra: 1
Spectrometers: USB2+H05261
Integration Time (usec): 100000 (USB2+H05261)
Spectra Averaged: 1 (USB2+H05261)
Boxcar Smoothing: 0 (USB2+H05261)
Correct for Electrical Dark: No (USB2+H05261)
Strobe/Lamp Enabled: No (USB2+H05261)
Correct for Detector Non-linearity: No (USB2+H05261)
Correct for Stray Light: No (USB2+H05261)
Number of Pixels in Processed Spectrum: 2048
>>>>>Begin Processed Spectral Data<<<<<
365.73	0.00
365.92	0.00
366.12	0.00
366.32	0.00
366.52	0.00
366.72	0.00
366.91	0.00
367.11	0.00
367.31	0.00
367.51	0.00
367.70	0.00
367.90	0.00
368.10	0.00
368.30	0.00
368.49	0.00
368.69	0.00
368.89	0.00
369.09	0.00
369.28	0.00
369.48	0.00
369.68	0.00
369.87	0.00
370.07	0.00
370.27	0.00
370.47	1523.69
370.66	7014.59
370.86	8032.72
371.06	8571.04
371.25	8444.65
371.45	7655.89
371.65	7047.35
371.84	6609.67
372.04	7133.95
372.24	7852.50
372.44	8016.33
372.63	7716.75
372.83	7169.06
373.03	6441.15
373.22	6279.66
373.42	6480.94
373.62	7274.38
373.81	7808.03
374.01	7691.00
374.21	6920.96
374.40	6539.46
374.60	7063.74
374.79	8056.12
374.99	9252.14
375.19	9518.96
375.38	9579.81
375.58	8943.19
375.78	8872.97
375.97	9032.13
376.17	9207.67
376.37	9268.52
376.56	9738.97
376.76	10186.01
376.95	11014.56
377.15	11552.88
377.35	12077.16
377.54	12552.29
377.74	12664.64
377.93	12870.61
378.13	12386.12
378.33	11555.22
378.52	10808.59
378.72	10602.63
378.91	10202.40
379.11	9678.12
379.31	9628.96
379.50	9500.23
379.70	10476.24
379.89	11461.60
380.09	11967.16
380.28	12491.44
380.48	12435.27
380.68	12121.63
380.87	11611.40
381.07	10607.31
381.26	9767.06
381.46	9109.36
381.65	8990.00
381.85	8828.50
382.04	8306.56
382.24	7845.48
382.43	7407.80
382.63	7431.20
382.83	7325.88
383.02	7337.58
383.22	7536.52
383.41	7616.10
383.61	8257.41
383.80	9591.52
384.00	10565.18
384.19	11779.92
384.39	11843.11
384.58	12163.76
384.78	11857.15
384.97	11580.97
385.17	11157.33
385.36	10436.45
385.56	10263.25
385.75	10654.12
385.95	11686.29
386.14	12367.39
386.34	12430.59
386.53	11754.17
386.72	11140.95
386.92	11089.46
387.11	11950.78
387.31	12283.13
387.50	12119.29
387.70	11571.61
387.89	11466.28
388.09	11709.70
388.28	11782.26
388.48	12039.72
388.67	12863.58
388.86	14422.38
389.06	15166.67
389.25	15852.45
389.45	15889.90
389.64	15915.64
389.84	15597.33
390.03	15587.97
390.22	15676.91
390.42	16229.27
390.61	17198.26
390.81	18305.33
391.00	18242.14
391.19	18228.09
391.39	17399.54
391.58	16624.83
391.78	15618.39
391.97	15159.65
392.16	13809.16
392.36	12608.47
392.55	9640.67
392.75	7911.01
392.94	6920.96
393.13	6698.61
393.33	8315.92
393.52	10211.76
393.71	12519.53
393.91	14183.65
394.10	15433.49
394.29	16821.43
394.49	18160.22
394.68	19234.52
394.88	19466.24
395.07	20081.80
395.26	19651.14
395.46	18998.13
395.65	17678.07
395.84	15255.61
396.04	12779.32
396.23	10359.21
396.42	8835.52
396.62	8720.84
396.81	10551.14
397.00	13678.09
397.19	16774.62
397.39	19843.06
397.58	22122.74
397.77	23192.37
397.97	23843.04
398.16	24039.64
398.35	24950.11
398.55	25876.96
398.74	26899.78
398.93	27218.09
399.12	26696.15
399.32	26293.58
399.51	26934.88
399.70	28271.33
399.90	27889.82
400.09	27688.54
400.28	27264.90
400.47	27955.36
400.67	29177.12
400.86	29563.31
401.05	29406.49
401.24	29502.45
401.44	30335.68
401.63	29867.58
401.82	30375.47
402.01	30380.15
402.21	31014.44
402.40	30602.50
402.59	29680.33
402.78	28783.91
402.97	28121.54
403.17	29357.34
403.36	30719.53
403.55	31892.14
403.74	32896.23
403.93	30230.36
404.13	29041.37
404.32	28500.70
404.51	29757.57
404.70	31880.44
404.89	31725.96
405.09	30480.80
405.28	30115.67
405.47	30115.67
405.66	29979.92
405.85	29287.12
406.05	28692.63
406.24	29177.12
406.43	30197.59
406.62	31276.58
406.81	31248.49
407.00	30382.49
407.20	29359.68
407.39	29446.28
407.58	31388.92
407.77	32233.86
407.96	33376.04
408.15	33472.00
408.34	34120.33
408.54	35292.94
408.73	35695.51
408.92	34356.72
409.11	33556.26
409.30	31962.36
409.49	30052.48
409.68	28044.30
409.87	27487.25
410.07	29677.99
410.26	32301.73
410.45	33453.28
410.64	34103.95
410.83	35115.06
411.02	36046.59
411.21	37399.42
411.40	36589.59
411.59	37085.79
411.78	37219.20
411.98	36472.57
412.17	36868.12
412.36	36367.24
412.55	36072.34
412.74	35304.64
412.93	34712.49
413.12	35431.03
413.31	38464.36
413.50	38925.45
413.69	39765.70
413.88	37699.01
414.07	37404.10
414.26	37820.72
414.45	39100.99
414.64	38941.83
414.83	38773.31
415.02	37937.74
415.22	38209.25
415.41	39407.60
415.60	40432.75
415.79	41567.91
415.98	42373.06
416.17	42316.89
416.36	41411.10
416.55	40788.52
416.74	39541.01
416.93	38031.36
417.12	38167.12
417.31	39042.48
417.50	39428.66
417.69	40355.52
417.88	40161.25
418.07	40388.28
418.26	39393.56
418.45	39793.79
418.64	41565.57
418.83	42717.12
419.02	42148.37
419.21	41387.69
419.39	39405.26
419.58	38333.29
419.77	38731.18
419.96	40362.54
420.15	42309.86
420.34	43210.97
420.53	44278.25
420.72	45184.04
420.91	44893.82
421.10	43669.72
421.29	43941.22
421.48	42508.81
421.67	44465.50
421.86	43332.68
422.05	40086.36
422.24	36540.44
422.43	37191.11
422.61	40517.01
422.80	42689.03
422.99	43215.65
423.18	41698.98
423.37	40678.51
423.56	41074.06
423.75	41706.01
423.94	42794.36
424.13	40165.93
424.32	40294.66
424.50	41118.53
424.69	40360.20
424.88	40783.83
425.07	40187.00
425.26	40732.34
425.45	39557.39
425.64	39503.56
425.83	39732.93
426.01	41471.95
426.20	42412.85
426.39	41317.48
426.58	38227.97
426.77	36065.31
426.96	35112.72
427.15	36828.33
427.33	39793.79
427.52	40968.74
427.71	40851.71
427.90	40112.10
428.09	39824.22
428.28	39248.44
428.46	37469.64
428.65	37170.05
428.84	37975.19
429.03	38588.41
429.22	36472.57
429.40	34628.23
429.59	31622.98
429.78	28266.65
429.97	28889.23
430.16	28678.58
430.34	28744.12
430.53	29118.60
430.72	30314.62
430.91	33406.47
431.10	39264.83
431.28	44865.73
431.47	47433.30
431.66	47239.03
431.85	43227.35
432.03	40655.11
432.22	39672.08
432.41	40938.31
432.60	45010.84
432.79	46047.70
432.97	47374.78
433.16	45528.10
433.35	41979.85
433.54	37949.45
433.72	36950.04
433.91	37961.15
434.10	42316.89
434.28	44694.87
434.47	46454.95
434.66	45680.24
434.85	44676.15
435.03	44762.75
435.22	45404.05
435.41	47632.24
435.59	47758.63
435.78	48058.22
435.97	49118.48
436.16	49212.10
436.34	48507.60
436.53	47784.38
436.72	48126.10
436.90	45904.93
437.09	45979.82
437.28	45638.11
437.46	46569.64
437.65	46256.01
437.84	43234.38
438.02	40512.33
438.21	40474.88
438.40	43007.34
438.58	45874.50
438.77	46981.57
438.96	47023.70
439.14	48989.75
439.33	49289.34
439.52	49914.26
439.70	48729.95
439.89	48266.53
440.08	47206.26
440.26	47206.26
440.45	48421.00
440.63	51241.35
440.82	52467.79
441.01	51625.20
441.19	51470.72
441.38	52224.37
441.57	53102.07
441.75	53195.70
441.94	53624.01
442.12	53418.05
442.31	54096.80
442.50	53773.81
442.68	53638.06
442.87	53179.31
443.05	53134.84
443.24	53497.62
443.43	54071.06
443.61	54262.98
443.80	54731.09
443.98	52900.79
444.17	52580.13
444.35	54534.48
444.54	54810.67
444.73	54710.02
444.91	53322.08
445.10	51957.55
445.28	51138.36
445.47	50445.57
445.65	50974.53
445.84	51271.78
446.02	52603.54
446.21	53113.78
446.39	53141.86
446.58	53858.07
446.77	54073.40
446.95	54190.42
447.14	55098.55
447.32	55641.56
447.51	54829.39
447.69	53696.57
447.88	53621.67
448.06	53673.16
448.25	54459.58
448.43	54796.62
448.62	54372.99
448.80	54206.81
448.99	54499.37
449.17	54593.00
449.36	54504.06
449.54	55498.78
449.73	55887.31
449.91	56123.71
450.10	56837.57
450.28	57286.95
450.46	57109.07
450.65	57240.14
450.83	56896.08
451.02	56432.66
451.20	56039.45
451.39	56116.68
451.57	56324.99
451.76	56100.30
451.94	55718.79
452.13	55136.00
452.31	54192.76
452.49	52762.70
452.68	53088.03
452.86	53186.33
453.05	53598.27
453.23	54436.18
453.42	54836.41
453.60	55442.61
453.78	55992.64
453.97	55540.91
454.15	55831.14
454.34	55231.96
454.52	55374.73
454.70	54569.59
454.89	55107.91
455.07	55007.27
455.26	55456.65
455.44	56687.78
455.62	57092.69
455.81	57165.24
455.99	56849.27
456.17	56697.14
456.36	56685.43
456.54	57389.94
456.73	57460.15
456.91	57956.35
457.09	57977.41
457.28	58185.72
457.46	56959.28
457.64	56912.47
457.83	56189.24
458.01	55824.12
458.19	56416.27
458.38	56750.97
458.56	57364.19
458.74	57111.41
458.93	57034.17
459.11	56844.59
459.29	56615.22
459.48	56746.29
459.66	56226.69
459.84	56596.49
460.03	57020.13
460.21	57202.69
460.39	57825.28
460.57	57851.02
460.76	58092.10
460.94	58286.36
461.12	58010.18
461.31	58155.29
461.49	58096.78
461.67	57989.11
461.85	58827.02
462.04	58508.71
462.22	58578.93
462.40	58658.51
462.59	58583.61
462.77	58585.95
462.95	58560.20
463.13	58174.02
463.32	58028.90
463.50	57602.92
463.68	57937.62
463.86	57883.79
464.05	57340.78
464.23	56870.34
464.41	56772.03
464.59	56170.52
464.78	57923.58
464.96	57586.54
465.14	57443.77
465.32	58192.74
465.50	58766.17
465.69	58717.02
465.87	58433.81
466.05	57549.09
466.23	56430.32
466.41	55789.01
466.60	56830.55
466.78	56575.43
466.96	57116.09
467.14	57588.88
467.32	57911.88
467.51	58071.03
467.69	56746.29
467.87	57038.86
468.05	57539.73
468.23	57579.52
468.41	57748.04
468.60	57750.38
468.78	57975.07
468.96	57476.54
469.14	58335.51
469.32	57968.05
469.50	57139.50
469.69	57088.01
469.87	56442.02
470.05	56680.75
470.23	56875.02
470.41	56959.28
470.59	57415.68
470.77	57654.42
470.95	58096.78
471.14	58489.99
471.32	58415.09
471.50	59576.00
471.68	59835.80
471.86	60128.36
472.04	59994.95
472.22	59812.39
472.40	58728.72
472.58	58728.72
472.77	58377.64
472.95	58822.34
473.13	59552.59
473.31	58925.33
473.49	59238.96
473.67	59444.93
473.85	59870.90
474.03	60336.67
474.21	60116.66
474.39	60683.07
474.57	60491.15
474.75	60685.41
474.93	60102.62
475.12	59758.56
475.30	59873.24
475.48	59931.76
475.66	60385.82
475.84	59788.98
476.02	59803.03
476.20	59620.47
476.38	59749.20
476.56	60732.22
476.74	61062.24
476.92	61078.62
477.10	61591.20
477.28	62115.48
477.46	62082.71
477.64	62386.98
477.82	62522.73
478.00	62728.70
478.18	62129.52
478.36	62078.03
478.54	62075.69
478.72	62267.61
478.90	62969.77
479.08	63437.88
479.26	63641.51
479.44	63428.52
479.62	63440.22
479.80	63346.60
479.98	63676.61
480.16	63810.03
480.34	63365.32
480.52	63613.42
480.70	63744.49
480.88	64128.34
481.06	64175.15
481.24	64338.99
481.41	64992.00
481.59	65434.36
481.77	65197.96
481.95	64907.74
482.13	64685.39
482.31	64762.62
482.49	65146.47
482.67	65200.30
482.85	65340.74
483.03	65535.00
483.21	65535.00
483.39	65535.00
483.57	65249.45
483.74	65268.18
483.92	65535.00
484.10	65535.00
484.28	65535.00
484.46	65535.00
484.64	65535.00
484.82	65535.00
485.00	65535.00
485.18	65160.51
485.35	64170.47
485.53	62354.21
485.71	60053.47
485.89	60133.04
486.07	61394.59
486.25	63290.43
486.43	64734.54
486.61	64956.89
486.78	65031.78
486.96	65284.56
487.14	65535.00
487.32	65535.00
487.50	65535.00
487.68	65535.00
487.85	65535.00
488.03	65535.00
488.21	65535.00
488.39	65535.00
488.57	65535.00
488.75	65535.00
488.92	65535.00
489.10	65535.00
489.28	65535.00
489.46	65535.00
489.64	65535.00
489.81	65535.00
489.99	65535.00
490.17	65535.00
490.35	65535.00
490.53	65535.00
490.70	65535.00
490.88	65535.00
491.06	65535.00
491.24	65535.00
491.41	65535.00
491.59	65535.00
491.77	65535.00
491.95	65535.00
492.13	65535.00
492.30	65535.00
492.48	65535.00
492.66	65535.00
492.84	65535.00
493.01	65535.00
493.19	65535.00
493.37	65535.00
493.54	65535.00
493.72	65535.00
493.90	65535.00
494.08	65535.00
494.25	65535.00
494.43	65535.00
494.61	65535.00
494.79	65535.00
494.96	65535.00
495.14	65535.00
495.32	65535.00
495.49	65535.00
495.67	65535.00
495.85	65535.00
496.02	65535.00
496.20	65535.00
496.38	65535.00
496.55	65535.00
496.73	65535.00
496.91	65535.00
497.09	65535.00
497.26	65535.00
497.44	65535.00
497.62	65535.00
497.79	65535.00
497.97	65535.00
498.14	65535.00
498.32	65535.00
498.50	65535.00
498.67	65535.00
498.85	65535.00
499.03	65535.00
499.20	65535.00
499.38	65535.00
499.56	65535.00
499.73	65535.00
499.91	65535.00
500.08	65535.00
500.26	65535.00
500.44	65535.00
500.61	65535.00
500.79	65535.00
500.97	65535.00
501.14	65535.00
501.32	65535.00
501.49	65535.00
501.67	65535.00
501.84	65535.00
502.02	65535.00
502.20	65535.00
502.37	65535.00
502.55	65535.00
502.72	65535.00
502.90	65535.00
503.07	65535.00
503.25	65535.00
503.43	65535.00
503.60	65535.00
503.78	65535.00
503.95	65535.00
504.13	65535.00
504.30	65535.00
504.48	65535.00
504.65	65535.00
504.83	65535.00
505.01	65535.00
505.18	65535.00
505.36	65535.00
505.53	65535.00
505.71	65535.00
505.88	65535.00
506.06	65535.00
506.23	65535.00
506.41	65535.00
506.58	65535.00
506.76	65535.00
506.93	65535.00
507.11	65535.00
507.28	65535.00
507.46	65535.00
507.63	65535.00
507.81	65535.00
507.98	65535.00
508.16	65535.00
508.33	65535.00
508.50	65535.00
508.68	65535.00
508.85	65535.00
509.03	65535.00
509.20	65535.00
509.38	65535.00
509.55	65535.00
509.73	65535.00
509.90	65535.00
510.08	65535.00
510.25	65535.00
510.42	65535.00
510.60	65535.00
510.77	65535.00
510.95	65535.00
511.12	65535.00
511.30	65535.00
511.47	65535.00
511.64	65535.00
511.82	65535.00
511.99	65535.00
512.17	65535.00
512.34	65535.00
512.51	65535.00
512.69	65535.00
512.86	65535.00
513.04	65535.00
513.21	65535.00
513.38	65535.00
513.56	65535.00
513.73	65535.00
513.90	65535.00
514.08	65535.00
514.25	65535.00
514.43	65535.00
514.60	65535.00
514.77	65535.00
514.95	65535.00
515.12	65535.00
515.29	65535.00
515.47	65535.00
515.64	65535.00
515.81	65535.00
515.99	65535.00
516.16	65535.00
516.33	65535.00
516.51	65535.00
516.68	65535.00
516.85	65535.00
517.03	65535.00
517.20	65535.00
517.37	65535.00
517.54	65535.00
517.72	65535.00
517.89	65535.00
518.06	65535.00
518.24	65535.00
518.41	65535.00
518.58	65535.00
518.75	65535.00
518.93	65535.00
519.10	65535.00
519.27	65535.00
519.45	65535.00
519.62	65535.00
519.79	65535.00
519.96	65535.00
520.14	65535.00
520.31	65535.00
520.48	65535.00
520.65	65535.00
520.83	65535.00
521.00	65535.00
521.17	65535.00
521.34	65535.00
521.52	65535.00
521.69	65535.00
521.86	65535.00
522.03	65535.00
522.20	65535.00
522.38	65535.00
522.55	65535.00
522.72	65535.00
522.89	65535.00
523.07	65535.00
523.24	65535.00
523.41	65535.00
523.58	65535.00
523.75	65535.00
523.92	65535.00
524.10	65535.00
524.27	65535.00
524.44	65535.00
524.61	65535.00
524.78	65535.00
524.96	65535.00
525.13	65535.00
525.30	65535.00
525.47	65535.00
525.64	65535.00
525.81	65535.00
525.98	65535.00
526.16	65535.00
526.33	65535.00
526.50	65535.00
526.67	65535.00
526.84	65535.00
527.01	65535.00
527.18	65535.00
527.36	65535.00
527.53	65535.00
527.70	65535.00
527.87	65535.00
528.04	65535.00
528.21	65535.00
528.38	65535.00
528.55	65535.00
528.72	65535.00
528.89	65535.00
529.07	65535.00
529.24	65535.00
529.41	65535.00
529.58	65535.00
529.75	65535.00
529.92	65535.00
530.09	65535.00
530.26	65535.00
530.43	65535.00
530.60	65535.00
530.77	65535.00
530.94	65535.00
531.11	65535.00
531.28	65535.00
531.46	65535.00
531.63	65535.00
531.80	65535.00
531.97	65535.00
532.14	65535.00
532.31	65535.00
532.48	65535.00
532.65	65535.00
532.82	65535.00
532.99	65535.00
533.16	65535.00
533.33	65535.00
533.50	65535.00
533.67	65535.00
533.84	65535.00
534.01	65535.00
534.18	65535.00
534.35	65535.00
534.52	65535.00
534.69	65535.00
534.86	65535.00
535.03	65535.00
535.20	65535.00
535.37	65535.00
535.54	65535.00
535.71	65535.00
535.88	65535.00
536.05	65535.00
536.22	65535.00
536.38	65535.00
536.55	65535.00
536.72	65535.00
536.89	65535.00
537.06	65535.00
537.23	65535.00
537.40	65535.00
537.57	65535.00
537.74	65535.00
537.91	65535.00
538.08	65535.00
538.25	65535.00
538.42	65535.00
538.59	65535.00
538.75	65535.00
538.92	65535.00
539.09	65535.00
539.26	65535.00
539.43	65535.00
539.60	65535.00
539.77	65535.00
539.94	65535.00
540.11	65535.00
540.28	65535.00
540.44	65535.00
540.61	65535.00
540.78	65535.00
540.95	65535.00
541.12	65535.00
541.29	65535.00
541.46	65535.00
541.62	65535.00
541.79	65535.00
541.96	65535.00
542.13	65535.00
542.30	65535.00
542.47	65535.00
542.63	65535.00
542.80	65535.00
542.97	65535.00
543.14	65535.00
543.31	65535.00
543.48	65535.00
543.64	65535.00
543.81	65535.00
543.98	65535.00
544.15	65535.00
544.32	65535.00
544.48	65535.00
544.65	65535.00
544.82	65535.00
544.99	65535.00
545.16	65535.00
545.32	65535.00
545.49	65535.00
545.66	65535.00
545.83	65535.00
546.00	65535.00
546.16	65535.00
546.33	65535.00
546.50	65535.00
546.67	65535.00
546.83	65535.00
547.00	65535.00
547.17	65535.00
547.34	65535.00
547.50	65535.00
547.67	65535.00
547.84	65535.00
548.00	65535.00
548.17	65535.00
548.34	65535.00
548.51	65535.00
548.67	65535.00
548.84	65535.00
549.01	65535.00
549.18	65535.00
549.34	65535.00
549.51	65535.00
549.68	65535.00
549.84	65535.00
550.01	65535.00
550.18	65535.00
550.34	65535.00
550.51	65535.00
550.68	65535.00
550.84	65535.00
551.01	65535.00
551.18	65535.00
551.34	65535.00
551.51	65535.00
551.68	65535.00
551.84	65535.00
552.01	65535.00
552.18	65535.00
552.34	65535.00
552.51	65535.00
552.68	65535.00
552.84	65535.00
553.01	65535.00
553.18	65535.00
553.34	65535.00
553.51	65535.00
553.67	65535.00
553.84	65535.00
554.01	65535.00
554.17	65535.00
554.34	65535.00
554.51	65535.00
554.67	65535.00
554.84	65535.00
555.00	65535.00
555.17	65535.00
555.33	65535.00
555.50	65535.00
555.67	65535.00
555.83	65535.00
556.00	65535.00
556.16	65535.00
556.33	65535.00
556.50	65535.00
556.66	65535.00
556.83	65535.00
556.99	65535.00
557.16	65535.00
557.32	65535.00
557.49	65535.00
557.65	65535.00
557.82	65535.00
557.98	65535.00
558.15	65535.00
558.32	65535.00
558.48	65535.00
558.65	65535.00
558.81	65535.00
558.98	65535.00
559.14	65535.00
559.31	65535.00
559.47	65535.00
559.64	65535.00
559.80	65535.00
559.97	65535.00
560.13	65535.00
560.30	65535.00
560.46	65535.00
560.63	65535.00
560.79	65535.00
560.96	65535.00
561.12	65535.00
561.29	65535.00
561.45	65535.00
561.61	65535.00
561.78	65535.00
561.94	65535.00
562.11	65535.00
562.27	65535.00
562.44	65535.00
562.60	65535.00
562.77	65535.00
562.93	65535.00
563.10	65535.00
563.26	65535.00
563.42	65535.00
563.59	65535.00
563.75	65535.00
563.92	65535.00
564.08	65535.00
564.24	65535.00
564.41	65535.00
564.57	65535.00
564.74	65535.00
564.90	65535.00
565.07	65535.00
565.23	65535.00
565.39	65535.00
565.56	65535.00
565.72	65535.00
565.88	65535.00
566.05	65535.00
566.21	65535.00
566.38	65535.00
566.54	65535.00
566.70	65535.00
566.87	65535.00
567.03	65535.00
567.19	65535.00
567.36	65535.00
567.52	65535.00
567.68	65535.00
567.85	65535.00
568.01	65535.00
568.17	65535.00
568.34	65535.00
568.50	65535.00
568.66	65535.00
568.83	65535.00
568.99	65535.00
569.15	65535.00
569.32	65535.00
569.48	65535.00
569.64	65535.00
569.81	65535.00
569.97	65535.00
570.13	65535.00
570.30	65535.00
570.46	65535.00
570.62	65535.00
570.78	65535.00
570.95	65535.00
571.11	65535.00
571.27	65535.00
571.43	65535.00
571.60	65535.00
571.76	65535.00
571.92	65535.00
572.09	65535.00
572.25	65535.00
572.41	65535.00
572.57	65535.00
572.74	65535.00
572.90	65535.00
573.06	65535.00
573.22	65535.00
573.38	65535.00
573.55	65535.00
573.71	65535.00
573.87	65535.00
574.03	65535.00
574.20	65535.00
574.36	65535.00
574.52	65535.00
574.68	65535.00
574.84	65535.00
575.01	65535.00
575.17	65535.00
575.33	65535.00
575.49	65535.00
575.65	65535.00
575.82	65535.00
575.98	65535.00
576.14	65535.00
576.30	65535.00
576.46	65535.00
576.62	65535.00
576.79	65535.00
576.95	65535.00
577.11	65535.00
577.27	65535.00
577.43	65535.00
577.59	65535.00
577.75	65535.00
577.92	65535.00
578.08	65535.00
578.24	65535.00
578.40	65535.00
578.56	65535.00
578.72	65535.00
578.88	65535.00
579.04	65535.00
579.21	65535.00
579.37	65535.00
579.53	65535.00
579.69	65535.00
579.85	65535.00
580.01	65535.00
580.17	65535.00
580.33	65535.00
580.49	65535.00
580.65	65535.00
580.82	65535.00
580.98	65535.00
581.14	65535.00
581.30	65535.00
581.46	65535.00
581.62	65535.00
581.78	65535.00
581.94	65535.00
582.10	65535.00
582.26	65535.00
582.42	65535.00
582.58	65535.00
582.74	65535.00
582.90	65535.00
583.06	65535.00
583.22	65535.00
583.38	65535.00
583.54	65535.00
583.70	65535.00
583.86	65535.00
584.02	65535.00
584.18	65535.00
584.34	65535.00
