SpectraSuite Data File
++++++++++++++++++++++++++++++++++++
Date: Mon Oct 07 14:55:00 GMT-05:00 2013
User: price-jones
Dark Spectrum Present: No
Reference Spectrum Present: No
Number of Sampled Component Spectra: 1
Spectrometers: USB2+H05261
Integration Time (usec): 10000 (USB2+H05261)
Spectra Averaged: 1 (USB2+H05261)
Boxcar Smoothing: 0 (USB2+H05261)
Correct for Electrical Dark: No (USB2+H05261)
Strobe/Lamp Enabled: No (USB2+H05261)
Correct for Detector Non-linearity: No (USB2+H05261)
Correct for Stray Light: No (USB2+H05261)
Number of Pixels in Processed Spectrum: 2048
>>>>>Begin Processed Spectral Data<<<<<
365.73	0.00
365.92	0.00
366.12	0.00
366.32	0.00
366.52	0.00
366.72	0.00
366.91	0.00
367.11	0.00
367.31	0.00
367.51	0.00
367.70	0.00
367.90	0.00
368.10	0.00
368.30	0.00
368.49	0.00
368.69	0.00
368.89	0.00
369.09	0.00
369.28	0.00
369.48	0.00
369.68	0.00
369.87	0.00
370.07	0.00
370.27	0.00
370.47	283.20
370.66	2235.21
370.86	2717.36
371.06	2813.32
371.25	2897.58
371.45	2438.84
371.65	2275.00
371.84	2244.57
372.04	2286.70
372.24	2480.97
372.44	2738.43
372.63	2527.78
372.83	2370.96
373.03	2076.06
373.22	1905.20
373.42	2165.00
373.62	2415.43
373.81	2520.76
374.01	2438.84
374.21	2221.17
374.40	2136.91
374.60	2289.04
374.79	2635.44
374.99	3084.83
375.19	3225.26
375.38	3162.06
375.58	2913.97
375.78	2918.65
375.97	3091.85
376.17	3145.68
376.37	3281.43
376.56	3325.90
376.76	3639.53
376.95	3616.13
377.15	4053.81
377.35	4121.68
377.54	4390.84
377.74	4397.87
377.93	4255.09
378.13	4315.95
378.33	3934.44
378.52	3726.13
378.72	3566.98
378.91	3503.78
379.11	3494.42
379.31	3173.77
379.50	3311.86
379.70	3581.02
379.89	4028.06
380.09	4088.92
380.28	4355.74
380.48	4440.00
380.68	4252.75
380.87	4175.52
381.07	3786.99
381.26	3520.17
381.46	3201.85
381.65	3108.23
381.85	3066.10
382.04	2885.88
382.24	2649.49
382.43	2626.08
382.63	2473.95
382.83	2520.76
383.02	2541.82
383.22	2590.97
383.41	2635.44
383.61	2965.46
383.80	3307.18
384.00	3698.05
384.19	3999.98
384.39	4306.59
384.58	4311.27
384.78	4243.39
384.97	4161.47
385.17	3815.07
385.36	3702.73
385.56	3651.24
385.75	3885.29
385.95	4184.88
386.14	4409.57
386.34	4355.74
386.53	4227.01
386.72	3962.53
386.92	4182.54
387.11	4285.52
387.31	4571.07
387.50	4215.30
387.70	4166.15
387.89	4182.54
388.09	4203.60
388.28	4227.01
388.48	4355.74
388.67	4697.46
388.86	5338.76
389.06	5645.37
389.25	5849.00
389.45	5970.71
389.64	5755.38
389.84	5659.42
390.03	5692.18
390.22	5713.25
390.42	5926.24
390.61	6324.13
390.81	6771.17
391.00	6707.98
391.19	6782.87
391.39	6373.28
391.58	5984.75
391.78	5633.67
391.97	5516.64
392.16	5242.80
392.36	4573.41
392.55	3562.30
392.75	2759.49
392.94	2270.32
393.13	2455.22
393.33	3108.23
393.52	3904.01
393.71	4727.88
393.91	5242.80
394.10	5689.84
394.29	6296.04
394.49	6810.96
394.68	7108.21
394.88	7206.51
395.07	7356.30
395.26	7208.85
395.46	6988.84
395.65	6595.63
395.84	5769.42
396.04	4873.00
396.23	3786.99
396.42	3232.28
396.62	3309.52
396.81	4070.19
397.00	5097.69
397.19	6377.96
397.39	7578.65
397.58	8482.10
397.77	8987.66
397.97	9097.66
398.16	9437.04
398.35	9757.69
398.55	9755.35
398.74	10237.50
398.93	10548.79
399.12	10387.30
399.32	9781.10
399.51	10167.29
399.70	10867.11
399.90	10745.40
400.09	10513.69
400.28	10647.10
400.47	10712.63
400.67	11007.54
400.86	11487.35
401.05	11892.26
401.24	11538.84
401.44	11775.24
401.63	11840.77
401.82	11974.18
402.01	11789.28
402.21	11922.69
402.40	11859.49
402.59	11398.41
402.78	11073.07
402.97	11063.71
403.17	11337.56
403.36	12201.21
403.55	12664.64
403.74	12547.61
403.93	11726.08
404.13	10729.02
404.32	10920.94
404.51	11470.97
404.70	12496.12
404.89	12351.01
405.09	11847.79
405.28	11763.53
405.47	12039.72
405.66	11620.76
405.85	11449.90
406.05	11241.59
406.24	11892.26
406.43	11946.09
406.62	12217.60
406.81	12365.05
407.00	12049.08
407.20	11536.50
407.39	11822.05
407.58	12603.78
407.77	13160.83
407.96	13490.85
408.15	13261.48
408.34	13565.74
408.54	13975.34
408.73	13968.32
408.92	13671.07
409.11	13249.77
409.30	12250.36
409.49	11927.37
409.68	11147.97
409.87	11190.10
410.07	12016.31
410.26	12704.43
410.45	13186.58
410.64	13760.01
410.83	14174.28
411.02	14434.08
411.21	14862.40
411.40	14651.75
411.59	14927.94
411.78	14864.74
411.98	14466.85
412.17	15047.30
412.36	14553.45
412.55	14789.85
412.74	14279.61
412.93	14148.54
413.12	14469.19
413.31	15857.13
413.50	15819.68
413.69	15728.40
413.88	15283.70
414.07	14963.04
414.26	15208.80
414.45	15550.52
414.64	15508.39
414.83	15564.56
415.02	15117.52
415.22	15379.66
415.41	16042.03
415.60	16430.56
415.79	17308.26
415.98	17130.38
416.17	17357.41
416.36	17048.46
416.55	16744.19
416.74	16161.40
416.93	15534.14
417.12	15744.78
417.31	16084.16
417.50	16425.88
417.69	16908.03
417.88	16819.09
418.07	16755.90
418.26	16472.69
418.45	16491.41
418.64	17149.11
418.83	17638.28
419.02	17331.67
419.21	17158.47
419.39	16489.07
419.58	15850.11
419.77	16027.99
419.96	17092.93
420.15	17788.07
420.34	18204.69
420.53	18799.18
420.72	18684.50
420.91	18862.38
421.10	18288.95
421.29	18434.06
421.48	18045.53
421.67	18986.43
421.86	18101.70
422.05	16416.52
422.24	15164.33
422.43	15508.39
422.61	17277.83
422.80	18024.47
422.99	17830.20
423.18	17355.07
423.37	17191.23
423.56	17317.62
423.75	17633.60
423.94	17900.42
424.13	17015.69
424.32	16884.62
424.50	16957.18
424.69	17219.32
424.88	17425.29
425.07	16938.46
425.26	17137.40
425.45	16552.27
425.64	16453.97
425.83	16505.46
426.01	17748.28
426.20	17610.19
426.39	17544.66
426.58	16152.04
426.77	14787.50
426.96	14967.73
427.15	15779.89
427.33	17102.29
427.52	17378.48
427.71	17282.52
427.90	17357.41
428.09	16741.85
428.28	16278.43
428.46	15805.64
428.65	15807.98
428.84	16603.76
429.03	15946.07
429.22	15290.72
429.40	14029.17
429.59	12744.22
429.78	11658.21
429.97	12013.97
430.16	11978.86
430.34	12063.12
430.53	12248.02
430.72	12542.93
430.91	14338.12
431.10	16922.07
431.28	19503.68
431.47	20512.46
431.66	20549.90
431.85	18256.18
432.03	17076.55
432.22	16924.41
432.41	18164.90
432.60	19126.86
432.79	20079.46
432.97	20292.44
433.16	19700.29
433.35	17818.50
433.54	15925.00
433.72	15269.66
433.91	16339.28
434.10	18302.99
434.28	19117.50
434.47	19838.38
434.66	19463.90
434.85	19030.90
435.03	19487.30
435.22	19601.99
435.41	20868.22
435.59	21116.31
435.78	21448.67
435.97	21741.24
436.16	21818.47
436.34	21582.08
436.53	20655.23
436.72	21212.28
436.90	20149.67
437.09	19995.20
437.28	20198.82
437.46	20290.10
437.65	19885.19
437.84	18431.72
438.02	17308.26
438.21	17633.60
438.40	18546.40
438.58	19742.42
438.77	20299.47
438.96	20666.93
439.14	21734.21
439.33	21804.43
439.52	21766.98
439.70	21401.86
439.89	21301.22
440.08	20472.67
440.26	20751.19
440.45	21647.61
440.63	23503.66
440.82	24058.37
441.01	23293.01
441.19	23475.57
441.38	24116.88
441.57	25139.69
441.75	25179.48
441.94	24968.84
442.12	24725.42
442.31	25813.77
442.50	25790.36
442.68	25287.15
442.87	24961.81
443.05	24226.89
443.24	25582.06
443.43	25862.92
443.61	25867.60
443.80	25607.80
443.98	25245.02
444.17	24851.81
444.35	25982.29
444.54	26850.63
444.73	26089.95
444.91	25223.95
445.10	24489.03
445.28	23473.23
445.47	22939.59
445.65	23014.49
445.84	24201.14
446.02	25022.67
446.21	24875.21
446.39	24617.75
446.58	25607.80
446.77	26031.44
446.95	26501.89
447.14	27772.80
447.32	27431.08
447.51	26572.10
447.69	25434.60
447.88	25399.49
448.06	26450.39
448.25	26511.25
448.43	26078.25
448.62	25874.62
448.80	26293.58
448.99	26106.34
449.17	25926.11
449.36	26698.49
449.54	27562.15
449.73	27894.50
449.91	28472.62
450.10	28900.94
450.28	29422.87
450.46	29083.50
450.65	28891.57
450.83	28718.37
451.02	28341.55
451.20	28093.45
451.39	28067.70
451.57	28098.13
451.76	28294.74
451.94	27721.30
452.13	27316.39
452.31	25387.79
452.49	24395.40
452.68	25355.02
452.86	25198.21
453.05	25345.66
453.23	26902.12
453.42	27159.58
453.60	27330.44
453.78	28025.57
453.97	27381.93
454.15	27094.04
454.34	26937.23
454.52	26618.91
454.70	26614.23
454.89	26883.39
455.07	27477.89
455.26	27789.18
455.44	28701.99
455.62	29186.48
455.81	28631.77
455.99	28730.08
456.17	28379.00
456.36	28950.09
456.54	29951.84
456.73	29081.16
456.91	29802.04
457.09	30249.08
457.28	31140.83
457.46	29322.23
457.64	28545.17
457.83	28027.92
458.01	27824.29
458.19	28182.39
458.38	29078.82
458.56	29663.95
458.74	29347.98
458.93	28947.75
459.11	28051.32
459.29	28180.05
459.48	29032.00
459.66	28755.82
459.84	28659.86
460.03	29411.17
460.21	29502.45
460.39	30242.06
460.57	29888.64
460.76	30759.32
460.94	30260.79
461.12	30000.99
461.31	30043.12
461.49	30284.19
461.67	30253.76
461.85	31154.87
462.04	30841.24
462.22	30850.60
462.40	31208.70
462.59	30574.42
462.77	31325.73
462.95	31356.16
463.13	30658.68
463.32	30206.95
463.50	30602.50
463.68	30616.55
463.86	30387.18
464.05	29706.08
464.23	28992.22
464.41	28856.46
464.59	28814.34
464.78	30270.15
464.96	29668.63
465.14	28868.17
465.32	30300.58
465.50	31079.97
465.69	31737.66
465.87	30499.52
466.05	29818.42
466.23	28641.14
466.41	27866.42
466.60	28879.87
466.78	28428.15
466.96	28961.79
467.14	29642.88
467.32	30218.66
467.51	30490.16
467.69	28919.66
467.87	30087.59
468.05	30436.33
468.23	30562.72
468.41	30246.74
468.60	30518.25
468.78	30595.48
468.96	30773.36
469.14	31505.95
469.32	30473.78
469.50	29275.42
469.69	29851.19
469.87	29472.03
470.05	29076.48
470.23	29502.45
470.41	29624.16
470.59	30363.77
470.77	30022.05
470.95	30419.94
471.14	30993.37
471.32	31515.31
471.50	32788.56
471.68	32290.03
471.86	33158.37
472.04	32945.38
472.22	32730.05
472.40	30691.44
472.58	31103.38
472.77	31407.65
472.95	31765.75
473.13	32397.70
473.31	31716.60
473.49	32545.15
473.67	32793.25
473.85	32968.79
474.03	33436.89
474.21	34199.91
474.39	33935.43
474.57	34096.92
474.75	34513.54
474.93	33247.31
475.12	33174.75
475.30	33340.93
475.48	33242.63
475.66	34026.71
475.84	33209.86
476.02	32905.59
476.20	32538.13
476.38	33427.53
476.56	34962.92
476.74	34803.77
476.92	35557.42
477.10	35409.96
477.28	36474.91
477.46	36252.56
477.64	37275.37
477.82	36563.85
478.00	36449.16
478.18	35768.07
478.36	35997.44
478.54	36170.64
478.72	36723.01
478.90	37909.66
479.08	38712.46
479.26	38637.56
479.44	39391.22
479.62	38990.98
479.80	38508.83
479.98	38721.82
480.16	39079.92
480.34	38249.03
480.52	39533.99
480.70	39363.13
480.88	39777.40
481.06	39590.16
481.24	39608.89
481.41	41467.27
481.59	42225.60
481.77	40535.74
481.95	40669.15
482.13	41432.16
482.31	41258.96
482.49	42066.45
482.67	41256.62
482.85	40989.80
483.03	42239.65
483.21	43515.24
483.39	43243.74
483.57	42665.63
483.74	41581.96
483.92	42246.67
484.10	42094.53
484.28	42724.14
484.46	43873.34
484.64	43913.13
484.82	43082.24
485.00	42941.81
485.18	41954.10
485.35	39798.47
485.53	35777.43
485.71	33308.16
485.89	33642.86
486.07	36601.30
486.25	38862.26
486.43	40982.78
486.61	41813.67
486.78	41050.66
486.96	42944.15
487.14	44362.51
487.32	44973.39
487.50	46040.68
487.68	46286.43
487.85	46983.91
488.03	46618.79
488.21	45970.46
488.39	45404.05
488.57	43800.79
488.75	44676.15
488.92	46138.98
489.10	48917.20
489.28	48844.64
489.46	50050.02
489.64	49380.62
489.81	50487.70
489.99	50337.90
490.17	50127.25
490.35	50103.85
490.53	49881.50
490.70	50061.72
490.88	50328.54
491.06	51480.08
491.24	51037.72
491.41	49198.06
491.59	47730.54
491.77	46855.18
491.95	48924.22
492.13	50218.53
492.30	50887.93
492.48	52016.07
492.66	52746.31
492.84	51590.09
493.01	51353.69
493.19	51398.16
493.37	51196.88
493.54	51016.66
493.72	51945.85
493.90	52896.11
494.08	53549.12
494.25	54384.69
494.43	54487.67
494.61	54293.41
494.79	53911.90
494.96	53958.71
495.14	54014.88
495.32	51910.74
495.49	52149.48
495.67	53038.88
495.85	54174.04
496.02	55082.17
496.20	54642.15
496.38	54721.72
496.55	54192.76
496.73	54506.40
496.91	54681.94
497.09	55238.98
497.26	56037.11
497.44	55337.29
497.62	54415.11
497.79	53577.20
497.97	52687.80
498.14	53460.18
498.32	54384.69
498.50	54628.10
498.67	55070.46
498.85	54707.68
499.03	55292.82
499.20	55891.99
499.38	55192.17
499.56	54581.29
499.73	54492.35
499.91	54270.00
500.08	54204.47
500.26	53619.33
500.44	54305.11
500.61	54532.14
500.79	53869.77
500.97	54000.84
501.14	53506.99
501.32	53088.03
501.49	53357.19
501.67	54078.08
501.84	54230.21
502.02	54703.00
502.20	54733.43
502.37	54534.48
502.55	55199.19
502.72	56121.37
502.90	56671.39
503.07	55716.45
503.25	54850.45
503.43	53848.71
503.60	53759.76
503.78	53549.12
503.95	54014.88
504.13	55742.20
504.30	56360.10
504.48	56107.32
504.65	55908.38
504.83	55994.98
505.01	56388.19
505.18	56725.22
505.36	57160.56
505.53	56870.34
505.71	57190.99
505.88	57373.55
506.06	57174.61
506.23	56582.45
506.41	55810.07
506.58	55950.51
506.76	56603.52
506.93	56516.92
507.11	55936.46
507.28	55915.40
507.46	55260.05
507.63	55739.86
507.81	55337.29
507.98	55449.63
508.16	56128.39
508.33	56425.64
508.50	56999.07
508.68	57439.09
508.85	57605.26
509.03	57979.75
509.20	57623.99
509.38	57076.30
509.55	56573.09
509.73	56179.88
509.90	56418.61
510.08	56999.07
510.25	56479.47
510.42	55756.24
510.60	55980.93
510.77	56800.12
510.95	57436.75
511.12	57612.29
511.30	57958.69
511.47	58003.16
511.64	57897.83
511.82	58003.16
511.99	56992.04
512.17	56947.57
512.34	56119.02
512.51	56619.90
512.69	56947.57
512.86	56210.31
513.04	56685.43
513.21	56439.68
513.38	55641.56
513.56	55133.66
513.73	54291.07
513.90	55700.07
514.08	55393.46
514.25	55791.35
514.43	56058.17
514.60	56065.19
514.77	56692.46
514.95	57333.76
515.12	57179.29
515.29	57322.06
515.47	57783.15
515.64	57902.51
515.81	57270.57
515.99	55980.93
516.16	54000.84
516.33	51742.22
516.51	51480.08
516.68	50005.55
516.85	48275.89
517.03	50464.29
517.20	53303.36
517.37	56023.06
517.54	56905.44
517.72	56285.20
517.89	52655.03
518.06	50941.76
518.24	52339.06
518.41	54593.00
518.58	55622.83
518.75	55086.85
518.93	55196.85
519.10	55288.13
519.27	56060.51
519.45	56280.52
519.62	57240.14
519.79	57219.08
519.96	56418.61
520.14	56659.69
520.31	56030.08
520.48	56062.85
520.65	56294.56
520.83	56896.08
521.00	56519.26
521.17	56011.36
521.34	56842.25
521.52	57956.35
521.69	57808.89
521.86	58499.35
522.03	57619.31
522.20	55840.50
522.38	55143.02
522.55	55231.96
522.72	55346.65
522.89	56020.72
523.07	56060.51
523.24	56809.48
523.41	57310.36
523.58	58007.84
523.75	58190.40
523.92	58452.54
524.10	58033.58
524.27	57970.39
524.44	57389.94
524.61	57345.47
524.78	57631.01
524.96	57130.14
525.13	57539.73
525.30	58412.75
525.47	58700.64
525.64	58302.74
525.81	56802.46
525.98	55824.12
526.16	54026.59
526.33	53663.80
526.50	53698.91
526.67	53963.39
526.84	54614.06
527.01	54775.56
527.18	55592.40
527.36	56811.82
527.53	57205.03
527.70	57322.06
527.87	56135.41
528.04	56456.06
528.21	57118.43
528.38	57455.47
528.55	58670.21
528.72	59070.44
528.89	58681.91
529.07	58192.74
529.24	57251.84
529.41	56795.44
529.58	57174.61
529.75	57200.35
529.92	58309.77
530.09	58218.49
530.26	57893.15
530.43	58312.11
530.60	58700.64
530.77	58438.50
530.94	58417.43
531.11	58101.46
531.28	57471.85
531.46	57848.68
531.63	58197.42
531.80	57506.96
531.97	57022.47
532.14	56491.17
532.31	55007.27
532.48	55037.70
532.65	55250.69
532.82	55866.25
532.99	58096.78
533.16	57872.09
533.33	58071.03
533.50	57712.93
533.67	56718.20
533.84	56935.87
534.01	57340.78
534.18	57027.15
534.35	57230.78
534.52	57118.43
534.69	57492.92
534.86	57333.76
535.03	58064.01
535.20	58323.81
535.37	59000.22
535.54	59393.43
535.71	58330.83
535.88	57942.30
536.05	57130.14
536.22	56191.58
536.38	56905.44
536.55	56512.23
536.72	56151.79
536.89	56189.24
537.06	57102.05
537.23	57649.74
537.40	57415.68
537.57	57881.45
537.74	57506.96
537.91	57373.55
538.08	56987.36
538.25	57787.83
538.42	57532.71
538.59	57308.02
538.75	56516.92
538.92	55632.19
539.09	55779.65
539.26	56289.88
539.43	56655.01
539.60	55753.90
539.77	56470.11
539.94	56137.75
540.11	55295.16
540.28	55159.41
540.44	55143.02
540.61	55580.70
540.78	55728.16
540.95	55927.10
541.12	55622.83
541.29	56493.51
541.46	56420.95
541.62	56996.73
541.79	55927.10
541.96	55344.31
542.13	56079.24
542.30	56390.53
542.47	56357.76
542.63	55891.99
542.80	56030.08
542.97	55704.75
543.14	55859.23
543.31	56505.21
543.48	57092.69
543.64	57708.25
543.81	57724.63
543.98	57853.36
544.15	56633.94
544.32	56835.23
544.48	57284.61
544.65	56739.27
544.82	57298.65
544.99	56556.70
545.16	56521.60
545.32	56247.75
545.49	56968.64
545.66	57570.16
545.83	57006.09
546.00	57116.09
546.16	56821.19
546.33	56509.89
546.50	55903.70
546.67	56743.95
546.83	57099.71
547.00	56669.05
547.17	55014.29
547.34	54941.74
547.50	55131.32
547.67	55524.53
547.84	55671.98
548.00	56697.14
548.17	56626.92
548.34	56945.23
548.51	56900.76
548.67	56013.70
548.84	56301.59
549.01	56488.83
549.18	56006.68
549.34	55620.49
549.51	56172.86
549.68	56491.17
549.84	55732.84
550.01	55044.72
550.18	55784.33
550.34	55533.89
550.51	56018.38
550.68	55821.78
550.84	56245.41
551.01	56041.79
551.18	55629.85
551.34	56264.14
551.51	56369.46
551.68	56233.71
551.84	57251.84
552.01	55969.23
552.18	55927.10
552.34	55150.04
552.51	54569.59
552.68	54805.98
552.84	55484.74
553.01	55753.90
553.18	54880.88
553.34	55309.20
553.51	55915.40
553.67	55880.29
553.84	55758.58
554.01	56488.83
554.17	56107.32
554.34	55550.27
554.51	55966.89
554.67	55353.67
554.84	55400.48
555.00	55451.97
555.17	55360.69
555.33	55391.12
555.50	55421.55
555.67	55817.10
555.83	55327.92
556.00	54525.12
556.16	54719.38
556.33	55030.68
556.50	55550.27
556.66	55143.02
556.83	54742.79
556.99	54482.99
557.16	55004.93
557.32	55025.99
557.49	55594.74
557.65	54637.47
557.82	55667.30
557.98	55344.31
558.15	54223.19
558.32	53577.20
558.48	52849.30
558.65	52519.28
558.81	53013.13
558.98	53560.82
559.14	52868.02
559.31	53818.28
559.47	54066.38
559.64	52903.13
559.80	52640.99
559.97	52484.17
560.13	53872.11
560.30	54550.87
560.46	55814.76
560.63	55917.74
560.79	56175.20
560.96	54883.22
561.12	54169.36
561.29	54405.75
561.45	54021.90
561.61	55150.04
561.78	54068.72
561.94	53776.15
562.11	53282.30
562.27	53003.77
562.44	54185.74
562.60	54204.47
562.77	54466.61
562.93	54401.07
563.10	54761.51
563.26	54625.76
563.42	54204.47
563.59	54148.29
563.75	53675.51
563.92	54024.25
564.08	54365.96
564.24	54777.90
564.41	53420.39
564.57	54372.99
564.74	53879.13
564.90	53457.84
565.07	52743.97
565.23	52727.59
565.39	51772.65
565.56	52154.16
565.72	52509.92
565.88	52685.46
566.05	53925.94
566.21	52767.38
566.38	53572.52
566.54	54068.72
566.70	54110.85
566.87	53970.41
567.03	54733.43
567.19	54651.51
567.36	54321.49
567.52	53654.44
567.68	53165.27
567.85	52491.19
568.01	52715.89
568.17	52205.65
568.34	52432.68
568.50	51751.59
568.66	51168.79
568.83	51566.68
568.99	51625.20
569.15	52196.29
569.32	52479.49
569.48	52212.67
569.64	52271.18
569.81	52470.13
569.97	51966.91
570.13	50979.21
570.30	50651.53
570.46	50642.17
570.62	50274.71
570.78	50988.57
570.95	50553.23
571.11	51040.06
571.27	50843.46
571.43	51945.85
571.60	52479.49
571.76	52200.97
571.92	52151.82
572.09	51936.49
572.25	51749.24
572.41	51873.29
572.57	52610.56
572.74	53069.31
572.90	52217.35
573.06	53331.45
573.22	53125.48
573.38	52732.27
573.55	52910.15
573.71	52484.17
573.87	52706.52
574.03	52023.09
574.20	51742.22
574.36	50632.81
574.52	51248.37
574.68	50937.08
574.84	50438.54
575.01	49811.28
575.17	50607.06
575.33	50820.05
575.49	51222.62
575.65	51379.44
575.82	50532.17
575.98	51283.48
576.14	51440.29
576.30	51688.39
576.46	51110.28
576.62	50478.33
576.79	50443.23
576.95	51089.21
577.11	50969.85
577.27	50391.73
577.43	50300.45
577.59	50780.26
577.75	50735.79
577.92	50012.57
578.08	49352.54
578.24	48966.35
578.40	49177.00
578.56	48591.86
578.72	49633.40
578.88	50117.89
579.04	50108.53
579.21	50089.80
579.37	49261.26
579.53	49455.52
579.69	48964.01
579.85	49380.62
580.01	49401.69
580.17	49200.40
580.33	50412.80
580.49	50494.72
580.65	50171.72
580.82	50410.46
580.98	49918.95
581.14	49298.70
581.30	49357.22
581.46	48734.63
581.62	49853.41
581.78	50351.94
581.94	49846.39
582.10	50024.27
582.26	49780.85
582.42	50248.96
582.58	49975.12
582.74	49593.61
582.90	49287.00
583.06	51562.00
583.22	50007.89
583.38	50419.82
583.54	50124.91
583.70	49811.28
583.86	49865.11
584.02	49092.74
584.18	49584.25
584.34	49125.50
584.50	49247.21
584.66	48575.48
584.82	48580.16
584.98	48924.22
585.14	47786.72
585.30	47475.43
