SpectraSuite Data File
++++++++++++++++++++++++++++++++++++
Date: Mon Oct 07 14:52:54 GMT-05:00 2013
User: price-jones
Dark Spectrum Present: No
Reference Spectrum Present: No
Number of Sampled Component Spectra: 1
Spectrometers: USB2+H05261
Integration Time (usec): 100000 (USB2+H05261)
Spectra Averaged: 1 (USB2+H05261)
Boxcar Smoothing: 0 (USB2+H05261)
Correct for Electrical Dark: No (USB2+H05261)
Strobe/Lamp Enabled: No (USB2+H05261)
Correct for Detector Non-linearity: No (USB2+H05261)
Correct for Stray Light: No (USB2+H05261)
Number of Pixels in Processed Spectrum: 2048
>>>>>Begin Processed Spectral Data<<<<<
365.73	0.00
365.92	0.00
366.12	0.00
366.32	0.00
366.52	0.00
366.72	0.00
366.91	0.00
367.11	0.00
367.31	0.00
367.51	0.00
367.70	0.00
367.90	0.00
368.10	0.00
368.30	0.00
368.49	0.00
368.69	0.00
368.89	0.00
369.09	0.00
369.28	0.00
369.48	0.00
369.68	0.00
369.87	0.00
370.07	0.00
370.27	0.00
370.47	936.21
370.66	4627.24
370.86	5069.60
371.06	5488.56
371.25	5446.43
371.45	4966.62
371.65	4491.49
371.84	4353.40
372.04	4592.13
372.24	5111.73
372.44	5423.02
372.63	5146.84
372.83	4608.51
373.03	4049.13
373.22	3803.37
373.42	4095.94
373.62	4716.18
373.81	5022.79
374.01	4943.21
374.21	4589.79
374.40	4236.37
374.60	4564.04
374.79	5025.13
374.99	5804.53
375.19	6076.03
375.38	6118.16
375.58	5661.76
375.78	5692.18
375.97	5706.23
376.17	5933.26
376.37	5984.75
376.56	6010.50
376.76	6686.91
376.95	6920.96
377.15	7286.09
377.35	7585.68
377.54	7957.82
377.74	8292.52
377.93	8138.04
378.13	7882.92
378.33	7620.78
378.52	6995.86
378.72	6841.39
378.91	6504.35
379.11	6384.98
379.31	5994.11
379.50	6118.16
379.70	6628.40
379.89	7379.71
380.09	7531.84
380.28	7908.67
380.48	7730.79
380.68	7822.07
380.87	7559.93
381.07	7019.27
381.26	6436.47
381.46	5834.96
381.65	5844.32
381.85	5685.16
382.04	5380.89
382.24	4997.04
382.43	4849.59
382.63	4732.56
382.83	4664.69
383.02	4887.04
383.22	4819.16
383.41	4734.90
383.61	5217.05
383.80	5947.30
384.00	6621.38
384.19	7274.38
384.39	7782.28
384.58	7588.02
384.78	7616.10
384.97	7576.31
385.17	6958.41
385.36	6707.98
385.56	6438.81
385.75	6794.58
385.95	7445.24
386.14	7892.29
386.34	7976.55
386.53	7581.00
386.72	7075.44
386.92	7148.00
387.11	7538.87
387.31	7939.10
387.50	7485.03
387.70	7445.24
387.89	7417.16
388.09	7447.58
388.28	7676.96
388.48	7758.88
388.67	8351.03
388.86	9013.40
389.06	9479.17
389.25	10017.49
389.45	10174.31
389.64	10127.50
389.84	9926.21
390.03	9767.06
390.22	9776.42
390.42	10043.24
390.61	10850.72
390.81	11784.60
391.00	11906.31
391.19	11700.34
391.39	11002.86
391.58	10506.66
391.78	10214.10
391.97	9764.72
392.16	8901.06
392.36	8147.40
392.55	6560.52
392.75	5200.67
392.94	4259.78
393.13	4428.29
393.33	5224.08
393.52	6450.52
393.71	8021.02
393.91	9231.07
394.10	9790.46
394.29	10686.89
394.49	11550.54
394.68	12503.14
394.88	12184.83
395.07	12582.72
395.26	12580.38
395.46	11960.14
395.65	11405.43
395.84	9776.42
396.04	8374.44
396.23	6754.79
396.42	5685.16
396.62	5607.92
396.81	6614.35
397.00	8411.89
397.19	10724.33
397.39	12498.46
397.58	13825.54
397.77	14972.41
397.97	15225.18
398.16	15475.62
398.35	16121.61
398.55	16500.78
398.74	17273.15
398.93	17270.81
399.12	17177.19
399.32	16514.82
399.51	17130.38
399.70	18317.03
399.90	17738.92
400.09	17951.91
400.28	17539.97
400.47	17926.16
400.67	18780.46
400.86	19396.02
401.05	19061.32
401.24	19466.24
401.44	19740.08
401.63	19796.25
401.82	19873.49
402.01	19941.36
402.21	19571.56
402.40	19960.09
402.59	18965.36
402.78	18457.46
402.97	18085.32
403.17	18991.11
403.36	19723.69
403.55	20421.17
403.74	20669.27
403.93	19866.47
404.13	18361.50
404.32	17912.12
404.51	18953.66
404.70	20503.09
404.89	19950.73
405.09	19861.79
405.28	19618.37
405.47	19510.71
405.66	19295.38
405.85	18799.18
406.05	18230.43
406.24	18946.64
406.43	19410.06
406.62	20039.67
406.81	20374.36
407.00	19424.11
407.20	19185.37
407.39	19248.57
407.58	20065.41
407.77	20779.28
407.96	21722.51
408.15	21752.94
408.34	21862.94
408.54	23318.76
408.73	22848.31
408.92	22373.18
409.11	22118.06
409.30	20699.70
409.49	19491.98
409.68	18136.81
409.87	17614.87
410.07	19178.35
410.26	20570.97
410.45	21720.17
410.64	22274.88
410.83	22754.69
411.02	23585.58
411.21	24442.21
411.40	23962.40
411.59	24163.69
411.78	23824.31
411.98	23583.24
412.17	24208.16
412.36	23821.97
412.55	23417.06
412.74	23089.38
412.93	22759.37
413.12	23082.36
413.31	25371.41
413.50	25109.27
413.69	25825.47
413.88	24446.90
414.07	24386.04
414.26	24620.10
414.45	25350.34
414.64	25294.17
414.83	25219.27
415.02	24659.88
415.22	25039.05
415.41	25663.97
415.60	26232.72
415.79	27026.17
415.98	27803.22
416.17	27749.39
416.36	27033.19
416.55	26836.58
416.74	25689.72
416.93	24912.66
417.12	25268.42
417.31	25443.96
417.50	25570.35
417.69	26354.43
417.88	26448.05
418.07	26352.09
418.26	25673.34
418.45	26560.40
418.64	27335.12
418.83	27976.42
419.02	27917.91
419.21	27215.75
419.39	25820.79
419.58	24769.89
419.77	25366.73
419.96	26426.99
420.15	27899.19
420.34	28470.28
420.53	29685.01
420.72	30216.32
420.91	29656.93
421.10	29244.99
421.29	29032.00
421.48	28079.41
421.67	29254.36
421.86	28151.96
422.05	26539.33
422.24	23974.11
422.43	23775.16
422.61	26689.13
422.80	28594.32
422.99	28315.80
423.18	27302.35
423.37	26979.36
423.56	27157.24
423.75	27234.47
423.94	27910.89
424.13	26398.90
424.32	26705.51
424.50	26588.49
424.69	26480.82
424.88	26726.58
425.07	26829.56
425.26	26679.77
425.45	26384.86
425.64	25855.90
425.83	25902.71
426.01	27550.45
426.20	28004.51
426.39	27768.12
426.58	25205.23
426.77	23325.78
426.96	22593.19
427.15	23960.06
427.33	26054.84
427.52	26845.94
427.71	26867.01
427.90	26717.22
428.09	26555.72
428.28	25521.20
428.46	24872.87
428.65	24453.92
428.84	25277.79
429.03	25589.08
429.22	24201.14
429.40	22815.54
429.59	20769.91
429.78	18295.97
429.97	18998.13
430.16	18810.89
430.34	18831.95
430.53	18967.70
430.72	19274.31
430.91	21642.93
431.10	25493.12
431.28	30029.07
431.47	31714.26
431.66	31866.39
431.85	28800.29
432.03	26754.66
432.22	25818.45
432.41	27204.05
432.60	29776.30
432.79	30661.02
432.97	31634.68
433.16	30394.20
433.35	27868.76
433.54	25207.57
433.72	24072.41
433.91	24730.10
434.10	27716.62
434.28	29165.42
434.47	31239.13
434.66	30110.99
434.85	29268.40
435.03	29694.38
435.22	30089.93
435.41	32350.88
435.59	32208.11
435.78	32811.97
435.97	33130.28
436.16	33537.54
436.34	32514.72
436.53	32400.04
436.72	32430.46
436.90	30473.78
437.09	31019.12
437.28	30649.32
437.46	30918.48
437.65	30670.38
437.84	28608.37
438.02	26600.19
438.21	26529.97
438.40	28299.42
438.58	30338.02
438.77	31342.11
438.96	31281.26
439.14	33067.09
439.33	33535.20
439.52	33883.94
439.70	33230.93
439.89	32446.85
440.08	31718.94
440.26	31927.25
440.45	32844.74
440.63	34796.74
440.82	36706.62
441.01	35634.66
441.19	35894.46
441.38	36545.12
441.57	37439.21
441.75	38052.43
441.94	38232.65
442.12	37544.53
442.31	39030.77
442.50	38342.66
442.68	38195.20
442.87	38132.01
443.05	37242.60
443.24	38010.30
443.43	38574.37
443.61	39264.83
443.80	39400.58
443.98	37699.01
444.17	37282.39
444.35	39854.64
444.54	40250.19
444.73	39702.51
444.91	37785.61
445.10	36297.03
445.28	35225.06
445.47	34787.38
445.65	35133.78
445.84	36016.16
446.02	37415.80
446.21	37504.74
446.39	37605.39
446.58	38405.85
446.77	39267.17
446.95	38829.49
447.14	40568.51
447.32	41242.58
447.51	39749.32
447.69	38752.25
447.88	38405.85
448.06	39047.16
448.25	39009.71
448.43	39901.45
448.62	38876.30
448.80	38770.97
448.99	38801.40
449.17	39526.97
449.36	39412.28
449.54	40851.71
449.73	41237.90
449.91	41724.73
450.10	43320.98
450.28	43194.59
450.46	43318.64
450.65	43161.82
450.83	42738.18
451.02	41858.14
451.20	41687.28
451.39	41944.74
451.57	41853.46
451.76	41537.49
451.94	41879.21
452.13	40414.03
452.31	38998.01
452.49	37207.50
452.68	37598.37
452.86	37928.38
453.05	38153.07
453.23	39433.35
453.42	40371.90
453.60	41371.31
453.78	41682.60
453.97	41041.29
454.15	41481.31
454.34	40170.61
454.52	40589.57
454.70	39737.62
454.89	40383.60
455.07	40552.12
455.26	41359.61
455.44	42251.35
455.62	43119.69
455.81	43056.50
455.99	42866.91
456.17	42541.58
456.36	42665.63
456.54	43810.15
456.73	43777.38
456.91	44282.94
457.09	44334.43
457.28	45315.11
457.46	43700.14
457.64	43393.53
457.83	42026.66
458.01	41116.19
458.19	42342.63
458.38	42450.30
458.56	44083.99
458.74	43590.14
458.93	43178.20
459.11	43145.44
459.29	42761.59
459.48	42990.96
459.66	42590.73
459.84	43124.37
460.03	43604.18
460.21	43391.19
460.39	44563.80
460.57	44261.87
460.76	44912.54
460.94	45315.11
461.12	44402.30
461.31	44701.89
461.49	44201.02
461.67	44243.15
461.85	45975.14
462.04	45261.28
462.22	45834.71
462.40	45350.22
462.59	45684.92
462.77	45600.66
462.95	45619.38
463.13	45001.48
463.32	44830.62
463.50	44350.81
463.68	44706.57
463.86	44945.31
464.05	44254.85
464.23	42808.40
464.41	42759.25
464.59	42581.37
464.78	44589.55
464.96	44072.29
465.14	44098.03
465.32	44996.80
465.50	46155.36
465.69	46057.06
465.87	45586.61
466.05	44507.63
466.23	42363.70
466.41	41553.87
466.60	43098.62
466.78	42845.85
466.96	43901.43
467.14	43861.64
467.32	44205.70
467.51	44430.39
467.69	42574.34
467.87	43768.02
468.05	44226.76
468.23	44397.62
468.41	44446.77
468.60	44275.91
468.78	44734.66
468.96	44271.23
469.14	45364.26
469.32	45401.71
469.50	43639.29
469.69	43594.82
469.87	43351.40
470.05	42838.83
470.23	43292.89
470.41	43056.50
470.59	43742.27
470.77	43835.89
470.95	44751.04
471.14	45357.24
471.32	44828.28
471.50	47585.43
471.68	47402.87
471.86	47730.54
472.04	48200.99
472.22	47643.94
472.40	46162.39
472.58	45830.03
472.77	45390.01
472.95	46632.83
473.13	47475.43
473.31	46429.21
473.49	46735.82
473.67	46927.74
473.85	47498.83
474.03	48399.94
474.21	48519.31
474.39	49198.06
474.57	48481.86
474.75	49095.08
474.93	48652.72
475.12	48320.36
475.30	47842.89
475.48	47868.64
475.66	48676.12
475.84	48390.58
476.02	47559.69
476.20	47136.05
476.38	48058.22
476.56	49366.58
476.74	50007.89
476.92	50057.04
477.10	50094.49
477.28	51075.17
477.46	51325.61
477.64	51592.43
477.82	52011.38
478.00	52023.09
478.18	51536.26
478.36	51290.50
478.54	51227.31
478.72	51707.12
478.90	52533.32
479.08	53148.88
479.26	53343.15
479.44	53495.28
479.62	53394.64
479.80	53343.15
479.98	53425.07
480.16	53715.29
480.34	53464.86
480.52	53883.81
480.70	53951.69
480.88	54038.29
481.06	54433.84
481.24	54607.04
481.41	55121.96
481.59	55735.18
481.77	55285.79
481.95	54745.13
482.13	54831.73
482.31	55210.90
482.49	55426.23
482.67	55442.61
482.85	55529.21
483.03	56189.24
483.21	56420.95
483.39	56367.12
483.57	55480.06
483.74	55744.54
483.92	55959.87
484.10	55796.03
484.28	56521.60
484.46	56846.93
484.64	57176.95
484.82	56388.19
485.00	56268.82
485.18	55484.74
485.35	54555.55
485.53	52009.04
485.71	49106.78
485.89	48744.00
486.07	50817.71
486.25	53736.36
486.43	54981.52
486.61	55250.69
486.78	55419.20
486.96	55505.80
487.14	56706.50
487.32	57439.09
487.50	58253.59
487.68	58513.39
487.85	58955.75
488.03	58887.88
488.21	58468.92
488.39	58213.80
488.57	57666.12
488.75	57368.87
488.92	58658.51
489.10	60058.15
489.28	60818.82
489.46	61282.25
489.64	61010.74
489.81	61347.78
489.99	61001.38
490.17	61251.82
490.35	61450.77
490.53	61106.71
490.70	60795.42
490.88	60498.17
491.06	61478.85
491.24	61439.06
491.41	60413.91
491.59	59393.43
491.77	58838.73
491.95	59760.90
492.13	60603.49
492.30	61783.12
492.48	62408.04
492.66	62602.31
492.84	62829.34
493.01	62401.02
493.19	61996.11
493.37	61556.09
493.54	61588.86
493.72	62321.44
493.90	62934.66
494.08	63540.86
494.25	63760.87
494.43	64030.04
494.61	64147.06
494.79	64135.36
494.96	64015.99
495.14	63529.16
495.32	62777.85
495.49	62504.01
495.67	63133.61
495.85	64479.42
496.02	64678.36
496.20	64626.87
496.38	64100.25
496.55	63966.84
496.73	64467.72
496.91	64580.06
497.09	65106.68
497.26	65204.98
497.44	64563.68
497.62	64259.41
497.79	63245.96
497.97	62606.99
498.14	62728.70
498.32	63529.16
498.50	64252.39
498.67	64870.29
498.85	64739.22
499.03	64896.03
499.20	65249.45
499.38	65265.84
499.56	64914.76
499.73	64467.72
499.91	64343.67
500.08	63693.00
500.26	63238.93
500.44	63756.19
500.61	64320.26
500.79	64285.15
500.97	63917.69
501.14	63660.23
501.32	63515.12
501.49	63428.52
501.67	63770.24
501.84	64037.06
502.02	64233.66
502.20	64463.03
502.37	64769.64
502.55	64856.24
502.72	65137.11
502.90	65535.00
503.07	65204.98
503.25	65134.77
503.43	64411.54
503.60	63812.37
503.78	63260.00
503.95	63828.75
504.13	64900.71
504.30	65471.81
504.48	65382.87
504.65	65076.26
504.83	65289.24
505.01	65535.00
505.18	65535.00
505.36	65535.00
505.53	65535.00
505.71	65535.00
505.88	65535.00
506.06	65535.00
506.23	65535.00
506.41	65535.00
506.58	65535.00
506.76	65535.00
506.93	65535.00
507.11	65535.00
507.28	65535.00
507.46	65190.94
507.63	64748.58
507.81	64746.24
507.98	64924.12
508.16	65443.72
508.33	65535.00
508.50	65535.00
508.68	65535.00
508.85	65535.00
509.03	65535.00
509.20	65535.00
509.38	65535.00
509.55	65525.64
509.73	65448.40
509.90	65535.00
510.08	65535.00
510.25	65535.00
510.42	65535.00
510.60	65535.00
510.77	65535.00
510.95	65535.00
511.12	65535.00
511.30	65535.00
511.47	65535.00
511.64	65535.00
511.82	65535.00
511.99	65535.00
512.17	65535.00
512.34	65535.00
512.51	65535.00
512.69	65535.00
512.86	65535.00
513.04	65535.00
513.21	65535.00
513.38	65535.00
513.56	65457.76
513.73	65116.04
513.90	65188.60
514.08	65446.06
514.25	65535.00
514.43	65535.00
514.60	65535.00
514.77	65535.00
514.95	65535.00
515.12	65535.00
515.29	65535.00
515.47	65535.00
515.64	65535.00
515.81	65535.00
515.99	65535.00
516.16	64617.51
516.33	62808.28
516.51	61630.99
516.68	60973.30
516.85	60633.92
517.03	61378.21
517.20	63398.09
517.37	65488.19
517.54	65535.00
517.72	65415.63
517.89	63510.44
518.06	61755.03
518.24	62017.17
518.41	63826.41
518.58	64800.07
518.75	65020.08
518.93	65195.62
519.10	65300.95
519.27	65481.17
519.45	65535.00
519.62	65535.00
519.79	65535.00
519.96	65535.00
520.14	65535.00
520.31	65099.66
520.48	65176.90
520.65	65535.00
520.83	65535.00
521.00	65535.00
521.17	65535.00
521.34	65535.00
521.52	65535.00
521.69	65535.00
521.86	65535.00
522.03	65535.00
522.20	65535.00
522.38	65099.66
522.55	65113.70
522.72	65535.00
522.89	65535.00
523.07	65535.00
523.24	65535.00
523.41	65535.00
523.58	65535.00
523.75	65535.00
523.92	65535.00
524.10	65535.00
524.27	65535.00
524.44	65535.00
524.61	65535.00
524.78	65535.00
524.96	65535.00
525.13	65535.00
525.30	65535.00
525.47	65535.00
525.64	65535.00
525.81	65535.00
525.98	65535.00
526.16	64280.47
526.33	63732.79
526.50	63592.36
526.67	63447.24
526.84	63990.25
527.01	64383.46
527.18	65352.44
527.36	65535.00
527.53	65535.00
527.70	65535.00
527.87	65535.00
528.04	65535.00
528.21	65535.00
528.38	65535.00
528.55	65535.00
528.72	65535.00
528.89	65535.00
529.07	65535.00
529.24	65535.00
529.41	65535.00
529.58	65535.00
529.75	65535.00
529.92	65535.00
530.09	65535.00
530.26	65535.00
530.43	65535.00
530.60	65535.00
530.77	65535.00
530.94	65535.00
531.11	65535.00
531.28	65535.00
531.46	65535.00
531.63	65535.00
531.80	65535.00
531.97	65535.00
532.14	65535.00
532.31	65293.92
532.48	64619.85
532.65	64846.88
532.82	65535.00
532.99	65535.00
533.16	65535.00
533.33	65535.00
533.50	65535.00
533.67	65535.00
533.84	65535.00
534.01	65535.00
534.18	65535.00
534.35	65535.00
534.52	65535.00
534.69	65535.00
534.86	65535.00
535.03	65535.00
535.20	65535.00
535.37	65535.00
535.54	65535.00
535.71	65535.00
535.88	65535.00
536.05	65535.00
536.22	65535.00
536.38	65535.00
536.55	65535.00
536.72	65181.58
536.89	65382.87
537.06	65535.00
537.23	65535.00
537.40	65535.00
537.57	65535.00
537.74	65535.00
537.91	65535.00
538.08	65535.00
538.25	65535.00
538.42	65535.00
538.59	65535.00
538.75	65535.00
538.92	65535.00
539.09	65535.00
539.26	65535.00
539.43	65420.31
539.60	65535.00
539.77	65535.00
539.94	65535.00
540.11	64914.76
540.28	64481.76
540.44	64708.79
540.61	65092.64
540.78	65027.10
540.95	65535.00
541.12	65535.00
541.29	65535.00
541.46	65535.00
541.62	65535.00
541.79	65535.00
541.96	65535.00
542.13	65535.00
542.30	65535.00
542.47	65535.00
542.63	65535.00
542.80	65439.04
542.97	65535.00
543.14	65535.00
543.31	65535.00
543.48	65535.00
543.64	65535.00
543.81	65535.00
543.98	65535.00
544.15	65535.00
544.32	65535.00
544.48	65535.00
544.65	65535.00
544.82	65535.00
544.99	65535.00
545.16	65535.00
545.32	65535.00
545.49	65535.00
545.66	65535.00
545.83	65535.00
546.00	65535.00
546.16	65535.00
546.33	65535.00
546.50	65535.00
546.67	65535.00
546.83	65535.00
547.00	65535.00
547.17	65193.28
547.34	64905.40
547.50	64811.77
547.67	65401.59
547.84	65396.91
548.00	65535.00
548.17	65535.00
548.34	65535.00
548.51	65535.00
548.67	65535.00
548.84	65535.00
549.01	65535.00
549.18	65535.00
549.34	65535.00
549.51	65535.00
549.68	65535.00
549.84	65535.00
550.01	65535.00
550.18	65457.76
550.34	65535.00
550.51	65535.00
550.68	65535.00
550.84	65139.45
551.01	65254.14
551.18	65289.24
551.34	65415.63
551.51	65535.00
551.68	65535.00
551.84	65535.00
552.01	65535.00
552.18	65535.00
552.34	64963.91
552.51	64938.16
552.68	64870.29
552.84	65083.28
553.01	65443.72
553.18	65165.20
553.34	65424.99
553.51	65474.15
553.67	65535.00
553.84	65535.00
554.01	65535.00
554.17	65535.00
554.34	65535.00
554.51	65535.00
554.67	65535.00
554.84	65535.00
555.00	65535.00
555.17	65219.03
555.33	65303.29
555.50	65284.56
555.67	65420.31
555.83	65059.87
556.00	65006.04
556.16	65031.78
556.33	64659.64
556.50	64448.99
556.66	64645.60
556.83	64343.67
556.99	64491.12
557.16	64671.34
557.32	64692.41
557.49	65029.44
557.65	64811.77
557.82	64755.60
557.98	64587.08
558.15	64224.30
558.32	63627.46
558.48	63164.04
558.65	63175.74
558.81	63444.90
558.98	63693.00
559.14	63800.66
559.31	63931.73
559.47	63894.28
559.64	63657.89
559.80	63318.51
559.97	63472.99
560.13	63842.79
560.30	64551.98
560.46	64984.97
560.63	65319.67
560.79	65403.93
560.96	64694.75
561.12	63910.67
561.29	63224.89
561.45	63215.53
561.61	63753.85
561.78	64430.27
561.94	64039.40
562.11	63826.41
562.27	63994.93
562.44	63990.25
562.60	64320.26
562.77	64486.44
562.93	64505.16
563.10	64367.07
563.26	63973.86
563.42	64076.85
563.59	63791.30
563.75	63758.53
563.92	63786.62
564.08	63690.66
564.24	63936.41
564.41	64041.74
564.57	63929.39
564.74	63817.05
564.90	63643.85
565.07	63472.99
565.23	63206.17
565.39	62721.68
565.56	62562.52
565.72	62300.38
565.88	62934.66
566.05	62827.00
566.21	62946.37
566.38	63234.25
566.54	62974.45
566.70	63554.91
566.87	63657.89
567.03	63765.56
567.19	63784.28
567.36	63650.87
567.52	63636.83
567.68	63189.78
567.85	62824.66
568.01	62597.63
568.17	62087.39
568.34	62272.29
568.50	62115.48
568.66	62347.19
568.83	62436.13
568.99	62618.69
569.15	63054.03
569.32	62995.52
569.48	62660.82
569.64	62333.15
569.81	62181.01
569.97	62120.16
570.13	62010.15
570.30	61525.66
570.46	61209.69
570.62	60940.53
570.78	60975.64
570.95	61102.03
571.11	61745.67
571.27	62085.05
571.43	62031.22
571.60	62379.96
571.76	62646.78
571.92	62939.35
572.09	62906.58
572.25	62876.15
572.41	62611.67
572.57	62539.11
572.74	62557.84
572.90	62136.54
573.06	62314.42
573.22	62293.36
573.38	62035.90
573.55	62169.31
573.71	62358.89
573.87	62300.38
574.03	62328.47
574.20	62284.00
574.36	61848.66
574.52	61698.86
574.68	61572.47
574.84	61064.58
575.01	60706.47
575.17	60973.30
575.33	61275.22
575.49	61607.58
575.65	61645.03
575.82	61385.23
575.98	61277.57
576.14	61373.53
576.30	61375.87
576.46	61748.01
576.62	61586.52
576.79	61691.84
576.95	61326.72
577.11	61382.89
577.27	61263.52
577.43	61640.35
577.59	60954.57
577.75	60736.90
577.92	60252.41
578.08	60044.10
578.24	60126.02
578.40	60556.68
578.56	60537.96
578.72	60645.62
578.88	60928.83
579.04	61092.66
579.21	61123.09
579.37	61017.77
579.53	61050.53
579.69	61123.09
579.85	61300.97
580.01	61095.00
580.17	60732.22
580.33	60598.81
580.49	60699.45
580.65	60947.55
580.82	61207.35
580.98	60893.72
581.14	61078.62
581.30	61450.77
581.46	61055.21
581.62	61237.78
581.78	60786.05
581.94	61085.64
582.10	61399.27
582.26	61169.90
582.42	61403.95
582.58	61371.19
582.74	61123.09
582.90	61111.39
583.06	61205.01
583.22	61013.08
583.38	61017.77
583.54	60956.91
583.70	60924.14
583.86	61041.17
584.02	60786.05
584.18	60996.70
584.34	60734.56
584.50	60750.94
584.66	60559.02
584.82	60463.06
584.98	60317.95
