SpectraSuite Data File
++++++++++++++++++++++++++++++++++++
Date: Mon Oct 07 14:53:17 GMT-05:00 2013
User: price-jones
Dark Spectrum Present: No
Reference Spectrum Present: No
Number of Sampled Component Spectra: 1
Spectrometers: USB2+H05261
Integration Time (usec): 100000 (USB2+H05261)
Spectra Averaged: 1 (USB2+H05261)
Boxcar Smoothing: 0 (USB2+H05261)
Correct for Electrical Dark: No (USB2+H05261)
Strobe/Lamp Enabled: No (USB2+H05261)
Correct for Detector Non-linearity: No (USB2+H05261)
Correct for Stray Light: No (USB2+H05261)
Number of Pixels in Processed Spectrum: 2048
>>>>>Begin Processed Spectral Data<<<<<
365.73	0.00
365.92	0.00
366.12	0.00
366.32	0.00
366.52	0.00
366.72	0.00
366.91	0.00
367.11	0.00
367.31	0.00
367.51	0.00
367.70	0.00
367.90	0.00
368.10	0.00
368.30	0.00
368.49	0.00
368.69	0.00
368.89	0.00
369.09	0.00
369.28	0.00
369.48	0.00
369.68	0.00
369.87	0.00
370.07	0.00
370.27	0.00
370.47	1259.21
370.66	5401.96
370.86	6469.24
371.06	6942.03
371.25	6729.04
371.45	6059.65
371.65	5671.12
371.84	5364.51
372.04	5596.22
372.24	6216.46
372.44	6473.92
372.63	6321.79
372.83	5827.93
373.03	5240.46
373.22	4828.53
373.42	5118.75
373.62	6019.86
373.81	6244.55
374.01	6183.70
374.21	5570.48
374.40	5198.33
374.60	5626.65
374.79	6410.73
374.99	7260.34
375.19	7674.62
375.38	7648.87
375.58	7220.55
375.78	7157.36
375.97	7283.75
376.17	7351.62
376.37	7389.07
376.56	7705.04
376.76	7887.61
376.95	8610.83
377.15	9233.41
377.35	9685.14
377.54	9769.40
377.74	9865.36
377.93	9984.73
378.13	9628.96
378.33	9315.33
378.52	8407.20
378.72	8102.93
378.91	8201.24
379.11	7803.35
379.31	7700.36
379.50	7564.61
379.70	8203.58
379.89	9174.90
380.09	9533.00
380.28	9715.56
380.48	9762.37
380.68	9420.66
380.87	9261.50
381.07	8414.23
381.26	8053.78
381.46	7265.02
381.65	7267.36
381.85	6867.13
382.04	6593.29
382.24	6319.45
382.43	6064.33
382.63	5818.57
382.83	5748.36
383.02	5874.74
383.22	5806.87
383.41	5928.58
383.61	6345.19
383.80	7375.03
384.00	8425.93
384.19	9029.79
384.39	9343.42
384.58	9607.90
384.78	9483.85
384.97	9415.98
385.17	8774.67
385.36	8194.22
385.56	7808.03
385.75	8297.20
385.95	9114.05
386.14	9879.40
386.34	9488.53
386.53	9392.57
386.72	8793.39
386.92	9029.79
387.11	9437.04
387.31	9893.44
387.50	9675.77
387.70	9376.19
387.89	9296.61
388.09	9132.77
388.28	9195.96
388.48	9516.62
388.67	10090.05
388.86	11201.80
389.06	11894.60
389.25	12496.12
389.45	12510.16
389.64	12461.01
389.84	12439.95
390.03	12264.41
390.22	12212.92
390.42	12484.42
390.61	13366.80
390.81	14244.50
391.00	14684.52
391.19	14457.49
391.39	13909.80
391.58	12968.91
391.78	12276.11
391.97	11672.25
392.16	10942.00
392.36	9973.02
392.55	7941.44
392.75	6277.32
392.94	5310.68
393.13	5397.28
393.33	6345.19
393.52	7922.71
393.71	9783.44
393.91	11028.60
394.10	11737.79
394.29	13294.24
394.49	13991.72
394.68	15143.27
394.88	15122.20
395.07	15669.89
395.26	15494.35
395.46	14930.28
395.65	13795.12
395.84	12278.45
396.04	10129.84
396.23	8332.31
396.42	7082.46
396.62	6857.77
396.81	8241.03
397.00	10317.08
397.19	13174.88
397.39	15264.97
397.58	16950.16
397.77	18115.75
397.97	19033.24
398.16	19028.56
398.35	19845.40
398.55	20575.65
398.74	20994.61
398.93	21397.18
399.12	21212.28
399.32	20514.80
399.51	20915.03
399.70	22284.24
399.90	21902.73
400.09	21757.62
400.28	21661.66
400.47	21905.07
400.67	22958.31
400.86	23513.02
401.05	23314.08
401.24	23393.65
401.44	24088.79
401.63	24222.20
401.82	24051.34
402.01	24257.31
402.21	23934.32
402.40	24383.70
402.59	23388.97
402.78	22485.53
402.97	21900.39
403.17	22843.63
403.36	24423.49
403.55	25317.57
403.74	25481.41
403.93	23997.51
404.13	22293.60
404.32	21998.70
404.51	23248.54
404.70	24753.51
404.89	24622.44
405.09	24355.61
405.28	23676.86
405.47	23915.59
405.66	23620.69
405.85	22974.70
406.05	22558.08
406.24	22738.30
406.43	23620.69
406.62	24992.24
406.81	24369.66
407.00	23798.57
407.20	23208.75
407.39	23707.29
407.58	24620.10
407.77	25216.93
407.96	26536.99
408.15	26792.11
408.34	26431.67
408.54	28095.79
408.73	28077.07
408.92	27630.02
409.11	26654.02
409.30	25598.44
409.49	23864.10
409.68	22408.29
409.87	21806.77
410.07	23529.41
410.26	24994.58
410.45	26675.09
410.64	27234.47
410.83	28299.42
411.02	29132.65
411.21	29827.79
411.40	29228.61
411.59	29184.14
411.78	29312.87
411.98	28973.49
412.17	29216.91
412.36	28809.65
412.55	29090.52
412.74	28254.95
412.93	27587.89
413.12	27983.44
413.31	30682.08
413.50	31049.55
413.69	31260.20
413.88	30129.72
414.07	29212.23
414.26	30155.46
414.45	30780.39
414.64	30785.07
414.83	31035.50
415.02	30089.93
415.22	29984.60
415.41	31185.30
415.60	31880.44
415.79	33371.36
415.98	33467.32
416.17	33570.30
416.36	32481.95
416.55	32620.05
416.74	31569.15
416.93	30794.43
417.12	30801.45
417.31	31037.84
417.50	31566.81
417.69	32119.17
417.88	32811.97
418.07	31943.63
418.26	31409.99
418.45	31840.65
418.64	32800.27
418.83	34054.79
419.02	33268.37
419.21	33308.16
419.39	31592.55
419.58	30211.64
419.77	30684.42
419.96	32147.26
420.15	33556.26
420.34	34356.72
420.53	35400.60
420.72	35931.90
420.91	35952.97
421.10	35665.08
421.29	35669.76
421.48	33970.54
421.67	35618.27
421.86	34513.54
422.05	32130.87
422.24	29355.00
422.43	28858.81
422.61	31742.35
422.80	34602.48
422.99	34361.40
423.18	33062.41
423.37	32847.08
423.56	32954.74
423.75	33399.44
423.94	33654.56
424.13	32081.72
424.32	32444.51
424.50	32760.48
424.69	32072.36
424.88	32283.01
425.07	32217.47
425.26	32041.93
425.45	31669.79
425.64	31351.48
425.83	31189.98
426.01	33095.18
426.20	34010.32
426.39	33345.61
426.58	30656.34
426.77	28833.06
426.96	27990.47
427.15	29109.24
427.33	31517.65
427.52	32708.99
427.71	32545.15
427.90	31974.06
428.09	31920.23
428.28	31447.44
428.46	30380.15
428.65	29661.61
428.84	30426.96
429.03	30951.24
429.22	29448.62
429.40	27358.52
429.59	25378.43
429.78	22382.54
429.97	22703.20
430.16	22647.02
430.34	22916.19
430.53	23000.44
430.72	23601.96
430.91	26258.47
431.10	30679.74
431.28	35409.96
431.47	38567.35
431.66	38689.06
431.85	35288.26
432.03	32369.61
432.22	31232.11
432.41	33008.58
432.60	35964.67
432.79	36943.02
432.97	38052.43
433.16	36844.71
433.35	33507.11
433.54	30546.33
433.72	28856.46
433.91	29575.01
434.10	33577.33
434.28	35786.79
434.47	37305.80
434.66	36627.04
434.85	35807.86
435.03	35548.06
435.22	36840.03
435.41	38450.32
435.59	38366.06
435.78	39005.03
435.97	40084.01
436.16	39997.41
436.34	39545.69
436.53	38911.41
436.72	38892.68
436.90	36985.15
437.09	37530.49
437.28	36011.48
437.46	37373.67
437.65	37340.91
437.84	34609.50
438.02	32238.54
438.21	32034.91
438.40	33928.41
438.58	36631.72
438.77	37652.20
438.96	37708.37
439.14	39484.84
439.33	40067.63
439.52	40737.02
439.70	39592.50
439.89	38932.47
440.08	37979.87
440.26	37984.55
440.45	39316.32
440.63	41254.28
440.82	43835.89
441.01	43206.29
441.19	42749.88
441.38	43988.03
441.57	44825.94
441.75	45549.17
441.94	45872.16
442.12	45045.95
442.31	46000.89
442.50	45780.88
442.68	45280.00
442.87	44708.91
443.05	44619.97
443.24	45233.19
443.43	46007.91
443.61	46120.26
443.80	46965.19
443.98	44580.18
444.17	44388.26
444.35	47091.58
444.54	47185.20
444.73	46803.69
444.91	45270.64
445.10	44067.61
445.28	41867.50
445.47	41675.58
445.65	41933.04
445.84	42944.15
446.02	44402.30
446.21	44816.58
446.39	44921.90
446.58	45240.21
446.77	46148.34
446.95	46667.94
447.14	47697.78
447.32	48119.07
447.51	47159.45
447.69	45565.55
447.88	45848.75
448.06	46038.34
448.25	46597.73
448.43	46843.48
448.62	45986.85
448.80	45853.44
448.99	46438.57
449.17	46869.23
449.36	46581.34
449.54	48060.56
449.73	48425.68
449.91	48886.77
450.10	50082.78
450.28	50508.76
450.46	50295.77
450.65	50490.04
450.83	49848.73
451.02	48744.00
451.20	49036.56
451.39	49310.41
451.57	48842.30
451.76	49085.72
451.94	48451.43
452.13	47824.17
452.31	45940.04
452.49	43885.04
452.68	45083.40
452.86	44861.05
453.05	45282.34
453.23	46719.43
453.42	47290.52
453.60	48030.13
453.78	48531.01
453.97	48060.56
454.15	48069.92
454.34	47161.79
454.52	47875.66
454.70	47077.54
454.89	47269.46
455.07	47206.26
455.26	47746.93
455.44	49186.36
455.62	49764.47
455.81	49848.73
455.99	50031.29
456.17	49340.83
456.36	49455.52
456.54	50375.35
456.73	50698.34
456.91	51189.86
457.09	51056.45
457.28	52020.75
457.46	50403.44
457.64	50468.97
457.83	49261.26
458.01	48402.28
458.19	49144.23
458.38	49710.64
458.56	50391.73
458.74	50094.49
458.93	49633.40
459.11	49443.82
459.29	49308.07
459.48	49942.35
459.66	49797.24
459.84	49736.38
460.03	50471.31
460.21	50314.50
460.39	51456.68
460.57	51372.42
460.76	51660.30
460.94	51770.31
461.12	50869.20
461.31	51538.60
461.49	51164.11
461.67	51430.93
461.85	52313.31
462.04	52006.70
462.22	52247.78
462.40	51859.25
462.59	52161.18
462.77	51976.28
462.95	52193.95
463.13	51482.42
463.32	51278.80
463.50	51372.42
463.68	51114.96
463.86	51248.37
464.05	50768.56
464.23	49720.00
464.41	50279.39
464.59	49256.57
464.78	51449.66
464.96	51157.09
465.14	50459.61
465.32	51688.39
465.50	52439.70
465.69	52580.13
465.87	52149.48
466.05	50948.78
466.23	49584.25
466.41	48863.36
466.60	49492.97
466.78	49668.51
466.96	50218.53
467.14	50824.73
467.32	51040.06
467.51	51327.95
467.69	49577.23
467.87	50340.24
468.05	50848.14
468.23	50995.59
468.41	50997.93
468.60	51344.33
468.78	51461.36
468.96	50897.29
469.14	51503.49
469.32	51882.66
469.50	50597.70
469.69	50635.15
469.87	50197.47
470.05	49921.29
470.23	49640.42
470.41	50377.69
470.59	50529.83
470.77	50681.96
470.95	51576.04
471.14	51873.29
471.32	51484.76
471.50	53567.84
471.68	53581.88
471.86	53998.50
472.04	53876.79
472.22	54035.95
472.40	52594.18
472.58	52364.81
472.77	51803.08
472.95	52708.86
473.13	53319.74
473.31	52444.38
473.49	52898.45
473.67	53155.91
473.85	53460.18
474.03	54188.08
474.21	54218.51
474.39	54525.12
474.57	54817.69
474.75	54461.93
474.93	54391.71
475.12	53556.14
475.30	54045.31
475.48	53956.37
475.66	54302.77
475.84	54124.89
476.02	54021.90
476.20	53411.02
476.38	53993.82
476.56	55112.59
476.74	55264.73
476.92	55320.90
477.10	55987.95
477.28	56573.09
477.46	56573.09
477.64	56652.67
477.82	56882.04
478.00	56893.74
478.18	56397.55
478.36	56273.50
478.54	56465.42
478.72	56999.07
478.90	57357.17
479.08	58115.50
479.26	58403.39
479.44	58124.86
479.62	58003.16
479.80	57869.75
479.98	58237.21
480.16	58398.71
480.34	57961.03
480.52	58403.39
480.70	58635.10
480.88	58859.79
481.06	59201.51
481.24	59365.35
481.41	59573.66
481.59	60137.72
481.77	60076.87
481.95	59568.97
482.13	59545.57
482.31	59667.28
482.49	60114.32
482.67	59866.22
482.85	60275.82
483.03	60444.33
483.21	60863.29
483.39	60570.72
483.57	60130.70
483.74	60119.00
483.92	60331.99
484.10	60355.39
484.28	60872.65
484.46	61020.11
484.64	61336.08
484.82	60907.76
485.00	60697.11
485.18	59999.63
485.35	59058.74
485.53	57179.29
485.71	54674.91
485.89	54452.56
486.07	55994.98
486.25	57979.75
486.43	59723.45
486.61	59779.62
486.78	59819.41
486.96	60013.68
487.14	60872.65
487.32	61535.02
487.50	62209.10
487.68	62777.85
487.85	62925.30
488.03	62864.45
488.21	62602.31
488.39	62255.91
488.57	61811.21
488.75	61649.71
488.92	62426.77
489.10	64034.72
489.28	64881.99
489.46	65214.35
489.64	65296.27
489.81	65340.74
489.99	64910.08
490.17	64975.61
490.35	65338.40
490.53	64931.14
490.70	64783.69
490.88	64594.10
491.06	65535.00
491.24	65448.40
491.41	64619.85
491.59	63458.94
491.77	62897.22
491.95	63795.98
492.13	64535.59
492.30	65535.00
492.48	65535.00
492.66	65535.00
492.84	65535.00
493.01	65535.00
493.19	65535.00
493.37	65535.00
493.54	65535.00
493.72	65535.00
493.90	65535.00
494.08	65535.00
494.25	65535.00
494.43	65535.00
494.61	65535.00
494.79	65535.00
494.96	65535.00
495.14	65535.00
495.32	65535.00
495.49	65535.00
495.67	65535.00
495.85	65535.00
496.02	65535.00
496.20	65535.00
496.38	65535.00
496.55	65535.00
496.73	65535.00
496.91	65535.00
497.09	65535.00
497.26	65535.00
497.44	65535.00
497.62	65535.00
497.79	65535.00
497.97	65535.00
498.14	65535.00
498.32	65535.00
498.50	65535.00
498.67	65535.00
498.85	65535.00
499.03	65535.00
499.20	65535.00
499.38	65535.00
499.56	65535.00
499.73	65535.00
499.91	65535.00
500.08	65535.00
500.26	65535.00
500.44	65535.00
500.61	65535.00
500.79	65535.00
500.97	65535.00
501.14	65535.00
501.32	65535.00
501.49	65535.00
501.67	65535.00
501.84	65535.00
502.02	65535.00
502.20	65535.00
502.37	65535.00
502.55	65535.00
502.72	65535.00
502.90	65535.00
503.07	65535.00
503.25	65535.00
503.43	65535.00
503.60	65535.00
503.78	65535.00
503.95	65535.00
504.13	65535.00
504.30	65535.00
504.48	65535.00
504.65	65535.00
504.83	65535.00
505.01	65535.00
505.18	65535.00
505.36	65535.00
505.53	65535.00
505.71	65535.00
505.88	65535.00
506.06	65535.00
506.23	65535.00
506.41	65535.00
506.58	65535.00
506.76	65535.00
506.93	65535.00
507.11	65535.00
507.28	65535.00
507.46	65535.00
507.63	65535.00
507.81	65535.00
507.98	65535.00
508.16	65535.00
508.33	65535.00
508.50	65535.00
508.68	65535.00
508.85	65535.00
509.03	65535.00
509.20	65535.00
509.38	65535.00
509.55	65535.00
509.73	65535.00
509.90	65535.00
510.08	65535.00
510.25	65535.00
510.42	65535.00
510.60	65535.00
510.77	65535.00
510.95	65535.00
511.12	65535.00
511.30	65535.00
511.47	65535.00
511.64	65535.00
511.82	65535.00
511.99	65535.00
512.17	65535.00
512.34	65535.00
512.51	65535.00
512.69	65535.00
512.86	65535.00
513.04	65535.00
513.21	65535.00
513.38	65535.00
513.56	65535.00
513.73	65535.00
513.90	65535.00
514.08	65535.00
514.25	65535.00
514.43	65535.00
514.60	65535.00
514.77	65535.00
514.95	65535.00
515.12	65535.00
515.29	65535.00
515.47	65535.00
515.64	65535.00
515.81	65535.00
515.99	65535.00
516.16	65535.00
516.33	65535.00
516.51	65535.00
516.68	65535.00
516.85	64633.89
517.03	65116.04
517.20	65535.00
517.37	65535.00
517.54	65535.00
517.72	65535.00
517.89	65535.00
518.06	65535.00
518.24	65535.00
518.41	65535.00
518.58	65535.00
518.75	65535.00
518.93	65535.00
519.10	65535.00
519.27	65535.00
519.45	65535.00
519.62	65535.00
519.79	65535.00
519.96	65535.00
520.14	65535.00
520.31	65535.00
520.48	65535.00
520.65	65535.00
520.83	65535.00
521.00	65535.00
521.17	65535.00
521.34	65535.00
521.52	65535.00
521.69	65535.00
521.86	65535.00
522.03	65535.00
522.20	65535.00
522.38	65535.00
522.55	65535.00
522.72	65535.00
522.89	65535.00
523.07	65535.00
523.24	65535.00
523.41	65535.00
523.58	65535.00
523.75	65535.00
523.92	65535.00
524.10	65535.00
524.27	65535.00
524.44	65535.00
524.61	65535.00
524.78	65535.00
524.96	65535.00
525.13	65535.00
525.30	65535.00
525.47	65535.00
525.64	65535.00
525.81	65535.00
525.98	65535.00
526.16	65535.00
526.33	65535.00
526.50	65535.00
526.67	65535.00
526.84	65535.00
527.01	65535.00
527.18	65535.00
527.36	65535.00
527.53	65535.00
527.70	65535.00
527.87	65535.00
528.04	65535.00
528.21	65535.00
528.38	65535.00
528.55	65535.00
528.72	65535.00
528.89	65535.00
529.07	65535.00
529.24	65535.00
529.41	65535.00
529.58	65535.00
529.75	65535.00
529.92	65535.00
530.09	65535.00
530.26	65535.00
530.43	65535.00
530.60	65535.00
530.77	65535.00
530.94	65535.00
531.11	65535.00
531.28	65535.00
531.46	65535.00
531.63	65535.00
531.80	65535.00
531.97	65535.00
532.14	65535.00
532.31	65535.00
532.48	65535.00
532.65	65535.00
532.82	65535.00
532.99	65535.00
533.16	65535.00
533.33	65535.00
533.50	65535.00
533.67	65535.00
533.84	65535.00
534.01	65535.00
534.18	65535.00
534.35	65535.00
534.52	65535.00
534.69	65535.00
534.86	65535.00
535.03	65535.00
535.20	65535.00
535.37	65535.00
535.54	65535.00
535.71	65535.00
535.88	65535.00
536.05	65535.00
536.22	65535.00
536.38	65535.00
536.55	65535.00
536.72	65535.00
536.89	65535.00
537.06	65535.00
537.23	65535.00
537.40	65535.00
537.57	65535.00
537.74	65535.00
537.91	65535.00
538.08	65535.00
538.25	65535.00
538.42	65535.00
538.59	65535.00
538.75	65535.00
538.92	65535.00
539.09	65535.00
539.26	65535.00
539.43	65535.00
539.60	65535.00
539.77	65535.00
539.94	65535.00
540.11	65535.00
540.28	65535.00
540.44	65535.00
540.61	65535.00
540.78	65535.00
540.95	65535.00
541.12	65535.00
541.29	65535.00
541.46	65535.00
541.62	65535.00
541.79	65535.00
541.96	65535.00
542.13	65535.00
542.30	65535.00
542.47	65535.00
542.63	65535.00
542.80	65535.00
542.97	65535.00
543.14	65535.00
543.31	65535.00
543.48	65535.00
543.64	65535.00
543.81	65535.00
543.98	65535.00
544.15	65535.00
544.32	65535.00
544.48	65535.00
544.65	65535.00
544.82	65535.00
544.99	65535.00
545.16	65535.00
545.32	65535.00
545.49	65535.00
545.66	65535.00
545.83	65535.00
546.00	65535.00
546.16	65535.00
546.33	65535.00
546.50	65535.00
546.67	65535.00
546.83	65535.00
547.00	65535.00
547.17	65535.00
547.34	65535.00
547.50	65535.00
547.67	65535.00
547.84	65535.00
548.00	65535.00
548.17	65535.00
548.34	65535.00
548.51	65535.00
548.67	65535.00
548.84	65535.00
549.01	65535.00
549.18	65535.00
549.34	65535.00
549.51	65535.00
549.68	65535.00
549.84	65535.00
550.01	65535.00
550.18	65535.00
550.34	65535.00
550.51	65535.00
550.68	65535.00
550.84	65535.00
551.01	65535.00
551.18	65535.00
551.34	65535.00
551.51	65535.00
551.68	65535.00
551.84	65535.00
552.01	65535.00
552.18	65535.00
552.34	65535.00
552.51	65535.00
552.68	65535.00
552.84	65535.00
553.01	65535.00
553.18	65535.00
553.34	65535.00
553.51	65535.00
553.67	65535.00
553.84	65535.00
554.01	65535.00
554.17	65535.00
554.34	65535.00
554.51	65535.00
554.67	65535.00
554.84	65535.00
555.00	65535.00
555.17	65535.00
555.33	65535.00
555.50	65535.00
555.67	65535.00
555.83	65535.00
556.00	65535.00
556.16	65535.00
556.33	65535.00
556.50	65535.00
556.66	65535.00
556.83	65535.00
556.99	65535.00
557.16	65535.00
557.32	65535.00
557.49	65535.00
557.65	65535.00
557.82	65535.00
557.98	65535.00
558.15	65535.00
558.32	65535.00
558.48	65535.00
558.65	65535.00
558.81	65535.00
558.98	65535.00
559.14	65535.00
559.31	65535.00
559.47	65535.00
559.64	65535.00
559.80	65535.00
559.97	65535.00
560.13	65535.00
560.30	65535.00
560.46	65535.00
560.63	65535.00
560.79	65535.00
560.96	65535.00
561.12	65535.00
561.29	65535.00
561.45	65535.00
561.61	65535.00
561.78	65535.00
561.94	65535.00
562.11	65535.00
562.27	65535.00
562.44	65535.00
562.60	65535.00
562.77	65535.00
562.93	65535.00
563.10	65535.00
563.26	65535.00
563.42	65535.00
563.59	65535.00
563.75	65535.00
563.92	65535.00
564.08	65535.00
564.24	65535.00
564.41	65535.00
564.57	65535.00
564.74	65535.00
564.90	65535.00
565.07	65535.00
565.23	65535.00
565.39	65535.00
565.56	65535.00
565.72	65535.00
565.88	65535.00
566.05	65535.00
566.21	65535.00
566.38	65535.00
566.54	65535.00
566.70	65535.00
566.87	65535.00
567.03	65535.00
567.19	65535.00
567.36	65535.00
567.52	65535.00
567.68	65535.00
567.85	65535.00
568.01	65535.00
568.17	65535.00
568.34	65535.00
568.50	65535.00
568.66	65535.00
568.83	65535.00
568.99	65535.00
569.15	65535.00
569.32	65535.00
569.48	65535.00
569.64	65535.00
569.81	65535.00
569.97	65535.00
570.13	65535.00
570.30	65488.19
570.46	65242.43
570.62	64683.04
570.78	64928.80
570.95	65041.15
571.11	65532.66
571.27	65535.00
571.43	65535.00
571.60	65535.00
571.76	65535.00
571.92	65535.00
572.09	65535.00
572.25	65535.00
572.41	65535.00
572.57	65535.00
572.74	65535.00
572.90	65535.00
573.06	65535.00
573.22	65535.00
573.38	65535.00
573.55	65535.00
573.71	65535.00
573.87	65535.00
574.03	65535.00
574.20	65535.00
574.36	65535.00
574.52	65535.00
574.68	65535.00
574.84	65174.56
575.01	64811.77
575.17	64739.22
575.33	65137.11
575.49	65247.11
575.65	65478.83
575.82	65357.12
575.98	64884.33
576.14	65162.85
576.30	65305.63
576.46	65338.40
576.62	65340.74
576.79	65282.22
576.95	65155.83
577.11	65064.55
577.27	65214.35
577.43	65298.61
577.59	64711.13
577.75	64551.98
577.92	64058.12
578.08	64100.25
578.24	64013.65
578.40	64315.58
578.56	64512.19
578.72	64470.06
578.88	64551.98
579.04	64839.86
579.21	65048.17
579.37	64753.26
579.53	64966.25
579.69	64713.47
579.85	64989.66
580.01	64736.88
580.17	64264.09
580.33	64243.02
580.49	64502.82
580.65	64811.77
580.82	64874.97
580.98	64661.98
581.14	64797.73
581.30	64898.37
581.46	64732.20
581.62	64884.33
581.78	64844.54
581.94	65066.89
582.10	65254.14
582.26	65109.02
582.42	65204.98
582.58	65008.38
582.74	65029.44
582.90	65169.88
583.06	64870.29
583.22	64678.36
583.38	64661.98
583.54	64701.77
583.70	64659.64
583.86	64725.17
584.02	64493.46
584.18	64849.22
584.34	64610.49
584.50	64680.70
584.66	64479.42
584.82	64100.25
