SpectraSuite Data File
++++++++++++++++++++++++++++++++++++
Date: Mon Oct 07 14:53:43 GMT-05:00 2013
User: price-jones
Dark Spectrum Present: No
Reference Spectrum Present: No
Number of Sampled Component Spectra: 1
Spectrometers: USB2+H05261
Integration Time (usec): 100000 (USB2+H05261)
Spectra Averaged: 1 (USB2+H05261)
Boxcar Smoothing: 0 (USB2+H05261)
Correct for Electrical Dark: No (USB2+H05261)
Strobe/Lamp Enabled: No (USB2+H05261)
Correct for Detector Non-linearity: No (USB2+H05261)
Correct for Stray Light: No (USB2+H05261)
Number of Pixels in Processed Spectrum: 2048
>>>>>Begin Processed Spectral Data<<<<<
365.73	0.00
365.92	0.00
366.12	0.00
366.32	0.00
366.52	0.00
366.72	0.00
366.91	0.00
367.11	0.00
367.31	0.00
367.51	0.00
367.70	0.00
367.90	0.00
368.10	0.00
368.30	0.00
368.49	0.00
368.69	0.00
368.89	0.00
369.09	0.00
369.28	0.00
369.48	0.00
369.68	0.00
369.87	0.00
370.07	0.00
370.27	0.00
370.47	739.61
370.66	3569.32
370.86	4042.11
371.06	4461.06
371.25	4451.70
371.45	4067.85
371.65	3510.80
371.84	3445.27
372.04	3541.23
372.24	4021.04
372.44	4184.88
372.63	4294.88
372.83	3836.14
373.03	3335.26
373.22	3206.53
373.42	3229.94
373.62	3772.94
373.81	4184.88
374.01	4152.11
374.21	3747.20
374.40	3552.93
374.60	3597.40
374.79	3957.85
374.99	4667.03
375.19	5210.03
375.38	5139.82
375.58	4840.23
375.78	4734.90
375.97	4814.48
376.17	5025.13
376.37	4987.68
376.56	5078.96
376.76	5420.68
376.95	5799.85
377.15	6127.52
377.35	6434.13
377.54	6693.93
377.74	6885.86
377.93	6977.14
378.13	6829.68
378.33	6179.01
378.52	5727.29
378.72	5682.82
378.91	5526.00
379.11	5383.23
379.31	5114.07
379.50	5135.14
379.70	5582.18
379.89	6134.54
380.09	6413.07
380.28	6747.76
380.48	6703.29
380.68	6534.78
380.87	6480.94
381.07	5870.06
381.26	5540.05
381.46	5135.14
381.65	5071.94
381.85	4905.76
382.04	4751.29
382.24	4407.23
382.43	4234.03
382.63	4030.40
382.83	4189.56
383.02	4163.81
383.22	4023.38
383.41	4161.47
383.61	4297.22
383.80	5001.72
384.00	5638.35
384.19	6410.73
384.39	6679.89
384.58	6675.21
384.78	6417.75
384.97	6382.64
385.17	6225.82
385.36	5970.71
385.56	5523.66
385.75	5652.39
385.95	6303.06
386.14	6944.37
386.34	6942.03
386.53	6604.99
386.72	6200.08
386.92	6244.55
387.11	6403.71
387.31	6796.92
387.50	6738.40
387.70	6438.81
387.89	6558.18
388.09	6483.28
388.28	6551.16
388.48	6691.59
388.67	7206.51
388.86	7915.69
389.06	8344.01
389.25	8879.99
389.45	9050.85
389.64	8814.46
389.84	8758.28
390.03	8711.47
390.22	8730.20
390.42	8814.46
390.61	9341.08
390.81	10092.39
391.00	10476.24
391.19	10141.54
391.39	9935.57
391.58	9394.91
391.78	8772.33
391.97	8573.38
392.16	8058.46
392.36	7407.80
392.55	6012.84
392.75	4734.90
392.94	3801.03
393.13	3681.66
393.33	4449.36
393.52	5647.71
393.71	7033.31
393.91	7758.88
394.10	8430.61
394.29	9315.33
394.49	10106.43
394.68	10913.92
394.88	11066.05
395.07	11180.74
395.26	11229.89
395.46	10787.53
395.65	10429.43
395.84	8987.66
396.04	7634.83
396.23	6171.99
396.42	5153.86
396.62	4985.34
396.81	5757.72
397.00	7375.03
397.19	8922.12
397.39	10832.00
397.58	12189.51
397.77	12814.43
397.97	13731.92
398.16	13458.08
398.35	14366.21
398.55	14424.72
398.74	15108.16
398.93	15864.15
399.12	15452.22
399.32	14773.46
399.51	15007.52
399.70	16526.52
399.90	16121.61
400.09	16086.50
400.28	15892.24
400.47	15962.45
400.67	16936.12
400.86	17020.38
401.05	17001.65
401.24	17090.59
401.44	17207.62
401.63	17572.74
401.82	17547.00
402.01	17565.72
402.21	17830.20
402.40	17879.35
402.59	17570.40
402.78	16603.76
402.97	16177.78
403.17	16730.15
403.36	17701.47
403.55	18085.32
403.74	19103.45
403.93	17982.34
404.13	16566.31
404.32	16084.16
404.51	16732.49
404.70	18228.09
404.89	18120.43
405.09	18008.08
405.28	17514.23
405.47	17266.13
405.66	17380.82
405.85	17116.34
406.05	16475.03
406.24	16505.46
406.43	17369.12
406.62	18312.35
406.81	18202.35
407.00	17432.31
407.20	16926.75
407.39	17198.26
407.58	18228.09
407.77	19012.17
407.96	19377.30
408.15	19283.67
408.34	19653.48
408.54	20861.19
408.73	20732.47
408.92	20301.81
409.11	19798.59
409.30	18939.62
409.49	17853.61
409.68	16617.80
409.87	16145.02
410.07	17308.26
410.26	18328.74
410.45	19522.41
410.64	20156.69
410.83	20861.19
411.02	20856.51
411.21	21905.07
411.40	21909.75
411.59	21846.56
411.78	21488.46
411.98	21174.83
412.17	22075.93
412.36	21376.11
412.55	21642.93
412.74	21060.14
412.93	20512.46
413.12	20800.34
413.31	22398.93
413.50	23082.36
413.69	23543.45
413.88	22242.11
414.07	21921.46
414.26	22075.93
414.45	22682.13
414.64	22916.19
414.83	23159.60
415.02	22469.14
415.22	22302.96
415.41	22960.66
415.60	23899.21
415.79	24460.94
415.98	25254.38
416.17	25427.58
416.36	24456.26
416.55	24137.94
416.74	23590.26
416.93	22508.93
417.12	22361.48
417.31	22948.95
417.50	23555.15
417.69	24156.67
417.88	23992.83
418.07	23709.63
418.26	23592.60
418.45	23672.18
418.64	24372.00
418.83	25235.66
419.02	24938.41
419.21	24835.42
419.39	23812.61
419.58	22548.72
419.77	22822.56
419.96	23831.33
420.15	25076.50
420.34	25874.62
420.53	26696.15
420.72	27028.51
420.91	26689.13
421.10	26665.72
421.29	26459.76
421.48	25235.66
421.67	26822.54
421.86	25933.14
422.05	24592.01
422.24	21570.38
422.43	21242.70
422.61	23480.25
422.80	25713.13
422.99	26054.84
423.18	24863.51
423.37	24835.42
423.56	24313.48
423.75	24753.51
423.94	25235.66
424.13	24304.12
424.32	24278.38
424.50	24191.78
424.69	23744.73
424.88	24430.51
425.07	23854.74
425.26	24041.98
425.45	23728.35
425.64	23051.94
425.83	23239.18
426.01	24276.04
426.20	25291.83
426.39	25270.76
426.58	23332.80
426.77	21436.97
426.96	20858.85
427.15	21481.44
427.33	23410.04
427.52	24332.21
427.71	23978.79
427.90	24013.90
428.09	23786.86
428.28	23569.19
428.46	22677.45
428.65	21909.75
428.84	22558.08
429.03	22960.66
429.22	21799.75
429.40	20554.58
429.59	18869.40
429.78	16620.14
429.97	16608.44
430.16	16758.24
430.34	17224.00
430.53	16732.49
430.72	17444.01
430.91	19194.73
431.10	22424.67
431.28	26513.59
431.47	28725.39
431.66	29036.69
431.85	27178.30
432.03	24678.61
432.22	23302.37
432.41	24334.55
432.60	26977.01
432.79	27922.59
432.97	28701.99
433.16	27866.42
433.35	25694.40
433.54	23094.07
433.72	21586.76
433.91	22368.50
434.10	24879.89
434.28	26614.23
434.47	28194.09
434.66	27330.44
434.85	26764.03
435.03	26742.96
435.22	27026.17
435.41	29310.53
435.59	29008.60
435.78	29551.60
435.97	30396.54
436.16	30354.41
436.34	29935.45
436.53	29600.76
436.72	29848.85
436.90	27718.96
437.09	27580.87
437.28	26998.08
437.46	28329.84
437.65	28268.99
437.84	26574.44
438.02	24301.78
438.21	24184.76
438.40	25443.96
438.58	27580.87
438.77	28491.34
438.96	28615.39
439.14	29935.45
439.33	30302.92
439.52	30714.85
439.70	30305.26
439.89	29371.38
440.08	28423.47
440.26	28577.94
440.45	29855.87
440.63	31201.68
440.82	33507.11
441.01	32521.74
441.19	32783.88
441.38	32734.73
441.57	33584.35
441.75	34644.61
441.94	34728.87
442.12	34136.71
442.31	35023.78
442.50	35360.81
442.68	34733.55
442.87	34504.18
443.05	33434.55
443.24	34527.58
443.43	34862.28
443.61	35627.63
443.80	35676.79
443.98	34380.13
444.17	34022.03
444.35	35763.39
444.54	36437.46
444.73	35871.05
444.91	34396.51
445.10	33560.94
445.28	32086.40
445.47	31395.95
445.65	31583.19
445.84	32369.61
446.02	33921.38
446.21	34452.69
446.39	34387.15
446.58	34693.76
446.77	35234.42
446.95	35679.13
447.14	36615.34
447.32	36996.85
447.51	36062.97
447.69	35229.74
447.88	34595.46
448.06	34749.93
448.25	36077.02
448.43	36074.68
448.62	35274.21
448.80	34574.39
448.99	35545.72
449.17	35885.09
449.36	35688.49
449.54	37188.77
449.73	37340.91
449.91	37816.04
450.10	39234.40
450.28	39421.64
450.46	39168.87
450.65	39122.05
450.83	39541.01
451.02	38094.56
451.20	38195.20
451.39	38103.92
451.57	37638.15
451.76	37497.72
451.94	37474.32
452.13	37151.32
452.31	35138.46
452.49	33631.16
452.68	33645.20
452.86	34253.74
453.05	34125.01
453.23	35651.04
453.42	36294.69
453.60	36999.19
453.78	37415.80
453.97	36879.82
454.15	37270.69
454.34	36095.74
454.52	36531.08
454.70	36114.47
454.89	36081.70
455.07	36411.71
455.26	37394.74
455.44	38181.16
455.62	38794.38
455.81	39124.40
455.99	38766.29
456.17	38525.22
456.36	38628.20
456.54	39831.24
456.73	39604.20
456.91	40201.04
457.09	40474.88
457.28	41198.11
457.46	39360.79
457.64	39182.91
457.83	38574.37
458.01	37240.26
458.19	38403.51
458.38	38328.61
458.56	39634.63
458.74	39695.49
458.93	38808.42
459.11	38831.83
459.29	38124.99
459.48	38749.91
459.66	38543.94
459.84	39201.63
460.03	39463.77
460.21	39470.79
460.39	40460.84
460.57	40287.64
460.76	40886.82
460.94	41165.34
461.12	40563.82
461.31	40608.29
461.49	40179.98
461.67	40751.07
461.85	41970.49
462.04	41493.02
462.22	41352.58
462.40	41696.64
462.59	41432.16
462.77	41441.53
462.95	41406.42
463.13	40666.81
463.32	40795.54
463.50	40610.64
463.68	40179.98
463.86	40685.53
464.05	39868.69
464.23	39473.13
464.41	39002.69
464.59	38391.81
464.78	40591.91
464.96	40016.14
465.14	39480.16
465.32	40641.06
465.50	41368.97
465.69	41687.28
465.87	40926.61
466.05	39934.22
466.23	38480.75
466.41	37544.53
466.60	38337.98
466.78	38869.28
466.96	39306.96
467.14	40039.54
467.32	40325.09
467.51	40254.87
467.69	38768.63
467.87	39564.42
468.05	40273.60
468.23	40418.71
468.41	40364.88
468.60	40453.82
468.78	40744.05
468.96	40196.36
469.14	40917.25
469.32	41081.08
469.50	39732.93
469.69	39360.79
469.87	39042.48
470.05	38567.35
470.23	38995.67
470.41	38965.24
470.59	39564.42
470.77	39887.41
470.95	40601.27
471.14	41141.94
471.32	41336.20
471.50	43456.73
471.68	43349.06
471.86	43545.67
472.04	43679.08
472.22	43847.60
472.40	42080.49
472.58	41764.52
472.77	41165.34
472.95	41771.54
473.13	42962.87
473.31	41963.46
473.49	42162.41
473.67	42983.94
473.85	43339.70
474.03	44020.80
474.21	44067.61
474.39	44797.85
474.57	44727.64
474.75	44760.40
474.93	44589.55
475.12	43540.99
475.30	44250.17
475.48	43796.10
475.66	44500.61
475.84	44011.43
476.02	43845.26
476.20	43189.91
476.38	43538.65
476.56	45064.67
476.74	45539.80
476.92	45600.66
477.10	45900.25
477.28	47587.77
477.46	47702.46
477.64	47725.86
477.82	47999.71
478.00	48318.02
478.18	47615.86
478.36	47192.22
478.54	47437.98
478.72	47519.90
478.90	48753.36
479.08	49893.20
479.26	50068.74
479.44	49598.29
479.62	49656.81
479.80	49778.51
479.98	49893.20
480.16	50120.23
480.34	49598.29
480.52	49982.14
480.70	50429.18
480.88	50255.98
481.06	50958.14
481.24	51278.80
481.41	52020.75
481.59	52320.34
481.77	52624.60
481.95	51882.66
482.13	51784.35
482.31	51718.82
482.49	52650.35
482.67	52238.42
482.85	52442.04
483.03	52640.99
483.21	53130.16
483.39	53013.13
483.57	52512.26
483.74	52308.63
483.92	52540.35
484.10	52643.33
484.28	53418.05
484.46	53488.26
484.64	54049.99
484.82	52961.64
485.00	52774.40
485.18	52264.16
485.35	51154.75
485.53	48449.09
485.71	44739.34
485.89	44203.36
486.07	46024.29
486.25	49249.55
486.43	51564.34
486.61	51859.25
486.78	52222.03
486.96	52037.13
487.14	53518.69
487.32	53918.92
487.50	55199.19
487.68	55697.73
487.85	56243.07
488.03	56332.01
488.21	55538.57
488.39	55014.29
488.57	54747.47
488.75	54255.96
488.92	55206.22
489.10	56839.91
489.28	58134.23
489.46	58621.06
489.64	58349.56
489.81	58702.98
489.99	58220.83
490.17	58553.18
490.35	58721.70
490.53	58372.96
490.70	58017.20
490.88	57790.17
491.06	58768.51
491.24	58754.47
491.41	57968.05
491.59	56292.22
491.77	55945.83
491.95	56680.75
492.13	57703.57
492.30	58962.78
492.48	59683.66
492.66	59891.97
492.84	59788.98
493.01	59554.93
493.19	59185.13
493.37	58911.28
493.54	58677.23
493.72	59330.24
493.90	60133.04
494.08	60828.18
494.25	61162.88
494.43	61010.74
494.61	61441.40
494.79	61563.11
494.96	61385.23
495.14	60954.57
495.32	60058.15
495.49	59566.63
495.67	60289.86
495.85	61628.65
496.02	61937.60
496.20	61907.17
496.38	61441.40
496.55	61298.63
496.73	61773.76
496.91	61825.25
497.09	62262.93
497.26	62457.20
497.44	62082.71
497.62	61591.20
497.79	60933.51
497.97	59877.93
498.14	59922.40
498.32	60802.44
498.50	61602.90
498.67	62063.99
498.85	62049.94
499.03	62265.27
499.20	62496.98
499.38	62466.56
499.56	62328.47
499.73	61855.68
499.91	61591.20
500.08	61144.16
500.26	60301.56
500.44	60804.78
500.61	61415.66
500.79	61511.62
500.97	60977.98
501.14	60910.10
501.32	60750.94
501.49	60643.28
501.67	60860.95
501.84	61560.77
502.02	61640.35
502.20	61963.34
502.37	62052.28
502.55	62066.33
502.72	62499.33
502.90	63018.92
503.07	62787.21
503.25	62401.02
503.43	61801.85
503.60	61031.81
503.78	60484.12
503.95	60860.95
504.13	62068.67
504.30	62686.57
504.48	62508.69
504.65	62309.74
504.83	62321.44
505.01	62857.43
505.18	63091.48
505.36	63749.17
505.53	63833.43
505.71	63852.15
505.88	64090.89
506.06	63484.69
506.23	63138.29
506.41	62941.69
506.58	63131.27
506.76	62890.19
506.93	63009.56
507.11	62827.00
507.28	63058.71
507.46	62642.10
507.63	62199.74
507.81	61740.99
507.98	62031.22
508.16	62815.30
508.33	63128.93
508.50	63601.72
508.68	63709.38
508.85	64191.53
509.03	64079.19
509.20	63891.94
509.38	63472.99
509.55	62581.24
509.73	62700.61
509.90	63222.55
510.08	63430.86
510.25	63428.52
510.42	63360.64
510.60	63124.25
510.77	63454.26
510.95	64032.38
511.12	64058.12
511.30	64467.72
511.47	64516.87
511.64	64374.09
511.82	64247.71
511.99	63442.56
512.17	63133.61
512.34	62808.28
512.51	62911.26
512.69	63126.59
512.86	63299.79
513.04	63561.93
513.21	63437.88
513.38	63210.85
513.56	62773.17
513.73	62415.07
513.90	62454.86
514.08	62457.20
514.25	62824.66
514.43	63021.26
514.60	63159.36
514.77	63023.61
514.95	63372.34
515.12	63295.11
515.29	63267.02
515.47	63767.90
515.64	64100.25
515.81	63622.78
515.99	63238.93
516.16	61909.51
516.33	60027.72
516.51	58569.57
516.68	58159.97
516.85	57539.73
517.03	58120.18
517.20	60165.81
517.37	62253.57
517.54	63201.49
517.72	62817.64
517.89	60882.02
518.06	58848.09
518.24	58866.81
518.41	60697.11
518.58	61839.29
518.75	62267.61
518.93	62415.07
519.10	62265.27
519.27	62686.57
519.45	62735.72
519.62	63386.39
519.79	63728.11
519.96	63641.51
520.14	63077.44
520.31	62330.81
520.48	62567.20
520.65	62749.76
520.83	63653.21
521.00	64051.10
521.17	63683.64
521.34	63353.62
521.52	63592.36
521.69	64053.44
521.86	64500.48
522.03	64137.70
522.20	62967.43
522.38	62010.15
522.55	62134.20
522.72	62845.72
522.89	62932.32
523.07	62939.35
523.24	63433.20
523.41	64126.00
523.58	64257.07
523.75	64867.95
523.92	64540.27
524.10	64523.89
524.27	64566.02
524.44	64156.42
524.61	64212.60
524.78	64093.23
524.96	63964.50
525.13	63994.93
525.30	64163.45
525.47	64549.63
525.64	64486.44
525.81	64102.59
525.98	62695.93
526.16	61408.64
526.33	60760.31
526.50	60423.27
526.67	60172.83
526.84	60860.95
527.01	61577.15
527.18	62419.75
527.36	62948.71
527.53	63927.05
527.70	64090.89
527.87	63721.08
528.04	63168.72
528.21	63660.23
528.38	64140.04
528.55	64739.22
528.72	65043.49
528.89	65038.81
529.07	64867.95
529.24	64273.45
529.41	63683.64
529.58	63161.70
529.75	63121.91
529.92	63711.72
530.09	63964.50
530.26	64481.76
530.43	64727.52
530.60	64706.45
530.77	65050.51
530.94	65036.47
531.11	64666.66
531.28	64217.28
531.46	64175.15
531.63	64165.79
531.80	64243.02
531.97	63664.91
532.14	63142.97
532.31	62351.87
532.48	61605.24
532.65	61649.71
532.82	62553.16
532.99	63494.05
533.16	63774.92
533.33	64416.22
533.50	64008.97
533.67	63362.98
533.84	63103.18
534.01	63449.58
534.18	63489.37
534.35	63662.57
534.52	63461.29
534.69	63760.87
534.86	64093.23
535.03	64357.71
535.20	64706.45
535.37	64891.35
535.54	65111.36
535.71	64587.08
535.88	64465.38
536.05	63831.09
536.22	63573.63
536.38	63248.30
536.55	62953.39
536.72	62478.26
536.89	62176.33
537.06	63028.29
537.23	63817.05
537.40	64069.82
537.57	63941.10
537.74	63735.13
537.91	63784.28
538.08	63615.76
538.25	63735.13
538.42	63908.33
538.59	63739.81
538.75	63227.23
538.92	62986.16
539.09	62796.57
539.26	62728.70
539.43	62548.48
539.60	62567.20
539.77	62784.87
539.94	62539.11
540.11	62010.15
540.28	61708.22
540.44	61743.33
540.61	61799.50
540.78	62078.03
540.95	62415.07
541.12	62890.19
541.29	63023.61
541.46	63217.87
541.62	63531.50
541.79	63126.59
541.96	62548.48
542.13	62709.97
542.30	62871.47
542.47	63035.31
542.63	62684.23
542.80	62581.24
542.97	62709.97
543.14	62466.56
543.31	62653.80
543.48	63260.00
543.64	63840.45
543.81	64053.44
543.98	63882.58
544.15	63449.58
544.32	62862.11
544.48	62777.85
544.65	63407.45
544.82	63664.91
544.99	63332.56
545.16	62887.85
545.32	62541.45
545.49	63334.90
545.66	63704.70
545.83	63285.75
546.00	63054.03
546.16	62761.47
546.33	62794.23
546.50	62852.75
546.67	63416.82
546.83	63028.29
547.00	63049.35
547.17	62316.76
547.34	61998.45
547.50	61745.67
547.67	62337.83
547.84	62342.51
548.00	62766.15
548.17	63056.37
548.34	62927.64
548.51	62812.96
548.67	62763.81
548.84	62899.56
549.01	63014.24
549.18	62857.43
549.34	62831.68
549.51	62845.72
549.68	62700.61
549.84	62585.92
550.01	62464.22
550.18	62103.77
550.34	62630.40
550.51	62606.99
550.68	62585.92
550.84	62129.52
551.01	62038.24
551.18	62143.56
551.34	62260.59
551.51	62698.27
551.68	63070.42
551.84	62922.96
552.01	62653.80
552.18	62581.24
552.34	62026.54
552.51	61591.20
552.68	61687.16
552.84	61935.26
553.01	62258.25
553.18	62284.00
553.34	62234.84
553.51	62354.21
553.67	62475.92
553.84	62773.17
554.01	62756.78
554.17	62384.64
554.34	62618.69
554.51	62513.37
554.67	62843.38
554.84	62691.25
555.00	62335.49
555.17	62351.87
555.33	62293.36
555.50	62300.38
555.67	62188.03
555.83	62038.24
556.00	61766.74
556.16	61785.46
556.33	61413.32
556.50	61455.45
556.66	61329.06
556.83	61118.41
556.99	61219.05
557.16	61251.82
557.32	61495.24
557.49	61743.33
557.65	61820.57
557.82	61759.72
557.98	61687.16
558.15	61130.11
558.32	60360.08
558.48	59650.89
558.65	59978.57
558.81	60432.63
558.98	60282.84
559.14	60540.30
559.31	60793.07
559.47	60910.10
559.64	60472.42
559.80	60430.29
559.97	59962.18
560.13	60254.75
560.30	61387.57
560.46	61900.15
560.63	62042.92
560.79	62040.58
560.96	61726.95
561.12	60809.46
561.29	59887.29
561.45	59959.84
561.61	60542.64
561.78	60832.86
561.94	60879.67
562.11	60793.07
562.27	60580.09
562.44	60846.91
562.60	61139.47
562.77	61312.67
562.93	61233.10
563.10	60954.57
563.26	60530.93
563.42	60594.13
563.59	60491.15
563.75	60537.96
563.92	60573.06
564.08	60563.70
564.24	60465.40
564.41	60542.64
564.57	60647.96
564.74	60544.98
564.90	60594.13
565.07	60236.03
565.23	59891.97
565.39	59494.08
565.56	59096.19
565.72	58939.37
565.88	59512.80
566.05	59501.10
566.21	59533.87
566.38	59657.91
566.54	59784.30
566.70	60102.62
566.87	60528.59
567.03	60467.74
567.19	60678.39
567.36	60399.86
567.52	60266.45
567.68	60032.40
567.85	59540.89
568.01	59054.06
568.17	58862.13
568.34	58829.37
568.50	58946.39
568.66	58735.74
568.83	59297.47
568.99	59374.71
569.15	59381.73
569.32	59388.75
569.48	59281.09
569.64	59084.48
569.81	58801.28
569.97	58731.06
570.13	58768.51
570.30	58106.14
570.46	57977.41
570.62	57375.89
570.78	57439.09
570.95	57762.08
571.11	58342.53
571.27	58609.35
571.43	58635.10
571.60	58930.01
571.76	58995.54
571.92	59311.52
572.09	59377.05
572.25	59402.80
572.41	59206.19
572.57	59196.83
572.74	59016.61
572.90	58719.36
573.06	59007.25
573.22	58824.68
573.38	59014.27
573.55	58857.45
573.71	59098.53
573.87	59035.33
574.03	58695.95
574.20	58899.58
574.36	58419.77
574.52	58262.96
574.68	58078.05
574.84	57961.03
575.01	57535.05
575.17	57535.05
575.33	57621.65
575.49	57958.69
575.65	58108.48
575.82	57715.27
575.98	57668.46
576.14	58071.03
576.30	58195.08
576.46	58248.91
576.62	58127.20
576.79	57956.35
576.95	57822.93
577.11	57703.57
577.27	57954.00
577.43	57928.26
577.59	57621.65
577.75	57282.27
577.92	56872.68
578.08	56444.36
578.24	56617.56
578.40	56793.10
578.56	57092.69
578.72	57050.56
578.88	57221.42
579.04	57411.00
579.21	57513.98
579.37	57319.72
579.53	57776.12
579.69	57563.14
579.85	57853.36
580.01	57619.31
580.17	57319.72
580.33	57151.20
580.49	57336.10
580.65	57354.83
580.82	57558.45
580.98	57553.77
581.14	57453.13
581.30	57389.94
581.46	57411.00
581.62	57710.59
581.78	57553.77
581.94	57766.76
582.10	57602.92
582.26	57710.59
582.42	57602.92
582.58	57829.96
582.74	57645.05
582.90	57836.98
583.06	57570.16
583.22	57530.37
583.38	57434.41
583.54	57504.62
583.70	57282.27
583.86	57509.30
584.02	57130.14
584.18	57460.15
584.34	57441.43
584.50	57403.98
584.66	57078.64
584.82	56563.73
584.98	56727.56
585.14	56222.01
