SpectraSuite Data File
++++++++++++++++++++++++++++++++++++
Date: Mon Oct 07 14:53:05 GMT-05:00 2013
User: price-jones
Dark Spectrum Present: No
Reference Spectrum Present: No
Number of Sampled Component Spectra: 1
Spectrometers: USB2+H05261
Integration Time (usec): 100000 (USB2+H05261)
Spectra Averaged: 1 (USB2+H05261)
Boxcar Smoothing: 0 (USB2+H05261)
Correct for Electrical Dark: No (USB2+H05261)
Strobe/Lamp Enabled: No (USB2+H05261)
Correct for Detector Non-linearity: No (USB2+H05261)
Correct for Stray Light: No (USB2+H05261)
Number of Pixels in Processed Spectrum: 2048
>>>>>Begin Processed Spectral Data<<<<<
365.73	0.00
365.92	0.00
366.12	0.00
366.32	0.00
366.52	0.00
366.72	0.00
366.91	0.00
367.11	0.00
367.31	0.00
367.51	0.00
367.70	0.00
367.90	0.00
368.10	0.00
368.30	0.00
368.49	0.00
368.69	0.00
368.89	0.00
369.09	0.00
369.28	0.00
369.48	0.00
369.68	0.00
369.87	0.00
370.07	0.00
370.27	0.00
370.47	580.45
370.66	2846.09
370.86	3279.09
371.06	3625.49
371.25	3770.60
371.45	3269.73
371.65	2902.26
371.84	2738.43
372.04	2949.08
372.24	3316.54
372.44	3417.18
372.63	3452.29
372.83	3157.38
373.03	2794.60
373.22	2612.04
373.42	2810.98
373.62	3218.24
373.81	3403.14
374.01	3485.06
374.21	3066.10
374.40	2881.20
374.60	2944.39
374.79	3417.18
374.99	3950.82
375.19	4297.22
375.38	4339.35
375.58	3939.12
375.78	4053.81
375.97	3913.38
376.17	4156.79
376.37	4149.77
376.56	4168.49
376.76	4578.09
376.95	4936.19
377.15	5095.35
377.35	5226.42
377.54	5579.84
377.74	5596.22
377.93	5600.90
378.13	5502.60
378.33	5343.44
378.52	5046.20
378.72	4730.22
378.91	4585.11
379.11	4458.72
379.31	4245.73
379.50	4297.22
379.70	4620.22
379.89	4994.70
380.09	5357.49
380.28	5437.06
380.48	5528.35
380.68	5514.30
380.87	5294.29
381.07	4802.78
381.26	4599.15
381.46	4362.76
381.65	4215.30
381.85	3868.91
382.04	3770.60
382.24	3552.93
382.43	3377.39
382.63	3410.16
382.83	3463.99
383.02	3314.20
383.22	3365.69
383.41	3492.08
383.61	3595.06
383.80	4152.11
384.00	4657.67
384.19	5181.95
384.39	5577.50
384.58	5444.09
384.78	5526.00
384.97	5284.93
385.17	5114.07
385.36	4929.17
385.56	4716.18
385.75	4847.25
385.95	5188.97
386.14	5762.40
386.34	5694.52
386.53	5359.83
386.72	5144.50
386.92	5093.01
387.11	5540.05
387.31	5776.44
387.50	5518.98
387.70	5282.59
387.89	5427.70
388.09	5434.72
388.28	5671.12
388.48	5497.92
388.67	5832.62
388.86	6375.62
389.06	7028.63
389.25	7283.75
389.45	7328.22
389.64	7473.33
389.84	7295.45
390.03	7126.93
390.22	7096.50
390.42	7499.08
390.61	7941.44
390.81	8332.31
391.00	8678.71
391.19	8575.72
391.39	8124.00
391.58	7688.66
391.78	7375.03
391.97	6986.50
392.16	6537.12
392.36	6087.73
392.55	4812.14
392.75	3796.35
392.94	3087.17
393.13	3026.31
393.33	3641.87
393.52	4704.48
393.71	5942.62
393.91	6560.52
394.10	7084.80
394.29	7641.85
394.49	8503.17
394.68	8872.97
394.88	8992.34
395.07	9308.31
395.26	9261.50
395.46	9125.75
395.65	8238.69
395.84	7337.58
396.04	6314.77
396.23	5055.56
396.42	4269.14
396.62	4109.98
396.81	4798.10
397.00	6237.53
397.19	7616.10
397.39	9210.01
397.58	10274.95
397.77	10951.37
397.97	11105.84
398.16	11400.75
398.35	11681.61
398.55	11981.20
398.74	12575.70
398.93	12662.30
399.12	12528.89
399.32	12187.17
399.51	12542.93
399.70	13268.50
399.90	13107.00
400.09	13053.17
400.28	12994.65
400.47	13221.69
400.67	13820.86
400.86	14012.79
401.05	14251.52
401.24	14225.78
401.44	14373.23
401.63	14300.67
401.82	14721.97
402.01	14492.60
402.21	14572.18
402.40	14644.73
402.59	14345.14
402.78	13600.85
402.97	13235.73
403.17	13914.48
403.36	14736.01
403.55	15183.06
403.74	15260.29
403.93	14991.13
404.13	13638.30
404.32	13303.60
404.51	13975.34
404.70	14794.53
404.89	15192.42
405.09	14890.49
405.28	14319.40
405.47	14352.16
405.66	14368.55
405.85	13806.82
406.05	13317.65
406.24	13654.69
406.43	14148.54
406.62	14995.81
406.81	14923.26
407.00	14424.72
407.20	14181.31
407.39	14363.87
407.58	14677.50
407.77	15201.78
407.96	15896.92
408.15	16074.80
408.34	16187.14
408.54	16957.18
408.73	16954.84
408.92	16748.87
409.11	16336.94
409.30	15508.39
409.49	14511.32
409.68	13745.97
409.87	13032.10
410.07	14164.92
410.26	15419.45
410.45	16226.93
410.64	16549.93
410.83	17191.23
411.02	17572.74
411.21	18090.00
411.40	17984.68
411.59	17884.03
411.78	17907.44
411.98	17453.37
412.17	17963.61
412.36	17649.98
412.55	17729.56
412.74	17359.75
412.93	16730.15
413.12	17174.85
413.31	18764.07
413.50	19089.41
413.69	19154.94
413.88	18441.08
414.07	17547.00
414.26	18679.82
414.45	19012.17
414.64	18876.42
414.83	18951.32
415.02	18483.21
415.22	18764.07
415.41	18764.07
415.60	19335.17
415.79	20435.22
415.98	20870.56
416.17	20807.36
416.36	20374.36
416.55	19960.09
416.74	19494.32
416.93	18700.88
417.12	18897.49
417.31	18869.40
417.50	19145.58
417.69	19866.47
417.88	19758.80
418.07	19679.22
418.26	19290.70
418.45	19847.74
418.64	20107.54
418.83	21212.28
419.02	20786.30
419.21	20505.43
419.39	19864.13
419.58	18906.85
419.77	18696.20
419.96	19576.24
420.15	20915.03
420.34	21380.79
420.53	22127.42
420.72	22342.75
420.91	22235.09
421.10	21951.88
421.29	21759.96
421.48	20912.69
421.67	22104.02
421.86	21479.10
422.05	20032.65
422.24	17954.25
422.43	17996.38
422.61	19625.39
422.80	21359.73
422.99	21834.86
423.18	20407.13
423.37	20137.97
423.56	20133.29
423.75	20620.12
423.94	20924.39
424.13	20259.68
424.32	19950.73
424.50	20470.33
424.69	19838.38
424.88	19915.62
425.07	20142.65
425.26	19908.60
425.45	19714.33
425.64	19562.20
425.83	19351.55
426.01	20372.02
426.20	21064.82
426.39	20805.02
426.58	19463.90
426.77	17692.11
426.96	17224.00
427.15	17996.38
427.33	19351.55
427.52	19735.40
427.71	20011.58
427.90	19864.13
428.09	19714.33
428.28	19417.08
428.46	18672.79
428.65	18190.64
428.84	18841.31
429.03	19255.59
429.22	18214.05
429.40	17092.93
429.59	15573.92
429.78	13980.02
429.97	13968.32
430.16	13998.74
430.34	13994.06
430.53	13977.68
430.72	14597.92
430.91	16093.52
431.10	19119.84
431.28	21965.93
431.47	23983.47
431.66	23744.73
431.85	21869.97
432.03	20219.89
432.22	19480.28
432.41	20308.83
432.60	22611.92
432.79	23269.61
432.97	23592.60
433.16	23112.79
433.35	21099.93
433.54	19304.74
433.72	17841.90
433.91	18576.83
434.10	20655.23
434.28	22089.98
434.47	23463.87
434.66	23087.04
434.85	22387.22
435.03	22097.00
435.22	23166.62
435.41	24236.25
435.59	24269.01
435.78	24662.22
435.97	25102.25
436.16	25427.58
436.34	24938.41
436.53	24348.59
436.72	24451.58
436.90	23410.04
437.09	23396.00
437.28	22941.93
437.46	23590.26
437.65	23506.00
437.84	21860.60
438.02	19866.47
438.21	19927.32
438.40	21078.86
438.58	23012.15
438.77	23461.53
438.96	23756.44
439.14	24730.10
439.33	25420.56
439.52	25678.02
439.70	25071.82
439.89	24430.51
440.08	23674.52
440.26	23833.68
440.45	24847.13
440.63	26169.53
440.82	27260.22
441.01	27157.24
441.19	27138.51
441.38	27772.80
441.57	28624.75
441.75	28711.35
441.94	28875.19
442.12	28727.74
442.31	29291.80
442.50	29525.86
442.68	29060.09
442.87	28357.93
443.05	27929.61
443.24	28814.34
443.43	29137.33
443.61	29666.29
443.80	30623.57
443.98	28570.92
444.17	28299.42
444.35	30141.42
444.54	30684.42
444.73	30118.01
444.91	28833.06
445.10	27665.13
445.28	26431.67
445.47	26307.62
445.65	26221.02
445.84	27288.31
446.02	28254.95
446.21	28753.48
446.39	28751.14
446.58	28940.72
446.77	29450.96
446.95	29799.70
447.14	30546.33
447.32	31435.74
447.51	30235.04
447.69	29036.69
447.88	28929.02
448.06	29490.75
448.25	30136.74
448.43	30448.03
448.62	29851.19
448.80	29486.07
448.99	29577.35
449.17	29909.71
449.36	29926.09
449.54	30827.20
449.73	31730.64
449.91	32180.03
450.10	32875.16
450.28	33179.43
450.46	33226.24
450.65	32858.78
450.83	32320.46
451.02	31948.31
451.20	32016.19
451.39	31630.00
451.57	31402.97
451.76	31868.73
451.94	31297.64
452.13	30710.17
452.31	29350.32
452.49	28077.07
452.68	28556.88
452.86	28402.40
453.05	28734.76
453.23	29713.10
453.42	30499.52
453.60	31288.28
453.78	31108.06
453.97	30864.64
454.15	31379.56
454.34	30604.84
454.52	31005.08
454.70	29734.17
454.89	30441.01
455.07	30639.95
455.26	31232.11
455.44	32070.02
455.62	33174.75
455.81	32648.13
455.99	32659.84
456.17	32467.91
456.36	32580.26
456.54	33507.11
456.73	33034.32
456.91	33935.43
457.09	33993.94
457.28	34773.34
457.46	33200.50
457.64	32929.00
457.83	32067.68
458.01	31494.25
458.19	32229.18
458.38	32416.42
458.56	33333.91
458.74	33378.38
458.93	32919.63
459.11	32893.89
459.29	32706.65
459.48	32472.59
459.66	32151.94
459.84	32950.06
460.03	33120.92
460.21	32769.84
460.39	33888.62
460.57	34057.14
460.76	34693.76
460.94	34546.31
461.12	34082.88
461.31	34092.24
461.49	33949.47
461.67	33757.55
461.85	35124.42
462.04	34831.85
462.22	35182.93
462.40	34881.00
462.59	34738.23
462.77	35051.86
462.95	34745.25
463.13	34768.66
463.32	34527.58
463.50	33954.15
463.68	34607.16
463.86	34321.62
464.05	33331.57
464.23	33099.86
464.41	32837.72
464.59	31934.27
464.78	33928.41
464.96	33619.46
465.14	33635.84
465.32	33984.58
465.50	35124.42
465.69	35571.46
465.87	34976.97
466.05	34078.20
466.23	31908.52
466.41	31524.68
466.60	32236.20
466.78	32624.73
466.96	33450.94
467.14	33689.67
467.32	34389.49
467.51	34258.42
467.69	32514.72
467.87	33617.11
468.05	33816.06
468.23	33771.59
468.41	34113.31
468.60	33947.13
468.78	34356.72
468.96	33975.22
469.14	34611.84
469.32	34838.87
469.50	33317.53
469.69	33661.58
469.87	32959.42
470.05	32622.39
470.23	33085.81
470.41	32622.39
470.59	33244.97
470.77	33567.96
470.95	34157.78
471.14	34913.77
471.32	34717.17
471.50	36966.42
471.68	36545.12
471.86	37144.30
472.04	37268.35
472.22	37340.91
472.40	35419.33
472.58	35201.66
472.77	35047.18
472.95	35718.92
473.13	36170.64
473.31	35592.53
473.49	35473.16
473.67	35929.56
473.85	36872.80
474.03	37771.57
474.21	37614.75
474.39	38078.18
474.57	38424.57
474.75	37954.13
474.93	37956.47
475.12	37338.57
475.30	37148.98
475.48	37457.93
475.66	38080.52
475.84	37055.36
476.02	36849.39
476.20	36439.80
476.38	37209.84
476.56	38429.26
476.74	38944.17
476.92	39421.64
477.10	39761.02
477.28	40575.53
477.46	40931.29
477.64	40931.29
477.82	41380.67
478.00	41560.89
478.18	40423.39
478.36	40737.02
478.54	39988.05
478.72	40802.56
478.90	42146.03
479.08	43026.07
479.26	43735.25
479.44	43051.81
479.62	42705.41
479.80	43222.67
479.98	43580.78
480.16	43695.46
480.34	43196.93
480.52	43662.69
480.70	43894.41
480.88	44034.84
481.06	44800.19
481.24	45102.12
481.41	45837.05
481.59	46244.30
481.77	46202.18
481.95	45226.17
482.13	45635.77
482.31	45640.45
482.49	45825.35
482.67	45783.22
482.85	46522.83
483.03	46735.82
483.21	47220.31
483.39	47171.16
483.57	46333.24
483.74	46520.49
483.92	46354.31
484.10	46618.79
484.28	48130.78
484.46	48065.24
484.64	48641.01
484.82	47332.65
485.00	47208.61
485.18	46316.86
485.35	45038.93
485.53	41755.16
485.71	37895.61
485.89	37991.58
486.07	39599.52
486.25	43367.79
486.43	45092.76
486.61	46394.10
486.78	45881.52
486.96	46312.18
487.14	48231.42
487.32	48795.49
487.50	50087.46
487.68	50710.05
487.85	51030.70
488.03	51241.35
488.21	50475.99
488.39	50064.06
488.57	49219.13
488.75	49022.52
488.92	50099.17
489.10	52327.36
489.28	53635.72
489.46	53977.43
489.64	53977.43
489.81	54300.43
489.99	53703.59
490.17	54010.20
490.35	54485.33
490.53	54021.90
490.70	53422.73
490.88	53247.19
491.06	54440.86
491.24	54298.09
491.41	52947.60
491.59	51253.05
491.77	50710.05
491.95	52037.13
492.13	52954.62
492.30	54302.77
492.48	55313.88
492.66	55627.51
492.84	55536.23
493.01	55264.73
493.19	54410.43
493.37	54426.82
493.54	54354.26
493.72	55154.72
493.90	56062.85
494.08	56509.89
494.25	56917.15
494.43	57190.99
494.61	57378.23
494.79	57415.68
494.96	57317.38
495.14	56732.25
495.32	55711.77
495.49	55025.99
495.67	56474.79
495.85	57476.54
496.02	57888.47
496.20	57605.26
496.38	57375.89
496.55	57268.23
496.73	57848.68
496.91	57780.81
497.09	58206.78
497.26	58447.86
497.44	57684.84
497.62	57607.61
497.79	56741.61
497.97	55421.55
498.14	55877.95
498.32	56896.08
498.50	57684.84
498.67	58452.54
498.85	58192.74
499.03	58082.73
499.20	58410.41
499.38	58438.50
499.56	58230.19
499.73	57780.81
499.91	57495.26
500.08	57020.13
500.26	56596.49
500.44	57006.09
500.61	57600.58
500.79	57258.87
500.97	56753.31
501.14	56905.44
501.32	56734.59
501.49	56781.40
501.67	57003.75
501.84	57333.76
502.02	57698.89
502.20	58064.01
502.37	58087.42
502.55	58302.74
502.72	58651.48
502.90	59084.48
503.07	58770.85
503.25	58354.24
503.43	57638.03
503.60	57031.83
503.78	56591.81
503.95	56631.60
504.13	58234.87
504.30	58845.75
504.48	58665.53
504.65	58450.20
504.83	58653.82
505.01	58976.82
505.18	59173.42
505.36	60004.31
505.53	59915.37
505.71	60182.19
505.88	60055.81
506.06	59503.44
506.23	59381.73
506.41	59140.66
506.58	59180.45
506.76	59150.02
506.93	59339.60
507.11	59000.22
507.28	59025.97
507.46	58592.97
507.63	58181.04
507.81	57839.32
507.98	58354.24
508.16	59007.25
508.33	59351.30
508.50	59580.68
508.68	59852.18
508.85	60301.56
509.03	60219.64
509.20	60236.03
509.38	59435.56
509.55	59007.25
509.73	59075.12
509.90	59524.50
510.08	59648.55
510.25	59512.80
510.42	59646.21
510.60	59288.11
510.77	59533.87
510.95	60243.05
511.12	60233.69
511.30	60530.93
511.47	60647.96
511.64	60612.85
511.82	60339.01
511.99	59613.44
512.17	59288.11
512.34	59011.93
512.51	59063.42
512.69	59231.94
512.86	59458.97
513.04	59819.41
513.21	59779.62
513.38	59311.52
513.56	58752.13
513.73	58295.72
513.90	58511.05
514.08	58672.55
514.25	59030.65
514.43	59229.60
514.60	59344.28
514.77	59423.86
514.95	59458.97
515.12	59391.09
515.29	59854.52
515.47	59994.95
515.64	60095.60
515.81	59810.05
515.99	59159.38
516.16	58190.40
516.33	55882.63
516.51	54475.97
516.68	53607.63
516.85	52973.34
517.03	54113.19
517.20	56381.16
517.37	58653.82
517.54	59545.57
517.72	59126.61
517.89	56385.85
518.06	54555.55
518.24	55021.31
518.41	56970.98
518.58	58152.95
518.75	58277.00
518.93	58590.63
519.10	58410.41
519.27	58714.68
519.45	59086.82
519.62	59915.37
519.79	60308.58
519.96	59683.66
520.14	59409.82
520.31	58501.69
520.48	58784.90
520.65	59079.80
520.83	60149.43
521.00	60161.13
521.17	59859.20
521.34	59777.28
521.52	59920.05
521.69	60406.89
521.86	60704.13
522.03	60367.10
522.20	59269.39
522.38	58295.72
522.55	58391.68
522.72	58908.94
522.89	59079.80
523.07	59229.60
523.24	59697.70
523.41	60509.87
523.58	60757.97
523.75	61127.77
523.92	60921.80
524.10	60931.17
524.27	60800.10
524.44	60832.86
524.61	60601.15
524.78	60287.52
524.96	60301.56
525.13	60406.89
525.30	60477.10
525.47	61022.45
525.64	60715.84
525.81	60142.41
525.98	58766.17
526.16	57450.79
526.33	56875.02
526.50	56451.38
526.67	56259.46
526.84	56989.70
527.01	57820.59
527.18	58599.99
527.36	59566.63
527.53	60420.93
527.70	60322.63
527.87	59962.18
528.04	59290.45
528.21	59788.98
528.38	60568.38
528.55	61275.22
528.72	61102.03
528.89	61506.94
529.07	61331.40
529.24	60582.43
529.41	59943.46
529.58	59496.42
529.75	59728.13
529.92	59985.59
530.09	60566.04
530.26	60828.18
530.43	61265.86
530.60	61174.58
530.77	61429.70
530.94	61509.28
531.11	61137.13
531.28	60797.76
531.46	60612.85
531.63	60879.67
531.80	60437.31
531.97	60130.70
532.14	59494.08
532.31	58583.61
532.48	57970.39
532.65	57975.07
532.82	58990.86
532.99	59838.14
533.16	60006.65
533.33	60767.33
533.50	60418.59
533.67	59894.31
533.84	59597.06
534.01	59568.97
534.18	59920.05
534.35	60119.00
534.52	59924.74
534.69	60388.16
534.86	60547.32
535.03	60839.89
535.20	61205.01
535.37	61422.68
535.54	61542.05
535.71	61029.47
535.88	60664.35
536.05	60172.83
536.22	59842.82
536.38	59695.36
536.55	59262.36
536.72	58763.83
536.89	58885.54
537.06	59622.81
537.23	60184.54
537.40	60631.58
537.57	60446.68
537.74	60200.92
537.91	60397.52
538.08	60147.09
538.25	60121.34
538.42	60374.12
538.59	60346.03
538.75	59599.40
538.92	59402.80
539.09	59269.39
539.26	59147.68
539.43	58859.79
539.60	59203.85
539.77	59339.60
539.94	59295.13
540.11	58253.59
540.28	57998.48
540.44	58136.57
540.61	58188.06
540.78	58478.28
540.95	58934.69
541.12	59358.33
541.29	59363.01
541.46	59585.36
541.62	59840.48
541.79	59618.13
541.96	59107.89
542.13	59143.00
542.30	59620.47
542.47	59437.90
542.63	59344.28
542.80	58958.09
542.97	59395.77
543.14	59143.00
543.31	59079.80
543.48	59788.98
543.64	60294.54
543.81	60486.46
543.98	60449.02
544.15	59690.68
544.32	59234.28
544.48	59323.22
544.65	59770.26
544.82	60109.64
544.99	59604.08
545.16	59302.15
545.32	59325.56
545.49	59896.65
545.66	60355.39
545.83	59929.42
546.00	59620.47
546.16	59145.34
546.33	59447.27
546.50	59416.84
546.67	59749.20
546.83	59449.61
547.00	59461.31
547.17	58946.39
547.34	58269.98
547.50	58248.91
547.67	58951.07
547.84	58862.13
548.00	59260.02
548.17	59573.66
548.34	59496.42
548.51	59447.27
548.67	59325.56
548.84	59704.73
549.01	59498.76
549.18	59561.95
549.34	59386.41
549.51	59313.86
549.68	59290.45
549.84	58976.82
550.01	59128.95
550.18	58958.09
550.34	58913.62
550.51	58993.20
550.68	58969.80
550.84	58504.03
551.01	58644.46
551.18	58607.01
551.34	58866.81
551.51	59278.75
551.68	59480.03
551.84	59505.78
552.01	59365.35
552.18	59107.89
552.34	58581.27
552.51	58073.37
552.68	57935.28
552.84	58365.94
553.01	58747.45
553.18	58698.30
553.34	58922.99
553.51	58899.58
553.67	59217.89
553.84	59077.46
554.01	59107.89
554.17	58827.02
554.34	59124.27
554.51	59199.17
554.67	59426.20
554.84	59395.77
555.00	58983.84
555.17	58817.66
555.33	58646.80
555.50	58450.20
555.67	58798.94
555.83	58422.11
556.00	58045.29
556.16	58305.09
556.33	58155.29
556.50	57818.25
556.66	57900.17
556.83	57623.99
556.99	57769.10
557.16	57916.56
557.32	58012.52
557.49	58302.74
557.65	57986.77
557.82	58087.42
557.98	57808.89
558.15	57574.84
558.32	56889.06
558.48	56353.08
558.65	56498.19
558.81	56589.47
558.98	57041.20
559.14	57176.95
559.31	57132.48
559.47	57202.69
559.64	56814.16
559.80	56509.89
559.97	56631.60
560.13	57104.39
560.30	57829.96
560.46	58508.71
560.63	58684.25
560.79	58625.74
560.96	58145.93
561.12	57233.12
561.29	56442.02
561.45	56446.70
561.61	57078.64
561.78	57392.28
561.94	57165.24
562.11	57223.76
562.27	57359.51
562.44	57434.41
562.60	57623.99
562.77	57918.90
562.93	57506.96
563.10	57558.45
563.26	56994.39
563.42	57270.57
563.59	56889.06
563.75	56996.73
563.92	57085.67
564.08	57048.22
564.24	57240.14
564.41	57296.31
564.57	57130.14
564.74	56942.89
564.90	56776.72
565.07	56690.12
565.23	56287.54
565.39	56055.83
565.56	55592.40
565.72	55561.98
565.88	55931.78
566.05	56069.87
566.21	56442.02
566.38	56207.97
566.54	56287.54
566.70	56788.42
566.87	57132.48
567.03	56786.08
567.19	57291.63
567.36	56769.69
567.52	56750.97
567.68	56460.74
567.85	56130.73
568.01	55690.71
568.17	55393.46
568.34	55054.08
568.50	55009.61
568.66	55566.66
568.83	55693.05
568.99	55683.69
569.15	55924.76
569.32	56072.21
569.48	55700.07
569.64	55629.85
569.81	55243.66
569.97	55100.89
570.13	55295.16
570.30	54286.39
570.46	54272.34
570.62	53453.15
570.78	53811.26
570.95	54293.41
571.11	54822.37
571.27	54766.20
571.43	55021.31
571.60	55393.46
571.76	55531.55
571.92	55433.25
572.09	55835.82
572.25	55957.53
572.41	55693.05
572.57	55573.68
572.74	55903.70
572.90	55274.09
573.06	55070.46
573.22	55189.83
573.38	55561.98
573.55	54901.95
573.71	55625.17
573.87	55386.44
574.03	55210.90
574.20	55297.50
574.36	54869.18
574.52	54644.49
574.68	54569.59
574.84	54230.21
575.01	53841.68
575.17	53916.58
575.33	54171.70
575.49	54216.17
575.65	54621.08
575.82	54230.21
575.98	53785.51
576.14	54136.59
576.30	54707.68
576.46	54618.74
576.62	54562.57
576.79	54590.66
576.95	54368.30
577.11	53975.09
577.27	54150.63
577.43	54307.45
577.59	53867.43
577.75	53102.07
577.92	52912.49
578.08	52725.25
578.24	52868.02
578.40	53195.70
578.56	53186.33
578.72	53284.64
578.88	53343.15
579.04	53923.60
579.21	53839.34
579.37	53811.26
579.53	53909.56
579.69	53925.94
579.85	54138.93
580.01	53944.67
580.17	53488.26
580.33	53041.22
580.49	53701.25
580.65	53874.45
580.82	53680.19
580.98	53722.32
581.14	53792.53
581.30	53855.73
581.46	53605.29
581.62	53902.54
581.78	53925.94
581.94	53972.75
582.10	54145.95
582.26	54143.61
582.42	54150.63
582.58	54298.09
582.74	53701.25
582.90	54370.64
583.06	54040.63
583.22	53741.04
583.38	53712.95
583.54	53900.20
583.70	53687.21
583.86	53422.73
584.02	53633.38
584.18	53642.74
584.34	53701.25
584.50	53331.45
584.66	53308.04
584.82	53127.82
584.98	52849.30
585.14	52781.42
585.30	52032.45
