SpectraSuite Data File
++++++++++++++++++++++++++++++++++++
Date: Mon Oct 07 14:53:28 GMT-05:00 2013
User: price-jones
Dark Spectrum Present: No
Reference Spectrum Present: No
Number of Sampled Component Spectra: 1
Spectrometers: USB2+H05261
Integration Time (usec): 100000 (USB2+H05261)
Spectra Averaged: 1 (USB2+H05261)
Boxcar Smoothing: 0 (USB2+H05261)
Correct for Electrical Dark: No (USB2+H05261)
Strobe/Lamp Enabled: No (USB2+H05261)
Correct for Detector Non-linearity: No (USB2+H05261)
Correct for Stray Light: No (USB2+H05261)
Number of Pixels in Processed Spectrum: 2048
>>>>>Begin Processed Spectral Data<<<<<
365.73	0.00
365.92	0.00
366.12	0.00
366.32	0.00
366.52	0.00
366.72	0.00
366.91	0.00
367.11	0.00
367.31	0.00
367.51	0.00
367.70	0.00
367.90	0.00
368.10	0.00
368.30	0.00
368.49	0.00
368.69	0.00
368.89	0.00
369.09	0.00
369.28	0.00
369.48	0.00
369.68	0.00
369.87	0.00
370.07	0.00
370.27	0.00
370.47	723.23
370.66	3379.73
370.86	3925.08
371.06	4418.93
371.25	4351.06
371.45	3971.89
371.65	3517.83
371.84	3204.19
372.04	3492.08
372.24	3889.97
372.44	3999.98
372.63	4098.28
372.83	3765.92
373.03	3272.07
373.22	3014.61
373.42	3208.87
373.62	3674.64
373.81	4016.36
374.01	3983.59
374.21	3737.84
374.40	3421.86
374.60	3426.54
374.79	3784.65
374.99	4554.68
375.19	4828.53
375.38	4957.25
375.58	4657.67
375.78	4655.33
375.97	4697.46
376.17	4826.18
376.37	4908.10
376.56	4912.78
376.76	5200.67
376.95	5486.22
377.15	5844.32
377.35	6029.22
377.54	6401.37
377.74	6492.65
377.93	6506.69
378.13	6392.00
378.33	5996.45
378.52	5612.60
378.72	5198.33
378.91	5298.97
379.11	5116.41
379.31	4990.02
379.50	4868.31
379.70	5472.17
379.89	5902.83
380.09	6314.77
380.28	6363.92
380.48	6380.30
380.68	6092.41
380.87	6176.67
381.07	5827.93
381.26	5259.18
381.46	4971.30
381.65	4821.50
381.85	4812.14
382.04	4557.02
382.24	4067.85
382.43	3873.59
382.63	3875.93
382.83	3941.46
383.02	3794.01
383.22	3899.33
383.41	3838.48
383.61	4259.78
383.80	4734.90
384.00	5320.04
384.19	6111.14
384.39	6448.18
384.58	6408.39
384.78	6155.61
384.97	6338.17
385.17	6005.81
385.36	5633.67
385.56	5242.80
385.75	5542.39
385.95	5984.75
386.14	6633.08
386.34	6651.80
386.53	6256.25
386.72	5811.55
386.92	6050.28
387.11	6195.40
387.31	6534.78
387.50	6445.84
387.70	6099.44
387.89	6029.22
388.09	6167.31
388.28	6153.27
388.48	6328.81
388.67	6841.39
388.86	7522.48
389.06	8112.30
389.25	8528.91
389.45	8304.22
389.64	8615.51
389.84	8456.36
390.03	8145.06
390.22	8081.87
390.42	8676.37
390.61	9240.44
390.81	9687.48
391.00	9757.69
391.19	9600.88
391.39	9394.91
391.58	8854.25
391.78	8482.10
391.97	8114.64
392.16	7705.04
392.36	7000.54
392.55	5755.38
392.75	4545.32
392.94	3557.61
393.13	3686.34
393.33	4376.80
393.52	5561.11
393.71	6670.53
393.91	7316.51
394.10	8070.17
394.29	8889.35
394.49	9502.58
394.68	10389.64
394.88	10604.97
395.07	10787.53
395.26	10920.94
395.46	10195.37
395.65	9666.41
395.84	8528.91
396.04	7288.43
396.23	5923.90
396.42	4847.25
396.62	4706.82
396.81	5425.36
397.00	6956.07
397.19	8821.48
397.39	10611.99
397.58	11793.96
397.77	12409.52
397.97	12901.03
398.16	12936.14
398.35	13540.00
398.55	13877.04
398.74	14574.52
398.93	14855.38
399.12	14698.56
399.32	14185.99
399.51	14384.93
399.70	15370.30
399.90	14991.13
400.09	15318.81
400.28	14803.89
400.47	15119.86
400.67	16273.74
400.86	16388.43
401.05	16067.78
401.24	16725.47
401.44	16788.66
401.63	16713.77
401.82	16676.32
402.01	16823.77
402.21	16725.47
402.40	17172.51
402.59	16720.79
402.78	15922.66
402.97	15246.25
403.17	15906.28
403.36	16805.05
403.55	17731.90
403.74	17818.50
403.93	16971.22
404.13	15583.29
404.32	15398.38
404.51	16255.02
404.70	17348.05
404.89	17242.73
405.09	16978.25
405.28	16592.06
405.47	16395.45
405.66	16868.24
405.85	16341.62
406.05	15777.55
406.24	15639.46
406.43	16638.87
406.62	17312.94
406.81	17497.84
407.00	16659.93
407.20	16257.36
407.39	16634.19
407.58	17142.08
407.77	17799.77
407.96	18448.10
408.15	18658.75
408.34	18850.67
408.54	19381.98
408.73	19716.67
408.92	19241.54
409.11	18560.45
409.30	17874.67
409.49	16563.97
409.68	15836.06
409.87	15246.25
410.07	16116.93
410.26	17357.41
410.45	18827.27
410.64	19058.98
410.83	19534.11
411.02	20060.73
411.21	20861.19
411.40	20519.48
411.59	20634.16
411.78	20458.62
411.98	20374.36
412.17	20882.26
412.36	20505.43
412.55	20439.90
412.74	20191.80
412.93	19461.55
413.12	19716.67
413.31	21628.89
413.50	21862.94
413.69	22094.66
413.88	21282.49
414.07	20563.95
414.26	20868.22
414.45	21621.87
414.64	21535.27
414.83	21984.65
415.02	21701.45
415.22	21280.15
415.41	21958.91
415.60	22583.83
415.79	23477.91
415.98	23934.32
416.17	24070.07
416.36	23241.52
416.55	22995.76
416.74	22094.66
416.93	21558.67
417.12	21624.21
417.31	21687.40
417.50	22595.53
417.69	22829.59
417.88	22810.86
418.07	22483.19
418.26	22188.28
418.45	22583.83
418.64	23414.72
418.83	24252.63
419.02	23927.30
419.21	23702.61
419.39	22377.86
419.58	21654.64
419.77	21378.45
419.96	22677.45
420.15	23637.07
420.34	24491.37
420.53	25476.73
420.72	25551.63
420.91	25778.66
421.10	25078.84
421.29	25020.33
421.48	24109.86
421.67	25483.75
421.86	24877.55
422.05	23197.05
422.24	20528.84
422.43	20458.62
422.61	22635.32
422.80	24676.27
422.99	24690.31
423.18	23644.09
423.37	22934.91
423.56	23229.82
423.75	23555.15
423.94	23927.30
424.13	22867.03
424.32	23241.52
424.50	22864.69
424.69	22773.41
424.88	22705.54
425.07	22506.59
425.26	22721.92
425.45	22476.16
425.64	22317.01
425.83	22106.36
426.01	23218.11
426.20	23557.49
426.39	23838.36
426.58	22157.85
426.77	20627.14
426.96	19843.06
427.15	20262.02
427.33	21888.69
427.52	22815.54
427.71	23243.86
427.90	22953.63
428.09	22532.34
428.28	21907.41
428.46	21418.24
428.65	21043.76
428.84	21577.40
429.03	22106.36
429.22	21099.93
429.40	19854.76
429.59	18033.83
429.78	15850.11
429.97	15800.96
430.16	16285.45
430.34	16336.94
430.53	16224.59
430.72	16320.56
430.91	18113.41
431.10	21647.61
431.28	24980.54
431.47	27337.46
431.66	27477.89
431.85	25067.14
432.03	23122.15
432.22	21905.07
432.41	23047.26
432.60	25226.29
432.79	26483.16
432.97	27239.15
433.16	26368.48
433.35	24226.89
433.54	21605.49
433.72	20287.76
433.91	20767.57
434.10	23463.87
434.28	25322.26
434.47	26593.17
434.66	26085.27
434.85	25862.92
435.03	25357.36
435.22	26160.17
435.41	27695.56
435.59	27391.29
435.78	27843.01
435.97	28673.90
436.16	29039.03
436.34	28437.51
436.53	27524.70
436.72	28004.51
436.90	26466.78
437.09	26326.35
437.28	25893.35
437.46	26927.86
437.65	26677.43
437.84	25125.65
438.02	22965.34
438.21	22972.36
438.40	24250.29
438.58	26246.77
438.77	26576.78
438.96	27016.80
439.14	28273.67
439.33	28582.62
439.52	29301.17
439.70	28753.48
439.89	27800.88
440.08	27016.80
440.26	27208.73
440.45	27733.01
440.63	29909.71
440.82	31576.17
441.01	31335.09
441.19	30764.00
441.38	31096.36
441.57	32369.61
441.75	32643.45
441.94	32945.38
442.12	32411.74
442.31	33212.20
442.50	33200.50
442.68	32837.72
442.87	32355.57
443.05	32086.40
443.24	32308.76
443.43	33024.96
443.61	33333.91
443.80	34548.65
443.98	32229.18
444.17	32336.84
444.35	33614.77
444.54	34618.86
444.73	34153.10
444.91	32517.06
445.10	31737.66
445.28	30764.00
445.47	29827.79
445.65	30040.78
445.84	30642.29
446.02	31985.76
446.21	32264.28
446.39	32500.68
446.58	32472.59
446.77	33434.55
446.95	33364.34
447.14	34766.32
447.32	35328.05
447.51	34635.25
447.69	33411.15
447.88	32325.14
448.06	33039.00
448.25	34024.37
448.43	34185.86
448.62	33596.05
448.80	33158.37
448.99	33347.95
449.17	34000.96
449.36	33504.77
449.54	34562.69
449.73	35470.82
449.91	35938.93
450.10	36879.82
450.28	37050.68
450.46	37064.72
450.65	37134.94
450.83	37076.43
451.02	36343.84
451.20	35817.22
451.39	35625.29
451.57	35182.93
451.76	36147.23
451.94	35267.19
452.13	34756.96
452.31	33291.78
452.49	31637.02
452.68	32503.02
452.86	32194.07
453.05	32985.17
453.23	33708.40
453.42	34724.19
453.60	35679.13
453.78	35480.18
453.97	34787.38
454.15	35236.77
454.34	34127.35
454.52	34766.32
454.70	34038.41
454.89	34485.45
455.07	34326.30
455.26	34242.04
455.44	36409.37
455.62	37055.36
455.81	36926.63
455.99	36549.81
456.17	36491.29
456.36	36465.55
456.54	37699.01
456.73	37347.93
456.91	38162.43
457.09	38403.51
457.28	39210.99
457.46	37324.52
457.64	37404.10
457.83	36219.79
458.01	34979.31
458.19	36109.78
458.38	36304.05
458.56	37710.71
458.74	37549.21
458.93	36903.23
459.11	36708.96
459.29	36435.12
459.48	36912.59
459.66	37038.98
459.84	37371.33
460.03	37254.31
460.21	37670.92
460.39	38185.84
460.57	38242.01
460.76	38829.49
460.94	38834.17
461.12	38363.72
461.31	38539.26
461.49	37991.58
461.67	38279.46
461.85	39515.26
462.04	39175.89
462.22	39924.86
462.40	39496.54
462.59	39164.18
462.77	39093.97
462.95	39229.72
463.13	38981.62
463.32	38078.18
463.50	38096.90
463.68	38134.35
463.86	38192.86
464.05	38316.91
464.23	37053.02
464.41	36786.20
464.59	36348.52
464.78	37689.65
464.96	37563.26
465.14	37404.10
465.32	38096.90
465.50	39033.11
465.69	39426.32
465.87	38644.59
466.05	37900.29
466.23	36231.49
466.41	35358.47
466.60	36720.66
466.78	36201.07
466.96	37069.40
467.14	38155.41
467.32	38134.35
467.51	38031.36
467.69	36538.10
467.87	37226.22
468.05	37879.23
468.23	37666.24
468.41	37947.11
468.60	38192.86
468.78	38504.15
468.96	37766.88
469.14	38869.28
469.32	38588.41
469.50	37500.06
469.69	37490.70
469.87	36900.89
470.05	36783.86
470.23	36797.90
470.41	36973.44
470.59	37408.78
470.77	37764.54
470.95	38466.70
471.14	38789.70
471.32	39054.18
471.50	41233.22
471.68	41050.66
471.86	41792.61
472.04	41340.88
472.22	41794.95
472.40	39559.73
472.58	39143.12
472.77	39065.88
472.95	39789.11
473.13	41057.68
473.31	39435.69
473.49	40179.98
473.67	40694.89
473.85	41174.70
474.03	41881.55
474.21	41881.55
474.39	42370.72
474.57	42621.16
474.75	42581.37
474.93	42508.81
475.12	41504.72
475.30	41570.25
475.48	41879.21
475.66	41816.01
475.84	41834.74
476.02	41607.70
476.20	40748.73
476.38	41570.25
476.56	42848.19
476.74	43196.93
476.92	43180.54
477.10	44074.63
477.28	45385.33
477.46	45167.66
477.64	45490.65
477.82	45741.09
478.00	46148.34
478.18	44996.80
478.36	44914.88
478.54	44924.24
478.72	45488.31
478.90	46487.72
479.08	47089.24
479.26	47674.37
479.44	47515.22
479.62	47295.21
479.80	47723.52
479.98	47770.33
480.16	48158.86
480.34	47751.61
480.52	47728.20
480.70	48018.43
480.88	47854.59
481.06	49055.29
481.24	49066.99
481.41	50003.20
481.59	50403.44
481.77	50134.28
481.95	49811.28
482.13	49600.63
482.31	49958.73
482.49	49890.86
482.67	49998.52
482.85	50279.39
483.03	50791.97
483.21	51370.08
483.39	50972.19
483.57	50681.96
483.74	50164.70
483.92	50485.36
484.10	50541.53
484.28	51655.62
484.46	51966.91
484.64	51936.49
484.82	51452.00
485.00	51180.49
485.18	50045.33
485.35	49497.65
485.53	45860.46
485.71	42359.02
485.89	41949.42
486.07	43665.03
486.25	47555.00
486.43	49359.56
486.61	50604.72
486.78	50403.44
486.96	50328.54
487.14	51653.28
487.32	52399.91
487.50	53357.19
487.68	54113.19
487.85	54342.56
488.03	54452.56
488.21	53858.07
488.39	53347.83
488.57	52797.80
488.75	52355.44
488.92	53457.84
489.10	55419.20
489.28	56514.58
489.46	57123.11
489.64	56818.84
489.81	57013.11
489.99	56542.66
490.17	56875.02
490.35	57221.42
490.53	56671.39
490.70	56488.83
490.88	56245.41
491.06	56809.48
491.24	57052.90
491.41	56102.64
491.59	54768.54
491.77	54075.74
491.95	55063.44
492.13	56334.35
492.30	57209.71
492.48	58017.20
492.66	58319.13
492.84	58670.21
493.01	58218.49
493.19	57715.27
493.37	57265.89
493.54	57223.76
493.72	57776.12
493.90	58461.90
494.08	59334.92
494.25	59618.13
494.43	59718.77
494.61	59999.63
494.79	60210.28
494.96	59983.25
495.14	59587.70
495.32	58665.53
495.49	57968.05
495.67	58986.18
495.85	60058.15
496.02	60481.78
496.20	60399.86
496.38	59929.42
496.55	59798.35
496.73	60229.01
496.91	60376.46
497.09	61001.38
497.26	61010.74
497.44	60662.00
497.62	60341.35
497.79	59351.30
497.97	58230.19
498.14	58307.43
498.32	59536.21
498.50	60257.09
498.67	60802.44
498.85	60673.71
499.03	60797.76
499.20	60914.78
499.38	60987.34
499.56	60722.86
499.73	60547.32
499.91	60088.57
500.08	59648.55
500.26	58986.18
500.44	59543.23
500.61	60025.38
500.79	60203.26
500.97	59557.27
501.14	59124.27
501.32	59377.05
501.49	59414.50
501.67	59468.33
501.84	59920.05
502.02	60053.47
502.20	60472.42
502.37	60713.50
502.55	60657.32
502.72	61205.01
502.90	61675.46
503.07	61315.01
503.25	60903.08
503.43	60168.15
503.60	59554.93
503.78	59107.89
503.95	59409.82
504.13	60434.97
504.30	61361.82
504.48	61300.97
504.65	60959.25
504.83	60790.73
505.01	61574.81
505.18	61843.98
505.36	62452.51
505.53	62443.15
505.71	62504.01
505.88	62548.48
506.06	62045.26
506.23	61675.46
506.41	61312.67
506.58	61645.03
506.76	61567.79
506.93	61577.15
507.11	61216.71
507.28	61497.58
507.46	61127.77
507.63	60676.05
507.81	60182.19
507.98	60491.15
508.16	61200.33
508.33	61558.43
508.50	62017.17
508.68	62298.04
508.85	62836.36
509.03	62724.02
509.20	62539.11
509.38	62068.67
509.55	61069.26
509.73	61226.07
509.90	61799.50
510.08	62138.88
510.25	62017.17
510.42	61780.78
510.60	61879.08
510.77	62101.43
510.95	62440.81
511.12	62501.67
511.30	62747.42
511.47	62934.66
511.64	63112.55
511.82	62810.62
511.99	62049.94
512.17	61731.63
512.34	61296.29
512.51	61605.24
512.69	61581.84
512.86	61909.51
513.04	62012.49
513.21	62141.22
513.38	61649.71
513.56	61488.21
513.73	60640.94
513.90	61062.24
514.08	60968.61
514.25	61298.63
514.43	61343.10
514.60	61666.09
514.77	61675.46
514.95	61769.08
515.12	61825.25
515.29	61993.77
515.47	62344.85
515.64	62440.81
515.81	62171.65
515.99	61621.62
516.16	60285.18
516.33	58384.66
516.51	57209.71
516.68	56545.00
516.85	56156.47
517.03	56477.13
517.20	58672.55
517.37	60961.59
517.54	61865.04
517.72	61455.45
517.89	59082.14
518.06	57322.06
518.24	57275.25
518.41	59465.99
518.58	60388.16
518.75	60832.86
518.93	60790.73
519.10	60589.45
519.27	61188.63
519.45	61546.73
519.62	62162.29
519.79	62396.34
519.96	62326.13
520.14	61712.91
520.31	60966.27
520.48	60713.50
520.65	61228.41
520.83	62134.20
521.00	62438.47
521.17	62223.14
521.34	61740.99
521.52	62045.26
521.69	62623.37
521.86	62979.14
522.03	62768.49
522.20	61848.66
522.38	60685.41
522.55	60549.66
522.72	61380.55
522.89	61478.85
523.07	61616.94
523.24	62024.20
523.41	62621.03
523.58	62866.79
523.75	63327.87
523.92	63269.36
524.10	63079.78
524.27	63178.08
524.44	62843.38
524.61	62855.09
524.78	62721.68
524.96	62382.30
525.13	62571.88
525.30	62946.37
525.47	63187.44
525.64	63147.65
525.81	62527.41
525.98	61109.05
526.16	59800.69
526.33	59180.45
526.50	58922.99
526.67	58726.38
526.84	59245.98
527.01	60128.36
527.18	60807.12
527.36	61638.01
527.53	62564.86
527.70	62478.26
527.87	62382.30
528.04	61719.93
528.21	62124.84
528.38	62791.89
528.55	63402.77
528.72	63791.30
528.89	63669.59
529.07	63437.88
529.24	62604.65
529.41	62408.04
529.58	61853.34
529.75	61656.73
529.92	62169.31
530.09	62614.01
530.26	63131.27
530.43	63318.51
530.60	63449.58
530.77	63538.52
530.94	63604.06
531.11	63227.23
531.28	62979.14
531.46	62541.45
531.63	62688.91
531.80	62546.14
531.97	62319.10
532.14	61769.08
532.31	60811.80
532.48	60240.71
532.65	60247.73
532.82	60928.83
532.99	62192.72
533.16	62424.43
533.33	62759.12
533.50	62775.51
533.67	61963.34
533.84	61680.14
534.01	61881.42
534.18	62089.73
534.35	62457.20
534.52	62209.10
534.69	62312.08
534.86	62614.01
535.03	62724.02
535.20	63243.62
535.37	63564.27
535.54	63707.04
535.71	63178.08
535.88	63107.86
536.05	62468.90
536.22	62225.48
536.38	61797.16
536.55	61300.97
536.72	60945.21
536.89	60800.10
537.06	61560.77
537.23	62485.28
537.40	62576.56
537.57	62656.14
537.74	62288.68
537.91	62279.31
538.08	62377.62
538.25	62429.11
538.42	62614.01
538.59	62506.35
538.75	61614.60
538.92	61513.96
539.09	61605.24
539.26	61228.41
539.43	61050.53
539.60	61174.58
539.77	61118.41
539.94	61270.54
540.11	60619.88
540.28	60095.60
540.44	60264.11
540.61	60465.40
540.78	60676.05
540.95	61010.74
541.12	61240.12
541.29	61481.19
541.46	61836.95
541.62	61953.98
541.79	61647.37
541.96	61317.35
542.13	61258.84
542.30	61502.26
542.47	61719.93
542.63	61373.53
542.80	61116.07
542.97	61293.95
543.14	61099.68
543.31	61202.67
543.48	61638.01
543.64	62377.62
543.81	62721.68
543.98	62274.63
544.15	61769.08
544.32	61378.21
544.48	61413.32
544.65	61841.63
544.82	62255.91
544.99	61752.69
545.16	61553.75
545.32	61258.84
545.49	62045.26
545.66	62302.72
545.83	61827.59
546.00	61808.87
546.16	61350.12
546.33	61254.16
546.50	61403.95
546.67	61841.63
546.83	61279.91
547.00	61345.44
547.17	60910.10
547.34	60615.19
547.50	60406.89
547.67	60659.66
547.84	60891.38
548.00	61256.50
548.17	61546.73
548.34	61446.08
548.51	61410.98
548.67	61457.79
548.84	61511.62
549.01	61476.51
549.18	61432.04
549.34	61270.54
549.51	61317.35
549.68	61289.27
549.84	61043.51
550.01	61027.13
550.18	60989.68
550.34	60963.93
550.51	61106.71
550.68	61085.64
550.84	60554.34
551.01	60903.08
551.18	60662.00
551.34	61069.26
551.51	61258.84
551.68	61460.13
551.84	61698.86
552.01	61345.44
552.18	61195.65
552.34	60413.91
552.51	60339.01
552.68	59973.89
552.84	60662.00
553.01	60956.91
553.18	60626.90
553.34	60844.57
553.51	60853.93
553.67	61111.39
553.84	61036.49
554.01	61162.88
554.17	61167.56
554.34	61010.74
554.51	61226.07
554.67	61371.19
554.84	61427.36
555.00	60982.66
555.17	60779.03
555.33	60748.60
555.50	60739.24
555.67	60825.84
555.83	60523.91
556.00	60198.58
556.16	60402.21
556.33	60041.76
556.50	59875.58
556.66	59786.64
556.83	59880.27
556.99	59723.45
557.16	59774.94
557.32	60004.31
557.49	60207.94
557.65	60317.95
557.82	60226.66
557.98	59880.27
558.15	59646.21
558.32	58983.84
558.48	58188.06
558.65	58298.06
558.81	58803.62
558.98	58962.78
559.14	59121.93
559.31	59138.32
559.47	59421.52
559.64	58993.20
559.80	58595.31
559.97	58536.80
560.13	59056.40
560.30	59870.90
560.46	60392.84
560.63	60493.49
560.79	60465.40
560.96	60001.97
561.12	59171.08
561.29	58464.24
561.45	58585.95
561.61	58738.08
561.78	59334.92
561.94	59351.30
562.11	59037.67
562.27	58899.58
562.44	59288.11
562.60	59508.12
562.77	59718.77
562.93	59650.89
563.10	59604.08
563.26	59222.58
563.42	59114.91
563.59	58983.84
563.75	59040.01
563.92	59173.42
564.08	58913.62
564.24	59157.04
564.41	59290.45
564.57	59220.23
564.74	58920.65
564.90	58979.16
565.07	58845.75
565.23	58527.44
565.39	57972.73
565.56	57848.68
565.72	57593.56
565.88	57900.17
566.05	57968.05
566.21	58274.66
566.38	58379.98
566.54	58539.14
566.70	58775.53
566.87	59086.82
567.03	58953.41
567.19	59114.91
567.36	58894.90
567.52	58623.40
567.68	58618.72
567.85	57698.89
568.01	57567.82
568.17	57270.57
568.34	57401.64
568.50	57251.84
568.66	57553.77
568.83	57733.99
568.99	57827.62
569.15	57946.98
569.32	57942.30
569.48	57607.61
569.64	57595.90
569.81	57240.14
569.97	57127.80
570.13	57155.88
570.30	56561.39
570.46	56306.27
570.62	55889.65
570.78	56062.85
570.95	56109.66
571.11	56853.95
571.27	56842.25
571.43	57127.80
571.60	57263.55
571.76	57621.65
571.92	57705.91
572.09	58101.46
572.25	57895.49
572.41	57776.12
572.57	57488.24
572.74	57621.65
572.90	57240.14
573.06	57251.84
573.22	57490.58
573.38	57375.89
573.55	57422.70
573.71	57509.30
573.87	57228.44
574.03	57340.78
574.20	57235.46
574.36	56804.80
574.52	56779.06
574.68	56715.86
574.84	56243.07
575.01	55936.46
575.17	55566.66
575.33	56144.77
575.49	56271.16
575.65	56577.77
575.82	56182.22
575.98	56034.77
576.14	56341.38
576.30	56748.63
576.46	56610.54
576.62	56659.69
576.79	56563.73
576.95	56123.71
577.11	56130.73
577.27	56016.04
577.43	56395.21
577.59	56039.45
577.75	55606.45
577.92	55079.83
578.08	54824.71
578.24	54981.52
578.40	55171.11
578.56	55529.21
578.72	55686.03
578.88	55814.76
579.04	55744.54
579.21	55896.67
579.37	56044.13
579.53	56123.71
579.69	55980.93
579.85	56282.86
580.01	56076.90
580.17	55615.81
580.33	55386.44
580.49	55646.24
580.65	55697.73
580.82	55779.65
580.98	55760.92
581.14	55941.14
581.30	55880.29
581.46	55793.69
581.62	56104.98
581.78	55985.61
581.94	56081.58
582.10	56100.30
582.26	56109.66
582.42	56058.17
582.58	56219.67
582.74	55863.91
582.90	56020.72
583.06	55877.95
583.22	55671.98
583.38	55807.73
583.54	55913.06
583.70	55601.77
583.86	56016.04
584.02	55409.84
584.18	55838.16
584.34	55688.37
584.50	55477.72
584.66	55475.38
584.82	55145.36
584.98	55063.44
585.14	54808.32
