SpectraSuite Data File
++++++++++++++++++++++++++++++++++++
Date: Mon Oct 07 14:55:02 GMT-05:00 2013
User: price-jones
Dark Spectrum Present: No
Reference Spectrum Present: No
Number of Sampled Component Spectra: 1
Spectrometers: USB2+H05261
Integration Time (usec): 10000 (USB2+H05261)
Spectra Averaged: 1 (USB2+H05261)
Boxcar Smoothing: 0 (USB2+H05261)
Correct for Electrical Dark: No (USB2+H05261)
Strobe/Lamp Enabled: No (USB2+H05261)
Correct for Detector Non-linearity: No (USB2+H05261)
Correct for Stray Light: No (USB2+H05261)
Number of Pixels in Processed Spectrum: 2048
>>>>>Begin Processed Spectral Data<<<<<
365.73	0.00
365.92	0.00
366.12	0.00
366.32	0.00
366.52	0.00
366.72	0.00
366.91	0.00
367.11	0.00
367.31	0.00
367.51	0.00
367.70	0.00
367.90	0.00
368.10	0.00
368.30	0.00
368.49	0.00
368.69	0.00
368.89	0.00
369.09	0.00
369.28	0.00
369.48	0.00
369.68	0.00
369.87	0.00
370.07	0.00
370.27	0.00
370.47	465.77
370.66	2691.62
370.86	3169.09
371.06	3400.80
371.25	3396.12
371.45	3239.30
371.65	2693.96
371.84	2600.34
372.04	2909.29
372.24	3368.03
372.44	3358.67
372.63	3283.77
372.83	2911.63
373.03	2504.37
373.22	2462.24
373.42	2672.89
373.62	2949.08
373.81	3178.45
374.01	3054.40
374.21	2818.00
374.40	2630.76
374.60	2848.43
374.79	3316.54
374.99	3812.73
375.19	4030.40
375.38	4021.04
375.58	3772.94
375.78	3613.79
375.97	3847.84
376.17	3831.46
376.37	3911.04
376.56	4093.60
376.76	4271.48
376.95	4456.38
377.15	4758.31
377.35	4961.94
377.54	5048.54
377.74	5334.08
377.93	5357.49
378.13	5100.03
378.33	4784.06
378.52	4325.31
378.72	4283.18
378.91	4189.56
379.11	4126.36
379.31	3946.14
379.50	3887.63
379.70	4400.21
379.89	4947.89
380.09	5135.14
380.28	5273.23
380.48	5238.12
380.68	5109.39
380.87	4744.27
381.07	4589.79
381.26	4320.63
381.46	4014.02
381.65	3906.35
381.85	3751.88
382.04	3503.78
382.24	3311.86
382.43	3379.73
382.63	3103.55
382.83	3187.81
383.02	3192.49
383.22	3103.55
383.41	3155.04
383.61	3463.99
383.80	4028.06
384.00	4479.79
384.19	5167.90
384.39	5423.02
384.58	5308.34
384.78	5158.54
384.97	4903.42
385.17	4636.60
385.36	4383.82
385.56	4421.27
385.75	4727.88
385.95	5132.79
386.14	5423.02
386.34	5336.42
386.53	5116.41
386.72	4784.06
386.92	5006.41
387.11	5137.48
387.31	5420.68
387.50	5305.99
387.70	5252.16
387.89	4971.30
388.09	5167.90
388.28	5083.64
388.48	5373.87
388.67	5804.53
388.86	6420.09
389.06	6703.29
389.25	7222.89
389.45	7040.33
389.64	6963.09
389.84	6988.84
390.03	6827.34
390.22	6913.94
390.42	7358.64
390.61	7679.30
390.81	7911.01
391.00	8315.92
391.19	8184.85
391.39	7840.79
391.58	7421.84
391.78	7023.95
391.97	6871.81
392.16	6286.68
392.36	5444.09
392.55	4287.86
392.75	3386.76
392.94	2923.33
393.13	3176.11
393.33	3791.67
393.52	4938.53
393.71	5858.36
393.91	6441.15
394.10	7042.67
394.29	7585.68
394.49	8416.57
394.68	8933.82
394.88	8840.20
395.07	9263.84
395.26	8926.80
395.46	8627.21
395.65	8093.57
395.84	6817.98
396.04	5788.14
396.23	4589.79
396.42	3967.21
396.62	4077.21
396.81	4945.55
397.00	6490.31
397.19	8028.04
397.39	9219.37
397.58	10239.84
397.77	10839.02
397.97	11389.05
398.16	11321.17
398.35	11571.61
398.55	12002.27
398.74	12482.08
398.93	12643.57
399.12	12388.46
399.32	11981.20
399.51	12325.26
399.70	13371.48
399.90	13034.44
400.09	12666.98
400.28	12669.32
400.47	13123.38
400.67	13415.95
400.86	13823.20
401.05	14005.77
401.24	13855.97
401.44	14118.11
401.63	14342.80
401.82	14083.00
402.01	14342.80
402.21	14623.67
402.40	14637.71
402.59	13827.88
402.78	13453.40
402.97	13158.49
403.17	13902.78
403.36	14733.67
403.55	15337.53
403.74	15382.00
403.93	14335.78
404.13	13343.39
404.32	13252.11
404.51	13797.46
404.70	14710.27
404.89	14817.93
405.09	14462.17
405.28	14218.75
405.47	14183.65
405.66	14078.32
405.85	13666.39
406.05	13422.97
406.24	13973.00
406.43	14644.73
406.62	14970.07
406.81	15070.71
407.00	14595.58
407.20	14113.43
407.39	14389.61
407.58	15037.94
407.77	15758.83
407.96	16100.55
408.15	16592.06
408.34	16535.88
408.54	16783.98
408.73	16828.45
408.92	16479.71
409.11	16243.32
409.30	15559.88
409.49	14160.24
409.68	13703.84
409.87	13532.98
410.07	14541.75
410.26	15686.27
410.45	15943.73
410.64	16381.41
410.83	17160.81
411.02	17460.40
411.21	18134.47
411.40	18003.40
411.59	18066.60
411.78	18104.04
411.98	17724.88
412.17	18270.22
412.36	17862.97
412.55	17958.93
412.74	17502.53
412.93	17357.41
413.12	17472.10
413.31	19349.21
413.50	19171.33
413.69	19211.12
413.88	18101.70
414.07	18434.06
414.26	18827.27
414.45	19005.15
414.64	18977.06
414.83	18876.42
415.02	19023.87
415.22	18621.30
415.41	19552.84
415.60	19882.85
415.79	20606.08
415.98	20720.76
416.17	20987.58
416.36	20512.46
416.55	20114.56
416.74	19672.20
416.93	18979.40
417.12	19208.78
417.31	19358.57
417.50	19782.21
417.69	20402.45
417.88	20486.71
418.07	20116.90
418.26	20009.24
418.45	20060.73
418.64	20938.43
418.83	22127.42
419.02	20966.52
419.21	20765.23
419.39	19833.70
419.58	19318.78
419.77	19548.15
419.96	20744.17
420.15	21830.18
420.34	22242.11
420.53	22532.34
420.72	22813.20
420.91	22984.06
421.10	22092.32
421.29	22111.04
421.48	21497.82
421.67	22637.66
421.86	21219.30
422.05	19669.86
422.24	18270.22
422.43	18981.74
422.61	21099.93
422.80	21781.03
422.99	21488.46
423.18	20903.32
423.37	20634.16
423.56	20734.81
423.75	21673.36
423.94	22277.22
424.13	20872.90
424.32	20470.33
424.50	20243.29
424.69	20950.14
424.88	20870.56
425.07	20999.29
425.26	20882.26
425.45	20074.77
425.64	19634.75
425.83	20210.53
426.01	21120.99
426.20	21776.34
426.39	21525.91
426.58	19639.44
426.77	18302.99
426.96	18279.58
427.15	19021.53
427.33	20521.82
427.52	21015.67
427.71	21326.96
427.90	21050.78
428.09	20641.18
428.28	19882.85
428.46	19110.47
428.65	19180.69
428.84	19791.57
429.03	20187.12
429.22	18658.75
429.40	17186.55
429.59	15962.45
429.78	14303.01
429.97	14583.88
430.16	14497.28
430.34	14593.24
430.53	15063.69
430.72	15585.63
430.91	17399.54
431.10	20673.95
431.28	23740.05
431.47	25418.22
431.66	24680.95
431.85	21979.97
432.03	20727.78
432.22	20446.92
432.41	22178.92
432.60	23971.77
432.79	24425.83
432.97	24725.42
433.16	23269.61
433.35	21364.41
433.54	19290.70
433.72	18628.32
433.91	20058.39
434.10	22352.12
434.28	23215.77
434.47	24428.17
434.66	23726.01
434.85	23274.29
435.03	23632.39
435.22	24006.87
435.41	25275.45
435.59	25926.11
435.78	26061.87
435.97	26562.74
436.16	26438.69
436.34	25944.84
436.53	25385.45
436.72	25607.80
436.90	24456.26
437.09	24205.82
437.28	23908.57
437.46	25039.05
437.65	24095.82
437.84	22389.56
438.02	21160.78
438.21	21656.98
438.40	22188.28
438.58	23960.06
438.77	24961.81
438.96	25291.83
439.14	26171.87
439.33	26836.58
439.52	26953.61
439.70	25982.29
439.89	25226.29
440.08	24837.76
440.26	25282.47
440.45	26494.86
440.63	28266.65
440.82	28795.61
441.01	28538.15
441.19	28453.89
441.38	28926.68
441.57	30621.23
441.75	30012.69
441.94	30494.84
442.12	30064.18
442.31	31131.47
442.50	30827.20
442.68	30052.48
442.87	30188.23
443.05	29476.71
443.24	30508.88
443.43	30696.13
443.61	31140.83
443.80	32098.11
443.98	30574.42
444.17	29837.15
444.35	31349.14
444.54	32273.65
444.73	31604.25
444.91	29958.86
445.10	29184.14
445.28	28243.24
445.47	27541.08
445.65	28280.69
445.84	29277.76
446.02	29436.92
446.21	30326.32
446.39	30433.99
446.58	30845.92
446.77	31435.74
446.95	31667.45
447.14	32400.04
447.32	33331.57
447.51	32376.63
447.69	30848.26
447.88	30682.08
448.06	31536.38
448.25	31943.63
448.43	31461.48
448.62	31278.92
448.80	30946.56
448.99	31182.96
449.17	31639.36
449.36	31840.65
449.54	33476.68
449.73	33418.17
449.91	33797.34
450.10	35239.11
450.28	35555.08
450.46	35068.25
450.65	35047.18
450.83	34740.57
451.02	34321.62
451.20	34291.19
451.39	34005.64
451.57	33785.63
451.76	33764.57
451.94	33188.80
452.13	31988.10
452.31	30742.94
452.49	29392.45
452.68	30384.83
452.86	30782.73
453.05	31250.83
453.23	32615.37
453.42	32795.59
453.60	33703.71
453.78	33551.58
453.97	33593.71
454.15	33212.20
454.34	31503.61
454.52	32170.66
454.70	31850.01
454.89	32680.90
455.07	32453.87
455.26	33324.55
455.44	34326.30
455.62	34665.67
455.81	34536.94
455.99	34387.15
456.17	34492.47
456.36	35110.38
456.54	35599.55
456.73	34890.37
456.91	35718.92
457.09	35864.03
457.28	36671.51
457.46	34836.53
457.64	34586.10
457.83	33649.88
458.01	33867.55
458.19	34902.07
458.38	35529.33
458.56	36315.75
458.74	35433.37
458.93	35000.37
459.11	34024.37
459.29	34366.09
459.48	35077.61
459.66	34457.37
459.84	34752.27
460.03	35026.12
460.21	36154.26
460.39	36383.63
460.57	35978.72
460.76	35938.93
460.94	36657.47
461.12	36577.89
461.31	36552.15
461.49	37282.39
461.67	36741.73
461.85	37684.97
462.04	37284.73
462.22	37212.18
462.40	37261.33
462.59	36783.86
462.77	37053.02
462.95	36823.65
463.13	37031.96
463.32	35852.33
463.50	35800.83
463.68	36580.23
463.86	36594.28
464.05	35292.94
464.23	34756.96
464.41	35164.21
464.59	34473.75
464.78	36229.15
464.96	35178.25
465.14	35026.12
465.32	36762.79
465.50	38075.84
465.69	38754.59
465.87	36996.85
466.05	35920.20
466.23	34113.31
466.41	33303.48
466.60	35082.29
466.78	34656.31
466.96	35253.15
467.14	35995.10
467.32	35941.27
467.51	36102.76
467.69	34471.41
467.87	35721.26
468.05	36205.75
468.23	35737.64
468.41	35873.39
468.60	36355.54
468.78	37116.22
468.96	36624.70
469.14	36854.08
469.32	36917.27
469.50	35241.45
469.69	35751.68
469.87	35562.10
470.05	35037.82
470.23	35077.61
470.41	35604.23
470.59	35620.61
470.77	35709.55
470.95	36381.29
471.14	37160.69
471.32	37462.61
471.50	38951.20
471.68	39456.75
471.86	39995.07
472.04	39826.56
472.22	39693.15
472.40	38234.99
472.58	37383.04
472.77	37909.66
472.95	37951.79
473.13	39871.03
473.31	38284.14
473.49	38389.47
473.67	39246.10
473.85	39400.58
474.03	41488.34
474.21	41357.27
474.39	41155.98
474.57	41083.42
474.75	41301.09
474.93	40346.15
475.12	39262.49
475.30	39746.98
475.48	39653.36
475.66	40395.31
475.84	39311.64
476.02	39849.96
476.20	39683.78
476.38	39976.35
476.56	41219.17
476.74	42202.20
476.92	41998.57
477.10	41900.27
477.28	43225.01
477.46	43501.20
477.64	44179.95
477.82	44210.38
478.00	44142.50
478.18	43578.43
478.36	43208.63
478.54	43615.88
478.72	44364.85
478.90	45563.21
479.08	47124.35
479.26	46712.41
479.44	47222.65
479.62	46522.83
479.80	47117.32
479.98	46571.98
480.16	47014.34
480.34	46199.83
480.52	47416.91
480.70	46911.36
480.88	47119.66
481.06	47604.16
481.24	48292.27
481.41	49015.50
481.59	49846.39
481.77	48353.13
481.95	48177.59
482.13	48247.80
482.31	49111.46
482.49	49865.11
482.67	48802.51
482.85	49223.81
483.03	49041.24
483.21	49916.61
483.39	49914.26
483.57	50052.36
483.74	49731.70
483.92	49619.36
484.10	49198.06
484.28	49860.43
484.46	49888.52
484.64	51540.94
484.82	50396.42
485.00	49902.56
485.18	49364.24
485.35	47416.91
485.53	41881.55
485.71	39573.78
485.89	40133.17
486.07	43723.55
486.25	45776.20
486.43	48559.09
486.61	48617.61
486.78	48339.08
486.96	49408.71
487.14	50707.71
487.32	51657.96
487.50	52268.84
487.68	53291.66
487.85	53827.64
488.03	53193.36
488.21	52687.80
488.39	52648.01
488.57	51222.62
488.75	51105.60
488.92	52985.05
489.10	54679.60
489.28	55150.04
489.46	56313.29
489.64	56051.15
489.81	56191.58
489.99	55671.98
490.17	55784.33
490.35	55777.31
490.53	55576.02
490.70	55332.60
490.88	55133.66
491.06	56526.28
491.24	56636.28
491.41	55739.86
491.59	54298.09
491.77	54010.20
491.95	54997.91
492.13	56577.77
492.30	56589.47
492.48	57642.71
492.66	57694.21
492.84	57429.72
493.01	56933.53
493.19	56919.49
493.37	56591.81
493.54	56757.99
493.72	57703.57
493.90	58195.08
494.08	58532.12
494.25	58702.98
494.43	59173.42
494.61	59664.94
494.79	59271.73
494.96	59810.05
495.14	59070.44
495.32	57935.28
495.49	58204.44
495.67	59040.01
495.85	59732.81
496.02	60168.15
496.20	59678.98
496.38	59168.74
496.55	59365.35
496.73	60032.40
496.91	60313.26
497.09	60287.52
497.26	60914.78
497.44	60016.02
497.62	59433.22
497.79	58894.90
497.97	57708.25
498.14	58658.51
498.32	59707.07
498.50	59704.73
498.67	59697.70
498.85	59896.65
499.03	60392.84
499.20	60432.63
499.38	60016.02
499.56	59363.01
499.73	59304.49
499.91	59147.68
500.08	58714.68
500.26	58281.68
500.44	59145.34
500.61	59880.27
500.79	59304.49
500.97	59255.34
501.14	58522.76
501.32	58073.37
501.49	58403.39
501.67	59032.99
501.84	59126.61
502.02	59686.00
502.20	60013.68
502.37	60109.64
502.55	60491.15
502.72	61015.43
502.90	61392.25
503.07	60977.98
503.25	59880.27
503.43	59070.44
503.60	58775.53
503.78	58887.88
503.95	59316.20
504.13	60334.33
504.30	60807.12
504.48	60076.87
504.65	60521.57
504.83	60516.89
505.01	61258.84
505.18	61434.38
505.36	61935.26
505.53	61785.46
505.71	61649.71
505.88	62019.52
506.06	61647.37
506.23	61251.82
506.41	61085.64
506.58	61127.77
506.76	61034.15
506.93	60409.23
507.11	60692.43
507.28	60945.21
507.46	60076.87
507.63	60402.21
507.81	59887.29
507.98	60198.58
508.16	61216.71
508.33	61165.22
508.50	61542.05
508.68	62024.20
508.85	62202.08
509.03	62461.88
509.20	62024.20
509.38	61186.28
509.55	61343.10
509.73	61385.23
509.90	61240.12
510.08	61563.11
510.25	61036.49
510.42	61052.87
510.60	61277.57
510.77	61523.32
510.95	61740.99
511.12	62173.99
511.30	62827.00
511.47	63142.97
511.64	62780.19
511.82	62742.74
511.99	61612.26
512.17	61572.47
512.34	61020.11
512.51	61333.74
512.69	61616.94
512.86	61118.41
513.04	61495.24
513.21	61097.34
513.38	60570.72
513.56	60116.66
513.73	59831.11
513.90	60837.54
514.08	60619.88
514.25	60687.75
514.43	61153.52
514.60	61230.75
514.77	61422.68
514.95	61710.56
515.12	61469.49
515.29	61797.16
515.47	62164.63
515.64	62138.88
515.81	61801.85
515.99	60968.61
516.16	59107.89
516.33	57066.94
516.51	57183.97
516.68	55994.98
516.85	54981.52
517.03	56505.21
517.20	58904.26
517.37	60851.59
517.54	61443.74
517.72	60329.65
517.89	57551.43
518.06	56217.33
518.24	57207.37
518.41	59075.12
518.58	60444.33
518.75	60563.70
518.93	60257.09
519.10	59990.27
519.27	61008.40
519.45	61338.42
519.62	62040.58
519.79	62045.26
519.96	61354.80
520.14	61226.07
520.31	60210.28
520.48	60219.64
520.65	61216.71
520.83	62176.33
521.00	62031.22
521.17	61366.51
521.34	61488.21
521.52	62148.24
521.69	62192.72
521.86	62532.09
522.03	62213.78
522.20	60725.20
522.38	60240.71
522.55	60718.18
522.72	60776.69
522.89	60559.02
523.07	61621.62
523.24	62068.67
523.41	62539.11
523.58	62801.25
523.75	62763.81
523.92	63018.92
524.10	62695.93
524.27	62042.92
524.44	61818.23
524.61	61422.68
524.78	61942.28
524.96	62080.37
525.13	61914.19
525.30	62738.06
525.47	62920.62
525.64	62967.43
525.81	61918.87
525.98	60214.96
526.16	58951.07
526.33	59070.44
526.50	58548.50
526.67	58866.81
526.84	59180.45
527.01	60214.96
527.18	60645.62
527.36	61375.87
527.53	62302.72
527.70	61867.38
527.87	60512.21
528.04	61502.26
528.21	61855.68
528.38	62405.70
528.55	63451.92
528.72	63014.24
528.89	62665.50
529.07	62768.49
529.24	61408.64
529.41	61413.32
529.58	61413.32
529.75	62227.82
529.92	62344.85
530.09	62145.90
530.26	63070.42
530.43	63688.32
530.60	62777.85
530.77	63269.36
530.94	63416.82
531.11	62496.98
531.28	62356.55
531.46	62475.92
531.63	62473.58
531.80	62276.97
531.97	61881.42
532.14	61806.53
532.31	60360.08
532.48	59618.13
532.65	59913.03
532.82	60575.40
532.99	62276.97
533.16	62436.13
533.33	62213.78
533.50	62630.40
533.67	62213.78
533.84	61675.46
534.01	61991.43
534.18	61804.19
534.35	61691.84
534.52	61183.94
534.69	61949.30
534.86	62218.46
535.03	62665.50
535.20	62639.76
535.37	63304.47
535.54	63370.00
535.71	63089.14
535.88	63061.05
536.05	62068.67
536.22	61403.95
536.38	61591.20
536.55	61001.38
536.72	60444.33
536.89	61151.18
537.06	61118.41
537.23	61394.59
537.40	61291.61
537.57	61155.86
537.74	61673.12
537.91	61888.45
538.08	61682.48
538.25	62017.17
538.42	62887.85
538.59	62056.96
538.75	61162.88
538.92	60690.09
539.09	61137.13
539.26	60949.89
539.43	60956.91
539.60	60610.51
539.77	61462.47
539.94	60989.68
540.11	60261.77
540.28	59891.97
540.44	59910.69
540.61	59898.99
540.78	60233.69
540.95	60697.11
541.12	60931.17
541.29	61244.80
541.46	61315.01
541.62	61839.29
541.79	60933.51
541.96	60561.36
542.13	60889.04
542.30	60619.88
542.47	61102.03
542.63	61109.05
542.80	60753.29
542.97	60315.61
543.14	60203.26
543.31	60910.10
543.48	61656.73
543.64	61757.38
543.81	62410.38
543.98	62344.85
544.15	61425.02
544.32	61654.39
544.48	61226.07
544.65	61116.07
544.82	61516.30
544.99	60292.20
545.16	60121.34
545.32	60355.39
545.49	61151.18
545.66	61275.22
545.83	61083.30
546.00	61516.30
546.16	61116.07
546.33	61003.72
546.50	61083.30
546.67	61539.71
546.83	61064.58
547.00	61354.80
547.17	60030.06
547.34	59468.33
547.50	59384.07
547.67	60547.32
547.84	61190.97
548.00	61233.10
548.17	60956.91
548.34	61193.31
548.51	61282.25
548.67	61240.12
548.84	61193.31
549.01	61289.27
549.18	60797.76
549.34	60935.85
549.51	61347.78
549.68	61705.88
549.84	60750.94
550.01	60065.17
550.18	60259.43
550.34	60467.74
550.51	60495.83
550.68	60987.34
550.84	61034.15
551.01	60041.76
551.18	60093.25
551.34	59948.14
551.51	60802.44
551.68	60877.33
551.84	61378.21
552.01	60774.35
552.18	60535.62
552.34	59721.11
552.51	59526.84
552.68	59599.40
552.84	59861.54
553.01	59882.61
553.18	60219.64
553.34	60172.83
553.51	60509.87
553.67	60556.68
553.84	60706.47
554.01	60945.21
554.17	60329.65
554.34	60388.16
554.51	60552.00
554.67	59728.13
554.84	60018.36
555.00	59437.90
555.17	59838.14
555.33	59629.83
555.50	59304.49
555.67	60093.25
555.83	59800.69
556.00	59735.15
556.16	59604.08
556.33	59084.48
556.50	59590.04
556.66	59517.48
556.83	59145.34
556.99	58712.34
557.16	59540.89
557.32	59049.38
557.49	59468.33
557.65	59131.29
557.82	59662.60
557.98	59896.65
558.15	58822.34
558.32	58314.45
558.48	58024.22
558.65	57783.15
558.81	58424.45
558.98	59030.65
559.14	59096.19
559.31	58803.62
559.47	58382.32
559.64	58808.30
559.80	57958.69
559.97	58782.55
560.13	59126.61
560.30	60203.26
560.46	60481.78
560.63	60540.30
560.79	60439.65
560.96	59587.70
561.12	58782.55
561.29	58375.30
561.45	58323.81
561.61	59615.79
561.78	58632.76
561.94	59110.23
562.11	59044.69
562.27	58291.04
562.44	59456.63
562.60	59395.77
562.77	59683.66
562.93	58948.73
563.10	59126.61
563.26	58908.94
563.42	59480.03
563.59	58812.98
563.75	58609.35
563.92	58202.10
564.08	58096.78
564.24	59171.08
564.41	58272.32
564.57	59297.47
564.74	58836.39
564.90	58269.98
565.07	57886.13
565.23	57254.18
565.39	56980.34
565.56	57158.22
565.72	57677.82
565.88	56704.16
566.05	58389.34
566.21	58410.41
566.38	58176.36
566.54	58843.41
566.70	59185.13
566.87	58754.47
567.03	58349.56
567.19	59524.50
567.36	59568.97
567.52	58396.37
567.68	57680.16
567.85	57148.86
568.01	57513.98
568.17	57600.58
568.34	57956.35
568.50	57336.10
568.66	57104.39
568.83	57043.54
568.99	56828.21
569.15	57006.09
569.32	57165.24
569.48	56970.98
569.64	56891.40
569.81	56870.34
569.97	56587.13
570.13	55971.57
570.30	55482.40
570.46	55121.96
570.62	54543.84
570.78	55327.92
570.95	55599.43
571.11	56161.15
571.27	55646.24
571.43	56072.21
571.60	55906.04
571.76	56767.35
571.92	57153.54
572.09	57354.83
572.25	56865.66
572.41	57317.38
572.57	57069.28
572.74	57485.90
572.90	58321.47
573.06	57860.38
573.22	57923.58
573.38	57656.76
573.55	58635.10
573.71	57385.25
573.87	57127.80
574.03	57230.78
574.20	56835.23
574.36	56779.06
574.52	56264.14
574.68	56144.77
574.84	55524.53
575.01	55627.51
575.17	55346.65
575.33	56130.73
575.49	55906.04
575.65	55054.08
575.82	55667.30
575.98	55922.42
576.14	56643.30
576.30	57202.69
576.46	55894.33
576.62	55938.80
576.79	56217.33
576.95	56069.87
577.11	56547.34
577.27	56313.29
577.43	56388.19
577.59	55861.57
577.75	55140.68
577.92	54883.22
578.08	55295.16
578.24	55543.25
578.40	55547.93
578.56	54190.42
578.72	54756.83
578.88	54897.27
579.04	55377.08
579.21	54679.60
579.37	55180.47
579.53	55538.57
579.69	55131.32
579.85	54752.15
580.01	54822.37
580.17	54424.48
580.33	55393.46
580.49	55664.96
580.65	54457.24
580.82	55201.53
580.98	55466.02
581.14	55646.24
581.30	55030.68
581.46	54756.83
581.62	55182.81
581.78	55866.25
581.94	55987.95
582.10	55913.06
582.26	55774.97
582.42	56004.34
582.58	54752.15
582.74	55166.43
582.90	55021.31
583.06	55430.91
583.22	55391.12
583.38	55143.02
583.54	55709.43
583.70	55655.60
583.86	55606.45
584.02	54822.37
584.18	54796.62
584.34	54501.71
584.50	54557.89
584.66	54513.42
584.82	54588.31
584.98	54560.23
585.14	53834.66
585.30	53949.35
