SpectraSuite Data File
++++++++++++++++++++++++++++++++++++
Date: Mon Oct 07 14:53:37 GMT-05:00 2013
User: price-jones
Dark Spectrum Present: No
Reference Spectrum Present: No
Number of Sampled Component Spectra: 1
Spectrometers: USB2+H05261
Integration Time (usec): 100000 (USB2+H05261)
Spectra Averaged: 1 (USB2+H05261)
Boxcar Smoothing: 0 (USB2+H05261)
Correct for Electrical Dark: No (USB2+H05261)
Strobe/Lamp Enabled: No (USB2+H05261)
Correct for Detector Non-linearity: No (USB2+H05261)
Correct for Stray Light: No (USB2+H05261)
Number of Pixels in Processed Spectrum: 2048
>>>>>Begin Processed Spectral Data<<<<<
365.73	0.00
365.92	0.00
366.12	0.00
366.32	0.00
366.52	0.00
366.72	0.00
366.91	0.00
367.11	0.00
367.31	0.00
367.51	0.00
367.70	0.00
367.90	0.00
368.10	0.00
368.30	0.00
368.49	0.00
368.69	0.00
368.89	0.00
369.09	0.00
369.28	0.00
369.48	0.00
369.68	0.00
369.87	0.00
370.07	0.00
370.27	0.00
370.47	704.50
370.66	3552.93
370.86	4072.53
371.06	4526.60
371.25	4599.15
371.45	4067.85
371.65	3669.96
371.84	3377.39
372.04	3494.42
372.24	4028.06
372.44	4229.35
372.63	4215.30
372.83	3946.14
373.03	3494.42
373.22	3138.66
373.42	3239.30
373.62	3789.33
373.81	4095.94
374.01	4189.56
374.21	3705.07
374.40	3499.10
374.60	3627.83
374.79	4175.52
374.99	4720.86
375.19	5203.01
375.38	5116.41
375.58	4861.29
375.78	4657.67
375.97	4812.14
376.17	4929.17
376.37	5076.62
376.56	5036.83
376.76	5343.44
376.95	5769.42
377.15	6171.99
377.35	6361.58
377.54	6502.01
377.74	6691.59
377.93	6698.61
378.13	6684.57
378.33	6183.70
378.52	5930.92
378.72	5605.58
378.91	5678.14
379.11	5235.78
379.31	5181.95
379.50	5022.79
379.70	5392.59
379.89	6125.18
380.09	6511.37
380.28	6628.40
380.48	6583.93
380.68	6623.72
380.87	6583.93
381.07	6024.54
381.26	5540.05
381.46	5181.95
381.65	5029.81
381.85	4931.51
382.04	4648.30
382.24	4386.16
382.43	4131.05
382.63	4191.90
382.83	4072.53
383.02	4138.07
383.22	4112.32
383.41	4028.06
383.61	4290.20
383.80	5121.09
384.00	5530.69
384.19	6363.92
384.39	6665.85
384.58	6745.42
384.78	6513.71
384.97	6340.51
385.17	6162.63
385.36	5809.21
385.56	5685.16
385.75	5760.06
385.95	6167.31
386.14	6927.99
386.34	6892.88
386.53	6614.35
386.72	6064.33
386.92	6272.64
387.11	6684.57
387.31	6927.99
387.50	6869.47
387.70	6473.92
387.89	6593.29
388.09	6502.01
388.28	6647.12
388.48	6736.06
388.67	7208.85
388.86	7819.73
389.06	8358.05
389.25	9022.77
389.45	8954.89
389.64	8884.67
389.84	8931.48
390.03	8613.17
390.22	8664.66
390.42	8929.14
390.61	9598.54
390.81	10214.10
391.00	10312.40
391.19	10520.71
391.39	9816.21
391.58	9437.04
391.78	8910.42
391.97	8702.11
392.16	7864.20
392.36	7396.09
392.55	6045.60
392.75	4793.42
392.94	3754.22
393.13	3782.31
393.33	4601.49
393.52	5614.95
393.71	6981.82
393.91	7901.65
394.10	8489.12
394.29	9336.40
394.49	10038.56
394.68	10881.15
394.88	11002.86
395.07	11548.20
395.26	11087.12
395.46	10991.16
395.65	10218.78
395.84	9071.92
396.04	7648.87
396.23	6282.00
396.42	5207.69
396.62	4968.96
396.81	5809.21
397.00	7339.92
397.19	9387.89
397.39	10927.96
397.58	12287.81
397.77	13158.49
397.97	13727.24
398.16	13493.19
398.35	14075.98
398.55	14726.65
398.74	15206.46
398.93	15452.22
399.12	15316.47
399.32	14871.76
399.51	14817.93
399.70	15955.43
399.90	15901.60
400.09	16121.61
400.28	15477.96
400.47	15960.11
400.67	16758.24
400.86	17273.15
401.05	17036.76
401.24	17420.61
401.44	17678.07
401.63	17617.21
401.82	17455.72
402.01	17504.87
402.21	18094.68
402.40	17947.23
402.59	17268.47
402.78	16620.14
402.97	16203.53
403.17	16615.46
403.36	17561.04
403.55	18281.92
403.74	18930.25
403.93	17809.14
404.13	16568.65
404.32	16147.36
404.51	16615.46
404.70	18384.91
404.89	18293.63
405.09	18125.11
405.28	17439.33
405.47	17369.12
405.66	17425.29
405.85	17172.51
406.05	16311.19
406.24	17043.78
406.43	17116.34
406.62	18225.75
406.81	18267.88
407.00	17511.89
407.20	17083.57
407.39	17324.65
407.58	17832.54
407.77	18792.16
407.96	19524.75
408.15	19662.84
408.34	19674.54
408.54	20566.29
408.73	20697.36
408.92	20276.06
409.11	19747.10
409.30	18850.67
409.49	17542.32
409.68	16594.40
409.87	15981.18
410.07	17308.26
410.26	18125.11
410.45	19716.67
410.64	20126.27
410.83	20594.37
411.02	21317.60
411.21	21961.25
411.40	21839.54
411.59	21982.31
411.78	21411.22
411.98	21441.65
412.17	21886.35
412.36	21036.74
412.55	21476.76
412.74	21226.32
412.93	20840.13
413.12	20301.81
413.31	22874.06
413.50	23012.15
413.69	23384.29
413.88	22302.96
414.07	21626.55
414.26	21963.59
414.45	22567.45
414.64	23021.51
414.83	22934.91
415.02	22717.24
415.22	22494.89
415.41	22815.54
415.60	23733.03
415.79	24748.82
415.98	25127.99
416.17	25184.16
416.36	25010.96
416.55	24493.71
416.74	23421.74
416.93	22478.50
417.12	23201.73
417.31	22963.00
417.50	23328.12
417.69	24285.40
417.88	24140.29
418.07	23971.77
418.26	23527.06
418.45	23819.63
418.64	24341.57
418.83	25455.67
419.02	25029.69
419.21	25233.32
419.39	23576.22
419.58	22637.66
419.77	22977.04
419.96	23784.52
420.15	24971.18
420.34	25970.58
420.53	26670.40
420.72	26728.92
420.91	27026.17
421.10	26874.03
421.29	26120.38
421.48	25790.36
421.67	26794.45
421.86	26258.47
422.05	24493.71
422.24	21745.92
422.43	21465.05
422.61	23611.32
422.80	25961.22
422.99	25837.17
423.18	24893.94
423.37	24393.06
423.56	24484.34
423.75	24783.93
423.94	25137.35
424.13	23826.65
424.32	24175.39
424.50	24577.97
424.69	23777.50
424.88	24009.22
425.07	23798.57
425.26	23861.76
425.45	23826.65
425.64	23311.74
425.83	23068.32
426.01	24671.59
426.20	25240.34
426.39	25324.60
426.58	23440.47
426.77	21490.80
426.96	20872.90
427.15	21439.31
427.33	23363.23
427.52	24407.11
427.71	24538.18
427.90	23974.11
428.09	23880.49
428.28	23241.52
428.46	22754.69
428.65	22052.53
428.84	23096.41
429.03	23199.39
429.22	22082.95
429.40	21137.38
429.59	19040.26
429.78	16739.51
429.97	16769.94
430.16	16755.90
430.34	16957.18
430.53	17067.19
430.72	17387.84
430.91	19220.48
431.10	22583.83
431.28	26349.75
431.47	29233.29
431.66	29476.71
431.85	26513.59
432.03	24767.55
432.22	23534.09
432.41	24194.12
432.60	26829.56
432.79	28130.90
432.97	28662.20
433.16	28222.18
433.35	26066.55
433.54	22913.84
433.72	21862.94
433.91	21921.46
434.10	24290.08
434.28	26845.94
434.47	28535.81
434.66	27573.85
434.85	26885.73
435.03	26941.91
435.22	27468.53
435.41	29134.99
435.59	29144.35
435.78	29226.27
435.97	30384.83
436.16	30602.50
436.34	30089.93
436.53	29483.73
436.72	29413.51
436.90	27950.68
437.09	27814.93
437.28	27517.68
437.46	28423.47
437.65	28423.47
437.84	26494.86
438.02	24240.93
438.21	23655.79
438.40	25598.44
438.58	27800.88
438.77	28247.93
438.96	28638.80
439.14	29993.97
439.33	30171.85
439.52	31026.14
439.70	30368.45
439.89	29338.62
440.08	28659.86
440.26	28606.03
440.45	29633.52
440.63	31545.74
440.82	33095.18
441.01	33326.89
441.19	32711.33
441.38	32954.74
441.57	34391.83
441.75	34745.25
441.94	34546.31
442.12	34405.88
442.31	35140.80
442.50	35014.41
442.68	34771.00
442.87	34497.16
443.05	34286.51
443.24	34260.76
443.43	35136.12
443.61	35854.67
443.80	36264.26
443.98	34377.79
444.17	34249.06
444.35	36226.81
444.54	36573.21
444.73	36414.05
444.91	34871.64
445.10	33549.24
445.28	31981.08
445.47	31852.35
445.65	31517.65
445.84	32891.55
446.02	33809.04
446.21	34443.32
446.39	34696.10
446.58	34607.16
446.77	35384.22
446.95	35386.56
447.14	36882.16
447.32	37413.46
447.51	36671.51
447.69	35154.85
447.88	34543.97
448.06	35096.33
448.25	36034.89
448.43	36364.90
448.62	35196.98
448.80	35068.25
448.99	35676.79
449.17	35676.79
449.36	35627.63
449.54	37060.04
449.73	37935.40
449.91	38120.31
450.10	39519.95
450.28	39473.13
450.46	39271.85
450.65	39683.78
450.83	39187.59
451.02	38293.50
451.20	38373.08
451.39	38178.82
451.57	37806.67
451.76	37993.92
451.94	37684.97
452.13	37521.13
452.31	35508.27
452.49	34045.43
452.68	34277.15
452.86	34190.55
453.05	34916.11
453.23	35735.30
453.42	36119.15
453.60	37570.28
453.78	37794.97
453.97	37315.16
454.15	37642.84
454.34	36783.86
454.52	37200.47
454.70	35997.44
454.89	36566.19
455.07	36472.57
455.26	37282.39
455.44	38459.68
455.62	38988.64
455.81	39049.50
455.99	39325.68
456.17	38621.18
456.36	38677.35
456.54	39824.22
456.73	39669.74
456.91	40299.34
457.09	40275.94
457.28	41684.94
457.46	39810.17
457.64	39157.16
457.83	38349.68
458.01	37736.46
458.19	38569.69
458.38	39278.87
458.56	39929.54
458.74	39679.10
458.93	38892.68
459.11	39332.70
459.29	38602.46
459.48	39122.05
459.66	38799.06
459.84	39288.23
460.03	39725.91
460.21	39608.89
460.39	40650.42
460.57	40617.66
460.76	41111.51
460.94	41148.96
461.12	40699.58
461.31	40753.41
461.49	40481.91
461.67	40657.45
461.85	41769.20
462.04	41268.33
462.22	42057.09
462.40	41652.17
462.59	41319.82
462.77	41434.50
462.95	42115.60
463.13	41291.73
463.32	40797.88
463.50	40648.08
463.68	40650.42
463.86	40921.93
464.05	40308.71
464.23	39068.22
464.41	39110.35
464.59	38422.23
464.78	40205.72
464.96	40287.64
465.14	39676.76
465.32	40739.36
465.50	41977.51
465.69	42218.58
465.87	41261.30
466.05	40498.29
466.23	38700.76
466.41	37361.97
466.60	38752.25
466.78	38787.36
466.96	39171.21
467.14	39620.59
467.32	40868.09
467.51	40711.28
467.69	39124.40
467.87	39578.46
468.05	40533.40
468.23	40456.16
468.41	40683.19
468.60	40336.79
468.78	40659.79
468.96	40121.46
469.14	40760.43
469.32	41179.39
469.50	39449.73
469.69	39955.29
469.87	39526.97
470.05	38817.78
470.23	39473.13
470.41	39459.09
470.59	40137.85
470.77	39934.22
470.95	40828.30
471.14	41460.25
471.32	40945.33
471.50	43463.75
471.68	43770.36
471.86	43608.86
472.04	44067.61
472.22	44137.82
472.40	41801.97
472.58	41755.16
472.77	41457.91
472.95	42499.45
473.13	43276.51
473.31	42178.79
473.49	42075.81
473.67	43150.12
473.85	43590.14
474.03	44521.67
474.21	44245.49
474.39	45057.65
474.57	45600.66
474.75	45294.05
474.93	44926.58
475.12	43840.57
475.30	44030.16
475.48	43978.67
475.66	44825.94
475.84	44374.22
476.02	43906.11
476.20	43140.75
476.38	44182.29
476.56	45256.60
476.74	45420.44
476.92	45928.33
477.10	46796.67
477.28	47716.50
477.46	47562.03
477.64	48371.85
477.82	48051.20
478.00	48212.70
478.18	47793.74
478.36	47639.26
478.54	47728.20
478.72	48081.63
478.90	48783.79
479.08	50017.25
479.26	50061.72
479.44	50085.12
479.62	49853.41
479.80	49893.20
479.98	50248.96
480.16	50614.08
480.34	50064.06
480.52	50351.94
480.70	50639.83
480.88	50658.56
481.06	51260.07
481.24	51547.96
481.41	52430.34
481.59	52793.12
481.77	52451.41
481.95	51763.29
482.13	51910.74
482.31	51660.30
482.49	52552.05
482.67	52423.32
482.85	52502.90
483.03	53118.46
483.21	53581.88
483.39	53450.81
483.57	52671.42
483.74	52355.44
483.92	52814.19
484.10	52868.02
484.28	53588.91
484.46	54024.25
484.64	54089.78
484.82	53563.16
485.00	53130.16
485.18	52783.76
485.35	51793.71
485.53	48732.29
485.71	45390.01
485.89	44748.70
486.07	46674.96
486.25	49647.44
486.43	51835.84
486.61	52629.29
486.78	52142.45
486.96	52336.72
487.14	53771.47
487.32	54747.47
487.50	54890.24
487.68	55693.05
487.85	56442.02
488.03	56416.27
488.21	55842.84
488.39	55473.04
488.57	54969.82
488.75	54553.21
488.92	55353.67
489.10	57333.76
489.28	58216.14
489.46	58927.67
489.64	58681.91
489.81	58670.21
489.99	58447.86
490.17	58637.44
490.35	59028.31
490.53	58492.33
490.70	58176.36
490.88	57998.48
491.06	58890.22
491.24	58915.96
491.41	58213.80
491.59	57027.15
491.77	56097.96
491.95	56898.42
492.13	57883.79
492.30	58920.65
492.48	59646.21
492.66	60140.07
492.84	60088.57
493.01	59880.27
493.19	59519.82
493.37	59440.24
493.54	58852.77
493.72	59505.78
493.90	60250.07
494.08	60942.87
494.25	61261.18
494.43	61254.16
494.61	61691.84
494.79	61584.18
494.96	61659.07
495.14	61052.87
495.32	60243.05
495.49	59810.05
495.67	60535.62
495.85	61630.99
496.02	62293.36
496.20	61939.94
496.38	61616.94
496.55	61516.30
496.73	61935.26
496.91	61818.23
497.09	62541.45
497.26	62646.78
497.44	62047.60
497.62	61858.02
497.79	61176.92
497.97	60193.90
498.14	60023.04
498.32	61146.50
498.50	61853.34
498.67	62581.24
498.85	62372.94
499.03	62401.02
499.20	62522.73
499.38	62731.04
499.56	62494.64
499.73	62108.46
499.91	61605.24
500.08	61443.74
500.26	60683.07
500.44	61104.37
500.61	61778.44
500.79	61523.32
500.97	61233.10
501.14	60924.14
501.32	60945.21
501.49	60959.25
501.67	61268.20
501.84	61464.81
502.02	61904.83
502.20	62089.73
502.37	62181.01
502.55	62291.02
502.72	62663.16
502.90	63250.64
503.07	62981.48
503.25	62576.56
503.43	61895.47
503.60	61436.72
503.78	60603.49
503.95	61195.65
504.13	62246.55
504.30	62976.79
504.48	62796.57
504.65	62595.29
504.83	62714.65
505.01	62986.16
505.18	63442.56
505.36	63898.97
505.53	63959.82
505.71	64065.14
505.88	64315.58
506.06	63646.19
506.23	63543.20
506.41	63037.65
506.58	63203.83
506.76	63238.93
506.93	63536.18
507.11	63009.56
507.28	63194.46
507.46	62742.74
507.63	62316.76
507.81	62045.26
507.98	62316.76
508.16	62885.51
508.33	63236.59
508.50	63655.55
508.68	63819.39
508.85	64430.27
509.03	64126.00
509.20	64175.15
509.38	63718.74
509.55	62864.45
509.73	62866.79
509.90	63461.29
510.08	63646.19
510.25	63702.36
510.42	63421.50
510.60	63187.44
510.77	63667.25
510.95	64168.13
511.12	64196.21
511.30	64617.51
511.47	64699.43
511.64	64615.17
511.82	64434.95
511.99	63669.59
512.17	63311.49
512.34	62962.75
512.51	63213.19
512.69	63161.70
512.86	63295.11
513.04	63765.56
513.21	63695.34
513.38	63505.76
513.56	63028.29
513.73	62541.45
513.90	62595.29
514.08	62621.03
514.25	62946.37
514.43	63110.20
514.60	63142.97
514.77	63238.93
514.95	63538.52
515.12	63428.52
515.29	63629.80
515.47	63987.91
515.64	64203.24
515.81	63973.86
515.99	63370.00
516.16	62251.23
516.33	60336.67
516.51	58941.71
516.68	58265.30
516.85	58003.16
517.03	58206.78
517.20	60390.50
517.37	62688.91
517.54	63575.97
517.72	63082.12
517.89	60996.70
518.06	58920.65
518.24	59089.16
518.41	61298.63
518.58	62279.31
518.75	62527.41
518.93	62482.94
519.10	62548.48
519.27	62988.50
519.45	62883.17
519.62	63786.62
519.79	64102.59
519.96	63915.35
520.14	63632.14
520.31	62745.08
520.48	62658.48
520.65	62915.94
520.83	63800.66
521.00	64154.08
521.17	63962.16
521.34	63454.26
521.52	63861.52
521.69	64175.15
521.86	64601.13
522.03	64388.14
522.20	63241.28
522.38	62370.60
522.55	62248.89
522.72	63007.22
522.89	63086.80
523.07	63231.91
523.24	63503.42
523.41	64257.07
523.58	64608.15
523.75	65003.70
523.92	64921.78
524.10	64755.60
524.27	64755.60
524.44	64573.04
524.61	64453.67
524.78	64243.02
524.96	64170.47
525.13	64299.20
525.30	64392.82
525.47	64814.12
525.64	64849.22
525.81	63978.54
525.98	62794.23
526.16	61642.69
526.33	60989.68
526.50	60954.57
526.67	60261.77
526.84	60982.66
527.01	61815.89
527.18	62681.89
527.36	63337.24
527.53	64170.47
527.70	64334.31
527.87	63955.14
528.04	63456.60
528.21	63702.36
528.38	64530.91
528.55	64968.59
528.72	65272.86
528.89	65387.55
529.07	65085.62
529.24	64666.66
529.41	63964.50
529.58	63344.26
529.75	63508.10
529.92	63922.37
530.09	64336.65
530.26	64673.68
530.43	65020.08
530.60	65092.64
530.77	65090.30
530.94	65350.10
531.11	64940.50
531.28	64526.23
531.46	64451.33
531.63	64559.00
531.80	64268.77
531.97	64076.85
532.14	63187.44
532.31	62391.66
532.48	61834.61
532.65	61879.08
532.82	62712.31
532.99	63683.64
533.16	63908.33
533.33	64481.76
533.50	64346.01
533.67	63831.09
533.84	63430.86
534.01	63681.30
534.18	63669.59
534.35	64034.72
534.52	63751.51
534.69	64135.36
534.86	64126.00
535.03	64533.25
535.20	64982.63
535.37	65277.54
535.54	65368.82
535.71	64942.84
535.88	64685.39
536.05	63978.54
536.22	63681.30
536.38	63575.97
536.55	63147.65
536.72	62569.54
536.89	62543.80
537.06	63423.84
537.23	64121.32
537.40	64266.43
537.57	64324.94
537.74	64044.08
537.91	64011.31
538.08	63969.18
538.25	64011.31
538.42	64205.58
538.59	63922.37
538.75	63568.95
538.92	63323.19
539.09	63215.53
539.26	62981.48
539.43	62848.06
539.60	62911.26
539.77	63105.52
539.94	62834.02
540.11	62363.57
540.28	61787.80
540.44	61755.03
540.61	62089.73
540.78	62319.10
540.95	62609.33
541.12	62927.64
541.29	63201.49
541.46	63597.04
541.62	63477.67
541.79	63360.64
541.96	63047.01
542.13	62974.45
542.30	63119.57
542.47	63402.77
542.63	63037.65
542.80	63000.20
542.97	63058.71
543.14	62841.04
543.31	63023.61
543.48	63472.99
543.64	64182.17
543.81	64360.05
543.98	64065.14
544.15	63428.52
544.32	62972.11
544.48	63309.15
544.65	63627.46
544.82	63765.56
544.99	63636.83
545.16	63339.58
545.32	62738.06
545.49	63664.91
545.66	63992.59
545.83	63721.08
546.00	63416.82
546.16	63091.48
546.33	63210.85
546.50	63215.53
546.67	63641.51
546.83	63271.70
547.00	63334.90
547.17	62604.65
547.34	62188.03
547.50	61986.75
547.67	62585.92
547.84	62555.50
548.00	62859.77
548.17	63288.09
548.34	63215.53
548.51	63215.53
548.67	63086.80
548.84	63187.44
549.01	63135.95
549.18	63178.08
549.34	63135.95
549.51	63103.18
549.68	63138.29
549.84	62817.64
550.01	62883.17
550.18	62681.89
550.34	62724.02
550.51	62829.34
550.68	62763.81
550.84	62408.04
551.01	62471.24
551.18	62295.70
551.34	62625.71
551.51	63030.63
551.68	63229.57
551.84	63215.53
552.01	63236.59
552.18	63103.18
552.34	62227.82
552.51	61762.06
552.68	61872.06
552.84	62225.48
553.01	62543.80
553.18	62347.19
553.34	62330.81
553.51	62606.99
553.67	62918.28
553.84	63164.04
554.01	62768.49
554.17	62709.97
554.34	62700.61
554.51	62824.66
554.67	63164.04
554.84	63068.08
555.00	62728.70
555.17	62347.19
555.33	62522.73
555.50	62583.58
555.67	62489.96
555.83	62356.55
556.00	62014.83
556.16	61984.41
556.33	61759.72
556.50	61698.86
556.66	61647.37
556.83	61539.71
556.99	61488.21
557.16	61635.67
557.32	61722.27
557.49	62227.82
557.65	62021.86
557.82	62007.81
557.98	61923.55
558.15	61439.06
558.32	60874.99
558.48	60041.76
558.65	60250.07
558.81	60528.59
558.98	60851.59
559.14	61109.05
559.31	61160.54
559.47	60938.19
559.64	60727.54
559.80	60491.15
559.97	60495.83
560.13	60835.20
560.30	61684.82
560.46	62284.00
560.63	62356.55
560.79	62356.55
560.96	61883.76
561.12	61071.60
561.29	60083.89
561.45	60247.73
561.61	60917.12
561.78	61172.24
561.94	61153.52
562.11	60975.64
562.27	60741.58
562.44	61095.00
562.60	61418.00
562.77	61513.96
562.93	61434.38
563.10	61481.19
563.26	60912.44
563.42	60867.97
563.59	60760.31
563.75	60818.82
563.92	60814.14
564.08	60739.24
564.24	60982.66
564.41	61031.81
564.57	61055.21
564.74	60905.42
564.90	60704.13
565.07	60542.64
565.23	60371.78
565.39	59898.99
565.56	59660.26
565.72	59304.49
565.88	59868.56
566.05	59681.32
566.21	60121.34
566.38	60198.58
566.54	60144.75
566.70	60570.72
566.87	60694.77
567.03	60690.09
567.19	61116.07
567.36	60732.22
567.52	60540.30
567.68	60479.44
567.85	59695.36
568.01	59737.49
568.17	59166.40
568.34	59173.42
568.50	59213.21
568.66	59482.37
568.83	59618.13
568.99	59758.56
569.15	59964.52
569.32	59901.33
569.48	59669.62
569.64	59611.10
569.81	59241.30
569.97	59161.72
570.13	59224.92
570.30	58759.15
570.46	58522.76
570.62	58110.82
570.78	57925.92
570.95	57883.79
571.11	58623.40
571.27	58824.68
571.43	58878.52
571.60	59393.43
571.76	59360.67
571.92	59643.87
572.09	59812.39
572.25	59856.86
572.41	59606.42
572.57	59428.54
572.74	59400.46
572.90	59107.89
573.06	59220.23
573.22	59334.92
573.38	59208.53
573.55	59313.86
573.71	59253.00
573.87	59304.49
574.03	59217.89
574.20	59042.35
574.36	58644.46
574.52	58714.68
574.68	58667.87
574.84	58326.15
575.01	57998.48
575.17	57663.78
575.33	58099.12
575.49	58644.46
575.65	58454.88
575.82	58307.43
575.98	58166.99
576.14	58443.18
576.30	58415.09
576.46	58728.72
576.62	58279.34
576.79	58429.13
576.95	58337.85
577.11	58232.53
577.27	58185.72
577.43	58237.21
577.59	57822.93
577.75	57715.27
577.92	57055.24
578.08	57141.84
578.24	56987.36
578.40	57368.87
578.56	57319.72
578.72	57675.48
578.88	57645.05
579.04	57642.71
579.21	58047.63
579.37	57829.96
579.53	58052.31
579.69	57876.77
579.85	58136.57
580.01	57846.34
580.17	57684.84
580.33	57474.20
580.49	57733.99
580.65	57769.10
580.82	57977.41
580.98	57989.11
581.14	57642.71
581.30	58113.16
581.46	57743.36
581.62	57998.48
581.78	57930.60
581.94	58274.66
582.10	57839.32
582.26	58246.57
582.42	58003.16
582.58	58251.25
582.74	58094.44
582.90	58176.36
583.06	57991.45
583.22	57836.98
583.38	57925.92
583.54	57783.15
583.70	57682.50
583.86	57848.68
584.02	57645.05
584.18	57925.92
584.34	57581.86
584.50	57579.52
584.66	57815.91
584.82	57176.95
584.98	57237.80
585.14	56788.42
