SpectraSuite Data File
++++++++++++++++++++++++++++++++++++
Date: Mon Oct 07 14:53:54 GMT-05:00 2013
User: price-jones
Dark Spectrum Present: No
Reference Spectrum Present: No
Number of Sampled Component Spectra: 1
Spectrometers: USB2+H05261
Integration Time (usec): 100000 (USB2+H05261)
Spectra Averaged: 1 (USB2+H05261)
Boxcar Smoothing: 0 (USB2+H05261)
Correct for Electrical Dark: No (USB2+H05261)
Strobe/Lamp Enabled: No (USB2+H05261)
Correct for Detector Non-linearity: No (USB2+H05261)
Correct for Stray Light: No (USB2+H05261)
Number of Pixels in Processed Spectrum: 2048
>>>>>Begin Processed Spectral Data<<<<<
365.73	0.00
365.92	0.00
366.12	0.00
366.32	0.00
366.52	0.00
366.72	0.00
366.91	0.00
367.11	0.00
367.31	0.00
367.51	0.00
367.70	0.00
367.90	0.00
368.10	0.00
368.30	0.00
368.49	0.00
368.69	0.00
368.89	0.00
369.09	0.00
369.28	0.00
369.48	0.00
369.68	0.00
369.87	0.00
370.07	0.00
370.27	0.00
370.47	482.15
370.66	2956.10
370.86	3552.93
371.06	3887.63
371.25	3983.59
371.45	3644.21
371.65	3155.04
371.84	3014.61
372.04	3119.93
372.24	3559.95
372.44	3798.69
372.63	3595.06
372.83	3370.37
373.03	2895.24
373.22	2717.36
373.42	2787.58
373.62	3344.63
373.81	3522.51
374.01	3552.93
374.21	3236.96
374.40	2960.78
374.60	3197.17
374.79	3524.85
374.99	4058.49
375.19	4484.47
375.38	4561.70
375.58	4182.54
375.78	4175.52
375.97	4175.52
376.17	4280.84
376.37	4283.18
376.56	4585.11
376.76	4835.55
376.95	5111.73
377.15	5296.63
377.35	5495.58
377.54	5701.54
377.74	5900.49
377.93	6001.13
378.13	5785.80
378.33	5753.04
378.52	5102.37
378.72	4894.06
378.91	4882.36
379.11	4608.51
379.31	4716.18
379.50	4519.57
379.70	4816.82
379.89	5479.19
380.09	5720.27
380.28	5888.79
380.48	5762.40
380.68	5738.99
380.87	5549.41
381.07	5266.21
381.26	4779.37
381.46	4683.41
381.65	4276.16
381.85	4163.81
382.04	3969.55
382.24	3728.47
382.43	3637.19
382.63	3478.04
382.83	3379.73
383.02	3585.70
383.22	3440.59
383.41	3524.85
383.61	3798.69
383.80	4315.95
384.00	5071.94
384.19	5628.99
384.39	5839.64
384.58	6155.61
384.78	5741.33
384.97	5652.39
385.17	5404.30
385.36	5123.43
385.56	4816.82
385.75	4917.47
385.95	5401.96
386.14	5865.38
386.34	5930.92
386.53	5839.64
386.72	5327.06
386.92	5376.21
387.11	5626.65
387.31	5872.40
387.50	6015.18
387.70	5802.19
387.89	5551.75
388.09	5680.48
388.28	5626.65
388.48	5802.19
388.67	6141.57
388.86	6764.15
389.06	7225.23
389.25	7747.17
389.45	7712.07
389.64	7552.91
389.84	7351.62
390.03	7412.48
390.22	7595.04
390.42	7709.72
390.61	8093.57
390.81	8856.59
391.00	8767.65
391.19	8929.14
391.39	8521.89
391.58	8074.85
391.78	7716.75
391.97	7201.83
392.16	6932.67
392.36	6197.74
392.55	4994.70
392.75	3992.95
392.94	3129.30
393.13	3361.01
393.33	3702.73
393.52	4929.17
393.71	5968.37
393.91	6736.06
394.10	7281.41
394.29	7948.46
394.49	8734.88
394.68	9273.20
394.88	9460.45
395.07	9781.10
395.26	9518.96
395.46	9394.91
395.65	8868.29
395.84	7658.23
396.04	6471.58
396.23	5284.93
396.42	4514.89
396.62	4236.37
396.81	4786.40
397.00	6267.95
397.19	7864.20
397.39	9423.00
397.58	10534.75
397.77	11435.86
397.97	11831.41
398.16	11698.00
398.35	12163.76
398.55	12564.00
398.74	13383.18
398.93	13434.68
399.12	13067.21
399.32	12334.62
399.51	12968.91
399.70	13914.48
399.90	13558.72
400.09	13757.67
400.28	13511.91
400.47	13640.64
400.67	14389.61
400.86	14710.27
401.05	14618.99
401.24	14841.34
401.44	15059.01
401.63	14930.28
401.82	15241.57
402.01	15169.01
402.21	15232.21
402.40	15630.10
402.59	14939.64
402.78	14008.11
402.97	13743.63
403.17	14448.13
403.36	15159.65
403.55	15538.82
403.74	16051.39
403.93	14944.32
404.13	14012.79
404.32	13706.18
404.51	14562.81
404.70	15674.57
404.89	15433.49
405.09	15133.90
405.28	14597.92
405.47	14920.92
405.66	14759.42
405.85	14305.35
406.05	14015.13
406.24	14012.79
406.43	14998.15
406.62	15456.90
406.81	15496.69
407.00	14831.97
407.20	14431.74
407.39	14698.56
407.58	15508.39
407.77	15775.21
407.96	16655.25
408.15	16772.28
408.34	16889.31
408.54	17554.02
408.73	17645.30
408.92	17422.95
409.11	16929.09
409.30	16262.04
409.49	15044.96
409.68	14188.33
409.87	13830.23
410.07	14668.14
410.26	15447.54
410.45	16765.26
410.64	17429.97
410.83	17593.81
411.02	17975.31
411.21	18778.12
411.40	18508.96
411.59	18485.55
411.78	18228.09
411.98	18064.25
412.17	18565.13
412.36	18143.83
412.55	18195.32
412.74	17923.82
412.93	17378.48
413.12	17823.18
413.31	19227.50
413.50	19220.48
413.69	20002.22
413.88	19028.56
414.07	18693.86
414.26	18888.12
414.45	19159.63
414.64	19407.72
414.83	19676.88
415.02	19110.47
415.22	19468.58
415.41	19585.60
415.60	20093.50
415.79	21181.85
415.98	21357.39
416.17	21490.80
416.36	20664.59
416.55	20336.91
416.74	19861.79
416.93	19377.30
417.12	19494.32
417.31	19857.10
417.50	19803.27
417.69	20264.36
417.88	20393.09
418.07	20201.16
418.26	19580.92
418.45	20051.37
418.64	20861.19
418.83	21490.80
419.02	21310.58
419.21	20886.94
419.39	20226.91
419.58	19154.94
419.77	18991.11
419.96	19852.42
420.15	21116.31
420.34	21570.38
420.53	22551.06
420.72	23047.26
420.91	23040.23
421.10	22361.48
421.29	21994.01
421.48	21687.40
421.67	22885.76
421.86	21855.92
422.05	20563.95
422.24	18207.03
422.43	18073.62
422.61	19892.21
422.80	21926.14
422.99	21750.60
423.18	21013.33
423.37	20453.94
423.56	20648.21
423.75	20809.70
423.94	21523.57
424.13	20180.10
424.32	20486.71
424.50	20615.44
424.69	20346.28
424.88	20563.95
425.07	20147.33
425.26	20748.85
425.45	20173.08
425.64	19814.98
425.83	19407.72
426.01	20922.05
426.20	21490.80
426.39	21200.57
426.58	19777.53
426.77	18331.08
426.96	17603.17
427.15	18026.81
427.33	19639.44
427.52	20746.51
427.71	20374.36
427.90	20208.19
428.09	20332.23
428.28	19695.61
428.46	18883.44
428.65	18293.63
428.84	19194.73
429.03	19424.11
429.22	18370.86
429.40	17467.42
429.59	15695.63
429.78	14178.97
429.97	14288.97
430.16	14352.16
430.34	14406.00
430.53	14129.81
430.72	14817.93
430.91	16095.86
431.10	19133.88
431.28	22134.45
431.47	24144.97
431.66	24355.61
431.85	22125.08
432.03	20482.03
432.22	19613.69
432.41	20093.50
432.60	22857.67
432.79	23538.77
432.97	24086.45
433.16	23637.07
433.35	21572.72
433.54	19288.35
433.72	18054.89
433.91	18462.15
434.10	20793.32
434.28	22546.38
434.47	23440.47
434.66	23337.48
434.85	22661.07
435.03	22632.98
435.22	23007.47
435.41	24493.71
435.59	24346.25
435.78	24709.04
435.97	25544.61
436.16	25659.29
436.34	25331.62
436.53	24545.20
436.72	24755.85
436.90	23201.73
437.09	23248.54
437.28	22492.55
437.46	23927.30
437.65	23580.90
437.84	22216.36
438.02	20276.06
438.21	20166.06
438.40	21312.92
438.58	23009.81
438.77	24032.62
438.96	24208.16
439.14	25125.65
439.33	25350.34
439.52	25839.51
439.70	25443.96
439.89	24526.47
440.08	24102.84
440.26	23756.44
440.45	24830.74
440.63	26536.99
440.82	27644.07
441.01	27482.57
441.19	27222.77
441.38	27768.12
441.57	28517.09
441.75	28961.79
441.94	29186.48
442.12	28882.21
442.31	29514.16
442.50	29811.40
442.68	29092.86
442.87	28360.27
443.05	28088.77
443.24	28503.04
443.43	29198.18
443.61	29867.58
443.80	30115.67
443.98	28793.27
444.17	28599.01
444.35	30206.95
444.54	30235.04
444.73	30185.89
444.91	29181.80
445.10	27597.26
445.28	26696.15
445.47	26389.54
445.65	26562.74
445.84	27410.01
446.02	28362.61
446.21	28425.81
446.39	28847.10
446.58	29352.66
446.77	29591.39
446.95	29724.80
447.14	30323.98
447.32	30836.56
447.51	30401.22
447.69	29130.31
447.88	28889.23
448.06	28865.83
448.25	29853.53
448.43	30110.99
448.62	29436.92
448.80	29469.69
448.99	29343.30
449.17	29809.06
449.36	29771.61
449.54	30958.27
449.73	31255.51
449.91	31704.90
450.10	32479.61
450.28	33242.63
450.46	32760.48
450.65	32247.90
450.83	32811.97
451.02	32074.70
451.20	31665.11
451.39	31573.83
451.57	31220.41
451.76	31599.57
451.94	31608.93
452.13	30871.67
452.31	29427.56
452.49	28140.26
452.68	28432.83
452.86	28196.43
453.05	28664.54
453.23	29881.62
453.42	30419.94
453.60	30892.73
453.78	31285.94
453.97	30857.62
454.15	31042.53
454.34	30237.38
454.52	30553.35
454.70	29876.94
454.89	30057.16
455.07	30190.57
455.26	30834.22
455.44	31791.50
455.62	32264.28
455.81	32376.63
455.99	32411.74
456.17	32608.34
456.36	32170.66
456.54	33149.01
456.73	32835.38
456.91	33394.76
457.09	33858.19
457.28	33947.13
457.46	32849.42
457.64	32741.75
457.83	31274.24
458.01	30831.88
458.19	31445.10
458.38	32065.34
458.56	33010.92
458.74	33244.97
458.93	32561.53
459.11	32119.17
459.29	31711.92
459.48	32231.52
459.66	32128.53
459.84	32526.42
460.03	32966.45
460.21	32641.11
460.39	33369.02
460.57	33446.26
460.76	33820.74
460.94	33998.62
461.12	33563.28
461.31	33668.61
461.49	33413.49
461.67	33694.35
461.85	34546.31
462.04	34312.25
462.22	35054.20
462.40	34525.24
462.59	34202.25
462.77	34417.58
462.95	34082.88
463.13	34007.98
463.32	33752.87
463.50	33399.44
463.68	33158.37
463.86	33521.15
464.05	33200.50
464.23	32236.20
464.41	32568.55
464.59	31828.95
464.78	32926.66
464.96	33027.30
465.14	32914.95
465.32	33778.61
465.50	34560.35
465.69	34574.39
465.87	34019.69
466.05	33268.37
466.23	32283.01
466.41	30745.28
466.60	31637.02
466.78	31896.82
466.96	32453.87
467.14	32811.97
467.32	33652.22
467.51	33401.79
467.69	32194.07
467.87	32802.61
468.05	32872.82
468.23	33057.73
468.41	33106.88
468.60	33490.73
468.78	34082.88
468.96	33064.75
469.14	33837.12
469.32	33928.41
469.50	32229.18
469.69	32643.45
469.87	31985.76
470.05	32173.00
470.23	32203.43
470.41	32591.96
470.59	32643.45
470.77	32821.33
470.95	33532.86
471.14	33865.21
471.32	33717.76
471.50	35627.63
471.68	35620.61
471.86	35646.36
472.04	36062.97
472.22	36575.55
472.40	34595.46
472.58	34398.85
472.77	34099.26
472.95	34866.96
473.13	35559.76
473.31	34855.26
473.49	34981.65
473.67	35505.93
473.85	35889.77
474.03	36828.33
474.21	36800.24
474.39	36741.73
474.57	37123.24
474.75	37577.30
474.93	36898.55
475.12	36156.60
475.30	36388.31
475.48	36107.44
475.66	36734.71
475.84	36336.82
476.02	36137.87
476.20	35686.15
476.38	36231.49
476.56	37191.11
476.74	37607.73
476.92	38143.71
477.10	38225.63
477.28	39246.10
477.46	39608.89
477.64	40098.06
477.82	40481.91
478.00	39791.45
478.18	39889.75
478.36	39655.70
478.54	39426.32
478.72	40189.34
478.90	40687.87
479.08	42010.28
479.26	42349.65
479.44	42394.12
479.62	42110.92
479.80	42139.00
479.98	42251.35
480.16	42562.64
480.34	42202.20
480.52	42117.94
480.70	42373.06
480.88	42553.28
481.06	43285.87
481.24	43550.35
481.41	44603.59
481.59	45230.85
481.77	44683.17
481.95	44041.86
482.13	44158.89
482.31	44086.33
482.49	45146.59
482.67	44306.34
482.85	44907.86
483.03	45497.67
483.21	45729.39
483.39	45799.60
483.57	44917.22
483.74	44737.00
483.92	44809.56
484.10	45631.08
484.28	46349.63
484.46	46494.74
484.64	47199.24
484.82	46298.14
485.00	45354.90
485.18	44545.08
485.35	43842.92
485.53	40374.24
485.71	36673.85
485.89	35889.77
486.07	38380.10
486.25	41848.78
486.43	44102.71
486.61	45132.55
486.78	44568.48
486.96	44514.65
487.14	46389.42
487.32	47119.66
487.50	48507.60
487.68	49319.77
487.85	49621.70
488.03	49691.91
488.21	49146.57
488.39	48619.95
488.57	47917.79
488.75	47543.30
488.92	48727.61
489.10	51033.04
489.28	51945.85
489.46	52949.94
489.64	52804.83
489.81	53183.99
489.99	52619.92
490.17	52619.92
490.35	52999.09
490.53	52486.51
490.70	52243.10
490.88	51922.44
491.06	52975.69
491.24	52896.11
491.41	51714.14
491.59	50227.90
491.77	49366.58
491.95	50499.40
492.13	51688.39
492.30	52870.36
492.48	54155.32
492.66	54569.59
492.84	54417.46
493.01	53998.50
493.19	53389.96
493.37	53408.68
493.54	52978.03
493.72	53574.86
493.90	54501.71
494.08	55271.75
494.25	55718.79
494.43	55943.48
494.61	56222.01
494.79	56320.31
494.96	56123.71
495.14	55451.97
495.32	54475.97
495.49	53860.41
495.67	54761.51
495.85	56205.62
496.02	56655.01
496.20	56769.69
496.38	56144.77
496.55	55931.78
496.73	56341.38
496.91	56537.98
497.09	57034.17
497.26	57326.74
497.44	56725.22
497.62	56254.78
497.79	55613.47
497.97	54312.13
498.14	54277.02
498.32	55451.97
498.50	56229.03
498.67	56994.39
498.85	56781.40
499.03	56914.81
499.20	57162.90
499.38	57333.76
499.56	57020.13
499.73	56720.54
499.91	56088.60
500.08	55826.46
500.26	54990.89
500.44	55290.48
500.61	56114.34
500.79	56165.84
500.97	55463.67
501.14	55573.68
501.32	55187.49
501.49	55290.48
501.67	55386.44
501.84	56048.81
502.02	56451.38
502.20	56821.19
502.37	56680.75
502.55	56802.46
502.72	57289.29
502.90	57701.23
503.07	57345.47
503.25	56973.32
503.43	56247.75
503.60	55449.63
503.78	54759.17
503.95	55164.09
504.13	56938.21
504.30	57427.38
504.48	57450.79
504.65	57083.33
504.83	57045.88
505.01	57675.48
505.18	57975.07
505.36	58693.61
505.53	58557.86
505.71	58983.84
505.88	58880.86
506.06	58113.16
506.23	57928.26
506.41	57626.33
506.58	57975.07
506.76	57762.08
506.93	57766.76
507.11	57338.44
507.28	57888.47
507.46	57102.05
507.63	56601.18
507.81	56399.89
507.98	56589.47
508.16	57361.85
508.33	57874.43
508.50	58415.09
508.68	58328.49
508.85	58843.41
509.03	58913.62
509.20	58794.26
509.38	58052.31
509.55	57453.13
509.73	57551.43
509.90	57986.77
510.08	58164.65
510.25	58138.91
510.42	57904.85
510.60	57872.09
510.77	58152.95
510.95	58543.82
511.12	58892.56
511.30	58775.53
511.47	59164.06
511.64	59196.83
511.82	58913.62
511.99	58141.25
512.17	57631.01
512.34	57336.10
512.51	57612.29
512.69	57684.84
512.86	57701.23
513.04	58309.77
513.21	58071.03
513.38	57888.47
513.56	57293.97
513.73	56839.91
513.90	57134.82
514.08	57031.83
514.25	57289.29
514.43	57560.79
514.60	57614.63
514.77	57881.45
514.95	57954.00
515.12	57822.93
515.29	58024.22
515.47	58419.77
515.64	58625.74
515.81	58438.50
515.99	57801.87
516.16	56184.56
516.33	53890.83
516.51	52435.02
516.68	51849.89
516.85	51519.87
517.03	51749.24
517.20	54485.33
517.37	56919.49
517.54	57820.59
517.72	57471.85
517.89	55018.97
518.06	52722.91
518.24	52774.40
518.41	55128.98
518.58	56329.67
518.75	56814.16
518.93	56863.32
519.10	56694.80
519.27	57123.11
519.45	57308.02
519.62	57839.32
519.79	58333.17
519.96	58183.38
520.14	57666.12
520.31	56942.89
520.48	56865.66
520.65	57406.32
520.83	58071.03
521.00	58595.31
521.17	57853.36
521.34	57724.63
521.52	58188.06
521.69	58590.63
521.86	59164.06
522.03	58878.52
522.20	57684.84
522.38	56484.15
522.55	56575.43
522.72	57237.80
522.89	57151.20
523.07	57588.88
523.24	57968.05
523.41	58775.53
523.58	58820.00
523.75	59323.22
523.92	59311.52
524.10	59044.69
524.27	59000.22
524.44	59271.73
524.61	58756.81
524.78	58763.83
524.96	58468.92
525.13	58752.13
525.30	58595.31
525.47	59210.87
525.64	59288.11
525.81	58305.09
525.98	57036.51
526.16	55473.04
526.33	54920.67
526.50	54646.83
526.67	54237.23
526.84	54859.82
527.01	55976.25
527.18	56594.15
527.36	57373.55
527.53	58234.87
527.70	58520.41
527.87	58106.14
528.04	57532.71
528.21	58078.05
528.38	58848.09
528.55	59304.49
528.72	59519.82
528.89	59615.79
529.07	59421.52
529.24	58740.42
529.41	58319.13
529.58	57471.85
529.75	57729.31
529.92	58138.91
530.09	58829.37
530.26	59260.02
530.43	59372.37
530.60	59344.28
530.77	59386.41
530.94	59559.61
531.11	59269.39
531.28	58672.55
531.46	58667.87
531.63	58717.02
531.80	58855.11
531.97	58232.53
532.14	57673.14
532.31	56282.86
532.48	55716.45
532.65	55695.39
532.82	56896.08
532.99	57748.04
533.16	58403.39
533.33	58866.81
533.50	58578.93
533.67	58024.22
533.84	57506.96
534.01	57813.57
534.18	57895.49
534.35	58211.46
534.52	58010.18
534.69	58038.26
534.86	58489.99
535.03	59044.69
535.20	59103.21
535.37	59451.95
535.54	59646.21
535.71	59334.92
535.88	58810.64
536.05	58337.85
536.22	58061.67
536.38	57605.26
536.55	57116.09
536.72	56561.39
536.89	56376.48
537.06	57499.94
537.23	58071.03
537.40	58447.86
537.57	58443.18
537.74	58120.18
537.91	58272.32
538.08	58054.65
538.25	58181.04
538.42	58255.93
538.59	58396.37
538.75	57633.35
538.92	57207.37
539.09	57214.40
539.26	56835.23
539.43	56868.00
539.60	56790.76
539.77	56985.02
539.94	56921.83
540.11	56100.30
540.28	55646.24
540.44	55786.67
540.61	55910.72
540.78	56055.83
540.95	56748.63
541.12	57059.92
541.29	57247.16
541.46	57616.97
541.62	57654.42
541.79	57357.17
541.96	56933.53
542.13	56907.79
542.30	56945.23
542.47	57268.23
542.63	56886.72
542.80	56919.49
542.97	56961.62
543.14	56694.80
543.31	57024.81
543.48	57516.32
543.64	58314.45
543.81	58342.53
543.98	58269.98
544.15	57532.71
544.32	56835.23
544.48	57146.52
544.65	57425.04
544.82	57832.30
544.99	57558.45
545.16	57120.77
545.32	56910.13
545.49	57748.04
545.66	57998.48
545.83	57567.82
546.00	57251.84
546.16	57092.69
546.33	57085.67
546.50	57069.28
546.67	57457.81
546.83	56992.04
547.00	57169.93
547.17	56378.82
547.34	55805.39
547.50	55861.57
547.67	56336.69
547.84	56584.79
548.00	56800.12
548.17	57368.87
548.34	57003.75
548.51	57125.46
548.67	57137.16
548.84	57153.54
549.01	56975.66
549.18	56800.12
549.34	57134.82
549.51	57134.82
549.68	56692.46
549.84	56444.36
550.01	56402.23
550.18	56470.11
550.34	56313.29
550.51	56554.36
550.68	56556.70
550.84	56156.47
551.01	56470.11
551.18	56140.09
551.34	56432.66
551.51	56708.84
551.68	57165.24
551.84	57073.96
552.01	56753.31
552.18	56647.99
552.34	55978.59
552.51	55625.17
552.68	55395.80
552.84	55819.44
553.01	56076.90
553.18	56329.67
553.34	56240.73
553.51	56376.48
553.67	56615.22
553.84	56865.66
554.01	56750.97
554.17	56301.59
554.34	56727.56
554.51	56893.74
554.67	57088.01
554.84	56746.29
555.00	56264.14
555.17	56055.83
555.33	56332.01
555.50	56247.75
555.67	56322.65
555.83	55870.93
556.00	55477.72
556.16	55711.77
556.33	55356.01
556.50	55185.15
556.66	55309.20
556.83	55033.02
556.99	55147.70
557.16	55103.23
557.32	55496.44
557.49	55751.56
557.65	55519.85
557.82	55580.70
557.98	55367.71
558.15	55075.15
558.32	54113.19
558.48	53272.93
558.65	53162.93
558.81	54042.97
558.98	53923.60
559.14	54363.62
559.31	54436.18
559.47	54464.27
559.64	54171.70
559.80	53556.14
559.97	53888.49
560.13	54211.49
560.30	55035.36
560.46	55573.68
560.63	55943.48
560.79	55777.31
560.96	55583.04
561.12	54253.62
561.29	53570.18
561.45	53523.37
561.61	54028.93
561.78	54546.18
561.94	54581.29
562.11	54337.88
562.27	53895.52
562.44	54218.51
562.60	54686.62
562.77	55131.32
562.93	55030.68
563.10	54637.47
563.26	54227.87
563.42	54108.50
563.59	53925.94
563.75	54031.27
563.92	53834.66
564.08	53998.50
564.24	54223.19
564.41	54265.32
564.57	54356.60
564.74	53869.77
564.90	53897.86
565.07	53935.30
565.23	53052.92
565.39	52910.15
565.56	52268.84
565.72	52247.78
565.88	52727.59
566.05	52839.93
566.21	53017.82
566.38	53244.85
566.54	53319.74
566.70	53638.06
566.87	54082.76
567.03	53736.36
567.19	54349.58
567.36	53670.82
567.52	53645.08
567.68	53406.34
567.85	52624.60
568.01	52100.32
568.17	52203.31
568.34	51959.89
568.50	52002.02
568.66	52058.20
568.83	52376.51
568.99	52294.59
569.15	52666.73
569.32	52395.23
569.48	52100.32
569.64	52135.43
569.81	51835.84
569.97	51657.96
570.13	51519.87
570.30	51086.87
570.46	50979.21
570.62	50382.37
570.78	50057.04
570.95	50286.41
571.11	51398.16
571.27	51660.30
571.43	52046.49
571.60	52161.18
571.76	52130.75
571.92	52271.18
572.09	52523.96
572.25	52329.70
572.41	52449.06
572.57	52364.81
572.74	52287.57
572.90	51662.64
573.06	51859.25
573.22	52081.60
573.38	51870.95
573.55	51742.22
573.71	52191.61
573.87	52116.71
574.03	51866.27
574.20	51742.22
574.36	51341.99
574.52	51276.46
574.68	51180.49
574.84	50981.55
575.01	49724.68
575.17	49806.60
575.33	50136.62
575.49	50700.68
575.65	50576.64
575.82	50478.33
575.98	50199.81
576.14	50370.67
576.30	50768.56
576.46	51011.98
576.62	50923.04
576.79	50747.50
576.95	50286.41
577.11	50328.54
577.27	50232.58
577.43	50691.32
577.59	49993.84
577.75	49499.99
577.92	48451.43
578.08	48474.84
578.24	48767.40
578.40	49455.52
578.56	49312.75
578.72	49752.77
578.88	49422.75
579.04	49528.08
579.21	50064.06
579.37	49904.90
579.53	50000.86
579.69	50087.46
579.85	50251.30
580.01	50066.40
580.17	49523.40
580.33	49301.04
580.49	49874.48
580.65	49720.00
580.82	50274.71
580.98	50270.03
581.14	50316.84
581.30	49764.47
581.46	49649.78
581.62	50176.40
581.78	49743.41
581.94	50295.77
582.10	49947.03
582.26	49755.11
582.42	50302.79
582.58	50045.33
582.74	50209.17
582.90	50169.38
583.06	50176.40
583.22	49708.30
583.38	49502.33
583.54	49532.76
583.70	49668.51
583.86	49902.56
584.02	49617.02
584.18	49544.46
584.34	49394.67
584.50	49287.00
584.66	49350.20
584.82	48652.72
584.98	48753.36
585.14	48301.64
585.30	47709.48
