SpectraSuite Data File
++++++++++++++++++++++++++++++++++++
Date: Mon Oct 07 14:53:36 GMT-05:00 2013
User: price-jones
Dark Spectrum Present: No
Reference Spectrum Present: No
Number of Sampled Component Spectra: 1
Spectrometers: USB2+H05261
Integration Time (usec): 100000 (USB2+H05261)
Spectra Averaged: 1 (USB2+H05261)
Boxcar Smoothing: 0 (USB2+H05261)
Correct for Electrical Dark: No (USB2+H05261)
Strobe/Lamp Enabled: No (USB2+H05261)
Correct for Detector Non-linearity: No (USB2+H05261)
Correct for Stray Light: No (USB2+H05261)
Number of Pixels in Processed Spectrum: 2048
>>>>>Begin Processed Spectral Data<<<<<
365.73	0.00
365.92	0.00
366.12	0.00
366.32	0.00
366.52	0.00
366.72	0.00
366.91	0.00
367.11	0.00
367.31	0.00
367.51	0.00
367.70	0.00
367.90	0.00
368.10	0.00
368.30	0.00
368.49	0.00
368.69	0.00
368.89	0.00
369.09	0.00
369.28	0.00
369.48	0.00
369.68	0.00
369.87	0.00
370.07	0.00
370.27	0.00
370.47	791.10
370.66	3705.07
370.86	4479.79
371.06	4723.20
371.25	4762.99
371.45	4191.90
371.65	3845.50
371.84	3651.24
372.04	3747.20
372.24	4124.02
372.44	4252.75
372.63	4311.27
372.83	4060.83
373.03	3513.14
373.22	3241.64
373.42	3548.25
373.62	4091.26
373.81	4402.55
374.01	4341.69
374.21	3955.51
374.40	3662.94
374.60	3751.88
374.79	4222.33
374.99	5043.85
375.19	5416.00
375.38	5198.33
375.58	5067.26
375.78	4903.42
375.97	5062.58
376.17	5195.99
376.37	5167.90
376.56	5235.78
376.76	5804.53
376.95	5930.92
377.15	6429.45
377.35	6490.31
377.54	6944.37
377.74	7056.72
377.93	7089.48
378.13	7005.22
378.33	6775.85
378.52	6017.52
378.72	5895.81
378.91	5682.82
379.11	5570.48
379.31	5242.80
379.50	5256.84
379.70	5647.71
379.89	6333.49
380.09	6740.74
380.28	7150.34
380.48	7021.61
380.68	6869.47
380.87	6740.74
381.07	6403.71
381.26	5781.12
381.46	5247.48
381.65	5163.22
381.85	5167.90
382.04	4926.83
382.24	4545.32
382.43	4430.63
382.63	4161.47
382.83	4159.13
383.02	4325.31
383.22	4117.00
383.41	4262.12
383.61	4437.66
383.80	5226.42
384.00	5893.47
384.19	6534.78
384.39	7084.80
384.58	6932.67
384.78	6740.74
384.97	6775.85
385.17	6375.62
385.36	6160.29
385.56	5703.89
385.75	5806.87
385.95	6459.88
386.14	7279.07
386.34	7192.47
386.53	6935.01
386.72	6539.46
386.92	6459.88
387.11	6796.92
387.31	6995.86
387.50	7094.16
387.70	6846.07
387.89	6677.55
388.09	6752.45
388.28	6998.20
388.48	6920.96
388.67	7412.48
388.86	8159.11
389.06	8711.47
389.25	9233.41
389.45	9167.88
389.64	9387.89
389.84	9245.12
390.03	9100.00
390.22	8954.89
390.42	9376.19
390.61	9877.06
390.81	10593.26
391.00	10649.44
391.19	10768.80
391.39	10382.62
391.58	9678.12
391.78	9095.32
391.97	8784.03
392.16	8325.29
392.36	7496.74
392.55	6108.80
392.75	4919.81
392.94	3894.65
393.13	3873.59
393.33	4507.87
393.52	5795.17
393.71	7229.91
393.91	8114.64
394.10	8760.63
394.29	9703.86
394.49	10380.28
394.68	11218.19
394.88	11396.07
395.07	11742.47
395.26	11587.99
395.46	11449.90
395.65	10626.03
395.84	9350.44
396.04	7791.64
396.23	6380.30
396.42	5490.90
396.62	5055.56
396.81	6092.41
397.00	7597.38
397.19	9605.56
397.39	11356.28
397.58	12788.69
397.77	13752.99
397.97	14204.71
398.16	14452.81
398.35	14635.37
398.55	14930.28
398.74	15894.58
398.93	16231.62
399.12	15569.24
399.32	15349.23
399.51	15681.59
399.70	16561.63
399.90	16320.56
400.09	16505.46
400.28	16430.56
400.47	16271.40
400.67	17640.62
400.86	17720.20
401.05	17717.86
401.24	17893.40
401.44	18288.95
401.63	18267.88
401.82	18338.10
402.01	18590.88
402.21	18508.96
402.40	18352.14
402.59	18286.61
402.78	17205.28
402.97	16776.96
403.17	17422.95
403.36	18431.72
403.55	18944.30
403.74	19330.48
403.93	18457.46
404.13	17369.12
404.32	16695.04
404.51	17348.05
404.70	18838.97
404.89	18906.85
405.09	18853.02
405.28	18106.38
405.47	17919.14
405.66	18169.58
405.85	17539.97
406.05	17233.36
406.24	17268.47
406.43	18001.06
406.62	18754.71
406.81	18848.33
407.00	17968.29
407.20	17935.53
407.39	17919.14
407.58	18628.32
407.77	19475.60
407.96	20105.20
408.15	20297.13
408.34	20451.60
408.54	21518.89
408.73	21518.89
408.92	21390.16
409.11	20592.03
409.30	19693.27
409.49	18422.36
409.68	16940.80
409.87	16849.52
410.07	17813.82
410.26	18817.91
410.45	20606.08
410.64	20599.05
410.83	21254.40
411.02	21764.64
411.21	22864.69
411.40	22485.53
411.59	22565.10
411.78	22129.77
411.98	22078.27
412.17	22569.79
412.36	22380.20
412.55	22085.30
412.74	21900.39
412.93	21018.01
413.12	21411.22
413.31	23393.65
413.50	23716.65
413.69	24130.92
413.88	23225.14
414.07	22253.81
414.26	22937.25
414.45	23548.13
414.64	23744.73
414.83	23728.35
415.02	23438.12
415.22	23529.41
415.41	23997.51
415.60	24507.75
415.79	25614.82
415.98	26031.44
416.17	26125.06
416.36	25696.74
416.55	25425.24
416.74	24402.43
416.93	23360.89
417.12	23300.03
417.31	24215.18
417.50	24414.13
417.69	25142.03
417.88	25036.71
418.07	24343.91
418.26	24592.01
418.45	24381.36
418.64	25436.94
418.83	26422.31
419.02	26214.00
419.21	25792.70
419.39	24680.95
419.58	23372.59
419.77	23241.52
419.96	24425.83
420.15	25755.26
420.34	26370.82
420.53	27632.36
420.72	28336.87
420.91	27981.10
421.10	27356.18
421.29	27185.32
421.48	26022.08
421.67	27948.34
421.86	27264.90
422.05	25399.49
422.24	22654.05
422.43	22305.31
422.61	24713.72
422.80	26953.61
422.99	27080.00
423.18	26043.14
423.37	25443.96
423.56	25443.96
423.75	25834.83
423.94	26225.70
424.13	24699.67
424.32	25034.37
424.50	25109.27
424.69	24711.38
424.88	24996.92
425.07	24903.30
425.26	24964.15
425.45	24425.83
425.64	23910.91
425.83	24166.03
426.01	25450.99
426.20	26120.38
426.39	25715.47
426.58	24259.65
426.77	22382.54
426.96	21504.84
427.15	22221.05
427.33	23976.45
427.52	24973.52
427.71	25352.68
427.90	24828.40
428.09	25050.75
428.28	24402.43
428.46	23234.50
428.65	23103.43
428.84	23353.87
429.03	24107.52
429.22	22534.68
429.40	21792.73
429.59	19601.99
429.78	17270.81
429.97	17542.32
430.16	17699.13
430.34	18087.66
430.53	17767.01
430.72	17820.84
430.91	19805.61
431.10	23358.55
431.28	27536.40
431.47	29881.62
431.66	30113.33
431.85	27779.82
432.03	25127.99
432.22	24049.00
432.41	24915.00
432.60	28121.54
432.79	28877.53
432.97	29813.74
433.16	28854.12
433.35	26691.47
433.54	23763.46
433.72	22497.23
433.91	23037.89
434.10	25928.45
434.28	27505.98
434.47	28851.78
434.66	28528.79
434.85	27761.09
435.03	27723.65
435.22	28474.96
435.41	30251.42
435.59	30368.45
435.78	30429.30
435.97	31557.44
436.16	31622.98
436.34	31367.86
436.53	30534.63
436.72	30614.21
436.90	28973.49
437.09	28989.88
437.28	28329.84
437.46	29355.00
437.65	29319.89
437.84	27288.31
438.02	25039.05
438.21	24783.93
438.40	26363.79
438.58	28645.82
438.77	29394.79
438.96	29476.71
439.14	30771.02
439.33	31395.95
439.52	31672.13
439.70	31307.01
439.89	30473.78
440.08	29551.60
440.26	30033.75
440.45	30792.09
440.63	32645.79
440.82	34705.46
441.01	34059.48
441.19	33469.66
441.38	34293.53
441.57	35538.69
441.75	35786.79
441.94	35999.78
442.12	35756.36
442.31	36385.97
442.50	36189.36
442.68	36030.21
442.87	35297.62
443.05	34778.02
443.24	35339.75
443.43	36467.89
443.61	36928.97
443.80	37373.67
443.98	35117.40
444.17	35604.23
444.35	37443.89
444.54	38183.50
444.73	37350.27
444.91	35559.76
445.10	34462.05
445.28	32905.59
445.47	32444.51
445.65	33219.22
445.84	33872.23
446.02	34749.93
446.21	35356.13
446.39	35564.44
446.58	36067.66
446.77	36418.74
446.95	36559.17
447.14	37584.32
447.32	38808.42
447.51	37455.59
447.69	36025.53
447.88	35552.74
448.06	36198.73
448.25	37064.72
448.43	37567.94
448.62	36266.60
448.80	36147.23
448.99	36823.65
449.17	37214.52
449.36	37193.45
449.54	38160.09
449.73	38871.62
449.91	39370.15
450.10	40264.24
450.28	41177.04
450.46	40905.54
450.65	40818.94
450.83	40488.93
451.02	39313.98
451.20	39445.05
451.39	39447.39
451.57	39328.02
451.76	39044.82
451.94	39267.17
452.13	38146.05
452.31	36872.80
452.49	34991.01
452.68	35512.95
452.86	35943.61
453.05	35878.07
453.23	37240.26
453.42	37450.91
453.60	38789.70
453.78	39484.84
453.97	38590.75
454.15	38817.78
454.34	37916.68
454.52	37888.59
454.70	37516.45
454.89	37645.18
455.07	38071.15
455.26	38462.02
455.44	40444.46
455.62	40285.30
455.81	40767.45
455.99	40329.77
456.17	39828.90
456.36	40144.87
456.54	41069.38
456.73	40776.81
456.91	41787.92
457.09	42160.07
457.28	42572.00
457.46	41483.66
457.64	40870.43
457.83	39847.62
458.01	38873.96
458.19	39721.23
458.38	39761.02
458.56	41394.71
458.74	41326.84
458.93	39784.43
459.11	40369.56
459.29	39805.49
459.48	40114.44
459.66	40058.27
459.84	40655.11
460.03	40844.69
460.21	40535.74
460.39	41970.49
460.57	41677.92
460.76	42113.26
460.94	42550.94
461.12	42071.13
461.31	41876.86
461.49	42019.64
461.67	41722.39
461.85	42953.51
462.04	42532.22
462.22	43487.15
462.40	42972.24
462.59	43136.07
462.77	42792.01
462.95	43033.09
463.13	42726.48
463.32	42162.41
463.50	41855.80
463.68	42078.15
463.86	41797.29
464.05	41406.42
464.23	40547.44
464.41	40472.54
464.59	39704.85
464.78	41659.20
464.96	41446.21
465.14	41284.71
465.32	41986.87
465.50	42981.60
465.69	43182.88
465.87	42855.21
466.05	42033.68
466.23	39826.56
466.41	39077.58
466.60	40168.27
466.78	40367.22
466.96	40650.42
467.14	41542.17
467.32	42110.92
467.51	41762.18
467.69	39819.53
467.87	41083.42
468.05	41902.61
468.23	41853.46
468.41	42054.75
468.60	41846.44
468.78	42382.42
468.96	41518.76
469.14	42223.26
469.32	42593.07
469.50	40872.78
469.69	41109.17
469.87	40542.76
470.05	40332.11
470.23	40678.51
470.41	40627.02
470.59	41184.07
470.77	41570.25
470.95	42014.96
471.14	42609.45
471.32	42436.25
471.50	45024.89
471.68	44957.01
471.86	45448.52
472.04	44926.58
472.22	45464.91
472.40	43753.97
472.58	43124.37
472.77	42904.36
472.95	43311.61
473.13	44739.34
473.31	43498.86
473.49	43519.92
473.67	44823.60
473.85	44460.82
474.03	46174.09
474.21	45563.21
474.39	46115.58
474.57	46181.11
474.75	46539.21
474.93	45773.86
475.12	45003.82
475.30	45427.46
475.48	45322.13
475.66	46497.08
475.84	45254.26
476.02	45146.59
476.20	44737.00
476.38	45670.87
476.56	46553.26
476.74	47330.31
476.92	47196.90
477.10	47725.86
477.28	48889.11
477.46	48980.39
477.64	49209.76
477.82	49214.44
478.00	49497.65
478.18	49118.48
478.36	49013.16
478.54	49003.80
478.72	49130.19
478.90	49862.77
479.08	50621.11
479.26	51442.63
479.44	51323.27
479.62	50869.20
479.80	51030.70
479.98	51519.87
480.16	51554.98
480.34	50981.55
480.52	51482.42
480.70	51693.07
480.88	51613.49
481.06	52222.03
481.24	52559.07
481.41	53200.38
481.59	53689.55
481.77	53357.19
481.95	52999.09
482.13	52713.55
482.31	53162.93
482.49	53640.40
482.67	53102.07
482.85	53787.85
483.03	53806.58
483.21	54368.30
483.39	54145.95
483.57	53626.35
483.74	53324.43
483.92	53722.32
484.10	53778.49
484.28	54817.69
484.46	54834.07
484.64	55227.28
484.82	54555.55
485.00	54192.76
485.18	53523.37
485.35	52692.48
485.53	49956.39
485.71	46209.20
485.89	45579.59
486.07	47966.94
486.25	50836.44
486.43	52947.60
486.61	53141.86
486.78	53455.50
486.96	53354.85
487.14	54784.92
487.32	55573.68
487.50	56144.77
487.68	56519.26
487.85	57162.90
488.03	57118.43
488.21	56718.20
488.39	56493.51
488.57	55835.82
488.75	55508.14
488.92	56250.09
489.10	58117.84
489.28	59044.69
489.46	59611.10
489.64	59440.24
489.81	59810.05
489.99	59405.14
490.17	59302.15
490.35	59463.65
490.53	59196.83
490.70	58850.43
490.88	58857.45
491.06	59894.31
491.24	59824.09
491.41	58880.86
491.59	57570.16
491.77	56884.38
491.95	57738.68
492.13	58733.40
492.30	59777.28
492.48	60420.93
492.66	60999.04
492.84	60945.21
493.01	60654.98
493.19	60280.50
493.37	59948.14
493.54	59833.46
493.72	60313.26
493.90	61010.74
494.08	61736.31
494.25	61989.09
494.43	61982.07
494.61	62286.34
494.79	62410.38
494.96	62340.17
495.14	61874.40
495.32	60956.91
495.49	60430.29
495.67	61317.35
495.85	62443.15
496.02	62946.37
496.20	62754.44
496.38	62319.10
496.55	62141.22
496.73	62665.50
496.91	62691.25
497.09	63145.31
497.26	63451.92
497.44	63028.29
497.62	62651.46
497.79	61930.58
497.97	60772.01
498.14	60893.72
498.32	61762.06
498.50	62693.59
498.67	63210.85
498.85	63075.10
499.03	63220.21
499.20	63412.13
499.38	63405.11
499.56	63196.80
499.73	62726.36
499.91	62419.75
500.08	62061.64
500.26	61385.23
500.44	61904.83
500.61	62368.26
500.79	62372.94
500.97	61953.98
501.14	61682.48
501.32	61703.54
501.49	61806.53
501.67	61975.05
501.84	62291.02
502.02	62550.82
502.20	62948.71
502.37	62944.03
502.55	63028.29
502.72	63678.96
502.90	63788.96
503.07	63732.79
503.25	63355.96
503.43	62628.05
503.60	61998.45
503.78	61361.82
503.95	61867.38
504.13	63056.37
504.30	63840.45
504.48	63582.99
504.65	63374.69
504.83	63292.77
505.01	63835.77
505.18	64203.24
505.36	64781.35
505.53	64624.53
505.71	64942.84
505.88	65073.91
506.06	64404.52
506.23	64123.66
506.41	63941.10
506.58	64144.72
506.76	64020.67
506.93	64058.12
507.11	63655.55
507.28	63861.52
507.46	63552.57
507.63	62925.30
507.81	62862.11
507.98	63093.82
508.16	63601.72
508.33	64046.42
508.50	64467.72
508.68	64647.94
508.85	65087.96
509.03	64914.76
509.20	64959.23
509.38	64294.52
509.55	63700.02
509.73	63791.30
509.90	64324.94
510.08	64488.78
510.25	64357.71
510.42	64294.52
510.60	64062.80
510.77	64397.50
510.95	64809.43
511.12	65034.13
511.30	65092.64
511.47	65392.23
511.64	65312.65
511.82	65244.77
511.99	64472.40
512.17	64006.63
512.34	63704.70
512.51	63971.52
512.69	63917.69
512.86	64006.63
513.04	64528.57
513.21	64409.20
513.38	64353.03
513.56	63737.47
513.73	63124.25
513.90	63353.62
514.08	63538.52
514.25	63784.28
514.43	63983.22
514.60	63873.22
514.77	63999.61
514.95	64296.86
515.12	64088.55
515.29	64243.02
515.47	64807.09
515.64	65034.13
515.81	64708.79
515.99	63983.22
516.16	62939.35
516.33	61031.81
516.51	59576.00
516.68	58953.41
516.85	58864.47
517.03	59014.27
517.20	61197.99
517.37	63325.53
517.54	64343.67
517.72	63891.94
517.89	61694.18
518.06	59856.86
518.24	59948.14
518.41	61984.41
518.58	62948.71
518.75	63292.77
518.93	63311.49
519.10	63309.15
519.27	63428.52
519.45	63812.37
519.62	64444.31
519.79	64692.41
519.96	64563.68
520.14	64135.36
520.31	63456.60
520.48	63393.41
520.65	63700.02
520.83	64474.74
521.00	65031.78
521.17	64692.41
521.34	64336.65
521.52	64537.93
521.69	65139.45
521.86	65270.52
522.03	65275.20
522.20	64079.19
522.38	63149.99
522.55	63119.57
522.72	63608.74
522.89	63859.18
523.07	63985.57
523.24	64357.71
523.41	64961.57
523.58	65228.39
523.75	65535.00
523.92	65488.19
524.10	65535.00
524.27	65420.31
524.44	65340.74
524.61	65202.64
524.78	65036.47
524.96	64959.23
525.13	64973.27
525.30	65050.51
525.47	65535.00
525.64	65485.85
525.81	64842.20
525.98	63709.38
526.16	62328.47
526.33	61715.25
526.50	61441.40
526.67	61310.33
526.84	61731.63
527.01	62471.24
527.18	63199.15
527.36	63978.54
527.53	64753.26
527.70	65139.45
527.87	64666.66
528.04	64179.83
528.21	64573.04
528.38	65221.37
528.55	65535.00
528.72	65535.00
528.89	65535.00
529.07	65535.00
529.24	65343.08
529.41	64837.52
529.58	63999.61
529.75	64184.51
529.92	64673.68
530.09	65078.60
530.26	65511.59
530.43	65535.00
530.60	65535.00
530.77	65535.00
530.94	65535.00
531.11	65535.00
531.28	65340.74
531.46	65106.68
531.63	65410.95
531.80	65233.07
531.97	64769.64
532.14	64172.81
532.31	63271.70
532.48	62789.55
532.65	62630.40
532.82	63484.69
532.99	64542.61
533.16	64842.20
533.33	65197.96
533.50	65148.81
533.67	64357.71
533.84	64245.36
534.01	64184.51
534.18	64418.56
534.35	64601.13
534.52	64561.34
534.69	64795.39
534.86	64966.25
535.03	65333.71
535.20	65485.85
535.37	65535.00
535.54	65535.00
535.71	65535.00
535.88	65535.00
536.05	64736.88
536.22	64542.61
536.38	64273.45
536.55	63751.51
536.72	63440.22
536.89	63217.87
537.06	63952.80
537.23	64615.17
537.40	64952.21
537.57	65083.28
537.74	64821.14
537.91	64664.32
538.08	64430.27
538.25	64814.12
538.42	64966.25
538.59	64732.20
538.75	64292.18
538.92	63997.27
539.09	63781.94
539.26	63788.96
539.43	63435.54
539.60	63557.25
539.77	63868.54
539.94	63772.58
540.11	62939.35
540.28	62632.74
540.44	62450.17
540.61	62770.83
540.78	63089.14
540.95	63594.70
541.12	63756.19
541.29	64046.42
541.46	64261.75
541.62	64350.69
541.79	64151.74
541.96	63629.80
542.13	63690.66
542.30	64027.70
542.47	63920.03
542.63	63756.19
542.80	63674.27
542.97	63641.51
543.14	63547.89
543.31	63716.40
543.48	64137.70
543.64	64680.70
543.81	64900.71
543.98	64842.20
544.15	64243.02
544.32	63807.68
544.48	63835.77
544.65	64097.91
544.82	64612.83
544.99	64226.64
545.16	64025.35
545.32	63613.42
545.49	64425.59
545.66	64687.73
545.83	64549.63
546.00	64128.34
546.16	63791.30
546.33	63880.24
546.50	63760.87
546.67	64170.47
546.83	63842.79
547.00	63955.14
547.17	63325.53
547.34	62986.16
547.50	62878.49
547.67	63037.65
547.84	63304.47
548.00	63599.38
548.17	63821.73
548.34	63896.62
548.51	64001.95
548.67	64034.72
548.84	64013.65
549.01	63856.84
549.18	63838.11
549.34	63833.43
549.51	63800.66
549.68	63746.83
549.84	63660.23
550.01	63428.52
550.18	63182.76
550.34	63374.69
550.51	63566.61
550.68	63646.19
550.84	63224.89
551.01	63206.17
551.18	63299.79
551.34	63316.17
551.51	63756.19
551.68	63821.73
551.84	63854.50
552.01	63716.40
552.18	63683.64
552.34	63103.18
552.51	62691.25
552.68	62365.91
552.84	63110.20
553.01	63257.66
553.18	63173.40
553.34	63096.16
553.51	63377.03
553.67	63552.57
553.84	63739.81
554.01	63611.08
554.17	63379.37
554.34	63491.71
554.51	63655.55
554.67	63962.16
554.84	63786.62
555.00	63377.03
555.17	63189.78
555.33	63201.49
555.50	63157.02
555.67	63157.02
555.83	63299.79
556.00	62803.59
556.16	62651.46
556.33	62443.15
556.50	62323.78
556.66	62464.22
556.83	62152.93
556.99	62361.23
557.16	62293.36
557.32	62738.06
557.49	62852.75
557.65	62763.81
557.82	62733.38
557.98	62679.55
558.15	62230.16
558.32	61378.21
558.48	60863.29
558.65	60977.98
558.81	61495.24
558.98	61530.34
559.14	61762.06
559.31	61893.13
559.47	61879.08
559.64	61525.66
559.80	61298.63
559.97	61268.20
560.13	61579.49
560.30	62438.47
560.46	62911.26
560.63	62920.62
560.79	63051.69
560.96	62827.00
561.12	61843.98
561.29	60898.40
561.45	61106.71
561.61	61645.03
561.78	61745.67
561.94	61916.53
562.11	61705.88
562.27	61361.82
562.44	61886.10
562.60	61998.45
562.77	62321.44
562.93	62192.72
563.10	62173.99
563.26	61595.88
563.42	61680.14
563.59	61382.89
563.75	61642.69
563.92	61612.26
564.08	61581.84
564.24	61691.84
564.41	61813.55
564.57	61851.00
564.74	61511.62
564.90	61420.34
565.07	61446.08
565.23	60959.25
565.39	60772.01
565.56	60463.06
565.72	60219.64
565.88	60406.89
566.05	60554.34
566.21	60818.82
566.38	60963.93
566.54	60975.64
566.70	61396.93
566.87	61670.78
567.03	61410.98
567.19	61628.65
567.36	61481.19
567.52	61300.97
567.68	61368.85
567.85	60638.60
568.01	60303.90
568.17	59938.78
568.34	60116.66
568.50	59966.87
568.66	60144.75
568.83	60449.02
568.99	60240.71
569.15	60535.62
569.32	60858.61
569.48	60360.08
569.64	60273.48
569.81	59826.43
569.97	59908.35
570.13	59915.37
570.30	59690.68
570.46	59236.62
570.62	58431.47
570.78	58679.57
570.95	58686.59
571.11	59400.46
571.27	59812.39
571.43	59891.97
571.60	59838.14
571.76	60135.38
571.92	60474.76
572.09	60561.36
572.25	60544.98
572.41	60233.69
572.57	60179.85
572.74	60364.76
572.90	59931.76
573.06	60032.40
573.22	60133.04
573.38	60081.55
573.55	60041.76
573.71	60182.19
573.87	60060.49
574.03	59873.24
574.20	59819.41
574.36	59636.85
574.52	59433.22
574.68	59501.10
574.84	59110.23
575.01	58621.06
575.17	58515.73
575.33	58742.77
575.49	59215.55
575.65	59302.15
575.82	59018.95
575.98	58717.02
576.14	58752.13
576.30	59274.07
576.46	59346.62
576.62	59473.01
576.79	59035.33
576.95	59105.55
577.11	58965.12
577.27	59014.27
577.43	59175.76
577.59	58660.85
577.75	58323.81
577.92	57591.22
578.08	57680.16
578.24	57965.71
578.40	58120.18
578.56	58218.49
578.72	58291.04
578.88	58356.58
579.04	58302.74
579.21	58489.99
579.37	58686.59
579.53	58710.00
579.69	58728.72
579.85	59056.40
580.01	58756.81
580.17	58492.33
580.33	58468.92
580.49	58412.75
580.65	58506.37
580.82	58794.26
580.98	58754.47
581.14	58651.48
581.30	58672.55
581.46	58475.94
581.62	58845.75
581.78	58745.11
581.94	58932.35
582.10	58705.32
582.26	58913.62
582.42	58841.07
582.58	58628.08
582.74	58922.99
582.90	58894.90
583.06	58801.28
583.22	58611.70
583.38	58660.85
583.54	58424.45
583.70	58637.44
583.86	58534.46
584.02	58412.75
584.18	58508.71
584.34	58497.01
584.50	58209.12
584.66	58131.89
584.82	58138.91
584.98	57958.69
585.14	57556.11
