SpectraSuite Data File
++++++++++++++++++++++++++++++++++++
Date: Mon Oct 07 14:53:06 GMT-05:00 2013
User: price-jones
Dark Spectrum Present: No
Reference Spectrum Present: No
Number of Sampled Component Spectra: 1
Spectrometers: USB2+H05261
Integration Time (usec): 100000 (USB2+H05261)
Spectra Averaged: 1 (USB2+H05261)
Boxcar Smoothing: 0 (USB2+H05261)
Correct for Electrical Dark: No (USB2+H05261)
Strobe/Lamp Enabled: No (USB2+H05261)
Correct for Detector Non-linearity: No (USB2+H05261)
Correct for Stray Light: No (USB2+H05261)
Number of Pixels in Processed Spectrum: 2048
>>>>>Begin Processed Spectral Data<<<<<
365.73	0.00
365.92	0.00
366.12	0.00
366.32	0.00
366.52	0.00
366.72	0.00
366.91	0.00
367.11	0.00
367.31	0.00
367.51	0.00
367.70	0.00
367.90	0.00
368.10	0.00
368.30	0.00
368.49	0.00
368.69	0.00
368.89	0.00
369.09	0.00
369.28	0.00
369.48	0.00
369.68	0.00
369.87	0.00
370.07	0.00
370.27	0.00
370.47	580.45
370.66	2995.89
370.86	3524.85
371.06	3896.99
371.25	3943.80
371.45	3447.61
371.65	3152.70
371.84	2909.29
372.04	3068.44
372.24	3529.53
372.44	3620.81
372.63	3758.90
372.83	3274.41
373.03	2909.29
373.22	2663.53
373.42	2930.35
373.62	3251.00
373.81	3616.13
374.01	3611.45
374.21	3178.45
374.40	3026.31
374.60	3122.27
374.79	3571.66
374.99	4042.11
375.19	4379.14
375.38	4404.89
375.58	4105.30
375.78	4070.19
375.97	4159.13
376.17	4250.41
376.37	4341.69
376.56	4475.10
376.76	4671.71
376.95	4926.83
377.15	5481.53
377.35	5701.54
377.54	5746.02
377.74	5956.66
377.93	5975.39
378.13	5806.87
378.33	5446.43
378.52	5132.79
378.72	4798.10
378.91	4821.50
379.11	4690.43
379.31	4540.64
379.50	4383.82
379.70	4793.42
379.89	5320.04
380.09	5799.85
380.28	6036.24
380.48	5753.04
380.68	5750.70
380.87	5720.27
381.07	5153.86
381.26	4718.52
381.46	4491.49
381.65	4353.40
381.85	4117.00
382.04	4030.40
382.24	3786.99
382.43	3466.33
382.63	3487.40
382.83	3473.36
383.02	3581.02
383.22	3520.17
383.41	3597.40
383.61	3714.43
383.80	4315.95
384.00	4699.80
384.19	5455.79
384.39	5764.74
384.58	5753.04
384.78	5558.77
384.97	5504.94
385.17	5338.76
385.36	4940.87
385.56	4826.18
385.75	5128.11
385.95	5654.73
386.14	5930.92
386.34	5738.99
386.53	5504.94
386.72	5406.64
386.92	5331.74
387.11	5727.29
387.31	6050.28
387.50	5788.14
387.70	5666.44
387.89	5650.05
388.09	5753.04
388.28	5666.44
388.48	5846.66
388.67	6256.25
388.86	6731.38
389.06	7236.94
389.25	7686.32
389.45	7808.03
389.64	7583.34
389.84	7590.36
390.03	7550.57
390.22	7522.48
390.42	7761.22
390.61	8072.51
390.81	8711.47
391.00	8758.28
391.19	8760.63
391.39	8531.25
391.58	7962.50
391.78	7592.70
391.97	7375.03
392.16	6857.77
392.36	6223.48
392.55	5036.83
392.75	3936.78
392.94	3129.30
393.13	3356.33
393.33	3967.21
393.52	4959.60
393.71	6104.12
393.91	6839.05
394.10	7377.37
394.29	7967.18
394.49	8777.01
394.68	9338.74
394.88	9497.89
395.07	9844.29
395.26	9582.15
395.46	9453.42
395.65	8805.10
395.84	7576.31
396.04	6403.71
396.23	5071.94
396.42	4482.13
396.62	4388.50
396.81	4987.68
397.00	6345.19
397.19	7936.76
397.39	9867.70
397.58	10581.56
397.77	11199.46
397.97	11798.64
398.16	11901.62
398.35	12189.51
398.55	12615.49
398.74	13013.38
398.93	13369.14
399.12	13102.32
399.32	12655.28
399.51	13224.03
399.70	13987.04
399.90	13659.37
400.09	13678.09
400.28	13425.31
400.47	13860.65
400.67	14637.71
400.86	14817.93
401.05	14710.27
401.24	14766.44
401.44	15161.99
401.63	15028.58
401.82	15063.69
402.01	15173.69
402.21	15438.17
402.40	15391.36
402.59	15049.64
402.78	14153.22
402.97	13877.04
403.17	14560.47
403.36	15391.36
403.55	15728.40
403.74	16313.53
403.93	15269.66
404.13	14228.12
404.32	14146.20
404.51	14780.48
404.70	15676.91
404.89	15552.86
405.09	15492.01
405.28	15037.94
405.47	15070.71
405.66	15066.03
405.85	14647.07
406.05	14174.28
406.24	14368.55
406.43	15040.28
406.62	15690.95
406.81	15583.29
407.00	15161.99
407.20	14820.27
407.39	15051.99
407.58	15517.75
407.77	16271.40
407.96	16650.57
408.15	16999.31
408.34	16730.15
408.54	17720.20
408.73	17757.64
408.92	17507.21
409.11	17060.16
409.30	16060.76
409.49	15232.21
409.68	14274.93
409.87	14040.87
410.07	15115.18
410.26	15784.57
410.45	17003.99
410.64	17130.38
410.83	17886.37
411.02	18263.20
411.21	19000.47
411.40	18850.67
411.59	19164.31
411.78	18778.12
411.98	18459.81
412.17	18808.54
412.36	18483.21
412.55	18485.55
412.74	17865.31
412.93	17748.28
413.12	18050.21
413.31	19688.59
413.50	19796.25
413.69	20102.86
413.88	19569.22
414.07	18974.72
414.26	19110.47
414.45	19974.13
414.64	19800.93
414.83	20044.35
415.02	19550.49
415.22	19391.34
415.41	19840.72
415.60	20458.62
415.79	21338.66
415.98	21879.33
416.17	21834.86
416.36	21371.43
416.55	20980.56
416.74	20086.48
416.93	19740.08
417.12	19681.56
417.31	20175.42
417.50	20140.31
417.69	20816.72
417.88	20776.94
418.07	20430.54
418.26	20121.59
418.45	20521.82
418.64	21352.71
418.83	21830.18
419.02	21556.33
419.21	21427.60
419.39	20723.10
419.58	19812.63
419.77	19822.00
419.96	20732.47
420.15	21584.42
420.34	22553.40
420.53	23030.87
420.72	23351.52
420.91	23115.13
421.10	23285.99
421.29	22934.91
421.48	21905.07
421.67	23084.70
421.86	22590.85
422.05	20950.14
422.24	18836.63
422.43	18452.78
422.61	20767.57
422.80	22384.88
422.99	22607.23
423.18	21331.64
423.37	21067.16
423.56	21497.82
423.75	21755.28
423.94	22246.79
424.13	20819.07
424.32	20893.96
424.50	20950.14
424.69	20910.35
424.88	20896.30
425.07	20964.18
425.26	21167.80
425.45	20568.63
425.64	20046.69
425.83	20266.70
426.01	21436.97
426.20	21869.97
426.39	22045.51
426.58	20327.55
426.77	18754.71
426.96	18291.29
427.15	18831.95
427.33	20346.28
427.52	21008.65
427.71	21329.30
427.90	20858.85
428.09	20648.21
428.28	20271.38
428.46	19873.49
428.65	19283.67
428.84	19744.76
429.03	20159.03
429.22	18897.49
429.40	18033.83
429.59	16470.35
429.78	14719.63
429.97	14843.68
430.16	14810.91
430.34	14773.46
430.53	14789.85
430.72	14902.19
430.91	16713.77
431.10	19978.81
431.28	23403.02
431.47	25127.99
431.66	24954.79
431.85	23190.03
432.03	21319.94
432.22	20697.36
432.41	21128.02
432.60	23410.04
432.79	24252.63
432.97	24575.62
433.16	24320.51
433.35	21977.63
433.54	19779.87
433.72	18750.03
433.91	19302.40
434.10	21694.43
434.28	23068.32
434.47	24343.91
434.66	23920.28
434.85	23360.89
435.03	23325.78
435.22	23857.08
435.41	25280.13
435.59	25188.85
435.78	25837.17
435.97	26609.55
436.16	26874.03
436.34	25986.97
436.53	25949.52
436.72	25663.97
436.90	24177.73
437.09	24491.37
437.28	23957.72
437.46	24650.52
437.65	24671.59
437.84	23157.26
438.02	21146.74
438.21	21282.49
438.40	22171.89
438.58	24041.98
438.77	24599.03
438.96	24573.28
439.14	26019.74
439.33	26340.39
439.52	27225.11
439.70	25937.82
439.89	25844.20
440.08	24898.62
440.26	25397.15
440.45	25755.26
440.63	27599.60
440.82	29085.84
441.01	28662.20
441.19	28484.32
441.38	28854.12
441.57	29930.77
441.75	30361.43
441.94	30366.11
442.12	30221.00
442.31	31054.23
442.50	30670.38
442.68	30291.21
442.87	29935.45
443.05	29497.77
443.24	30040.78
443.43	30455.05
443.61	31419.35
443.80	31604.25
443.98	30106.31
444.17	29921.41
444.35	31536.38
444.54	32205.77
444.73	31927.25
444.91	30508.88
445.10	29322.23
445.28	28266.65
445.47	27569.17
445.65	27648.75
445.84	28386.02
446.02	29673.31
446.21	30181.21
446.39	29984.60
446.58	30703.15
446.77	30831.88
446.95	31433.39
447.14	32093.43
447.32	32521.74
447.51	31826.60
447.69	30670.38
447.88	30230.36
448.06	30789.75
448.25	31384.24
448.43	31711.92
448.62	31206.36
448.80	30976.99
448.99	31433.39
449.17	31438.08
449.36	31159.55
449.54	32697.28
449.73	32999.21
449.91	33752.87
450.10	34660.99
450.28	34642.27
450.46	34361.40
450.65	34869.30
450.83	34281.83
451.02	33429.87
451.20	33530.51
451.39	33359.66
451.57	33364.34
451.76	33579.67
451.94	32987.51
452.13	32723.03
452.31	31009.76
452.49	29266.06
452.68	30134.40
452.86	30127.38
453.05	30733.57
453.23	31494.25
453.42	31981.08
453.60	33165.39
453.78	33139.65
453.97	32753.46
454.15	32767.50
454.34	32051.30
454.52	32254.92
454.70	31557.44
454.89	31941.29
455.07	31915.54
455.26	32542.81
455.44	33750.52
455.62	34684.40
455.81	34553.33
455.99	34132.03
456.17	34080.54
456.36	34249.06
456.54	34951.22
456.73	34866.96
456.91	35541.03
457.09	35414.65
457.28	36568.53
457.46	34768.66
457.64	34504.18
457.83	33359.66
458.01	32966.45
458.19	33811.38
458.38	34220.97
458.56	35124.42
458.74	34719.51
458.93	34457.37
459.11	34338.00
459.29	34005.64
459.48	34225.65
459.66	33792.65
459.84	34384.81
460.03	34897.39
460.21	34981.65
460.39	35695.51
460.57	35704.87
460.76	36147.23
460.94	36364.90
461.12	35655.72
461.31	35988.08
461.49	36013.82
461.67	35885.09
461.85	37071.75
462.04	36917.27
462.22	37406.44
462.40	36723.01
462.59	36704.28
462.77	36563.85
462.95	36912.59
463.13	36299.37
463.32	36238.51
463.50	35840.62
463.68	35683.81
463.86	35709.55
464.05	35360.81
464.23	34611.84
464.41	34988.67
464.59	34132.03
464.78	35639.34
464.96	35269.53
465.14	35248.47
465.32	36187.02
465.50	36952.38
465.69	37141.96
465.87	36737.05
466.05	35505.93
466.23	33640.52
466.41	32818.99
466.60	34260.76
466.78	34279.49
466.96	34972.28
467.14	35143.14
467.32	35915.52
467.51	35962.33
467.69	34590.78
467.87	35026.12
468.05	35475.50
468.23	35466.14
468.41	35484.86
468.60	35749.34
468.78	35742.32
468.96	35512.95
469.14	36229.15
469.32	36453.84
469.50	34941.86
469.69	35136.12
469.87	34691.42
470.05	34218.63
470.23	34567.37
470.41	34251.40
470.59	35435.71
470.77	35440.39
470.95	36046.59
471.14	36425.76
471.32	36467.89
471.50	38590.75
471.68	38291.16
471.86	38703.10
472.04	39098.65
472.22	38866.94
472.40	37483.68
472.58	37097.49
472.77	36383.63
472.95	37443.89
473.13	38260.74
473.31	37137.28
473.49	37336.23
473.67	38501.81
473.85	38293.50
474.03	39723.57
474.21	39349.09
474.39	39718.89
474.57	40254.87
474.75	40376.58
474.93	40060.61
475.12	38866.94
475.30	39058.86
475.48	38993.32
475.66	39807.83
475.84	39070.56
476.02	38841.19
476.20	38319.25
476.38	39386.54
476.56	40243.17
476.74	41024.91
476.92	40755.75
477.10	41237.90
477.28	43098.62
477.46	42143.69
477.64	43002.66
477.82	43138.41
478.00	43636.95
478.18	42897.34
478.36	42515.83
478.54	42946.49
478.72	42892.66
478.90	44332.09
479.08	45242.56
479.26	45556.19
479.44	45375.97
479.62	44982.76
479.80	45530.44
479.98	45549.17
480.16	45844.07
480.34	45390.01
480.52	45949.40
480.70	45858.12
480.88	45752.79
481.06	46873.91
481.24	47393.51
481.41	47714.16
481.59	47999.71
481.77	48385.89
481.95	47601.82
482.13	47271.80
482.31	47377.12
482.49	48144.82
482.67	47950.56
482.85	48217.38
483.03	49081.03
483.21	49221.47
483.39	49385.30
483.57	48442.07
483.74	47997.37
483.92	48449.09
484.10	48851.66
484.28	49968.10
484.46	49975.12
484.64	50171.72
484.82	49549.14
485.00	49048.27
485.18	48329.72
485.35	47234.35
485.53	43634.61
485.71	39735.27
485.89	39894.43
486.07	41780.90
486.25	45104.46
486.43	47533.94
486.61	47629.90
486.78	48069.92
486.96	48437.39
487.14	49752.77
487.32	50941.76
487.50	51442.63
487.68	52053.51
487.85	52886.74
488.03	52781.42
488.21	52238.42
488.39	51381.78
488.57	51363.06
488.75	50674.94
488.92	51861.59
489.10	54349.58
489.28	55075.15
489.46	55676.66
489.64	55185.15
489.81	55662.62
489.99	55199.19
490.17	55451.97
490.35	55856.88
490.53	55250.69
490.70	54820.03
490.88	54983.86
491.06	55679.00
491.24	55828.80
491.41	54607.04
491.59	53443.79
491.77	52793.12
491.95	53633.38
492.13	54649.17
492.30	55980.93
492.48	56736.93
492.66	57125.46
492.84	56891.40
493.01	56659.69
493.19	56212.65
493.37	56266.48
493.54	55791.35
493.72	56301.59
493.90	57289.29
494.08	57818.25
494.25	58195.08
494.43	58375.30
494.61	58670.21
494.79	58810.64
494.96	58356.58
495.14	57942.30
495.32	57088.01
495.49	56727.56
495.67	57705.91
495.85	58714.68
496.02	58995.54
496.20	58937.03
496.38	58590.63
496.55	58700.64
496.73	58885.54
496.91	59075.12
497.09	59414.50
497.26	59739.83
497.44	59147.68
497.62	58777.87
497.79	58309.77
497.97	56891.40
498.14	57193.33
498.32	58316.79
498.50	59032.99
498.67	59498.76
498.85	59386.41
499.03	59681.32
499.20	59861.54
499.38	59753.88
499.56	59774.94
499.73	59264.70
499.91	58937.03
500.08	58246.57
500.26	57759.74
500.44	58223.17
500.61	59007.25
500.79	58602.33
500.97	58351.90
501.14	58017.20
501.32	57991.45
501.49	58344.87
501.67	58262.96
501.84	58726.38
502.02	58958.09
502.20	59407.48
502.37	59384.07
502.55	59391.09
502.72	60013.68
502.90	60512.21
503.07	59994.95
503.25	59887.29
503.43	59035.33
503.60	58190.40
503.78	57551.43
503.95	58351.90
504.13	59494.08
504.30	60378.80
504.48	60161.13
504.65	59709.41
504.83	59737.49
505.01	60224.32
505.18	60591.79
505.36	61336.08
505.53	61350.12
505.71	61549.07
505.88	61614.60
506.06	61036.49
506.23	60528.59
506.41	60392.84
506.58	60657.32
506.76	60467.74
506.93	60413.91
507.11	60179.85
507.28	60273.48
507.46	59985.59
507.63	59412.16
507.81	59124.27
507.98	59519.82
508.16	60427.95
508.33	60680.73
508.50	60926.49
508.68	61256.50
508.85	61630.99
509.03	61848.66
509.20	61455.45
509.38	60823.50
509.55	60081.55
509.73	60257.09
509.90	60830.52
510.08	61069.26
510.25	60830.52
510.42	60633.92
510.60	60664.35
510.77	61038.83
510.95	61352.46
511.12	61453.11
511.30	61914.19
511.47	62150.59
511.64	62031.22
511.82	61829.93
511.99	60977.98
512.17	60516.89
512.34	60416.25
512.51	60315.61
512.69	60750.94
512.86	60577.75
513.04	61052.87
513.21	61066.92
513.38	60671.37
513.56	60296.88
513.73	59821.75
513.90	59725.79
514.08	59931.76
514.25	60278.16
514.43	60463.06
514.60	60633.92
514.77	60650.30
514.95	60566.04
515.12	60786.05
515.29	60975.64
515.47	61282.25
515.64	61446.08
515.81	61069.26
515.99	60512.21
516.16	59264.70
516.33	56956.94
516.51	56130.73
516.68	55367.71
516.85	54887.90
517.03	55421.55
517.20	57844.00
517.37	59992.61
517.54	60942.87
517.72	60271.14
517.89	57935.28
518.06	56088.60
518.24	56676.07
518.41	58323.81
518.58	59299.81
518.75	59718.77
518.93	59915.37
519.10	59529.19
519.27	60097.94
519.45	60315.61
519.62	61045.85
519.79	61422.68
519.96	61195.65
520.14	60701.79
520.31	60156.45
520.48	60053.47
520.65	60341.35
520.83	61226.07
521.00	61577.15
521.17	61258.84
521.34	60760.31
521.52	61258.84
521.69	61750.35
521.86	62063.99
522.03	61787.80
522.20	60327.31
522.38	59587.70
522.55	59753.88
522.72	60392.84
522.89	60273.48
523.07	60776.69
523.24	61052.87
523.41	61666.09
523.58	61890.79
523.75	62489.96
523.92	62241.87
524.10	62199.74
524.27	62101.43
524.44	61991.43
524.61	61719.93
524.78	61488.21
524.96	61640.35
525.13	61544.39
525.30	61815.89
525.47	62321.44
525.64	62092.07
525.81	61647.37
525.98	60163.47
526.16	58824.68
526.33	58295.72
526.50	58239.55
526.67	57738.68
526.84	58518.07
527.01	59121.93
527.18	59838.14
527.36	61010.74
527.53	61623.96
527.70	61759.72
527.87	61396.93
528.04	61050.53
528.21	61380.55
528.38	62012.49
528.55	62375.28
528.72	62733.38
528.89	62805.94
529.07	62546.14
529.24	62024.20
529.41	61212.03
529.58	60882.02
529.75	60919.46
529.92	61237.78
530.09	61904.83
530.26	62183.35
530.43	62700.61
530.60	62674.87
530.77	62677.21
530.94	62768.49
531.11	62328.47
531.28	62031.22
531.46	61895.47
531.63	62031.22
531.80	61776.10
531.97	61495.24
532.14	60882.02
532.31	59702.38
532.48	59290.45
532.65	59461.31
532.82	59959.84
532.99	61190.97
533.16	61403.95
533.33	62056.96
533.50	61766.74
533.67	61258.84
533.84	60914.78
534.01	61139.47
534.18	61151.18
534.35	61216.71
534.52	61378.21
534.69	61567.79
534.86	61757.38
535.03	62202.08
535.20	62606.99
535.37	62829.34
535.54	62742.74
535.71	62522.73
535.88	62045.26
536.05	61502.26
536.22	61183.94
536.38	60867.97
536.55	60542.64
536.72	60079.21
536.89	60072.19
537.06	60835.20
537.23	61623.96
537.40	61902.49
537.57	61680.14
537.74	61595.88
537.91	61441.40
538.08	61567.79
538.25	61425.02
538.42	61595.88
538.59	61586.52
538.75	60816.48
538.92	60748.60
539.09	60706.47
539.26	60388.16
539.43	60266.45
539.60	60245.39
539.77	60767.33
539.94	60425.61
540.11	59791.33
540.28	59388.75
540.44	59241.30
540.61	59433.22
540.78	59777.28
540.95	60329.65
541.12	60446.68
541.29	60860.95
541.46	61104.37
541.62	61190.97
541.79	60996.70
541.96	60484.12
542.13	60446.68
542.30	60802.44
542.47	60919.46
542.63	60692.43
542.80	60306.24
542.97	60584.77
543.14	60437.31
543.31	60495.83
543.48	60907.76
543.64	61591.20
543.81	61935.26
543.98	61652.05
544.15	61153.52
544.32	60444.33
544.48	60575.40
544.65	61172.24
544.82	61450.77
544.99	61186.28
545.16	60687.75
545.32	60563.70
545.49	61153.52
545.66	61584.18
545.83	61237.78
546.00	60849.25
546.16	60786.05
546.33	60582.43
546.50	60776.69
546.67	61141.81
546.83	60863.29
547.00	60687.75
547.17	60149.43
547.34	59517.48
547.50	59725.79
547.67	59894.31
547.84	60264.11
548.00	60540.30
548.17	61097.34
548.34	60748.60
548.51	60802.44
548.67	60788.39
548.84	60832.86
549.01	60626.90
549.18	60685.41
549.34	60701.79
549.51	60608.17
549.68	60449.02
549.84	60327.31
550.01	60259.43
550.18	60193.90
550.34	60282.84
550.51	60369.44
550.68	60561.36
550.84	59849.84
551.01	60203.26
551.18	59929.42
551.34	60154.11
551.51	60397.52
551.68	60846.91
551.84	60706.47
552.01	60542.64
552.18	60631.58
552.34	59913.03
552.51	59576.00
552.68	59402.80
552.84	59798.35
553.01	60074.53
553.18	59812.39
553.34	59833.46
553.51	60191.56
553.67	60409.23
553.84	60523.91
554.01	60624.56
554.17	60451.36
554.34	60261.77
554.51	60512.21
554.67	60645.62
554.84	60624.56
555.00	60432.63
555.17	59948.14
555.33	60133.04
555.50	60172.83
555.67	59924.74
555.83	59760.90
556.00	59662.60
556.16	59681.32
556.33	59295.13
556.50	59304.49
556.66	59447.27
556.83	58967.46
556.99	59126.61
557.16	59372.37
557.32	59650.89
557.49	59760.90
557.65	59655.57
557.82	59714.09
557.98	59414.50
558.15	58892.56
558.32	58195.08
558.48	57506.96
558.65	57792.51
558.81	58181.04
558.98	58391.68
559.14	58695.95
559.31	58684.25
559.47	58691.27
559.64	58445.52
559.80	58045.29
559.97	58089.76
560.13	58592.97
560.30	59428.54
560.46	59901.33
560.63	60135.38
560.79	60095.60
560.96	59547.91
561.12	58632.76
561.29	58073.37
561.45	57799.53
561.61	58410.41
561.78	58735.74
561.94	58653.82
562.11	58623.40
562.27	58632.76
562.44	58717.02
562.60	59173.42
562.77	59185.13
562.93	59379.39
563.10	59047.04
563.26	58618.72
563.42	58543.82
563.59	58361.26
563.75	58328.49
563.92	58607.01
564.08	58489.99
564.24	58639.78
564.41	58686.59
564.57	58541.48
564.74	58337.85
564.90	58398.71
565.07	57986.77
565.23	57731.65
565.39	57207.37
565.56	56994.39
565.72	57179.29
565.88	57499.94
566.05	57546.75
566.21	57741.02
566.38	57797.19
566.54	57762.08
566.70	58195.08
566.87	58653.82
567.03	58298.06
567.19	58728.72
567.36	58440.84
567.52	58080.39
567.68	57851.02
567.85	57333.76
568.01	57083.33
568.17	56690.12
568.34	56809.48
568.50	56715.86
568.66	56900.76
568.83	57153.54
568.99	57247.16
569.15	57467.17
569.32	57553.77
569.48	57123.11
569.64	56956.94
569.81	56643.30
569.97	56912.47
570.13	56687.78
570.30	56142.43
570.46	55882.63
570.62	55199.19
570.78	55157.06
570.95	55636.87
571.11	56413.93
571.27	56137.75
571.43	56491.17
571.60	57097.37
571.76	56996.73
571.92	56999.07
572.09	57359.51
572.25	57270.57
572.41	57265.89
572.57	57066.94
572.74	57155.88
572.90	56823.53
573.06	56853.95
573.22	56928.85
573.38	56877.36
573.55	56875.02
573.71	56755.65
573.87	56767.35
574.03	56617.56
574.20	56591.81
574.36	56559.05
574.52	56254.78
574.68	56104.98
574.84	55774.97
575.01	55402.82
575.17	55629.85
575.33	55704.75
575.49	55931.78
575.65	55983.27
575.82	55646.24
575.98	55412.18
576.14	55725.81
576.30	55817.10
576.46	56350.74
576.62	56020.72
576.79	55997.32
576.95	56030.08
577.11	55751.56
577.27	55957.53
577.43	55789.01
577.59	55554.96
577.75	55182.81
577.92	54578.95
578.08	54394.05
578.24	54583.63
578.40	54492.35
578.56	54712.36
578.72	54962.80
578.88	54944.08
579.04	55466.02
579.21	55241.32
579.37	55451.97
579.53	55388.78
579.69	55316.22
579.85	55519.85
580.01	55297.50
580.17	54955.78
580.33	54695.98
580.49	55037.70
580.65	55449.63
580.82	55468.36
580.98	55559.64
581.14	55246.00
581.30	55519.85
581.46	55269.41
581.62	55458.99
581.78	55604.11
581.94	55648.58
582.10	55632.19
582.26	55929.44
582.42	55524.53
582.58	55512.83
582.74	55531.55
582.90	55679.00
583.06	55756.24
583.22	55437.93
583.38	55391.12
583.54	55360.69
583.70	55152.38
583.86	55199.19
584.02	54997.91
584.18	55283.45
584.34	54948.76
584.50	55037.70
584.66	54871.52
584.82	54784.92
584.98	54497.03
585.14	54047.65
585.30	53577.20
