SpectraSuite Data File
++++++++++++++++++++++++++++++++++++
Date: Mon Oct 07 14:53:05 GMT-05:00 2013
User: price-jones
Dark Spectrum Present: No
Reference Spectrum Present: No
Number of Sampled Component Spectra: 1
Spectrometers: USB2+H05261
Integration Time (usec): 100000 (USB2+H05261)
Spectra Averaged: 1 (USB2+H05261)
Boxcar Smoothing: 0 (USB2+H05261)
Correct for Electrical Dark: No (USB2+H05261)
Strobe/Lamp Enabled: No (USB2+H05261)
Correct for Detector Non-linearity: No (USB2+H05261)
Correct for Stray Light: No (USB2+H05261)
Number of Pixels in Processed Spectrum: 2048
>>>>>Begin Processed Spectral Data<<<<<
365.73	0.00
365.92	0.00
366.12	0.00
366.32	0.00
366.52	0.00
366.72	0.00
366.91	0.00
367.11	0.00
367.31	0.00
367.51	0.00
367.70	0.00
367.90	0.00
368.10	0.00
368.30	0.00
368.49	0.00
368.69	0.00
368.89	0.00
369.09	0.00
369.28	0.00
369.48	0.00
369.68	0.00
369.87	0.00
370.07	0.00
370.27	0.00
370.47	496.19
370.66	2715.02
370.86	2946.73
371.06	3410.16
371.25	3253.34
371.45	3052.06
371.65	2729.06
371.84	2590.97
372.04	2595.65
372.24	2916.31
372.44	3091.85
372.63	3066.10
372.83	2935.03
373.03	2616.72
373.22	2370.96
373.42	2387.35
373.62	2754.81
373.81	3026.31
374.01	3133.98
374.21	2876.52
374.40	2607.36
374.60	2738.43
374.79	3059.08
374.99	3545.91
375.19	3925.08
375.38	3801.03
375.58	3698.05
375.78	3592.72
375.97	3700.39
376.17	3700.39
376.37	3810.39
376.56	3920.40
376.76	3981.25
376.95	4414.25
377.15	4564.04
377.35	4573.41
377.54	5135.14
377.74	4987.68
377.93	5128.11
378.13	5036.83
378.33	4718.52
378.52	4374.46
378.72	4194.24
378.91	4107.64
379.11	3974.23
379.31	3833.80
379.50	3754.22
379.70	4252.75
379.89	4683.41
380.09	4837.89
380.28	5081.30
380.48	4889.38
380.68	4994.70
380.87	4807.46
381.07	4416.59
381.26	4018.70
381.46	3742.52
381.65	3576.34
381.85	3531.87
382.04	3400.80
382.24	3241.64
382.43	2935.03
382.63	2913.97
382.83	2984.18
383.02	3040.36
383.22	3068.44
383.41	3103.55
383.61	3243.98
383.80	3723.79
384.00	4180.20
384.19	4699.80
384.39	4997.04
384.58	4873.00
384.78	4851.93
384.97	4880.02
385.17	4416.59
385.36	4369.78
385.56	3953.16
385.75	4231.69
385.95	4557.02
386.14	5163.22
386.34	4994.70
386.53	4821.50
386.72	4442.34
386.92	4652.98
387.11	4809.80
387.31	5104.71
387.50	4959.60
387.70	4809.80
387.89	4709.16
388.09	4762.99
388.28	4880.02
388.48	4938.53
388.67	5298.97
388.86	5652.39
389.06	6085.39
389.25	6415.41
389.45	6593.29
389.64	6612.01
389.84	6483.28
390.03	6366.26
390.22	6354.55
390.42	6530.09
390.61	7155.02
390.81	7342.26
391.00	7688.66
391.19	7658.23
391.39	7288.43
391.58	7040.33
391.78	6525.41
391.97	6340.51
392.16	5933.26
392.36	5315.36
392.55	4266.80
392.75	3384.41
392.94	2806.30
393.13	2864.82
393.33	3349.31
393.52	4285.52
393.71	5327.06
393.91	5909.85
394.10	6394.34
394.29	6930.33
394.49	7475.67
394.68	8030.38
394.88	8177.83
395.07	8430.61
395.26	8241.03
395.46	7950.80
395.65	7506.10
395.84	6670.53
396.04	5591.54
396.23	4484.47
396.42	3714.43
396.62	3566.98
396.81	4355.74
397.00	5479.19
397.19	6909.26
397.39	8063.15
397.58	9020.42
397.77	9607.90
397.97	10101.75
398.16	10150.90
398.35	10363.89
398.55	10860.09
398.74	11265.00
398.93	11400.75
399.12	11052.01
399.32	10729.02
399.51	11073.07
399.70	11798.64
399.90	11733.11
400.09	11646.51
400.28	11506.07
400.47	11653.53
400.67	12236.32
400.86	12795.71
401.05	12732.51
401.24	12372.07
401.44	12884.65
401.63	12945.50
401.82	12830.82
402.01	13069.55
402.21	13095.30
402.40	13324.67
402.59	12793.37
402.78	12107.59
402.97	11641.82
403.17	12428.24
403.36	12971.25
403.55	13605.53
403.74	13851.29
403.93	13146.79
404.13	12233.98
404.32	12084.19
404.51	12512.50
404.70	13532.98
404.89	13277.86
405.09	13109.34
405.28	12774.64
405.47	12816.77
405.66	12870.61
405.85	12505.48
406.05	12142.70
406.24	12358.03
406.43	12901.03
406.62	13053.17
406.81	13420.63
407.00	12915.08
407.20	12409.52
407.39	12760.60
407.58	13415.95
407.77	13867.67
407.96	14195.35
408.15	14485.58
408.34	14401.32
408.54	14862.40
408.73	15063.69
408.92	14911.55
409.11	14401.32
409.30	13802.14
409.49	13114.02
409.68	12229.30
409.87	11885.24
410.07	12648.26
410.26	13652.34
410.45	14380.25
410.64	14750.06
410.83	15112.84
411.02	15625.42
411.21	16475.03
411.40	15730.74
411.59	16187.14
411.78	15857.13
411.98	15882.88
412.17	15903.94
412.36	15899.26
412.55	15697.97
412.74	15618.39
412.93	15293.06
413.12	15192.42
413.31	16748.87
413.50	17076.55
413.69	17228.68
413.88	16285.45
414.07	15733.08
414.26	16203.53
414.45	16901.01
414.64	16741.85
414.83	16931.44
415.02	16191.83
415.22	16648.23
415.41	17003.99
415.60	17380.82
415.79	18057.23
415.98	18408.31
416.17	18361.50
416.36	18258.52
416.55	17759.98
416.74	17317.62
416.93	16622.48
417.12	16599.08
417.31	17048.46
417.50	17078.89
417.69	17795.09
417.88	17708.49
418.07	17724.88
418.26	17451.03
418.45	17282.52
418.64	18073.62
418.83	18693.86
419.02	18286.61
419.21	18417.68
419.39	17048.46
419.58	16673.98
419.77	16695.04
419.96	17549.34
420.15	18824.93
420.34	19054.30
420.53	19459.21
420.72	19957.75
420.91	19927.32
421.10	19571.56
421.29	19550.49
421.48	18766.42
421.67	19367.93
421.86	19110.47
422.05	17731.90
422.24	15903.94
422.43	15995.22
422.61	17652.32
422.80	18972.38
422.99	18988.77
423.18	18314.69
423.37	17874.67
423.56	17977.65
423.75	18487.89
423.94	18960.68
424.13	17612.53
424.32	17568.06
424.50	17841.90
424.69	17834.88
424.88	17680.41
425.07	17460.40
425.26	17516.57
425.45	17500.19
425.64	16971.22
425.83	17401.88
426.01	18204.69
426.20	18665.77
426.39	18583.85
426.58	17235.70
426.77	15857.13
426.96	15328.17
427.15	15882.88
427.33	17493.16
427.52	17757.64
427.71	17989.36
427.90	17436.99
428.09	17605.51
428.28	17139.74
428.46	16528.86
428.65	16465.67
428.84	16753.55
429.03	16929.09
429.22	16297.15
429.40	15112.84
429.59	13823.20
429.78	12219.94
429.97	12482.08
430.16	12547.61
430.34	12652.94
430.53	12351.01
430.72	12989.97
430.91	14235.14
431.10	16805.05
431.28	19536.45
431.47	21329.30
431.66	21429.94
431.85	19391.34
432.03	17919.14
432.22	17341.03
432.41	17926.16
432.60	20025.62
432.79	20315.85
432.97	20896.30
433.16	20563.95
433.35	18576.83
433.54	16835.47
433.72	15826.70
433.91	16601.42
434.10	18305.33
434.28	19566.88
434.47	20805.02
434.66	20437.56
434.85	19822.00
435.03	19711.99
435.22	20259.68
435.41	21722.51
435.59	21432.29
435.78	22204.66
435.97	22408.29
436.16	22349.78
436.34	21914.44
436.53	21504.84
436.72	22010.40
436.90	20617.78
437.09	20362.66
437.28	19962.43
437.46	21018.01
437.65	21104.61
437.84	19468.58
438.02	17909.78
438.21	17762.33
438.40	18625.98
438.58	20528.84
438.77	20961.84
438.96	21111.63
439.14	22307.65
439.33	22689.15
439.52	23016.83
439.70	22094.66
439.89	21682.72
440.08	21160.78
440.26	21055.46
440.45	22284.24
440.63	23133.86
440.82	24706.70
441.01	24306.46
441.19	23908.57
441.38	24570.94
441.57	25298.85
441.75	25371.41
441.94	25802.07
442.12	25336.30
442.31	25874.62
442.50	25895.69
442.68	25465.03
442.87	25165.44
443.05	24725.42
443.24	25558.65
443.43	26005.69
443.61	26396.56
443.80	26892.76
443.98	25406.52
444.17	25191.19
444.35	26738.28
444.54	27262.56
444.73	27065.96
444.91	25469.71
445.10	24690.31
445.28	23744.73
445.47	23063.64
445.65	23473.23
445.84	24383.70
446.02	25195.87
446.21	25158.42
446.39	25645.25
446.58	25865.26
446.77	26068.89
446.95	26544.02
447.14	27129.15
447.32	27428.74
447.51	27147.87
447.69	25699.08
447.88	25476.73
448.06	25951.86
448.25	26691.47
448.43	26927.86
448.62	25862.92
448.80	26239.75
448.99	26436.35
449.17	26419.97
449.36	26415.29
449.54	27510.66
449.73	27857.06
449.91	28247.93
450.10	29408.83
450.28	29252.02
450.46	29156.05
450.65	29252.02
450.83	28849.44
451.02	28100.47
451.20	28393.04
451.39	28308.78
451.57	28088.77
451.76	28091.11
451.94	27910.89
452.13	26993.40
452.31	26096.97
452.49	24992.24
452.68	25408.86
452.86	25469.71
453.05	25668.66
453.23	26445.71
453.42	26749.98
453.60	27391.29
453.78	28191.75
453.97	27714.28
454.15	27545.76
454.34	27171.28
454.52	26974.67
454.70	26611.89
454.89	26986.38
455.07	27187.66
455.26	27632.36
455.44	28723.05
455.62	29064.77
455.81	29502.45
455.99	29032.00
456.17	28561.56
456.36	28905.62
456.54	29425.22
456.73	29317.55
456.91	30309.94
457.09	30068.86
457.28	30749.96
457.46	29247.33
457.64	29256.70
457.83	28465.60
458.01	27796.20
458.19	28449.21
458.38	28893.91
458.56	29682.67
458.74	29310.53
458.93	29195.84
459.11	28683.27
459.29	28797.95
459.48	29055.41
459.66	28929.02
459.84	29158.39
460.03	29860.55
460.21	29689.70
460.39	30176.53
460.57	30043.12
460.76	30820.17
460.94	30794.43
461.12	30120.35
461.31	30614.21
461.49	30167.16
461.67	30246.74
461.85	31077.63
462.04	30609.53
462.22	31732.98
462.40	30888.05
462.59	30600.16
462.77	31072.95
462.95	30904.43
463.13	30817.83
463.32	30284.19
463.50	30263.13
463.68	30230.36
463.86	29972.90
464.05	29832.47
464.23	28966.47
464.41	29259.04
464.59	28631.77
464.78	30073.54
464.96	30019.71
465.14	29605.44
465.32	30396.54
465.50	31475.52
465.69	31943.63
465.87	30808.47
466.05	29947.15
466.23	28575.60
466.41	27730.67
466.60	29195.84
466.78	28767.52
466.96	29516.50
467.14	29996.31
467.32	30361.43
467.51	30480.80
467.69	28816.68
467.87	29453.30
468.05	29771.61
468.23	29940.13
468.41	30029.07
468.60	29975.24
468.78	30249.08
468.96	29827.79
469.14	30632.93
469.32	30661.02
469.50	29233.29
469.69	29610.12
469.87	29046.05
470.05	28905.62
470.23	29212.23
470.41	29163.08
470.59	29919.07
470.77	29986.94
470.95	30602.50
471.14	30733.57
471.32	30925.50
471.50	32484.30
471.68	32521.74
471.86	32659.84
472.04	33024.96
472.22	33282.42
472.40	31426.37
472.58	31466.16
472.77	31171.25
472.95	31796.18
473.13	32418.76
473.31	31754.05
473.49	31665.11
473.67	32266.63
473.85	32580.26
474.03	33467.32
474.21	33308.16
474.39	33881.60
474.57	34099.26
474.75	33640.52
474.93	34003.30
475.12	33031.98
475.30	32746.44
475.48	33500.09
475.66	33656.90
475.84	33340.93
476.02	32903.25
476.20	32465.57
476.38	32720.69
476.56	33914.36
476.74	34558.01
476.92	35068.25
477.10	35218.04
477.28	36077.02
477.46	36187.02
477.64	36435.12
477.82	36456.18
478.00	36584.91
478.18	35974.03
478.36	36208.09
478.54	35915.52
478.72	36484.27
478.90	37291.76
479.08	38270.10
479.26	39075.24
479.44	38450.32
479.62	38277.12
479.80	38246.69
479.98	38829.49
480.16	38916.09
480.34	38120.31
480.52	38794.38
480.70	39009.71
480.88	39026.09
481.06	39988.05
481.24	39856.98
481.41	41083.42
481.59	41074.06
481.77	41373.65
481.95	40437.44
482.13	40299.34
482.31	40797.88
482.49	41741.11
482.67	41287.05
482.85	41462.59
483.03	41827.71
483.21	42506.47
483.39	42417.53
483.57	42019.64
483.74	41614.72
483.92	41720.05
484.10	41851.12
484.28	42801.38
484.46	43636.95
484.64	43943.56
484.82	42691.37
485.00	41839.42
485.18	41476.63
485.35	40069.97
485.53	36840.03
485.71	33713.08
485.89	33797.34
486.07	35459.12
486.25	38246.69
486.43	40297.00
486.61	41078.74
486.78	41134.92
486.96	41708.35
487.14	42990.96
487.32	44203.36
487.50	45249.58
487.68	46115.58
487.85	46756.88
488.03	46258.35
488.21	46279.41
488.39	45399.37
488.57	44577.84
488.75	44156.55
488.92	45595.98
489.10	48240.78
489.28	49518.71
489.46	50333.22
489.64	49937.67
489.81	50497.06
489.99	49748.09
490.17	49822.98
490.35	50176.40
490.53	49652.12
490.70	49511.69
490.88	49308.07
491.06	50284.07
491.24	50328.54
491.41	49172.31
491.59	47143.07
491.77	46312.18
491.95	47894.38
492.13	48879.75
492.30	50272.37
492.48	51370.08
492.66	51810.10
492.84	51718.82
493.01	51590.09
493.19	50906.65
493.37	50424.50
493.54	50270.03
493.72	51203.90
493.90	52442.04
494.08	53289.32
494.25	53289.32
494.43	53462.52
494.61	53958.71
494.79	54021.90
494.96	53785.51
495.14	53095.05
495.32	52219.69
495.49	51351.35
495.67	52722.91
495.85	54073.40
496.02	54499.37
496.20	54344.90
496.38	53853.39
496.55	53727.00
496.73	54440.86
496.91	54452.56
497.09	54787.26
497.26	55215.58
497.44	54644.49
497.62	54108.50
497.79	53488.26
497.97	51999.68
498.14	52081.60
498.32	53228.46
498.50	54258.30
498.67	55255.37
498.85	54607.04
499.03	54574.27
499.20	55096.21
499.38	55063.44
499.56	55082.17
499.73	54447.88
499.91	54024.25
500.08	53734.02
500.26	52729.93
500.44	53504.65
500.61	53998.50
500.79	53757.42
500.97	53656.78
501.14	53319.74
501.32	53041.22
501.49	53301.02
501.67	53394.64
501.84	54047.65
502.02	54314.47
502.20	54780.24
502.37	54995.57
502.55	55028.34
502.72	55379.42
502.90	55655.60
503.07	55482.40
503.25	55098.55
503.43	54216.17
503.60	53277.61
503.78	52865.68
503.95	53357.19
504.13	54981.52
504.30	55725.81
504.48	55311.54
504.65	55196.85
504.83	55168.77
505.01	55945.83
505.18	56306.27
505.36	56860.97
505.53	56863.32
505.71	57134.82
505.88	57195.67
506.06	56374.14
506.23	56002.00
506.41	55777.31
506.58	56142.43
506.76	55936.46
506.93	55700.07
507.11	55730.50
507.28	55847.52
507.46	55428.57
507.63	54887.90
507.81	54726.41
507.98	54871.52
508.16	55681.34
508.33	56006.68
508.50	56435.00
508.68	56924.17
508.85	57429.72
509.03	57268.23
509.20	57106.73
509.38	56229.03
509.55	55742.20
509.73	55625.17
509.90	56301.59
510.08	56299.25
510.25	56453.72
510.42	56374.14
510.60	56289.88
510.77	56397.55
510.95	57174.61
511.12	57249.50
511.30	57291.63
511.47	57939.96
511.64	57556.11
511.82	57275.25
511.99	56327.33
512.17	56058.17
512.34	55643.90
512.51	55929.44
512.69	56037.11
512.86	56266.48
513.04	56774.37
513.21	56549.68
513.38	56374.14
513.56	55683.69
513.73	55131.32
513.90	55346.65
514.08	55449.63
514.25	55964.55
514.43	56034.77
514.60	56069.87
514.77	56144.77
514.95	56339.04
515.12	56236.05
515.29	56484.15
515.47	56896.08
515.64	57071.62
515.81	56629.26
515.99	56062.85
516.16	54450.22
516.33	51931.81
516.51	50604.72
516.68	49624.04
516.85	48708.89
517.03	49813.62
517.20	53041.22
517.37	55192.17
517.54	56233.71
517.72	55709.43
517.89	53095.05
518.06	50131.93
518.24	51463.70
518.41	53441.45
518.58	54932.37
518.75	55047.06
518.93	55428.57
519.10	54932.37
519.27	55356.01
519.45	56121.37
519.62	56697.14
519.79	56882.04
519.96	56650.33
520.14	55971.57
520.31	55435.59
520.48	55515.17
520.65	55875.61
520.83	56821.19
521.00	56828.21
521.17	56666.71
521.34	56500.53
521.52	56493.51
521.69	57226.10
521.86	57726.97
522.03	57284.61
522.20	55999.66
522.38	54997.91
522.55	54990.89
522.72	55765.60
522.89	55702.41
523.07	56243.07
523.24	56423.29
523.41	57352.49
523.58	57635.69
523.75	58064.01
523.92	57832.30
524.10	57916.56
524.27	57907.19
524.44	57649.74
524.61	57312.70
524.78	57418.02
524.96	56835.23
525.13	57190.99
525.30	57333.76
525.47	57881.45
525.64	57762.08
525.81	57169.93
525.98	55327.92
526.16	54127.23
526.33	53375.92
526.50	52861.00
526.67	52617.58
526.84	53586.57
527.01	54335.54
527.18	55477.72
527.36	56093.28
527.53	57336.10
527.70	57357.17
527.87	56765.01
528.04	56549.68
528.21	56879.70
528.38	57560.79
528.55	58024.22
528.72	58398.71
528.89	58665.53
529.07	58253.59
529.24	57474.20
529.41	56896.08
529.58	56189.24
529.75	56435.00
529.92	56802.46
530.09	57223.76
530.26	57975.07
530.43	57991.45
530.60	58171.67
530.77	58216.14
530.94	58511.05
531.11	58012.52
531.28	57513.98
531.46	57385.25
531.63	57560.79
531.80	57474.20
531.97	56928.85
532.14	56282.86
532.31	55126.64
532.48	54588.31
532.65	54291.07
532.82	55618.15
532.99	56575.43
533.16	57031.83
533.33	57663.78
533.50	57336.10
533.67	56456.06
533.84	56301.59
534.01	56505.21
534.18	56690.12
534.35	57127.80
534.52	56514.58
534.69	57020.13
534.86	57221.42
535.03	57787.83
535.20	58164.65
535.37	58452.54
535.54	58429.13
535.71	57914.22
535.88	57701.23
536.05	57041.20
536.22	56631.60
536.38	56488.83
536.55	55997.32
536.72	55372.39
536.89	55304.52
537.06	56268.82
537.23	56928.85
537.40	57296.31
537.57	57293.97
537.74	56992.04
537.91	57251.84
538.08	57153.54
538.25	57010.77
538.42	57111.41
538.59	57062.26
538.75	56402.23
538.92	56257.12
539.09	56060.51
539.26	55913.06
539.43	55536.23
539.60	56055.83
539.77	56016.04
539.94	55973.91
540.11	55133.66
540.28	54216.17
540.44	54810.67
540.61	55054.08
540.78	55159.41
540.95	55725.81
541.12	55884.97
541.29	56264.14
541.46	56605.86
541.62	56772.03
541.79	56196.26
541.96	55917.74
542.13	55866.25
542.30	56203.28
542.47	56250.09
542.63	55887.31
542.80	55688.37
542.97	55828.80
543.14	55777.31
543.31	55655.60
543.48	56650.33
543.64	57059.92
543.81	57411.00
543.98	57155.88
544.15	56402.23
544.32	56065.19
544.48	56212.65
544.65	56533.30
544.82	56884.38
544.99	56488.83
545.16	55922.42
545.32	55856.88
545.49	56968.64
545.66	57036.51
545.83	56589.47
546.00	56425.64
546.16	55922.42
546.33	56205.62
546.50	56184.56
546.67	56713.52
546.83	56034.77
547.00	56184.56
547.17	55550.27
547.34	54937.05
547.50	54988.55
547.67	55669.64
547.84	55372.39
548.00	55746.88
548.17	56334.35
548.34	56144.77
548.51	56346.06
548.67	56217.33
548.84	56203.28
549.01	56020.72
549.18	56100.30
549.34	56032.42
549.51	55985.61
549.68	55913.06
549.84	55585.38
550.01	55627.51
550.18	55463.67
550.34	55711.77
550.51	55601.77
550.68	55899.01
550.84	55093.87
551.01	55386.44
551.18	55505.80
551.34	55440.27
551.51	55835.82
551.68	56322.65
551.84	56257.12
552.01	55838.16
552.18	55880.29
552.34	54958.12
552.51	54808.32
552.68	54674.91
552.84	55356.01
553.01	55386.44
553.18	55220.26
553.34	55648.58
553.51	55786.67
553.67	55728.16
553.84	55931.78
554.01	55899.01
554.17	55583.04
554.34	55753.90
554.51	55929.44
554.67	56189.24
554.84	55929.44
555.00	55583.04
555.17	55381.76
555.33	55281.11
555.50	55145.36
555.67	55578.36
555.83	55105.57
556.00	54714.70
556.16	54742.79
556.33	54333.20
556.50	54419.80
556.66	54490.01
556.83	54012.54
556.99	54169.36
557.16	54225.53
557.32	54735.77
557.49	55061.10
557.65	54885.56
557.82	54981.52
557.98	54593.00
558.15	53918.92
558.32	53125.48
558.48	52451.41
558.65	52928.87
558.81	52875.04
558.98	53609.97
559.14	53829.98
559.31	53499.97
559.47	53897.86
559.64	53202.72
559.80	52968.66
559.97	52978.03
560.13	53722.32
560.30	54431.50
560.46	55065.78
560.63	55168.77
560.79	55311.54
560.96	54735.77
561.12	53762.11
561.29	52535.66
561.45	52762.70
561.61	53687.21
561.78	53911.90
561.94	53687.21
562.11	53401.66
562.27	53432.09
562.44	53947.01
562.60	54089.78
562.77	54216.17
562.93	54176.38
563.10	54241.92
563.26	53605.29
563.42	53577.20
563.59	53441.45
563.75	53464.86
563.92	53312.72
564.08	53216.76
564.24	53694.23
564.41	53722.32
564.57	53602.95
564.74	53467.20
564.90	53446.13
565.07	53195.70
565.23	52685.46
565.39	52364.81
565.56	51838.18
565.72	51885.00
565.88	51847.55
566.05	52317.99
566.21	52409.28
566.38	52547.37
566.54	52980.37
566.70	52996.75
566.87	53558.48
567.03	53359.53
567.19	53490.60
567.36	53153.57
567.52	53057.60
567.68	53109.10
567.85	51852.23
568.01	51798.40
568.17	51246.03
568.34	51337.31
568.50	51442.63
568.66	51466.04
568.83	51882.66
568.99	52112.03
569.15	52378.85
569.32	52353.10
569.48	51842.87
569.64	51852.23
569.81	51391.14
569.97	51269.43
570.13	51182.84
570.30	50801.33
570.46	49722.34
570.62	49745.75
570.78	49364.24
570.95	49907.24
571.11	50916.01
571.27	50728.77
571.43	50976.87
571.60	51236.67
571.76	51615.83
571.92	52018.41
572.09	52095.64
572.25	51990.32
572.41	52266.50
572.57	51910.74
572.74	51798.40
572.90	51159.43
573.06	51526.89
573.22	51363.06
573.38	51620.52
573.55	51421.57
573.71	51608.81
573.87	51491.79
574.03	51363.06
574.20	51363.06
574.36	50635.15
574.52	50810.69
574.68	50384.71
574.84	50108.53
575.01	49523.40
575.17	49638.08
575.33	50021.93
575.49	50328.54
575.65	50209.17
575.82	50223.22
575.98	49780.85
576.14	50368.33
576.30	50527.48
576.46	50529.83
576.62	50586.00
576.79	50120.23
576.95	50244.28
577.11	50160.02
577.27	50361.31
577.43	50309.82
577.59	49631.06
577.75	49186.36
577.92	48797.83
578.08	48409.30
578.24	48882.09
578.40	48863.36
578.56	48996.77
578.72	49429.77
578.88	49368.92
579.04	49687.23
579.21	49464.88
579.37	49715.32
579.53	49874.48
579.69	49832.35
579.85	49968.10
580.01	49862.77
580.17	49043.59
580.33	48851.66
580.49	49291.68
580.65	49448.50
580.82	49783.19
580.98	49626.38
581.14	49373.60
581.30	49628.72
581.46	49558.50
581.62	49996.18
581.78	49764.47
581.94	49865.11
582.10	49851.07
582.26	49778.51
582.42	50218.53
582.58	49961.08
582.74	49787.88
582.90	49748.09
583.06	49822.98
583.22	49822.98
583.38	49467.22
583.54	49567.87
583.70	49551.48
583.86	49626.38
584.02	49495.31
584.18	49544.46
584.34	49371.26
584.50	49148.91
584.66	49263.60
584.82	48765.06
584.98	48411.64
585.14	48215.04
585.30	47377.12
