SpectraSuite Data File
++++++++++++++++++++++++++++++++++++
Date: Mon Oct 07 14:53:31 GMT-05:00 2013
User: price-jones
Dark Spectrum Present: No
Reference Spectrum Present: No
Number of Sampled Component Spectra: 1
Spectrometers: USB2+H05261
Integration Time (usec): 100000 (USB2+H05261)
Spectra Averaged: 1 (USB2+H05261)
Boxcar Smoothing: 0 (USB2+H05261)
Correct for Electrical Dark: No (USB2+H05261)
Strobe/Lamp Enabled: No (USB2+H05261)
Correct for Detector Non-linearity: No (USB2+H05261)
Correct for Stray Light: No (USB2+H05261)
Number of Pixels in Processed Spectrum: 2048
>>>>>Begin Processed Spectral Data<<<<<
365.73	0.00
365.92	0.00
366.12	0.00
366.32	0.00
366.52	0.00
366.72	0.00
366.91	0.00
367.11	0.00
367.31	0.00
367.51	0.00
367.70	0.00
367.90	0.00
368.10	0.00
368.30	0.00
368.49	0.00
368.69	0.00
368.89	0.00
369.09	0.00
369.28	0.00
369.48	0.00
369.68	0.00
369.87	0.00
370.07	0.00
370.27	0.00
370.47	528.96
370.66	2881.20
370.86	3363.35
371.06	3791.67
371.25	3815.07
371.45	3487.40
371.65	3068.44
371.84	2920.99
372.04	3091.85
372.24	3494.42
372.44	3574.00
372.63	3520.17
372.83	3166.74
373.03	2834.39
373.22	2539.48
373.42	2794.60
373.62	3180.79
373.81	3454.63
374.01	3386.76
374.21	3070.78
374.40	2867.16
374.60	3070.78
374.79	3335.26
374.99	3957.85
375.19	4264.46
375.38	4308.93
375.58	3997.64
375.78	4016.36
375.97	4140.41
376.17	4285.52
376.37	4126.36
376.56	4306.59
376.76	4510.21
376.95	4873.00
377.15	5095.35
377.35	5383.23
377.54	5633.67
377.74	5886.45
377.93	5947.30
378.13	5579.84
378.33	5458.13
378.52	4959.60
378.72	4737.24
378.91	4660.01
379.11	4533.62
379.31	4304.25
379.50	4365.10
379.70	4706.82
379.89	5118.75
380.09	5526.00
380.28	5633.67
380.48	5514.30
380.68	5544.73
380.87	5444.09
381.07	4865.97
381.26	4608.51
381.46	4346.37
381.65	4304.25
381.85	4173.18
382.04	3730.81
382.24	3590.38
382.43	3412.50
382.63	3375.05
382.83	3356.33
383.02	3309.52
383.22	3478.04
383.41	3426.54
383.61	3705.07
383.80	4107.64
384.00	4727.88
384.19	5423.02
384.39	5540.05
384.58	5493.24
384.78	5434.72
384.97	5418.34
385.17	5174.92
385.36	5020.45
385.56	4699.80
385.75	4730.22
385.95	5263.86
386.14	5813.89
386.34	5764.74
386.53	5420.68
386.72	5261.52
386.92	5277.91
387.11	5511.96
387.31	5928.58
387.50	5961.34
387.70	5486.22
387.89	5376.21
388.09	5348.12
388.28	5507.28
388.48	5586.86
388.67	5916.87
388.86	6565.20
389.06	7192.47
389.25	7447.58
389.45	7543.55
389.64	7377.37
389.84	7454.61
390.03	7227.57
390.22	7265.02
390.42	7489.71
390.61	7920.37
390.81	8643.60
391.00	8648.28
391.19	8739.56
391.39	8554.66
391.58	8039.74
391.78	7508.44
391.97	6979.48
392.16	6719.68
392.36	6092.41
392.55	4887.04
392.75	3801.03
392.94	3267.39
393.13	3194.83
393.33	3861.88
393.52	4847.25
393.71	5874.74
393.91	6602.65
394.10	7215.87
394.29	7754.19
394.49	8629.56
394.68	9114.05
394.88	9064.89
395.07	9614.92
395.26	9362.14
395.46	8966.59
395.65	8664.66
395.84	7581.00
396.04	6427.11
396.23	5308.34
396.42	4257.43
396.62	4152.11
396.81	4943.21
397.00	6064.33
397.19	7681.64
397.39	9095.32
397.58	10471.56
397.77	10923.28
397.97	11391.39
398.16	11641.82
398.35	11978.86
398.55	12205.89
398.74	12725.49
398.93	13242.75
399.12	12926.78
399.32	12472.71
399.51	12758.26
399.70	13607.87
399.90	13378.50
400.09	13481.49
400.28	13224.03
400.47	13497.87
400.67	13965.98
400.86	14478.55
401.05	14429.40
401.24	14321.74
401.44	14654.09
401.63	14642.39
401.82	14766.44
402.01	14707.93
402.21	14956.02
402.40	14977.09
402.59	14471.53
402.78	13855.97
402.97	13453.40
403.17	13879.38
403.36	14731.33
403.55	15360.94
403.74	15737.76
403.93	14899.85
404.13	13862.99
404.32	13650.00
404.51	14207.05
404.70	15236.89
404.89	15248.59
405.09	15016.88
405.28	14532.39
405.47	14864.74
405.66	14747.72
405.85	14272.59
406.05	13839.59
406.24	14085.34
406.43	14377.91
406.62	15161.99
406.81	15197.10
407.00	14703.25
407.20	14403.66
407.39	14705.59
407.58	14991.13
407.77	15807.98
407.96	16563.97
408.15	16390.77
408.34	16475.03
408.54	17205.28
408.73	17699.13
408.92	16999.31
409.11	16596.74
409.30	16018.63
409.49	15227.53
409.68	13804.48
409.87	13474.46
410.07	14218.75
410.26	15012.20
410.45	16535.88
410.64	16762.92
410.83	17432.31
411.02	17692.11
411.21	18310.01
411.40	18295.97
411.59	18204.69
411.78	18101.70
411.98	17877.01
412.17	18232.77
412.36	17855.95
412.55	17851.27
412.74	17310.60
412.93	17088.25
413.12	17163.15
413.31	18986.43
413.50	19150.26
413.69	19377.30
413.88	18806.20
414.07	18586.19
414.26	18429.38
414.45	19183.03
414.64	19421.77
414.83	19456.87
415.02	18930.25
415.22	18768.76
415.41	19419.42
415.60	19798.59
415.79	20709.06
415.98	21329.30
416.17	21226.32
416.36	20662.25
416.55	20327.55
416.74	19793.91
416.93	18871.74
417.12	18801.52
417.31	19295.38
417.50	19672.20
417.69	20365.00
417.88	20053.71
418.07	19810.29
418.26	19836.04
418.45	19920.30
418.64	20732.47
418.83	21460.37
419.02	21177.17
419.21	21212.28
419.39	20091.16
419.58	18806.20
419.77	19112.81
419.96	19978.81
420.15	20950.14
420.34	21465.05
420.53	22361.48
420.72	22806.18
420.91	22733.62
421.10	22515.95
421.29	22190.62
421.48	21458.03
421.67	22595.53
421.86	21813.79
422.05	20535.86
422.24	18111.07
422.43	18244.48
422.61	19782.21
422.80	21846.56
422.99	21542.29
423.18	20739.49
423.37	20215.21
423.56	20685.65
423.75	20842.47
423.94	21029.71
424.13	20421.17
424.32	20222.23
424.50	20592.03
424.69	20065.41
424.88	20215.21
425.07	19978.81
425.26	20278.40
425.45	19969.45
425.64	19559.86
425.83	19454.53
426.01	20875.24
426.20	21048.44
426.39	21020.35
426.58	19353.89
426.77	18141.49
426.96	17467.42
427.15	18384.91
427.33	19552.84
427.52	20381.38
427.71	20257.34
427.90	20142.65
428.09	19946.05
428.28	19761.14
428.46	19014.51
428.65	18679.82
428.84	19241.54
429.03	19487.30
429.22	18417.68
429.40	17600.83
429.59	15889.90
429.78	13837.25
429.97	13998.74
430.16	14132.15
430.34	14242.16
430.53	14256.20
430.72	14361.53
430.91	16154.38
431.10	18738.33
431.28	21888.69
431.47	23910.91
431.66	24465.62
431.85	22281.90
432.03	20467.98
432.22	19335.17
432.41	20170.74
432.60	22487.87
432.79	23379.61
432.97	24032.62
433.16	23681.54
433.35	21322.28
433.54	19389.00
433.72	18118.09
433.91	18654.07
434.10	20594.37
434.28	22487.87
434.47	23459.19
434.66	22796.82
434.85	22511.27
435.03	22501.91
435.22	22843.63
435.41	24451.58
435.59	24456.26
435.78	24744.14
435.97	25460.35
436.16	25912.07
436.34	25095.22
436.53	24561.58
436.72	24971.18
436.90	23461.53
437.09	23400.68
437.28	22930.23
437.46	23838.36
437.65	23484.94
437.84	22129.77
438.02	20470.33
438.21	19981.15
438.40	20877.58
438.58	22801.50
438.77	23716.65
438.96	23585.58
439.14	24826.06
439.33	25034.37
439.52	25802.07
439.70	25558.65
439.89	24617.75
440.08	23924.96
440.26	24269.01
440.45	24938.41
440.63	26513.59
440.82	27908.55
441.01	27154.90
441.19	27548.11
441.38	27817.27
441.57	28327.50
441.75	29092.86
441.94	29165.42
442.12	28840.08
442.31	29336.27
442.50	29097.54
442.68	29242.65
442.87	28449.21
443.05	28467.94
443.24	28786.25
443.43	29460.32
443.61	29930.77
443.80	30356.75
443.98	28470.28
444.17	28259.63
444.35	30071.20
444.54	30581.44
444.73	29954.18
444.91	29186.48
445.10	27885.14
445.28	26782.75
445.47	26630.62
445.65	26609.55
445.84	27615.98
446.02	28376.66
446.21	28519.43
446.39	28790.93
446.58	29345.64
446.77	29546.92
446.95	29570.33
447.14	30504.20
447.32	31337.43
447.51	30539.31
447.69	29256.70
447.88	29017.96
448.06	29181.80
448.25	29937.79
448.43	30260.79
448.62	29415.85
448.80	29212.23
448.99	29956.52
449.17	30103.97
449.36	30190.57
449.54	31302.32
449.73	31442.76
449.91	32203.43
450.10	32921.98
450.28	33266.03
450.46	33163.05
450.65	33104.54
450.83	32397.70
451.02	31999.80
451.20	32034.91
451.39	31653.40
451.57	31653.40
451.76	31840.65
451.94	31562.12
452.13	31157.21
452.31	30078.22
452.49	28194.09
452.68	28687.95
452.86	28664.54
453.05	28994.56
453.23	29944.81
453.42	30536.97
453.60	31314.03
453.78	31573.83
453.97	31014.44
454.15	31274.24
454.34	30806.13
454.52	30600.16
454.70	30094.61
454.89	30511.22
455.07	30679.74
455.26	31276.58
455.44	32074.70
455.62	32968.79
455.81	32856.44
455.99	32802.61
456.17	32329.82
456.36	32238.54
456.54	33221.56
456.73	33347.95
456.91	34251.40
457.09	34036.07
457.28	34293.53
457.46	33680.31
457.64	33294.12
457.83	32259.60
458.01	31192.32
458.19	32018.53
458.38	32301.73
458.56	33565.62
458.74	33057.73
458.93	32395.35
459.11	32755.80
459.29	32496.00
459.48	32615.37
459.66	32385.99
459.84	32783.88
460.03	33106.88
460.21	33053.05
460.39	33890.96
460.57	33982.24
460.76	34295.87
460.94	34623.54
461.12	33972.88
461.31	33813.72
461.49	33802.02
461.67	34094.58
461.85	35143.14
462.04	34808.45
462.22	35318.68
462.40	34927.81
462.59	34916.11
462.77	34913.77
462.95	34981.65
463.13	34047.77
463.32	34256.08
463.50	33942.45
463.68	34213.95
463.86	34190.55
464.05	33467.32
464.23	33076.45
464.41	32809.63
464.59	32081.72
464.78	33741.16
464.96	33406.47
465.14	33205.18
465.32	34309.91
465.50	35079.95
465.69	35356.13
465.87	34536.94
466.05	33638.18
466.23	32210.45
466.41	31508.29
466.60	32636.43
466.78	32383.65
466.96	32638.77
467.14	33425.19
467.32	33567.96
467.51	33930.75
467.69	32322.80
467.87	33434.55
468.05	33883.94
468.23	33722.44
468.41	33909.68
468.60	33806.70
468.78	34253.74
468.96	34110.97
469.14	34518.22
469.32	34483.11
469.50	33156.03
469.69	33521.15
469.87	32397.70
470.05	32634.09
470.23	32556.85
470.41	32863.46
470.59	33312.84
470.77	33420.51
470.95	34005.64
471.14	34820.15
471.32	34532.26
471.50	36423.42
471.68	36208.09
471.86	37151.32
472.04	37116.22
472.22	36928.97
472.40	35756.36
472.58	35058.88
472.77	34651.63
472.95	35339.75
473.13	36233.83
473.31	35395.92
473.49	35435.71
473.67	35894.46
473.85	36673.85
474.03	37352.61
474.21	37359.63
474.39	38045.41
474.57	38010.30
474.75	38052.43
474.93	37411.12
475.12	37029.62
475.30	36790.88
475.48	37118.56
475.66	37872.21
475.84	36905.57
476.02	37010.89
476.20	36301.71
476.38	36933.65
476.56	37942.42
476.74	38553.30
476.92	38691.40
477.10	39019.07
477.28	40580.21
477.46	40058.27
477.64	40886.82
477.82	41036.61
478.00	41109.17
478.18	40725.32
478.36	40615.32
478.54	40346.15
478.72	40676.17
478.90	41909.63
479.08	42925.42
479.26	43269.48
479.44	43115.01
479.62	42953.51
479.80	42478.38
479.98	43021.39
480.16	43405.23
480.34	42944.15
480.52	43400.55
480.70	43386.51
480.88	43562.05
481.06	44378.90
481.24	44414.01
481.41	45413.41
481.59	45911.95
481.77	45827.69
481.95	45624.06
482.13	45441.50
482.31	45516.40
482.49	46096.85
482.67	45485.97
482.85	45839.39
483.03	46204.52
483.21	47079.88
483.39	46497.08
483.57	46136.64
483.74	45902.59
483.92	46260.69
484.10	46452.61
484.28	47313.93
484.46	47824.17
484.64	47875.66
484.82	47157.11
485.00	46560.28
485.18	45911.95
485.35	44739.34
485.53	41544.51
485.71	38234.99
485.89	37134.94
486.07	39063.54
486.25	42564.98
486.43	44896.16
486.61	45647.47
486.78	45570.23
486.96	45993.87
487.14	47150.09
487.32	48589.52
487.50	49584.25
487.68	50323.86
487.85	50686.64
488.03	50777.92
488.21	50293.43
488.39	49757.45
488.57	49118.48
488.75	48374.19
488.92	49748.09
489.10	51749.24
489.28	53137.18
489.46	53797.21
489.64	53581.88
489.81	53918.92
489.99	53399.32
490.17	53434.43
490.35	53748.06
490.53	53556.14
490.70	53081.01
490.88	52648.01
491.06	54052.33
491.24	53893.18
491.41	53076.33
491.59	51217.94
491.77	50532.17
491.95	51590.09
492.13	52470.13
492.30	53829.98
492.48	54827.05
492.66	55175.79
492.84	55110.25
493.01	55058.76
493.19	54351.92
493.37	54358.94
493.54	53979.78
493.72	54518.10
493.90	55332.60
494.08	56072.21
494.25	56458.40
494.43	56547.34
494.61	56886.72
494.79	57254.18
494.96	56760.33
495.14	56259.46
495.32	55505.80
495.49	54712.36
495.67	55725.81
495.85	57036.51
496.02	57537.39
496.20	57301.00
496.38	56992.04
496.55	56757.99
496.73	57446.11
496.91	57270.57
497.09	57968.05
497.26	58248.91
497.44	57771.44
497.62	57141.84
497.79	56495.85
497.97	54946.42
498.14	55292.82
498.32	56491.17
498.50	57127.80
498.67	57701.23
498.85	57804.21
499.03	57797.19
499.20	58113.16
499.38	58035.92
499.56	57698.89
499.73	57399.30
499.91	57036.51
500.08	56678.41
500.26	56006.68
500.44	56217.33
500.61	57048.22
500.79	56849.27
500.97	56521.60
501.14	56355.42
501.32	56374.14
501.49	55992.64
501.67	56292.22
501.84	57183.97
502.02	57099.71
502.20	57301.00
502.37	57743.36
502.55	57712.93
502.72	58176.36
502.90	58614.04
503.07	58337.85
503.25	57958.69
503.43	57179.29
503.60	56701.82
503.78	55772.63
503.95	56285.20
504.13	57471.85
504.30	58443.18
504.48	58309.77
504.65	57970.39
504.83	57902.51
505.01	58475.94
505.18	58897.24
505.36	59606.42
505.53	59552.59
505.71	59833.46
505.88	59746.86
506.06	59206.19
506.23	58740.42
506.41	58253.59
506.58	58791.92
506.76	58768.51
506.93	58756.81
507.11	58571.91
507.28	58679.57
507.46	58206.78
507.63	57579.52
507.81	57350.15
507.98	57616.97
508.16	58401.05
508.33	58808.30
508.50	59096.19
508.68	59339.60
508.85	59873.24
509.03	59870.90
509.20	59774.94
509.38	59021.29
509.55	58220.83
509.73	58412.75
509.90	58848.09
510.08	59175.76
510.25	59353.65
510.42	58822.34
510.60	58789.58
510.77	58944.05
510.95	59524.50
511.12	59721.11
511.30	60086.23
511.47	60009.00
511.64	60186.88
511.82	59978.57
511.99	59100.87
512.17	58925.33
512.34	58286.36
512.51	58520.41
512.69	58670.21
512.86	58852.77
513.04	59398.12
513.21	59208.53
513.38	58934.69
513.56	58440.84
513.73	57851.02
513.90	58080.39
514.08	58080.39
514.25	58403.39
514.43	58487.65
514.60	58646.80
514.77	58862.13
514.95	58979.16
515.12	58768.51
515.29	58857.45
515.47	59419.18
515.64	59875.58
515.81	59339.60
515.99	58745.11
516.16	57593.56
516.33	55327.92
516.51	53696.57
516.68	52893.77
516.85	52533.32
517.03	52835.25
517.20	55585.38
517.37	57935.28
517.54	58845.75
517.72	58515.73
517.89	56299.25
518.06	53792.53
518.24	54342.56
518.41	56399.89
518.58	57715.27
518.75	57851.02
518.93	58007.84
519.10	57923.58
519.27	58248.91
519.45	58567.23
519.62	59091.51
519.79	59405.14
519.96	59379.39
520.14	58745.11
520.31	58061.67
520.48	57869.75
520.65	58412.75
520.83	59468.33
521.00	59756.22
521.17	59309.18
521.34	59065.76
521.52	59138.32
521.69	59627.49
521.86	60285.18
522.03	59896.65
522.20	58721.70
522.38	57748.04
522.55	57516.32
522.72	58253.59
522.89	58539.14
523.07	58684.25
523.24	58904.26
523.41	59882.61
523.58	60233.69
523.75	60460.72
523.92	60170.49
524.10	60130.70
524.27	60289.86
524.44	60065.17
524.61	59922.40
524.78	59728.13
524.96	59601.74
525.13	59559.61
525.30	59920.05
525.47	60275.82
525.64	60149.43
525.81	59554.93
525.98	58426.79
526.16	56966.30
526.33	56250.09
526.50	55833.48
526.67	55646.24
526.84	55964.55
527.01	56940.55
527.18	57687.18
527.36	58585.95
527.53	59423.86
527.70	59910.69
527.87	59341.94
528.04	58932.35
528.21	59313.86
528.38	59943.46
528.55	60479.44
528.72	60722.86
528.89	60846.91
529.07	60514.55
529.24	60111.98
529.41	59405.14
529.58	58855.11
529.75	58752.13
529.92	59231.94
530.09	59583.02
530.26	60154.11
530.43	60385.82
530.60	60430.29
530.77	60793.07
530.94	60877.33
531.11	60350.71
531.28	60224.32
531.46	59934.10
531.63	60041.76
531.80	59749.20
531.97	59561.95
532.14	58782.55
532.31	57865.06
532.48	57251.84
532.65	57003.75
532.82	58064.01
532.99	59086.82
533.16	59299.81
533.33	59941.12
533.50	59784.30
533.67	59241.30
533.84	58787.24
534.01	58976.82
534.18	59114.91
534.35	59421.52
534.52	59391.09
534.69	59475.35
534.86	59578.34
535.03	59854.52
535.20	60088.57
535.37	60835.20
535.54	60680.73
535.71	60624.56
535.88	60140.07
536.05	59578.34
536.22	59458.97
536.38	58700.64
536.55	58464.24
536.72	57787.83
536.89	57911.88
537.06	58412.75
537.23	59554.93
537.40	59648.55
537.57	59615.79
537.74	59480.03
537.91	59379.39
538.08	59365.35
538.25	59370.03
538.42	59718.77
538.59	59430.88
538.75	58827.02
538.92	58604.67
539.09	58438.50
539.26	58284.02
539.43	57986.77
539.60	58124.86
539.77	58361.26
539.94	58375.30
540.11	57579.52
540.28	56968.64
540.44	57186.31
540.61	57525.69
540.78	57525.69
540.95	57977.41
541.12	58188.06
541.29	58845.75
541.46	58810.64
541.62	58915.96
541.79	58965.12
541.96	58138.91
542.13	58000.82
542.30	58473.60
542.47	58670.21
542.63	58513.39
542.80	58309.77
542.97	58239.55
543.14	58117.84
543.31	58333.17
543.48	58663.19
543.64	59758.56
543.81	59807.71
543.98	59451.95
544.15	58899.58
544.32	58288.70
544.48	58246.57
544.65	58925.33
544.82	59295.13
544.99	58766.17
545.16	58466.58
545.32	58398.71
545.49	59028.31
545.66	59351.30
545.83	59077.46
546.00	58649.14
546.16	58466.58
546.33	58506.37
546.50	58745.11
546.67	59103.21
546.83	58532.12
547.00	58677.23
547.17	58038.26
547.34	57286.95
547.50	57361.85
547.67	57696.55
547.84	57844.00
548.00	58159.97
548.17	58602.33
548.34	58415.09
548.51	58293.38
548.67	58518.07
548.84	58602.33
549.01	58506.37
549.18	58244.23
549.34	58286.36
549.51	58513.39
549.68	58401.05
549.84	58042.95
550.01	57907.19
550.18	57930.60
550.34	57956.35
550.51	58155.29
550.68	57977.41
550.84	57673.14
551.01	57832.30
551.18	57668.46
551.34	58064.01
551.51	58169.33
551.68	58358.92
551.84	58595.31
552.01	58131.89
552.18	58040.60
552.34	57462.49
552.51	57172.27
552.68	56720.54
552.84	57584.20
553.01	57858.04
553.18	57715.27
553.34	57844.00
553.51	57778.46
553.67	57932.94
553.84	58255.93
554.01	57991.45
554.17	57965.71
554.34	57984.43
554.51	58246.57
554.67	58424.45
554.84	58342.53
555.00	57836.98
555.17	57696.55
555.33	57542.07
555.50	57642.71
555.67	57638.03
555.83	57626.33
556.00	57293.97
556.16	57162.90
556.33	56816.50
556.50	56734.59
556.66	56949.92
556.83	56488.83
556.99	56767.35
557.16	56690.12
557.32	56947.57
557.49	57457.81
557.65	57324.40
557.82	57212.06
557.98	57120.77
558.15	56582.45
558.32	55924.76
558.48	54845.77
558.65	55126.64
558.81	55489.42
558.98	55854.54
559.14	56207.97
559.31	56039.45
559.47	56097.96
559.64	55774.97
559.80	55585.38
559.97	55615.81
560.13	55760.92
560.30	56830.55
560.46	57202.69
560.63	57656.76
560.79	57525.69
560.96	57418.02
561.12	56350.74
561.29	55178.13
561.45	55072.81
561.61	55821.78
561.78	56140.09
561.94	56165.84
562.11	55990.30
562.27	55903.70
562.44	56348.40
562.60	56516.92
562.77	56720.54
562.93	56533.30
563.10	56294.56
563.26	55950.51
563.42	56170.52
563.59	55711.77
563.75	55800.71
563.92	55772.63
564.08	55496.44
564.24	56013.70
564.41	56121.37
564.57	55994.98
564.74	55908.38
564.90	55772.63
565.07	55753.90
565.23	55231.96
565.39	54855.14
565.56	54721.72
565.72	54246.60
565.88	54656.19
566.05	54698.32
566.21	54883.22
566.38	55093.87
566.54	55145.36
566.70	55646.24
566.87	55711.77
567.03	55793.69
567.19	56104.98
567.36	55676.66
567.52	55777.31
567.68	55374.73
567.85	54873.86
568.01	54248.94
568.17	53956.37
568.34	54010.20
568.50	54120.21
568.66	54089.78
568.83	54794.28
568.99	54679.60
569.15	54834.07
569.32	54429.16
569.48	54014.88
569.64	54270.00
569.81	53844.02
569.97	54019.56
570.13	53708.27
570.30	53570.18
570.46	52985.05
570.62	52325.02
570.78	52168.20
570.95	52341.40
571.11	53502.31
571.27	53595.93
571.43	53755.08
571.60	54183.40
571.76	54307.45
571.92	54262.98
572.09	54604.70
572.25	54567.25
572.41	54644.49
572.57	54188.08
572.74	54532.14
572.90	53743.38
573.06	54045.31
573.22	53696.57
573.38	53904.88
573.55	54108.50
573.71	53970.41
573.87	53904.88
574.03	53418.05
574.20	53694.23
574.36	53364.21
574.52	53347.83
574.68	53474.22
574.84	52837.59
575.01	52470.13
575.17	52275.87
575.33	52259.48
575.49	53034.20
575.65	53183.99
575.82	52842.27
575.98	52313.31
576.14	52910.15
576.30	53130.16
576.46	53331.45
576.62	53272.93
576.79	52858.66
576.95	52926.53
577.11	52624.60
577.27	52797.80
577.43	52774.40
577.59	52502.90
577.75	52245.44
577.92	51580.73
578.08	51175.81
578.24	51131.34
578.40	51632.22
578.56	51760.95
578.72	51931.81
578.88	52060.54
579.04	52053.51
579.21	52212.67
579.37	52325.02
579.53	52575.45
579.69	52453.75
579.85	52519.28
580.01	52186.92
580.17	51938.83
580.33	51786.69
580.49	51915.42
580.65	52460.77
580.82	52376.51
580.98	52481.83
581.14	52119.05
581.30	52580.13
581.46	52179.90
581.62	52411.62
581.78	52530.98
581.94	52828.23
582.10	52512.26
582.26	52397.57
582.42	52418.64
582.58	52676.10
582.74	52509.92
582.90	52580.13
583.06	52481.83
583.22	52257.14
583.38	52165.86
583.54	52126.07
583.70	51826.48
583.86	52060.54
584.02	51880.31
584.18	51910.74
584.34	52097.98
584.50	51917.76
584.66	51913.08
584.82	51519.87
584.98	51405.19
585.14	50965.17
585.30	50321.52
