SpectraSuite Data File
++++++++++++++++++++++++++++++++++++
Date: Mon Oct 07 14:55:01 GMT-05:00 2013
User: price-jones
Dark Spectrum Present: No
Reference Spectrum Present: No
Number of Sampled Component Spectra: 1
Spectrometers: USB2+H05261
Integration Time (usec): 10000 (USB2+H05261)
Spectra Averaged: 1 (USB2+H05261)
Boxcar Smoothing: 0 (USB2+H05261)
Correct for Electrical Dark: No (USB2+H05261)
Strobe/Lamp Enabled: No (USB2+H05261)
Correct for Detector Non-linearity: No (USB2+H05261)
Correct for Stray Light: No (USB2+H05261)
Number of Pixels in Processed Spectrum: 2048
>>>>>Begin Processed Spectral Data<<<<<
365.73	0.00
365.92	0.00
366.12	0.00
366.32	0.00
366.52	0.00
366.72	0.00
366.91	0.00
367.11	0.00
367.31	0.00
367.51	0.00
367.70	0.00
367.90	0.00
368.10	0.00
368.30	0.00
368.49	0.00
368.69	0.00
368.89	0.00
369.09	0.00
369.28	0.00
369.48	0.00
369.68	0.00
369.87	0.00
370.07	0.00
370.27	0.00
370.47	430.66
370.66	2312.45
370.86	2773.53
371.06	2974.82
371.25	2813.32
371.45	2565.23
371.65	2406.07
371.84	2258.62
372.04	2422.45
372.24	2710.34
372.44	2810.98
372.63	2691.62
372.83	2459.90
373.03	2202.44
373.22	2120.53
373.42	2342.88
373.62	2555.86
373.81	2597.99
374.01	2612.04
374.21	2293.72
374.40	2237.55
374.60	2469.27
374.79	2754.81
374.99	3155.04
375.19	3361.01
375.38	3225.26
375.58	3094.19
375.78	3033.33
375.97	3199.51
376.17	3133.98
376.37	3243.98
376.56	3410.16
376.76	3552.93
376.95	3796.35
377.15	4177.86
377.35	4201.26
377.54	4498.51
377.74	4650.64
377.93	4461.06
378.13	4210.62
378.33	4180.20
378.52	3810.39
378.72	3599.74
378.91	3576.34
379.11	3501.44
379.31	3435.91
379.50	3520.17
379.70	3730.81
379.89	4053.81
380.09	4311.27
380.28	4404.89
380.48	4325.31
380.68	4299.56
380.87	4081.89
381.07	3847.84
381.26	3651.24
381.46	3307.18
381.65	3222.92
381.85	3251.00
382.04	2935.03
382.24	2658.85
382.43	2738.43
382.63	2600.34
382.83	2665.87
383.02	2607.36
383.22	2579.27
383.41	2682.25
383.61	3005.25
383.80	3393.78
384.00	3997.64
384.19	4072.53
384.39	4383.82
384.58	4292.54
384.78	4290.20
384.97	4201.26
385.17	3868.91
385.36	3695.71
385.56	3660.60
385.75	3967.21
385.95	4315.95
386.14	4550.00
386.34	4606.17
386.53	4241.05
386.72	4070.19
386.92	4042.11
387.11	4554.68
387.31	4521.92
387.50	4589.79
387.70	4346.37
387.89	4344.03
388.09	4404.89
388.28	4315.95
388.48	4638.94
388.67	4954.91
388.86	5406.64
389.06	5647.71
389.25	5935.60
389.45	5998.79
389.64	5921.56
389.84	5944.96
390.03	5774.10
390.22	5797.51
390.42	6193.06
390.61	6562.86
390.81	6834.36
391.00	6956.07
391.19	6794.58
391.39	6612.01
391.58	6209.44
391.78	5884.11
391.97	5699.20
392.16	5301.31
392.36	4535.96
392.55	3705.07
392.75	2855.45
392.94	2509.05
393.13	2506.71
393.33	3246.32
393.52	4084.23
393.71	4840.23
393.91	5490.90
394.10	5879.43
394.29	6595.63
394.49	6761.81
394.68	7552.91
394.88	7531.84
395.07	7536.52
395.26	7501.42
395.46	7344.60
395.65	6579.25
395.84	5795.17
396.04	4655.33
396.23	3929.76
396.42	3269.73
396.62	3382.07
396.81	4201.26
397.00	5474.51
397.19	6644.78
397.39	7700.36
397.58	8769.99
397.77	8950.21
397.97	9184.26
398.16	9537.68
398.35	9858.34
398.55	10040.90
398.74	10342.83
398.93	10696.25
399.12	10410.70
399.32	10064.30
399.51	10328.78
399.70	10846.04
399.90	10853.06
400.09	10654.12
400.28	10677.52
400.47	10871.79
400.67	11440.54
400.86	11660.55
401.05	11812.68
401.24	11672.25
401.44	11819.71
401.63	12145.04
401.82	11936.73
402.01	11894.60
402.21	12280.79
402.40	12369.73
402.59	11536.50
402.78	11199.46
402.97	11304.79
403.17	12030.35
403.36	12226.96
403.55	12690.38
403.74	12718.47
403.93	11978.86
404.13	11164.36
404.32	11222.87
404.51	11721.40
404.70	12468.03
404.89	12542.93
405.09	12145.04
405.28	11971.84
405.47	11992.90
405.66	11882.90
405.85	11592.67
406.05	11375.00
406.24	11573.95
406.43	11934.39
406.62	12322.92
406.81	12526.55
407.00	12072.48
407.20	11864.18
407.39	11922.69
407.58	12802.73
407.77	13081.25
407.96	13540.00
408.15	13682.77
408.34	13678.09
408.54	14471.53
408.73	14326.42
408.92	14026.83
409.11	13371.48
409.30	12816.77
409.49	11967.16
409.68	11243.93
409.87	11279.04
410.07	12219.94
410.26	12973.59
410.45	13420.63
410.64	13870.01
410.83	14260.88
411.02	14773.46
411.21	15049.64
411.40	14979.43
411.59	14974.75
411.78	15108.16
411.98	15122.20
412.17	15297.74
412.36	15091.77
412.55	14813.25
412.74	14382.59
412.93	14321.74
413.12	14539.41
413.31	16149.70
413.50	16194.17
413.69	16587.38
413.88	15260.29
414.07	15414.77
414.26	15716.70
414.45	16102.89
414.64	15967.13
414.83	15871.17
415.02	15864.15
415.22	15920.32
415.41	16662.27
415.60	16821.43
415.79	17446.35
415.98	17532.95
416.17	17600.83
416.36	17034.42
416.55	17027.40
416.74	15854.79
416.93	16063.10
417.12	16313.53
417.31	16409.50
417.50	16659.93
417.69	17116.34
417.88	16704.40
418.07	16739.51
418.26	16390.77
418.45	16999.31
418.64	17376.14
418.83	18302.99
419.02	17554.02
419.21	17303.58
419.39	16699.72
419.58	15831.38
419.77	16248.00
419.96	17046.12
420.15	17916.80
420.34	18637.69
420.53	18860.04
420.72	18972.38
420.91	19005.15
421.10	18515.98
421.29	18340.44
421.48	18228.09
421.67	18991.11
421.86	18019.78
422.05	16711.42
422.24	15272.00
422.43	15770.53
422.61	17647.64
422.80	18106.38
422.99	17956.59
423.18	17188.89
423.37	17371.46
423.56	17600.83
423.75	17561.04
423.94	18118.09
424.13	17036.76
424.32	17142.08
424.50	17209.96
424.69	17153.79
424.88	17319.96
425.07	17397.20
425.26	17172.51
425.45	16233.96
425.64	16673.98
425.83	17060.16
426.01	17809.14
426.20	18008.08
426.39	17397.20
426.58	16538.23
426.77	15222.84
426.96	15021.56
427.15	15859.47
427.33	16975.91
427.52	17067.19
427.71	17481.46
427.90	17039.10
428.09	17214.64
428.28	16636.53
428.46	15913.30
428.65	15800.96
428.84	16437.58
429.03	16592.06
429.22	15531.80
429.40	14328.76
429.59	13355.10
429.78	11555.22
429.97	11915.67
430.16	12093.55
430.34	12114.61
430.53	12271.43
430.72	12982.95
430.91	14508.98
431.10	16842.50
431.28	19534.11
431.47	20641.18
431.66	20397.77
431.85	18466.83
432.03	17053.14
432.22	16931.44
432.41	18291.29
432.60	19747.10
432.79	20112.22
432.97	20453.94
433.16	19908.60
433.35	17603.17
433.54	16168.42
433.72	15616.05
433.91	16423.54
434.10	18504.28
434.28	19543.47
434.47	20240.95
434.66	19901.58
434.85	19243.88
435.03	19934.34
435.22	19915.62
435.41	21223.98
435.59	21219.30
435.78	21462.71
435.97	21912.10
436.16	21811.45
436.34	21778.68
436.53	21238.02
436.72	21345.69
436.90	20142.65
437.09	20109.88
437.28	20030.30
437.46	20372.02
437.65	20023.28
437.84	18611.94
438.02	17542.32
438.21	17823.18
438.40	18640.03
438.58	19791.57
438.77	20299.47
438.96	20610.76
439.14	21710.81
439.33	22012.74
439.52	22249.13
439.70	21603.14
439.89	20938.43
440.08	20498.41
440.26	20709.06
440.45	21336.32
440.63	23571.54
440.82	23924.96
441.01	23475.57
441.19	23239.18
441.38	24589.67
441.57	25137.35
441.75	24861.17
441.94	25329.28
442.12	25235.66
442.31	25450.99
442.50	25249.70
442.68	25125.65
442.87	24739.46
443.05	24444.56
443.24	25029.69
443.43	25446.30
443.61	25741.21
443.80	26476.14
443.98	25062.46
444.17	24772.23
444.35	26314.64
444.54	27108.08
444.73	26239.75
444.91	24875.21
445.10	24460.94
445.28	23253.22
445.47	22780.43
445.65	23536.43
445.84	23721.33
446.02	24465.62
446.21	24678.61
446.39	24592.01
446.58	25069.48
446.77	26157.83
446.95	26286.56
447.14	26534.65
447.32	27112.77
447.51	26724.24
447.69	25308.21
447.88	25238.00
448.06	25916.75
448.25	26118.04
448.43	25914.41
448.62	25851.22
448.80	25858.24
448.99	25528.22
449.17	26221.02
449.36	26548.70
449.54	27035.53
449.73	27531.72
449.91	27573.85
450.10	28528.79
450.28	28809.65
450.46	28615.39
450.65	29200.52
450.83	28496.02
451.02	27892.16
451.20	27913.23
451.39	27971.74
451.57	27690.88
451.76	28020.89
451.94	27154.90
452.13	26766.37
452.31	25228.63
452.49	24519.45
452.68	25092.88
452.86	25263.74
453.05	25642.91
453.23	27033.19
453.42	27241.50
453.60	27861.74
453.78	27583.21
453.97	27405.33
454.15	27131.49
454.34	26263.15
454.52	26040.80
454.70	25898.03
454.89	26651.68
455.07	26696.15
455.26	27391.29
455.44	28353.25
455.62	28807.31
455.81	28599.01
455.99	28229.20
456.17	29256.70
456.36	29109.24
456.54	29591.39
456.73	28582.62
456.91	29392.45
457.09	29256.70
457.28	30642.29
457.46	28900.94
457.64	28456.23
457.83	27910.89
458.01	27693.22
458.19	29041.37
458.38	29252.02
458.56	29301.17
458.74	28610.71
458.93	28563.90
459.11	28690.29
459.29	27882.80
459.48	28837.74
459.66	28629.43
459.84	28451.55
460.03	28807.31
460.21	29694.38
460.39	30127.38
460.57	29539.90
460.76	29883.96
460.94	29986.94
461.12	30504.20
461.31	30345.05
461.49	30258.45
461.67	30258.45
461.85	30618.89
462.04	30733.57
462.22	30864.64
462.40	30352.07
462.59	30340.36
462.77	30469.09
462.95	30654.00
463.13	30136.74
463.32	30005.67
463.50	29509.47
463.68	30017.37
463.86	30328.66
464.05	29275.42
464.23	28648.16
464.41	29193.50
464.59	28610.71
464.78	30396.54
464.96	29687.36
465.14	29502.45
465.32	30508.88
465.50	31344.45
465.69	32060.66
465.87	30684.42
466.05	29539.90
466.23	28257.29
466.41	27667.47
466.60	29385.43
466.78	28620.07
466.96	29053.07
467.14	30005.67
467.32	30122.69
467.51	30068.86
467.69	28393.04
467.87	29301.17
468.05	30003.33
468.23	30050.14
468.41	29582.03
468.60	29830.13
468.78	30380.15
468.96	30499.52
469.14	30174.19
469.32	30649.32
469.50	29069.45
469.69	29502.45
469.87	28926.68
470.05	28421.13
470.23	29226.27
470.41	29322.23
470.59	29514.16
470.77	29642.88
470.95	30513.56
471.14	30892.73
471.32	30906.77
471.50	32091.09
471.68	32336.84
471.86	32519.40
472.04	32226.84
472.22	32624.73
472.40	31519.99
472.58	30911.46
472.77	30993.37
472.95	31679.15
473.13	32493.66
473.31	31002.74
473.49	31199.34
473.67	31880.44
473.85	32362.59
474.03	33963.51
474.21	34286.51
474.39	33933.09
474.57	34080.54
474.75	34043.09
474.93	33720.10
475.12	32687.92
475.30	33240.29
475.48	32500.68
475.66	32657.49
475.84	32435.14
476.02	32449.19
476.20	32222.16
476.38	33022.62
476.56	33928.41
476.74	34312.25
476.92	34665.67
477.10	34817.81
477.28	36039.57
477.46	36488.95
477.64	36222.13
477.82	36905.57
478.00	36676.19
478.18	35653.38
478.36	35129.10
478.54	36236.17
478.72	36608.32
478.90	38110.94
479.08	39466.11
479.26	39026.09
479.44	39030.77
479.62	38153.07
479.80	39016.73
479.98	38888.00
480.16	39431.01
480.34	38398.83
480.52	39299.94
480.70	39969.33
480.88	39374.83
481.06	40254.87
481.24	40205.72
481.41	40886.82
481.59	42157.73
481.77	41270.67
481.95	40650.42
482.13	40266.58
482.31	40971.08
482.49	41502.38
482.67	40907.88
482.85	40957.03
483.03	41305.77
483.21	42450.30
483.39	41663.88
483.57	41027.25
483.74	41441.53
483.92	42288.80
484.10	41584.30
484.28	42274.76
484.46	41951.76
484.64	43976.33
484.82	42574.34
485.00	41986.87
485.18	41289.39
485.35	39253.12
485.53	35002.71
485.71	32907.93
485.89	33256.67
486.07	35711.89
486.25	38157.75
486.43	40545.10
486.61	40168.27
486.78	40732.34
486.96	41689.62
487.14	43540.99
487.32	44360.17
487.50	44851.69
487.68	46204.52
487.85	46768.58
488.03	46127.28
488.21	46007.91
488.39	45144.25
488.57	44184.63
488.75	44210.38
488.92	46113.23
489.10	48020.77
489.28	49277.64
489.46	50504.08
489.64	49862.77
489.81	50108.53
489.99	48917.20
490.17	49214.44
490.35	49666.17
490.53	49212.10
490.70	48617.61
490.88	48769.74
491.06	50164.70
491.24	49961.08
491.41	48526.33
491.59	46941.78
491.77	46817.74
491.95	48603.56
492.13	50099.17
492.30	50759.20
492.48	51374.76
492.66	52179.90
492.84	51681.37
493.01	51175.81
493.19	50967.51
493.37	50113.21
493.54	51093.89
493.72	52121.39
493.90	52341.40
494.08	52631.63
494.25	52877.38
494.43	53343.15
494.61	53764.45
494.79	53947.01
494.96	54174.04
495.14	53624.01
495.32	52231.40
495.49	52472.47
495.67	53333.79
495.85	54340.22
496.02	54990.89
496.20	54468.95
496.38	54024.25
496.55	54103.82
496.73	54979.18
496.91	55028.34
497.09	54731.09
497.26	55021.31
497.44	54529.80
497.62	53937.65
497.79	52554.39
497.97	52090.96
498.14	53111.44
498.32	54581.29
498.50	54096.80
498.67	54010.20
498.85	54672.57
499.03	55299.84
499.20	55718.79
499.38	54944.08
499.56	54291.07
499.73	54085.10
499.91	54181.06
500.08	53242.51
500.26	52683.12
500.44	53633.38
500.61	54171.70
500.79	53703.59
500.97	53970.41
501.14	52596.52
501.32	52512.26
501.49	52680.78
501.67	53162.93
501.84	53787.85
502.02	54134.25
502.20	55023.65
502.37	55377.08
502.55	55276.43
502.72	55667.30
502.90	56154.13
503.07	55891.99
503.25	54438.52
503.43	53462.52
503.60	53249.53
503.78	52910.15
503.95	53471.88
504.13	54714.70
504.30	54946.42
504.48	55004.93
504.65	54958.12
504.83	54944.08
505.01	55854.54
505.18	56067.53
505.36	56301.59
505.53	56619.90
505.71	56966.30
505.88	56846.93
506.06	56357.76
506.23	55842.84
506.41	55725.81
506.58	56437.34
506.76	56147.11
506.93	55690.71
507.11	55356.01
507.28	55781.99
507.46	55002.59
507.63	54850.45
507.81	53876.79
507.98	54969.82
508.16	56062.85
508.33	56114.34
508.50	56442.02
508.68	56919.49
508.85	57207.37
509.03	57261.21
509.20	56563.73
509.38	55454.31
509.55	55540.91
509.73	55622.83
509.90	56088.60
510.08	56219.67
510.25	55604.11
510.42	55473.04
510.60	56282.86
510.77	56666.71
510.95	56444.36
511.12	56942.89
511.30	57193.33
511.47	57560.79
511.64	57666.12
511.82	57317.38
511.99	56430.32
512.17	56392.87
512.34	55814.76
512.51	55810.07
512.69	56278.18
512.86	55992.64
513.04	56516.92
513.21	55807.73
513.38	54749.81
513.56	54920.67
513.73	54408.09
513.90	54906.63
514.08	55255.37
514.25	54712.36
514.43	55566.66
514.60	56102.64
514.77	56268.82
514.95	56116.68
515.12	55962.21
515.29	56622.24
515.47	57141.84
515.64	56844.59
515.81	56294.56
515.99	55437.93
516.16	53113.78
516.33	50679.62
516.51	50831.75
516.68	48816.55
516.85	48135.46
517.03	50586.00
517.20	53050.58
517.37	55227.28
517.54	56486.49
517.72	54801.30
517.89	51730.52
518.06	50078.10
518.24	51606.47
518.41	53986.80
518.58	54557.89
518.75	54424.48
518.93	54695.98
519.10	54099.14
519.27	55304.52
519.45	55480.06
519.62	56341.38
519.79	56348.40
519.96	55889.65
520.14	55625.17
520.31	54148.29
520.48	54536.82
520.65	55594.74
520.83	56374.14
521.00	56505.21
521.17	55774.97
521.34	55835.82
521.52	56699.48
521.69	56619.90
521.86	56963.96
522.03	57263.55
522.20	55143.02
522.38	54848.11
522.55	55072.81
522.72	55826.46
522.89	55414.52
523.07	56016.04
523.24	56395.21
523.41	57748.04
523.58	58007.84
523.75	58052.31
523.92	57467.17
524.10	57055.24
524.27	56919.49
524.44	56914.81
524.61	56456.06
524.78	57095.03
524.96	57069.28
525.13	57006.09
525.30	57469.51
525.47	57429.72
525.64	57408.66
525.81	56631.60
525.98	54738.11
526.16	53296.34
526.33	53607.63
526.50	53038.88
526.67	53193.36
526.84	53450.81
527.01	54340.22
527.18	55000.25
527.36	56233.71
527.53	56968.64
527.70	56406.91
527.87	54904.29
528.04	56376.48
528.21	56781.40
528.38	57401.64
528.55	58262.96
528.72	57799.53
528.89	57495.26
529.07	57443.77
529.24	55952.85
529.41	55887.31
529.58	55999.66
529.75	56809.48
529.92	57015.45
530.09	56907.79
530.26	57553.77
530.43	58471.26
530.60	57212.06
530.77	57286.95
530.94	57942.30
531.11	57118.43
531.28	57427.38
531.46	57265.89
531.63	57282.27
531.80	56451.38
531.97	56037.11
532.14	55973.91
532.31	54693.64
532.48	54026.59
532.65	54361.28
532.82	55208.56
532.99	56566.07
533.16	56928.85
533.33	56851.61
533.50	57174.61
533.67	57167.58
533.84	55870.93
534.01	56603.52
534.18	56697.14
534.35	56467.76
534.52	55805.39
534.69	56404.57
534.86	57097.37
535.03	57401.64
535.20	56837.57
535.37	57930.60
535.54	58401.05
535.71	57979.75
535.88	58307.43
536.05	56645.65
536.22	56156.47
536.38	55831.14
536.55	54436.18
536.72	54815.35
536.89	55344.31
537.06	55662.62
537.23	56381.16
537.40	56671.39
537.57	56123.71
537.74	56659.69
537.91	56369.46
538.08	56224.35
538.25	56006.68
538.42	57080.98
538.59	56341.38
538.75	55178.13
538.92	54777.90
539.09	55189.83
539.26	55040.04
539.43	55009.61
539.60	55634.53
539.77	55992.64
539.94	55592.40
540.11	54817.69
540.28	54232.55
540.44	54052.33
540.61	53822.96
540.78	54667.89
540.95	55821.78
541.12	55671.98
541.29	56292.22
541.46	56427.98
541.62	56266.48
541.79	55421.55
541.96	54632.78
542.13	54628.10
542.30	55035.36
542.47	55552.62
542.63	54951.10
542.80	55395.80
542.97	54691.30
543.14	54426.82
543.31	54574.27
543.48	56189.24
543.64	56425.64
543.81	57530.37
543.98	56872.68
544.15	55068.12
544.32	55978.59
544.48	55484.74
544.65	55482.40
544.82	55976.25
544.99	54382.35
545.16	54148.29
545.32	54490.01
545.49	55681.34
545.66	55442.61
545.83	55412.18
546.00	55805.39
546.16	55569.00
546.33	55468.36
546.50	55587.72
546.67	56093.28
546.83	55189.83
547.00	55899.01
547.17	54440.86
547.34	53642.74
547.50	54148.29
547.67	55082.17
547.84	55884.97
548.00	55599.43
548.17	55154.72
548.34	55257.71
548.51	55903.70
548.67	56381.16
548.84	56299.25
549.01	55969.23
549.18	55318.56
549.34	55430.91
549.51	55381.76
549.68	55456.65
549.84	55051.74
550.01	54815.35
550.18	54160.00
550.34	54534.48
550.51	55231.96
550.68	55494.10
550.84	55171.11
551.01	54511.08
551.18	54251.28
551.34	53684.87
551.51	55182.81
551.68	54728.75
551.84	54791.94
552.01	54986.21
552.18	54471.29
552.34	53600.61
552.51	53485.92
552.68	53394.64
552.84	53797.21
553.01	53848.71
553.18	55271.75
553.34	55159.41
553.51	54979.18
553.67	54775.56
553.84	54162.34
554.01	54653.85
554.17	54169.36
554.34	54831.73
554.51	54770.88
554.67	53778.49
554.84	54113.19
555.00	53902.54
555.17	54429.16
555.33	53663.80
555.50	53146.54
555.67	54145.95
555.83	54087.44
556.00	53848.71
556.16	53109.10
556.33	52802.49
556.50	53352.51
556.66	53961.05
556.83	53212.08
556.99	53003.77
557.16	53230.80
557.32	52891.43
557.49	53233.14
557.65	52954.62
557.82	53951.69
557.98	53991.48
558.15	52788.44
558.32	51700.09
558.48	51229.65
558.65	51306.88
558.81	52149.48
558.98	52844.62
559.14	52917.17
559.31	52575.45
559.47	51903.72
559.64	51402.85
559.80	51271.78
559.97	52350.76
560.13	53308.04
560.30	54251.28
560.46	54649.17
560.63	55086.85
560.79	54869.18
560.96	53778.49
561.12	52409.28
561.29	51805.42
561.45	51845.21
561.61	53804.24
561.78	52453.75
561.94	53368.90
562.11	53310.38
562.27	52406.94
562.44	53008.45
562.60	53198.04
562.77	53773.81
562.93	52315.65
563.10	52275.87
563.26	52243.10
563.42	53434.43
563.59	51936.49
563.75	52053.51
563.92	52252.46
564.08	51442.63
564.24	52561.41
564.41	51690.73
564.57	52690.14
564.74	52388.21
564.90	51229.65
565.07	51990.32
565.23	50284.07
565.39	50447.91
565.56	50904.31
565.72	51161.77
565.88	49347.86
566.05	51863.93
566.21	52690.14
566.38	51831.16
566.54	51732.86
566.70	52336.72
566.87	52355.44
567.03	51573.70
567.19	52673.76
567.36	52931.22
567.52	51760.95
567.68	51339.65
567.85	50178.75
568.01	50382.37
568.17	51124.32
568.34	51732.86
568.50	51358.38
568.66	51231.99
568.83	50092.15
568.99	50061.72
569.15	50429.18
569.32	50871.54
569.48	50230.24
569.64	49684.89
569.81	50145.98
569.97	49724.68
570.13	49284.66
570.30	48694.85
570.46	48020.77
570.62	47136.05
570.78	47498.83
570.95	48493.56
571.11	48308.66
571.27	48137.80
571.43	48299.30
571.60	48013.75
571.76	50197.47
571.92	49720.00
572.09	50820.05
572.25	50464.29
572.41	51400.50
572.57	50972.19
572.74	51063.47
572.90	52046.49
573.06	50396.42
573.22	50752.18
573.38	50756.86
573.55	52076.92
573.71	50848.14
573.87	51208.58
574.03	50724.09
574.20	50164.70
574.36	50251.30
574.52	48996.77
574.68	48748.68
574.84	48280.57
575.01	48348.45
575.17	48956.99
575.33	48956.99
575.49	49249.55
575.65	48362.49
575.82	49127.84
575.98	48226.74
576.14	49399.35
576.30	50075.76
576.46	48348.45
576.62	48882.09
576.79	48882.09
576.95	48727.61
577.11	48772.08
577.27	48924.22
577.43	49343.17
577.59	47746.93
577.75	46993.28
577.92	46763.90
578.08	47416.91
578.24	48154.18
578.40	47826.51
578.56	47002.64
578.72	47562.03
578.88	47159.45
579.04	47854.59
579.21	47075.19
579.37	47576.07
579.53	48156.52
579.69	47267.12
579.85	47824.17
580.01	47686.07
580.17	46981.57
580.33	48233.76
580.49	48355.47
580.65	46155.36
580.82	46799.01
580.98	48259.51
581.14	48807.19
581.30	48292.27
581.46	47744.59
581.62	47941.19
581.78	48844.64
581.94	48582.50
582.10	49169.97
582.26	48975.71
582.42	48889.11
582.58	47075.19
582.74	46855.18
582.90	47054.13
583.06	47718.84
583.22	47615.86
583.38	47842.89
583.54	48252.48
583.70	48680.80
583.86	47903.74
584.02	47896.72
584.18	47178.18
584.34	46560.28
584.50	46120.26
584.66	46248.99
584.82	46742.84
584.98	46817.74
585.14	46536.87
585.30	46218.56
