SpectraSuite Data File
++++++++++++++++++++++++++++++++++++
Date: Mon Oct 07 14:53:01 GMT-05:00 2013
User: price-jones
Dark Spectrum Present: No
Reference Spectrum Present: No
Number of Sampled Component Spectra: 1
Spectrometers: USB2+H05261
Integration Time (usec): 100000 (USB2+H05261)
Spectra Averaged: 1 (USB2+H05261)
Boxcar Smoothing: 0 (USB2+H05261)
Correct for Electrical Dark: No (USB2+H05261)
Strobe/Lamp Enabled: No (USB2+H05261)
Correct for Detector Non-linearity: No (USB2+H05261)
Correct for Stray Light: No (USB2+H05261)
Number of Pixels in Processed Spectrum: 2048
>>>>>Begin Processed Spectral Data<<<<<
365.73	0.00
365.92	0.00
366.12	0.00
366.32	0.00
366.52	0.00
366.72	0.00
366.91	0.00
367.11	0.00
367.31	0.00
367.51	0.00
367.70	0.00
367.90	0.00
368.10	0.00
368.30	0.00
368.49	0.00
368.69	0.00
368.89	0.00
369.09	0.00
369.28	0.00
369.48	0.00
369.68	0.00
369.87	0.00
370.07	0.00
370.27	0.00
370.47	554.71
370.66	2897.58
370.86	3274.41
371.06	3569.32
371.25	3691.02
371.45	3255.69
371.65	2815.66
371.84	2743.11
372.04	2899.92
372.24	3335.26
372.44	3433.57
372.63	3314.20
372.83	3159.72
373.03	2806.30
373.22	2532.46
373.42	2579.27
373.62	2939.71
373.81	3335.26
374.01	3368.03
374.21	2963.12
374.40	2808.64
374.60	2958.44
374.79	3363.35
374.99	3805.71
375.19	4255.09
375.38	4142.75
375.58	3723.79
375.78	3686.34
375.97	3908.69
376.17	4039.76
376.37	4007.00
376.56	4044.45
376.76	4353.40
376.95	4641.28
377.15	5060.24
377.35	5256.84
377.54	5298.97
377.74	5488.56
377.93	5371.53
378.13	5170.24
378.33	5181.95
378.52	4835.55
378.72	4510.21
378.91	4571.07
379.11	4348.72
379.31	4102.96
379.50	4128.70
379.70	4503.19
379.89	4901.08
380.09	5242.80
380.28	5458.13
380.48	5338.76
380.68	5486.22
380.87	5163.22
381.07	4720.86
381.26	4381.48
381.46	4194.24
381.65	4077.21
381.85	4086.58
382.04	3763.58
382.24	3452.29
382.43	3363.35
382.63	3276.75
382.83	3246.32
383.02	3222.92
383.22	3351.65
383.41	3274.41
383.61	3550.59
383.80	4182.54
384.00	4528.94
384.19	5181.95
384.39	5423.02
384.58	5219.39
384.78	5186.63
384.97	5289.61
385.17	4856.61
385.36	4718.52
385.56	4456.38
385.75	4685.75
385.95	5172.58
386.14	5589.20
386.34	5437.06
386.53	5198.33
386.72	5078.96
386.92	5104.71
387.11	5458.13
387.31	5624.31
387.50	5500.26
387.70	5219.39
387.89	5198.33
388.09	5233.44
388.28	5228.76
388.48	5303.65
388.67	5895.81
388.86	6459.88
389.06	6700.95
389.25	7283.75
389.45	7243.96
389.64	7183.10
389.84	7124.59
390.03	6986.50
390.22	7183.10
390.42	7351.62
390.61	7758.88
390.81	8147.40
391.00	8404.86
391.19	8393.16
391.39	7885.26
391.58	7590.36
391.78	7019.27
391.97	6869.47
392.16	6424.77
392.36	5804.53
392.55	4732.56
392.75	3817.41
392.94	2988.86
393.13	2942.05
393.33	3541.23
393.52	4725.54
393.71	5785.80
393.91	6569.88
394.10	6761.81
394.29	7616.10
394.49	8063.15
394.68	8786.37
394.88	8725.52
395.07	8992.34
395.26	8931.48
395.46	8723.18
395.65	8140.38
395.84	7061.40
396.04	6108.80
396.23	4919.81
396.42	4042.11
396.62	4105.30
396.81	4723.20
397.00	5832.62
397.19	7440.56
397.39	8957.23
397.58	9956.64
397.77	10506.66
397.97	10796.89
398.16	11026.26
398.35	11473.31
398.55	11733.11
398.74	12306.54
398.93	12622.51
399.12	12198.87
399.32	11918.01
399.51	12435.27
399.70	12919.76
399.90	12688.04
400.09	13085.94
400.28	12985.29
400.47	12980.61
400.67	13446.38
400.86	13874.70
401.05	13816.18
401.24	13951.93
401.44	14045.55
401.63	14040.87
401.82	14298.33
402.01	14188.33
402.21	14523.02
402.40	14434.08
402.59	14190.67
402.78	13540.00
402.97	13069.55
403.17	13771.71
403.36	14193.01
403.55	14487.92
403.74	15204.12
403.93	14305.35
404.13	13212.32
404.32	13235.73
404.51	13685.11
404.70	14649.41
404.89	14525.36
405.09	14338.12
405.28	14169.60
405.47	13961.30
405.66	14017.47
405.85	13673.41
406.05	13345.73
406.24	13401.91
406.43	14101.73
406.62	14586.22
406.81	14501.96
407.00	14209.39
407.20	14057.26
407.39	13958.96
407.58	14532.39
407.77	15337.53
407.96	15655.84
408.15	15747.12
408.34	15831.38
408.54	16657.59
408.73	16613.12
408.92	16400.13
409.11	16126.29
409.30	14984.11
409.49	14293.65
409.68	13355.10
409.87	12781.67
410.07	13713.20
410.26	15089.43
410.45	15719.04
410.64	15960.11
410.83	16760.58
411.02	17179.53
411.21	17788.07
411.40	17411.25
411.59	17551.68
411.78	17312.94
411.98	17069.53
412.17	17722.54
412.36	17476.78
412.55	17343.37
412.74	17041.44
412.93	16493.76
413.12	17041.44
413.31	18539.38
413.50	18515.98
413.69	18696.20
413.88	17916.80
414.07	17493.16
414.26	17848.93
414.45	18345.12
414.64	18485.55
414.83	18438.74
415.02	18485.55
415.22	17968.29
415.41	18642.37
415.60	19056.64
415.79	20266.70
415.98	20238.61
416.17	20243.29
416.36	19716.67
416.55	19356.23
416.74	18911.53
416.93	18431.72
417.12	18363.84
417.31	18441.08
417.50	18647.05
417.69	19604.33
417.88	19578.58
418.07	19138.56
418.26	19040.26
418.45	19009.83
418.64	19711.99
418.83	20592.03
419.02	20255.00
419.21	20067.75
419.39	18941.96
419.58	18338.10
419.77	18431.72
419.96	19248.57
420.15	20374.36
420.34	20760.55
420.53	21816.13
420.72	21984.65
420.91	21652.30
421.10	21502.50
421.29	21069.50
421.48	20496.07
421.67	21853.58
421.86	20905.66
422.05	19475.60
422.24	17359.75
422.43	17312.94
422.61	19576.24
422.80	20671.61
422.99	20865.88
423.18	19899.23
423.37	19686.25
423.56	20034.99
423.75	20182.44
423.94	20592.03
424.13	19538.79
424.32	19807.95
424.50	19679.22
424.69	19330.48
424.88	19646.46
425.07	19398.36
425.26	19709.65
425.45	19152.60
425.64	18836.63
425.83	18387.25
426.01	19953.07
426.20	20540.54
426.39	20589.69
426.58	18951.32
426.77	17680.41
426.96	16989.95
427.15	17418.27
427.33	18932.59
427.52	19407.72
427.71	19613.69
427.90	19548.15
428.09	19573.90
428.28	19000.47
428.46	18321.71
428.65	18066.60
428.84	18396.61
429.03	18857.70
429.22	17558.70
429.40	16711.42
429.59	15349.23
429.78	13455.74
429.97	13486.17
430.16	14106.41
430.34	13694.47
430.53	13701.50
430.72	14420.04
430.91	15674.57
431.10	18616.62
431.28	21783.37
431.47	23321.10
431.66	23370.25
431.85	21874.65
432.03	19662.84
432.22	18944.30
432.41	19754.12
432.60	21715.49
432.79	23040.23
432.97	23204.07
433.16	22906.82
433.35	20758.21
433.54	18607.26
433.72	17722.54
433.91	18197.67
434.10	20339.26
434.28	21729.53
434.47	22796.82
434.66	22230.41
434.85	21839.54
435.03	21612.51
435.22	22331.05
435.41	23782.18
435.59	23735.37
435.78	23910.91
435.97	24606.05
436.16	24746.48
436.34	24491.37
436.53	24180.07
436.72	23793.89
436.90	22216.36
437.09	22567.45
437.28	22246.79
437.46	23007.47
437.65	22902.14
437.84	21577.40
438.02	19782.21
438.21	19644.12
438.40	20559.27
438.58	22787.46
438.77	22787.46
438.96	23283.65
439.14	24294.76
439.33	24849.47
439.52	24847.13
439.70	24776.91
439.89	24067.73
440.08	23398.34
440.26	23655.79
440.45	24367.32
440.63	25530.56
440.82	27349.16
441.01	27122.13
441.19	26656.36
441.38	26981.70
441.57	27817.27
441.75	28254.95
441.94	28467.94
442.12	28250.27
442.31	28711.35
442.50	28568.58
442.68	28318.14
442.87	27885.14
443.05	27606.62
443.24	28147.28
443.43	28662.20
443.61	29586.71
443.80	29830.13
443.98	27864.08
444.17	27655.77
444.35	29193.50
444.54	29883.96
444.73	29329.25
444.91	28329.84
445.10	27138.51
445.28	26412.95
445.47	25710.78
445.65	25949.52
445.84	26501.89
446.02	27594.92
446.21	28166.01
446.39	28065.36
446.58	28313.46
446.77	28905.62
446.95	28879.87
447.14	29827.79
447.32	30513.56
447.51	29827.79
447.69	28718.37
447.88	28364.95
448.06	28872.85
448.25	29795.02
448.43	29418.19
448.62	28924.34
448.80	28748.80
448.99	28907.96
449.17	29305.85
449.36	29446.28
449.54	30745.28
449.73	30948.90
449.91	31269.56
450.10	32250.24
450.28	32154.28
450.46	32444.51
450.65	32334.50
450.83	31985.76
451.02	31515.31
451.20	31365.52
451.39	31615.96
451.57	31246.15
451.76	31243.81
451.94	30710.17
452.13	30155.46
452.31	29029.66
452.49	27885.14
452.68	27517.68
452.86	27908.55
453.05	28617.73
453.23	28940.72
453.42	29516.50
453.60	30464.41
453.78	31007.42
453.97	30485.48
454.15	30930.18
454.34	29860.55
454.52	30115.67
454.70	29504.79
454.89	29996.31
455.07	29652.25
455.26	30953.58
455.44	31688.51
455.62	32385.99
455.81	32067.68
455.99	32072.36
456.17	31676.81
456.36	31908.52
456.54	32500.68
456.73	32496.00
456.91	33336.25
457.09	33448.60
457.28	33598.39
457.46	32552.17
457.64	32280.67
457.83	31517.65
458.01	30974.65
458.19	31117.42
458.38	31796.18
458.56	33024.96
458.74	32713.67
458.93	32421.10
459.11	31908.52
459.29	31796.18
459.48	31878.10
459.66	31742.35
459.84	32566.21
460.03	32442.17
460.21	32407.06
460.39	33305.82
460.57	33441.57
460.76	33420.51
460.94	33900.32
461.12	32680.90
461.31	33511.79
461.49	33387.74
461.67	33404.13
461.85	34127.35
462.04	34185.86
462.22	34801.43
462.40	34778.02
462.59	34242.04
462.77	34328.64
462.95	34239.70
463.13	33706.05
463.32	33404.13
463.50	33317.53
463.68	33305.82
463.86	33677.97
464.05	33127.94
464.23	32238.54
464.41	32339.18
464.59	31512.97
464.78	33551.58
464.96	33338.59
465.14	32755.80
465.32	33603.07
465.50	34384.81
465.69	34731.21
465.87	34164.80
466.05	33071.77
466.23	31122.10
466.41	31157.21
466.60	32098.11
466.78	31941.29
466.96	32521.74
467.14	33083.47
467.32	33558.60
467.51	33483.70
467.69	32070.02
467.87	32854.10
468.05	33088.15
468.23	33354.97
468.41	33331.57
468.60	33165.39
468.78	33472.00
468.96	33233.27
469.14	33942.45
469.32	33951.81
469.50	32790.91
469.69	33053.05
469.87	32685.58
470.05	32243.22
470.23	32318.12
470.41	32687.92
470.59	32959.42
470.77	33057.73
470.95	33429.87
471.14	34052.45
471.32	34071.18
471.50	36142.55
471.68	35702.53
471.86	36371.92
472.04	36746.41
472.22	36828.33
472.40	34740.57
472.58	34522.90
472.77	33947.13
472.95	35339.75
473.13	36306.39
473.31	35257.83
473.49	35002.71
473.67	36018.50
473.85	35765.73
474.03	36872.80
474.21	36748.75
474.39	37666.24
474.57	37443.89
474.75	37612.41
474.93	37043.66
475.12	36477.25
475.30	36495.97
475.48	36659.81
475.66	37083.45
475.84	36734.71
476.02	36390.65
476.20	35693.17
476.38	36636.41
476.56	37937.74
476.74	38181.16
476.92	38415.21
477.10	38880.98
477.28	39739.96
477.46	40219.77
477.64	40865.75
477.82	40423.39
478.00	40395.31
478.18	39763.36
478.36	40086.36
478.54	39653.36
478.72	40062.95
478.90	41034.27
479.08	42300.50
479.26	42595.41
479.44	42520.51
479.62	42218.58
479.80	42061.77
479.98	42506.47
480.16	42920.74
480.34	42263.05
480.52	42511.15
480.70	42834.14
480.88	42909.04
481.06	43428.64
481.24	44247.83
481.41	45186.38
481.59	45677.90
481.77	45277.66
481.95	44992.12
482.13	44760.40
482.31	44542.74
482.49	45638.11
482.67	45439.16
482.85	45710.66
483.03	46050.04
483.21	46443.25
483.39	46391.76
483.57	45799.60
483.74	45638.11
483.92	45734.07
484.10	45876.84
484.28	46799.01
484.46	47164.14
484.64	47732.89
484.82	47065.83
485.00	46234.94
485.18	45532.78
485.35	44453.79
485.53	40840.01
485.71	37132.60
485.89	37041.32
486.07	38955.88
486.25	42284.12
486.43	44839.98
486.61	45525.76
486.78	45078.72
486.96	45785.56
487.14	47452.02
487.32	47875.66
487.50	49401.69
487.68	49935.33
487.85	50398.76
488.03	50253.64
488.21	49876.82
488.39	48783.79
488.57	48622.29
488.75	48467.81
488.92	49481.27
489.10	51840.53
489.28	52701.84
489.46	53783.17
489.64	53275.27
489.81	53787.85
489.99	53616.99
490.17	53521.03
490.35	53703.59
490.53	53162.93
490.70	52994.41
490.88	52481.83
491.06	53659.12
491.24	53546.78
491.41	52390.55
491.59	50806.01
491.77	50061.72
491.95	51302.20
492.13	52645.67
492.30	53731.68
492.48	54770.88
492.66	55068.12
492.84	54752.15
493.01	54756.83
493.19	54225.53
493.37	53968.07
493.54	53757.42
493.72	54431.50
493.90	55519.85
494.08	56027.74
494.25	56088.60
494.43	56584.79
494.61	56725.22
494.79	56851.61
494.96	56655.01
495.14	56002.00
495.32	55070.46
495.49	54721.72
495.67	55679.00
495.85	57043.54
496.02	57368.87
496.20	57003.75
496.38	56657.35
496.55	56727.56
496.73	57181.63
496.91	57226.10
497.09	57832.30
497.26	57762.08
497.44	57317.38
497.62	56905.44
497.79	56203.28
497.97	54815.35
498.14	55311.54
498.32	56385.85
498.50	57111.41
498.67	57670.80
498.85	57652.08
499.03	57696.55
499.20	57911.88
499.38	57996.13
499.56	57783.15
499.73	57202.69
499.91	56963.96
500.08	56243.07
500.26	55913.06
500.44	56177.54
500.61	56926.51
500.79	56739.27
500.97	56467.76
501.14	56278.18
501.32	55922.42
501.49	55959.87
501.67	56404.57
501.84	56769.69
502.02	57153.54
502.20	57153.54
502.37	57539.73
502.55	57815.91
502.72	58309.77
502.90	58621.06
503.07	58188.06
503.25	57808.89
503.43	56975.66
503.60	56392.87
503.78	55842.84
503.95	56369.46
504.13	57558.45
504.30	58539.14
504.48	57818.25
504.65	57832.30
504.83	57972.73
505.01	58560.20
505.18	58901.92
505.36	59334.92
505.53	59571.32
505.71	59791.33
505.88	59814.73
506.06	59030.65
506.23	58742.77
506.41	58398.71
506.58	58492.33
506.76	58639.78
506.93	58602.33
507.11	58457.22
507.28	58663.19
507.46	57921.24
507.63	57579.52
507.81	57422.70
507.98	57815.91
508.16	58337.85
508.33	58805.96
508.50	59250.66
508.68	59379.39
508.85	59915.37
509.03	59835.80
509.20	59578.34
509.38	58805.96
509.55	58330.83
509.73	58511.05
509.90	58899.58
510.08	59302.15
510.25	59056.40
510.42	58864.47
510.60	58827.02
510.77	59000.22
510.95	59756.22
511.12	59814.73
511.30	59938.78
511.47	60282.84
511.64	60102.62
511.82	59791.33
511.99	59051.72
512.17	58731.06
512.34	58349.56
512.51	58878.52
512.69	58810.64
512.86	59007.25
513.04	59107.89
513.21	59159.38
513.38	58932.35
513.56	58372.96
513.73	57900.17
513.90	58164.65
514.08	58047.63
514.25	58412.75
514.43	58574.25
514.60	58782.55
514.77	58904.26
514.95	58941.71
515.12	58894.90
515.29	59096.19
515.47	59526.84
515.64	59700.04
515.81	59480.03
515.99	58789.58
516.16	57368.87
516.33	54967.48
516.51	53794.87
516.68	52893.77
516.85	52690.14
517.03	53158.25
517.20	55959.87
517.37	58110.82
517.54	59150.02
517.72	58382.32
517.89	55973.91
518.06	53808.92
518.24	54534.48
518.41	56566.07
518.58	57530.37
518.75	57607.61
518.93	58087.42
519.10	57565.48
519.27	58497.01
519.45	58511.05
519.62	59124.27
519.79	59653.23
519.96	59341.94
520.14	58857.45
520.31	58127.20
520.48	58447.86
520.65	58548.50
520.83	59587.70
521.00	59678.98
521.17	59175.76
521.34	59222.58
521.52	59264.70
521.69	60034.74
521.86	60207.94
522.03	59718.77
522.20	58482.97
522.38	57701.23
522.55	57991.45
522.72	58358.92
522.89	58672.55
523.07	58820.00
523.24	59187.47
523.41	59718.77
523.58	60266.45
523.75	60657.32
523.92	60331.99
524.10	60395.18
524.27	60306.24
524.44	59978.57
524.61	59976.23
524.78	59861.54
524.96	59810.05
525.13	59924.74
525.30	60100.28
525.47	60575.40
525.64	60334.33
525.81	59749.20
525.98	58239.55
526.16	57085.67
526.33	56341.38
526.50	55894.33
526.67	55870.93
526.84	56463.08
527.01	57439.09
527.18	58202.10
527.36	58878.52
527.53	59751.54
527.70	59875.58
527.87	59351.30
528.04	58939.37
528.21	59468.33
528.38	60088.57
528.55	60589.45
528.72	60741.58
528.89	60954.57
529.07	60580.09
529.24	60229.01
529.41	59442.59
529.58	59058.74
529.75	59201.51
529.92	59505.78
530.09	60102.62
530.26	60470.08
530.43	60652.64
530.60	60434.97
530.77	60924.14
530.94	61022.45
531.11	60488.80
531.28	60133.04
531.46	60011.34
531.63	60219.64
531.80	60074.53
531.97	59414.50
532.14	58908.94
532.31	57832.30
532.48	57071.62
532.65	57298.65
532.82	58171.67
532.99	59379.39
533.16	59597.06
533.33	60095.60
533.50	59934.10
533.67	59379.39
533.84	59100.87
534.01	59194.49
534.18	59379.39
534.35	59456.63
534.52	59398.12
534.69	59700.04
534.86	59962.18
535.03	60182.19
535.20	60568.38
535.37	60846.91
535.54	61080.96
535.71	60587.11
535.88	60257.09
536.05	59510.46
536.22	59306.83
536.38	59044.69
536.55	58705.32
536.72	58049.97
536.89	58106.14
537.06	58990.86
537.23	59667.28
537.40	59966.87
537.57	60006.65
537.74	59728.13
537.91	59641.53
538.08	59714.09
538.25	59594.72
538.42	59814.73
538.59	59634.51
538.75	58962.78
538.92	58740.42
539.09	58721.70
539.26	58518.07
539.43	58459.56
539.60	58461.90
539.77	58719.36
539.94	58733.40
540.11	57832.30
540.28	57364.19
540.44	57427.38
540.61	57551.43
540.78	57879.11
540.95	58295.72
541.12	58674.89
541.29	58857.45
541.46	59302.15
541.62	59283.43
541.79	58876.18
541.96	58382.32
542.13	58599.99
542.30	58742.77
542.47	58915.96
542.63	58529.78
542.80	58501.69
542.97	58623.40
543.14	58471.26
543.31	58543.82
543.48	59098.53
543.64	59838.14
543.81	59849.84
543.98	59760.90
544.15	59199.17
544.32	58777.87
544.48	58691.27
544.65	59180.45
544.82	59473.01
544.99	59145.34
545.16	58962.78
545.32	58810.64
545.49	59473.01
545.66	59568.97
545.83	59297.47
546.00	58880.86
546.16	58735.74
546.33	58937.03
546.50	58890.22
546.67	59367.69
546.83	58717.02
547.00	59061.08
547.17	57991.45
547.34	57722.29
547.50	57804.21
547.67	58108.48
547.84	58375.30
548.00	58522.76
548.17	58925.33
548.34	58754.47
548.51	58805.96
548.67	58850.43
548.84	58777.87
549.01	58864.47
549.18	58674.89
549.34	58583.61
549.51	58848.09
549.68	58585.95
549.84	58492.33
550.01	58361.26
550.18	58178.70
550.34	58515.73
550.51	58518.07
550.68	58492.33
550.84	58078.05
551.01	58213.80
551.18	57993.79
551.34	58305.09
551.51	58387.00
551.68	58869.15
551.84	59000.22
552.01	58885.54
552.18	58536.80
552.34	57998.48
552.51	57542.07
552.68	57542.07
552.84	57839.32
553.01	58089.76
553.18	58024.22
553.34	57876.77
553.51	58174.02
553.67	58557.86
553.84	58599.99
554.01	58553.18
554.17	58363.60
554.34	58372.96
554.51	58595.31
554.67	58869.15
554.84	58567.23
555.00	58398.71
555.17	58078.05
555.33	58260.62
555.50	58155.29
555.67	58080.39
555.83	57902.51
556.00	57602.92
556.16	57563.14
556.33	57097.37
556.50	57387.60
556.66	57207.37
556.83	56907.79
556.99	57167.58
557.16	57265.89
557.32	57448.45
557.49	57722.29
557.65	57481.22
557.82	57574.84
557.98	57329.08
558.15	57015.45
558.32	56219.67
558.48	55334.95
558.65	55798.37
558.81	56257.12
558.98	56406.91
559.14	56580.11
559.31	56573.09
559.47	56537.98
559.64	56261.80
559.80	55772.63
559.97	55997.32
560.13	56512.23
560.30	57495.26
560.46	57733.99
560.63	57982.09
560.79	58129.54
560.96	57504.62
561.12	56573.09
561.29	55777.31
561.45	55774.97
561.61	56526.28
561.78	56860.97
561.94	56626.92
562.11	56500.53
562.27	56301.59
562.44	56830.55
562.60	56924.17
562.77	57179.29
562.93	56982.68
563.10	57162.90
563.26	56322.65
563.42	56591.81
563.59	56058.17
563.75	56236.05
563.92	56348.40
564.08	56399.89
564.24	56591.81
564.41	56657.35
564.57	56556.70
564.74	56261.80
564.90	56287.54
565.07	56095.62
565.23	56044.13
565.39	55126.64
565.56	54965.14
565.72	54789.60
565.88	55236.64
566.05	55344.31
566.21	55423.89
566.38	55461.33
566.54	55854.54
566.70	56002.00
566.87	56254.78
567.03	56397.55
567.19	56409.25
567.36	56198.60
567.52	56025.40
567.68	56006.68
567.85	55311.54
568.01	55121.96
568.17	54319.15
568.34	54705.34
568.50	54604.70
568.66	54653.85
568.83	55070.46
568.99	55325.58
569.15	55332.60
569.32	55154.72
569.48	54972.16
569.64	54686.62
569.81	54480.65
569.97	54443.20
570.13	54071.06
570.30	54059.35
570.46	53514.01
570.62	52790.78
570.78	52942.92
570.95	53139.52
571.11	54028.93
571.27	54129.57
571.43	54270.00
571.60	54944.08
571.76	54791.94
571.92	55028.34
572.09	55196.85
572.25	55185.15
572.41	55089.19
572.57	55037.70
572.74	55131.32
572.90	54607.04
573.06	54307.45
573.22	54571.93
573.38	54569.59
573.55	54504.06
573.71	54646.83
573.87	54473.63
574.03	54571.93
574.20	54419.80
574.36	54176.38
574.52	53865.09
574.68	53822.96
574.84	53336.13
575.01	53027.18
575.17	53092.71
575.33	53092.71
575.49	53727.00
575.65	53890.83
575.82	53333.79
575.98	53104.41
576.14	53446.13
576.30	53738.70
576.46	53595.93
576.62	53876.79
576.79	53965.73
576.95	53635.72
577.11	53291.66
577.27	53570.18
577.43	53642.74
577.59	53055.26
577.75	52774.40
577.92	52062.88
578.08	52074.58
578.24	51819.46
578.40	52383.53
578.56	52505.24
578.72	52453.75
578.88	52666.73
579.04	53043.56
579.21	53073.99
579.37	52980.37
579.53	53057.60
579.69	53167.61
579.85	53214.42
580.01	53296.34
580.17	52645.67
580.33	52858.66
580.49	52676.10
580.65	52935.90
580.82	53027.18
580.98	52865.68
581.14	53038.88
581.30	53125.48
581.46	53118.46
581.62	53476.56
581.78	53368.90
581.94	53429.75
582.10	53506.99
582.26	53347.83
582.42	53429.75
582.58	53514.01
582.74	53268.25
582.90	53439.11
583.06	53123.14
583.22	53296.34
583.38	52910.15
583.54	52839.93
583.70	53188.67
583.86	53029.52
584.02	52844.62
584.18	52884.40
584.34	52818.87
584.50	52633.97
584.66	52610.56
584.82	52275.87
584.98	52418.64
585.14	51683.71
585.30	51054.11
