SpectraSuite Data File
++++++++++++++++++++++++++++++++++++
Date: Mon Oct 07 14:53:18 GMT-05:00 2013
User: price-jones
Dark Spectrum Present: No
Reference Spectrum Present: No
Number of Sampled Component Spectra: 1
Spectrometers: USB2+H05261
Integration Time (usec): 100000 (USB2+H05261)
Spectra Averaged: 1 (USB2+H05261)
Boxcar Smoothing: 0 (USB2+H05261)
Correct for Electrical Dark: No (USB2+H05261)
Strobe/Lamp Enabled: No (USB2+H05261)
Correct for Detector Non-linearity: No (USB2+H05261)
Correct for Stray Light: No (USB2+H05261)
Number of Pixels in Processed Spectrum: 2048
>>>>>Begin Processed Spectral Data<<<<<
365.73	0.00
365.92	0.00
366.12	0.00
366.32	0.00
366.52	0.00
366.72	0.00
366.91	0.00
367.11	0.00
367.31	0.00
367.51	0.00
367.70	0.00
367.90	0.00
368.10	0.00
368.30	0.00
368.49	0.00
368.69	0.00
368.89	0.00
369.09	0.00
369.28	0.00
369.48	0.00
369.68	0.00
369.87	0.00
370.07	0.00
370.27	0.00
370.47	662.37
370.66	3618.47
370.86	4042.11
371.06	4564.04
371.25	4402.55
371.45	4002.32
371.65	3595.06
371.84	3447.61
372.04	3609.11
372.24	3927.42
372.44	4114.66
372.63	4114.66
372.83	3810.39
373.03	3382.07
373.22	3084.83
373.42	3318.88
373.62	3754.22
373.81	4105.30
374.01	4074.87
374.21	3714.43
374.40	3438.25
374.60	3531.87
374.79	4014.02
374.99	4587.45
375.19	5025.13
375.38	5055.56
375.58	4695.11
375.78	4615.54
375.97	4613.20
376.17	4882.36
376.37	4868.31
376.56	5078.96
376.76	5416.00
376.95	5544.73
377.15	6230.51
377.35	6246.89
377.54	6480.94
377.74	6504.35
377.93	6675.21
378.13	6340.51
378.33	6115.82
378.52	5748.36
378.72	5392.59
378.91	5324.72
379.11	5242.80
379.31	5029.81
379.50	5011.09
379.70	5444.09
379.89	6132.20
380.09	6242.21
380.28	6502.01
380.48	6338.17
380.68	6403.71
380.87	6478.60
381.07	5811.55
381.26	5366.85
381.46	4894.06
381.65	4870.65
381.85	4709.16
382.04	4447.02
382.24	4283.18
382.43	3999.98
382.63	3798.69
382.83	3904.01
383.02	3948.48
383.22	3847.84
383.41	3943.80
383.61	4276.16
383.80	4851.93
384.00	5540.05
384.19	6139.23
384.39	6675.21
384.58	6497.33
384.78	6155.61
384.97	6289.02
385.17	6038.58
385.36	5472.17
385.56	5469.83
385.75	5586.86
385.95	6073.69
386.14	6771.17
386.34	6757.13
386.53	6333.49
386.72	6026.88
386.92	6125.18
387.11	6438.81
387.31	6656.48
387.50	6576.91
387.70	6392.00
387.89	6127.52
388.09	6286.68
388.28	6305.40
388.48	6476.26
388.67	6829.68
388.86	7630.15
389.06	8065.49
389.25	8709.13
389.45	8683.39
389.64	8709.13
389.84	8463.38
390.03	8425.93
390.22	8468.06
390.42	8896.38
390.61	9317.67
390.81	9944.94
391.00	10059.62
391.19	9893.44
391.39	9619.60
391.58	9036.81
391.78	8739.56
391.97	8226.98
392.16	7674.62
392.36	6895.22
392.55	5680.48
392.75	4585.11
392.94	3672.30
393.13	3688.68
393.33	4428.29
393.52	5544.73
393.71	6860.11
393.91	7674.62
394.10	8168.47
394.29	9046.17
394.49	9872.38
394.68	10406.02
394.88	10476.24
395.07	11112.86
395.26	10633.05
395.46	10651.78
395.65	9837.27
395.84	8762.97
396.04	7260.34
396.23	5905.17
396.42	4983.00
396.62	4772.35
396.81	5753.04
397.00	7145.66
397.19	9146.81
397.39	10813.28
397.58	12163.76
397.77	12671.66
397.97	13472.12
398.16	13502.55
398.35	13743.63
398.55	14099.39
398.74	14668.14
398.93	15131.56
399.12	14801.55
399.32	14176.62
399.51	14565.15
399.70	15889.90
399.90	15499.03
400.09	15339.87
400.28	15246.25
400.47	15910.96
400.67	16362.69
400.86	16664.61
401.05	16411.84
401.24	16828.45
401.44	16947.82
401.63	17067.19
401.82	17048.46
402.01	17025.06
402.21	17413.59
402.40	17598.49
402.59	17090.59
402.78	15932.03
402.97	15744.78
403.17	16278.43
403.36	17284.86
403.55	17603.17
403.74	18178.94
403.93	17137.40
404.13	16051.39
404.32	15520.09
404.51	16191.83
404.70	17549.34
404.89	17575.08
405.09	17469.76
405.28	17076.55
405.47	17291.88
405.66	17078.89
405.85	16683.34
406.05	16009.26
406.24	16027.99
406.43	17078.89
406.62	17654.66
406.81	17612.53
407.00	17003.99
407.20	16751.21
407.39	16776.96
407.58	17542.32
407.77	18417.68
407.96	18831.95
408.15	19154.94
408.34	19140.90
408.54	20180.10
408.73	20067.75
408.92	19728.38
409.11	19164.31
409.30	18197.67
409.49	16992.29
409.68	16102.89
409.87	15665.21
410.07	16582.70
410.26	17902.76
410.45	18981.74
410.64	19475.60
410.83	20255.00
411.02	20755.87
411.21	21673.36
411.40	21078.86
411.59	21067.16
411.78	20971.20
411.98	20680.97
412.17	21336.32
412.36	20781.62
412.55	20882.26
412.74	20472.67
412.93	19826.68
413.12	20465.64
413.31	22066.57
413.50	22450.42
413.69	22618.94
413.88	21366.75
414.07	21146.74
414.26	21380.79
414.45	22513.61
414.64	22279.56
414.83	22396.59
415.02	22010.40
415.22	21783.37
415.41	22576.81
415.60	23037.89
415.79	24151.99
415.98	24610.73
416.17	24812.02
416.36	23796.23
416.55	23220.45
416.74	23056.62
416.93	22340.41
417.12	22143.81
417.31	22750.01
417.50	22719.58
417.69	23346.84
417.88	23634.73
418.07	23304.71
418.26	22686.81
418.45	23302.37
418.64	24191.78
418.83	24858.83
419.02	24620.10
419.21	24313.48
419.39	23285.99
419.58	21977.63
419.77	22370.84
419.96	23501.32
420.15	24739.46
420.34	25144.38
420.53	26127.40
420.72	26691.47
420.91	26103.99
421.10	26012.71
421.29	26005.69
421.48	25174.80
421.67	26167.19
421.86	25315.23
422.05	23173.64
422.24	21642.93
422.43	21095.25
422.61	23257.90
422.80	25179.48
422.99	24833.08
423.18	24196.46
423.37	24072.41
423.56	24196.46
423.75	24254.97
423.94	24833.08
424.13	23396.00
424.32	23772.82
424.50	23782.18
424.69	23400.68
424.88	23630.05
425.07	23552.81
425.26	23133.86
425.45	23168.96
425.64	22775.75
425.83	22796.82
426.01	24046.66
426.20	24500.73
426.39	24474.98
426.58	22464.46
426.77	21165.46
426.96	20486.71
427.15	21298.88
427.33	22808.52
427.52	23730.69
427.71	23843.04
427.90	23346.84
428.09	23342.16
428.28	22745.33
428.46	22078.27
428.65	21558.67
428.84	22167.21
429.03	22848.31
429.22	21462.71
429.40	20465.64
429.59	18347.46
429.78	16224.59
429.97	16348.64
430.16	16594.40
430.34	16678.66
430.53	16659.93
430.72	17118.68
430.91	18850.67
431.10	22174.24
431.28	25930.80
431.47	28053.66
431.66	28037.28
431.85	25886.32
432.03	23852.40
432.22	23187.69
432.41	23859.42
432.60	26565.08
432.79	27414.69
432.97	28416.44
433.16	27541.08
433.35	24877.55
433.54	22927.89
433.72	21390.16
433.91	22005.72
434.10	24444.56
434.28	26092.29
434.47	27288.31
434.66	26871.69
434.85	26478.48
435.03	26256.13
435.22	27094.04
435.41	28381.34
435.59	28666.88
435.78	28767.52
435.97	29874.60
436.16	29982.26
436.34	29230.95
436.53	28987.53
436.72	28657.52
436.90	27168.94
437.09	26960.63
437.28	26710.19
437.46	28002.17
437.65	28107.49
437.84	25909.73
438.02	23791.55
438.21	23391.31
438.40	24842.45
438.58	27058.93
438.77	27899.19
438.96	28451.55
439.14	29434.58
439.33	29986.94
439.52	30773.36
439.70	29596.07
439.89	29219.25
440.08	28294.74
440.26	28388.36
440.45	29291.80
440.63	31367.86
440.82	32744.09
441.01	32233.86
441.19	31789.16
441.38	32690.26
441.57	33530.51
441.75	34066.50
441.94	34249.06
442.12	33914.36
442.31	34925.47
442.50	34885.68
442.68	34155.44
442.87	33809.04
443.05	33039.00
443.24	33937.77
443.43	34443.32
443.61	35405.28
443.80	35480.18
443.98	34050.11
444.17	33542.22
444.35	35421.67
444.54	35922.54
444.73	35154.85
444.91	34293.53
445.10	33216.88
445.28	31440.42
445.47	31079.97
445.65	31185.30
445.84	32268.97
446.02	32886.87
446.21	33792.65
446.39	33619.46
446.58	34319.28
446.77	35077.61
446.95	35496.56
447.14	35793.81
447.32	36723.01
447.51	36114.47
447.69	34455.03
447.88	33776.27
448.06	34639.93
448.25	35491.88
448.43	35826.58
448.62	34845.90
448.80	35005.05
448.99	34913.77
449.17	35180.59
449.36	35459.12
449.54	36596.62
449.73	37099.83
449.91	37312.82
450.10	38419.89
450.28	38815.44
450.46	39044.82
450.65	38892.68
450.83	38583.73
451.02	37860.51
451.20	37755.18
451.39	37581.98
451.57	37249.63
451.76	37439.21
451.94	37144.30
452.13	36037.23
452.31	34801.43
452.49	33343.27
452.68	33823.08
452.86	33656.90
453.05	34176.50
453.23	35330.39
453.42	36123.83
453.60	36587.25
453.78	37373.67
453.97	36589.59
454.15	37415.80
454.34	35756.36
454.52	36589.59
454.70	35435.71
454.89	35903.82
455.07	36182.34
455.26	36617.68
455.44	38625.86
455.62	38548.62
455.81	38677.35
455.99	38419.89
456.17	37975.19
456.36	38223.29
456.54	39065.88
456.73	38958.22
456.91	39852.30
457.09	40442.12
457.28	40657.45
457.46	39227.38
457.64	38953.54
457.83	37773.91
458.01	37010.89
458.19	38099.24
458.38	38433.94
458.56	39370.15
458.74	39122.05
458.93	38466.70
459.11	38398.83
459.29	37888.59
459.48	38401.17
459.66	38667.99
459.84	38944.17
460.03	39164.18
460.21	38965.24
460.39	40212.74
460.57	40245.51
460.76	40519.35
460.94	40603.61
461.12	39564.42
461.31	40350.84
461.49	40006.78
461.67	40271.26
461.85	41347.90
462.04	40971.08
462.22	41827.71
462.40	41603.02
462.59	40854.05
462.77	40957.03
462.95	41050.66
463.13	40460.84
463.32	40531.06
463.50	39882.73
463.68	39730.59
463.86	40612.98
464.05	39435.69
464.23	38974.60
464.41	38948.85
464.59	38333.29
464.78	40383.60
464.96	39985.71
465.14	39367.81
465.32	40470.20
465.50	41347.90
465.69	41689.62
465.87	40491.27
466.05	39723.57
466.23	38298.19
466.41	37294.10
466.60	38745.23
466.78	38040.73
466.96	39047.16
467.14	39969.33
467.32	40449.14
467.51	40456.16
467.69	38639.90
467.87	38976.94
468.05	40048.91
468.23	40367.22
468.41	39959.97
468.60	40175.30
468.78	40334.45
468.96	39892.09
469.14	40430.41
469.32	41233.22
469.50	39276.53
469.69	39449.73
469.87	39337.38
470.05	38550.96
470.23	38520.54
470.41	38859.91
470.59	39330.36
470.77	39601.86
470.95	40446.80
471.14	40795.54
471.32	40919.59
471.50	43192.25
471.68	43540.99
471.86	43423.96
472.04	43557.37
472.22	43693.12
472.40	41556.21
472.58	41354.93
472.77	41247.26
472.95	42050.06
473.13	42759.25
473.31	41720.05
473.49	42373.06
473.67	43178.20
473.85	43232.04
474.03	44006.75
474.21	44135.48
474.39	44811.90
474.57	45031.91
474.75	45118.51
474.93	44708.91
475.12	43519.92
475.30	43519.92
475.48	44238.47
475.66	44498.26
475.84	43828.87
476.02	43349.06
476.20	43093.94
476.38	44004.41
476.56	44797.85
476.74	45684.92
476.92	46028.98
477.10	46295.80
477.28	47487.13
477.46	47440.32
477.64	47856.93
477.82	47763.31
478.00	48289.93
478.18	47482.45
478.36	47334.99
478.54	46775.61
478.72	46960.51
478.90	48559.09
479.08	49914.26
479.26	50143.64
479.44	49881.50
479.62	49497.65
479.80	49591.27
479.98	49778.51
480.16	50141.30
480.34	49848.73
480.52	49815.96
480.70	50185.77
480.88	50216.19
481.06	50925.38
481.24	51430.93
481.41	52116.71
481.59	52685.46
481.77	52107.35
481.95	51599.45
482.13	51629.88
482.31	51777.33
482.49	52266.50
482.67	52226.71
482.85	52317.99
483.03	52629.29
483.21	52856.32
483.39	52973.34
483.57	52790.78
483.74	52350.76
483.92	52505.24
484.10	52701.84
484.28	53647.42
484.46	53736.36
484.64	54204.47
484.82	53289.32
485.00	53050.58
485.18	52446.72
485.35	51056.45
485.53	48271.21
485.71	44884.45
485.89	44201.02
486.07	46642.20
486.25	49696.59
486.43	51559.66
486.61	52343.74
486.78	52182.24
486.96	52332.04
487.14	53689.55
487.32	54450.22
487.50	55185.15
487.68	55810.07
487.85	56369.46
488.03	56093.28
488.21	55774.97
488.39	55309.20
488.57	54724.07
488.75	54305.11
488.92	55463.67
489.10	57209.71
489.28	58014.86
489.46	58831.71
489.64	58515.73
489.81	58719.36
489.99	58195.08
490.17	58461.90
490.35	58693.61
490.53	58342.53
490.70	58024.22
490.88	58066.35
491.06	59028.31
491.24	58710.00
491.41	57979.75
491.59	56463.08
491.77	56053.49
491.95	56931.19
492.13	57925.92
492.30	58749.79
492.48	59803.03
492.66	59976.23
492.84	60025.38
493.01	59737.49
493.19	59491.74
493.37	59007.25
493.54	58820.00
493.72	59475.35
493.90	60198.58
494.08	60781.37
494.25	61099.68
494.43	61202.67
494.61	61773.76
494.79	61776.10
494.96	61469.49
495.14	60905.42
495.32	60154.11
495.49	59601.74
495.67	60659.66
495.85	61771.42
496.02	61841.63
496.20	61846.32
496.38	61581.84
496.55	61422.68
496.73	61860.36
496.91	61867.38
497.09	62433.79
497.26	62492.30
497.44	62230.16
497.62	61738.65
497.79	61078.62
497.97	59985.59
498.14	60271.14
498.32	61155.86
498.50	61843.98
498.67	62349.53
498.85	62218.46
499.03	62291.02
499.20	62578.90
499.38	62621.03
499.56	62496.98
499.73	62021.86
499.91	61638.01
500.08	61305.65
500.26	60580.09
500.44	61221.39
500.61	61570.13
500.79	61511.62
500.97	61272.88
501.14	61064.58
501.32	60889.04
501.49	61151.18
501.67	61132.45
501.84	61464.81
502.02	61928.23
502.20	62148.24
502.37	62113.14
502.55	62312.08
502.72	62777.85
502.90	63161.70
503.07	62815.30
503.25	62644.44
503.43	61773.76
503.60	61228.41
503.78	60425.61
503.95	61155.86
504.13	62506.35
504.30	62958.07
504.48	62937.01
504.65	62705.29
504.83	62494.64
505.01	63203.83
505.18	63426.18
505.36	63950.46
505.53	64058.12
505.71	64118.98
505.88	64161.11
506.06	63683.64
506.23	63407.45
506.41	63063.39
506.58	63217.87
506.76	63171.06
506.93	63283.40
507.11	63032.97
507.28	63157.02
507.46	62801.25
507.63	62237.19
507.81	62101.43
507.98	62522.73
508.16	62822.32
508.33	63271.70
508.50	63714.06
508.68	63910.67
508.85	64420.90
509.03	64446.65
509.20	64343.67
509.38	63704.70
509.55	62838.70
509.73	63189.78
509.90	63545.54
510.08	63868.54
510.25	63678.96
510.42	63451.92
510.60	63358.30
510.77	63718.74
510.95	64144.72
511.12	64317.92
511.30	64540.27
511.47	64879.65
511.64	64563.68
511.82	64385.80
511.99	63725.77
512.17	63430.86
512.34	62965.09
512.51	63241.28
512.69	63220.21
512.86	63295.11
513.04	63585.33
513.21	63812.37
513.38	63498.73
513.56	63004.88
513.73	62473.58
513.90	62857.43
514.08	62747.42
514.25	63215.53
514.43	63348.94
514.60	63407.45
514.77	63524.48
514.95	63604.06
515.12	63468.31
515.29	63737.47
515.47	64067.48
515.64	64338.99
515.81	63990.25
515.99	63524.48
516.16	62225.48
516.33	60177.51
516.51	58918.31
516.68	58192.74
516.85	58087.42
517.03	58571.91
517.20	60706.47
517.37	62763.81
517.54	63615.76
517.72	63210.85
517.89	60947.55
518.06	59185.13
518.24	59428.54
518.41	61233.10
518.58	62279.31
518.75	62738.06
518.93	62637.42
519.10	62471.24
519.27	63049.35
519.45	63379.37
519.62	63842.79
519.79	64090.89
519.96	64086.21
520.14	63475.33
520.31	62646.78
520.48	62707.63
520.65	63201.49
520.83	63985.57
521.00	64299.20
521.17	63842.79
521.34	63475.33
521.52	64008.97
521.69	64390.48
521.86	64617.51
522.03	64320.26
522.20	63196.80
522.38	62410.38
522.55	62501.67
522.72	63047.01
522.89	63196.80
523.07	63433.20
523.24	63643.85
523.41	64406.86
523.58	64652.62
523.75	65106.68
523.92	64839.86
524.10	65104.34
524.27	64910.08
524.44	64760.28
524.61	64491.12
524.78	64446.65
524.96	64198.55
525.13	64254.73
525.30	64652.62
525.47	65036.47
525.64	64800.07
525.81	64168.13
525.98	62981.48
526.16	61811.21
526.33	61092.66
526.50	60867.97
526.67	60481.78
526.84	60975.64
527.01	62073.35
527.18	62663.16
527.36	63557.25
527.53	64357.71
527.70	64397.50
527.87	63957.48
528.04	63547.89
528.21	63978.54
528.38	64624.53
528.55	64999.02
528.72	65233.07
528.89	65492.87
529.07	65387.55
529.24	64708.79
529.41	64179.83
529.58	63671.93
529.75	63716.40
529.92	64259.41
530.09	64470.06
530.26	64947.53
530.43	65204.98
530.60	65326.69
530.77	65429.68
530.94	65228.39
531.11	65024.76
531.28	64755.60
531.46	64598.79
531.63	64755.60
531.80	64537.93
531.97	63987.91
532.14	63505.76
532.31	62628.05
532.48	62178.67
532.65	62178.67
532.82	62897.22
532.99	63763.21
533.16	64264.09
533.33	64521.55
533.50	64350.69
533.67	63915.35
533.84	63681.30
534.01	63908.33
534.18	63770.24
534.35	63983.22
534.52	63791.30
534.69	64154.08
534.86	64448.99
535.03	64694.75
535.20	65130.09
535.37	65310.31
535.54	65535.00
535.71	65179.24
535.88	64881.99
536.05	64069.82
536.22	63662.57
536.38	63688.32
536.55	63056.37
536.72	62824.66
536.89	62906.58
537.06	63529.16
537.23	64254.73
537.40	64582.40
537.57	64416.22
537.74	64275.79
537.91	64362.39
538.08	64067.48
538.25	64116.64
538.42	64427.93
538.59	64280.47
538.75	63711.72
538.92	63320.85
539.09	63351.28
539.26	63166.38
539.43	63065.73
539.60	63131.27
539.77	63044.67
539.94	63227.23
540.11	62431.45
540.28	61965.68
540.44	62220.80
540.61	62300.38
540.78	62520.39
540.95	63018.92
541.12	63402.77
541.29	63437.88
541.46	63618.10
541.62	63765.56
541.79	63599.38
541.96	63016.58
542.13	63206.17
542.30	63416.82
542.47	63566.61
542.63	63283.40
542.80	63227.23
542.97	63175.74
543.14	63117.23
543.31	63267.02
543.48	63749.17
543.64	64322.60
543.81	64357.71
543.98	64236.00
544.15	63819.39
544.32	63250.64
544.48	63496.39
544.65	63891.94
544.82	64079.19
544.99	63751.51
545.16	63611.08
545.32	63297.45
545.49	63884.92
545.66	64252.39
545.83	63798.32
546.00	63477.67
546.16	63386.39
546.33	63302.13
546.50	63400.43
546.67	63746.83
546.83	63456.60
547.00	63203.83
547.17	62810.62
547.34	62419.75
547.50	62457.20
547.67	62742.74
547.84	62707.63
548.00	63325.53
548.17	63592.36
548.34	63339.58
548.51	63414.47
548.67	63444.90
548.84	63650.87
549.01	63578.31
549.18	63297.45
549.34	63142.97
549.51	63241.28
549.68	63199.15
549.84	62960.41
550.01	62944.03
550.18	63030.63
550.34	62946.37
550.51	63154.68
550.68	63171.06
550.84	62658.48
551.01	62787.21
551.18	62796.57
551.34	62864.45
551.51	63283.40
551.68	63512.78
551.84	63454.26
552.01	63243.62
552.18	63112.55
552.34	62412.73
552.51	62251.23
552.68	62005.47
552.84	62616.35
553.01	62887.85
553.18	62738.06
553.34	62789.55
553.51	62939.35
553.67	63098.50
553.84	63309.15
554.01	63372.34
554.17	62965.09
554.34	62965.09
554.51	63138.29
554.67	63590.01
554.84	63276.38
555.00	62890.19
555.17	62775.51
555.33	62536.77
555.50	62951.05
555.67	62611.67
555.83	62632.74
556.00	62433.79
556.16	62365.91
556.33	62113.14
556.50	61862.70
556.66	62014.83
556.83	61956.32
556.99	61773.76
557.16	61808.87
557.32	62061.64
557.49	62288.68
557.65	62520.39
557.82	62211.44
557.98	62138.88
558.15	61586.52
558.32	60919.46
558.48	60381.14
558.65	60570.72
558.81	61006.06
558.98	61059.90
559.14	61343.10
559.31	61542.05
559.47	61453.11
559.64	61073.94
559.80	60734.56
559.97	60839.89
560.13	61303.31
560.30	61937.60
560.46	62234.84
560.63	62742.74
560.79	62475.92
560.96	62295.70
561.12	61216.71
561.29	60636.26
561.45	60631.58
561.61	61130.11
561.78	61673.12
561.94	61366.51
562.11	61567.79
562.27	61146.50
562.44	61509.28
562.60	61736.31
562.77	61851.00
562.93	61708.22
563.10	61818.23
563.26	61165.22
563.42	61483.53
563.59	61249.48
563.75	61263.52
563.92	61343.10
564.08	61244.80
564.24	61446.08
564.41	61467.15
564.57	61181.60
564.74	61052.87
564.90	61272.88
565.07	60863.29
565.23	60549.66
565.39	60109.64
565.56	60184.54
565.72	59683.66
565.88	60205.60
566.05	60273.48
566.21	60631.58
566.38	60486.46
566.54	60610.51
566.70	60821.16
566.87	61125.43
567.03	61066.92
567.19	61247.14
567.36	61080.96
567.52	60807.12
567.68	60596.47
567.85	60135.38
568.01	59718.77
568.17	59618.13
568.34	59568.97
568.50	59606.42
568.66	59618.13
568.83	59955.16
568.99	60109.64
569.15	60280.50
569.32	60341.35
569.48	60009.00
569.64	59901.33
569.81	59405.14
569.97	59559.61
570.13	59524.50
570.30	58953.41
570.46	58534.46
570.62	58181.04
570.78	58312.11
570.95	58342.53
571.11	58901.92
571.27	59138.32
571.43	59529.19
571.60	59774.94
571.76	59814.73
571.92	60212.62
572.09	60123.68
572.25	60023.04
572.41	60133.04
572.57	59945.80
572.74	60121.34
572.90	59522.16
573.06	59625.15
573.22	59604.08
573.38	59718.77
573.55	59765.58
573.71	59606.42
573.87	59777.28
574.03	59643.87
574.20	59538.55
574.36	59391.09
574.52	59157.04
574.68	58876.18
574.84	58515.73
575.01	58265.30
575.17	58120.18
575.33	58539.14
575.49	58663.19
575.65	59093.85
575.82	58635.10
575.98	58349.56
576.14	58810.64
576.30	58897.24
576.46	58922.99
576.62	58820.00
576.79	58815.32
576.95	58609.35
577.11	58487.65
577.27	58763.83
577.43	58571.91
577.59	58398.71
577.75	58047.63
577.92	57504.62
578.08	57216.74
578.24	57375.89
578.40	57626.33
578.56	58115.50
578.72	57904.85
578.88	58227.85
579.04	58181.04
579.21	58344.87
579.37	58358.92
579.53	58344.87
579.69	58349.56
579.85	58550.84
580.01	58394.03
580.17	57932.94
580.33	57888.47
580.49	57963.37
580.65	58185.72
580.82	58361.26
580.98	58281.68
581.14	58260.62
581.30	58422.11
581.46	58298.06
581.62	58497.01
581.78	58405.73
581.94	58621.06
582.10	58667.87
582.26	58534.46
582.42	58614.04
582.58	58791.92
582.74	58665.53
582.90	58663.19
583.06	58422.11
583.22	58195.08
583.38	58099.12
583.54	58211.46
583.70	58382.32
583.86	58293.38
584.02	58237.21
584.18	58227.85
584.34	58021.88
584.50	57991.45
584.66	57972.73
584.82	57460.15
584.98	57591.22
585.14	57420.36
