SpectraSuite Data File
++++++++++++++++++++++++++++++++++++
Date: Mon Oct 07 14:53:03 GMT-05:00 2013
User: price-jones
Dark Spectrum Present: No
Reference Spectrum Present: No
Number of Sampled Component Spectra: 1
Spectrometers: USB2+H05261
Integration Time (usec): 100000 (USB2+H05261)
Spectra Averaged: 1 (USB2+H05261)
Boxcar Smoothing: 0 (USB2+H05261)
Correct for Electrical Dark: No (USB2+H05261)
Strobe/Lamp Enabled: No (USB2+H05261)
Correct for Detector Non-linearity: No (USB2+H05261)
Correct for Stray Light: No (USB2+H05261)
Number of Pixels in Processed Spectrum: 2048
>>>>>Begin Processed Spectral Data<<<<<
365.73	0.00
365.92	0.00
366.12	0.00
366.32	0.00
366.52	0.00
366.72	0.00
366.91	0.00
367.11	0.00
367.31	0.00
367.51	0.00
367.70	0.00
367.90	0.00
368.10	0.00
368.30	0.00
368.49	0.00
368.69	0.00
368.89	0.00
369.09	0.00
369.28	0.00
369.48	0.00
369.68	0.00
369.87	0.00
370.07	0.00
370.27	0.00
370.47	507.90
370.66	2644.81
370.86	3180.79
371.06	3379.73
371.25	3555.27
371.45	3145.68
371.65	2864.82
371.84	2630.76
372.04	2820.35
372.24	3049.72
372.44	3129.30
372.63	3129.30
372.83	2946.73
373.03	2670.55
373.22	2415.43
373.42	2525.44
373.62	2860.13
373.81	3358.67
374.01	3110.57
374.21	2862.48
374.40	2560.55
374.60	2782.90
374.79	3089.51
374.99	3758.90
375.19	4025.72
375.38	3978.91
375.58	3585.70
375.78	3676.98
375.97	3751.88
376.17	3850.18
376.37	3819.75
376.56	3974.23
376.76	3976.57
376.95	4374.46
377.15	4730.22
377.35	4975.98
377.54	5100.03
377.74	5114.07
377.93	5214.71
378.13	5125.77
378.33	4793.42
378.52	4264.46
378.72	4353.40
378.91	4191.90
379.11	4128.70
379.31	3964.87
379.50	3911.04
379.70	4299.56
379.89	4741.93
380.09	5043.85
380.28	5172.58
380.48	5118.75
380.68	4919.81
380.87	4924.49
381.07	4566.39
381.26	4248.07
381.46	3964.87
381.65	3772.94
381.85	3705.07
382.04	3494.42
382.24	3267.39
382.43	3082.49
382.63	3105.89
382.83	3103.55
383.02	2986.52
383.22	3192.49
383.41	3215.90
383.61	3225.26
383.80	3733.15
384.00	4262.12
384.19	4983.00
384.39	4983.00
384.58	5135.14
384.78	4966.62
384.97	4894.06
385.17	4573.41
385.36	4507.87
385.56	4273.82
385.75	4344.03
385.95	4798.10
386.14	5327.06
386.34	5123.43
386.53	4917.47
386.72	4608.51
386.92	4788.74
387.11	5083.64
387.31	5177.26
387.50	4957.25
387.70	5069.60
387.89	4870.65
388.09	5039.17
388.28	5032.15
388.48	5011.09
388.67	5474.51
388.86	5942.62
389.06	6363.92
389.25	6731.38
389.45	6799.26
389.64	6764.15
389.84	6724.36
390.03	6619.04
390.22	6677.55
390.42	6785.21
390.61	7049.69
390.81	7698.02
391.00	7679.30
391.19	7756.54
391.39	7461.63
391.58	7007.56
391.78	6642.44
391.97	6576.91
392.16	6115.82
392.36	5418.34
392.55	4271.48
392.75	3485.06
392.94	2906.95
393.13	2794.60
393.33	3389.10
393.52	4493.83
393.71	5303.65
393.91	6043.26
394.10	6534.78
394.29	7094.16
394.49	7749.51
394.68	8234.00
394.88	8182.51
395.07	8414.23
395.26	8271.45
395.46	8107.62
395.65	7700.36
395.84	6743.08
396.04	5830.27
396.23	4652.98
396.42	3920.40
396.62	3791.67
396.81	4360.42
397.00	5624.31
397.19	7012.24
397.39	8423.59
397.58	9312.99
397.77	9788.12
397.97	9982.38
398.16	10370.91
398.35	10738.38
398.55	10995.84
398.74	11459.26
398.93	11779.92
399.12	11426.50
399.32	11194.78
399.51	11681.61
399.70	12131.00
399.90	11941.41
400.09	12128.66
400.28	11878.22
400.47	12035.03
400.67	12601.44
400.86	12549.95
401.05	12816.77
401.24	12856.56
401.44	13287.22
401.63	13146.79
401.82	13174.88
402.01	13247.43
402.21	13715.54
402.40	13542.34
402.59	12908.05
402.78	12489.10
402.97	12343.99
403.17	12395.48
403.36	13551.70
403.55	13774.05
403.74	14022.15
403.93	13434.68
404.13	12435.27
404.32	12077.16
404.51	12919.76
404.70	13551.70
404.89	13607.87
405.09	13432.33
405.28	12886.99
405.47	12943.16
405.66	13130.41
405.85	12828.48
406.05	12458.67
406.24	12458.67
406.43	13085.94
406.62	13579.79
406.81	13584.47
407.00	13048.49
407.20	12889.33
407.39	12844.86
407.58	13549.36
407.77	14197.69
407.96	14293.65
408.15	14848.36
408.34	14843.68
408.54	15211.14
408.73	15400.72
408.92	15389.02
409.11	14803.89
409.30	14061.94
409.49	13088.28
409.68	12432.93
409.87	12086.53
410.07	12776.98
410.26	13933.21
410.45	14513.66
410.64	15108.16
410.83	15449.88
411.02	15990.54
411.21	16123.95
411.40	16463.33
411.59	16322.90
411.78	16072.46
411.98	15896.92
412.17	16175.44
412.36	15887.56
412.55	16304.17
412.74	15580.95
412.93	15515.41
413.12	15543.50
413.31	17191.23
413.50	17029.74
413.69	17362.09
413.88	16868.24
414.07	16161.40
414.26	16734.83
414.45	16989.95
414.64	17511.89
414.83	16971.22
415.02	16744.19
415.22	16301.83
415.41	17228.68
415.60	17790.41
415.79	18551.09
415.98	18698.54
416.17	18853.02
416.36	18251.50
416.55	17954.25
416.74	17448.69
416.93	16954.84
417.12	17128.04
417.31	17343.37
417.50	17635.94
417.69	18078.30
417.88	18068.94
418.07	17649.98
418.26	17425.29
418.45	17841.90
418.64	18207.03
418.83	18909.19
419.02	18939.62
419.21	18408.31
419.39	17757.64
419.58	16940.80
419.77	16854.20
419.96	17825.52
420.15	18860.04
420.34	19363.25
420.53	20140.31
420.72	20397.77
420.91	20205.84
421.10	19704.97
421.29	19826.68
421.48	18995.79
421.67	20156.69
421.86	19576.24
422.05	18225.75
422.24	16397.79
422.43	15791.59
422.61	17912.12
422.80	19405.38
422.99	19330.48
423.18	18342.78
423.37	18045.53
423.56	18457.46
423.75	18520.66
423.94	18853.02
424.13	17968.29
424.32	18136.81
424.50	18230.43
424.69	18258.52
424.88	18129.79
425.07	17764.67
425.26	18164.90
425.45	17657.00
425.64	17404.22
425.83	17418.27
426.01	18726.63
426.20	18883.44
426.39	18970.04
426.58	17387.84
426.77	16065.44
426.96	15529.45
427.15	16187.14
427.33	17291.88
427.52	18223.41
427.71	18181.28
427.90	17958.93
428.09	17909.78
428.28	17530.61
428.46	16798.02
428.65	16730.15
428.84	16910.37
429.03	17341.03
429.22	16205.87
429.40	15620.74
429.59	14185.99
429.78	12526.55
429.97	12767.62
430.16	12678.68
430.34	13055.51
430.53	12784.01
430.72	12996.99
430.91	14611.96
431.10	16847.18
431.28	20027.96
431.47	21628.89
431.66	21603.14
431.85	19852.42
432.03	18143.83
432.22	17249.75
432.41	18265.54
432.60	20350.96
432.79	21104.61
432.97	21275.47
433.16	21097.59
433.35	19344.53
433.54	17076.55
433.72	15962.45
433.91	16769.94
434.10	18698.54
434.28	20105.20
434.47	21242.70
434.66	20856.51
434.85	20107.54
435.03	20088.82
435.22	20725.44
435.41	22101.68
435.59	21678.04
435.78	22185.94
435.97	22820.22
436.16	22860.01
436.34	22338.07
436.53	21994.01
436.72	22174.24
436.90	20884.60
437.09	20844.81
437.28	20255.00
437.46	21495.48
437.65	21053.12
437.84	19878.17
438.02	18141.49
438.21	17951.91
438.40	19138.56
438.58	20814.38
438.77	20996.95
438.96	21462.71
439.14	22473.82
439.33	22494.89
439.52	23204.07
439.70	22609.58
439.89	22141.47
440.08	21696.77
440.26	21518.89
440.45	22492.55
440.63	23672.18
440.82	25216.93
441.01	24472.64
441.19	24372.00
441.38	24685.63
441.57	25689.72
441.75	26057.18
441.94	26251.45
442.12	26120.38
442.31	26663.38
442.50	26415.29
442.68	26085.27
442.87	25839.51
443.05	25219.27
443.24	25834.83
443.43	26307.62
443.61	26574.44
443.80	27023.83
443.98	25654.61
444.17	25385.45
444.35	26925.52
444.54	27384.27
444.73	27463.85
444.91	25886.32
445.10	24826.06
445.28	23971.77
445.47	23456.85
445.65	23772.82
445.84	24393.06
446.02	25333.96
446.21	25844.20
446.39	25872.28
446.58	26160.17
446.77	26338.05
446.95	26647.00
447.14	27417.04
447.32	28243.24
447.51	27360.86
447.69	26541.68
447.88	26003.35
448.06	26302.94
448.25	26806.16
448.43	27225.11
448.62	26551.04
448.80	26228.04
448.99	26855.31
449.17	26820.20
449.36	27119.79
449.54	27871.10
449.73	28353.25
449.91	28830.72
450.10	29305.85
450.28	29900.34
450.46	29596.07
450.65	29888.64
450.83	29504.79
451.02	28919.66
451.20	28367.29
451.39	28676.24
451.57	28465.60
451.76	28453.89
451.94	28383.68
452.13	27709.60
452.31	26611.89
452.49	25415.88
452.68	25827.81
452.86	25788.02
453.05	26284.22
453.23	27061.27
453.42	27550.45
453.60	28299.42
453.78	28371.97
453.97	27676.83
454.15	27981.10
454.34	27220.43
454.52	27990.47
454.70	26728.92
454.89	27672.15
455.07	27421.72
455.26	27955.36
455.44	28931.36
455.62	29572.67
455.81	29701.40
455.99	29736.51
456.17	29167.76
456.36	29181.80
456.54	29912.05
456.73	29984.60
456.91	30616.55
457.09	30590.80
457.28	31009.76
457.46	29883.96
457.64	29570.33
457.83	28980.51
458.01	28463.25
458.19	28826.04
458.38	29249.67
458.56	30099.29
458.74	29626.50
458.93	29535.22
459.11	29713.10
459.29	28877.53
459.48	29589.05
459.66	29315.21
459.84	29516.50
460.03	29963.54
460.21	29621.82
460.39	30583.78
460.57	30288.87
460.76	31353.82
460.94	31377.22
461.12	30913.80
461.31	30558.03
461.49	30281.85
461.67	30670.38
461.85	31594.89
462.04	31527.02
462.22	32163.64
462.40	31360.84
462.59	31557.44
462.77	31309.35
462.95	31447.44
463.13	30995.71
463.32	30813.15
463.50	30522.93
463.68	30424.62
463.86	30703.15
464.05	30127.38
464.23	29640.54
464.41	29692.04
464.59	29244.99
464.78	30288.87
464.96	30267.81
465.14	30019.71
465.32	30761.66
465.50	31505.95
465.69	32023.21
465.87	31194.66
466.05	30508.88
466.23	28910.30
466.41	28278.35
466.60	29366.70
466.78	29137.33
466.96	29947.15
467.14	30239.72
467.32	30630.59
467.51	30307.60
467.69	29200.52
467.87	30251.42
468.05	30677.40
468.23	30913.80
468.41	30331.00
468.60	31042.53
468.78	30883.37
468.96	30438.67
469.14	31185.30
469.32	31243.81
469.50	30075.88
469.69	29958.86
469.87	29675.65
470.05	29415.85
470.23	29415.85
470.41	29668.63
470.59	30391.86
470.77	30394.20
470.95	30967.63
471.14	31098.70
471.32	31255.51
471.50	33369.02
471.68	33078.79
471.86	33518.81
472.04	33645.20
472.22	33628.82
472.40	31686.17
472.58	31512.97
472.77	31676.81
472.95	31852.35
473.13	32788.56
473.31	31688.51
473.49	31772.77
473.67	32563.87
473.85	32716.01
474.03	34033.73
474.21	33816.06
474.39	34438.64
474.57	34452.69
474.75	34305.23
474.93	33830.10
475.12	33228.59
475.30	33202.84
475.48	33656.90
475.66	33745.84
475.84	33420.51
476.02	33645.20
476.20	33015.60
476.38	33729.46
476.56	34686.74
476.74	34845.90
476.92	35405.28
477.10	35737.64
477.28	36416.40
477.46	36479.59
477.64	37345.59
477.82	37322.18
478.00	37060.04
478.18	36917.27
478.36	36191.70
478.54	36385.97
478.72	37144.30
478.90	37862.85
479.08	39131.42
479.26	39283.55
479.44	39136.10
479.62	38871.62
479.80	38754.59
479.98	38941.83
480.16	39461.43
480.34	38843.53
480.52	39288.23
480.70	39381.85
480.88	39297.59
481.06	40446.80
481.24	40486.59
481.41	41645.15
481.59	42150.71
481.77	41736.43
481.95	41179.39
482.13	41022.57
482.31	41406.42
482.49	42373.06
482.67	41752.82
482.85	42188.16
483.03	42340.29
483.21	42740.52
483.39	42628.18
483.57	42225.60
483.74	42143.69
483.92	42153.05
484.10	42820.10
484.28	43562.05
484.46	43856.96
484.64	44154.21
484.82	43735.25
485.00	42983.94
485.18	41525.78
485.35	40697.24
485.53	37127.92
485.71	33701.37
485.89	34272.46
486.07	35903.82
486.25	39278.87
486.43	41336.20
486.61	41689.62
486.78	41748.14
486.96	42003.25
487.14	43578.43
487.32	44559.12
487.50	45909.61
487.68	46445.59
487.85	47302.23
488.03	46841.14
488.21	46681.98
488.39	45764.49
488.57	44940.63
488.75	44442.09
488.92	46494.74
489.10	48329.72
489.28	49993.84
489.46	50766.22
489.64	50375.35
489.81	50672.60
489.99	50073.42
490.17	50284.07
490.35	50897.29
490.53	50040.65
490.70	49535.10
490.88	49715.32
491.06	50747.50
491.24	50696.00
491.41	49258.91
491.59	47723.52
491.77	46766.24
491.95	48041.84
492.13	49214.44
492.30	50789.62
492.48	51826.48
492.66	52360.12
492.84	52210.33
493.01	52086.28
493.19	51208.58
493.37	51100.92
493.54	50836.44
493.72	51987.98
493.90	52683.12
494.08	53492.94
494.25	53776.15
494.43	53832.32
494.61	54239.57
494.79	54396.39
494.96	54150.63
495.14	53275.27
495.32	52648.01
495.49	51861.59
495.67	52917.17
495.85	54253.62
496.02	54761.51
496.20	54667.89
496.38	54138.93
496.55	54035.95
496.73	54815.35
496.91	54988.55
497.09	55325.58
497.26	55463.67
497.44	54887.90
497.62	54466.61
497.79	53722.32
497.97	52406.94
498.14	52767.38
498.32	53799.55
498.50	54703.00
498.67	55449.63
498.85	55196.85
499.03	55313.88
499.20	55395.80
499.38	55819.44
499.56	55285.79
499.73	54864.50
499.91	54504.06
500.08	53904.88
500.26	53310.38
500.44	53951.69
500.61	54380.01
500.79	54115.53
500.97	53780.83
501.14	53549.12
501.32	53712.95
501.49	53364.21
501.67	53970.41
501.84	54646.83
502.02	54597.68
502.20	55061.10
502.37	55018.97
502.55	55231.96
502.72	55765.60
502.90	56182.22
503.07	55737.52
503.25	55505.80
503.43	54499.37
503.60	53712.95
503.78	53340.81
503.95	53893.18
504.13	55161.75
504.30	55948.17
504.48	55753.90
504.65	55421.55
504.83	55458.99
505.01	56247.75
505.18	56509.89
505.36	57141.84
505.53	57240.14
505.71	57471.85
505.88	57230.78
506.06	56727.56
506.23	56603.52
506.41	56104.98
506.58	56432.66
506.76	56259.46
506.93	56261.80
507.11	55959.87
507.28	56334.35
507.46	55585.38
507.63	55086.85
507.81	55065.78
507.98	55306.86
508.16	55889.65
508.33	56364.78
508.50	56973.32
508.68	57050.56
508.85	57612.29
509.03	57532.71
509.20	57226.10
509.38	56559.05
509.55	55716.45
509.73	56069.87
509.90	56505.21
510.08	56994.39
510.25	56776.72
510.42	56708.84
510.60	56364.78
510.77	56683.09
510.95	57188.65
511.12	57432.07
511.30	57659.10
511.47	57961.03
511.64	57640.37
511.82	57373.55
511.99	56706.50
512.17	56107.32
512.34	56018.38
512.51	56278.18
512.69	56493.51
512.86	56470.11
513.04	56956.94
513.21	56823.53
513.38	56420.95
513.56	55920.08
513.73	55519.85
513.90	55861.57
514.08	55695.39
514.25	56048.81
514.43	56224.35
514.60	56388.19
514.77	56402.23
514.95	56608.20
515.12	56715.86
515.29	56832.89
515.47	57296.31
515.64	57645.05
515.81	56992.04
515.99	56439.68
516.16	54831.73
516.33	52463.11
516.51	50974.53
516.68	49991.50
516.85	49329.13
517.03	50569.61
517.20	53078.67
517.37	55587.72
517.54	56760.33
517.72	55891.99
517.89	53389.96
518.06	50930.06
518.24	51690.73
518.41	53979.78
518.58	55054.08
518.75	55325.58
518.93	55332.60
519.10	55435.59
519.27	55716.45
519.45	56062.85
519.62	56999.07
519.79	57312.70
519.96	56921.83
520.14	56392.87
520.31	55842.84
520.48	55739.86
520.65	56100.30
520.83	57183.97
521.00	57411.00
521.17	57029.49
521.34	56662.03
521.52	57153.54
521.69	57453.13
521.86	57836.98
522.03	57577.18
522.20	56086.26
522.38	55332.60
522.55	55517.51
522.72	55948.17
522.89	56238.39
523.07	56605.86
523.24	56701.82
523.41	57598.24
523.58	57895.49
523.75	58335.51
523.92	58174.02
524.10	58176.36
524.27	58000.82
524.44	57680.16
524.61	57808.89
524.78	57588.88
524.96	57502.28
525.13	57593.56
525.30	57808.89
525.47	58337.85
525.64	58087.42
525.81	57298.65
525.98	55735.18
526.16	54422.14
526.33	53853.39
526.50	53202.72
526.67	53064.63
526.84	53862.75
527.01	54805.98
527.18	55625.17
527.36	56580.11
527.53	57549.09
527.70	57462.49
527.87	57258.87
528.04	56830.55
528.21	57298.65
528.38	57785.49
528.55	58279.34
528.72	58546.16
528.89	58894.90
529.07	58532.12
529.24	57726.97
529.41	57006.09
529.58	56477.13
529.75	56905.44
529.92	57263.55
530.09	57705.91
530.26	57991.45
530.43	58426.79
530.60	58454.88
530.77	58674.89
530.94	58908.94
531.11	58066.35
531.28	57815.91
531.46	57710.59
531.63	57956.35
531.80	57649.74
531.97	57291.63
532.14	56666.71
532.31	55641.56
532.48	54609.38
532.65	55004.93
532.82	56161.15
532.99	56917.15
533.16	57310.36
533.33	57925.92
533.50	57581.86
533.67	56769.69
533.84	56528.62
534.01	57106.73
534.18	57031.83
534.35	57237.80
534.52	56858.63
534.69	57411.00
534.86	57593.56
535.03	57808.89
535.20	58546.16
535.37	58646.80
535.54	58726.38
535.71	58368.28
535.88	57867.40
536.05	57418.02
536.22	56980.34
536.38	56807.14
536.55	56280.52
536.72	55877.95
536.89	56039.45
537.06	56659.69
537.23	57467.17
537.40	57652.08
537.57	57684.84
537.74	57586.54
537.91	57277.59
538.08	57439.09
538.25	57141.84
538.42	57822.93
538.59	57361.85
538.75	56889.06
538.92	56629.26
539.09	56488.83
539.26	56163.50
539.43	56006.68
539.60	56041.79
539.77	56437.34
539.94	56114.34
540.11	55388.78
540.28	54782.58
540.44	55121.96
540.61	55199.19
540.78	55590.06
540.95	55744.54
541.12	56151.79
541.29	56573.09
541.46	56711.18
541.62	57017.79
541.79	56884.38
541.96	55887.31
542.13	56193.92
542.30	56364.78
542.47	56552.02
542.63	56442.02
542.80	55957.53
542.97	56275.84
543.14	56200.94
543.31	56222.01
543.48	56769.69
543.64	57521.01
543.81	57902.51
543.98	57808.89
544.15	56662.03
544.32	56315.63
544.48	56495.85
544.65	56949.92
544.82	57172.27
544.99	56903.10
545.16	56371.80
545.32	56322.65
545.49	56928.85
545.66	57535.05
545.83	57031.83
546.00	56722.88
546.16	56383.51
546.33	56308.61
546.50	56498.19
546.67	57092.69
546.83	56694.80
547.00	56545.00
547.17	55812.41
547.34	55409.84
547.50	55384.10
547.67	55899.01
547.84	55737.52
548.00	56158.81
548.17	56713.52
548.34	56477.13
548.51	56514.58
548.67	56619.90
548.84	56706.50
549.01	56540.32
549.18	56271.16
549.34	56355.42
549.51	56472.45
549.68	56004.34
549.84	55884.97
550.01	55866.25
550.18	55723.47
550.34	55842.84
550.51	55990.30
550.68	56348.40
550.84	55868.59
551.01	55828.80
551.18	55550.27
551.34	55955.19
551.51	56257.12
551.68	56498.19
551.84	56652.67
552.01	56322.65
552.18	56226.69
552.34	55433.25
552.51	55143.02
552.68	55192.17
552.84	55611.13
553.01	55756.24
553.18	55597.09
553.34	55875.61
553.51	55835.82
553.67	56273.50
553.84	56329.67
554.01	56165.84
554.17	56027.74
554.34	56207.97
554.51	56130.73
554.67	56573.09
554.84	56112.00
555.00	56226.69
555.17	55718.79
555.33	55838.16
555.50	55721.13
555.67	55601.77
555.83	55566.66
556.00	55414.52
556.16	55344.31
556.33	54756.83
556.50	54801.30
556.66	54965.14
556.83	54684.28
556.99	54805.98
557.16	54834.07
557.32	55171.11
557.49	55283.45
557.65	55257.71
557.82	55344.31
557.98	54747.47
558.15	54487.67
558.32	53708.27
558.48	52694.82
558.65	53179.31
558.81	53518.69
558.98	54019.56
559.14	53989.14
559.31	54307.45
559.47	54096.80
559.64	53652.10
559.80	53233.14
559.97	53436.77
560.13	54012.54
560.30	54712.36
560.46	55199.19
560.63	55597.09
560.79	55613.47
560.96	55040.04
561.12	54101.48
561.29	53385.28
561.45	53027.18
561.61	53827.64
561.78	54429.16
561.94	54134.25
562.11	54061.69
562.27	53965.73
562.44	54274.68
562.60	54567.25
562.77	54939.39
562.93	54492.35
563.10	54457.24
563.26	53858.07
563.42	53837.00
563.59	53909.56
563.75	53918.92
563.92	53911.90
564.08	54071.06
564.24	54260.64
564.41	53890.83
564.57	54099.14
564.74	53691.89
564.90	53546.78
565.07	53743.38
565.23	53073.99
565.39	52535.66
565.56	52683.12
565.72	52287.57
565.88	52486.51
566.05	53031.86
566.21	53055.26
566.38	53013.13
566.54	53226.12
566.70	53705.93
566.87	53712.95
567.03	54033.61
567.19	54031.27
567.36	53797.21
567.52	53361.87
567.68	53284.64
567.85	52912.49
568.01	52020.75
568.17	51606.47
568.34	52048.83
568.50	52074.58
568.66	51948.19
568.83	52177.56
568.99	52453.75
569.15	52617.58
569.32	52631.63
569.48	52264.16
569.64	52435.02
569.81	51751.59
569.97	51681.37
570.13	51587.75
570.30	51161.77
570.46	50569.61
570.62	50089.80
570.78	49759.79
570.95	50417.48
571.11	51147.73
571.27	51222.62
571.43	51578.39
571.60	51913.08
571.76	52509.92
571.92	52334.38
572.09	52538.01
572.25	52392.89
572.41	52502.90
572.57	52453.75
572.74	52149.48
572.90	52039.47
573.06	51744.56
573.22	51899.04
573.38	51774.99
573.55	52086.28
573.71	51943.51
573.87	52112.03
574.03	51910.74
574.20	51774.99
574.36	51311.56
574.52	51283.48
574.68	50946.44
574.84	50471.31
575.01	50272.37
575.17	50082.78
575.33	50550.89
575.49	50988.57
575.65	51004.95
575.82	50726.43
575.98	50461.95
576.14	50822.39
576.30	51138.36
576.46	50815.37
576.62	50871.54
576.79	50887.93
576.95	50466.63
577.11	50417.48
577.27	50756.86
577.43	50852.82
577.59	50110.87
577.75	49633.40
577.92	49347.86
578.08	49118.48
578.24	49123.16
578.40	49397.01
578.56	49649.78
578.72	49921.29
578.88	50122.57
579.04	49677.87
579.21	50017.25
579.37	50103.85
579.53	50504.08
579.69	50351.94
579.85	50597.70
580.01	50085.12
580.17	49605.31
580.33	49820.64
580.49	49553.82
580.65	50291.09
580.82	50450.25
580.98	50246.62
581.14	50028.95
581.30	50005.55
581.46	50255.98
581.62	50534.51
581.78	50150.66
581.94	50684.30
582.10	50749.84
582.26	50543.87
582.42	50457.27
582.58	50522.80
582.74	50377.69
582.90	50419.82
583.06	50117.89
583.22	50384.71
583.38	50398.76
583.54	50031.29
583.70	49895.54
583.86	50288.75
584.02	49815.96
584.18	50024.27
584.34	50012.57
584.50	49928.31
584.66	49736.38
584.82	48966.35
584.98	49371.26
585.14	48765.06
585.30	47952.90
