SpectraSuite Data File
++++++++++++++++++++++++++++++++++++
Date: Mon Oct 07 14:54:58 GMT-05:00 2013
User: price-jones
Dark Spectrum Present: No
Reference Spectrum Present: No
Number of Sampled Component Spectra: 1
Spectrometers: USB2+H05261
Integration Time (usec): 10000 (USB2+H05261)
Spectra Averaged: 1 (USB2+H05261)
Boxcar Smoothing: 0 (USB2+H05261)
Correct for Electrical Dark: No (USB2+H05261)
Strobe/Lamp Enabled: No (USB2+H05261)
Correct for Detector Non-linearity: No (USB2+H05261)
Correct for Stray Light: No (USB2+H05261)
Number of Pixels in Processed Spectrum: 2048
>>>>>Begin Processed Spectral Data<<<<<
365.73	0.00
365.92	0.00
366.12	0.00
366.32	0.00
366.52	0.00
366.72	0.00
366.91	0.00
367.11	0.00
367.31	0.00
367.51	0.00
367.70	0.00
367.90	0.00
368.10	0.00
368.30	0.00
368.49	0.00
368.69	0.00
368.89	0.00
369.09	0.00
369.28	0.00
369.48	0.00
369.68	0.00
369.87	0.00
370.07	0.00
370.27	0.00
370.47	0.00
370.66	81.92
370.86	170.86
371.06	273.84
371.25	301.93
371.45	231.71
371.65	156.82
371.84	110.01
372.04	140.43
372.24	177.88
372.44	236.39
372.63	257.46
372.83	210.65
373.03	159.16
373.22	112.35
373.42	140.43
373.62	145.11
373.81	177.88
374.01	208.31
374.21	201.29
374.40	182.56
374.60	140.43
374.79	231.71
374.99	369.80
375.19	278.52
375.38	447.04
375.58	322.99
375.78	327.68
375.97	418.96
376.17	346.40
376.37	332.36
376.56	418.96
376.76	479.81
376.95	465.77
377.15	491.51
377.35	489.17
377.54	512.58
377.74	517.26
377.93	599.18
378.13	533.64
378.33	414.27
378.52	456.40
378.72	388.53
378.91	507.90
379.11	451.72
379.31	360.44
379.50	332.36
379.70	430.66
379.89	510.24
380.09	543.00
380.28	608.54
380.48	517.26
380.68	477.47
380.87	491.51
381.07	421.30
381.26	463.43
381.46	372.15
381.65	269.16
381.85	353.42
382.04	203.63
382.24	283.20
382.43	196.60
382.63	215.33
382.83	175.54
383.02	154.48
383.22	205.97
383.41	245.76
383.61	301.93
383.80	280.86
384.00	404.91
384.19	519.60
384.39	449.38
384.58	543.00
384.78	437.68
384.97	533.64
385.17	423.64
385.36	344.06
385.56	510.24
385.75	397.89
385.95	442.36
386.14	491.51
386.34	500.87
386.53	386.19
386.72	449.38
386.92	444.70
387.11	489.17
387.31	449.38
387.50	566.41
387.70	550.03
387.89	411.93
388.09	461.09
388.28	425.98
388.48	561.73
388.67	514.92
388.86	674.07
389.06	648.33
389.25	617.90
389.45	660.03
389.64	706.84
389.84	727.91
390.03	730.25
390.22	702.16
390.42	638.97
390.61	699.82
390.81	851.96
391.00	882.38
391.19	891.74
391.39	884.72
391.58	847.27
391.78	739.61
391.97	662.37
392.16	547.69
392.36	458.74
392.55	402.57
392.75	243.42
392.94	131.07
393.13	166.18
393.33	236.39
393.52	451.72
393.71	463.43
393.91	571.09
394.10	732.59
394.29	699.82
394.49	840.25
394.68	887.06
394.88	922.17
395.07	877.70
395.26	898.77
395.46	809.83
395.65	805.14
395.84	772.38
396.04	561.73
396.23	477.47
396.42	311.29
396.62	285.55
396.81	421.30
397.00	402.57
397.19	774.72
397.39	987.71
397.58	1069.62
397.77	1083.67
397.97	1170.27
398.16	1149.20
398.35	1181.97
398.55	1320.06
398.74	1303.68
398.93	1383.26
399.12	1256.87
399.32	1296.66
399.51	1306.02
399.70	1233.46
399.90	1380.92
400.09	1409.00
400.28	1254.53
400.47	1366.87
400.67	1486.24
400.86	1619.65
401.05	1514.33
401.24	1523.69
401.44	1406.66
401.63	1619.65
401.82	1474.54
402.01	1575.18
402.21	1504.96
402.40	1411.34
402.59	1345.81
402.78	1387.94
402.97	1399.64
403.17	1397.30
403.36	1563.48
403.55	1516.67
403.74	1600.93
403.93	1451.13
404.13	1338.79
404.32	1350.49
404.51	1444.11
404.70	1610.29
404.89	1554.12
405.09	1535.39
405.28	1420.71
405.47	1444.11
405.66	1474.54
405.85	1519.01
406.05	1357.51
406.24	1451.13
406.43	1465.18
406.62	1511.99
406.81	1533.05
407.00	1409.00
407.20	1348.15
407.39	1432.41
407.58	1474.54
407.77	1540.07
407.96	1511.99
408.15	1650.08
408.34	1785.83
408.54	1823.28
408.73	1661.78
408.92	1673.48
409.11	1748.38
409.30	1554.12
409.49	1418.36
409.68	1418.36
409.87	1308.36
410.07	1458.15
410.26	1514.33
410.45	1699.23
410.64	1769.44
410.83	1893.49
411.02	1764.76
411.21	1895.83
411.40	1877.11
411.59	1884.13
411.78	1820.94
411.98	1757.74
412.17	1797.53
412.36	1865.41
412.55	1851.36
412.74	1781.15
412.93	1664.12
413.12	1776.47
413.31	1886.47
413.50	1944.99
413.69	1940.30
413.88	1764.76
414.07	1781.15
414.26	1804.55
414.45	1933.28
414.64	1902.86
414.83	1973.07
415.02	1865.41
415.22	1909.88
415.41	1860.73
415.60	2015.20
415.79	2136.91
415.98	2150.95
416.17	2115.84
416.36	2127.55
416.55	2064.35
416.74	2033.93
416.93	1863.07
417.12	1837.32
417.31	1912.22
417.50	1872.43
417.69	2036.27
417.88	2019.88
418.07	2008.18
418.26	1867.75
418.45	1921.58
418.64	2047.97
418.83	2045.63
419.02	2019.88
419.21	2029.24
419.39	1870.09
419.58	1846.68
419.77	1823.28
419.96	1959.03
420.15	2052.65
420.34	2113.50
420.53	2289.04
420.72	2092.44
420.91	2216.49
421.10	2275.00
421.29	2157.97
421.48	2106.48
421.67	2218.83
421.86	2125.21
422.05	2008.18
422.24	1788.17
422.43	1778.81
422.61	1914.56
422.80	2155.63
422.99	2125.21
423.18	2078.40
423.37	1842.00
423.56	1989.46
423.75	2064.35
423.94	2101.80
424.13	1973.07
424.32	2076.06
424.50	2036.27
424.69	1888.81
424.88	1940.30
425.07	1919.24
425.26	1930.94
425.45	1886.47
425.64	1893.49
425.83	1970.73
426.01	2010.52
426.20	2022.22
426.39	1989.46
426.58	1947.33
426.77	1619.65
426.96	1586.88
427.15	1710.93
427.33	1806.89
427.52	1916.90
427.71	2054.99
427.90	1973.07
428.09	1933.28
428.28	1923.92
428.46	1870.09
428.65	1724.97
428.84	1851.36
429.03	1797.53
429.22	1776.47
429.40	1593.90
429.59	1511.99
429.78	1324.74
429.97	1151.54
430.16	1291.98
430.34	1352.83
430.53	1334.11
430.72	1341.13
430.91	1502.62
431.10	1781.15
431.28	2094.78
431.47	2298.41
431.66	2373.30
431.85	2078.40
432.03	1867.75
432.22	1893.49
432.41	1895.83
432.60	2172.02
432.79	2253.94
432.97	2298.41
433.16	2286.70
433.35	1991.80
433.54	1865.41
433.72	1764.76
433.91	1753.06
434.10	1949.67
434.28	2118.18
434.47	2279.68
434.66	2232.87
434.85	2087.76
435.03	2214.15
435.22	2167.34
435.41	2394.37
435.59	2260.96
435.78	2211.81
435.97	2359.26
436.16	2511.39
436.34	2443.52
436.53	2366.28
436.72	2406.07
436.90	2242.23
437.09	2293.72
437.28	2162.66
437.46	2244.57
437.65	2239.89
437.84	2157.97
438.02	1909.88
438.21	1851.36
438.40	2029.24
438.58	2162.66
438.77	2335.85
438.96	2216.49
439.14	2349.90
439.33	2499.69
439.52	2520.76
439.70	2410.75
439.89	2340.54
440.08	2314.79
440.26	2197.76
440.45	2342.88
440.63	2490.33
440.82	2665.87
441.01	2672.89
441.19	2588.63
441.38	2630.76
441.57	2801.62
441.75	2670.55
441.94	2722.04
442.12	2722.04
442.31	2766.51
442.50	2850.77
442.68	2729.06
442.87	2740.77
443.05	2700.98
443.24	2693.96
443.43	2726.72
443.61	2808.64
443.80	2946.73
443.98	2773.53
444.17	2682.25
444.35	2930.35
444.54	2911.63
444.73	3007.59
444.91	2810.98
445.10	2574.59
445.28	2509.05
445.47	2502.03
445.65	2319.47
445.84	2560.55
446.02	2504.37
446.21	2654.17
446.39	2656.51
446.58	2806.30
446.77	2818.00
446.95	2815.66
447.14	2988.86
447.32	2974.82
447.51	2750.13
447.69	2813.32
447.88	2511.39
448.06	2752.47
448.25	2801.62
448.43	2773.53
448.62	2871.84
448.80	2850.77
448.99	2820.35
449.17	2731.41
449.36	2747.79
449.54	2946.73
449.73	2974.82
449.91	2993.55
450.10	3171.43
450.28	3145.68
450.46	3082.49
450.65	3059.08
450.83	3042.70
451.02	2967.80
451.20	3049.72
451.39	3000.57
451.57	3040.36
451.76	2885.88
451.94	2946.73
452.13	2937.37
452.31	2600.34
452.49	2651.83
452.68	2607.36
452.86	2651.83
453.05	2710.34
453.23	2806.30
453.42	2825.03
453.60	2885.88
453.78	2827.37
453.97	2925.67
454.15	2944.39
454.34	2930.35
454.52	2843.75
454.70	2822.69
454.89	2906.95
455.07	2895.24
455.26	2864.82
455.44	3030.99
455.62	2942.05
455.81	3023.97
455.99	3119.93
456.17	2946.73
456.36	3049.72
456.54	3171.43
456.73	3084.83
456.91	3141.00
457.09	3145.68
457.28	3213.56
457.46	3077.80
457.64	3141.00
457.83	2899.92
458.01	2803.96
458.19	2925.67
458.38	2911.63
458.56	3145.68
458.74	3035.67
458.93	3033.33
459.11	3094.19
459.29	3012.27
459.48	2906.95
459.66	2925.67
459.84	3073.12
460.03	3080.14
460.21	2932.69
460.39	3157.38
460.57	3159.72
460.76	3159.72
460.94	3159.72
461.12	3068.44
461.31	3204.19
461.49	3183.13
461.67	3063.76
461.85	3321.22
462.04	3323.56
462.22	3199.51
462.40	3190.15
462.59	3148.02
462.77	3180.79
462.95	3173.77
463.13	3150.36
463.32	3101.21
463.50	3176.11
463.68	3126.96
463.86	3000.57
464.05	2960.78
464.23	2913.97
464.41	2979.50
464.59	2925.67
464.78	2984.18
464.96	2991.20
465.14	3110.57
465.32	3187.81
465.50	3171.43
465.69	3325.90
465.87	3192.49
466.05	3183.13
466.23	2883.54
466.41	2855.45
466.60	2897.58
466.78	2951.42
466.96	2998.23
467.14	3000.57
467.32	3108.23
467.51	3049.72
467.69	2869.50
467.87	3075.46
468.05	3038.02
468.23	3049.72
468.41	3089.51
468.60	3082.49
468.78	3059.08
468.96	3108.23
469.14	3206.53
469.32	3187.81
469.50	3016.95
469.69	2949.08
469.87	2956.10
470.05	3021.63
470.23	2918.65
470.41	2963.12
470.59	2988.86
470.77	2963.12
470.95	3012.27
471.14	3150.36
471.32	3089.51
471.50	3101.21
471.68	3042.70
471.86	3379.73
472.04	3363.35
472.22	3307.18
472.40	3129.30
472.58	3133.98
472.77	3136.32
472.95	3293.13
473.13	3269.73
473.31	3112.91
473.49	3183.13
473.67	3239.30
473.85	3337.60
474.03	3309.52
474.21	3309.52
474.39	3309.52
474.57	3358.67
474.75	3351.65
474.93	3382.07
475.12	3356.33
475.30	3358.67
475.48	3384.41
475.66	3304.84
475.84	3405.48
476.02	3255.69
476.20	3206.53
476.38	3248.66
476.56	3400.80
476.74	3574.00
476.92	3435.91
477.10	3541.23
477.28	3688.68
477.46	3548.25
477.64	3634.85
477.82	3679.32
478.00	3709.75
478.18	3576.34
478.36	3515.48
478.54	3665.28
478.72	3749.54
478.90	3756.56
479.08	3758.90
479.26	3751.88
479.44	3920.40
479.62	3777.62
479.80	3812.73
479.98	3887.63
480.16	3906.35
480.34	3796.35
480.52	3962.53
480.70	3824.44
480.88	3857.20
481.06	4079.55
481.24	3981.25
481.41	3981.25
481.59	4128.70
481.77	4152.11
481.95	4205.94
482.13	4166.15
482.31	3999.98
482.49	4152.11
482.67	4098.28
482.85	4168.49
483.03	4173.18
483.21	4339.35
483.39	4243.39
483.57	4056.15
483.74	3971.89
483.92	4180.20
484.10	4283.18
484.28	4344.03
484.46	4315.95
484.64	4423.61
484.82	4362.76
485.00	4287.86
485.18	4212.96
485.35	3964.87
485.53	3716.77
485.71	3300.16
485.89	3276.75
486.07	3356.33
486.25	3775.28
486.43	3985.93
486.61	4119.34
486.78	4133.39
486.96	4182.54
487.14	4227.01
487.32	4255.09
487.50	4402.55
487.68	4528.94
487.85	4826.18
488.03	4741.93
488.21	4535.96
488.39	4519.57
488.57	4510.21
488.75	4407.23
488.92	4528.94
489.10	4880.02
489.28	4926.83
489.46	5078.96
489.64	5048.54
489.81	5275.57
489.99	4961.94
490.17	5139.82
490.35	5247.48
490.53	5057.90
490.70	4858.95
490.88	4844.91
491.06	5177.26
491.24	5277.91
491.41	4945.55
491.59	4720.86
491.77	4613.20
491.95	4767.67
492.13	4858.95
492.30	5153.86
492.48	5355.15
492.66	5497.92
492.84	5324.72
493.01	5413.66
493.19	5284.93
493.37	5179.61
493.54	5149.18
493.72	5130.45
493.90	5458.13
494.08	5565.79
494.25	5549.41
494.43	5577.50
494.61	5694.52
494.79	5832.62
494.96	5666.44
495.14	5568.13
495.32	5317.70
495.49	5355.15
495.67	5408.98
495.85	5841.98
496.02	5923.90
496.20	5907.51
496.38	5572.82
496.55	5598.56
496.73	5806.87
496.91	5849.00
497.09	6052.63
497.26	5947.30
497.44	5710.91
497.62	5678.14
497.79	5682.82
497.97	5334.08
498.14	5336.42
498.32	5586.86
498.50	5750.70
498.67	5795.17
498.85	5886.45
499.03	5846.66
499.20	5893.47
499.38	6008.16
499.56	5933.26
499.73	5748.36
499.91	5654.73
500.08	5626.65
500.26	5408.98
500.44	5558.77
500.61	5430.04
500.79	5717.93
500.97	5462.81
501.14	5387.91
501.32	5605.58
501.49	5621.97
501.67	5624.31
501.84	5741.33
502.02	5727.29
502.20	5724.95
502.37	5767.08
502.55	5877.09
502.72	5959.00
502.90	5989.43
503.07	5893.47
503.25	5827.93
503.43	5650.05
503.60	5518.98
503.78	5518.98
503.95	5582.18
504.13	5827.93
504.30	5980.07
504.48	6012.84
504.65	5764.74
504.83	6050.28
505.01	5975.39
505.18	6064.33
505.36	6171.99
505.53	6218.80
505.71	6211.78
505.88	6408.39
506.06	6127.52
506.23	6129.86
506.41	5956.66
506.58	5937.94
506.76	6118.16
506.93	5937.94
507.11	5975.39
507.28	6066.67
507.46	5813.89
507.63	5734.31
507.81	5703.89
507.98	5888.79
508.16	5874.74
508.33	5975.39
508.50	6108.80
508.68	6216.46
508.85	6321.79
509.03	6160.29
509.20	6225.82
509.38	6099.44
509.55	5696.86
509.73	5846.66
509.90	6010.50
510.08	6127.52
510.25	6127.52
510.42	5905.17
510.60	5933.26
510.77	6136.88
510.95	6099.44
511.12	6188.38
511.30	6244.55
511.47	6392.00
511.64	6235.19
511.82	6260.93
511.99	6083.05
512.17	5813.89
512.34	6031.56
512.51	5963.68
512.69	6054.97
512.86	5893.47
513.04	6073.69
513.21	5959.00
513.38	5923.90
513.56	6022.20
513.73	5748.36
513.90	5654.73
514.08	5849.00
514.25	5954.32
514.43	5891.13
514.60	5975.39
514.77	6029.22
514.95	5975.39
515.12	6047.94
515.29	6113.48
515.47	6029.22
515.64	6225.82
515.81	6190.72
515.99	5984.75
516.16	5647.71
516.33	5231.10
516.51	4983.00
516.68	4854.27
516.85	4781.71
517.03	4800.44
517.20	5125.77
517.37	5783.46
517.54	6092.41
517.72	5933.26
517.89	5308.34
518.06	4908.10
518.24	5085.98
518.41	5238.12
518.58	5643.03
518.75	5657.07
518.93	5771.76
519.10	5717.93
519.27	5809.21
519.45	5893.47
519.62	6024.54
519.79	6050.28
519.96	6099.44
520.14	6022.20
520.31	5729.63
520.48	5565.79
520.65	5935.60
520.83	6019.86
521.00	6230.51
521.17	6085.39
521.34	5778.78
521.52	5750.70
521.69	6265.61
521.86	6251.57
522.03	6136.88
522.20	5832.62
522.38	5631.33
522.55	5561.11
522.72	5750.70
522.89	5689.84
523.07	5916.87
523.24	5987.09
523.41	6141.57
523.58	6300.72
523.75	6066.67
523.92	6410.73
524.10	6359.24
524.27	6202.42
524.44	6331.15
524.61	6209.44
524.78	6153.27
524.96	6092.41
525.13	6010.50
525.30	5928.58
525.47	6349.87
525.64	6272.64
525.81	6087.73
525.98	5696.86
526.16	5406.64
526.33	5364.51
526.50	5324.72
526.67	5057.90
526.84	5256.84
527.01	5399.62
527.18	5652.39
527.36	5715.59
527.53	6066.67
527.70	6150.93
527.87	6038.58
528.04	5930.92
528.21	5879.43
528.38	6179.01
528.55	6307.74
528.72	6338.17
528.89	6424.77
529.07	6289.02
529.24	6174.33
529.41	6029.22
529.58	5722.61
529.75	5942.62
529.92	5907.51
530.09	6094.76
530.26	6209.44
530.43	6157.95
530.60	6235.19
530.77	6410.73
530.94	6480.94
531.11	6282.00
531.28	6064.33
531.46	6080.71
531.63	6029.22
531.80	6085.39
531.97	6200.08
532.14	5916.87
532.31	5586.86
532.48	5453.45
532.65	5521.32
532.82	5589.20
532.99	5879.43
533.16	5879.43
533.33	6026.88
533.50	5973.05
533.67	5703.89
533.84	5799.85
534.01	5825.59
534.18	6061.99
534.35	5753.04
534.52	5853.68
534.69	5909.85
534.86	6071.35
535.03	6005.81
535.20	6052.63
535.37	6277.32
535.54	6375.62
535.71	6214.12
535.88	6157.95
536.05	5921.56
536.22	5888.79
536.38	5715.59
536.55	5708.57
536.72	5563.45
536.89	5558.77
537.06	5748.36
537.23	6005.81
537.40	5916.87
537.57	5977.73
537.74	5830.27
537.91	5912.19
538.08	6031.56
538.25	5734.31
538.42	5881.77
538.59	6017.52
538.75	5905.17
538.92	5631.33
539.09	5816.23
539.26	5607.92
539.43	5605.58
539.60	5757.72
539.77	5586.86
539.94	5603.24
540.11	5570.48
540.28	5305.99
540.44	5427.70
540.61	5549.41
540.78	5437.06
540.95	5561.11
541.12	5666.44
541.29	5760.06
541.46	5753.04
541.62	5650.05
541.79	5652.39
541.96	5528.35
542.13	5465.15
542.30	5699.20
542.47	5565.79
542.63	5746.02
542.80	5633.67
542.97	5600.90
543.14	5497.92
543.31	5626.65
543.48	5734.31
543.64	6031.56
543.81	5769.42
543.98	5860.70
544.15	5753.04
544.32	5685.16
544.48	5640.69
544.65	5717.93
544.82	5926.24
544.99	5799.85
545.16	5584.52
545.32	5647.71
545.49	5710.91
545.66	5996.45
545.83	5769.42
546.00	5753.04
546.16	5547.07
546.33	5717.93
546.50	5521.32
546.67	5870.06
546.83	5734.31
547.00	5596.22
547.17	5474.51
547.34	5479.19
547.50	5399.62
547.67	5427.70
547.84	5565.79
548.00	5626.65
548.17	5495.58
548.34	5643.03
548.51	5549.41
548.67	5467.49
548.84	5570.48
549.01	5750.70
549.18	5738.99
549.34	5598.56
549.51	5636.01
549.68	5434.72
549.84	5610.26
550.01	5596.22
550.18	5476.85
550.34	5472.17
550.51	5521.32
550.68	5481.53
550.84	5434.72
551.01	5420.68
551.18	5462.81
551.34	5579.84
551.51	5408.98
551.68	5671.12
551.84	5593.88
552.01	5507.28
552.18	5355.15
552.34	5404.30
552.51	5294.29
552.68	5291.95
552.84	5455.79
553.01	5575.16
553.18	5469.83
553.34	5554.09
553.51	5490.90
553.67	5437.06
553.84	5540.05
554.01	5481.53
554.17	5633.67
554.34	5474.51
554.51	5416.00
554.67	5554.09
554.84	5448.77
555.00	5568.13
555.17	5327.06
555.33	5490.90
555.50	5504.94
555.67	5493.24
555.83	5430.04
556.00	5305.99
556.16	5111.73
556.33	5181.95
556.50	5317.70
556.66	5291.95
556.83	5179.61
556.99	5097.69
557.16	5275.57
557.32	5247.48
557.49	5242.80
557.65	5291.95
557.82	5338.76
557.98	5100.03
558.15	5135.14
558.32	5036.83
558.48	4870.65
558.65	4964.28
558.81	4922.15
558.98	4983.00
559.14	5013.43
559.31	4990.02
559.47	5181.95
559.64	4978.32
559.80	4950.23
559.97	5085.98
560.13	5151.52
560.30	5100.03
560.46	5254.50
560.63	5179.61
560.79	5591.54
560.96	5317.70
561.12	5053.22
561.29	4741.93
561.45	4877.68
561.61	4891.72
561.78	5137.48
561.94	4973.64
562.11	4912.78
562.27	5116.41
562.44	5170.24
562.60	5111.73
562.77	5160.88
562.93	5095.35
563.10	5090.67
563.26	5116.41
563.42	4844.91
563.59	4896.40
563.75	4856.61
563.92	5109.39
564.08	4880.02
564.24	4933.85
564.41	4954.91
564.57	4957.25
564.74	4929.17
564.90	4861.29
565.07	4901.08
565.23	4847.25
565.39	4657.67
565.56	4847.25
565.72	4629.58
565.88	4596.81
566.05	4786.40
566.21	4837.89
566.38	4823.84
566.54	4870.65
566.70	4875.34
566.87	5050.88
567.03	4915.12
567.19	4931.51
567.36	4737.24
567.52	4983.00
567.68	4959.60
567.85	4823.84
568.01	4784.06
568.17	4704.48
568.34	4606.17
568.50	4671.71
568.66	4718.52
568.83	4823.84
568.99	4627.24
569.15	4685.75
569.32	4704.48
569.48	4774.69
569.64	4634.26
569.81	4615.54
569.97	4484.47
570.13	4587.45
570.30	4573.41
570.46	4409.57
570.62	4348.72
570.78	4318.29
570.95	4449.36
571.11	4381.48
571.27	4477.44
571.43	4533.62
571.60	4699.80
571.76	4645.96
571.92	4557.02
572.09	4613.20
572.25	4652.98
572.41	4624.90
572.57	4542.98
572.74	4699.80
572.90	4650.64
573.06	4667.03
573.22	4716.18
573.38	4566.39
573.55	4580.43
573.71	4669.37
573.87	4535.96
574.03	4461.06
574.20	4550.00
574.36	4587.45
574.52	4540.64
574.68	4411.91
574.84	4315.95
575.01	4358.08
575.17	4311.27
575.33	4397.87
575.49	4386.16
575.65	4482.13
575.82	4397.87
575.98	4304.25
576.14	4367.44
576.30	4557.02
576.46	4416.59
576.62	4339.35
576.79	4482.13
576.95	4250.41
577.11	4386.16
577.27	4353.40
577.43	4259.78
577.59	4229.35
577.75	4376.80
577.92	4278.50
578.08	4091.26
578.24	4088.92
578.40	4294.88
578.56	4208.28
578.72	4451.70
578.88	4203.60
579.04	4294.88
579.21	4280.84
579.37	4262.12
579.53	4423.61
579.69	4280.84
579.85	4149.77
580.01	4456.38
580.17	4381.48
580.33	4341.69
580.49	4329.99
580.65	4250.41
580.82	4184.88
580.98	4318.29
581.14	4374.46
581.30	4280.84
581.46	4264.46
581.62	4322.97
581.78	4362.76
581.94	4306.59
582.10	4372.12
582.26	4297.22
582.42	4259.78
582.58	4397.87
582.74	4325.31
582.90	4362.76
583.06	4341.69
583.22	4322.97
583.38	4219.99
583.54	4301.90
583.70	4376.80
583.86	4320.63
584.02	4327.65
584.18	4329.99
584.34	4297.22
584.50	4215.30
584.66	4168.49
584.82	4072.53
584.98	4175.52
585.14	4007.00
585.30	4009.34
585.46	3824.44
585.62	3932.10
585.78	4023.38
585.94	4037.42
586.10	4156.79
586.26	4077.21
586.42	4131.05
586.58	4126.36
586.74	3992.95
586.90	4184.88
587.06	4152.11
587.22	3941.46
587.38	4046.79
587.54	3976.57
587.70	3922.74
587.86	3976.57
588.02	3833.80
588.18	3887.63
588.34	3927.42
588.49	3627.83
588.65	3456.97
588.81	3311.86
588.97	3433.57
589.13	3243.98
589.29	3379.73
589.45	3339.94
589.61	3482.72
589.77	3716.77
589.93	3929.76
590.08	3751.88
590.24	3838.48
590.40	3857.20
590.56	3829.12
590.72	3878.27
590.88	3871.25
591.04	3728.47
591.20	3758.90
591.35	3822.09
591.51	3775.28
591.67	3751.88
591.83	3758.90
591.99	3735.50
592.15	3847.84
592.31	3637.19
592.46	3819.75
592.62	3700.39
592.78	3786.99
592.94	3833.80
593.10	3744.86
593.26	3859.54
593.41	3719.11
593.57	3831.46
593.73	3641.87
593.89	3688.68
594.05	3590.38
594.20	3655.92
594.36	3503.78
594.52	3592.72
594.68	3653.58
594.84	3545.91
594.99	3728.47
595.15	3611.45
595.31	3590.38
595.47	3728.47
595.62	3585.70
595.78	3721.45
595.94	3866.56
596.10	3667.62
596.25	3742.52
596.41	3581.02
596.57	3564.64
596.73	3667.62
596.88	3655.92
597.04	3641.87
597.20	3691.02
597.36	3578.68
597.51	3620.81
597.67	3613.79
597.83	3688.68
597.99	3653.58
