SpectraSuite Data File
++++++++++++++++++++++++++++++++++++
Date: Mon Oct 07 14:53:28 GMT-05:00 2013
User: price-jones
Dark Spectrum Present: No
Reference Spectrum Present: No
Number of Sampled Component Spectra: 1
Spectrometers: USB2+H05261
Integration Time (usec): 100000 (USB2+H05261)
Spectra Averaged: 1 (USB2+H05261)
Boxcar Smoothing: 0 (USB2+H05261)
Correct for Electrical Dark: No (USB2+H05261)
Strobe/Lamp Enabled: No (USB2+H05261)
Correct for Detector Non-linearity: No (USB2+H05261)
Correct for Stray Light: No (USB2+H05261)
Number of Pixels in Processed Spectrum: 2048
>>>>>Begin Processed Spectral Data<<<<<
365.73	0.00
365.92	0.00
366.12	0.00
366.32	0.00
366.52	0.00
366.72	0.00
366.91	0.00
367.11	0.00
367.31	0.00
367.51	0.00
367.70	0.00
367.90	0.00
368.10	0.00
368.30	0.00
368.49	0.00
368.69	0.00
368.89	0.00
369.09	0.00
369.28	0.00
369.48	0.00
369.68	0.00
369.87	0.00
370.07	0.00
370.27	0.00
370.47	561.73
370.66	3246.32
370.86	3946.14
371.06	4065.51
371.25	4109.98
371.45	3700.39
371.65	3389.10
371.84	3229.94
372.04	3243.98
372.24	3765.92
372.44	4028.06
372.63	3864.22
372.83	3552.93
373.03	3185.47
373.22	2867.16
373.42	2939.71
373.62	3562.30
373.81	3761.24
374.01	3723.79
374.21	3396.12
374.40	3265.05
374.60	3428.88
374.79	3852.52
374.99	4243.39
375.19	4702.14
375.38	4805.12
375.58	4341.69
375.78	4493.83
375.97	4362.76
376.17	4622.56
376.37	4629.58
376.56	4774.69
376.76	5046.20
376.95	5165.56
377.15	5556.43
377.35	5832.62
377.54	6033.90
377.74	6310.08
377.93	6214.12
378.13	6083.05
378.33	5743.67
378.52	5383.23
378.72	5282.59
378.91	5191.31
379.11	4891.72
379.31	4723.20
379.50	4669.37
379.70	5097.69
379.89	5631.33
380.09	5834.96
380.28	6265.61
380.48	6059.65
380.68	5944.96
380.87	5902.83
381.07	5554.09
381.26	4978.32
381.46	4746.61
381.65	4477.44
381.85	4414.25
382.04	4280.84
382.24	3964.87
382.43	3719.11
382.63	3772.94
382.83	3864.22
383.02	3714.43
383.22	3775.28
383.41	3812.73
383.61	4025.72
383.80	4512.55
384.00	5123.43
384.19	5872.40
384.39	5961.34
384.58	6092.41
384.78	5781.12
384.97	5937.94
385.17	5603.24
385.36	5411.32
385.56	5029.81
385.75	5235.78
385.95	5881.77
386.14	6375.62
386.34	6321.79
386.53	6104.12
386.72	5626.65
386.92	5668.78
387.11	5905.17
387.31	6211.78
387.50	6026.88
387.70	5827.93
387.89	5708.57
388.09	5905.17
388.28	5982.41
388.48	6066.67
388.67	6242.21
388.86	7386.73
389.06	7639.51
389.25	8217.62
389.45	8098.25
389.64	8002.29
389.84	8105.28
390.03	7950.80
390.22	8084.21
390.42	8105.28
390.61	8538.27
390.81	9301.29
391.00	9479.17
391.19	9301.29
391.39	9074.26
391.58	8648.28
391.78	8147.40
391.97	7894.63
392.16	7440.56
392.36	6633.08
392.55	5425.36
392.75	4259.78
392.94	3459.31
393.13	3527.19
393.33	3988.27
393.52	5217.05
393.71	6445.84
393.91	7112.89
394.10	7644.19
394.29	8285.50
394.49	9057.87
394.68	9961.32
394.88	10061.96
395.07	10204.74
395.26	10143.88
395.46	9872.38
395.65	9121.07
395.84	8238.69
396.04	6750.10
396.23	5657.07
396.42	4671.71
396.62	4423.61
396.81	5343.44
397.00	6668.19
397.19	8552.32
397.39	10012.81
397.58	11009.88
397.77	11775.24
397.97	12294.83
398.16	12608.47
398.35	12947.84
398.55	13359.78
398.74	13867.67
398.93	14223.44
399.12	13963.64
399.32	13373.82
399.51	13755.33
399.70	14459.83
399.90	14338.12
400.09	14600.26
400.28	14490.26
400.47	14452.81
400.67	15124.54
400.86	15517.75
401.05	15756.49
401.24	15484.98
401.44	15824.36
401.63	15917.98
401.82	15822.02
402.01	15969.48
402.21	16133.31
402.40	16283.11
402.59	16070.12
402.78	15087.09
402.97	14476.21
403.17	15159.65
403.36	16091.18
403.55	16826.11
403.74	16919.73
403.93	16456.31
404.13	15314.13
404.32	14630.69
404.51	15253.27
404.70	16477.37
404.89	16699.72
405.09	16240.98
405.28	15477.96
405.47	15599.67
405.66	15885.22
405.85	15192.42
406.05	15122.20
406.24	15000.49
406.43	15871.17
406.62	16617.80
406.81	16503.12
407.00	15903.94
407.20	15611.37
407.39	15618.39
407.58	16360.34
407.77	17027.40
407.96	17884.03
408.15	17589.13
408.34	17661.68
408.54	18534.70
408.73	18958.34
408.92	18279.58
409.11	17820.84
409.30	16868.24
409.49	15960.11
409.68	15012.20
409.87	14600.26
410.07	15232.21
410.26	16718.45
410.45	17696.79
410.64	17916.80
410.83	18927.91
411.02	19140.90
411.21	19913.28
411.40	19538.79
411.59	19976.47
411.78	19604.33
411.98	19564.54
412.17	19625.39
412.36	19342.19
412.55	19515.39
412.74	18888.12
412.93	18487.89
413.12	18731.31
413.31	20147.33
413.50	20741.83
413.69	21146.74
413.88	20381.38
414.07	19536.45
414.26	20100.52
414.45	20704.38
414.64	20872.90
414.83	20893.96
415.02	20297.13
415.22	20332.23
415.41	20851.83
415.60	21427.60
415.79	22295.94
415.98	22869.37
416.17	22955.97
416.36	22228.07
416.55	21745.92
416.74	21324.62
416.93	20517.14
417.12	20566.29
417.31	20891.62
417.50	21104.61
417.69	21963.59
417.88	21675.70
418.07	21750.60
418.26	20957.16
418.45	21532.93
418.64	22497.23
418.83	23056.62
419.02	22747.67
419.21	22705.54
419.39	21436.97
419.58	20367.34
419.77	20697.36
419.96	21584.42
420.15	22855.33
420.34	23391.31
420.53	24315.83
420.72	24751.17
420.91	24325.19
421.10	23810.27
421.29	24030.28
421.48	22911.50
421.67	24280.72
421.86	23311.74
422.05	22061.89
422.24	19807.95
422.43	19403.04
422.61	21333.98
422.80	23269.61
422.99	23400.68
423.18	22501.91
423.37	22209.34
423.56	21853.58
423.75	22618.94
423.94	22979.38
424.13	21792.73
424.32	22022.10
424.50	21876.99
424.69	21516.54
424.88	22097.00
425.07	21893.37
425.26	21420.58
425.45	21163.12
425.64	20950.14
425.83	20968.86
426.01	22263.18
426.20	22782.77
426.39	22789.80
426.58	21322.28
426.77	19545.81
426.96	18651.73
427.15	19491.98
427.33	21137.38
427.52	22160.19
427.71	22113.38
427.90	21701.45
428.09	21427.60
428.28	20781.62
428.46	20503.09
428.65	20002.22
428.84	20713.74
429.03	20919.71
429.22	19763.48
429.40	19058.98
429.59	17123.36
429.78	15246.25
429.97	15063.69
430.16	15349.23
430.34	15602.01
430.53	15356.25
430.72	16037.35
430.91	17298.90
431.10	20327.55
431.28	24503.07
431.47	26036.12
431.66	26120.38
431.85	23971.77
432.03	22387.22
432.22	21046.10
432.41	21982.31
432.60	24538.18
432.79	25064.80
432.97	26015.05
433.16	25172.46
433.35	23103.43
433.54	21001.63
433.72	19346.87
433.91	20182.44
434.10	22427.01
434.28	24070.07
434.47	25392.47
434.66	24833.08
434.85	24444.56
435.03	24304.12
435.22	24577.97
435.41	26457.42
435.59	26380.18
435.78	26815.52
435.97	27522.36
436.16	27826.63
436.34	27381.93
436.53	26464.44
436.72	26593.17
436.90	25221.61
437.09	25062.46
437.28	25111.61
437.46	25750.57
437.65	25818.45
437.84	23761.12
438.02	21940.18
438.21	21706.13
438.40	22960.66
438.58	24807.34
438.77	25678.02
438.96	25694.40
439.14	26995.74
439.33	27388.95
439.52	28175.37
439.70	27613.64
439.89	27030.85
440.08	26319.32
440.26	25898.03
440.45	26647.00
440.63	28442.19
440.82	30235.04
441.01	29659.27
441.19	29153.71
441.38	29748.21
441.57	31061.25
441.75	31615.96
441.94	31763.41
442.12	31229.77
442.31	31470.84
442.50	31573.83
442.68	31414.67
442.87	30920.82
443.05	30696.13
443.24	31000.40
443.43	31669.79
443.61	32687.92
443.80	32648.13
443.98	30841.24
444.17	30705.49
444.35	32755.80
444.54	32943.04
444.73	32816.65
444.91	31630.00
445.10	30223.34
445.28	29010.94
445.47	28554.54
445.65	28734.76
445.84	29518.84
446.02	30693.79
446.21	30981.67
446.39	31337.43
446.58	31417.01
446.77	31878.10
446.95	32306.41
447.14	33266.03
447.32	33670.95
447.51	32751.12
447.69	31714.26
447.88	31016.78
448.06	31630.00
448.25	31983.42
448.43	32723.03
448.62	31913.20
448.80	31824.26
448.99	32247.90
449.17	32383.65
449.36	32273.65
449.54	33455.62
449.73	33879.25
449.91	34471.41
450.10	35431.03
450.28	35494.22
450.46	35494.22
450.65	35723.60
450.83	35463.80
451.02	34188.21
451.20	34827.17
451.39	34258.42
451.57	34066.50
451.76	34127.35
451.94	33998.62
452.13	33390.08
452.31	31730.64
452.49	30478.46
452.68	30906.77
452.86	30848.26
453.05	31363.18
453.23	32613.02
453.42	32811.97
453.60	33647.54
453.78	34129.69
453.97	33619.46
454.15	33897.98
454.34	32725.37
454.52	33666.27
454.70	32835.38
454.89	32893.89
455.07	33050.70
455.26	33750.52
455.44	34527.58
455.62	35019.10
455.81	35510.61
455.99	35187.61
456.17	34792.06
456.36	34981.65
456.54	36067.66
456.73	35702.53
456.91	36315.75
457.09	36428.10
457.28	37347.93
457.46	35793.81
457.64	35723.60
457.83	34866.96
458.01	34047.77
458.19	34937.18
458.38	34953.56
458.56	35854.67
458.74	35910.84
458.93	35480.18
459.11	35115.06
459.29	34569.71
459.48	34925.47
459.66	35007.39
459.84	35335.07
460.03	35648.70
460.21	36194.04
460.39	36755.77
460.57	36809.61
460.76	36863.44
460.94	36889.18
461.12	36987.49
461.31	36994.51
461.49	37104.51
461.67	37008.55
461.85	37965.83
462.04	37427.51
462.22	38291.16
462.40	37972.85
462.59	37551.56
462.77	37654.54
462.95	37841.78
463.13	36961.74
463.32	36472.57
463.50	36720.66
463.68	36488.95
463.86	36524.06
464.05	36252.56
464.23	35384.22
464.41	35599.55
464.59	34815.47
464.78	36715.98
464.96	36018.50
465.14	36025.53
465.32	37017.91
465.50	37493.04
465.69	38185.84
465.87	37160.69
466.05	36449.16
466.23	34895.05
466.41	34108.63
466.60	35079.95
466.78	34682.06
466.96	35875.73
467.14	36194.04
467.32	36521.72
467.51	36886.84
467.69	35089.31
467.87	35648.70
468.05	36584.91
468.23	35978.72
468.41	36339.16
468.60	36360.22
468.78	36741.73
468.96	36451.50
469.14	37177.07
469.32	37619.43
469.50	35419.33
469.69	35894.46
469.87	35770.41
470.05	35342.09
470.23	35555.08
470.41	35353.79
470.59	36350.86
470.77	36109.78
470.95	36973.44
471.14	37399.42
471.32	36975.78
471.50	39526.97
471.68	39405.26
471.86	39545.69
472.04	39962.31
472.22	39936.56
472.40	38349.68
472.58	37500.06
472.77	37244.94
472.95	37975.19
473.13	39290.57
473.31	38155.41
473.49	38417.55
473.67	39117.37
473.85	39409.94
474.03	40481.91
474.21	40250.19
474.39	41240.24
474.57	40711.28
474.75	40542.76
474.93	40706.60
475.12	39824.22
475.30	40135.51
475.48	39941.24
475.66	40315.73
475.84	39821.87
476.02	39618.25
476.20	39110.35
476.38	39906.13
476.56	41141.94
476.74	41263.64
476.92	41780.90
477.10	42192.84
477.28	43531.62
477.46	43449.70
477.64	44039.52
477.82	44240.81
478.00	44374.22
478.18	43480.13
478.36	43161.82
478.54	43281.19
478.72	43456.73
478.90	44961.69
479.08	45696.62
479.26	46410.48
479.44	45879.18
479.62	46036.00
479.80	45804.28
479.98	45865.14
480.16	46590.70
480.34	45844.07
480.52	46674.96
480.70	46436.23
480.88	46880.93
481.06	47271.80
481.24	47320.95
481.41	48699.53
481.59	49242.53
481.77	48776.76
481.95	48437.39
482.13	47934.17
482.31	47756.29
482.49	48540.37
482.67	48474.84
482.85	48931.24
483.03	49483.61
483.21	49745.75
483.39	49911.92
483.57	49017.84
483.74	48641.01
483.92	48942.94
484.10	49298.70
484.28	50279.39
484.46	50777.92
484.64	51014.32
484.82	50169.38
485.00	49392.33
485.18	49165.29
485.35	47604.16
485.53	44533.37
485.71	40907.88
485.89	40168.27
486.07	42192.84
486.25	45357.24
486.43	47817.14
486.61	48322.70
486.78	48755.70
486.96	48556.75
487.14	50185.77
487.32	51231.99
487.50	51959.89
487.68	52863.34
487.85	53270.59
488.03	53081.01
488.21	52797.80
488.39	52112.03
488.57	51690.73
488.75	51487.10
488.92	52435.02
489.10	54354.26
489.28	55496.44
489.46	55964.55
489.64	55772.63
489.81	56074.55
489.99	55463.67
490.17	55714.11
490.35	56212.65
490.53	55723.47
490.70	55381.76
490.88	55089.19
491.06	55983.27
491.24	56107.32
491.41	55063.44
491.59	53694.23
491.77	53134.84
491.95	54211.49
492.13	55166.43
492.30	56053.49
492.48	57085.67
492.66	57385.25
492.84	57226.10
493.01	57228.44
493.19	56736.93
493.37	56224.35
493.54	56018.38
493.72	56697.14
493.90	57497.60
494.08	58131.89
494.25	58515.73
494.43	58394.03
494.61	59030.65
494.79	59196.83
494.96	58979.16
495.14	58623.40
495.32	57544.41
495.49	57029.49
495.67	57741.02
495.85	59004.91
496.02	59622.81
496.20	59124.27
496.38	58993.20
496.55	58827.02
496.73	59365.35
496.91	59370.03
497.09	59758.56
497.26	60102.62
497.44	59458.97
497.62	59135.98
497.79	58489.99
497.97	57387.60
498.14	57556.11
498.32	58602.33
498.50	59281.09
498.67	59756.22
498.85	59585.36
499.03	59758.56
499.20	60013.68
499.38	60224.32
499.56	59737.49
499.73	59332.58
499.91	58958.09
500.08	58670.21
500.26	58035.92
500.44	58330.83
500.61	58997.88
500.79	58845.75
500.97	58614.04
501.14	58211.46
501.32	58241.89
501.49	58227.85
501.67	58307.43
501.84	58979.16
502.02	59063.42
502.20	59489.40
502.37	59461.31
502.55	59667.28
502.72	60072.19
502.90	60575.40
503.07	60011.34
503.25	59887.29
503.43	58993.20
503.60	58515.73
503.78	57872.09
503.95	58515.73
504.13	59620.47
504.30	60486.46
504.48	60292.20
504.65	59821.75
504.83	59987.93
505.01	60465.40
505.18	60907.76
505.36	61394.59
505.53	61310.33
505.71	61532.68
505.88	61584.18
506.06	61092.66
506.23	60633.92
506.41	60413.91
506.58	60774.35
506.76	60626.90
506.93	60610.51
507.11	60385.82
507.28	60654.98
507.46	60102.62
507.63	59501.10
507.81	59311.52
507.98	59515.14
508.16	60097.94
508.33	60566.04
508.50	61193.31
508.68	61261.18
508.85	61722.27
509.03	61558.43
509.20	61492.89
509.38	61008.40
509.55	60163.47
509.73	60224.32
509.90	60767.33
510.08	61102.03
510.25	60910.10
510.42	60757.97
510.60	60842.23
510.77	61080.96
510.95	61469.49
511.12	61542.05
511.30	61829.93
511.47	62255.91
511.64	61982.07
511.82	61855.68
511.99	61043.51
512.17	60554.34
512.34	60331.99
512.51	60348.37
512.69	60479.44
512.86	60727.54
513.04	61125.43
513.21	61141.81
513.38	60879.67
513.56	60214.96
513.73	59831.11
513.90	60032.40
514.08	60111.98
514.25	60439.65
514.43	60535.62
514.60	60636.26
514.77	60725.20
514.95	60657.32
515.12	60722.86
515.29	61111.39
515.47	61382.89
515.64	61572.47
515.81	61289.27
515.99	60683.07
516.16	59473.01
516.33	57420.36
516.51	55997.32
516.68	55276.43
516.85	55084.51
517.03	55217.92
517.20	57638.03
517.37	59952.82
517.54	60797.76
517.72	60388.16
517.89	58279.34
518.06	56030.08
518.24	56430.32
518.41	58323.81
518.58	59409.82
518.75	59826.43
518.93	60037.08
519.10	59831.11
519.27	60137.72
519.45	60369.44
519.62	61162.88
519.79	61504.60
519.96	61188.63
520.14	60669.03
520.31	59875.58
520.48	60023.04
520.65	60315.61
520.83	61162.88
521.00	61563.11
521.17	61286.93
521.34	60762.65
521.52	60985.00
521.69	61645.03
521.86	61996.11
522.03	61701.20
522.20	60617.53
522.38	59718.77
522.55	59660.26
522.72	60339.01
522.89	60317.95
523.07	60687.75
523.24	60931.17
523.41	61738.65
523.58	61890.79
523.75	62316.76
523.92	62115.48
524.10	62244.21
524.27	62049.94
524.44	61923.55
524.61	61820.57
524.78	61684.82
524.96	61319.70
525.13	61535.02
525.30	61794.82
525.47	62230.16
525.64	62237.19
525.81	61322.04
525.98	60275.82
526.16	58784.90
526.33	58164.65
526.50	57928.26
526.67	57605.26
526.84	58040.60
527.01	59011.93
527.18	59664.94
527.36	60650.30
527.53	61471.83
527.70	61705.88
527.87	61197.99
528.04	60537.96
528.21	61190.97
528.38	61726.95
528.55	62248.89
528.72	62496.98
528.89	62637.42
529.07	62419.75
529.24	61834.61
529.41	61244.80
529.58	60493.49
529.75	60807.12
529.92	61322.04
530.09	61607.58
530.26	62162.29
530.43	62410.38
530.60	62372.94
530.77	62529.75
530.94	62632.74
531.11	62218.46
531.28	61858.02
531.46	61703.54
531.63	61836.95
531.80	61766.74
531.97	61385.23
532.14	60591.79
532.31	59784.30
532.48	59103.21
532.65	59175.76
532.82	60032.40
532.99	60910.10
533.16	61315.01
533.33	61865.04
533.50	61698.86
533.67	61052.87
533.84	60898.40
534.01	60779.03
534.18	61071.60
534.35	61396.93
534.52	61038.83
534.69	61403.95
534.86	61696.52
535.03	61708.22
535.20	62244.21
535.37	62487.62
535.54	62726.36
535.71	62394.00
535.88	62047.60
536.05	61556.09
536.22	61123.09
536.38	60844.57
536.55	60320.29
536.72	59943.46
536.89	59833.46
537.06	60739.24
537.23	61371.19
537.40	61530.34
537.57	61691.84
537.74	61539.71
537.91	61230.75
538.08	61289.27
538.25	61471.83
538.42	61638.01
538.59	61350.12
538.75	60741.58
538.92	60427.95
539.09	60465.40
539.26	60221.98
539.43	59980.91
539.60	60257.09
539.77	60268.79
539.94	60355.39
540.11	59533.87
540.28	59096.19
540.44	59168.74
540.61	59360.67
540.78	59627.49
540.95	59994.95
541.12	60362.42
541.29	60441.99
541.46	60795.42
541.62	60952.23
541.79	60825.84
541.96	60280.50
542.13	60156.45
542.30	60357.74
542.47	60573.06
542.63	60460.72
542.80	59978.57
542.97	60423.27
543.14	60224.32
543.31	60163.47
543.48	60664.35
543.64	61338.42
543.81	61792.48
543.98	61307.99
544.15	60837.54
544.32	60254.75
544.48	60479.44
544.65	60860.95
544.82	61261.18
544.99	60872.65
545.16	60348.37
545.32	60285.18
545.49	61165.22
545.66	61361.82
545.83	60940.53
546.00	60729.88
546.16	60381.14
546.33	60470.08
546.50	60453.70
546.67	61080.96
546.83	60238.37
547.00	60444.33
547.17	59840.48
547.34	59346.62
547.50	59409.82
547.67	59854.52
547.84	59758.56
548.00	60282.84
548.17	60547.32
548.34	60383.48
548.51	60416.25
548.67	60411.57
548.84	60594.13
549.01	60449.02
549.18	60481.78
549.34	60437.31
549.51	60350.71
549.68	60165.81
549.84	60114.32
550.01	59943.46
550.18	59901.33
550.34	59898.99
550.51	59882.61
550.68	60055.81
550.84	59723.45
551.01	59657.91
551.18	59791.33
551.34	60116.66
551.51	60205.60
551.68	60612.85
551.84	60652.64
552.01	60168.15
552.18	60360.08
552.34	59501.10
552.51	59313.86
552.68	59068.10
552.84	59484.72
553.01	59690.68
553.18	59648.55
553.34	59828.77
553.51	59910.69
553.67	59976.23
553.84	60282.84
554.01	60111.98
554.17	59994.95
554.34	60055.81
554.51	60275.82
554.67	60432.63
554.84	60245.39
555.00	59824.09
555.17	59643.87
555.33	59742.17
555.50	59746.86
555.67	59618.13
555.83	59470.67
556.00	59341.94
556.16	59440.24
556.33	58925.33
556.50	58759.15
556.66	58848.09
556.83	58611.70
556.99	58473.60
557.16	58834.05
557.32	59150.02
557.49	59461.31
557.65	59260.02
557.82	59325.56
557.98	59077.46
558.15	58471.26
558.32	57949.32
558.48	56978.00
558.65	57205.03
558.81	57773.78
558.98	57829.96
559.14	58164.65
559.31	58305.09
559.47	58382.32
559.64	57839.32
559.80	57808.89
559.97	57481.22
560.13	58223.17
560.30	58885.54
560.46	59416.84
560.63	59618.13
560.79	59681.32
560.96	59433.22
561.12	58166.99
561.29	57446.11
561.45	57387.60
561.61	57848.68
561.78	58424.45
561.94	58445.52
562.11	58333.17
562.27	57991.45
562.44	58417.43
562.60	58550.84
562.77	58651.48
562.93	58529.78
563.10	58560.20
563.26	58255.93
563.42	58169.33
563.59	57865.06
563.75	57975.07
563.92	57855.70
564.08	58141.25
564.24	58436.16
564.41	58195.08
564.57	58113.16
564.74	58066.35
564.90	57813.57
565.07	57499.94
565.23	57357.17
565.39	56942.89
565.56	56856.29
565.72	56629.26
565.88	57003.75
566.05	56804.80
566.21	57099.71
566.38	57282.27
566.54	57340.78
566.70	57464.83
566.87	57954.00
567.03	57743.36
567.19	58024.22
567.36	57911.88
567.52	57724.63
567.68	57467.17
567.85	56865.66
568.01	56552.02
568.17	56329.67
568.34	56432.66
568.50	56266.48
568.66	56409.25
568.83	56699.48
568.99	56603.52
569.15	56802.46
569.32	56994.39
569.48	56519.26
569.64	56381.16
569.81	56093.28
569.97	56151.79
570.13	56107.32
570.30	55580.70
570.46	55281.11
570.62	54915.99
570.78	54658.53
570.95	55110.25
571.11	55611.13
571.27	55576.02
571.43	56083.92
571.60	56327.33
571.76	56704.16
571.92	56795.44
572.09	56765.01
572.25	56802.46
572.41	56729.90
572.57	56662.03
572.74	56512.23
572.90	56114.34
573.06	56259.46
573.22	56353.08
573.38	56247.75
573.55	56376.48
573.71	56460.74
573.87	56069.87
574.03	55992.64
574.20	56144.77
574.36	55767.94
574.52	55604.11
574.68	55313.88
574.84	55196.85
575.01	54625.76
575.17	54768.54
575.33	54805.98
575.49	55161.75
575.65	55517.51
575.82	55295.16
575.98	54866.84
576.14	54995.57
576.30	55653.26
576.46	55657.94
576.62	55578.36
576.79	55274.09
576.95	55253.03
577.11	54880.88
577.27	55182.81
577.43	55274.09
577.59	55077.49
577.75	54501.71
577.92	54262.98
578.08	53584.22
578.24	53581.88
578.40	54195.10
578.56	54351.92
578.72	54230.21
578.88	54401.07
579.04	54677.25
579.21	54890.24
579.37	54798.96
579.53	55042.38
579.69	54836.41
579.85	55009.61
580.01	54787.26
580.17	54424.48
580.33	54251.28
580.49	54403.41
580.65	54520.44
580.82	54635.13
580.98	54766.20
581.14	54735.77
581.30	54770.88
581.46	54632.78
581.62	54759.17
581.78	54866.84
581.94	55133.66
582.10	54810.67
582.26	55093.87
582.42	54857.48
582.58	54981.52
582.74	54684.28
582.90	54784.92
583.06	54796.62
583.22	54768.54
583.38	54700.66
583.54	54745.13
583.70	54475.97
583.86	54686.62
584.02	54604.70
584.18	54885.56
584.34	54607.04
584.50	54372.99
584.66	54363.62
584.82	53822.96
584.98	53993.82
585.14	53708.27
