SpectraSuite Data File
++++++++++++++++++++++++++++++++++++
Date: Mon Oct 07 14:53:57 GMT-05:00 2013
User: price-jones
Dark Spectrum Present: No
Reference Spectrum Present: No
Number of Sampled Component Spectra: 1
Spectrometers: USB2+H05261
Integration Time (usec): 100000 (USB2+H05261)
Spectra Averaged: 1 (USB2+H05261)
Boxcar Smoothing: 0 (USB2+H05261)
Correct for Electrical Dark: No (USB2+H05261)
Strobe/Lamp Enabled: No (USB2+H05261)
Correct for Detector Non-linearity: No (USB2+H05261)
Correct for Stray Light: No (USB2+H05261)
Number of Pixels in Processed Spectrum: 2048
>>>>>Begin Processed Spectral Data<<<<<
365.73	0.00
365.92	0.00
366.12	0.00
366.32	0.00
366.52	0.00
366.72	0.00
366.91	0.00
367.11	0.00
367.31	0.00
367.51	0.00
367.70	0.00
367.90	0.00
368.10	0.00
368.30	0.00
368.49	0.00
368.69	0.00
368.89	0.00
369.09	0.00
369.28	0.00
369.48	0.00
369.68	0.00
369.87	0.00
370.07	0.00
370.27	0.00
370.47	887.06
370.66	4365.10
370.86	5207.69
371.06	5530.69
371.25	5533.03
371.45	4802.78
371.65	4454.04
371.84	4264.46
372.04	4610.86
372.24	5034.49
372.44	5345.78
372.63	5107.05
372.83	4798.10
373.03	4168.49
373.22	3908.69
373.42	4044.45
373.62	4706.82
373.81	5018.11
374.01	5088.32
374.21	4685.75
374.40	4217.65
374.60	4456.38
374.79	4870.65
374.99	5823.25
375.19	6370.94
375.38	6272.64
375.58	5851.34
375.78	5781.12
375.97	5872.40
376.17	6155.61
376.37	6022.20
376.56	6434.13
376.76	6656.48
376.95	7023.95
377.15	7576.31
377.35	7712.07
377.54	8035.06
377.74	8404.86
377.93	8234.00
378.13	8177.83
378.33	7585.68
378.52	6986.50
378.72	6572.22
378.91	6576.91
379.11	6389.66
379.31	6143.91
379.50	6141.57
379.70	6579.25
379.89	7286.09
380.09	8025.70
380.28	8006.97
380.48	8067.83
380.68	7992.93
380.87	7644.19
381.07	7180.76
381.26	6600.31
381.46	6312.42
381.65	5823.25
381.85	5858.36
382.04	5338.76
382.24	5305.99
382.43	4950.23
382.63	4779.37
382.83	4645.96
383.02	4669.37
383.22	4725.54
383.41	4819.16
383.61	5093.01
383.80	5825.59
384.00	6757.13
384.19	7590.36
384.39	7808.03
384.58	7627.81
384.78	7749.51
384.97	7700.36
385.17	7215.87
385.36	6878.83
385.56	6583.93
385.75	6642.44
385.95	7323.54
386.14	7889.95
386.34	8086.55
386.53	7712.07
386.72	7295.45
386.92	6988.84
387.11	7585.68
387.31	7957.82
387.50	7915.69
387.70	7478.01
387.89	7494.40
388.09	7822.07
388.28	7604.40
388.48	7726.11
388.67	8271.45
388.86	9165.54
389.06	9858.34
389.25	10068.98
389.45	10427.09
389.64	10061.96
389.84	10085.37
390.03	9970.68
390.22	10148.56
390.42	10307.72
390.61	10890.51
390.81	11690.98
391.00	12100.57
391.19	11990.56
391.39	11154.99
391.58	10586.24
391.78	9769.40
391.97	9638.33
392.16	8891.70
392.36	8173.15
392.55	6590.95
392.75	5467.49
392.94	4430.63
393.13	4388.50
393.33	5146.84
393.52	6520.73
393.71	7936.76
393.91	9074.26
394.10	9577.47
394.29	10705.61
394.49	11433.52
394.68	12299.52
394.88	12283.13
395.07	12854.22
395.26	12814.43
395.46	12346.33
395.65	11613.74
395.84	9968.34
396.04	8601.47
396.23	6967.77
396.42	5806.87
396.62	5603.24
396.81	6480.94
397.00	8292.52
397.19	10436.45
397.39	12580.38
397.58	13839.59
397.77	14932.62
397.97	15290.72
398.16	15634.78
398.35	16107.57
398.55	16706.74
398.74	16919.73
398.93	17547.00
399.12	17071.87
399.32	16828.45
399.51	17216.98
399.70	18050.21
399.90	17813.82
400.09	17949.57
400.28	17984.68
400.47	18106.38
400.67	18738.33
400.86	19129.20
401.05	18909.19
401.24	19026.21
401.44	19499.00
401.63	19431.13
401.82	19737.74
402.01	19697.95
402.21	20074.77
402.40	20072.43
402.59	19325.80
402.78	18459.81
402.97	17902.76
403.17	18761.73
403.36	19686.25
403.55	20524.16
403.74	20891.62
403.93	19847.74
404.13	18237.45
404.32	17926.16
404.51	18625.98
404.70	20304.15
404.89	19908.60
405.09	19754.12
405.28	19342.19
405.47	19253.25
405.66	19606.67
405.85	18956.00
406.05	17816.16
406.24	18743.01
406.43	19454.53
406.62	19885.19
406.81	19709.65
407.00	19066.00
407.20	18995.79
407.39	19213.46
407.58	20086.48
407.77	21003.97
407.96	21490.80
408.15	21591.44
408.34	21446.33
408.54	22654.05
408.73	22696.17
408.92	22312.33
409.11	21593.78
409.30	20655.23
409.49	19555.18
409.68	18214.05
409.87	17750.62
410.07	18635.35
410.26	20025.62
410.45	21546.97
410.64	22281.90
410.83	22602.55
411.02	23164.28
411.21	24109.86
411.40	23758.78
411.59	23946.02
411.78	23943.68
411.98	23264.92
412.17	24032.62
412.36	23566.85
412.55	23396.00
412.74	22754.69
412.93	22342.75
413.12	22581.49
413.31	24769.89
413.50	24950.11
413.69	25294.17
413.88	24776.91
414.07	23440.47
414.26	24177.73
414.45	24882.24
414.64	25041.39
414.83	25090.54
415.02	24416.47
415.22	24493.71
415.41	24950.11
415.60	25659.29
415.79	26817.86
415.98	27445.12
416.17	27410.01
416.36	26661.04
416.55	26347.41
416.74	25539.93
416.93	24517.11
417.12	24505.41
417.31	24912.66
417.50	25172.46
417.69	26445.71
417.88	26677.43
418.07	25998.67
418.26	25502.48
418.45	25956.54
418.64	26841.26
418.83	27765.78
419.02	27283.62
419.21	26984.04
419.39	25965.90
419.58	24477.32
419.77	24634.14
419.96	25708.44
420.15	27185.32
420.34	27943.66
420.53	28807.31
420.72	29511.81
420.91	29317.55
421.10	28720.71
421.29	28379.00
421.48	27384.27
421.67	29109.24
421.86	28226.86
422.05	26366.13
422.24	23878.15
422.43	23363.23
422.61	25773.98
422.80	28058.34
422.99	27960.04
423.18	26822.54
423.37	26101.65
423.56	26419.97
423.75	26490.18
423.94	27470.87
424.13	25876.96
424.32	26071.23
424.50	26391.88
424.69	25570.35
424.88	26080.59
425.07	25766.96
425.26	25909.73
425.45	25846.54
425.64	25249.70
425.83	25336.30
426.01	26153.15
426.20	26927.86
426.39	26979.36
426.58	25235.66
426.77	23332.80
426.96	22476.16
427.15	23049.60
427.33	25345.66
427.52	26284.22
427.71	25956.54
427.90	25776.32
428.09	25724.83
428.28	25081.18
428.46	24095.82
428.65	23735.37
428.84	24489.03
429.03	25186.50
429.22	23449.83
429.40	22340.41
429.59	20245.63
429.78	17928.50
429.97	18064.25
430.16	18134.47
430.34	18267.88
430.53	18120.43
430.72	18377.89
430.91	20615.44
431.10	24362.64
431.28	28271.33
431.47	30754.64
431.66	31421.69
431.85	28348.57
432.03	26043.14
432.22	24781.59
432.41	25928.45
432.60	28353.25
432.79	29443.94
432.97	30651.66
433.16	29696.72
433.35	27241.50
433.54	24652.86
433.72	22813.20
433.91	23864.10
434.10	26434.01
434.28	28362.61
434.47	29778.64
434.66	29490.75
434.85	28765.18
435.03	28753.48
435.22	29373.72
435.41	31302.32
435.59	30611.87
435.78	31211.04
435.97	32121.51
436.16	32423.44
436.34	31828.95
436.53	31262.54
436.72	31470.84
436.90	29539.90
437.09	29612.46
437.28	29015.62
437.46	30015.03
437.65	29853.53
437.84	28109.83
438.02	25937.82
438.21	25425.24
438.40	27140.85
438.58	29139.67
438.77	29699.06
438.96	30239.72
439.14	31428.71
439.33	32187.05
439.52	32439.82
439.70	31859.37
439.89	30913.80
440.08	30352.07
440.26	30096.95
440.45	31171.25
440.63	33303.48
440.82	34972.28
441.01	34637.59
441.19	34340.34
441.38	34628.23
441.57	35917.86
441.75	36467.89
441.94	36865.78
442.12	36187.02
442.31	37312.82
442.50	37163.03
442.68	36425.76
442.87	36100.42
443.05	35405.28
443.24	35824.24
443.43	37017.91
443.61	37507.08
443.80	37900.29
443.98	35744.66
444.17	35576.14
444.35	37750.50
444.54	38244.35
444.73	37844.12
444.91	36257.24
445.10	34763.98
445.28	33514.13
445.47	32971.13
445.65	33116.24
445.84	34436.30
446.02	35363.15
446.21	36081.70
446.39	35805.52
446.58	36437.46
446.77	36868.12
446.95	37027.28
447.14	38066.47
447.32	39168.87
447.51	38022.00
447.69	36940.68
447.88	36191.70
448.06	36737.05
448.25	37579.64
448.43	37933.06
448.62	36275.96
448.80	36526.40
448.99	36844.71
449.17	37125.58
449.36	37680.28
449.54	38675.01
449.73	39152.48
449.91	39489.52
450.10	40645.74
450.28	41113.85
450.46	40737.02
450.65	41141.94
450.83	40638.72
451.02	39899.11
451.20	39363.13
451.39	39882.73
451.57	39295.25
451.76	38955.88
451.94	38967.58
452.13	38642.24
452.31	36999.19
452.49	35360.81
452.68	35665.08
452.86	35637.00
453.05	35644.02
453.23	37036.64
453.42	37972.85
453.60	39014.39
453.78	39065.88
453.97	38888.00
454.15	39180.57
454.34	37743.48
454.52	38291.16
454.70	37684.97
454.89	37483.68
455.07	38288.82
455.26	38251.38
455.44	40048.91
455.62	40779.15
455.81	40865.75
455.99	40430.41
456.17	39955.29
456.36	40065.29
456.54	41060.02
456.73	41155.98
456.91	42211.56
457.09	42026.66
457.28	42841.17
457.46	41324.50
457.64	40828.30
457.83	39590.16
458.01	38939.49
458.19	39660.38
458.38	40222.11
458.56	41392.37
458.74	41139.60
458.93	40098.06
459.11	40327.43
459.29	39798.47
459.48	40058.27
459.66	39651.02
459.84	40650.42
460.03	40830.65
460.21	40676.17
460.39	42085.17
460.57	42160.07
460.76	42124.96
460.94	42181.13
461.12	41212.15
461.31	42164.75
461.49	41951.76
461.67	41776.22
461.85	43297.57
462.04	42632.86
462.22	43494.18
462.40	42799.04
462.59	42291.14
462.77	43370.13
462.95	42483.06
463.13	42368.38
463.32	41654.51
463.50	41375.99
463.68	41804.31
463.86	41713.03
464.05	41265.99
464.23	40601.27
464.41	39812.51
464.59	39353.77
464.78	41092.79
464.96	41610.04
465.14	40673.83
465.32	40985.12
465.50	43044.79
465.69	43229.69
465.87	42199.86
466.05	41371.31
466.23	39454.41
466.41	38892.68
466.60	39688.46
466.78	39679.10
466.96	40329.77
467.14	40643.40
467.32	41773.88
467.51	41818.35
467.69	39583.14
467.87	40404.67
468.05	41226.20
468.23	41160.66
468.41	41092.79
468.60	41631.11
468.78	41584.30
468.96	40921.93
469.14	41944.74
469.32	41979.85
469.50	40666.81
469.69	40655.11
469.87	39906.13
470.05	39730.59
470.23	39964.65
470.41	40346.15
470.59	40399.99
470.77	40809.58
470.95	41432.16
471.14	42115.60
471.32	42227.95
471.50	44116.76
471.68	44264.21
471.86	44570.82
472.04	44692.53
472.22	45052.97
472.40	42993.30
472.58	42663.28
472.77	42504.13
472.95	42703.07
473.13	44222.08
473.31	42628.18
473.49	43119.69
473.67	43885.04
473.85	43742.27
474.03	45020.20
474.21	45158.30
474.39	45806.62
474.57	45628.74
474.75	45748.11
474.93	45277.66
475.12	44491.24
475.30	44079.31
475.48	44442.09
475.66	45076.38
475.84	44624.65
476.02	44278.25
476.20	43604.18
476.38	44645.72
476.56	45907.27
476.74	46459.63
476.92	46714.75
477.10	47065.83
477.28	47952.90
477.46	48301.64
477.64	48472.49
477.82	48641.01
478.00	48793.15
478.18	48072.26
478.36	48130.78
478.54	48060.56
478.72	48484.20
478.90	49195.72
479.08	50396.42
479.26	50660.90
479.44	50644.51
479.62	50581.32
479.80	50323.86
479.98	50391.73
480.16	50581.32
480.34	50443.23
480.52	50798.99
480.70	50880.91
480.88	50897.29
481.06	51901.38
481.24	51374.76
481.41	52334.38
481.59	52837.59
481.77	52774.40
481.95	52303.95
482.13	52215.01
482.31	52332.04
482.49	52758.02
482.67	52261.82
482.85	52430.34
483.03	53151.23
483.21	53738.70
483.39	53645.08
483.57	52835.25
483.74	52643.33
483.92	53029.52
484.10	53020.16
484.28	53844.02
484.46	54089.78
484.64	54403.41
484.82	53738.70
485.00	53415.71
485.18	52858.66
485.35	51526.89
485.53	49165.29
485.71	45366.60
485.89	44666.78
486.07	47019.02
486.25	49638.08
486.43	51966.91
486.61	52699.50
486.78	52692.48
486.96	52893.77
487.14	54115.53
487.32	54468.95
487.50	55257.71
487.68	55931.78
487.85	56549.68
488.03	56149.45
488.21	55910.72
488.39	55781.99
488.57	54747.47
488.75	54731.09
488.92	55606.45
489.10	57392.28
489.28	58337.85
489.46	58890.22
489.64	58777.87
489.81	58773.19
489.99	58824.68
490.17	58602.33
490.35	58794.26
490.53	58391.68
490.70	58349.56
490.88	58052.31
491.06	59018.95
491.24	58642.12
491.41	58005.50
491.59	56746.29
491.77	56083.92
491.95	57139.50
492.13	57801.87
492.30	58918.31
492.48	59700.04
492.66	60023.04
492.84	60149.43
493.01	59805.37
493.19	59419.18
493.37	59075.12
493.54	58862.13
493.72	59690.68
493.90	60392.84
494.08	60814.14
494.25	61080.96
494.43	61261.18
494.61	61373.53
494.79	61511.62
494.96	61478.85
495.14	60935.85
495.32	60271.14
495.49	59440.24
495.67	60622.22
495.85	61712.91
496.02	62061.64
496.20	61776.10
496.38	61549.07
496.55	61221.39
496.73	61755.03
496.91	61860.36
497.09	62410.38
497.26	62424.43
497.44	62195.06
497.62	61488.21
497.79	60865.63
497.97	59945.80
498.14	59805.37
498.32	60851.59
498.50	61808.87
498.67	62284.00
498.85	61916.53
499.03	62157.61
499.20	62588.27
499.38	62457.20
499.56	62255.91
499.73	61855.68
499.91	61719.93
500.08	61052.87
500.26	60608.17
500.44	60989.68
500.61	61565.45
500.79	61396.93
500.97	61076.28
501.14	61050.53
501.32	60760.31
501.49	60823.50
501.67	61078.62
501.84	61366.51
502.02	61546.73
502.20	62066.33
502.37	61935.26
502.55	62094.41
502.72	62569.54
502.90	62763.81
503.07	62791.89
503.25	62333.15
503.43	61511.62
503.60	60977.98
503.78	60395.18
503.95	60814.14
504.13	62218.46
504.30	62770.83
504.48	62548.48
504.65	62220.80
504.83	62410.38
505.01	62965.09
505.18	63154.68
505.36	63693.00
505.53	63753.85
505.71	63913.01
505.88	64039.40
506.06	63325.53
506.23	63089.14
506.41	62693.59
506.58	63058.71
506.76	62885.51
506.93	62955.73
507.11	62789.55
507.28	62911.26
507.46	62457.20
507.63	61935.26
507.81	61694.18
507.98	61946.96
508.16	62564.86
508.33	62873.81
508.50	63267.02
508.68	63608.74
508.85	63973.86
509.03	64116.64
509.20	63915.35
509.38	63325.53
509.55	62461.88
509.73	62667.84
509.90	63121.91
510.08	63437.88
510.25	63248.30
510.42	62974.45
510.60	62913.60
510.77	63276.38
510.95	63866.20
511.12	63917.69
511.30	64044.08
511.47	64296.86
511.64	64294.52
511.82	64179.83
511.99	63358.30
512.17	62845.72
512.34	62539.11
512.51	62698.27
512.69	62901.90
512.86	62864.45
513.04	63323.19
513.21	63400.43
513.38	63025.95
513.56	62578.90
513.73	62157.61
513.90	62197.40
514.08	62241.87
514.25	62677.21
514.43	62663.16
514.60	62845.72
514.77	62810.62
514.95	63004.88
515.12	63004.88
515.29	63021.26
515.47	63491.71
515.64	63807.68
515.81	63496.39
515.99	62768.49
516.16	61794.82
516.33	59753.88
516.51	58375.30
516.68	57844.00
516.85	57338.44
517.03	57783.15
517.20	60037.08
517.37	61965.68
517.54	62967.43
517.72	62606.99
517.89	60463.06
518.06	58457.22
518.24	58604.67
518.41	60591.79
518.58	61708.22
518.75	61797.16
518.93	61874.40
519.10	61958.66
519.27	62267.61
519.45	62347.19
519.62	63082.12
519.79	63374.69
519.96	63189.78
520.14	62904.24
520.31	62096.75
520.48	62169.31
520.65	62279.31
520.83	63276.38
521.00	63615.76
521.17	63461.29
521.34	63021.26
521.52	63093.82
521.69	63819.39
521.86	64090.89
522.03	63824.07
522.20	62733.38
522.38	61895.47
522.55	61804.19
522.72	62204.42
522.89	62445.49
523.07	62590.61
523.24	62918.28
523.41	63681.30
523.58	64025.35
523.75	64458.35
523.92	64142.38
524.10	64175.15
524.27	64081.53
524.44	64058.12
524.61	63772.58
524.78	63522.14
524.96	63681.30
525.13	63622.78
525.30	63725.77
525.47	64179.83
525.64	63976.20
525.81	63395.75
525.98	62138.88
526.16	61095.00
526.33	60374.12
526.50	60055.81
526.67	59711.75
526.84	60434.97
527.01	61167.56
527.18	61815.89
527.36	62630.40
527.53	63597.04
527.70	63707.04
527.87	63058.71
528.04	62848.06
528.21	63288.09
528.38	63763.21
528.55	64537.93
528.72	64458.35
528.89	64570.70
529.07	64367.07
529.24	63791.30
529.41	63276.38
529.58	62848.06
529.75	62742.74
529.92	63231.91
530.09	63646.19
530.26	63969.18
530.43	64172.81
530.60	64308.56
530.77	64479.42
530.94	64722.83
531.11	64023.01
531.28	63842.79
531.46	63554.91
531.63	63873.22
531.80	63863.86
531.97	63220.21
532.14	62663.16
532.31	61717.59
532.48	61310.33
532.65	61214.37
532.82	61998.45
532.99	62827.00
533.16	63147.65
533.33	63536.18
533.50	63515.12
533.67	62901.90
533.84	62522.73
534.01	62674.87
534.18	62967.43
534.35	63039.99
534.52	62976.79
534.69	63290.43
534.86	63423.84
535.03	63618.10
535.20	64130.68
535.37	64669.00
535.54	64563.68
535.71	64324.94
535.88	63810.03
536.05	63264.68
536.22	62941.69
536.38	62691.25
536.55	62342.51
536.72	61703.54
536.89	61668.44
537.06	62494.64
537.23	63290.43
537.40	63337.24
537.57	63451.92
537.74	62929.98
537.91	63168.72
538.08	63140.63
538.25	63157.02
538.42	63250.64
538.59	63147.65
538.75	62581.24
538.92	62396.34
539.09	62312.08
539.26	61998.45
539.43	61979.73
539.60	61909.51
539.77	62225.48
539.94	62134.20
540.11	61352.46
540.28	60757.97
540.44	60893.72
540.61	61048.19
540.78	61509.28
540.95	61783.12
541.12	62190.37
541.29	62309.74
541.46	62590.61
541.62	62506.35
541.79	62499.33
541.96	62073.35
542.13	61698.86
542.30	62190.37
542.47	62379.96
542.63	62141.22
542.80	62012.49
542.97	61972.70
543.14	61890.79
543.31	62012.49
543.48	62611.67
543.64	63309.15
543.81	63416.82
543.98	63414.47
544.15	62625.71
544.32	62108.46
544.48	62241.87
544.65	62501.67
544.82	62803.59
544.99	62625.71
545.16	62276.97
545.32	61890.79
545.49	62738.06
545.66	63084.46
545.83	62597.63
546.00	62337.83
546.16	62108.46
546.33	62204.42
546.50	62145.90
546.67	62475.92
546.83	62302.72
547.00	62033.56
547.17	61708.22
547.34	61062.24
547.50	61057.56
547.67	61504.60
547.84	61652.05
548.00	61890.79
548.17	62302.72
548.34	62038.24
548.51	62045.26
548.67	62197.40
548.84	62281.66
549.01	62024.20
549.18	62148.24
549.34	62035.90
549.51	62094.41
549.68	62106.12
549.84	61808.87
550.01	61771.42
550.18	61607.58
550.34	61736.31
550.51	61722.27
550.68	61792.48
550.84	61420.34
551.01	61558.43
551.18	61410.98
551.34	61488.21
551.51	61991.43
551.68	62162.29
551.84	62223.14
552.01	61944.62
552.18	61712.91
552.34	61361.82
552.51	60856.27
552.68	60680.73
552.84	61432.04
553.01	61525.66
553.18	61410.98
553.34	61485.87
553.51	61570.13
553.67	61790.14
553.84	61895.47
554.01	61806.53
554.17	61729.29
554.34	61605.24
554.51	61801.85
554.67	62054.62
554.84	61951.64
555.00	61556.09
555.17	61319.70
555.33	61279.91
555.50	61195.65
555.67	61303.31
555.83	61062.24
556.00	61085.64
556.16	61066.92
556.33	60570.72
556.50	60444.33
556.66	60467.74
556.83	60095.60
556.99	60348.37
557.16	60355.39
557.32	60774.35
557.49	60931.17
557.65	60851.59
557.82	60837.54
557.98	60690.09
558.15	60257.09
558.32	59423.86
558.48	58953.41
558.65	59168.74
558.81	59405.14
558.98	59491.74
559.14	59793.67
559.31	59980.91
559.47	59882.61
559.64	59571.32
559.80	59316.20
559.97	59473.01
560.13	59669.62
560.30	60617.53
560.46	61059.90
560.63	61139.47
560.79	61214.37
560.96	60900.74
561.12	59540.89
561.29	59032.99
561.45	59070.44
561.61	59810.05
561.78	59793.67
561.94	59990.27
562.11	59641.53
562.27	59494.08
562.44	59936.44
562.60	60289.86
562.77	60477.10
562.93	60081.55
563.10	60123.68
563.26	59681.32
563.42	59725.79
563.59	59498.76
563.75	59461.31
563.92	59688.34
564.08	59463.65
564.24	59751.54
564.41	59835.80
564.57	59788.98
564.74	59779.62
564.90	59496.42
565.07	59309.18
565.23	58937.03
565.39	58485.31
565.56	58326.15
565.72	58047.63
565.88	58532.12
566.05	58241.89
566.21	58623.40
566.38	58770.85
566.54	58976.82
566.70	59274.07
566.87	59477.69
567.03	59751.54
567.19	59728.13
567.36	59297.47
567.52	59304.49
567.68	59063.42
567.85	58443.18
568.01	58131.89
568.17	57844.00
568.34	58066.35
568.50	57956.35
568.66	57698.89
568.83	58298.06
568.99	58066.35
569.15	58424.45
569.32	58457.22
569.48	58110.82
569.64	58124.86
569.81	57790.17
569.97	57631.01
570.13	57593.56
570.30	57237.80
570.46	57029.49
570.62	56310.95
570.78	56193.92
570.95	56563.73
571.11	57387.60
571.27	57436.75
571.43	57490.58
571.60	57764.42
571.76	57893.15
571.92	58202.10
572.09	58300.40
572.25	58316.79
572.41	58288.70
572.57	57939.96
572.74	58202.10
572.90	57780.81
573.06	57717.61
573.22	57907.19
573.38	57790.17
573.55	57954.00
573.71	57932.94
573.87	57736.34
574.03	57673.14
574.20	57771.44
574.36	57446.11
574.52	57394.62
574.68	57088.01
574.84	56767.35
575.01	56465.42
575.17	56336.69
575.33	56608.20
575.49	56708.84
575.65	56980.34
575.82	56633.94
575.98	56257.12
576.14	56846.93
576.30	57069.28
576.46	56830.55
576.62	56898.42
576.79	56877.36
576.95	56582.45
577.11	56397.55
577.27	56708.84
577.43	56652.67
577.59	56376.48
577.75	56126.05
577.92	55650.92
578.08	55458.99
578.24	55480.06
578.40	55650.92
578.56	55877.95
578.72	56119.02
578.88	56006.68
579.04	56088.60
579.21	56200.94
579.37	56437.34
579.53	56479.47
579.69	56343.72
579.85	56498.19
580.01	56301.59
580.17	55901.36
580.33	55840.50
580.49	55910.72
580.65	56413.93
580.82	56350.74
580.98	56332.01
581.14	55880.29
581.30	56261.80
581.46	55987.95
581.62	56493.51
581.78	56299.25
581.94	56516.92
582.10	56357.76
582.26	56566.07
582.42	56324.99
582.58	56317.97
582.74	56198.60
582.90	56418.61
583.06	56374.14
583.22	56151.79
583.38	56065.19
583.54	55948.17
583.70	56135.41
583.86	56044.13
584.02	55877.95
584.18	56147.11
584.34	56011.36
584.50	55849.86
584.66	55707.09
584.82	55473.04
584.98	55540.91
