SpectraSuite Data File
++++++++++++++++++++++++++++++++++++
Date: Mon Oct 07 14:53:33 GMT-05:00 2013
User: price-jones
Dark Spectrum Present: No
Reference Spectrum Present: No
Number of Sampled Component Spectra: 1
Spectrometers: USB2+H05261
Integration Time (usec): 100000 (USB2+H05261)
Spectra Averaged: 1 (USB2+H05261)
Boxcar Smoothing: 0 (USB2+H05261)
Correct for Electrical Dark: No (USB2+H05261)
Strobe/Lamp Enabled: No (USB2+H05261)
Correct for Detector Non-linearity: No (USB2+H05261)
Correct for Stray Light: No (USB2+H05261)
Number of Pixels in Processed Spectrum: 2048
>>>>>Begin Processed Spectral Data<<<<<
365.73	0.00
365.92	0.00
366.12	0.00
366.32	0.00
366.52	0.00
366.72	0.00
366.91	0.00
367.11	0.00
367.31	0.00
367.51	0.00
367.70	0.00
367.90	0.00
368.10	0.00
368.30	0.00
368.49	0.00
368.69	0.00
368.89	0.00
369.09	0.00
369.28	0.00
369.48	0.00
369.68	0.00
369.87	0.00
370.07	0.00
370.27	0.00
370.47	552.37
370.66	2785.24
370.86	3258.03
371.06	3609.11
371.25	3585.70
371.45	3377.39
371.65	3052.06
371.84	2874.18
372.04	2897.58
372.24	3304.84
372.44	3414.84
372.63	3431.23
372.83	3241.64
373.03	2752.47
373.22	2502.03
373.42	2686.94
373.62	3080.14
373.81	3410.16
374.01	3412.50
374.21	3021.63
374.40	2855.45
374.60	3000.57
374.79	3246.32
374.99	3817.41
375.19	4184.88
375.38	4262.12
375.58	3929.76
375.78	3990.61
375.97	3936.78
376.17	3999.98
376.37	4128.70
376.56	4269.14
376.76	4507.87
376.95	4821.50
377.15	4938.53
377.35	5254.50
377.54	5408.98
377.74	5584.52
377.93	5682.82
378.13	5572.82
378.33	5273.23
378.52	4741.93
378.72	4496.17
378.91	4547.66
379.11	4418.93
379.31	4250.41
379.50	4100.62
379.70	4594.47
379.89	5053.22
380.09	5320.04
380.28	5673.46
380.48	5675.80
380.68	5369.19
380.87	5446.43
381.07	5081.30
381.26	4582.77
381.46	4224.67
381.65	4093.60
381.85	4049.13
382.04	3695.71
382.24	3564.64
382.43	3447.61
382.63	3328.24
382.83	3234.62
383.02	3241.64
383.22	3309.52
383.41	3253.34
383.61	3602.08
383.80	4018.70
384.00	4636.60
384.19	5151.52
384.39	5378.55
384.58	5383.23
384.78	5399.62
384.97	5397.28
385.17	5015.77
385.36	4877.68
385.56	4629.58
385.75	4702.14
385.95	5247.48
386.14	5570.48
386.34	5654.73
386.53	5586.86
386.72	5102.37
386.92	5142.16
387.11	5289.61
387.31	5760.06
387.50	5582.18
387.70	5305.99
387.89	5348.12
388.09	5331.74
388.28	5514.30
388.48	5455.79
388.67	5736.65
388.86	6417.75
389.06	6970.12
389.25	7300.13
389.45	7412.48
389.64	7236.94
389.84	7166.72
390.03	7206.51
390.22	7073.10
390.42	7349.28
390.61	7859.52
390.81	8475.08
391.00	8479.76
391.19	8461.04
391.39	8226.98
391.58	7742.49
391.78	7258.00
391.97	7103.53
392.16	6654.14
392.36	5937.94
392.55	4912.78
392.75	3899.33
392.94	3087.17
393.13	2953.76
393.33	3513.14
393.52	4667.03
393.71	5818.57
393.91	6487.96
394.10	6871.81
394.29	7536.52
394.49	8217.62
394.68	8844.88
394.88	8879.99
395.07	9415.98
395.26	9067.24
395.46	9004.04
395.65	8311.24
395.84	7424.18
396.04	6186.04
396.23	5027.47
396.42	4095.94
396.62	4138.07
396.81	4671.71
397.00	5954.32
397.19	7669.94
397.39	8872.97
397.58	10068.98
397.77	10773.49
397.97	11145.63
398.16	11431.18
398.35	11782.26
398.55	12004.61
398.74	12650.60
398.93	12936.14
399.12	12535.91
399.32	12013.97
399.51	12477.40
399.70	13345.73
399.90	13315.31
400.09	13202.96
400.28	13074.23
400.47	13179.56
400.67	13860.65
400.86	14293.65
401.05	13926.19
401.24	14097.05
401.44	14448.13
401.63	14602.60
401.82	14363.87
402.01	14848.36
402.21	14721.97
402.40	14663.46
402.59	14303.01
402.78	13701.50
402.97	13322.33
403.17	13444.04
403.36	14696.22
403.55	14988.79
403.74	15569.24
403.93	14874.10
404.13	13563.40
404.32	13226.37
404.51	13933.21
404.70	14726.65
404.89	15101.14
405.09	14745.38
405.28	14216.41
405.47	14286.63
405.66	14544.09
405.85	13933.21
406.05	13818.52
406.24	13916.83
406.43	14349.82
406.62	14733.67
406.81	14724.31
407.00	14466.85
407.20	13956.61
407.39	14097.05
407.58	14691.54
407.77	15557.54
407.96	15969.48
408.15	16091.18
408.34	16180.12
408.54	17043.78
408.73	17362.09
408.92	16739.51
409.11	16313.53
409.30	15325.83
409.49	14656.43
409.68	13680.43
409.87	13090.62
410.07	13942.57
410.26	15023.90
410.45	16166.08
410.64	16233.96
410.83	16919.73
411.02	17603.17
411.21	17994.04
411.40	18113.41
411.59	18125.11
411.78	17881.69
411.98	17561.04
412.17	18207.03
412.36	17696.79
412.55	17467.42
412.74	17046.12
412.93	17057.82
413.12	16980.59
413.31	18464.49
413.50	18803.86
413.69	19051.96
413.88	18356.82
414.07	17610.19
414.26	18012.76
414.45	18651.73
414.64	19096.43
414.83	18841.31
415.02	18518.32
415.22	18412.99
415.41	19070.68
415.60	19592.62
415.79	20194.14
415.98	20585.01
416.17	20922.05
416.36	20278.40
416.55	19829.02
416.74	19145.58
416.93	19026.21
417.12	18705.56
417.31	19080.05
417.50	19356.23
417.69	19995.20
417.88	19721.35
418.07	19740.08
418.26	19133.88
418.45	19442.83
418.64	20105.20
418.83	20688.00
419.02	20624.80
419.21	20575.65
419.39	19667.52
419.58	18766.42
419.77	18647.05
419.96	19627.73
420.15	20177.76
420.34	21116.31
420.53	22174.24
420.72	22504.25
420.91	22260.84
421.10	21720.17
421.29	21935.50
421.48	21048.44
421.67	22136.79
421.86	21329.30
422.05	20037.33
422.24	18310.01
422.43	17738.92
422.61	19534.11
422.80	21219.30
422.99	21296.53
423.18	20573.31
423.37	20208.19
423.56	20137.97
423.75	20290.10
423.94	20971.20
424.13	19885.19
424.32	19971.79
424.50	20142.65
424.69	19817.32
424.88	19981.15
425.07	19749.44
425.26	20077.12
425.45	19686.25
425.64	19129.20
425.83	19295.38
426.01	20624.80
426.20	20900.98
426.39	21078.86
426.58	18995.79
426.77	17933.18
426.96	16966.54
427.15	17767.01
427.33	19136.22
427.52	19786.89
427.71	19967.11
427.90	19765.82
428.09	19651.14
428.28	19346.87
428.46	18815.57
428.65	18125.11
428.84	18712.58
429.03	18930.25
429.22	18085.32
429.40	17312.94
429.59	15733.08
429.78	13731.92
429.97	13563.40
430.16	13785.76
430.34	14104.07
430.53	14146.20
430.72	14621.33
430.91	15730.74
431.10	18286.61
431.28	21757.62
431.47	23758.78
431.66	23922.62
431.85	22391.91
432.03	20339.26
432.22	19384.32
432.41	20039.67
432.60	22279.56
432.79	22848.31
432.97	23449.83
433.16	23112.79
433.35	21167.80
433.54	18876.42
433.72	17774.03
433.91	18391.93
434.10	20608.42
434.28	22239.77
434.47	23314.08
434.66	23042.57
434.85	22625.96
435.03	22293.60
435.22	22642.34
435.41	24208.16
435.59	24233.91
435.78	24706.70
435.97	24489.03
436.16	25261.40
436.34	24662.22
436.53	24201.14
436.72	24400.08
436.90	22998.10
437.09	23157.26
437.28	22630.64
437.46	23627.71
437.65	23587.92
437.84	21965.93
438.02	20180.10
438.21	19728.38
438.40	20884.60
438.58	22728.94
438.77	23103.43
438.96	23374.93
439.14	24706.70
439.33	24807.34
439.52	25593.76
439.70	25261.40
439.89	24786.27
440.08	23833.68
440.26	23674.52
440.45	24252.63
440.63	25991.65
440.82	27632.36
441.01	27674.49
441.19	27044.89
441.38	27257.88
441.57	28046.64
441.75	28421.13
441.94	28779.23
442.12	28858.81
442.31	29156.05
442.50	29137.33
442.68	28844.76
442.87	28816.68
443.05	28025.57
443.24	28161.33
443.43	29034.35
443.61	29755.23
443.80	29844.17
443.98	28322.82
444.17	28158.99
444.35	29963.54
444.54	30078.22
444.73	30031.41
444.91	28687.95
445.10	27812.59
445.28	26497.20
445.47	25900.37
445.65	26010.37
445.84	27199.37
446.02	28004.51
446.21	28526.45
446.39	28556.88
446.58	28816.68
446.77	28905.62
446.95	29635.86
447.14	30654.00
447.32	31243.81
447.51	29940.13
447.69	28922.00
447.88	28833.06
448.06	28795.61
448.25	29326.91
448.43	30143.76
448.62	29497.77
448.80	28762.84
448.99	29699.06
449.17	30000.99
449.36	29769.27
449.54	30733.57
449.73	30991.03
449.91	31503.61
450.10	32741.75
450.28	32842.40
450.46	32680.90
450.65	33015.60
450.83	32449.19
451.02	31962.36
451.20	31676.81
451.39	31412.33
451.57	31239.13
451.76	31550.42
451.94	30944.22
452.13	31026.14
452.31	29425.22
452.49	28074.73
452.68	28339.21
452.86	28601.35
453.05	28680.92
453.23	29474.37
453.42	30340.36
453.60	30953.58
453.78	31154.87
453.97	31044.87
454.15	30974.65
454.34	30300.58
454.52	30682.08
454.70	29582.03
454.89	30600.16
455.07	30141.42
455.26	30916.14
455.44	31473.18
455.62	32734.73
455.81	32229.18
455.99	32371.95
456.17	32048.96
456.36	32297.05
456.54	32879.85
456.73	33362.00
456.91	33366.68
457.09	33731.80
457.28	34288.85
457.46	32994.53
457.64	32481.95
457.83	31754.05
458.01	30937.20
458.19	31920.23
458.38	32135.56
458.56	33280.08
458.74	32760.48
458.93	32498.34
459.11	32275.99
459.29	31807.88
459.48	32297.05
459.66	31707.24
459.84	32584.94
460.03	33053.05
460.21	32589.62
460.39	33640.52
460.57	33692.01
460.76	33926.07
460.94	34197.57
461.12	33715.42
461.31	34176.50
461.49	33825.42
461.67	33734.14
461.85	34834.19
462.04	34426.94
462.22	35016.75
462.40	34644.61
462.59	34239.70
462.77	34417.58
462.95	34452.69
463.13	34340.34
463.32	33921.38
463.50	34050.11
463.68	33851.17
463.86	33984.58
464.05	33010.92
464.23	32095.77
464.41	32692.60
464.59	31693.19
464.78	33289.44
464.96	33401.79
465.14	33340.93
465.32	34181.18
465.50	34789.72
465.69	34532.26
465.87	34457.37
466.05	33507.11
466.23	32018.53
466.41	31260.20
466.60	32378.97
466.78	32018.53
466.96	33069.43
467.14	33603.07
467.32	33991.60
467.51	33993.94
467.69	32299.39
467.87	32868.14
468.05	33790.31
468.23	33378.38
468.41	33799.68
468.60	33699.03
468.78	33846.49
468.96	33104.54
469.14	34209.27
469.32	34052.45
469.50	33287.10
469.69	32788.56
469.87	32367.27
470.05	32400.04
470.23	32570.90
470.41	32708.99
470.59	33020.28
470.77	33113.90
470.95	33977.56
471.14	34143.74
471.32	34089.90
471.50	36247.88
471.68	36180.00
471.86	36914.93
472.04	36676.19
472.22	36552.15
472.40	35358.47
472.58	34960.58
472.77	34534.60
472.95	34829.51
473.13	36477.25
473.31	34850.58
473.49	35192.30
473.67	35660.40
473.85	36392.99
474.03	36877.48
474.21	36994.51
474.39	37617.09
474.57	37872.21
474.75	37619.43
474.93	37441.55
475.12	36933.65
475.30	36332.14
475.48	36573.21
475.66	37605.39
475.84	37261.33
476.02	36751.09
476.20	36334.48
476.38	36945.36
476.56	38143.71
476.74	38850.55
476.92	38541.60
477.10	39580.80
477.28	40112.10
477.46	40133.17
477.64	40374.24
477.82	40643.40
478.00	41013.21
478.18	40556.80
478.36	40133.17
478.54	40369.56
478.72	40577.87
478.90	41350.24
479.08	42731.16
479.26	43129.05
479.44	42515.83
479.62	42347.31
479.80	42707.76
479.98	42572.00
480.16	43016.71
480.34	42574.34
480.52	42813.08
480.70	43281.19
480.88	43129.05
481.06	44367.20
481.24	44402.30
481.41	45357.24
481.59	45902.59
481.77	45476.61
481.95	45280.00
482.13	44734.66
482.31	44893.82
482.49	45474.27
482.67	45134.89
482.85	45893.22
483.03	46553.26
483.21	46607.09
483.39	46515.81
483.57	46057.06
483.74	45787.90
483.92	45813.65
484.10	46272.39
484.28	47187.54
484.46	47529.26
484.64	47770.33
484.82	46796.67
485.00	46529.85
485.18	45745.77
485.35	44577.84
485.53	41457.91
485.71	38010.30
485.89	37219.20
486.07	38848.21
486.25	42366.04
486.43	44762.75
486.61	45722.37
486.78	45303.41
486.96	45759.81
487.14	47182.86
487.32	47929.49
487.50	49191.04
487.68	49925.97
487.85	50684.30
488.03	50525.14
488.21	50223.22
488.39	49516.37
488.57	48610.59
488.75	48486.54
488.92	49516.37
489.10	51489.45
489.28	53200.38
489.46	53771.47
489.64	53722.32
489.81	53956.37
489.99	53132.50
490.17	53254.21
490.35	53968.07
490.53	53284.64
490.70	52879.72
490.88	52549.71
491.06	53736.36
491.24	53773.81
491.41	52952.28
491.59	50983.89
491.77	50239.60
491.95	51077.51
492.13	52575.45
492.30	53907.22
492.48	54714.70
492.66	54937.05
492.84	55077.49
493.01	54866.84
493.19	54389.37
493.37	54017.22
493.54	53680.19
493.72	54447.88
493.90	55299.84
494.08	56112.00
494.25	56486.49
494.43	56388.19
494.61	57038.86
494.79	57069.28
494.96	56762.67
495.14	56154.13
495.32	55154.72
495.49	54518.10
495.67	55845.18
495.85	56889.06
496.02	57305.68
496.20	57319.72
496.38	56942.89
496.55	56676.07
496.73	57104.39
496.91	57317.38
497.09	57879.11
497.26	57954.00
497.44	57476.54
497.62	57055.24
497.79	56299.25
497.97	55114.94
498.14	55283.45
498.32	56207.97
498.50	57219.08
498.67	57687.18
498.85	57705.91
499.03	57778.46
499.20	57656.76
499.38	57883.79
499.56	57813.57
499.73	57392.28
499.91	56935.87
500.08	56643.30
500.26	55877.95
500.44	55980.93
500.61	56823.53
500.79	56919.49
500.97	56397.55
501.14	56189.24
501.32	55922.42
501.49	56278.18
501.67	56427.98
501.84	56886.72
502.02	57141.84
502.20	57401.64
502.37	57399.30
502.55	57415.68
502.72	58026.56
502.90	58625.74
503.07	58424.45
503.25	57923.58
503.43	57268.23
503.60	56587.13
503.78	55765.60
503.95	56392.87
504.13	57532.71
504.30	58471.26
504.48	58260.62
504.65	57773.78
504.83	57860.38
505.01	58508.71
505.18	58927.67
505.36	59442.59
505.53	59189.81
505.71	59615.79
505.88	59704.73
506.06	59089.16
506.23	58810.64
506.41	58260.62
506.58	58707.66
506.76	58557.86
506.93	58677.23
507.11	58284.02
507.28	58609.35
507.46	57998.48
507.63	57446.11
507.81	57186.31
507.98	57581.86
508.16	58148.27
508.33	58862.13
508.50	59178.10
508.68	59283.43
508.85	59880.27
509.03	59756.22
509.20	59662.60
509.38	59119.59
509.55	58307.43
509.73	58265.30
509.90	58805.96
510.08	59065.76
510.25	59084.48
510.42	58976.82
510.60	58618.72
510.77	59107.89
510.95	59414.50
511.12	59657.91
511.30	59966.87
511.47	60135.38
511.64	60285.18
511.82	59824.09
511.99	59103.21
512.17	58578.93
512.34	58387.00
512.51	58543.82
512.69	58581.27
512.86	58791.92
513.04	59128.95
513.21	59264.70
513.38	58805.96
513.56	58389.34
513.73	57565.48
513.90	57888.47
514.08	58026.56
514.25	58330.83
514.43	58541.48
514.60	58649.14
514.77	58852.77
514.95	58829.37
515.12	58679.57
515.29	58953.41
515.47	59414.50
515.64	59498.76
515.81	59388.75
515.99	58614.04
516.16	57331.42
516.33	55412.18
516.51	53652.10
516.68	52949.94
516.85	52699.50
517.03	52877.38
517.20	55255.37
517.37	57867.40
517.54	59000.22
517.72	58609.35
517.89	55969.23
518.06	53565.50
518.24	54031.27
518.41	56245.41
518.58	57542.07
518.75	57726.97
518.93	57914.22
519.10	57951.66
519.27	58014.86
519.45	58513.39
519.62	59040.01
519.79	59320.88
519.96	59201.51
520.14	58878.52
520.31	57977.41
520.48	58007.84
520.65	58534.46
520.83	59220.23
521.00	59744.51
521.17	59374.71
521.34	58831.71
521.52	59171.08
521.69	59412.16
521.86	59994.95
522.03	59859.20
522.20	58815.32
522.38	57574.84
522.55	57762.08
522.72	58239.55
522.89	58504.03
523.07	58838.73
523.24	58880.86
523.41	59793.67
523.58	59943.46
523.75	60441.99
523.92	60296.88
524.10	60406.89
524.27	60243.05
524.44	60001.97
524.61	59903.67
524.78	59723.45
524.96	59604.08
525.13	59517.48
525.30	59627.49
525.47	60301.56
525.64	60133.04
525.81	59639.19
525.98	58326.15
526.16	56704.16
526.33	56282.86
526.50	55767.94
526.67	55458.99
526.84	56196.26
527.01	56886.72
527.18	57836.98
527.36	58656.17
527.53	59533.87
527.70	59796.01
527.87	59363.01
528.04	58742.77
528.21	59363.01
528.38	60051.12
528.55	60582.43
528.72	60711.16
528.89	60750.94
529.07	60605.83
529.24	60111.98
529.41	59264.70
529.58	58592.97
529.75	58850.43
529.92	59285.77
530.09	59693.02
530.26	60236.03
530.43	60418.59
530.60	60474.76
530.77	60559.02
530.94	60807.12
531.11	60294.54
531.28	60016.02
531.46	59824.09
531.63	60196.24
531.80	59805.37
531.97	59447.27
532.14	58754.47
532.31	57642.71
532.48	57083.33
532.65	57120.77
532.82	57776.12
532.99	59107.89
533.16	59302.15
533.33	60135.38
533.50	59695.36
533.67	59222.58
533.84	58749.79
534.01	58934.69
534.18	59164.06
534.35	59517.48
534.52	59159.38
534.69	59510.46
534.86	59709.41
535.03	59873.24
535.20	60362.42
535.37	60767.33
535.54	60931.17
535.71	60657.32
535.88	59985.59
536.05	59550.25
536.22	59250.66
536.38	58908.94
536.55	58501.69
536.72	57984.43
536.89	57411.00
537.06	58698.30
537.23	59505.78
537.40	59561.95
537.57	59622.81
537.74	59606.42
537.91	59440.24
538.08	59320.88
538.25	59325.56
538.42	59803.03
538.59	59428.54
538.75	58820.00
538.92	58541.48
539.09	58438.50
539.26	58064.01
539.43	58012.52
539.60	58162.31
539.77	58405.73
539.94	58288.70
540.11	57467.17
540.28	56882.04
540.44	57102.05
540.61	57509.30
540.78	57546.75
540.95	57998.48
541.12	58719.36
541.29	58759.15
541.46	59138.32
541.62	59093.85
541.79	58939.37
541.96	58291.04
542.13	58244.23
542.30	58597.65
542.47	58710.00
542.63	58384.66
542.80	58265.30
542.97	58265.30
543.14	58216.14
543.31	58277.00
543.48	58908.94
543.64	59414.50
543.81	59791.33
543.98	59587.70
544.15	58897.24
544.32	58384.66
544.48	58543.82
544.65	59037.67
544.82	59276.41
544.99	59086.82
545.16	58717.02
545.32	58398.71
545.49	58930.01
545.66	59449.61
545.83	59316.20
546.00	58670.21
546.16	58394.03
546.33	58494.67
546.50	58489.99
546.67	58939.37
546.83	58604.67
547.00	58651.48
547.17	58040.60
547.34	57436.75
547.50	57270.57
547.67	57862.72
547.84	57836.98
548.00	58230.19
548.17	58567.23
548.34	58293.38
548.51	58637.44
548.67	58672.55
548.84	58616.38
549.01	58581.27
549.18	58351.90
549.34	58412.75
549.51	58408.07
549.68	58539.14
549.84	58019.54
550.01	57858.04
550.18	57743.36
550.34	58113.16
550.51	57989.11
550.68	58000.82
550.84	57766.76
551.01	57670.80
551.18	57581.86
551.34	57858.04
551.51	58309.77
551.68	58681.91
551.84	58574.25
552.01	58478.28
552.18	58295.72
552.34	57539.73
552.51	56954.60
552.68	56736.93
552.84	57731.65
553.01	57780.81
553.18	57804.21
553.34	57968.05
553.51	57893.15
553.67	58164.65
553.84	58501.69
554.01	58188.06
554.17	58127.20
554.34	58110.82
554.51	58230.19
554.67	58408.07
554.84	58389.34
555.00	57879.11
555.17	57773.78
555.33	57851.02
555.50	58000.82
555.67	57815.91
555.83	57673.14
556.00	57298.65
556.16	57198.01
556.33	57034.17
556.50	56842.25
556.66	56903.10
556.83	56545.00
556.99	56926.51
557.16	56863.32
557.32	57097.37
557.49	57127.80
557.65	57439.09
557.82	57322.06
557.98	57095.03
558.15	56512.23
558.32	55943.48
558.48	55025.99
558.65	55220.26
558.81	55543.25
558.98	55908.38
559.14	56058.17
559.31	56179.88
559.47	56364.78
559.64	55997.32
559.80	55456.65
559.97	55480.06
560.13	56097.96
560.30	56891.40
560.46	57258.87
560.63	57509.30
560.79	57717.61
560.96	57144.18
561.12	56222.01
561.29	55367.71
561.45	55238.98
561.61	56004.34
561.78	56381.16
561.94	56186.90
562.11	55969.23
562.27	55760.92
562.44	56252.44
562.60	56582.45
562.77	56900.76
562.93	56619.90
563.10	56488.83
563.26	55994.98
563.42	56224.35
563.59	55718.79
563.75	55875.61
563.92	55845.18
564.08	55676.66
564.24	56229.03
564.41	56402.23
564.57	55936.46
564.74	56046.47
564.90	55845.18
565.07	55735.18
565.23	55002.59
565.39	54740.45
565.56	54415.11
565.72	54223.19
565.88	54384.69
566.05	54567.25
566.21	54974.50
566.38	55023.65
566.54	55192.17
566.70	55887.31
566.87	55835.82
567.03	55969.23
567.19	55938.80
567.36	55819.44
567.52	55721.13
567.68	55377.08
567.85	55016.63
568.01	54309.79
568.17	54089.78
568.34	54078.08
568.50	53853.39
568.66	54073.40
568.83	54948.76
568.99	54382.35
569.15	54623.42
569.32	54873.86
569.48	54527.46
569.64	54150.63
569.81	53911.90
569.97	54106.16
570.13	53570.18
570.30	53446.13
570.46	52987.39
570.62	52566.09
570.78	52296.93
570.95	52376.51
571.11	53329.11
571.27	53719.98
571.43	53691.89
571.60	53773.81
571.76	54471.29
571.92	54298.09
572.09	54820.03
572.25	54763.85
572.41	54541.50
572.57	54625.76
572.74	54885.56
572.90	53694.23
573.06	54124.89
573.22	54181.06
573.38	54162.34
573.55	54351.92
573.71	54522.78
573.87	53982.12
574.03	53764.45
574.20	53663.80
574.36	53268.25
574.52	53682.53
574.68	53333.79
574.84	53059.94
575.01	52486.51
575.17	52041.81
575.33	52802.49
575.49	53160.59
575.65	52942.92
575.82	52891.43
575.98	52360.12
576.14	52884.40
576.30	53165.27
576.46	53366.55
576.62	53064.63
576.79	53279.96
576.95	52879.72
577.11	52966.32
577.27	52767.38
577.43	52783.76
577.59	52636.31
577.75	52065.22
577.92	51749.24
578.08	51243.69
578.24	51660.30
578.40	51601.79
578.56	52175.22
578.72	51779.67
578.88	52465.45
579.04	52580.13
579.21	52655.03
579.37	52381.19
579.53	52772.06
579.69	52645.67
579.85	52884.40
580.01	52399.91
580.17	52198.63
580.33	52217.35
580.49	52076.92
580.65	52615.24
580.82	52144.80
580.98	52500.56
581.14	52292.25
581.30	52662.05
581.46	52229.05
581.62	52666.73
581.78	52491.19
581.94	52790.78
582.10	52540.35
582.26	52786.10
582.42	52339.06
582.58	52765.04
582.74	52556.73
582.90	52612.90
583.06	52886.74
583.22	52458.43
583.38	52652.69
583.54	51995.00
583.70	52650.35
583.86	52378.85
584.02	52074.58
584.18	52357.78
584.34	51934.15
584.50	52037.13
584.66	52039.47
584.82	51606.47
584.98	51716.48
585.14	51070.49
585.30	50447.91
