SpectraSuite Data File
++++++++++++++++++++++++++++++++++++
Date: Mon Oct 07 14:54:59 GMT-05:00 2013
User: price-jones
Dark Spectrum Present: No
Reference Spectrum Present: No
Number of Sampled Component Spectra: 1
Spectrometers: USB2+H05261
Integration Time (usec): 10000 (USB2+H05261)
Spectra Averaged: 1 (USB2+H05261)
Boxcar Smoothing: 0 (USB2+H05261)
Correct for Electrical Dark: No (USB2+H05261)
Strobe/Lamp Enabled: No (USB2+H05261)
Correct for Detector Non-linearity: No (USB2+H05261)
Correct for Stray Light: No (USB2+H05261)
Number of Pixels in Processed Spectrum: 2048
>>>>>Begin Processed Spectral Data<<<<<
365.73	0.00
365.92	0.00
366.12	0.00
366.32	0.00
366.52	0.00
366.72	0.00
366.91	0.00
367.11	0.00
367.31	0.00
367.51	0.00
367.70	0.00
367.90	0.00
368.10	0.00
368.30	0.00
368.49	0.00
368.69	0.00
368.89	0.00
369.09	0.00
369.28	0.00
369.48	0.00
369.68	0.00
369.87	0.00
370.07	0.00
370.27	0.00
370.47	0.00
370.66	774.72
370.86	1083.67
371.06	1090.69
371.25	1039.20
371.45	966.64
371.65	856.64
371.84	798.12
372.04	978.34
372.24	1006.43
372.44	1043.88
372.63	1050.90
372.83	877.70
373.03	807.48
373.22	664.71
373.42	746.63
373.62	1041.54
373.81	1027.50
374.01	978.34
374.21	908.13
374.40	840.25
374.60	994.73
374.79	1111.75
374.99	1156.22
375.19	1371.55
375.38	1273.25
375.58	1167.93
375.78	1235.80
375.97	1149.20
376.17	1357.51
376.37	1235.80
376.56	1409.00
376.76	1462.83
376.95	1535.39
377.15	1631.35
377.35	1661.78
377.54	1923.92
377.74	1776.47
377.93	1785.83
378.13	1652.42
378.33	1640.72
378.52	1607.95
378.72	1427.73
378.91	1490.92
379.11	1399.64
379.31	1369.21
379.50	1310.70
379.70	1432.41
379.89	1556.46
380.09	1743.70
380.28	1809.23
380.48	1717.95
380.68	1710.93
380.87	1565.82
381.07	1343.47
381.26	1427.73
381.46	1231.12
381.65	1181.97
381.85	1172.61
382.04	1104.73
382.24	1015.79
382.43	992.39
382.63	992.39
382.83	968.98
383.02	1039.20
383.22	1001.75
383.41	936.21
383.61	1015.79
383.80	1186.65
384.00	1469.86
384.19	1675.82
384.39	1764.76
384.58	1696.89
384.78	1619.65
384.97	1523.69
385.17	1430.07
385.36	1493.26
385.56	1416.02
385.75	1556.46
385.95	1570.50
386.14	1729.66
386.34	1603.27
386.53	1664.12
386.72	1526.03
386.92	1544.75
387.11	1703.91
387.31	1659.44
387.50	1739.02
387.70	1579.86
387.89	1717.95
388.09	1577.52
388.28	1701.57
388.48	1811.57
388.67	1872.43
388.86	2069.03
389.06	2221.17
389.25	2385.01
389.45	2349.90
389.64	2270.32
389.84	2221.17
390.03	2169.68
390.22	2279.68
390.42	2296.07
390.61	2417.77
390.81	2623.74
391.00	2712.68
391.19	2600.34
391.39	2448.20
391.58	2495.01
391.78	2317.13
391.97	2080.74
392.16	2047.97
392.36	1818.60
392.55	1341.13
392.75	1048.56
392.94	835.57
393.13	987.71
393.33	1153.88
393.52	1551.78
393.71	1825.62
393.91	2024.56
394.10	2258.62
394.29	2434.16
394.49	2576.93
394.68	2759.49
394.88	2712.68
395.07	2813.32
395.26	2935.03
395.46	2689.28
395.65	2452.88
395.84	2155.63
396.04	1783.49
396.23	1341.13
396.42	1256.87
396.62	1153.88
396.81	1528.37
397.00	1944.99
397.19	2567.57
397.39	2923.33
397.58	3251.00
397.77	3363.35
397.97	3592.72
398.16	3536.55
398.35	3599.74
398.55	3803.37
398.74	3967.21
398.93	4053.81
399.12	3880.61
399.32	3864.22
399.51	3932.10
399.70	4227.01
399.90	4203.60
400.09	4035.08
400.28	4159.13
400.47	4259.78
400.67	4447.02
400.86	4393.19
401.05	4468.08
401.24	4287.86
401.44	4568.73
401.63	4573.41
401.82	4500.85
402.01	4538.30
402.21	4643.62
402.40	4545.32
402.59	4222.33
402.78	4163.81
402.97	4287.86
403.17	4325.31
403.36	4599.15
403.55	4683.41
403.74	4734.90
403.93	4372.12
404.13	4168.49
404.32	4325.31
404.51	4365.10
404.70	4692.77
404.89	4830.87
405.09	4835.55
405.28	4526.60
405.47	4468.08
405.66	4383.82
405.85	4224.67
406.05	4184.88
406.24	4397.87
406.43	4496.17
406.62	4594.47
406.81	4664.69
407.00	4435.32
407.20	4402.55
407.39	4521.92
407.58	4772.35
407.77	4856.61
407.96	4950.23
408.15	5102.37
408.34	5144.50
408.54	5434.72
408.73	5205.35
408.92	5128.11
409.11	4837.89
409.30	4711.50
409.49	4393.19
409.68	4119.34
409.87	4234.03
410.07	4409.57
410.26	4849.59
410.45	4968.96
410.64	5067.26
410.83	5420.68
411.02	5589.20
411.21	5636.01
411.40	5329.40
411.59	5717.93
411.78	5802.19
411.98	5420.68
412.17	5528.35
412.36	5369.19
412.55	5301.31
412.74	5132.79
412.93	5174.92
413.12	5329.40
413.31	5710.91
413.50	5781.12
413.69	5619.63
413.88	5556.43
414.07	5486.22
414.26	5521.32
414.45	5650.05
414.64	5666.44
414.83	5701.54
415.02	5563.45
415.22	5591.54
415.41	5863.04
415.60	6087.73
415.79	6284.34
415.98	6450.52
416.17	6118.16
416.36	6129.86
416.55	5991.77
416.74	5839.64
416.93	5626.65
417.12	5980.07
417.31	5727.29
417.50	5888.79
417.69	6228.17
417.88	6188.38
418.07	6155.61
418.26	5898.15
418.45	6092.41
418.64	6342.85
418.83	6356.90
419.02	6303.06
419.21	6040.92
419.39	5746.02
419.58	5563.45
419.77	5645.37
419.96	5895.81
420.15	6094.76
420.34	6420.09
420.53	6516.05
420.72	6738.40
420.91	6731.38
421.10	6593.29
421.29	6478.60
421.48	6506.69
421.67	6644.78
421.86	6209.44
422.05	5823.25
422.24	5460.47
422.43	5507.28
422.61	6225.82
422.80	6263.27
422.99	6188.38
423.18	6183.70
423.37	6132.20
423.56	5858.36
423.75	6225.82
423.94	6277.32
424.13	5994.11
424.32	5975.39
424.50	6087.73
424.69	5973.05
424.88	6078.37
425.07	6050.28
425.26	5900.49
425.45	5797.51
425.64	5706.23
425.83	5916.87
426.01	6129.86
426.20	6148.59
426.39	6179.01
426.58	5685.16
426.77	5219.39
426.96	5172.58
427.15	5327.06
427.33	5844.32
427.52	5788.14
427.71	6005.81
427.90	5724.95
428.09	5802.19
428.28	5511.96
428.46	5483.88
428.65	5570.48
428.84	5511.96
429.03	5530.69
429.22	5083.64
429.40	5004.07
429.59	4692.77
429.78	4154.45
429.97	3983.59
430.16	4025.72
430.34	4063.17
430.53	4091.26
430.72	4390.84
430.91	4945.55
431.10	5895.81
431.28	6731.38
431.47	7155.02
431.66	6883.52
431.85	6279.66
432.03	5839.64
432.22	5757.72
432.41	6118.16
432.60	6768.83
432.79	6843.73
432.97	6848.41
433.16	6583.93
433.35	6104.12
433.54	5526.00
433.72	5198.33
433.91	5427.70
434.10	6071.35
434.28	6548.82
434.47	6820.32
434.66	6483.28
434.85	6600.31
435.03	6654.14
435.22	6630.74
435.41	7229.91
435.59	7077.78
435.78	7169.06
435.97	7201.83
436.16	7124.59
436.34	7225.23
436.53	7030.97
436.72	7117.57
436.90	6506.69
437.09	6752.45
437.28	6583.93
437.46	6703.29
437.65	6799.26
437.84	6136.88
438.02	5980.07
438.21	5881.77
438.40	6202.42
438.58	6583.93
438.77	6693.93
438.96	6895.22
439.14	7157.36
439.33	7363.33
439.52	7297.79
439.70	7145.66
439.89	6832.02
440.08	6860.11
440.26	6822.66
440.45	7218.21
440.63	7707.38
440.82	8126.34
441.01	7913.35
441.19	7838.45
441.38	8046.76
441.57	8238.69
441.75	8112.30
441.94	8332.31
442.12	8241.03
442.31	8269.11
442.50	8470.40
442.68	8423.59
442.87	7974.21
443.05	7976.55
443.24	8393.16
443.43	8348.69
443.61	8542.96
443.80	8594.45
443.98	8128.68
444.17	8030.38
444.35	8517.21
444.54	8524.23
444.73	8421.25
444.91	7960.16
445.10	7801.01
445.28	7564.61
445.47	7281.41
445.65	7318.86
445.84	7747.17
446.02	7803.35
446.21	8184.85
446.39	8051.44
446.58	8234.00
446.77	8072.51
446.95	8173.15
447.14	8704.45
447.32	8760.63
447.51	8325.29
447.69	7887.61
447.88	8095.91
448.06	8161.45
448.25	8334.65
448.43	8276.13
448.62	8154.43
448.80	8133.36
448.99	8379.12
449.17	8402.52
449.36	8456.36
449.54	8533.59
449.73	9001.70
449.91	9041.49
450.10	8884.67
450.28	9114.05
450.46	9254.48
450.65	9404.27
450.83	9025.11
451.02	8828.50
451.20	8875.31
451.39	8844.88
451.57	8676.37
451.76	8849.57
451.94	8697.43
452.13	8358.05
452.31	8124.00
452.49	7808.03
452.68	7915.69
452.86	7810.37
453.05	7953.14
453.23	8414.23
453.42	8692.75
453.60	8730.20
453.78	8631.90
453.97	8437.63
454.15	8596.79
454.34	8109.96
454.52	8287.84
454.70	8086.55
454.89	8327.63
455.07	8514.87
455.26	8521.89
455.44	8929.14
455.62	8938.51
455.81	8915.10
455.99	8865.95
456.17	8851.91
456.36	8863.61
456.54	8975.95
456.73	9034.47
456.91	9198.31
457.09	9158.52
457.28	9348.10
457.46	8924.46
457.64	8985.32
457.83	8566.36
458.01	8531.25
458.19	8674.03
458.38	8814.46
458.56	8903.40
458.74	8912.76
458.93	8659.98
459.11	8926.80
459.29	8645.94
459.48	8676.37
459.66	8767.65
459.84	8608.49
460.03	8629.56
460.21	8858.93
460.39	9123.41
460.57	9226.39
460.76	9200.65
460.94	9343.42
461.12	8833.18
461.31	9043.83
461.49	9088.30
461.67	9165.54
461.85	9329.38
462.04	9238.09
462.22	9263.84
462.40	9221.71
462.59	9071.92
462.77	9128.09
462.95	9235.75
463.13	8994.68
463.32	8945.53
463.50	8954.89
463.68	8924.46
463.86	9102.34
464.05	8791.05
464.23	8741.90
464.41	8851.91
464.59	8655.30
464.78	9036.81
464.96	8875.31
465.14	8786.37
465.32	9125.75
465.50	9071.92
465.69	9312.99
465.87	8987.66
466.05	8676.37
466.23	8369.76
466.41	8126.34
466.60	8428.27
466.78	8601.47
466.96	8634.24
467.14	8753.60
467.32	8950.21
467.51	8847.22
467.69	8461.04
467.87	8489.12
468.05	8641.26
468.23	8865.95
468.41	8851.91
468.60	8744.24
468.78	8744.24
468.96	8713.81
469.14	8823.82
469.32	8961.91
469.50	8571.04
469.69	8334.65
469.87	8346.35
470.05	8596.79
470.23	8327.63
470.41	8376.78
470.59	8542.96
470.77	8615.51
470.95	8814.46
471.14	8828.50
471.32	8798.07
471.50	9280.22
471.68	9287.25
471.86	9753.01
472.04	9425.34
472.22	9713.22
472.40	9102.34
472.58	8879.99
472.77	8819.14
472.95	9057.87
473.13	9153.84
473.31	9069.58
473.49	9167.88
473.67	9399.59
473.85	9343.42
474.03	9509.60
474.21	9362.14
474.39	9570.45
474.57	9666.41
474.75	9633.64
474.93	9462.79
475.12	9411.29
475.30	9231.07
475.48	9394.91
475.66	9753.01
475.84	9083.62
476.02	9348.10
476.20	9074.26
476.38	9235.75
476.56	9507.26
476.74	9771.74
476.92	9708.54
477.10	9867.70
477.28	10073.67
477.46	10071.33
477.64	10424.75
477.82	10307.72
478.00	10094.73
478.18	9998.77
478.36	9902.81
478.54	9839.61
478.72	10171.97
478.90	10366.23
479.08	10855.40
479.26	10927.96
479.44	10843.70
479.62	10576.88
479.80	10675.18
479.98	10689.23
480.16	10427.09
480.34	10413.04
480.52	10647.10
480.70	10892.85
480.88	10871.79
481.06	11421.81
481.24	11070.73
481.41	11279.04
481.59	11506.07
481.77	11070.73
481.95	11309.47
482.13	11370.32
482.31	11255.64
482.49	11468.62
482.67	11447.56
482.85	11566.93
483.03	11550.54
483.21	11705.02
483.39	11424.15
483.57	11290.74
483.74	11459.26
483.92	11435.86
484.10	11653.53
484.28	11733.11
484.46	11772.89
484.64	11606.72
484.82	11365.64
485.00	11431.18
485.18	11094.14
485.35	10862.43
485.53	9888.76
485.71	9198.31
485.89	9228.73
486.07	9738.97
486.25	10441.13
486.43	11070.73
486.61	11363.30
486.78	10970.09
486.96	11400.75
487.14	11819.71
487.32	11943.75
487.50	12306.54
487.68	12664.64
487.85	12692.73
488.03	12498.46
488.21	12395.48
488.39	12250.36
488.57	11997.59
488.75	12219.94
488.92	12826.14
489.10	13366.80
489.28	13315.31
489.46	13799.80
489.64	13563.40
489.81	13898.10
489.99	13371.48
490.17	13441.70
490.35	13862.99
490.53	13652.34
490.70	13355.10
490.88	13547.02
491.06	14183.65
491.24	13675.75
491.41	13170.19
491.59	12519.53
491.77	12362.71
491.95	12779.32
492.13	13109.34
492.30	13607.87
492.48	14307.69
492.66	14822.61
492.84	14490.26
493.01	14279.61
493.19	13837.25
493.37	13781.07
493.54	13689.79
493.72	13944.91
493.90	14799.21
494.08	14452.81
494.25	14780.48
494.43	15192.42
494.61	15428.81
494.79	15360.94
494.96	15248.59
495.14	14551.11
495.32	14122.79
495.49	14202.37
495.67	14682.18
495.85	15356.25
496.02	15257.95
496.20	15197.10
496.38	14923.26
496.55	14923.26
496.73	15522.43
496.91	15520.09
497.09	15594.99
497.26	15276.68
497.44	15494.35
497.62	15082.41
497.79	14307.69
497.97	14188.33
498.14	14370.89
498.32	14963.04
498.50	15061.35
498.67	15815.00
498.85	15396.04
499.03	15103.48
499.20	15679.25
499.38	15232.21
499.56	15346.89
499.73	15021.56
499.91	15084.75
500.08	14693.88
500.26	14253.86
500.44	14890.49
500.61	14890.49
500.79	14642.39
500.97	14422.38
501.14	14401.32
501.32	14314.72
501.49	14829.63
501.67	14864.74
501.84	14862.40
502.02	14773.46
502.20	15169.01
502.37	14810.91
502.55	15293.06
502.72	15302.42
502.90	15990.54
503.07	15302.42
503.25	15192.42
503.43	14506.64
503.60	14033.85
503.78	13963.64
503.95	14331.10
504.13	14754.74
504.30	15363.28
504.48	15555.20
504.65	14946.66
504.83	15035.60
505.01	15445.20
505.18	15859.47
505.36	16304.17
505.53	16388.43
505.71	16168.42
505.88	15843.09
506.06	15791.59
506.23	15587.97
506.41	15363.28
506.58	15442.85
506.76	15641.80
506.93	15585.63
507.11	15461.58
507.28	15414.77
507.46	15030.92
507.63	14813.25
507.81	14693.88
507.98	14930.28
508.16	14991.13
508.33	15117.52
508.50	16072.46
508.68	15676.91
508.85	16128.63
509.03	15899.26
509.20	15580.95
509.38	15328.17
509.55	14785.16
509.73	15316.47
509.90	15337.53
510.08	15379.66
510.25	14846.02
510.42	14764.10
510.60	15241.57
510.77	15421.79
510.95	15695.63
511.12	15634.78
511.30	16128.63
511.47	16027.99
511.64	16116.93
511.82	15613.71
511.99	14902.19
512.17	14740.69
512.34	14803.89
512.51	14799.21
512.69	14787.50
512.86	14923.26
513.04	15302.42
513.21	15335.19
513.38	15117.52
513.56	14736.01
513.73	14377.91
513.90	14588.56
514.08	14490.26
514.25	14579.20
514.43	14822.61
514.60	15459.24
514.77	14817.93
514.95	15133.90
515.12	15084.75
515.29	15033.26
515.47	14979.43
515.64	15573.92
515.81	15492.01
515.99	14841.34
516.16	13785.76
516.33	13022.74
516.51	12166.10
516.68	11812.68
516.85	11513.10
517.03	11831.41
517.20	12894.01
517.37	14256.20
517.54	14633.03
517.72	13996.40
517.89	12805.07
518.06	12072.48
518.24	12678.68
518.41	13642.98
518.58	14125.13
518.75	14090.02
518.93	14438.76
519.10	14263.22
519.27	14490.26
519.45	14527.71
519.62	14483.24
519.79	14895.17
519.96	14717.29
520.14	14293.65
520.31	13642.98
520.48	13769.37
520.65	14127.47
520.83	14752.40
521.00	15103.48
521.17	14890.49
521.34	14693.88
521.52	14925.60
521.69	15314.13
521.86	15016.88
522.03	14846.02
522.20	13827.88
522.38	13921.51
522.55	13898.10
522.72	14221.10
522.89	13914.48
523.07	14548.77
523.24	15091.77
523.41	14974.75
523.58	14911.55
523.75	15033.26
523.92	15201.78
524.10	15515.41
524.27	15377.32
524.44	14939.64
524.61	14736.01
524.78	14934.96
524.96	14757.08
525.13	14721.97
525.30	14810.91
525.47	15208.80
525.64	15194.76
525.81	14335.78
525.98	13640.64
526.16	12739.54
526.33	12451.65
526.50	12526.55
526.67	12507.82
526.84	12758.26
527.01	13558.72
527.18	13664.05
527.36	14340.46
527.53	15026.24
527.70	14712.61
527.87	14190.67
528.04	14333.44
528.21	14398.98
528.38	15089.43
528.55	15300.08
528.72	15068.37
528.89	15042.62
529.07	14890.49
529.24	14642.39
529.41	14064.28
529.58	14005.77
529.75	13951.93
529.92	14590.90
530.09	14490.26
530.26	14384.93
530.43	14494.94
530.60	14618.99
530.77	15054.33
530.94	14679.84
531.11	14661.12
531.28	14326.42
531.46	14153.22
531.63	14136.84
531.80	14422.38
531.97	14097.05
532.14	13561.06
532.31	12765.28
532.48	12521.87
532.65	12924.44
532.82	13439.36
532.99	13862.99
533.16	14197.69
533.33	14714.95
533.50	14307.69
533.67	13509.57
533.84	13727.24
534.01	13783.41
534.18	14153.22
534.35	13961.30
534.52	13790.44
534.69	14120.45
534.86	14452.81
535.03	14614.30
535.20	14532.39
535.37	14562.81
535.54	14546.43
535.71	14314.72
535.88	14361.53
536.05	14471.53
536.22	13673.41
536.38	13715.54
536.55	13516.59
536.72	13273.18
536.89	13556.38
537.06	13305.95
537.23	13586.81
537.40	13827.88
537.57	14190.67
537.74	13549.36
537.91	13479.15
538.08	13790.44
538.25	13738.94
538.42	13657.03
538.59	13619.58
538.75	13359.78
538.92	13432.33
539.09	12786.35
539.26	12676.34
539.43	12556.97
539.60	12620.17
539.77	12718.47
539.94	12674.00
540.11	12657.62
540.28	12325.26
540.44	12173.13
540.61	12386.12
540.78	12601.44
540.95	13446.38
541.12	13036.78
541.29	13090.62
541.46	12980.61
541.62	13217.01
541.79	12821.45
541.96	12924.44
542.13	13139.77
542.30	13135.09
542.47	12985.29
542.63	12727.83
542.80	12437.61
542.97	12636.55
543.14	12695.07
543.31	12343.99
543.48	12774.64
543.64	13193.60
543.81	13085.94
543.98	13273.18
544.15	12999.34
544.32	12486.76
544.48	12872.95
544.65	13090.62
544.82	12779.32
544.99	12723.15
545.16	13170.19
545.32	12868.27
545.49	13022.74
545.66	13460.42
545.83	13256.79
546.00	13387.86
546.16	12781.67
546.33	12819.11
546.50	13228.71
546.67	13245.09
546.83	12957.21
547.00	12821.45
547.17	12542.93
547.34	12297.17
547.50	12374.41
547.67	12339.30
547.84	12549.95
548.00	12718.47
548.17	12659.96
548.34	12636.55
548.51	12753.58
548.67	13006.36
548.84	13160.83
549.01	12954.87
549.18	12737.20
549.34	12847.20
549.51	12444.63
549.68	12706.77
549.84	12809.75
550.01	12489.10
550.18	12444.63
550.34	12369.73
550.51	12159.08
550.68	12643.57
550.84	12112.27
551.01	12217.60
551.18	12283.13
551.34	12393.14
551.51	12451.65
551.68	12858.90
551.84	12585.06
552.01	12329.94
552.18	11960.14
552.34	11981.20
552.51	11925.03
552.68	11950.78
552.84	11864.18
553.01	12390.80
553.18	12250.36
553.34	12276.11
553.51	11967.16
553.67	12035.03
553.84	12346.33
554.01	12189.51
554.17	12161.42
554.34	12554.63
554.51	12458.67
554.67	12545.27
554.84	12369.73
555.00	12262.07
555.17	12266.75
555.33	12416.54
555.50	12519.53
555.67	12365.05
555.83	12121.63
556.00	11761.19
556.16	11583.31
556.33	11377.34
556.50	11768.21
556.66	11300.11
556.83	11300.11
556.99	11566.93
557.16	11534.16
557.32	11686.29
557.49	11793.96
557.65	11833.75
557.82	11538.84
557.98	11398.41
558.15	11477.99
558.32	11152.65
558.48	10963.07
558.65	11143.29
558.81	11007.54
558.98	10867.11
559.14	11019.24
559.31	11199.46
559.47	10939.66
559.64	11014.56
559.80	11009.88
559.97	10963.07
560.13	11337.56
560.30	11868.86
560.46	12046.74
560.63	12210.57
560.79	11929.71
560.96	11763.53
561.12	11239.25
561.29	10698.59
561.45	10740.72
561.61	10939.66
561.78	11115.20
561.94	11229.89
562.11	10963.07
562.27	11089.46
562.44	11234.57
562.60	11173.72
562.77	11367.98
562.93	11375.00
563.10	11236.91
563.26	11110.52
563.42	10724.33
563.59	10848.38
563.75	10918.60
563.92	10981.79
564.08	11002.86
564.24	10860.09
564.41	10487.94
564.57	10705.61
564.74	10892.85
564.90	10714.97
565.07	10707.95
565.23	10509.01
565.39	10422.41
565.56	10244.52
565.72	10345.17
565.88	10429.43
566.05	10586.24
566.21	10317.08
566.38	10331.12
566.54	10609.65
566.70	10644.76
566.87	10775.83
567.03	10871.79
567.19	11059.03
567.36	10434.11
567.52	10736.04
567.68	10384.96
567.85	10289.00
568.01	9839.61
568.17	9729.61
568.34	9886.42
568.50	9928.55
568.66	10076.01
568.83	10139.20
568.99	10186.01
569.15	10022.17
569.32	10148.56
569.48	10490.28
569.64	10253.89
569.81	10129.84
569.97	10148.56
570.13	10293.68
570.30	9877.06
570.46	9731.95
570.62	9446.40
570.78	9472.15
570.95	9205.33
571.11	9823.23
571.27	9678.12
571.43	9865.36
571.60	9823.23
571.76	9774.08
571.92	9909.83
572.09	9898.13
572.25	10003.45
572.41	10209.42
572.57	9987.07
572.74	10106.43
572.90	9884.08
573.06	10003.45
573.22	9973.02
573.38	10232.82
573.55	9935.57
573.71	9900.47
573.87	10012.81
574.03	9764.72
574.20	9647.69
574.36	9680.46
574.52	9638.33
574.68	9760.03
574.84	9242.78
575.01	9050.85
575.17	9221.71
575.33	9366.82
575.49	9242.78
575.65	9511.94
575.82	9198.31
575.98	9102.34
576.14	9406.61
576.30	9490.87
576.46	9074.26
576.62	9434.70
576.79	9516.62
576.95	9352.78
577.11	9369.16
577.27	9439.38
577.43	9369.16
577.59	9362.14
577.75	9366.82
577.92	9156.18
578.08	8896.38
578.24	8915.10
578.40	9062.55
578.56	8821.48
578.72	8784.03
578.88	9179.58
579.04	9078.94
579.21	9245.12
579.37	8978.30
579.53	9071.92
579.69	8938.51
579.85	8805.10
580.01	8837.86
580.17	8931.48
580.33	9217.03
580.49	9076.60
580.65	9207.67
580.82	9046.17
580.98	9050.85
581.14	8800.41
581.30	8982.98
581.46	9179.58
581.62	9275.54
581.78	9177.24
581.94	9427.68
582.10	9167.88
582.26	9181.92
582.42	9202.99
582.58	9259.16
582.74	9298.95
582.90	9214.69
583.06	9624.28
583.22	9462.79
583.38	9071.92
583.54	9039.15
583.70	9135.11
583.86	9212.35
584.02	9165.54
584.18	9167.88
584.34	9277.88
584.50	9366.82
584.66	9186.60
584.82	9158.52
584.98	8774.67
585.14	8575.72
585.30	8346.35
585.46	8299.54
585.62	8514.87
585.78	8842.54
585.94	8491.46
586.10	8472.74
586.26	8777.01
586.42	8816.80
586.58	8807.44
586.74	8547.64
586.90	8734.88
587.06	8809.78
587.22	8388.48
587.38	8418.91
587.54	8271.45
587.70	8224.64
587.86	8107.62
588.02	8278.47
588.18	7985.91
588.34	7595.04
588.49	7454.61
588.65	6979.48
588.81	7045.01
588.97	7246.30
589.13	7042.67
589.29	7473.33
589.45	7407.80
589.61	7194.81
589.77	7925.05
589.93	7875.90
590.08	8023.36
590.24	8210.60
590.40	7911.01
590.56	8049.10
590.72	7850.16
590.88	7875.90
591.04	7908.67
