SpectraSuite Data File
++++++++++++++++++++++++++++++++++++
Date: Mon Oct 07 14:55:01 GMT-05:00 2013
User: price-jones
Dark Spectrum Present: No
Reference Spectrum Present: No
Number of Sampled Component Spectra: 1
Spectrometers: USB2+H05261
Integration Time (usec): 10000 (USB2+H05261)
Spectra Averaged: 1 (USB2+H05261)
Boxcar Smoothing: 0 (USB2+H05261)
Correct for Electrical Dark: No (USB2+H05261)
Strobe/Lamp Enabled: No (USB2+H05261)
Correct for Detector Non-linearity: No (USB2+H05261)
Correct for Stray Light: No (USB2+H05261)
Number of Pixels in Processed Spectrum: 2048
>>>>>Begin Processed Spectral Data<<<<<
365.73	0.00
365.92	0.00
366.12	0.00
366.32	0.00
366.52	0.00
366.72	0.00
366.91	0.00
367.11	0.00
367.31	0.00
367.51	0.00
367.70	0.00
367.90	0.00
368.10	0.00
368.30	0.00
368.49	0.00
368.69	0.00
368.89	0.00
369.09	0.00
369.28	0.00
369.48	0.00
369.68	0.00
369.87	0.00
370.07	0.00
370.27	0.00
370.47	372.15
370.66	2272.66
370.86	2832.05
371.06	2918.65
371.25	2899.92
371.45	2649.49
371.65	2452.88
371.84	2314.79
372.04	2623.74
372.24	2787.58
372.44	2810.98
372.63	2705.66
372.83	2385.01
373.03	2019.88
373.22	2054.99
373.42	2237.55
373.62	2665.87
373.81	2825.03
374.01	2759.49
374.21	2502.03
374.40	2326.49
374.60	2408.41
374.79	2825.03
374.99	3325.90
375.19	3382.07
375.38	3375.05
375.58	3108.23
375.78	3073.12
375.97	3180.79
376.17	3241.64
376.37	3410.16
376.56	3405.48
376.76	3709.75
376.95	3850.18
377.15	4074.87
377.35	4369.78
377.54	4568.73
377.74	4585.11
377.93	4601.49
378.13	4451.70
378.33	4198.92
378.52	3896.99
378.72	3737.84
378.91	3597.40
379.11	3583.36
379.31	3454.63
379.50	3501.44
379.70	3875.93
379.89	4100.62
380.09	4477.44
380.28	4409.57
380.48	4491.49
380.68	4393.19
380.87	4145.09
381.07	3960.19
381.26	3672.30
381.46	3363.35
381.65	3192.49
381.85	3194.83
382.04	3019.29
382.24	2820.35
382.43	2630.76
382.63	2642.46
382.83	2588.63
383.02	2686.94
383.22	2754.81
383.41	2708.00
383.61	3157.38
383.80	3332.92
384.00	3962.53
384.19	4339.35
384.39	4571.07
384.58	4500.85
384.78	4432.97
384.97	4386.16
385.17	3929.76
385.36	3812.73
385.56	3721.45
385.75	3932.10
385.95	4449.36
386.14	4664.69
386.34	4631.92
386.53	4381.48
386.72	4212.96
386.92	4299.56
387.11	4533.62
387.31	4660.01
387.50	4540.64
387.70	4414.25
387.89	4334.67
388.09	4425.95
388.28	4550.00
388.48	4678.73
388.67	5046.20
388.86	5408.98
389.06	5867.72
389.25	6232.85
389.45	6260.93
389.64	6087.73
389.84	5902.83
390.03	6061.99
390.22	5949.64
390.42	6310.08
390.61	6675.21
390.81	6878.83
391.00	7152.68
391.19	7066.08
391.39	6757.13
391.58	6314.77
391.78	5951.98
391.97	5870.06
392.16	5362.17
392.36	4608.51
392.55	3557.61
392.75	2995.89
392.94	2495.01
393.13	2614.38
393.33	3311.86
393.52	4112.32
393.71	5004.07
393.91	5540.05
394.10	6080.71
394.29	6384.98
394.49	7009.90
394.68	7723.77
394.88	7550.57
395.07	7658.23
395.26	7611.42
395.46	7283.75
395.65	6806.28
395.84	5757.72
396.04	4898.74
396.23	4002.32
396.42	3461.65
396.62	3555.27
396.81	4074.87
397.00	5411.32
397.19	6939.69
397.39	7845.48
397.58	8805.10
397.77	8964.25
397.97	9540.02
398.16	9762.37
398.35	9870.04
398.55	10115.80
398.74	10691.57
398.93	10888.17
399.12	10754.76
399.32	10157.92
399.51	10611.99
399.70	11454.58
399.90	10995.84
400.09	10824.98
400.28	10799.23
400.47	11262.66
400.67	11772.89
400.86	11803.32
401.05	11733.11
401.24	11885.24
401.44	12224.62
401.63	12472.71
401.82	12264.41
402.01	12063.12
402.21	12517.18
402.40	12430.59
402.59	12105.25
402.78	11447.56
402.97	11524.80
403.17	11927.37
403.36	12552.29
403.55	12772.30
403.74	13135.09
403.93	12435.27
404.13	11494.37
404.32	11475.65
404.51	11719.06
404.70	12549.95
404.89	12594.42
405.09	12294.83
405.28	12042.06
405.47	12229.30
405.66	12379.09
405.85	11679.27
406.05	11520.12
406.24	11889.92
406.43	12353.35
406.62	12720.81
406.81	12713.79
407.00	12383.77
407.20	12140.36
407.39	12294.83
407.58	12931.46
407.77	13481.49
407.96	13745.97
408.15	14305.35
408.34	14244.50
408.54	14427.06
408.73	14705.59
408.92	14265.57
409.11	13575.11
409.30	13055.51
409.49	12341.64
409.68	11550.54
409.87	11482.67
410.07	12297.17
410.26	13151.47
410.45	13776.39
410.64	14246.84
410.83	14728.99
411.02	15105.82
411.21	15604.35
411.40	15173.69
411.59	15468.60
411.78	15227.53
411.98	15398.38
412.17	15325.83
412.36	15342.21
412.55	15056.67
412.74	14717.29
412.93	14340.46
413.12	15243.91
413.31	16594.40
413.50	16271.40
413.69	16655.25
413.88	15889.90
414.07	15693.29
414.26	16189.49
414.45	16592.06
414.64	16313.53
414.83	16264.38
415.02	15749.46
415.22	15831.38
415.41	16631.85
415.60	17048.46
415.79	17923.82
415.98	17888.71
416.17	17671.04
416.36	17151.45
416.55	17380.82
416.74	16524.18
416.93	16229.27
417.12	16332.26
417.31	16589.72
417.50	16922.07
417.69	17446.35
417.88	17233.36
418.07	16786.32
418.26	16716.11
418.45	16975.91
418.64	17916.80
418.83	18635.35
419.02	17759.98
419.21	17415.93
419.39	17013.35
419.58	16425.88
419.77	16725.47
419.96	17820.84
420.15	18403.63
420.34	18890.46
420.53	19529.43
420.72	19700.29
420.91	19227.50
421.10	19009.83
421.29	18785.14
421.48	18328.74
421.67	19386.66
421.86	18246.82
422.05	16629.51
422.24	15295.40
422.43	16308.85
422.61	18200.01
422.80	18853.02
422.99	18232.77
423.18	17752.96
423.37	17757.64
423.56	17809.14
423.75	18635.35
423.94	18789.82
424.13	17579.76
424.32	17439.33
424.50	17696.79
424.69	17891.06
424.88	17799.77
425.07	17497.84
425.26	17743.60
425.45	17011.01
425.64	16861.22
425.83	17603.17
426.01	18281.92
426.20	18265.54
426.39	18256.18
426.58	16563.97
426.77	15761.17
426.96	15510.73
427.15	16196.51
427.33	17474.44
427.52	18127.45
427.71	17706.15
427.90	17408.90
428.09	17511.89
428.28	17282.52
428.46	16130.97
428.65	15843.09
428.84	16870.58
429.03	16835.47
429.22	15756.49
429.40	14850.70
429.59	13425.31
429.78	12046.74
429.97	12236.32
430.16	12077.16
430.34	12397.82
430.53	12720.81
430.72	13619.58
430.91	15054.33
431.10	17532.95
431.28	20177.76
431.47	21752.94
431.66	20814.38
431.85	18642.37
432.03	17528.27
432.22	17392.52
432.41	18663.43
432.60	20247.97
432.79	20774.60
432.97	21188.87
433.16	20130.95
433.35	18485.55
433.54	16343.96
433.72	16095.86
433.91	17001.65
434.10	18913.87
434.28	20147.33
434.47	20877.58
434.66	20418.83
434.85	19709.65
435.03	20116.90
435.22	20306.49
435.41	21371.43
435.59	21858.26
435.78	21933.16
435.97	22792.14
436.16	22637.66
436.34	22249.13
436.53	21851.24
436.72	21514.20
436.90	20636.50
437.09	20875.24
437.28	20519.48
437.46	21259.09
437.65	20208.19
437.84	18963.02
438.02	17818.50
438.21	17900.42
438.40	18977.06
438.58	20177.76
438.77	20734.81
438.96	21312.92
439.14	22427.01
439.33	22780.43
439.52	22848.31
439.70	21820.81
439.89	21212.28
440.08	21095.25
440.26	21528.25
440.45	22164.87
440.63	23702.61
440.82	24601.37
441.01	24046.66
441.19	24074.75
441.38	24943.09
441.57	25301.19
441.75	25394.81
441.94	26092.29
442.12	25820.79
442.31	26490.18
442.50	25855.90
442.68	25476.73
442.87	25820.79
443.05	25013.31
443.24	25788.02
443.43	26050.16
443.61	26637.64
443.80	27201.71
443.98	25851.22
444.17	25713.13
444.35	26541.68
444.54	27466.19
444.73	26679.77
444.91	25247.36
445.10	24414.13
445.28	23789.20
445.47	23599.62
445.65	23885.17
445.84	24727.76
446.02	25371.41
446.21	25448.64
446.39	25764.62
446.58	25865.26
446.77	26892.76
446.95	26616.57
447.14	27229.79
447.32	27840.67
447.51	27108.08
447.69	26331.03
447.88	26335.71
448.06	26696.15
448.25	27077.66
448.43	26682.11
448.62	26345.07
448.80	26443.37
448.99	26625.93
449.17	26998.08
449.36	27342.14
449.54	27634.71
449.73	28158.99
449.91	28826.04
450.10	29680.33
450.28	29689.70
450.46	29710.76
450.65	29771.61
450.83	29212.23
451.02	28737.10
451.20	28730.08
451.39	28514.75
451.57	28741.78
451.76	28744.12
451.94	28088.77
452.13	27190.00
452.31	25729.51
452.49	25076.50
452.68	25610.14
452.86	26291.24
453.05	26483.16
453.23	27646.41
453.42	28058.34
453.60	28561.56
453.78	28517.09
453.97	28599.01
454.15	27765.78
454.34	26836.58
454.52	26946.59
454.70	27063.61
454.89	27468.53
455.07	27314.05
455.26	28259.63
455.44	29315.21
455.62	29216.91
455.81	29317.55
455.99	29380.74
456.17	29401.81
456.36	29766.93
456.54	30218.66
456.73	29879.28
456.91	30298.23
457.09	30665.70
457.28	31262.54
457.46	29668.63
457.64	29467.34
457.83	28755.82
458.01	28268.99
458.19	29582.03
458.38	30183.55
458.56	30499.52
458.74	30597.82
458.93	29446.28
459.11	29003.92
459.29	29181.80
459.48	29537.56
459.66	29017.96
459.84	29785.66
460.03	30008.01
460.21	30199.93
460.39	31377.22
460.57	30183.55
460.76	30452.71
460.94	31365.52
461.12	31075.29
461.31	30799.11
461.49	31096.36
461.67	31283.60
461.85	32039.59
462.04	31304.67
462.22	31283.60
462.40	30913.80
462.59	30969.97
462.77	30909.11
462.95	31442.76
463.13	31185.30
463.32	30452.71
463.50	30221.00
463.68	30841.24
463.86	31026.14
464.05	30155.46
464.23	29640.54
464.41	29586.71
464.59	29270.74
464.78	31051.89
464.96	30169.51
465.14	29563.31
465.32	31269.56
465.50	31728.30
465.69	32842.40
465.87	31637.02
466.05	30146.10
466.23	29329.25
466.41	28606.03
466.60	29268.40
466.78	28868.17
466.96	29614.80
467.14	30801.45
467.32	30345.05
467.51	30656.34
467.69	29221.59
467.87	30160.14
468.05	30541.65
468.23	30756.98
468.41	30597.82
468.60	30775.70
468.78	31702.56
468.96	31087.00
469.14	31089.34
469.32	31496.59
469.50	29717.78
469.69	30375.47
469.87	29673.31
470.05	29743.53
470.23	30075.88
470.41	29944.81
470.59	30204.61
470.77	30274.83
470.95	31040.18
471.14	31702.56
471.32	31669.79
471.50	33254.33
471.68	33448.60
471.86	34146.08
472.04	32776.86
472.22	33734.14
472.40	32446.85
472.58	32290.03
472.77	31550.42
472.95	32182.37
473.13	33333.91
473.31	31828.95
473.49	32360.25
473.67	32849.42
473.85	33532.86
474.03	34991.01
474.21	35136.12
474.39	34541.63
474.57	34873.98
474.75	35119.74
474.93	34600.14
475.12	33820.74
475.30	33958.83
475.48	33308.16
475.66	33853.51
475.84	33078.79
476.02	33846.49
476.20	33125.60
476.38	33729.46
476.56	34909.09
476.74	35538.69
476.92	35749.34
477.10	35882.75
477.28	36648.11
477.46	37394.74
477.64	37340.91
477.82	38007.96
478.00	37766.88
478.18	36828.33
478.36	36360.22
478.54	36833.01
478.72	37525.81
478.90	39157.16
479.08	40708.94
479.26	40128.48
479.44	40959.38
479.62	39543.35
479.80	39826.56
479.98	39730.59
480.16	39924.86
480.34	39622.93
480.52	41013.21
480.70	40704.26
480.88	39915.50
481.06	41074.06
481.24	41778.56
481.41	42169.43
481.59	43199.27
481.77	42045.38
481.95	41551.53
482.13	41897.93
482.31	42141.35
482.49	42822.44
482.67	41982.19
482.85	42115.60
483.03	42225.60
483.21	43402.89
483.39	43299.91
483.57	42625.84
483.74	42513.49
483.92	43145.44
484.10	43442.68
484.28	43407.58
484.46	42981.60
484.64	44842.32
484.82	44058.24
485.00	42665.63
485.18	42588.39
485.35	40650.42
485.53	35182.93
485.71	33596.05
485.89	33937.77
486.07	36741.73
486.25	39363.13
486.43	41270.67
486.61	41610.04
486.78	41251.94
486.96	43171.18
487.14	44186.97
487.32	44755.72
487.50	46181.11
487.68	47398.19
487.85	47805.44
488.03	47159.45
488.21	46628.15
488.39	46307.50
488.57	44914.88
488.75	45113.83
488.92	46700.71
489.10	48938.26
489.28	49394.67
489.46	51433.27
489.64	50827.07
489.81	51442.63
489.99	50162.36
490.17	50637.49
490.35	50616.43
490.53	50321.52
490.70	49883.84
490.88	49923.63
491.06	51292.84
491.24	51573.70
491.41	50321.52
491.59	48528.67
491.77	48102.69
491.95	49446.16
492.13	51327.95
492.30	51751.59
492.48	52619.92
492.66	52783.76
492.84	52313.31
493.01	51866.27
493.19	52184.58
493.37	51545.62
493.54	51840.53
493.72	52982.71
493.90	52994.41
494.08	53893.18
494.25	53876.79
494.43	54457.24
494.61	54887.90
494.79	54569.59
494.96	54897.27
495.14	54553.21
495.32	53106.76
495.49	53244.85
495.67	54365.96
495.85	55330.26
496.02	55854.54
496.20	55281.11
496.38	54703.00
496.55	54604.70
496.73	55732.84
496.91	55681.34
497.09	55585.38
497.26	56032.42
497.44	55590.06
497.62	54817.69
497.79	53961.05
497.97	53050.58
498.14	53375.92
498.32	54960.46
498.50	55220.26
498.67	55065.78
498.85	55271.75
499.03	55917.74
499.20	56156.47
499.38	55463.67
499.56	55025.99
499.73	55077.49
499.91	54623.42
500.08	53876.79
500.26	53158.25
500.44	54515.76
500.61	55049.40
500.79	54482.99
500.97	54707.68
501.14	53851.05
501.32	53518.69
501.49	53586.57
501.67	54099.14
501.84	54370.64
502.02	54993.23
502.20	55667.30
502.37	55807.73
502.55	56018.38
502.72	56458.40
502.90	56912.47
503.07	56570.75
503.25	55496.44
503.43	54387.03
503.60	54012.54
503.78	53958.71
503.95	54415.11
504.13	55723.47
504.30	56369.46
504.48	55494.10
504.65	55882.63
504.83	56123.71
505.01	56704.16
505.18	57057.58
505.36	57499.94
505.53	57425.04
505.71	57368.87
505.88	57684.84
506.06	57158.22
506.23	56835.23
506.41	56643.30
506.58	56917.15
506.76	56846.93
506.93	56158.81
507.11	56107.32
507.28	56390.53
507.46	55671.98
507.63	55781.99
507.81	55288.13
507.98	55746.88
508.16	57055.24
508.33	56985.02
508.50	57167.58
508.68	57710.59
508.85	57827.62
509.03	58326.15
509.20	57633.35
509.38	56399.89
509.55	56638.62
509.73	56858.63
509.90	56900.76
510.08	57034.17
510.25	56727.56
510.42	56645.65
510.60	56956.94
510.77	57254.18
510.95	57368.87
511.12	57518.67
511.30	58255.93
511.47	58700.64
511.64	58424.45
511.82	58094.44
511.99	57195.67
512.17	57073.96
512.34	56559.05
512.51	56643.30
512.69	57205.03
512.86	56650.33
513.04	57237.80
513.21	56800.12
513.38	55870.93
513.56	55540.91
513.73	55086.85
513.90	56329.67
514.08	56271.16
514.25	56060.51
514.43	56481.81
514.60	56884.38
514.77	56814.16
514.95	57055.24
515.12	56746.29
515.29	57469.51
515.47	57780.81
515.64	57968.05
515.81	57338.44
515.99	56104.98
516.16	54232.55
516.33	51707.12
516.51	51892.02
516.68	50586.00
516.85	49340.83
517.03	51454.34
517.20	54136.59
517.37	56289.88
517.54	57148.86
517.72	55632.19
517.89	52336.72
518.06	51187.52
518.24	52325.02
518.41	54576.61
518.58	55700.07
518.75	55777.31
518.93	55723.47
519.10	55384.10
519.27	56315.63
519.45	56746.29
519.62	57347.81
519.79	57478.88
519.96	56650.33
520.14	56720.54
520.31	55248.35
520.48	55739.86
520.65	56638.62
520.83	57860.38
521.00	57666.12
521.17	56994.39
521.34	56985.02
521.52	57551.43
521.69	57729.31
521.86	58007.84
522.03	58024.22
522.20	56245.41
522.38	55561.98
522.55	56128.39
522.72	56411.59
522.89	56093.28
523.07	57109.07
523.24	57415.68
523.41	58323.81
523.58	58431.47
523.75	58562.54
523.92	58590.63
524.10	58164.65
524.27	57668.46
524.44	57373.55
524.61	57155.88
524.78	57764.42
524.96	57654.42
525.13	57715.27
525.30	58489.99
525.47	58618.72
525.64	58379.98
525.81	57499.94
525.98	55475.38
526.16	54213.83
526.33	54131.91
526.50	53734.02
526.67	53813.60
526.84	54562.57
527.01	55763.26
527.18	56086.26
527.36	57050.56
527.53	58028.90
527.70	57183.97
527.87	56025.40
528.04	57202.69
528.21	57425.04
528.38	58162.31
528.55	59248.32
528.72	58911.28
528.89	58323.81
529.07	58195.08
529.24	57083.33
529.41	56807.14
529.58	56860.97
529.75	57656.76
529.92	57715.27
530.09	57939.96
530.26	58487.65
530.43	59192.15
530.60	57972.73
530.77	58803.62
530.94	59145.34
531.11	57876.77
531.28	58049.97
531.46	58312.11
531.63	57944.64
531.80	57766.76
531.97	57158.22
532.14	57265.89
532.31	55531.55
532.48	54766.20
532.65	55395.80
532.82	56224.35
532.99	57642.71
533.16	57970.39
533.33	57834.64
533.50	58054.65
533.67	57750.38
533.84	57102.05
534.01	57528.03
534.18	57659.10
534.35	57195.67
534.52	56699.48
534.69	57286.95
534.86	57951.66
535.03	58265.30
535.20	58326.15
535.37	59030.65
535.54	58946.39
535.71	58564.88
535.88	58934.69
536.05	57593.56
536.22	57095.03
536.38	56779.06
536.55	56102.64
536.72	55679.00
536.89	56355.42
537.06	56566.07
537.23	56942.89
537.40	57029.49
537.57	56811.82
537.74	57181.63
537.91	57506.96
538.08	57272.91
538.25	57366.53
538.42	58326.15
538.59	57403.98
538.75	56671.39
538.92	55880.29
539.09	56390.53
539.26	56385.85
539.43	56044.13
539.60	55927.10
539.77	56811.82
539.94	56306.27
540.11	55758.58
540.28	55421.55
540.44	55089.19
540.61	54852.80
540.78	55526.87
540.95	56374.14
541.12	56580.11
541.29	57045.88
541.46	57146.52
541.62	57188.65
541.79	56432.66
541.96	55894.33
542.13	55966.89
542.30	55889.65
542.47	56451.38
542.63	56449.04
542.80	56175.20
542.97	55323.24
543.14	55571.34
543.31	56123.71
543.48	56900.76
543.64	57226.10
543.81	58174.02
543.98	58094.44
544.15	56472.45
544.32	57176.95
544.48	56512.23
544.65	56470.11
544.82	56959.28
544.99	55475.38
545.16	55299.84
545.32	55608.79
545.49	56336.69
545.66	56622.24
545.83	56470.11
546.00	56788.42
546.16	56577.77
546.33	56271.16
546.50	56231.37
546.67	56954.60
546.83	56411.59
547.00	56765.01
547.17	55419.20
547.34	54419.80
547.50	54738.11
547.67	55906.04
547.84	56741.61
548.00	56800.12
548.17	56303.93
548.34	56917.15
548.51	56757.99
548.67	56938.21
548.84	56582.45
549.01	56767.35
549.18	56109.66
549.34	56296.91
549.51	56402.23
549.68	56835.23
549.84	56137.75
550.01	55625.17
550.18	55292.82
550.34	55533.89
550.51	55812.41
550.68	56055.83
550.84	56378.82
551.01	55442.61
551.18	55379.42
551.34	55304.52
551.51	56067.53
551.68	55927.10
551.84	56498.19
552.01	56090.94
552.18	55536.23
552.34	55061.10
552.51	54644.49
552.68	54403.41
552.84	54955.78
553.01	54948.76
553.18	55849.86
553.34	55833.48
553.51	55838.16
553.67	56072.21
553.84	55772.63
554.01	56090.94
554.17	55540.91
554.34	55704.75
554.51	55789.01
554.67	55009.61
554.84	55353.67
555.00	54761.51
555.17	54986.21
555.33	54869.18
555.50	54239.57
555.67	54976.84
555.83	55285.79
556.00	54639.81
556.16	54361.28
556.33	54277.02
556.50	54515.76
556.66	54478.31
556.83	53970.41
556.99	53635.72
557.16	54321.49
557.32	53808.92
557.49	54461.93
557.65	53939.99
557.82	54822.37
557.98	54901.95
558.15	53722.32
558.32	53205.06
558.48	52746.31
558.65	52617.58
558.81	53041.22
558.98	53904.88
559.14	54124.89
559.31	54045.31
559.47	53485.92
559.64	53301.02
559.80	52633.97
559.97	53684.87
560.13	54452.56
560.30	55552.62
560.46	55543.25
560.63	56020.72
560.79	55611.13
560.96	54960.46
561.12	53595.93
561.29	53113.78
561.45	53200.38
561.61	54803.64
561.78	53893.18
561.94	54265.32
562.11	54361.28
562.27	53357.19
562.44	54181.06
562.60	54609.38
562.77	54609.38
562.93	53624.01
563.10	54052.33
563.26	53822.96
563.42	54321.49
563.59	53542.10
563.75	53485.92
563.92	53270.59
564.08	52865.68
564.24	53888.49
564.41	53008.45
564.57	54155.32
564.74	53645.08
564.90	53214.42
565.07	52701.84
565.23	51672.01
565.39	51737.54
565.56	51793.71
565.72	52334.38
565.88	50892.61
566.05	53073.99
566.21	53385.28
566.38	53092.71
566.54	53516.35
566.70	54124.89
566.87	53514.01
567.03	52959.30
567.19	54646.83
567.36	54665.55
567.52	53109.10
567.68	52317.99
567.85	51906.06
568.01	52112.03
568.17	52165.86
568.34	52575.45
568.50	52158.84
568.66	51749.24
568.83	51903.72
568.99	51040.06
569.15	51199.22
569.32	51833.50
569.48	51447.32
569.64	51274.12
569.81	51627.54
569.97	51288.16
570.13	50527.48
570.30	49766.81
570.46	49172.31
570.62	48828.26
570.78	49160.61
570.95	49731.70
571.11	50153.00
571.27	49785.54
571.43	50148.32
571.60	50052.36
571.76	51103.26
571.92	51430.93
572.09	51894.36
572.25	51758.61
572.41	51714.14
572.57	51339.65
572.74	52109.69
572.90	53116.12
573.06	52329.70
573.22	52575.45
573.38	51976.28
573.55	53226.12
573.71	51782.01
573.87	51763.29
574.03	51650.94
574.20	51470.72
574.36	51178.15
574.52	50326.20
574.68	50773.24
574.84	49546.80
575.01	49811.28
575.17	50005.55
575.33	50471.31
575.49	50380.03
575.65	48942.94
575.82	49874.48
575.98	49404.03
576.14	50883.25
576.30	51482.42
576.46	50068.74
576.62	49925.97
576.79	50237.26
576.95	50461.95
577.11	50564.93
577.27	50316.84
577.43	50440.89
577.59	49780.85
577.75	48655.06
577.92	48226.74
578.08	49088.06
578.24	49834.69
578.40	49586.59
578.56	48278.23
578.72	48603.56
578.88	48280.57
579.04	48641.01
579.21	48467.81
579.37	49097.42
579.53	49619.36
579.69	48739.32
579.85	48671.44
580.01	48664.42
580.17	47894.38
580.33	49720.00
580.49	50129.59
580.65	48083.97
580.82	49113.80
580.98	49792.56
581.14	49631.06
581.30	49184.02
581.46	48526.33
581.62	48987.41
581.78	49811.28
581.94	50344.92
582.10	50089.80
582.26	50220.87
582.42	50286.41
582.58	48421.00
582.74	48631.65
582.90	48545.05
583.06	49289.34
583.22	49001.46
583.38	48994.43
583.54	49577.23
583.70	50042.99
583.86	49544.46
584.02	48980.39
584.18	49090.40
584.34	47948.21
584.50	47964.60
584.66	47999.71
584.82	48236.10
584.98	48378.87
585.14	47555.00
585.30	47566.71
