SpectraSuite Data File
++++++++++++++++++++++++++++++++++++
Date: Mon Oct 07 14:53:01 GMT-05:00 2013
User: price-jones
Dark Spectrum Present: No
Reference Spectrum Present: No
Number of Sampled Component Spectra: 1
Spectrometers: USB2+H05261
Integration Time (usec): 100000 (USB2+H05261)
Spectra Averaged: 1 (USB2+H05261)
Boxcar Smoothing: 0 (USB2+H05261)
Correct for Electrical Dark: No (USB2+H05261)
Strobe/Lamp Enabled: No (USB2+H05261)
Correct for Detector Non-linearity: No (USB2+H05261)
Correct for Stray Light: No (USB2+H05261)
Number of Pixels in Processed Spectrum: 2048
>>>>>Begin Processed Spectral Data<<<<<
365.73	0.00
365.92	0.00
366.12	0.00
366.32	0.00
366.52	0.00
366.72	0.00
366.91	0.00
367.11	0.00
367.31	0.00
367.51	0.00
367.70	0.00
367.90	0.00
368.10	0.00
368.30	0.00
368.49	0.00
368.69	0.00
368.89	0.00
369.09	0.00
369.28	0.00
369.48	0.00
369.68	0.00
369.87	0.00
370.07	0.00
370.27	0.00
370.47	547.69
370.66	3026.31
370.86	3438.25
371.06	3740.18
371.25	3845.50
371.45	3562.30
371.65	3152.70
371.84	2862.48
372.04	3157.38
372.24	3302.50
372.44	3604.42
372.63	3449.95
372.83	3365.69
373.03	2909.29
373.22	2672.89
373.42	2745.45
373.62	3145.68
373.81	3538.89
374.01	3342.28
374.21	3148.02
374.40	2946.73
374.60	3129.30
374.79	3410.16
374.99	3925.08
375.19	4353.40
375.38	4276.16
375.58	4004.66
375.78	3840.82
375.97	4063.17
376.17	4273.82
376.37	4163.81
376.56	4290.20
376.76	4517.23
376.95	4835.55
377.15	5076.62
377.35	5411.32
377.54	5535.37
377.74	5626.65
377.93	5755.38
378.13	5678.14
378.33	5207.69
378.52	4779.37
378.72	4599.15
378.91	4585.11
379.11	4592.13
379.31	4339.35
379.50	4517.23
379.70	4685.75
379.89	5050.88
380.09	5465.15
380.28	5645.37
380.48	5647.71
380.68	5420.68
380.87	5373.87
381.07	5053.22
381.26	4652.98
381.46	4266.80
381.65	4212.96
381.85	4159.13
382.04	3775.28
382.24	3620.81
382.43	3414.84
382.63	3227.60
382.83	3405.48
383.02	3396.12
383.22	3447.61
383.41	3239.30
383.61	3672.30
383.80	4184.88
384.00	4805.12
384.19	5163.22
384.39	5563.45
384.58	5451.11
384.78	5408.98
384.97	5453.45
385.17	5146.84
385.36	4912.78
385.56	4608.51
385.75	4805.12
385.95	5324.72
386.14	5820.91
386.34	5715.59
386.53	5479.19
386.72	5163.22
386.92	5191.31
387.11	5481.53
387.31	5741.33
387.50	5682.82
387.70	5645.37
387.89	5446.43
388.09	5394.93
388.28	5563.45
388.48	5416.00
388.67	6047.94
388.86	6530.09
389.06	6993.52
389.25	7463.97
389.45	7419.50
389.64	7520.14
389.84	7339.92
390.03	7218.21
390.22	7286.09
390.42	7548.23
390.61	8098.25
390.81	8547.64
391.00	8692.75
391.19	8573.38
391.39	8355.71
391.58	7707.38
391.78	7234.60
391.97	7082.46
392.16	6698.61
392.36	5951.98
392.55	4858.95
392.75	3812.73
392.94	3215.90
393.13	3251.00
393.33	3669.96
393.52	4849.59
393.71	5804.53
393.91	6654.14
394.10	7204.17
394.29	7847.82
394.49	8454.02
394.68	9083.62
394.88	9048.51
395.07	9401.93
395.26	9291.93
395.46	9273.20
395.65	8418.91
395.84	7424.18
396.04	6157.95
396.23	5167.90
396.42	4313.61
396.62	4067.85
396.81	4889.38
397.00	6141.57
397.19	7768.24
397.39	9177.24
397.58	10209.42
397.77	10972.43
397.97	11300.11
398.16	11426.50
398.35	11873.54
398.55	12367.39
398.74	12697.41
398.93	12903.37
399.12	12877.63
399.32	12322.92
399.51	12650.60
399.70	13570.43
399.90	13474.46
400.09	13256.79
400.28	13298.92
400.47	13476.80
400.67	14097.05
400.86	14031.51
401.05	14267.91
401.24	14373.23
401.44	14520.68
401.63	14640.05
401.82	14677.50
402.01	14654.09
402.21	14925.60
402.40	14911.55
402.59	14490.26
402.78	13928.53
402.97	13853.63
403.17	14310.04
403.36	14499.62
403.55	15569.24
403.74	15447.54
403.93	14810.91
404.13	13776.39
404.32	13240.41
404.51	14143.86
404.70	15201.78
404.89	15264.97
405.09	15089.43
405.28	14710.27
405.47	14476.21
405.66	14670.48
405.85	14171.94
406.05	13874.70
406.24	13760.01
406.43	14668.14
406.62	15190.08
406.81	15269.66
407.00	14487.92
407.20	14209.39
407.39	14443.45
407.58	15260.29
407.77	15772.87
407.96	16147.36
408.15	16287.79
408.34	16512.48
408.54	17390.18
408.73	17289.54
408.92	16982.93
409.11	16526.52
409.30	15793.94
409.49	14590.90
409.68	13816.18
409.87	13422.97
410.07	14239.82
410.26	15431.15
410.45	16589.72
410.64	16671.64
410.83	17605.51
411.02	17940.21
411.21	18686.84
411.40	18263.20
411.59	18300.65
411.78	18045.53
411.98	17715.51
412.17	18242.14
412.36	17614.87
412.55	18033.83
412.74	17310.60
412.93	17092.93
413.12	17413.59
413.31	18822.59
413.50	19019.19
413.69	19419.42
413.88	18752.37
414.07	18197.67
414.26	18452.78
414.45	18981.74
414.64	19187.71
414.83	19580.92
415.02	19161.97
415.22	18743.01
415.41	19307.08
415.60	19665.18
415.79	20622.46
415.98	21106.95
416.17	21219.30
416.36	20528.84
416.55	20128.61
416.74	19639.44
416.93	19325.80
417.12	18885.78
417.31	19456.87
417.50	19997.54
417.69	20081.80
417.88	20004.56
418.07	20027.96
418.26	19730.72
418.45	20112.22
418.64	20634.16
418.83	21394.84
419.02	21092.91
419.21	20814.38
419.39	19992.86
419.58	18909.19
419.77	19218.14
419.96	19871.15
420.15	20727.78
420.34	21570.38
420.53	22623.62
420.72	22649.36
420.91	22562.76
421.10	22302.96
421.29	22118.06
421.48	21387.82
421.67	22352.12
421.86	21937.84
422.05	20105.20
422.24	18171.92
422.43	18284.26
422.61	20070.09
422.80	21680.38
422.99	21439.31
423.18	20910.35
423.37	20475.01
423.56	20451.60
423.75	20781.62
423.94	21106.95
424.13	20238.61
424.32	20170.74
424.50	20350.96
424.69	19997.54
424.88	20561.61
425.07	20219.89
425.26	20563.95
425.45	19924.98
425.64	19768.16
425.83	19676.88
426.01	20889.28
426.20	21523.57
426.39	20858.85
426.58	19454.53
426.77	18188.30
426.96	17481.46
427.15	18239.79
427.33	19707.31
427.52	20790.98
427.71	20760.55
427.90	20180.10
428.09	20037.33
428.28	19459.21
428.46	18813.23
428.65	18675.13
428.84	19239.20
429.03	19438.15
429.22	18300.65
429.40	17516.57
429.59	16154.38
429.78	13982.36
429.97	13980.02
430.16	14228.12
430.34	14127.47
430.53	14272.59
430.72	14799.21
430.91	16355.66
431.10	19316.44
431.28	22450.42
431.47	24425.83
431.66	24269.01
431.85	22237.43
432.03	20404.79
432.22	19646.46
432.41	20390.75
432.60	22691.49
432.79	23845.38
432.97	23946.02
433.16	23679.20
433.35	21200.57
433.54	19080.05
433.72	18581.51
433.91	18953.66
434.10	21364.41
434.28	22443.40
434.47	23772.82
434.66	23442.81
434.85	22862.35
435.03	22787.46
435.22	23484.94
435.41	25032.03
435.59	24545.20
435.78	25074.16
435.97	25701.42
436.16	25876.96
436.34	25348.00
436.53	24687.97
436.72	24891.60
436.90	23396.00
437.09	23391.31
437.28	23328.12
437.46	24051.34
437.65	23730.69
437.84	22139.13
438.02	20308.83
438.21	20594.37
438.40	21472.07
438.58	23353.87
438.77	23840.70
438.96	24198.80
439.14	25202.89
439.33	25839.51
439.52	26096.97
439.70	25469.71
439.89	24957.13
440.08	23971.77
440.26	24381.36
440.45	25095.22
440.63	26958.29
440.82	28173.03
441.01	27513.00
441.19	27615.98
441.38	28313.46
441.57	28996.90
441.75	29139.67
441.94	29858.21
442.12	29221.59
442.31	30120.35
442.50	29736.51
442.68	29518.84
442.87	29209.89
443.05	28669.22
443.24	29198.18
443.43	29605.44
443.61	30080.56
443.80	30658.68
443.98	28711.35
444.17	28570.92
444.35	30759.32
444.54	31388.92
444.73	30314.62
444.91	29357.34
445.10	28079.41
445.28	27145.53
445.47	26511.25
445.65	26930.20
445.84	27681.52
446.02	29024.98
446.21	28730.08
446.39	29010.94
446.58	29544.58
446.77	30146.10
446.95	30487.82
447.14	31246.15
447.32	31889.80
447.51	30796.77
447.69	29771.61
447.88	29186.48
448.06	30033.75
448.25	30604.84
448.43	30483.14
448.62	30050.14
448.80	29890.98
448.99	30206.95
449.17	30527.61
449.36	30466.75
449.54	31449.78
449.73	32121.51
449.91	32273.65
450.10	33792.65
450.28	33387.74
450.46	33263.69
450.65	33926.07
450.83	33432.21
451.02	32620.05
451.20	32673.88
451.39	32357.91
451.57	32018.53
451.76	31990.44
451.94	31957.67
452.13	31393.61
452.31	30115.67
452.49	28290.06
452.68	29130.31
452.86	29015.62
453.05	30148.44
453.23	30373.13
453.42	31321.05
453.60	31597.23
453.78	31936.61
453.97	31941.29
454.15	31885.12
454.34	30965.29
454.52	31047.21
454.70	30515.90
454.89	30906.77
455.07	31068.27
455.26	31557.44
455.44	33149.01
455.62	33324.55
455.81	33462.64
455.99	33099.86
456.17	32793.25
456.36	32989.85
456.54	34064.16
456.73	34094.58
456.91	34436.30
457.09	34569.71
457.28	35674.45
457.46	33593.71
457.64	33549.24
457.83	33064.75
458.01	32072.36
458.19	32435.14
458.38	33076.45
458.56	34160.12
458.74	34000.96
458.93	33294.12
459.11	33022.62
459.29	33247.31
459.48	33003.89
459.66	33179.43
459.84	33619.46
460.03	33759.89
460.21	33507.11
460.39	35019.10
460.57	34878.66
460.76	35218.04
460.94	35290.60
461.12	34600.14
461.31	34876.32
461.49	35054.20
461.67	34923.13
461.85	36123.83
462.04	35335.07
462.22	35995.10
462.40	35969.35
462.59	35725.94
462.77	35381.88
462.95	35370.18
463.13	35285.92
463.32	34604.82
463.50	34518.22
463.68	34595.46
463.86	34794.40
464.05	34012.66
464.23	33277.74
464.41	33408.81
464.59	32961.76
464.78	34579.07
464.96	34382.47
465.14	34038.41
465.32	35023.78
465.50	35601.89
465.69	35859.35
465.87	35173.57
466.05	34237.36
466.23	32966.45
466.41	32329.82
466.60	33076.45
466.78	33336.25
466.96	33565.62
467.14	34197.57
467.32	34876.32
467.51	34494.82
467.69	33060.07
467.87	33933.09
468.05	34485.45
468.23	34522.90
468.41	34508.86
468.60	34710.14
468.78	34911.43
468.96	34066.50
469.14	35278.89
469.32	35260.17
469.50	33748.18
469.69	33883.94
469.87	33589.03
470.05	33373.70
470.23	33090.49
470.41	33352.63
470.59	34424.60
470.77	34569.71
470.95	34885.68
471.14	35330.39
471.32	35690.83
471.50	37310.48
471.68	37383.04
471.86	37589.00
472.04	37872.21
472.22	38143.71
472.40	35971.69
472.58	35688.49
472.77	35414.65
472.95	36135.53
473.13	36905.57
473.31	36048.93
473.49	36151.91
473.67	37027.28
473.85	37266.01
474.03	38169.46
474.21	38583.73
474.39	38649.27
474.57	38993.32
474.75	38899.70
474.93	38726.50
475.12	37706.03
475.30	37769.22
475.48	37965.83
475.66	38707.78
475.84	38323.93
476.02	37645.18
476.20	37003.87
476.38	38178.82
476.56	38735.87
476.74	39412.28
476.92	39199.29
477.10	40631.70
477.28	41228.54
477.46	41099.81
477.64	41684.94
477.82	41549.19
478.00	42712.44
478.18	41244.92
478.36	40980.44
478.54	41350.24
478.72	41778.56
478.90	42848.19
479.08	43590.14
479.26	44100.37
479.44	44100.37
479.62	44224.42
479.80	43466.09
479.98	43749.29
480.16	44142.50
480.34	43786.74
480.52	44369.54
480.70	44350.81
480.88	44809.56
481.06	45158.30
481.24	45263.62
481.41	46499.42
481.59	47131.37
481.77	46806.03
481.95	46557.94
482.13	45661.51
482.31	45907.27
482.49	47047.11
482.67	46913.70
482.85	47461.38
483.03	47580.75
483.21	47779.70
483.39	48034.81
483.57	47239.03
483.74	47035.41
483.92	47248.39
484.10	47007.32
484.28	48676.12
484.46	48814.21
484.64	49205.08
484.82	48549.73
485.00	47852.25
485.18	47037.75
485.35	45411.07
485.53	42579.03
485.71	38990.98
485.89	38670.33
486.07	40935.97
486.25	43569.07
486.43	46064.08
486.61	46649.22
486.78	46775.61
486.96	46967.53
487.14	48624.63
487.32	49322.11
487.50	50660.90
487.68	51599.45
487.85	51676.69
488.03	51817.12
488.21	51056.45
488.39	50768.56
488.57	49750.43
488.75	49759.79
488.92	50908.99
489.10	52973.34
489.28	53902.54
489.46	54838.75
489.64	54543.84
489.81	54726.41
489.99	54539.16
490.17	54380.01
490.35	54859.82
490.53	54295.75
490.70	54049.99
490.88	54080.42
491.06	54698.32
491.24	54745.13
491.41	53544.44
491.59	52271.18
491.77	51501.15
491.95	52556.73
492.13	53532.73
492.30	54805.98
492.48	55618.15
492.66	56254.78
492.84	56189.24
493.01	55686.03
493.19	55229.62
493.37	55147.70
493.54	54663.21
493.72	55566.66
493.90	56360.10
494.08	56933.53
494.25	57277.59
494.43	57443.77
494.61	57946.98
494.79	57783.15
494.96	57780.81
495.14	56935.87
495.32	56219.67
495.49	55913.06
495.67	56795.44
495.85	58005.50
496.02	58375.30
496.20	58082.73
496.38	57544.41
496.55	57708.25
496.73	58028.90
496.91	58134.23
497.09	58775.53
497.26	59110.23
497.44	58475.94
497.62	57909.53
497.79	57055.24
497.97	56156.47
498.14	56413.93
498.32	57413.34
498.50	58253.59
498.67	58810.64
498.85	58541.48
499.03	58848.09
499.20	59058.74
499.38	58894.90
499.56	58901.92
499.73	58354.24
499.91	57946.98
500.08	57446.11
500.26	56935.87
500.44	57277.59
500.61	58007.84
500.79	57736.34
500.97	57350.15
501.14	57235.46
501.32	56973.32
501.49	57169.93
501.67	57502.28
501.84	57869.75
502.02	58260.62
502.20	58377.64
502.37	58480.63
502.55	58646.80
502.72	59096.19
502.90	59351.30
503.07	59206.19
503.25	58763.83
503.43	58042.95
503.60	57366.53
503.78	56814.16
503.95	57422.70
504.13	58688.93
504.30	59592.38
504.48	58934.69
504.65	58873.84
504.83	58997.88
505.01	59681.32
505.18	59814.73
505.36	60472.42
505.53	60376.46
505.71	60502.85
505.88	60797.76
506.06	59863.88
506.23	59700.04
506.41	59358.33
506.58	59678.98
506.76	59501.10
506.93	59430.88
507.11	59552.59
507.28	59606.42
507.46	59068.10
507.63	58499.35
507.81	58417.43
507.98	58796.60
508.16	59147.68
508.33	59732.81
508.50	59849.84
508.68	60357.74
508.85	60823.50
509.03	60776.69
509.20	60666.69
509.38	60001.97
509.55	59189.81
509.73	59297.47
509.90	59896.65
510.08	60214.96
510.25	59962.18
510.42	59812.39
510.60	59681.32
510.77	59948.14
510.95	60608.17
511.12	60760.31
511.30	60938.19
511.47	61216.71
511.64	61118.41
511.82	60430.29
511.99	59770.26
512.17	59657.91
512.34	59454.29
512.51	59571.32
512.69	59898.99
512.86	59819.41
513.04	60135.38
513.21	60111.98
513.38	59861.54
513.56	59304.49
513.73	58728.72
513.90	59004.91
514.08	59271.73
514.25	59524.50
514.43	59473.01
514.60	59639.19
514.77	59653.23
514.95	59915.37
515.12	60018.36
515.29	59957.50
515.47	60516.89
515.64	60636.26
515.81	60245.39
515.99	59770.26
516.16	58412.75
516.33	56231.37
516.51	54808.32
516.68	54057.01
516.85	53654.44
517.03	54265.32
517.20	56779.06
517.37	59180.45
517.54	59931.76
517.72	59526.84
517.89	56940.55
518.06	54925.35
518.24	55587.72
518.41	57413.34
518.58	58513.39
518.75	58553.18
518.93	58986.18
519.10	58901.92
519.27	59236.62
519.45	59660.26
519.62	60254.75
519.79	60573.06
519.96	60275.82
520.14	59849.84
520.31	58857.45
520.48	58967.46
520.65	59547.91
520.83	60528.59
521.00	60732.22
521.17	60200.92
521.34	60004.31
521.52	60385.82
521.69	60912.44
521.86	61270.54
522.03	60781.37
522.20	59721.11
522.38	58820.00
522.55	58789.58
522.72	59433.22
522.89	59370.03
523.07	59578.34
523.24	60058.15
523.41	60842.23
523.58	61179.26
523.75	61450.77
523.92	61413.32
524.10	61279.91
524.27	61127.77
524.44	60879.67
524.61	60842.23
524.78	60856.27
524.96	60659.66
525.13	60706.47
525.30	61020.11
525.47	61488.21
525.64	61277.57
525.81	60477.10
525.98	59194.49
526.16	57986.77
526.33	57375.89
526.50	57116.09
526.67	56807.14
526.84	57556.11
527.01	58138.91
527.18	59128.95
527.36	60065.17
527.53	60772.01
527.70	60793.07
527.87	60273.48
528.04	59938.78
528.21	60533.28
528.38	60968.61
528.55	61673.12
528.72	61783.12
528.89	62122.50
529.07	61659.07
529.24	60872.65
529.41	60486.46
529.58	59969.21
529.75	60243.05
529.92	60608.17
530.09	60823.50
530.26	61237.78
530.43	61619.28
530.60	61558.43
530.77	61862.70
530.94	61916.53
531.11	61399.27
531.28	61106.71
531.46	60938.19
531.63	61001.38
531.80	60985.00
531.97	60432.63
532.14	59955.16
532.31	58904.26
532.48	58206.78
532.65	58607.01
532.82	59290.45
532.99	60156.45
533.16	60523.91
533.33	61176.92
533.50	60828.18
533.67	60355.39
533.84	60144.75
534.01	60116.66
534.18	60282.84
534.35	60526.25
534.52	60296.88
534.69	60575.40
534.86	60713.50
535.03	61113.73
535.20	61485.87
535.37	61853.34
535.54	61907.17
535.71	61614.60
535.88	61099.68
536.05	60729.88
536.22	60172.83
536.38	59969.21
536.55	59561.95
536.72	59175.76
536.89	59147.68
537.06	60060.49
537.23	60704.13
537.40	60849.25
537.57	60961.59
537.74	60584.77
537.91	60619.88
538.08	60556.68
538.25	60704.13
538.42	60664.35
538.59	60327.31
538.75	59873.24
538.92	59812.39
539.09	59742.17
539.26	59587.70
539.43	59604.08
539.60	59515.14
539.77	59498.76
539.94	59271.73
540.11	58665.53
540.28	58424.45
540.44	58489.99
540.61	58773.19
540.78	58777.87
540.95	59128.95
541.12	59653.23
541.29	59779.62
541.46	60259.43
541.62	60240.71
541.79	60097.94
541.96	59348.96
542.13	59664.94
542.30	59784.30
542.47	59784.30
542.63	59805.37
542.80	59407.48
542.97	59634.51
543.14	59384.07
543.31	59447.27
543.48	60093.25
543.64	60762.65
543.81	61158.20
543.98	60884.36
544.15	60205.60
544.32	59578.34
544.48	59805.37
544.65	60395.18
544.82	60622.22
544.99	60062.83
545.16	59826.43
545.32	59622.81
545.49	60327.31
545.66	60629.24
545.83	60259.43
546.00	59943.46
546.16	59526.84
546.33	59707.07
546.50	59744.51
546.67	60259.43
546.83	59557.27
547.00	59753.88
547.17	59154.70
547.34	58731.06
547.50	58649.14
547.67	59185.13
547.84	59210.87
548.00	59662.60
548.17	59990.27
548.34	59760.90
548.51	59728.13
548.67	59922.40
548.84	59870.90
549.01	59833.46
549.18	59686.00
549.34	59653.23
549.51	59711.75
549.68	59671.96
549.84	59430.88
550.01	59524.50
550.18	59220.23
550.34	59257.68
550.51	59430.88
550.68	59522.16
550.84	59135.98
551.01	59063.42
551.18	59042.35
551.34	59318.54
551.51	59671.96
551.68	59852.18
551.84	59774.94
552.01	59604.08
552.18	59395.77
552.34	58571.91
552.51	58599.99
552.68	58555.52
552.84	58775.53
553.01	58993.20
553.18	59072.78
553.34	59185.13
553.51	59297.47
553.67	59491.74
553.84	59547.91
554.01	59526.84
554.17	59381.73
554.34	59372.37
554.51	59473.01
554.67	59959.84
554.84	59859.20
555.00	59224.92
555.17	59274.07
555.33	59161.72
555.50	58892.56
555.67	59044.69
555.83	59140.66
556.00	58822.34
556.16	58546.16
556.33	58391.68
556.50	57956.35
556.66	58344.87
556.83	57839.32
556.99	58049.97
557.16	58209.12
557.32	58438.50
557.49	58700.64
557.65	58663.19
557.82	58700.64
557.98	58461.90
558.15	58000.82
558.32	57134.82
558.48	56493.51
558.65	56858.63
558.81	57155.88
558.98	57389.94
559.14	57588.88
559.31	57464.83
559.47	57560.79
559.64	57439.09
559.80	56905.44
559.97	57415.68
560.13	57612.29
560.30	58300.40
560.46	58726.38
560.63	59330.24
560.79	58922.99
560.96	58595.31
561.12	57303.34
561.29	56870.34
561.45	57038.86
561.61	57354.83
561.78	57705.91
561.94	57822.93
562.11	57450.79
562.27	57509.30
562.44	57911.88
562.60	58087.42
562.77	58143.59
562.93	58122.52
563.10	58141.25
563.26	57684.84
563.42	57504.62
563.59	57609.95
563.75	57483.56
563.92	57373.55
564.08	57411.00
564.24	57733.99
564.41	57542.07
564.57	57551.43
564.74	57439.09
564.90	57443.77
565.07	57373.55
565.23	56823.53
565.39	56521.60
565.56	56142.43
565.72	56044.13
565.88	56299.25
566.05	56449.04
566.21	56467.76
566.38	56657.35
566.54	56839.91
566.70	57249.50
566.87	57338.44
567.03	57317.38
567.19	57666.12
567.36	57198.01
567.52	57212.06
567.68	56828.21
567.85	56280.52
568.01	56030.08
568.17	55744.54
568.34	55561.98
568.50	55896.67
568.66	55536.23
568.83	56289.88
568.99	56142.43
569.15	56278.18
569.32	56493.51
569.48	56278.18
569.64	56076.90
569.81	55571.34
569.97	55435.59
570.13	55569.00
570.30	55112.59
570.46	54745.13
570.62	54281.70
570.78	53954.03
570.95	54628.10
571.11	55105.57
571.27	55409.84
571.43	55262.39
571.60	55826.46
571.76	55943.48
571.92	56128.39
572.09	56346.06
572.25	56275.84
572.41	56346.06
572.57	56207.97
572.74	55973.91
572.90	55728.16
573.06	55826.46
573.22	55828.80
573.38	55786.67
573.55	55901.36
573.71	56016.04
573.87	56086.26
574.03	55533.89
574.20	55416.86
574.36	55519.85
574.52	55327.92
574.68	55112.59
574.84	54478.31
575.01	54337.88
575.17	54204.47
575.33	54328.52
575.49	54775.56
575.65	55028.34
575.82	54644.49
575.98	54639.81
576.14	54562.57
576.30	54820.03
576.46	55161.75
576.62	55037.70
576.79	54969.82
576.95	54705.34
577.11	54506.40
577.27	54850.45
577.43	54735.77
577.59	54419.80
577.75	54092.12
577.92	53570.18
578.08	53305.70
578.24	52924.19
578.40	53687.21
578.56	53497.62
578.72	53652.10
578.88	54087.44
579.04	54284.04
579.21	54246.60
579.37	54042.97
579.53	54181.06
579.69	54246.60
579.85	54571.93
580.01	54391.71
580.17	53783.17
580.33	53647.42
580.49	53881.47
580.65	54164.68
580.82	54433.84
580.98	54314.47
581.14	53977.43
581.30	54314.47
581.46	54012.54
581.62	54478.31
581.78	54396.39
581.94	54361.28
582.10	54387.03
582.26	54658.53
582.42	54513.42
582.58	54581.29
582.74	54429.16
582.90	54335.54
583.06	54616.40
583.22	54026.59
583.38	54143.61
583.54	54096.80
583.70	54307.45
583.86	54185.74
584.02	54085.10
584.18	54277.02
584.34	54131.91
584.50	54087.44
584.66	53581.88
584.82	53619.33
584.98	53521.03
585.14	52961.64
585.30	52310.97
