SpectraSuite Data File
++++++++++++++++++++++++++++++++++++
Date: Mon Oct 07 14:53:37 GMT-05:00 2013
User: price-jones
Dark Spectrum Present: No
Reference Spectrum Present: No
Number of Sampled Component Spectra: 1
Spectrometers: USB2+H05261
Integration Time (usec): 100000 (USB2+H05261)
Spectra Averaged: 1 (USB2+H05261)
Boxcar Smoothing: 0 (USB2+H05261)
Correct for Electrical Dark: No (USB2+H05261)
Strobe/Lamp Enabled: No (USB2+H05261)
Correct for Detector Non-linearity: No (USB2+H05261)
Correct for Stray Light: No (USB2+H05261)
Number of Pixels in Processed Spectrum: 2048
>>>>>Begin Processed Spectral Data<<<<<
365.73	0.00
365.92	0.00
366.12	0.00
366.32	0.00
366.52	0.00
366.72	0.00
366.91	0.00
367.11	0.00
367.31	0.00
367.51	0.00
367.70	0.00
367.90	0.00
368.10	0.00
368.30	0.00
368.49	0.00
368.69	0.00
368.89	0.00
369.09	0.00
369.28	0.00
369.48	0.00
369.68	0.00
369.87	0.00
370.07	0.00
370.27	0.00
370.47	594.50
370.66	3349.31
370.86	3779.97
371.06	4269.14
371.25	4245.73
371.45	3798.69
371.65	3550.59
371.84	3222.92
372.04	3330.58
372.24	3826.78
372.44	3992.95
372.63	3875.93
372.83	3599.74
373.03	3208.87
373.22	2977.16
373.42	3014.61
373.62	3646.55
373.81	3770.60
374.01	3873.59
374.21	3492.08
374.40	3290.79
374.60	3370.37
374.79	3775.28
374.99	4475.10
375.19	4755.97
375.38	4929.17
375.58	4554.68
375.78	4585.11
375.97	4526.60
376.17	4711.50
376.37	4652.98
376.56	4791.08
376.76	5160.88
376.95	5451.11
377.15	5727.29
377.35	6024.54
377.54	6251.57
377.74	6296.04
377.93	6389.66
378.13	6317.11
378.33	6005.81
378.52	5390.25
378.72	5385.57
378.91	5151.52
379.11	4990.02
379.31	4819.16
379.50	4870.65
379.70	5210.03
379.89	5741.33
380.09	6125.18
380.28	6209.44
380.48	6438.81
380.68	6083.05
380.87	6214.12
381.07	5561.11
381.26	5245.14
381.46	4847.25
381.65	4760.65
381.85	4599.15
382.04	4285.52
382.24	4145.09
382.43	3782.31
382.63	3679.32
382.83	3798.69
383.02	3887.63
383.22	3899.33
383.41	3843.16
383.61	4189.56
383.80	4762.99
384.00	5287.27
384.19	5905.17
384.39	6373.28
384.58	6324.13
384.78	6307.74
384.97	6118.16
385.17	5846.66
385.36	5488.56
385.56	5224.08
385.75	5451.11
385.95	5888.79
386.14	6590.95
386.34	6504.35
386.53	6167.31
386.72	5935.60
386.92	5757.72
387.11	6118.16
387.31	6356.90
387.50	6270.30
387.70	6108.80
387.89	6127.52
388.09	6136.88
388.28	6113.48
388.48	6377.96
388.67	6647.12
388.86	7489.71
389.06	7971.86
389.25	8290.18
389.45	8416.57
389.64	8358.05
389.84	8376.78
390.03	8091.23
390.22	8217.62
390.42	8451.67
390.61	8985.32
390.81	9399.59
391.00	9743.65
391.19	9853.66
391.39	9460.45
391.58	8795.73
391.78	8325.29
391.97	8032.72
392.16	7517.80
392.36	6963.09
392.55	5495.58
392.75	4564.04
392.94	3695.71
393.13	3630.17
393.33	4058.49
393.52	5343.44
393.71	6490.31
393.91	7353.96
394.10	8013.99
394.29	8950.21
394.49	9308.31
394.68	10291.34
394.88	10370.91
395.07	10450.49
395.26	10609.65
395.46	10377.94
395.65	9762.37
395.84	8517.21
396.04	7063.74
396.23	5757.72
396.42	4788.74
396.62	4638.94
396.81	5287.27
397.00	6927.99
397.19	8538.27
397.39	10307.72
397.58	11576.29
397.77	12423.56
397.97	12889.33
398.16	12858.90
398.35	13614.90
398.55	13907.46
398.74	14310.04
398.93	14471.53
399.12	14274.93
399.32	13898.10
399.51	14223.44
399.70	15274.34
399.90	15140.93
400.09	14995.81
400.28	14932.62
400.47	15110.50
400.67	15714.36
400.86	16301.83
401.05	16046.71
401.24	16229.27
401.44	16409.50
401.63	16376.73
401.82	16865.90
402.01	16498.44
402.21	16744.19
402.40	16959.52
402.59	16269.06
402.78	15632.44
402.97	15304.76
403.17	15765.85
403.36	16610.78
403.55	17273.15
403.74	17942.55
403.93	16886.97
404.13	15716.70
404.32	15286.04
404.51	16100.55
404.70	16985.27
404.89	17228.68
405.09	17050.80
405.28	16404.81
405.47	16343.96
405.66	16240.98
405.85	15822.02
406.05	15487.32
406.24	15843.09
406.43	16524.18
406.62	17123.36
406.81	17261.45
407.00	16432.90
407.20	15838.41
407.39	16229.27
407.58	17193.58
407.77	17556.36
407.96	18317.03
408.15	18494.91
408.34	18314.69
408.54	19524.75
408.73	19403.04
408.92	19407.72
409.11	18806.20
409.30	17930.84
409.49	16610.78
409.68	15805.64
409.87	15154.97
410.07	16016.29
410.26	17174.85
410.45	18721.95
410.64	19007.49
410.83	19391.34
411.02	19927.32
411.21	20592.03
411.40	20505.43
411.59	20409.47
411.78	20161.37
411.98	19838.38
412.17	20685.65
412.36	20601.40
412.55	20240.95
412.74	20081.80
412.93	19271.97
413.12	19365.59
413.31	21153.76
413.50	21610.17
413.69	21891.03
413.88	21046.10
414.07	20341.60
414.26	20854.17
414.45	21261.43
414.64	21640.59
414.83	21762.30
415.02	21212.28
415.22	20926.73
415.41	21886.35
415.60	22431.69
415.79	22993.42
415.98	23796.23
416.17	23761.12
416.36	23494.30
416.55	23047.26
416.74	22178.92
416.93	21378.45
417.12	21570.38
417.31	21809.11
417.50	22061.89
417.69	22923.21
417.88	22923.21
418.07	22693.83
418.26	22092.32
418.45	22813.20
418.64	22867.03
418.83	23831.33
419.02	23854.74
419.21	23506.00
419.39	22518.29
419.58	21277.81
419.77	21785.71
419.96	22441.06
420.15	23981.13
420.34	24414.13
420.53	24987.56
420.72	25460.35
420.91	25556.31
421.10	25025.01
421.29	24613.07
421.48	23941.34
421.67	25032.03
421.86	24479.66
422.05	23026.19
422.24	20709.06
422.43	19988.18
422.61	22235.09
422.80	24259.65
422.99	24474.98
423.18	23718.99
423.37	22972.36
423.56	23094.07
423.75	23494.30
423.94	23655.79
424.13	22787.46
424.32	22850.65
424.50	22993.42
424.69	22202.32
424.88	22878.74
425.07	22913.84
425.26	22904.48
425.45	21898.05
425.64	22134.45
425.83	21958.91
426.01	23552.81
426.20	23981.13
426.39	23655.79
426.58	22178.92
426.77	20308.83
426.96	19559.86
427.15	20294.79
427.33	21722.51
427.52	22850.65
427.71	23033.21
427.90	22719.58
428.09	22490.21
428.28	22221.05
428.46	21298.88
428.65	20891.62
428.84	21626.55
429.03	21944.86
429.22	20819.07
429.40	19962.43
429.59	17642.96
429.78	15660.52
429.97	15452.22
430.16	16297.15
430.34	16301.83
430.53	16156.72
430.72	16423.54
430.91	18036.17
431.10	21373.77
431.28	24805.00
431.47	27250.86
431.66	27414.69
431.85	25146.72
432.03	23094.07
432.22	22401.27
432.41	22773.41
432.60	25355.02
432.79	26412.95
432.97	27307.03
433.16	26677.43
433.35	24013.90
433.54	21862.94
433.72	20327.55
433.91	21420.58
434.10	23718.99
434.28	25008.62
434.47	26389.54
434.66	26047.82
434.85	25448.64
435.03	25032.03
435.22	26113.36
435.41	27658.11
435.59	27470.87
435.78	28006.85
435.97	28311.12
436.16	28669.22
436.34	28343.89
436.53	27758.75
436.72	27927.27
436.90	26452.73
437.09	26642.32
437.28	26029.10
437.46	26857.65
437.65	26974.67
437.84	25340.98
438.02	22984.06
438.21	22562.76
438.40	24112.20
438.58	26302.94
438.77	26764.03
438.96	26962.97
439.14	28208.14
439.33	28898.59
439.52	29387.77
439.70	28418.78
439.89	28191.75
440.08	27395.97
440.26	27171.28
440.45	28037.28
440.63	29837.15
440.82	31639.36
441.01	31386.58
441.19	30981.67
441.38	31299.98
441.57	32292.37
441.75	33109.22
441.94	33017.94
442.12	32697.28
442.31	33275.40
442.50	33268.37
442.68	32872.82
442.87	32198.75
443.05	32149.60
443.24	32292.37
443.43	32826.01
443.61	33722.44
443.80	34164.80
443.98	32203.43
444.17	31962.36
444.35	34618.86
444.54	34930.16
444.73	34029.05
444.91	33022.62
445.10	31660.43
445.28	30398.88
445.47	29942.47
445.65	30125.04
445.84	30904.43
446.02	31920.23
446.21	32346.20
446.39	32512.38
446.58	32816.65
446.77	33591.37
446.95	33291.78
447.14	34728.87
447.32	34745.25
447.51	34574.39
447.69	33563.28
447.88	32744.09
448.06	32980.49
448.25	34099.26
448.43	34216.29
448.62	33659.24
448.80	33125.60
448.99	33858.19
449.17	34050.11
449.36	33593.71
449.54	35222.72
449.73	35512.95
449.91	36027.87
450.10	37060.04
450.28	37600.71
450.46	37230.90
450.65	37591.34
450.83	36914.93
451.02	36474.91
451.20	36201.07
451.39	35803.17
451.57	35800.83
451.76	35852.33
451.94	35473.16
452.13	34642.27
452.31	33682.65
452.49	32058.32
452.68	32201.09
452.86	32737.07
453.05	32809.63
453.23	33713.08
453.42	34733.55
453.60	35388.90
453.78	35892.12
453.97	34902.07
454.15	35409.96
454.34	34373.11
454.52	35101.01
454.70	34267.78
454.89	34389.49
455.07	34597.80
455.26	35206.34
455.44	36444.48
455.62	36531.08
455.81	37214.52
455.99	37034.30
456.17	36538.10
456.36	36704.28
456.54	37921.36
456.73	37567.94
456.91	38274.78
457.09	38717.14
457.28	39496.54
457.46	38040.73
457.64	37572.62
457.83	36182.34
458.01	35409.96
458.19	36404.69
458.38	36580.23
458.56	37626.45
458.74	37958.81
458.93	37280.05
459.11	36734.71
459.29	36601.30
459.48	36945.36
459.66	37258.99
459.84	37221.54
460.03	37659.22
460.21	37570.28
460.39	38487.77
460.57	38242.01
460.76	38604.80
460.94	39100.99
461.12	38396.49
461.31	38567.35
461.49	38939.49
461.67	38761.61
461.85	39756.34
462.04	39267.17
462.22	40102.74
462.40	39484.84
462.59	39196.95
462.77	39185.25
462.95	39250.78
463.13	38878.64
463.32	38485.43
463.50	38253.72
463.68	38188.18
463.86	38630.54
464.05	37940.08
464.23	37574.96
464.41	37179.41
464.59	36306.39
464.78	38281.80
464.96	37797.31
465.14	37581.98
465.32	38658.63
465.50	39386.54
465.69	40320.41
465.87	39026.09
466.05	38087.54
466.23	36821.31
466.41	35395.92
466.60	36804.92
466.78	37137.28
466.96	37057.70
467.14	37827.74
467.32	38770.97
467.51	38302.87
467.69	36893.86
467.87	38033.71
468.05	38534.58
468.23	38337.98
468.41	38637.56
468.60	38424.57
468.78	38836.51
468.96	38143.71
469.14	39290.57
469.32	39489.52
469.50	37553.90
469.69	38059.45
469.87	37062.38
470.05	36898.55
470.23	37556.24
470.41	36945.36
470.59	37773.91
470.77	37727.10
470.95	38354.36
471.14	39108.01
471.32	39232.06
471.50	41207.47
471.68	41453.23
471.86	41867.50
472.04	41745.80
472.22	41684.94
472.40	39819.53
472.58	39585.48
472.77	39405.26
472.95	39819.53
473.13	41095.13
473.31	40444.46
473.49	40224.45
473.67	41043.63
473.85	41340.88
474.03	41961.12
474.21	42557.96
474.39	42801.38
474.57	42960.53
474.75	43342.04
474.93	42766.27
475.12	41752.82
475.30	42155.39
475.48	42260.71
475.66	42405.83
475.84	41970.49
476.02	41516.42
476.20	41284.71
476.38	42230.29
476.56	43229.69
476.74	43419.28
476.92	43643.97
477.10	44320.38
477.28	45659.17
477.46	45705.98
477.64	46059.40
477.82	45958.76
478.00	46426.87
478.18	45680.24
478.36	45453.20
478.54	45521.08
478.72	45911.95
478.90	46983.91
479.08	47669.69
479.26	48299.30
479.44	48348.45
479.62	47929.49
479.80	47868.64
479.98	48086.31
480.16	48418.66
480.34	47999.71
480.52	48292.27
480.70	48502.92
480.88	48605.91
481.06	49457.86
481.24	49336.15
481.41	50012.57
481.59	50660.90
481.77	50457.27
481.95	49820.64
482.13	49853.41
482.31	50213.85
482.49	50480.67
482.67	50513.44
482.85	50836.44
483.03	51086.87
483.21	51573.70
483.39	51372.42
483.57	50714.73
483.74	50901.97
483.92	51068.15
484.10	51051.76
484.28	51915.42
484.46	52353.10
484.64	52640.99
484.82	51664.99
485.00	51442.63
485.18	50508.76
485.35	49682.55
485.53	46986.25
485.71	43178.20
485.89	41764.52
486.07	44165.91
486.25	47503.51
486.43	49984.48
486.61	50745.15
486.78	50555.57
486.96	50499.40
487.14	51838.18
487.32	52804.83
487.50	53652.10
487.68	54262.98
487.85	54770.88
488.03	54681.94
488.21	54527.46
488.39	53829.98
488.57	53296.34
488.75	52767.38
488.92	53797.21
489.10	55573.68
489.28	57029.49
489.46	57415.68
489.64	56945.23
489.81	57530.37
489.99	57371.21
490.17	57221.42
490.35	57785.49
490.53	56954.60
490.70	56856.29
490.88	56636.28
491.06	57420.36
491.24	57406.32
491.41	56715.86
491.59	55323.24
491.77	54548.53
491.95	55489.42
492.13	56222.01
492.30	57460.15
492.48	58314.45
492.66	58878.52
492.84	58871.49
493.01	58501.69
493.19	58185.72
493.37	57687.18
493.54	57303.34
493.72	58005.50
493.90	59032.99
494.08	59365.35
494.25	59863.88
494.43	60011.34
494.61	60170.49
494.79	60392.84
494.96	60233.69
495.14	59707.07
495.32	58941.71
495.49	58288.70
495.67	59203.85
495.85	60463.06
496.02	60769.67
496.20	60507.53
496.38	60030.06
496.55	60161.13
496.73	60701.79
496.91	60589.45
497.09	61312.67
497.26	61446.08
497.44	60903.08
497.62	60491.15
497.79	59721.11
497.97	58766.17
498.14	58768.51
498.32	59737.49
498.50	60605.83
498.67	61085.64
498.85	61069.26
499.03	61059.90
499.20	61492.89
499.38	61368.85
499.56	61190.97
499.73	60814.14
499.91	60313.26
500.08	60189.22
500.26	59416.84
500.44	59707.07
500.61	60470.08
500.79	60233.69
500.97	60013.68
501.14	59791.33
501.32	59643.87
501.49	59592.38
501.67	59756.22
501.84	60458.38
502.02	60453.70
502.20	60872.65
502.37	61066.92
502.55	60905.42
502.72	61446.08
502.90	61799.50
503.07	61731.63
503.25	61233.10
503.43	60568.38
503.60	59831.11
503.78	59330.24
503.95	59753.88
504.13	60945.21
504.30	61818.23
504.48	61605.24
504.65	61221.39
504.83	61125.43
505.01	61963.34
505.18	62080.37
505.36	62602.31
505.53	62752.10
505.71	62782.53
505.88	62894.88
506.06	62485.28
506.23	62099.09
506.41	61776.10
506.58	61965.68
506.76	62157.61
506.93	61965.68
507.11	61628.65
507.28	61888.45
507.46	61368.85
507.63	60781.37
507.81	60746.26
507.98	61022.45
508.16	61670.78
508.33	62122.50
508.50	62337.83
508.68	62536.77
508.85	63068.08
509.03	63114.89
509.20	62920.62
509.38	62171.65
509.55	61717.59
509.73	61520.98
509.90	62262.93
510.08	62279.31
510.25	62335.49
510.42	62166.97
510.60	61876.74
510.77	62518.05
510.95	62738.06
511.12	62838.70
511.30	63182.76
511.47	63402.77
511.64	63505.76
511.82	63077.44
511.99	62382.30
512.17	61865.04
512.34	61673.12
512.51	61984.41
512.69	61858.02
512.86	62110.80
513.04	62574.22
513.21	62438.47
513.38	62244.21
513.56	61670.78
513.73	61078.62
513.90	61378.21
514.08	61462.47
514.25	61614.60
514.43	61953.98
514.60	62047.60
514.77	62108.46
514.95	62152.93
515.12	62281.66
515.29	62237.19
515.47	62670.18
515.64	62869.13
515.81	62712.31
515.99	61984.41
516.16	61031.81
516.33	58808.30
516.51	57361.85
516.68	56839.91
516.85	56516.92
517.03	56643.30
517.20	59107.89
517.37	61291.61
517.54	62281.66
517.72	61738.65
517.89	59819.41
518.06	57516.32
518.24	57703.57
518.41	59686.00
518.58	60966.27
518.75	61062.24
518.93	61333.74
519.10	61169.90
519.27	61469.49
519.45	61853.34
519.62	62340.17
519.79	62618.69
519.96	62468.90
520.14	62148.24
520.31	61518.64
520.48	61410.98
520.65	61673.12
520.83	62555.50
521.00	62831.68
521.17	62583.58
521.34	62185.69
521.52	62377.62
521.69	63058.71
521.86	63391.07
522.03	63086.80
522.20	62061.64
522.38	61099.68
522.55	61064.58
522.72	61757.38
522.89	61787.80
523.07	62092.07
523.24	62333.15
523.41	62794.23
523.58	63360.64
523.75	63606.40
523.92	63622.78
524.10	63447.24
524.27	63480.01
524.44	63255.32
524.61	63096.16
524.78	63054.03
524.96	62756.78
525.13	62986.16
525.30	63086.80
525.47	63552.57
525.64	63456.60
525.81	62913.60
525.98	61659.07
526.16	60292.20
526.33	59667.28
526.50	59552.59
526.67	59084.48
526.84	59728.13
527.01	60474.76
527.18	61272.88
527.36	62078.03
527.53	62852.75
527.70	63023.61
527.87	62672.52
528.04	62054.62
528.21	62429.11
528.38	63185.10
528.55	63810.03
528.72	63964.50
528.89	64182.17
529.07	63941.10
529.24	63402.77
529.41	62618.69
529.58	62171.65
529.75	62220.80
529.92	62592.95
530.09	62906.58
530.26	63501.07
530.43	63587.67
530.60	63810.03
530.77	64090.89
530.94	64280.47
531.11	63590.01
531.28	63098.50
531.46	63178.08
531.63	63295.11
531.80	62972.11
531.97	62632.74
532.14	62113.14
532.31	61284.59
532.48	60647.96
532.65	60512.21
532.82	61317.35
532.99	62288.68
533.16	62887.85
533.33	63152.33
533.50	63241.28
533.67	62319.10
533.84	62143.56
534.01	62284.00
534.18	62546.14
534.35	62621.03
534.52	62475.92
534.69	62784.87
534.86	62920.62
535.03	63164.04
535.20	63594.70
535.37	63971.52
535.54	64221.96
535.71	63763.21
535.88	63505.76
536.05	62644.44
536.22	62693.59
536.38	62291.02
536.55	61841.63
536.72	61352.46
536.89	61312.67
537.06	61991.43
537.23	62897.22
537.40	62962.75
537.57	62962.75
537.74	62901.90
537.91	62731.04
538.08	62702.95
538.25	62719.34
538.42	62979.14
538.59	62859.77
538.75	62071.01
538.92	61984.41
539.09	61832.27
539.26	61719.93
539.43	61602.90
539.60	61588.86
539.77	61780.78
539.94	61729.29
540.11	61085.64
540.28	60530.93
540.44	60687.75
540.61	60877.33
540.78	61071.60
540.95	61656.73
541.12	61771.42
541.29	62094.41
541.46	62279.31
541.62	62312.08
541.79	62185.69
541.96	61656.73
542.13	61455.45
542.30	62005.47
542.47	62040.58
542.63	61958.66
542.80	61698.86
542.97	61822.91
543.14	61696.52
543.31	61572.47
543.48	62101.43
543.64	62824.66
543.81	63110.20
543.98	62883.17
544.15	62403.36
544.32	61771.42
544.48	61902.49
544.65	62288.68
544.82	62784.87
544.99	62195.06
545.16	62082.71
545.32	61733.97
545.49	62321.44
545.66	62632.74
545.83	62482.94
546.00	62162.29
546.16	61759.72
546.33	61865.04
546.50	61886.10
546.67	62124.84
546.83	61979.73
547.00	61972.70
547.17	61256.50
547.34	60786.05
547.50	60882.02
547.67	61340.76
547.84	61258.84
548.00	61418.00
548.17	62073.35
548.34	61829.93
548.51	61930.58
548.67	61851.00
548.84	62173.99
549.01	61914.19
549.18	61993.77
549.34	61879.08
549.51	61811.21
549.68	61893.13
549.84	61549.07
550.01	61640.35
550.18	61317.35
550.34	61457.79
550.51	61532.68
550.68	61560.77
550.84	61151.18
551.01	61247.14
551.18	61207.35
551.34	61425.02
551.51	61897.81
551.68	62021.86
551.84	61998.45
552.01	61738.65
552.18	61549.07
552.34	60933.51
552.51	60774.35
552.68	60441.99
552.84	61024.79
553.01	61284.59
553.18	61272.88
553.34	61160.54
553.51	61350.12
553.67	61535.02
553.84	61698.86
554.01	61691.84
554.17	61319.70
554.34	61691.84
554.51	61635.67
554.67	61881.42
554.84	61787.80
555.00	61343.10
555.17	61350.12
555.33	61186.28
555.50	61324.38
555.67	61172.24
555.83	61062.24
556.00	60722.86
556.16	60818.82
556.33	60411.57
556.50	60463.06
556.66	60488.80
556.83	60203.26
556.99	60278.16
557.16	60226.66
557.32	60669.03
557.49	60760.31
557.65	60741.58
557.82	60690.09
557.98	60477.10
558.15	60175.17
558.32	59442.59
558.48	58740.42
558.65	58859.79
558.81	59351.30
558.98	59337.26
559.14	59671.96
559.31	59550.25
559.47	59664.94
559.64	59475.35
559.80	59344.28
559.97	59384.07
560.13	59650.89
560.30	60306.24
560.46	60973.30
560.63	60980.32
560.79	61340.76
560.96	60757.97
561.12	59887.29
561.29	59072.78
561.45	59079.80
561.61	59606.42
561.78	60013.68
561.94	59875.58
562.11	59725.79
562.27	59620.47
562.44	59854.52
562.60	60048.78
562.77	60151.77
562.93	59969.21
563.10	60020.70
563.26	59618.13
563.42	59643.87
563.59	59318.54
563.75	59550.25
563.92	59374.71
564.08	59391.09
564.24	59777.28
564.41	59655.57
564.57	59725.79
564.74	59632.17
564.90	59409.82
565.07	59157.04
565.23	58752.13
565.39	58396.37
565.56	58340.19
565.72	58061.67
565.88	58333.17
566.05	58475.94
566.21	58681.91
566.38	58990.86
566.54	59098.53
566.70	59260.02
566.87	59292.79
567.03	59370.03
567.19	59728.13
567.36	59468.33
567.52	59238.96
567.68	59016.61
567.85	58508.71
568.01	58162.31
568.17	57879.11
568.34	57762.08
568.50	57703.57
568.66	57813.57
568.83	58389.34
568.99	58307.43
569.15	58602.33
569.32	58394.03
569.48	58342.53
569.64	57998.48
569.81	57652.08
569.97	57537.39
570.13	57794.85
570.30	57434.41
570.46	57186.31
570.62	56650.33
570.78	56350.74
570.95	56729.90
571.11	57411.00
571.27	57382.91
571.43	57499.94
571.60	57982.09
571.76	58049.97
571.92	58365.94
572.09	58426.79
572.25	58176.36
572.41	58415.09
572.57	58183.38
572.74	58272.32
572.90	57825.28
573.06	57872.09
573.22	58021.88
573.38	57844.00
573.55	57935.28
573.71	58028.90
573.87	57921.24
574.03	57684.84
574.20	57523.35
574.36	57455.47
574.52	57483.56
574.68	57387.60
574.84	56933.53
575.01	56563.73
575.17	56537.98
575.33	56655.01
575.49	56886.72
575.65	57219.08
575.82	56935.87
575.98	56488.83
576.14	56898.42
576.30	57050.56
576.46	57265.89
576.62	57064.60
576.79	57111.41
576.95	56865.66
577.11	56765.01
577.27	56938.21
577.43	56966.30
577.59	56509.89
577.75	56317.97
577.92	55742.20
578.08	55580.70
578.24	55590.06
578.40	55767.94
578.56	55976.25
578.72	56114.34
578.88	56121.37
579.04	56559.05
579.21	56619.90
579.37	56418.61
579.53	56559.05
579.69	56622.24
579.85	56949.92
580.01	56655.01
580.17	56367.12
580.33	55983.27
580.49	56231.37
580.65	56500.53
580.82	56479.47
580.98	56563.73
581.14	56601.18
581.30	56397.55
581.46	56360.10
581.62	56638.62
581.78	56711.18
581.94	56629.26
582.10	56587.13
582.26	56755.65
582.42	56849.27
582.58	56657.35
582.74	56790.76
582.90	56687.78
583.06	56676.07
583.22	56334.35
583.38	56339.04
583.54	56149.45
583.70	56210.31
583.86	56287.54
584.02	56128.39
584.18	56453.72
584.34	56175.20
584.50	56282.86
584.66	56004.34
584.82	55725.81
584.98	55763.26
585.14	55604.11
