SpectraSuite Data File
++++++++++++++++++++++++++++++++++++
Date: Mon Oct 07 14:53:02 GMT-05:00 2013
User: price-jones
Dark Spectrum Present: No
Reference Spectrum Present: No
Number of Sampled Component Spectra: 1
Spectrometers: USB2+H05261
Integration Time (usec): 100000 (USB2+H05261)
Spectra Averaged: 1 (USB2+H05261)
Boxcar Smoothing: 0 (USB2+H05261)
Correct for Electrical Dark: No (USB2+H05261)
Strobe/Lamp Enabled: No (USB2+H05261)
Correct for Detector Non-linearity: No (USB2+H05261)
Correct for Stray Light: No (USB2+H05261)
Number of Pixels in Processed Spectrum: 2048
>>>>>Begin Processed Spectral Data<<<<<
365.73	0.00
365.92	0.00
366.12	0.00
366.32	0.00
366.52	0.00
366.72	0.00
366.91	0.00
367.11	0.00
367.31	0.00
367.51	0.00
367.70	0.00
367.90	0.00
368.10	0.00
368.30	0.00
368.49	0.00
368.69	0.00
368.89	0.00
369.09	0.00
369.28	0.00
369.48	0.00
369.68	0.00
369.87	0.00
370.07	0.00
370.27	0.00
370.47	568.75
370.66	2913.97
370.86	3295.47
371.06	3641.87
371.25	3791.67
371.45	3267.39
371.65	3129.30
371.84	2801.62
372.04	2846.09
372.24	3372.71
372.44	3461.65
372.63	3468.67
372.83	3162.06
373.03	2853.11
373.22	2588.63
373.42	2780.56
373.62	3253.34
373.81	3398.46
374.01	3382.07
374.21	3012.27
374.40	2778.22
374.60	3045.04
374.79	3353.99
374.99	3808.05
375.19	4234.03
375.38	4248.07
375.58	3899.33
375.78	3854.86
375.97	3988.27
376.17	4236.37
376.37	4091.26
376.56	4156.79
376.76	4311.27
376.95	4725.54
377.15	5137.48
377.35	5085.98
377.54	5458.13
377.74	5497.92
377.93	5565.79
378.13	5416.00
378.33	5121.09
378.52	4601.49
378.72	4454.04
378.91	4454.04
379.11	4540.64
379.31	4140.41
379.50	4222.33
379.70	4540.64
379.89	5085.98
380.09	5334.08
380.28	5528.35
380.48	5514.30
380.68	5338.76
380.87	5303.65
381.07	4964.28
381.26	4526.60
381.46	4147.43
381.65	3995.29
381.85	4009.34
382.04	3822.09
382.24	3653.58
382.43	3405.48
382.63	3267.39
382.83	3386.76
383.02	3449.95
383.22	3309.52
383.41	3213.56
383.61	3667.62
383.80	4091.26
384.00	4599.15
384.19	5254.50
384.39	5380.89
384.58	5462.81
384.78	5305.99
384.97	5240.46
385.17	5053.22
385.36	4629.58
385.56	4440.00
385.75	4734.90
385.95	5231.10
386.14	5542.39
386.34	5612.60
386.53	5270.89
386.72	5032.15
386.92	5015.77
387.11	5294.29
387.31	5579.84
387.50	5638.35
387.70	5315.36
387.89	5214.71
388.09	5364.51
388.28	5322.38
388.48	5397.28
388.67	5809.21
388.86	6452.86
389.06	6827.34
389.25	7171.40
389.45	7236.94
389.64	7166.72
389.84	7119.91
390.03	6892.88
390.22	6979.48
390.42	7442.90
390.61	7815.05
390.81	8456.36
391.00	8561.68
391.19	8292.52
391.39	7950.80
391.58	7611.42
391.78	7173.74
391.97	7040.33
392.16	6427.11
392.36	5776.44
392.55	4652.98
392.75	3737.84
392.94	2981.84
393.13	3052.06
393.33	3618.47
393.52	4723.20
393.71	5811.55
393.91	6438.81
394.10	6778.19
394.29	7737.81
394.49	8156.77
394.68	8865.95
394.88	8919.78
395.07	9092.98
395.26	9013.40
395.46	8493.80
395.65	8245.71
395.84	7246.30
396.04	6139.23
396.23	4896.40
396.42	4264.46
396.62	4023.38
396.81	4746.61
397.00	5846.66
397.19	7501.42
397.39	8922.12
397.58	10120.48
397.77	10696.25
397.97	11087.12
398.16	11073.07
398.35	11550.54
398.55	11953.12
398.74	12428.24
398.93	12461.01
399.12	12472.71
399.32	12025.67
399.51	12269.09
399.70	12950.18
399.90	12854.22
400.09	13046.15
400.28	12879.97
400.47	12856.56
400.67	13481.49
400.86	13547.02
401.05	13888.74
401.24	13982.36
401.44	14146.20
401.63	14347.48
401.82	14078.32
402.01	14139.18
402.21	14616.65
402.40	14429.40
402.59	14200.03
402.78	13341.05
402.97	13149.13
403.17	13540.00
403.36	14061.94
403.55	14799.21
403.74	15159.65
403.93	14382.59
404.13	13523.62
404.32	12996.99
404.51	13715.54
404.70	14651.75
404.89	14981.77
405.09	14288.97
405.28	13980.02
405.47	14097.05
405.66	14099.39
405.85	13619.58
406.05	13497.87
406.24	13696.82
406.43	14040.87
406.62	14710.27
406.81	14672.82
407.00	14141.52
407.20	13767.03
407.39	13816.18
407.58	14523.02
407.77	15358.60
407.96	15632.44
408.15	15679.25
408.34	15948.41
408.54	16629.51
408.73	16793.34
408.92	16184.80
409.11	15894.58
409.30	15262.63
409.49	14150.88
409.68	13310.63
409.87	13207.64
410.07	13961.30
410.26	14836.66
410.45	15871.17
410.64	16107.57
410.83	16589.72
411.02	17181.87
411.21	17996.38
411.40	17493.16
411.59	17507.21
411.78	17509.55
411.98	17209.96
412.17	17921.48
412.36	17284.86
412.55	17490.82
412.74	16961.86
412.93	16582.70
413.12	16556.95
413.31	18307.67
413.50	18684.50
413.69	19002.81
413.88	17968.29
414.07	17504.87
414.26	17748.28
414.45	18427.04
414.64	18438.74
414.83	18443.42
415.02	18190.64
415.22	17984.68
415.41	18534.70
415.60	19075.37
415.79	20060.73
415.98	20318.19
416.17	20205.84
416.36	19716.67
416.55	19751.78
416.74	18820.25
416.93	18642.37
417.12	18441.08
417.31	18349.80
417.50	18771.10
417.69	19531.77
417.88	19241.54
418.07	19295.38
418.26	19194.73
418.45	19110.47
418.64	19878.17
418.83	20840.13
419.02	20428.20
419.21	20395.43
419.39	18986.43
419.58	18328.74
419.77	18541.72
419.96	19159.63
420.15	20030.30
420.34	21071.84
420.53	21490.80
420.72	21965.93
420.91	21820.81
421.10	21479.10
421.29	21429.94
421.48	20552.24
421.67	21675.70
421.86	21022.69
422.05	19330.48
422.24	17720.20
422.43	17603.17
422.61	19513.05
422.80	20678.63
422.99	20510.11
423.18	20119.24
423.37	19641.78
423.56	19740.08
423.75	19936.68
423.94	20692.68
424.13	19407.72
424.32	19728.38
424.50	19714.33
424.69	19323.46
424.88	19428.79
425.07	19271.97
425.26	19545.81
425.45	19264.95
425.64	18504.28
425.83	18771.10
426.01	19992.86
426.20	20388.41
426.39	20325.21
426.58	18576.83
426.77	17369.12
426.96	16786.32
427.15	17455.72
427.33	19176.01
427.52	19609.01
427.71	19403.04
427.90	19578.58
428.09	19250.91
428.28	18490.23
428.46	18106.38
428.65	18162.56
428.84	18614.28
429.03	18998.13
429.22	17565.72
429.40	16737.17
429.59	15220.50
429.78	13582.13
429.97	13551.70
430.16	13673.41
430.34	13820.86
430.53	13727.24
430.72	13914.48
430.91	15681.59
431.10	18801.52
431.28	21649.96
431.47	22918.53
431.66	23751.76
431.85	21184.19
432.03	19452.19
432.22	18937.27
432.41	19838.38
432.60	21935.50
432.79	22972.36
432.97	23178.33
433.16	22920.87
433.35	20800.34
433.54	18569.81
433.72	17420.61
433.91	18223.41
434.10	20177.76
434.28	21809.11
434.47	22766.39
434.66	22501.91
434.85	21675.70
435.03	21600.80
435.22	22225.73
435.41	23674.52
435.59	23899.21
435.78	23981.13
435.97	24727.76
436.16	24821.38
436.34	24161.35
436.53	23903.89
436.72	24011.56
436.90	22843.63
437.09	22434.03
437.28	22281.90
437.46	22867.03
437.65	22881.08
437.84	21184.19
438.02	19854.76
438.21	19393.68
438.40	20734.81
438.58	22235.09
438.77	22876.40
438.96	22909.16
439.14	23974.11
439.33	24772.23
439.52	24985.22
439.70	24641.16
439.89	23770.48
440.08	23569.19
440.26	23351.52
440.45	24191.78
440.63	25797.38
440.82	26696.15
441.01	26726.58
441.19	25879.30
441.38	26677.43
441.57	27906.21
441.75	27910.89
441.94	28201.11
442.12	28112.17
442.31	28713.69
442.50	28723.05
442.68	28386.02
442.87	27920.25
443.05	27510.66
443.24	27747.05
443.43	28624.75
443.61	28875.19
443.80	29219.25
443.98	27819.61
444.17	27786.84
444.35	29474.37
444.54	30043.12
444.73	29465.00
444.91	28348.57
445.10	26981.70
445.28	26089.95
445.47	25624.18
445.65	25921.43
445.84	26312.30
446.02	27541.08
446.21	27920.25
446.39	27960.04
446.58	28053.66
446.77	29333.93
446.95	29116.26
447.14	29813.74
447.32	29991.62
447.51	29647.57
447.69	28561.56
447.88	28081.75
448.06	28409.42
448.25	29567.99
448.43	29472.03
448.62	28732.42
448.80	28776.89
448.99	28725.39
449.17	29015.62
449.36	28854.12
449.54	30204.61
449.73	30815.49
449.91	30937.20
450.10	31974.06
450.28	32002.14
450.46	32016.19
450.65	31917.89
450.83	31917.89
451.02	31138.49
451.20	30941.88
451.39	30904.43
451.57	30946.56
451.76	30745.28
451.94	30595.48
452.13	30417.60
452.31	28521.77
452.49	26965.31
452.68	28065.36
452.86	27955.36
453.05	27835.99
453.23	29214.57
453.42	29422.87
453.60	30359.09
453.78	30904.43
453.97	30534.63
454.15	30511.22
454.34	29682.67
454.52	29986.94
454.70	29369.04
454.89	29839.49
455.07	29986.94
455.26	30373.13
455.44	31218.07
455.62	32217.47
455.81	31941.29
455.99	31625.32
456.17	31257.85
456.36	31541.06
456.54	32617.71
456.73	32306.41
456.91	33259.01
457.09	32762.82
457.28	33233.27
457.46	32346.20
457.64	32339.18
457.83	31290.62
458.01	30562.72
458.19	31473.18
458.38	31061.25
458.56	32854.10
458.74	32091.09
458.93	31864.05
459.11	31803.20
459.29	31274.24
459.48	31768.09
459.66	31543.40
459.84	32217.47
460.03	32329.82
460.21	32121.51
460.39	32851.76
460.57	32877.51
460.76	33486.04
460.94	33420.51
461.12	32938.36
461.31	33324.55
461.49	32868.14
461.67	33127.94
461.85	34073.52
462.04	33785.63
462.22	34213.95
462.40	34366.09
462.59	33972.88
462.77	34080.54
462.95	34092.24
463.13	33656.90
463.32	33324.55
463.50	32926.66
463.68	33078.79
463.86	33097.52
464.05	32718.35
464.23	31833.63
464.41	32039.59
464.59	31557.44
464.78	33109.22
464.96	32753.46
465.14	32563.87
465.32	33324.55
465.50	34333.32
465.69	34244.38
465.87	33975.22
466.05	32591.96
466.23	31194.66
466.41	30373.13
466.60	32095.77
466.78	31665.11
466.96	32292.37
467.14	32652.81
467.32	33235.61
467.51	33074.11
467.69	31557.44
467.87	32355.57
468.05	32952.40
468.23	32746.44
468.41	32985.17
468.60	32982.83
468.78	33415.83
468.96	32854.10
469.14	33968.19
469.32	33809.04
469.50	31704.90
469.69	32435.14
469.87	31882.78
470.05	31613.62
470.23	32095.77
470.41	31967.04
470.59	32601.32
470.77	32615.37
470.95	33446.26
471.14	33841.81
471.32	33715.42
471.50	35426.35
471.68	36114.47
471.86	36065.31
472.04	35768.07
472.22	35952.97
472.40	34373.11
472.58	34183.52
472.77	33921.38
472.95	34534.60
473.13	35613.59
473.31	34438.64
473.49	35044.84
473.67	35290.60
473.85	35725.94
474.03	36727.69
474.21	36781.52
474.39	36844.71
474.57	37376.01
474.75	37015.57
474.93	36889.18
475.12	35784.45
475.30	36123.83
475.48	36280.64
475.66	36900.89
475.84	35988.08
476.02	36170.64
476.20	35569.12
476.38	36308.73
476.56	36968.76
476.74	37759.86
476.92	38103.92
477.10	38469.04
477.28	39250.78
477.46	39248.44
477.64	40112.10
477.82	40282.96
478.00	40397.65
478.18	39686.12
478.36	39674.42
478.54	39419.30
478.72	40219.77
478.90	40589.57
479.08	41771.54
479.26	42099.22
479.44	42176.45
479.62	41972.83
479.80	42064.11
479.98	42061.77
480.16	42302.84
480.34	41965.81
480.52	42174.11
480.70	42700.73
480.88	42983.94
481.06	43508.22
481.24	43679.08
481.41	44933.60
481.59	45233.19
481.77	44973.39
481.95	43882.70
482.13	44025.48
482.31	44430.39
482.49	44580.18
482.67	44809.56
482.85	44837.64
483.03	45851.09
483.21	46085.15
483.39	46120.26
483.57	45471.93
483.74	45191.06
483.92	45446.18
484.10	45549.17
484.28	46504.10
484.46	46883.27
484.64	47229.67
484.82	46277.07
485.00	45918.97
485.18	45214.47
485.35	43524.60
485.53	40460.84
485.71	36950.04
485.89	36734.71
486.07	38506.49
486.25	41890.91
486.43	44219.74
486.61	45003.82
486.78	44666.78
486.96	44769.77
487.14	46431.55
487.32	47758.63
487.50	48875.07
487.68	49228.49
487.85	50120.23
488.03	49916.61
488.21	49296.36
488.39	48643.35
488.57	47948.21
488.75	47976.30
488.92	49113.80
489.10	51124.32
489.28	52877.38
489.46	53298.68
489.64	53130.16
489.81	53357.19
489.99	52896.11
490.17	52947.60
490.35	53404.00
490.53	52760.36
490.70	52271.18
490.88	52388.21
491.06	53233.14
491.24	53015.47
491.41	52133.09
491.59	50394.07
491.77	49694.25
491.95	51386.46
492.13	52329.70
492.30	53469.54
492.48	54031.27
492.66	54986.21
492.84	54461.93
493.01	54588.31
493.19	53771.47
493.37	53642.74
493.54	53155.91
493.72	54113.19
493.90	54923.01
494.08	55913.06
494.25	55840.50
494.43	56240.73
494.61	56495.85
494.79	56645.65
494.96	56427.98
495.14	55704.75
495.32	54834.07
495.49	54370.64
495.67	55353.67
495.85	56807.14
496.02	56954.60
496.20	56828.21
496.38	56512.23
496.55	56217.33
496.73	56715.86
496.91	56809.48
497.09	57598.24
497.26	57794.85
497.44	57111.41
497.62	56568.41
497.79	55894.33
497.97	54658.53
498.14	54841.09
498.32	56086.26
498.50	56753.31
498.67	57293.97
498.85	57261.21
499.03	57593.56
499.20	57680.16
499.38	57532.71
499.56	57621.65
499.73	57099.71
499.91	56512.23
500.08	56210.31
500.26	55288.13
500.44	56074.55
500.61	56835.23
500.79	56381.16
500.97	56072.21
501.14	55903.70
501.32	56009.02
501.49	55941.14
501.67	56163.50
501.84	56622.24
502.02	56851.61
502.20	56942.89
502.37	57347.81
502.55	57394.62
502.72	57904.85
502.90	58192.74
503.07	57930.60
503.25	57488.24
503.43	56889.06
503.60	56048.81
503.78	55351.33
503.95	56104.98
504.13	57282.27
504.30	58110.82
504.48	57684.84
504.65	57581.86
504.83	57820.59
505.01	58272.32
505.18	58705.32
505.36	59100.87
505.53	59121.93
505.71	59477.69
505.88	59339.60
506.06	58724.04
506.23	58466.58
506.41	58269.98
506.58	58342.53
506.76	58309.77
506.93	58248.91
507.11	58071.03
507.28	58326.15
507.46	57729.31
507.63	57249.50
507.81	56851.61
507.98	57394.62
508.16	58096.78
508.33	58504.03
508.50	58686.59
508.68	59091.51
508.85	59498.76
509.03	59653.23
509.20	59494.08
509.38	58836.39
509.55	57872.09
509.73	58117.84
509.90	58546.16
510.08	58815.32
510.25	58873.84
510.42	58616.38
510.60	58513.39
510.77	58986.18
510.95	59388.75
511.12	59463.65
511.30	59739.83
511.47	60104.96
511.64	60013.68
511.82	59554.93
511.99	58932.35
512.17	58445.52
512.34	58124.86
512.51	58255.93
512.69	58358.92
512.86	58681.91
513.04	58993.20
513.21	59037.67
513.38	58501.69
513.56	58244.23
513.73	57352.49
513.90	57921.24
514.08	57745.70
514.25	58141.25
514.43	58370.62
514.60	58489.99
514.77	58635.10
514.95	58805.96
515.12	58562.54
515.29	58726.38
515.47	59135.98
515.64	59496.42
515.81	59089.16
515.99	58447.86
516.16	56999.07
516.33	54686.62
516.51	53439.11
516.68	52594.18
516.85	52207.99
517.03	53038.88
517.20	55683.69
517.37	57879.11
517.54	58827.02
517.72	57822.93
517.89	55751.56
518.06	53879.13
518.24	54288.73
518.41	56109.66
518.58	57312.70
518.75	57616.97
518.93	57724.63
519.10	57502.28
519.27	57975.07
519.45	58279.34
519.62	58852.77
519.79	59355.99
519.96	58995.54
520.14	58618.72
520.31	57710.59
520.48	57750.38
520.65	58239.55
520.83	59332.58
521.00	59449.61
521.17	59061.08
521.34	58686.59
521.52	59171.08
521.69	59590.04
521.86	59910.69
522.03	59576.00
522.20	58337.85
522.38	57598.24
522.55	57570.16
522.72	58211.46
522.89	58307.43
523.07	58532.12
523.24	58796.60
523.41	59599.40
523.58	60039.42
523.75	60376.46
523.92	60210.28
524.10	60147.09
524.27	60144.75
524.44	59966.87
524.61	59587.70
524.78	59597.06
524.96	59510.46
525.13	59297.47
525.30	59671.96
525.47	60341.35
525.64	59990.27
525.81	59374.71
525.98	57808.89
526.16	56849.27
526.33	55899.01
526.50	55641.56
526.67	55573.68
526.84	56205.62
527.01	57155.88
527.18	57645.05
527.36	58555.52
527.53	59625.15
527.70	59594.72
527.87	58988.52
528.04	58700.64
528.21	59175.76
528.38	59999.63
528.55	60289.86
528.72	60568.38
528.89	60690.09
529.07	60444.33
529.24	59695.36
529.41	58986.18
529.58	58691.27
529.75	58763.83
529.92	59395.77
530.09	59765.58
530.26	59952.82
530.43	60404.55
530.60	60353.05
530.77	60629.24
530.94	60650.30
531.11	60111.98
531.28	59711.75
531.46	59655.57
531.63	59826.43
531.80	59671.96
531.97	58922.99
532.14	58541.48
532.31	57441.43
532.48	56945.23
532.65	57420.36
532.82	57911.88
532.99	59147.68
533.16	59213.21
533.33	59875.58
533.50	59564.29
533.67	58969.80
533.84	58677.23
534.01	58855.11
534.18	59152.36
534.35	59292.79
534.52	59058.74
534.69	59283.43
534.86	59662.60
535.03	59938.78
535.20	60418.59
535.37	60601.15
535.54	60598.81
535.71	60385.82
535.88	60086.23
536.05	59426.20
536.22	59145.34
536.38	58812.98
536.55	58286.36
536.72	57724.63
536.89	57972.73
537.06	58738.08
537.23	59423.86
537.40	59721.11
537.57	59606.42
537.74	59360.67
537.91	59370.03
538.08	59288.11
538.25	59393.43
538.42	59552.59
538.59	59295.13
538.75	58777.87
538.92	58653.82
539.09	58412.75
539.26	58223.17
539.43	58241.89
539.60	58253.59
539.77	58431.47
539.94	58120.18
540.11	57499.94
540.28	56746.29
540.44	57244.82
540.61	57464.83
540.78	57633.35
540.95	58005.50
541.12	58450.20
541.29	58574.25
541.46	58695.95
541.62	58899.58
541.79	58791.92
541.96	58110.82
542.13	58218.49
542.30	58440.84
542.47	58752.13
542.63	58321.47
542.80	58389.34
542.97	58361.26
543.14	58482.97
543.31	58370.62
543.48	58822.34
543.64	59655.57
543.81	59987.93
543.98	59351.30
544.15	58960.44
544.32	58408.07
544.48	58525.10
544.65	59014.27
544.82	59365.35
544.99	58962.78
545.16	58562.54
545.32	58501.69
545.49	59171.08
545.66	59433.22
545.83	59075.12
546.00	58623.40
546.16	58410.41
546.33	58452.54
546.50	58583.61
546.67	59079.80
546.83	58532.12
547.00	58567.23
547.17	58056.99
547.34	57467.17
547.50	57392.28
547.67	57820.59
547.84	57834.64
548.00	58330.83
548.17	58726.38
548.34	58660.85
548.51	58522.76
548.67	58529.78
548.84	58585.95
549.01	58614.04
549.18	58443.18
549.34	58312.11
549.51	58562.54
549.68	58398.71
549.84	58080.39
550.01	58094.44
550.18	57874.43
550.34	57944.64
550.51	58071.03
550.68	58115.50
550.84	57869.75
551.01	57911.88
551.18	57820.59
551.34	57846.34
551.51	58410.41
551.68	58520.41
551.84	58658.51
552.01	58466.58
552.18	58370.62
552.34	57453.13
552.51	57258.87
552.68	57209.71
552.84	57558.45
553.01	57853.36
553.18	57904.85
553.34	57829.96
553.51	57970.39
553.67	58326.15
553.84	58284.02
554.01	58379.98
554.17	57991.45
554.34	58056.99
554.51	58281.68
554.67	58632.76
554.84	58323.81
555.00	57998.48
555.17	57829.96
555.33	57968.05
555.50	57719.95
555.67	57911.88
555.83	57738.68
556.00	57530.37
556.16	57343.12
556.33	56933.53
556.50	56685.43
556.66	56975.66
556.83	56680.75
556.99	56697.14
557.16	56891.40
557.32	57027.15
557.49	57577.18
557.65	57357.17
557.82	57298.65
557.98	57301.00
558.15	56928.85
558.32	55812.41
558.48	55086.85
558.65	55435.59
558.81	55784.33
558.98	56196.26
559.14	56280.52
559.31	56200.94
559.47	56355.42
559.64	56142.43
559.80	55664.96
559.97	55711.77
560.13	56147.11
560.30	56858.63
560.46	57411.00
560.63	57752.72
560.79	57635.69
560.96	57282.27
561.12	56189.24
561.29	55299.84
561.45	55550.27
561.61	56121.37
561.78	56566.07
561.94	56355.42
562.11	56240.73
562.27	56210.31
562.44	56142.43
562.60	56769.69
562.77	56708.84
562.93	56814.16
563.10	56519.26
563.26	56378.82
563.42	56299.25
563.59	56030.08
563.75	56154.13
563.92	56095.62
564.08	56006.68
564.24	56502.87
564.41	56257.12
564.57	56123.71
564.74	55887.31
564.90	55896.67
565.07	55838.16
565.23	55552.62
565.39	55351.33
565.56	54887.90
565.72	54536.82
565.88	54768.54
566.05	55018.97
566.21	55372.39
566.38	55655.60
566.54	55358.35
566.70	55884.97
566.87	56114.34
567.03	56226.69
567.19	56219.67
567.36	55683.69
567.52	55695.39
567.68	55533.89
567.85	54918.33
568.01	54665.55
568.17	54211.49
568.34	54122.55
568.50	54162.34
568.66	54145.95
568.83	54707.68
568.99	54873.86
569.15	55047.06
569.32	55253.03
569.48	54490.01
569.64	54478.31
569.81	54028.93
569.97	54150.63
570.13	54059.35
570.30	53455.50
570.46	53223.78
570.62	52750.99
570.78	52591.84
570.95	52942.92
571.11	53619.33
571.27	53710.61
571.43	54258.30
571.60	54244.26
571.76	54511.08
571.92	54784.92
572.09	54883.22
572.25	54880.88
572.41	54883.22
572.57	54583.63
572.74	54581.29
572.90	54230.21
573.06	54096.80
573.22	54333.20
573.38	54429.16
573.55	54223.19
573.71	54417.46
573.87	54122.55
574.03	54326.17
574.20	54124.89
574.36	53813.60
574.52	53904.88
574.68	53305.70
574.84	52978.03
575.01	52959.30
575.17	52484.17
575.33	53036.54
575.49	53240.17
575.65	53127.82
575.82	53064.63
575.98	52994.41
576.14	53090.37
576.30	53401.66
576.46	53542.10
576.62	53324.43
576.79	53450.81
576.95	52985.05
577.11	53020.16
577.27	53394.64
577.43	53092.71
577.59	53172.29
577.75	52449.06
577.92	51992.66
578.08	51550.30
578.24	51576.04
578.40	52133.09
578.56	51959.89
578.72	52105.01
578.88	52767.38
579.04	52587.16
579.21	52891.43
579.37	52804.83
579.53	52940.58
579.69	52816.53
579.85	52856.32
580.01	53176.97
580.17	52282.89
580.33	52465.45
580.49	52369.49
580.65	52767.38
580.82	52907.81
580.98	52575.45
581.14	52577.79
581.30	52816.53
581.46	52648.01
581.62	52821.21
581.78	52821.21
581.94	53130.16
582.10	52746.31
582.26	53048.24
582.42	53277.61
582.58	52963.98
582.74	52797.80
582.90	52729.93
583.06	53071.65
583.22	52732.27
583.38	52767.38
583.54	52769.72
583.70	52772.06
583.86	52652.69
584.02	52502.90
584.18	52678.44
584.34	52416.30
584.50	52081.60
584.66	52128.41
584.82	51908.40
584.98	51578.39
585.14	51285.82
585.30	50808.35
