SpectraSuite Data File
++++++++++++++++++++++++++++++++++++
Date: Mon Oct 07 14:54:01 GMT-05:00 2013
User: price-jones
Dark Spectrum Present: No
Reference Spectrum Present: No
Number of Sampled Component Spectra: 1
Spectrometers: USB2+H05261
Integration Time (usec): 100000 (USB2+H05261)
Spectra Averaged: 1 (USB2+H05261)
Boxcar Smoothing: 0 (USB2+H05261)
Correct for Electrical Dark: No (USB2+H05261)
Strobe/Lamp Enabled: No (USB2+H05261)
Correct for Detector Non-linearity: No (USB2+H05261)
Correct for Stray Light: No (USB2+H05261)
Number of Pixels in Processed Spectrum: 2048
>>>>>Begin Processed Spectral Data<<<<<
365.73	0.00
365.92	0.00
366.12	0.00
366.32	0.00
366.52	0.00
366.72	0.00
366.91	0.00
367.11	0.00
367.31	0.00
367.51	0.00
367.70	0.00
367.90	0.00
368.10	0.00
368.30	0.00
368.49	0.00
368.69	0.00
368.89	0.00
369.09	0.00
369.28	0.00
369.48	0.00
369.68	0.00
369.87	0.00
370.07	0.00
370.27	0.00
370.47	690.46
370.66	3379.73
370.86	3812.73
371.06	4163.81
371.25	4437.66
371.45	4016.36
371.65	3517.83
371.84	3346.97
372.04	3534.21
372.24	3868.91
372.44	4227.01
372.63	4002.32
372.83	3606.77
373.03	3323.56
373.22	2951.42
373.42	3260.37
373.62	3588.04
373.81	4051.47
374.01	4079.55
374.21	3574.00
374.40	3255.69
374.60	3510.80
374.79	4035.08
374.99	4704.48
375.19	5064.92
375.38	5039.17
375.58	4620.22
375.78	4376.80
375.97	4582.77
376.17	4807.46
376.37	4809.80
376.56	4933.85
376.76	5200.67
376.95	5483.88
377.15	5935.60
377.35	6171.99
377.54	6286.68
377.74	6487.96
377.93	6663.51
378.13	6380.30
378.33	6160.29
378.52	5563.45
378.72	5371.53
378.91	5259.18
379.11	5203.01
379.31	4971.30
379.50	4964.28
379.70	5313.02
379.89	5710.91
380.09	6141.57
380.28	6590.95
380.48	6443.49
380.68	6179.01
380.87	6001.13
381.07	5715.59
381.26	5394.93
381.46	4870.65
381.65	4814.48
381.85	4519.57
382.04	4486.81
382.24	4229.35
382.43	3918.06
382.63	3859.54
382.83	3808.05
383.02	3960.19
383.22	3936.78
383.41	3831.46
383.61	4063.17
383.80	4655.33
384.00	5334.08
384.19	6061.99
384.39	6258.59
384.58	6445.84
384.78	6246.89
384.97	6296.04
385.17	5753.04
385.36	5652.39
385.56	5444.09
385.75	5343.44
385.95	5989.43
386.14	6483.28
386.34	6511.37
386.53	6216.46
386.72	5933.26
386.92	5916.87
387.11	6335.83
387.31	6494.99
387.50	6476.26
387.70	6134.54
387.89	6225.82
388.09	6167.31
388.28	6228.17
388.48	6394.34
388.67	6691.59
388.86	7447.58
389.06	8006.97
389.25	8463.38
389.45	8301.88
389.64	8463.38
389.84	8294.86
390.03	8236.35
390.22	8301.88
390.42	8262.09
390.61	9060.21
390.81	9486.19
391.00	9795.14
391.19	9893.44
391.39	9523.64
391.58	8844.88
391.78	8358.05
391.97	8147.40
392.16	7632.49
392.36	6949.05
392.55	5411.32
392.75	4383.82
392.94	3569.32
393.13	3478.04
393.33	4126.36
393.52	5259.18
393.71	6478.60
393.91	7492.05
394.10	7913.35
394.29	8788.71
394.49	9401.93
394.68	10263.25
394.88	10057.28
395.07	10857.75
395.26	10450.49
395.46	9916.85
395.65	9710.88
395.84	8449.33
396.04	7096.50
396.23	5858.36
396.42	4823.84
396.62	4627.24
396.81	5430.04
397.00	6736.06
397.19	8711.47
397.39	10216.44
397.58	11857.15
397.77	12142.70
397.97	12465.69
398.16	12908.05
398.35	13312.97
398.55	13692.13
398.74	14127.47
398.93	14513.66
399.12	14349.82
399.32	13738.94
399.51	14270.25
399.70	14951.34
399.90	14988.79
400.09	14913.89
400.28	14876.44
400.47	14590.90
400.67	15463.92
400.86	16032.67
401.05	16046.71
401.24	16070.12
401.44	16306.51
401.63	16280.77
401.82	16135.65
402.01	16292.47
402.21	16596.74
402.40	16678.66
402.59	16273.74
402.78	15501.37
402.97	14920.92
403.17	15304.76
403.36	16533.54
403.55	17317.62
403.74	17462.74
403.93	16650.57
404.13	15342.21
404.32	14843.68
404.51	15861.81
404.70	17015.69
404.89	16933.78
405.09	16386.09
405.28	16531.20
405.47	16250.34
405.66	16446.94
405.85	15791.59
406.05	15119.86
406.24	15365.62
406.43	16325.24
406.62	16910.37
406.81	16964.20
407.00	16493.76
407.20	16058.42
407.39	16350.98
407.58	16620.14
407.77	17509.55
407.96	17921.48
408.15	18237.45
408.34	18279.58
408.54	19290.70
408.73	19297.72
408.92	18637.69
409.11	18579.17
409.30	17694.45
409.49	16519.50
409.68	15398.38
409.87	14934.96
410.07	15784.57
410.26	17111.66
410.45	17994.04
410.64	18469.17
410.83	19335.17
411.02	19637.09
411.21	20091.16
411.40	19941.36
411.59	20252.66
411.78	20004.56
411.98	19697.95
412.17	20423.51
412.36	19826.68
412.55	19913.28
412.74	19302.40
412.93	18925.57
413.12	19166.65
413.31	20664.59
413.50	20908.01
413.69	21671.02
413.88	20657.57
414.07	20027.96
414.26	20236.27
414.45	20896.30
414.64	21067.16
414.83	21193.55
415.02	20748.85
415.22	20624.80
415.41	21319.94
415.60	21912.10
415.79	22967.68
415.98	23426.42
416.17	23393.65
416.36	22511.27
416.55	22295.94
416.74	21586.76
416.93	20748.85
417.12	20713.74
417.31	21462.71
417.50	21497.82
417.69	22288.92
417.88	22176.58
418.07	21741.24
418.26	21509.52
418.45	21598.46
418.64	22424.67
418.83	23318.76
419.02	23396.00
419.21	22899.80
419.39	21909.75
419.58	20655.23
419.77	20947.79
419.96	21565.70
420.15	23211.09
420.34	23749.42
420.53	24641.16
420.72	24718.40
420.91	24662.22
421.10	24287.74
421.29	24261.99
421.48	23407.70
421.67	24259.65
421.86	23711.97
422.05	22719.58
422.24	19971.79
422.43	19571.56
422.61	21549.31
422.80	23508.34
422.99	23662.82
423.18	22661.07
423.37	22366.16
423.56	22118.06
423.75	22595.53
423.94	23028.53
424.13	22061.89
424.32	22045.51
424.50	22127.42
424.69	21575.06
424.88	22024.44
425.07	22073.59
425.26	21914.44
425.45	21771.66
425.64	21006.31
425.83	21015.67
426.01	22419.99
426.20	23269.61
426.39	22955.97
426.58	21172.49
426.77	19737.74
426.96	18890.46
427.15	19459.21
427.33	21593.78
427.52	22373.18
427.71	22228.07
427.90	22008.06
428.09	22080.61
428.28	21099.93
428.46	20507.77
428.65	20166.06
428.84	21022.69
429.03	21273.13
429.22	19955.41
429.40	19005.15
429.59	17252.09
429.78	15440.51
429.97	15166.67
430.16	15632.44
430.34	15431.15
430.53	15396.04
430.72	15878.19
430.91	17530.61
431.10	20432.88
431.28	24168.37
431.47	26333.37
431.66	26256.13
431.85	24273.70
432.03	22125.08
432.22	21179.51
432.41	21961.25
432.60	24428.17
432.79	25745.89
432.97	26106.34
433.16	25577.37
433.35	23140.88
433.54	21329.30
433.72	19599.65
433.91	20210.53
434.10	22548.72
434.28	24135.60
434.47	25348.00
434.66	25057.78
434.85	24676.27
435.03	24133.26
435.22	24856.49
435.41	26459.76
435.59	26401.24
435.78	26401.24
435.97	27557.47
436.16	27716.62
436.34	27522.36
436.53	26426.99
436.72	26307.62
436.90	25275.45
437.09	24819.04
437.28	24458.60
437.46	25827.81
437.65	25516.52
437.84	23873.46
438.02	21710.81
438.21	21649.96
438.40	22977.04
438.58	24833.08
438.77	25142.03
438.96	25818.45
439.14	26998.08
439.33	27379.59
439.52	27651.09
439.70	27236.81
439.89	26675.09
440.08	26078.25
440.26	25876.96
440.45	26668.06
440.63	28510.07
440.82	29951.84
441.01	29420.53
441.19	29062.43
441.38	29467.34
441.57	30642.29
441.75	31002.74
441.94	31550.42
442.12	30871.67
442.31	31665.11
442.50	31548.08
442.68	31667.45
442.87	30691.44
443.05	30422.28
443.24	31002.74
443.43	31557.44
443.61	32250.24
443.80	32451.53
443.98	30775.70
444.17	30431.65
444.35	32512.38
444.54	33186.46
444.73	32634.09
444.91	31171.25
445.10	30272.49
445.28	28716.03
445.47	28489.00
445.65	28325.16
445.84	29149.03
446.02	30609.53
446.21	30522.93
446.39	30829.54
446.58	30913.80
446.77	31482.55
446.95	31988.10
447.14	32521.74
447.32	33319.87
447.51	32645.79
447.69	31285.94
447.88	31206.36
448.06	31344.45
448.25	31990.44
448.43	32060.66
448.62	31721.28
448.80	31648.72
448.99	32091.09
449.17	32130.87
449.36	32283.01
449.54	33172.41
449.73	33790.31
449.91	34195.23
450.10	34817.81
450.28	35416.99
450.46	34906.75
450.65	35482.52
450.83	35175.91
451.02	34211.61
451.20	34022.03
451.39	34146.08
451.57	33642.86
451.76	33680.31
451.94	33504.77
452.13	33266.03
452.31	31594.89
452.49	30258.45
452.68	30478.46
452.86	30574.42
453.05	30911.46
453.23	31913.20
453.42	32526.42
453.60	33340.93
453.78	33291.78
453.97	33106.88
454.15	32872.82
454.34	32657.49
454.52	32751.12
454.70	32114.49
454.89	32563.87
455.07	32601.32
455.26	33291.78
455.44	34096.92
455.62	34820.15
455.81	34953.56
455.99	34998.03
456.17	34099.26
456.36	34300.55
456.54	35438.05
456.73	35400.60
456.91	35901.48
457.09	35873.39
457.28	36535.76
457.46	35391.24
457.64	34899.73
457.83	34469.07
458.01	33486.04
458.19	34466.73
458.38	34424.60
458.56	35585.50
458.74	35819.56
458.93	34899.73
459.11	34635.25
459.29	34433.96
459.48	34827.17
459.66	34525.24
459.84	34529.92
460.03	35182.93
460.21	35129.10
460.39	36313.41
460.57	36421.08
460.76	36109.78
460.94	36552.15
461.12	35959.99
461.31	36149.57
461.49	35974.03
461.67	36170.64
461.85	37422.83
462.04	37029.62
462.22	37523.47
462.40	36767.48
462.59	36795.56
462.77	36809.61
462.95	37031.96
463.13	36282.98
463.32	35978.72
463.50	35894.46
463.68	35887.43
463.86	35971.69
464.05	35756.36
464.23	34803.77
464.41	34572.05
464.59	33675.63
464.78	35459.12
464.96	35498.91
465.14	35229.74
465.32	36215.11
465.50	36760.45
465.69	37563.26
465.87	36392.99
466.05	35665.08
466.23	33876.91
466.41	33460.30
466.60	33769.25
466.78	33731.80
466.96	34691.42
467.14	35229.74
467.32	36081.70
467.51	36348.52
467.69	34162.46
467.87	34703.12
468.05	35208.68
468.23	35433.37
468.41	35641.68
468.60	35833.60
468.78	35952.97
468.96	35573.80
469.14	36531.08
469.32	35988.08
469.50	34820.15
469.69	35147.82
469.87	34139.05
470.05	34206.93
470.23	34354.38
470.41	34813.13
470.59	35054.20
470.77	35269.53
470.95	35805.52
471.14	36519.38
471.32	36107.44
471.50	38541.60
471.68	38532.24
471.86	38710.12
472.04	39019.07
472.22	39175.89
472.40	36961.74
472.58	36861.10
472.77	36032.55
472.95	37521.13
473.13	37998.60
473.31	36790.88
473.49	37371.33
473.67	38176.48
473.85	38036.05
474.03	39026.09
474.21	38878.64
474.39	39426.32
474.57	39695.49
474.75	39690.80
474.93	39578.46
475.12	38433.94
475.30	38557.99
475.48	39115.03
475.66	39182.91
475.84	38895.02
476.02	38525.22
476.20	38113.28
476.38	38656.29
476.56	39997.41
476.74	39974.01
476.92	40397.65
477.10	41148.96
477.28	41954.10
477.46	42136.66
477.64	42471.36
477.82	42838.83
478.00	43133.73
478.18	42520.51
478.36	41820.69
478.54	41677.92
478.72	42092.19
478.90	43442.68
479.08	44601.25
479.26	45027.23
479.44	44804.88
479.62	44371.88
479.80	44711.25
479.98	44641.04
480.16	45221.49
480.34	44697.21
480.52	45090.42
480.70	45240.21
480.88	45202.77
481.06	45965.78
481.24	46277.07
481.41	47262.44
481.59	47997.37
481.77	47400.53
481.95	47342.02
482.13	47021.36
482.31	46923.06
482.49	47632.24
482.67	47285.84
482.85	47377.12
483.03	48004.39
483.21	48774.42
483.39	48655.06
483.57	47950.56
483.74	47824.17
483.92	47746.93
484.10	48095.67
484.28	49310.41
484.46	49357.22
484.64	49647.44
484.82	48477.18
485.00	48488.88
485.18	47583.09
485.35	46267.71
485.53	42995.64
485.71	39136.10
485.89	38834.17
486.07	40669.15
486.25	44313.36
486.43	46499.42
486.61	47224.99
486.78	47398.19
486.96	47208.61
487.14	49015.50
487.32	49783.19
487.50	50871.54
487.68	51571.36
487.85	52327.36
488.03	52018.41
488.21	51428.59
488.39	50646.85
488.57	50087.46
488.75	49780.85
488.92	51096.24
489.10	53097.39
489.28	54185.74
489.46	54925.35
489.64	54813.01
489.81	54925.35
489.99	54578.95
490.17	54553.21
490.35	54876.20
490.53	54527.46
490.70	54059.35
490.88	54080.42
491.06	55140.68
491.24	54859.82
491.41	53975.09
491.59	52371.83
491.77	51498.81
491.95	52650.35
492.13	53741.04
492.30	54913.65
492.48	55559.64
492.66	56212.65
492.84	56119.02
493.01	55882.63
493.19	55491.76
493.37	55203.88
493.54	54752.15
493.72	55695.39
493.90	56563.73
494.08	57368.87
494.25	57595.90
494.43	57396.96
494.61	58073.37
494.79	58007.84
494.96	57696.55
495.14	57289.29
495.32	56299.25
495.49	55512.83
495.67	56893.74
495.85	58085.07
496.02	58101.46
496.20	58330.83
496.38	57752.72
496.55	57546.75
496.73	58061.67
496.91	58225.51
497.09	58663.19
497.26	58962.78
497.44	58461.90
497.62	58190.40
497.79	57237.80
497.97	56137.75
498.14	56189.24
498.32	57270.57
498.50	58279.34
498.67	58635.10
498.85	58419.77
499.03	58625.74
499.20	58726.38
499.38	58930.01
499.56	59000.22
499.73	58206.78
499.91	57904.85
500.08	57366.53
500.26	56750.97
500.44	57270.57
500.61	57942.30
500.79	57703.57
500.97	57476.54
501.14	56893.74
501.32	57130.14
501.49	56961.62
501.67	57598.24
501.84	57663.78
502.02	58031.24
502.20	58333.17
502.37	58370.62
502.55	58394.03
502.72	58911.28
502.90	59482.37
503.07	59082.14
503.25	58724.04
503.43	57989.11
503.60	57474.20
503.78	56722.88
503.95	57022.47
504.13	58281.68
504.30	59229.60
504.48	58960.44
504.65	58599.99
504.83	58553.18
505.01	59351.30
505.18	59526.84
505.36	60301.56
505.53	60273.48
505.71	60266.45
505.88	60523.91
506.06	59744.51
506.23	59728.13
506.41	59257.68
506.58	59620.47
506.76	59325.56
506.93	59316.20
507.11	58979.16
507.28	59384.07
507.46	58646.80
507.63	58295.72
507.81	57970.39
507.98	58145.93
508.16	59037.67
508.33	59447.27
508.50	59812.39
508.68	60189.22
508.85	60460.72
509.03	60413.91
509.20	60437.31
509.38	59746.86
509.55	58986.18
509.73	58915.96
509.90	59482.37
510.08	59812.39
510.25	59758.56
510.42	59358.33
510.60	59353.65
510.77	59662.60
510.95	60317.95
511.12	60107.30
511.30	60736.90
511.47	60711.16
511.64	60844.57
511.82	60566.04
511.99	59674.30
512.17	59379.39
512.34	58848.09
512.51	59189.81
512.69	59227.26
512.86	59182.79
513.04	59779.62
513.21	59774.94
513.38	59426.20
513.56	58915.96
513.73	58246.57
513.90	58550.84
514.08	58656.17
514.25	58944.05
514.43	59180.45
514.60	59253.00
514.77	59487.06
514.95	59536.21
515.12	59217.89
515.29	59529.19
515.47	60037.08
515.64	60360.08
515.81	59983.25
515.99	59498.76
516.16	58033.58
516.33	55978.59
516.51	54562.57
516.68	53560.82
516.85	53284.64
517.03	53602.95
517.20	56247.75
517.37	58464.24
517.54	59363.01
517.72	59175.76
517.89	56776.72
518.06	54562.57
518.24	54705.34
518.41	56938.21
518.58	57968.05
518.75	58286.36
518.93	58230.19
519.10	58394.03
519.27	58714.68
519.45	58864.47
519.62	59667.28
519.79	59929.42
519.96	59873.24
520.14	59344.28
520.31	58611.70
520.48	58564.88
520.65	58791.92
520.83	59751.54
521.00	60165.81
521.17	59966.87
521.34	59451.95
521.52	59803.03
521.69	60100.28
521.86	60706.47
522.03	60308.58
522.20	59245.98
522.38	58094.44
522.55	58124.86
522.72	58815.32
522.89	58836.39
523.07	59105.55
523.24	59423.86
523.41	60128.36
523.58	60589.45
523.75	60928.83
523.92	60498.17
524.10	60814.14
524.27	60643.28
524.44	60364.76
524.61	60341.35
524.78	60097.94
524.96	60116.66
525.13	59969.21
525.30	60434.97
525.47	60652.64
525.64	60575.40
525.81	59847.50
525.98	58557.86
526.16	57062.26
526.33	56678.41
526.50	56371.80
526.67	55819.44
526.84	56666.71
527.01	57502.28
527.18	58042.95
527.36	59025.97
527.53	59868.56
527.70	60065.17
527.87	59594.72
528.04	59138.32
528.21	59510.46
528.38	60116.66
528.55	60793.07
528.72	60970.96
528.89	61256.50
529.07	60959.25
529.24	60182.19
529.41	59604.08
529.58	59054.06
529.75	59199.17
529.92	59580.68
530.09	59997.29
530.26	60439.65
530.43	60828.18
530.60	60790.73
530.77	60942.87
530.94	61092.66
531.11	60662.00
531.28	60301.56
531.46	60023.04
531.63	60175.17
531.80	60275.82
531.97	59517.48
532.14	59145.34
532.31	57982.09
532.48	57715.27
532.65	57633.35
532.82	58211.46
532.99	59309.18
533.16	59770.26
533.33	60076.87
533.50	60086.23
533.67	59526.84
533.84	59009.59
534.01	59215.55
534.18	59449.61
534.35	59636.85
534.52	59440.24
534.69	59751.54
534.86	59910.69
535.03	60133.04
535.20	60556.68
535.37	60779.03
535.54	60933.51
535.71	60603.49
535.88	60287.52
536.05	59920.05
536.22	59430.88
536.38	59028.31
536.55	58679.57
536.72	58145.93
536.89	58014.86
537.06	58812.98
537.23	59700.04
537.40	59767.92
537.57	59763.24
537.74	59613.44
537.91	59849.84
538.08	59545.57
538.25	59683.66
538.42	59655.57
538.59	59627.49
538.75	58995.54
538.92	58674.89
539.09	58518.07
539.26	58384.66
539.43	58375.30
539.60	58260.62
539.77	58555.52
539.94	58387.00
540.11	57738.68
540.28	57275.25
540.44	57277.59
540.61	57462.49
540.78	57729.31
540.95	58178.70
541.12	58614.04
541.29	58691.27
541.46	58993.20
541.62	59171.08
541.79	59051.72
541.96	58403.39
542.13	58358.92
542.30	58710.00
542.47	58780.21
542.63	58576.59
542.80	58218.49
542.97	58382.32
543.14	58307.43
543.31	58340.19
543.48	58705.32
543.64	59568.97
543.81	59863.88
543.98	59917.71
544.15	59264.70
544.32	58391.68
544.48	58667.87
544.65	59044.69
544.82	59241.30
544.99	59159.38
545.16	58714.68
545.32	58253.59
545.49	59098.53
545.66	59477.69
545.83	59206.19
546.00	58841.07
546.16	58585.95
546.33	58571.91
546.50	58658.51
546.67	59229.60
546.83	58518.07
547.00	58522.76
547.17	57949.32
547.34	57621.65
547.50	57312.70
547.67	57724.63
547.84	58024.22
548.00	58092.10
548.17	58745.11
548.34	58773.19
548.51	58541.48
548.67	58557.86
548.84	58562.54
549.01	58515.73
549.18	58522.76
549.34	58394.03
549.51	58471.26
549.68	58209.12
549.84	58232.53
550.01	58281.68
550.18	57778.46
550.34	58124.86
550.51	58145.93
550.68	58092.10
550.84	57518.67
551.01	57946.98
551.18	57696.55
551.34	58056.99
551.51	58117.84
551.68	58478.28
551.84	58532.12
552.01	58429.13
552.18	58258.27
552.34	57315.04
552.51	56919.49
552.68	56966.30
552.84	57457.81
553.01	57717.61
553.18	57626.33
553.34	57799.53
553.51	57968.05
553.67	58293.38
553.84	58379.98
554.01	58014.86
554.17	57958.69
554.34	57832.30
554.51	58010.18
554.67	58604.67
554.84	58281.68
555.00	57801.87
555.17	57532.71
555.33	57855.70
555.50	57595.90
555.67	57705.91
555.83	57408.66
556.00	57104.39
556.16	57310.36
556.33	56921.83
556.50	56727.56
556.66	56626.92
556.83	56369.46
556.99	56507.55
557.16	56587.13
557.32	56907.79
557.49	57141.84
557.65	57209.71
557.82	57221.42
557.98	56732.25
558.15	56334.35
558.32	55681.34
558.48	54684.28
558.65	55182.81
558.81	55405.16
558.98	55545.59
559.14	55852.20
559.31	56023.06
559.47	55863.91
559.64	55791.35
559.80	55426.23
559.97	55655.60
560.13	55873.27
560.30	56624.58
560.46	57176.95
560.63	57614.63
560.79	57441.43
560.96	56891.40
561.12	56130.73
561.29	54906.63
561.45	55222.60
561.61	55840.50
561.78	56137.75
561.94	55985.61
562.11	55887.31
562.27	55512.83
562.44	55973.91
562.60	56226.69
562.77	56470.11
562.93	56617.56
563.10	56385.85
563.26	55723.47
563.42	55842.84
563.59	55508.14
563.75	55545.59
563.92	55753.90
564.08	55728.16
564.24	56004.34
564.41	55814.76
564.57	55592.40
564.74	55732.84
564.90	55576.02
565.07	55306.86
565.23	55037.70
565.39	54625.76
565.56	54138.93
565.72	54049.99
565.88	54298.09
566.05	54511.08
566.21	54649.17
566.38	54773.22
566.54	55035.36
566.70	55561.98
566.87	55402.82
567.03	55426.23
567.19	55814.76
567.36	55711.77
567.52	55150.04
567.68	54995.57
567.85	54312.13
568.01	53900.20
568.17	53471.88
568.34	53792.53
568.50	53516.35
568.66	53581.88
568.83	54089.78
568.99	54382.35
569.15	54621.08
569.32	54316.81
569.48	53839.34
569.64	53860.41
569.81	53570.18
569.97	53310.38
570.13	53427.41
570.30	52924.19
570.46	52704.18
570.62	52172.88
570.78	51620.52
570.95	52350.76
571.11	53113.78
571.27	53076.33
571.43	53279.96
571.60	53579.54
571.76	53790.19
571.92	54155.32
572.09	54260.64
572.25	54026.59
572.41	53975.09
572.57	53998.50
572.74	53813.60
572.90	53567.84
573.06	53806.58
573.22	53553.80
573.38	53666.14
573.55	53560.82
573.71	53785.51
573.87	53565.50
574.03	53385.28
574.20	53078.67
574.36	52945.26
574.52	52914.83
574.68	52856.32
574.84	52666.73
575.01	52079.26
575.17	51594.77
575.33	51948.19
575.49	52210.33
575.65	52327.36
575.82	52062.88
575.98	52048.83
576.14	52559.07
576.30	52512.26
576.46	52605.88
576.62	52743.97
576.79	52577.79
576.95	52060.54
577.11	51987.98
577.27	52236.08
577.43	52460.77
577.59	51980.96
577.75	51583.07
577.92	51065.81
578.08	50515.78
578.24	50410.46
578.40	50784.94
578.56	51154.75
578.72	51334.97
578.88	51447.32
579.04	51997.34
579.21	51880.31
579.37	51711.80
579.53	51973.94
579.69	52055.85
579.85	51929.47
580.01	52009.04
580.17	51243.69
580.33	51136.02
580.49	51283.48
580.65	51765.63
580.82	51793.71
580.98	51522.21
581.14	51796.06
581.30	51683.71
581.46	51784.35
581.62	51826.48
581.78	51948.19
581.94	51805.42
582.10	51819.46
582.26	52112.03
582.42	51920.10
582.58	51924.78
582.74	51732.86
582.90	51702.43
583.06	51814.78
583.22	51856.91
583.38	51620.52
583.54	51732.86
583.70	51613.49
583.86	51613.49
584.02	51227.31
584.18	51625.20
584.34	51278.80
584.50	51629.88
584.66	51210.92
584.82	50663.24
584.98	50866.86
585.14	50021.93
