SpectraSuite Data File
++++++++++++++++++++++++++++++++++++
Date: Mon Oct 07 14:53:49 GMT-05:00 2013
User: price-jones
Dark Spectrum Present: No
Reference Spectrum Present: No
Number of Sampled Component Spectra: 1
Spectrometers: USB2+H05261
Integration Time (usec): 100000 (USB2+H05261)
Spectra Averaged: 1 (USB2+H05261)
Boxcar Smoothing: 0 (USB2+H05261)
Correct for Electrical Dark: No (USB2+H05261)
Strobe/Lamp Enabled: No (USB2+H05261)
Correct for Detector Non-linearity: No (USB2+H05261)
Correct for Stray Light: No (USB2+H05261)
Number of Pixels in Processed Spectrum: 2048
>>>>>Begin Processed Spectral Data<<<<<
365.73	0.00
365.92	0.00
366.12	0.00
366.32	0.00
366.52	0.00
366.72	0.00
366.91	0.00
367.11	0.00
367.31	0.00
367.51	0.00
367.70	0.00
367.90	0.00
368.10	0.00
368.30	0.00
368.49	0.00
368.69	0.00
368.89	0.00
369.09	0.00
369.28	0.00
369.48	0.00
369.68	0.00
369.87	0.00
370.07	0.00
370.27	0.00
370.47	500.87
370.66	2719.70
370.86	3183.13
371.06	3524.85
371.25	3508.46
371.45	3173.77
371.65	2916.31
371.84	2637.78
372.04	2855.45
372.24	3253.34
372.44	3517.83
372.63	3279.09
372.83	3075.46
373.03	2689.28
373.22	2459.90
373.42	2623.74
373.62	3026.31
373.81	3300.16
374.01	3321.22
374.21	3012.27
374.40	2715.02
374.60	2754.81
374.79	3105.89
374.99	3751.88
375.19	4063.17
375.38	4053.81
375.58	3786.99
375.78	3660.60
375.97	3772.94
376.17	4004.66
376.37	3988.27
376.56	4138.07
376.76	4442.34
376.95	4608.51
377.15	4912.78
377.35	5062.58
377.54	5547.07
377.74	5462.81
377.93	5453.45
378.13	5249.82
378.33	5046.20
378.52	4636.60
378.72	4542.98
378.91	4571.07
379.11	4437.66
379.31	4191.90
379.50	4077.21
379.70	4383.82
379.89	5036.83
380.09	5064.92
380.28	5378.55
380.48	5301.31
380.68	5097.69
380.87	5193.65
381.07	4814.48
381.26	4325.31
381.46	4095.94
381.65	3892.31
381.85	3852.52
382.04	3796.35
382.24	3368.03
382.43	3293.13
382.63	3208.87
382.83	3169.09
383.02	3304.84
383.22	3162.06
383.41	3258.03
383.61	3433.57
383.80	3904.01
384.00	4418.93
384.19	5095.35
384.39	5392.59
384.58	5240.46
384.78	5245.14
384.97	5160.88
385.17	4997.04
385.36	4720.86
385.56	4486.81
385.75	4456.38
385.95	5095.35
386.14	5518.98
386.34	5490.90
386.53	5165.56
386.72	4880.02
386.92	5013.43
387.11	5317.70
387.31	5551.75
387.50	5430.04
387.70	5217.05
387.89	5022.79
388.09	5245.14
388.28	5109.39
388.48	5343.44
388.67	5671.12
388.86	6183.70
389.06	6670.53
389.25	7096.50
389.45	6904.58
389.64	7150.34
389.84	7016.93
390.03	6862.45
390.22	6841.39
390.42	6953.73
390.61	7754.19
390.81	8112.30
391.00	8533.59
391.19	8236.35
391.39	7953.14
391.58	7494.40
391.78	7037.99
391.97	6630.74
392.16	6197.74
392.36	6008.16
392.55	4739.58
392.75	3644.21
392.94	2923.33
393.13	2925.67
393.33	3503.78
393.52	4367.44
393.71	5507.28
393.91	6129.86
394.10	6806.28
394.29	7400.77
394.49	7831.43
394.68	8461.04
394.88	8484.44
395.07	8945.53
395.26	8676.37
395.46	8559.34
395.65	8065.49
395.84	7190.13
396.04	6218.80
396.23	4858.95
396.42	4156.79
396.62	3868.91
396.81	4482.13
397.00	5708.57
397.19	7243.96
397.39	8456.36
397.58	9753.01
397.77	10235.16
397.97	10867.11
398.16	10888.17
398.35	11180.74
398.55	11665.23
398.74	12013.97
398.93	12250.36
399.12	12233.98
399.32	11393.73
399.51	11906.31
399.70	12807.41
399.90	12559.31
400.09	12585.06
400.28	12346.33
400.47	12458.67
400.67	13128.06
400.86	13378.50
401.05	13710.86
401.24	13212.32
401.44	13659.37
401.63	13841.93
401.82	13944.91
402.01	14019.81
402.21	13841.93
402.40	13722.56
402.59	13736.60
402.78	13046.15
402.97	12858.90
403.17	13268.50
403.36	14073.64
403.55	14618.99
403.74	14902.19
403.93	14469.19
404.13	13224.03
404.32	12805.07
404.51	13268.50
404.70	14310.04
404.89	14284.29
405.09	14078.32
405.28	13757.67
405.47	13888.74
405.66	13640.64
405.85	13373.82
406.05	13008.70
406.24	13121.04
406.43	13631.28
406.62	14176.62
406.81	14511.32
407.00	13853.63
407.20	13535.32
407.39	13444.04
407.58	14193.01
407.77	14831.97
407.96	15075.39
408.15	15452.22
408.34	15482.64
408.54	16081.82
408.73	16460.99
408.92	16159.06
409.11	15655.84
409.30	14995.81
409.49	13942.57
409.68	13085.94
409.87	12657.62
410.07	13523.62
410.26	14516.00
410.45	15594.99
410.64	15730.74
410.83	16142.67
411.02	16491.41
411.21	17422.95
411.40	17022.72
411.59	17233.36
411.78	17095.27
411.98	16861.22
412.17	17074.21
412.36	17001.65
412.55	16961.86
412.74	16671.64
412.93	16294.81
413.12	16297.15
413.31	17741.26
413.50	17891.06
413.69	18314.69
413.88	17783.39
414.07	16954.84
414.26	17465.08
414.45	18029.15
414.64	18188.30
414.83	18391.93
415.02	17734.24
415.22	17715.51
415.41	18115.75
415.60	18684.50
415.79	19461.55
415.98	19831.36
416.17	20100.52
416.36	19601.99
416.55	19171.33
416.74	18508.96
416.93	17750.62
417.12	17832.54
417.31	18178.94
417.50	18157.88
417.69	18965.36
417.88	19075.37
418.07	18970.04
418.26	18391.93
418.45	18597.90
418.64	19548.15
418.83	20208.19
419.02	19854.76
419.21	19620.71
419.39	18621.30
419.58	17806.80
419.77	18045.53
419.96	18583.85
420.15	19613.69
420.34	20503.09
420.53	21261.43
420.72	21333.98
420.91	21362.07
421.10	21132.70
421.29	20854.17
421.48	20201.16
421.67	21188.87
421.86	20910.35
422.05	19325.80
422.24	16936.12
422.43	16638.87
422.61	18473.85
422.80	20243.29
422.99	20407.13
423.18	19555.18
423.37	19197.07
423.56	19040.26
423.75	19377.30
423.94	19875.83
424.13	18731.31
424.32	19084.73
424.50	18860.04
424.69	18970.04
424.88	19051.96
425.07	18740.67
425.26	18836.63
425.45	18672.79
425.64	18235.11
425.83	18312.35
426.01	19356.23
426.20	19763.48
426.39	19627.73
426.58	18429.38
426.77	16856.54
426.96	16259.70
427.15	16947.82
427.33	18221.07
427.52	19164.31
427.71	19026.21
427.90	19222.82
428.09	18801.52
428.28	18314.69
428.46	17624.23
428.65	17324.65
428.84	17877.01
429.03	18312.35
429.22	17174.85
429.40	16402.47
429.59	14831.97
429.78	13130.41
429.97	13123.38
430.16	13006.36
430.34	13500.21
430.53	13420.63
430.72	13568.09
430.91	14824.95
431.10	17891.06
431.28	20943.11
431.47	22698.52
431.66	22588.51
431.85	20765.23
432.03	19295.38
432.22	18267.88
432.41	18932.59
432.60	21221.64
432.79	21968.27
432.97	22647.02
433.16	22040.82
433.35	20343.94
433.54	18246.82
433.72	16898.67
433.91	17465.08
434.10	19562.20
434.28	20828.43
434.47	22253.81
434.66	21858.26
434.85	20950.14
435.03	20912.69
435.22	21455.69
435.41	22953.63
435.59	22953.63
435.78	23152.58
435.97	23899.21
436.16	24133.26
436.34	23756.44
436.53	22998.10
436.72	23061.30
436.90	21549.31
437.09	21699.11
437.28	21572.72
437.46	22080.61
437.65	22080.61
437.84	20592.03
438.02	18848.33
438.21	18874.08
438.40	20016.26
438.58	21624.21
438.77	22185.94
438.96	22361.48
439.14	23293.01
439.33	23784.52
439.52	24107.52
439.70	23814.95
439.89	23412.38
440.08	22347.44
440.26	22326.37
440.45	23199.39
440.63	24915.00
440.82	26228.04
441.01	25624.18
441.19	25537.59
441.38	25867.60
441.57	26792.11
441.75	27087.02
441.94	27477.89
442.12	27021.48
442.31	27922.59
442.50	27564.49
442.68	27145.53
442.87	26796.79
443.05	26305.28
443.24	26757.00
443.43	27112.77
443.61	27913.23
443.80	28374.31
443.98	26548.70
444.17	26471.46
444.35	27962.38
444.54	28680.92
444.73	28463.25
444.91	27475.55
445.10	26665.72
445.28	25209.91
445.47	24690.31
445.65	24734.78
445.84	25390.13
446.02	26462.10
446.21	26719.56
446.39	26799.13
446.58	27236.81
446.77	27580.87
446.95	28163.67
447.14	28858.81
447.32	28971.15
447.51	28407.08
447.69	27445.12
447.88	27119.79
448.06	27910.89
448.25	28533.47
448.43	28432.83
448.62	27438.10
448.80	27700.24
448.99	27604.28
449.17	28133.24
449.36	27903.87
449.54	29130.31
449.73	29432.24
449.91	29902.68
450.10	30366.11
450.28	30951.24
450.46	31035.50
450.65	31005.08
450.83	30583.78
451.02	29860.55
451.20	30244.40
451.39	29844.17
451.57	29682.67
451.76	29565.65
451.94	29399.47
452.13	28893.91
452.31	27756.41
452.49	26312.30
452.68	26731.26
452.86	26611.89
453.05	27115.11
453.23	27880.46
453.42	28271.33
453.60	29195.84
453.78	29511.81
453.97	29333.93
454.15	29034.35
454.34	28201.11
454.52	28985.19
454.70	28306.44
454.89	28666.88
455.07	28610.71
455.26	29116.26
455.44	30015.03
455.62	30405.90
455.81	30845.92
455.99	30487.82
456.17	30272.49
456.36	30195.25
456.54	31077.63
456.73	31075.29
456.91	31604.25
457.09	31559.78
457.28	32009.17
457.46	31016.78
457.64	30651.66
457.83	30022.05
458.01	29490.75
458.19	30127.38
458.38	30199.93
458.56	31316.37
458.74	31094.02
458.93	30476.12
459.11	30441.01
459.29	30277.17
459.48	30366.11
459.66	30375.47
459.84	30288.87
460.03	31264.88
460.21	30724.21
460.39	31606.59
460.57	31672.13
460.76	32107.47
460.94	32165.98
461.12	31934.27
461.31	32011.51
461.49	31929.59
461.67	31608.93
461.85	32641.11
462.04	32381.31
462.22	32856.44
462.40	32627.07
462.59	32615.37
462.77	32395.35
462.95	32376.63
463.13	32147.26
463.32	32091.09
463.50	31604.25
463.68	31395.95
463.86	31936.61
464.05	31051.89
464.23	30871.67
464.41	30319.30
464.59	29802.04
464.78	31220.41
464.96	31442.76
465.14	30913.80
465.32	32013.85
465.50	31997.46
465.69	32655.15
465.87	32313.44
466.05	31145.51
466.23	29628.84
466.41	29097.54
466.60	30054.82
466.78	30197.59
466.96	30621.23
467.14	31519.99
467.32	31489.57
467.51	31491.91
467.69	30155.46
467.87	31318.71
468.05	31445.10
468.23	31229.77
468.41	31194.66
468.60	31491.91
468.78	31735.32
468.96	31527.02
469.14	31957.67
469.32	32336.84
469.50	30764.00
469.69	31175.94
469.87	30885.71
470.05	30206.95
470.23	30560.37
470.41	30508.88
470.59	31189.98
470.77	30955.93
470.95	31805.54
471.14	32332.16
471.32	31847.67
471.50	34277.15
471.68	34080.54
471.86	34389.49
472.04	34232.68
472.22	34616.52
472.40	33071.77
472.58	32364.93
472.77	31974.06
472.95	33324.55
473.13	34019.69
473.31	33092.83
473.49	33558.60
473.67	33692.01
473.85	34213.95
474.03	34705.46
474.21	35129.10
474.39	34724.19
474.57	35349.11
474.75	35297.62
474.93	35089.31
475.12	34295.87
475.30	34572.05
475.48	34656.31
475.66	35021.44
475.84	34235.02
476.02	34223.31
476.20	33722.44
476.38	34532.26
476.56	35124.42
476.74	36404.69
476.92	36268.94
477.10	36725.35
477.28	37631.13
477.46	37488.36
477.64	38129.67
477.82	38108.60
478.00	38176.48
478.18	38122.65
478.36	37677.94
478.54	37598.37
478.72	37865.19
478.90	38646.93
479.08	39854.64
479.26	40172.96
479.44	40266.58
479.62	39866.34
479.80	40053.59
479.98	40198.70
480.16	39952.94
480.34	39981.03
480.52	40055.93
480.70	40715.96
480.88	40608.29
481.06	41170.02
481.24	42052.41
481.41	42775.63
481.59	43140.75
481.77	42923.08
481.95	42204.54
482.13	41818.35
482.31	42342.63
482.49	42918.40
482.67	42670.31
482.85	42852.87
483.03	43770.36
483.21	43966.96
483.39	44215.06
483.57	43335.02
483.74	42848.19
483.92	43285.87
484.10	43463.75
484.28	44259.53
484.46	44865.73
484.64	45202.77
484.82	43950.58
485.00	43889.73
485.18	43173.52
485.35	41476.63
485.53	38494.79
485.71	35225.06
485.89	34291.19
486.07	36350.86
486.25	39632.29
486.43	41968.15
486.61	42752.23
486.78	42628.18
486.96	42466.68
487.14	44479.54
487.32	45326.81
487.50	46391.76
487.68	47545.64
487.85	48123.75
488.03	47812.46
488.21	47339.68
488.39	46518.15
488.57	45949.40
488.75	45764.49
488.92	46600.07
489.10	48968.69
489.28	50852.82
489.46	51419.23
489.64	51112.62
489.81	51150.07
489.99	51051.76
490.17	51028.36
490.35	51250.71
490.53	50869.20
490.70	50492.38
490.88	50614.08
491.06	51704.77
491.24	51412.21
491.41	50211.51
491.59	48598.88
491.77	47426.28
491.95	48680.80
492.13	50305.13
492.30	51154.75
492.48	52605.88
492.66	52959.30
492.84	52540.35
493.01	52713.55
493.19	52023.09
493.37	51805.42
493.54	51566.68
493.72	52310.97
493.90	53223.78
494.08	54042.97
494.25	54216.17
494.43	54497.03
494.61	54639.81
494.79	54862.16
494.96	54541.50
495.14	54181.06
495.32	53034.20
495.49	52371.83
495.67	53602.95
495.85	54864.50
496.02	55187.49
496.20	55243.66
496.38	54782.58
496.55	54780.24
496.73	55224.94
496.91	55353.67
497.09	55945.83
497.26	56006.68
497.44	55686.03
497.62	54873.86
497.79	54174.04
497.97	53008.45
498.14	53076.33
498.32	54143.61
498.50	55302.18
498.67	55891.99
498.85	55639.22
499.03	55669.64
499.20	56002.00
499.38	55929.44
499.56	55791.35
499.73	55477.72
499.91	54742.79
500.08	54569.59
500.26	53525.71
500.44	54073.40
500.61	55000.25
500.79	54843.43
500.97	54525.12
501.14	53951.69
501.32	54014.88
501.49	53834.66
501.67	54216.17
501.84	54583.63
502.02	55014.29
502.20	55196.85
502.37	55381.76
502.55	55838.16
502.72	56179.88
502.90	56725.22
503.07	56151.79
503.25	55943.48
503.43	55096.21
503.60	54394.05
503.78	53619.33
503.95	54150.63
504.13	55503.46
504.30	56608.20
504.48	56170.52
504.65	55931.78
504.83	55854.54
505.01	56322.65
505.18	56814.16
505.36	57490.58
505.53	57301.00
505.71	57801.87
505.88	57677.82
506.06	57193.33
506.23	56914.81
506.41	56589.47
506.58	56655.01
506.76	56559.05
506.93	56750.97
507.11	56126.05
507.28	56505.21
507.46	56123.71
507.63	55475.38
507.81	55264.73
507.98	55458.99
508.16	56315.63
508.33	56662.03
508.50	57221.42
508.68	57382.91
508.85	57750.38
509.03	57914.22
509.20	57710.59
509.38	56996.73
509.55	56381.16
509.73	56598.83
509.90	56996.73
510.08	57279.93
510.25	57085.67
510.42	56800.12
510.60	56973.32
510.77	57202.69
510.95	57446.11
511.12	57581.86
511.30	57954.00
511.47	58269.98
511.64	58272.32
511.82	57935.28
511.99	56970.98
512.17	56598.83
512.34	56170.52
512.51	56481.81
512.69	56615.22
512.86	56568.41
513.04	57198.01
513.21	56994.39
513.38	56956.94
513.56	56516.92
513.73	55709.43
513.90	55927.10
514.08	56034.77
514.25	56238.39
514.43	56746.29
514.60	56750.97
514.77	56856.29
514.95	56872.68
515.12	57050.56
515.29	57017.79
515.47	57586.54
515.64	57584.20
515.81	57296.31
515.99	56647.99
516.16	55318.56
516.33	53031.86
516.51	51353.69
516.68	50471.31
516.85	49909.58
517.03	50234.92
517.20	53169.95
517.37	55714.11
517.54	57010.77
517.72	56357.76
517.89	53748.06
518.06	51253.05
518.24	51505.83
518.41	53731.68
518.58	55119.62
518.75	55686.03
518.93	55920.08
519.10	55583.04
519.27	56278.18
519.45	56301.59
519.62	57069.28
519.79	57434.41
519.96	57396.96
520.14	56938.21
520.31	55863.91
520.48	55894.33
520.65	56229.03
520.83	57174.61
521.00	57492.92
521.17	57315.04
521.34	56889.06
521.52	57153.54
521.69	57813.57
521.86	58099.12
522.03	57631.01
522.20	56715.86
522.38	55522.19
522.55	55606.45
522.72	56200.94
522.89	56336.69
523.07	56315.63
523.24	56800.12
523.41	57549.09
523.58	58010.18
523.75	58599.99
523.92	58429.13
524.10	58155.29
524.27	58234.87
524.44	58052.31
524.61	57916.56
524.78	57567.82
524.96	57612.29
525.13	57752.72
525.30	58056.99
525.47	58269.98
525.64	58169.33
525.81	57504.62
525.98	55819.44
526.16	54714.70
526.33	53965.73
526.50	53539.75
526.67	53081.01
526.84	53867.43
527.01	54897.27
527.18	55686.03
527.36	56395.21
527.53	57193.33
527.70	57738.68
527.87	57116.09
528.04	56851.61
528.21	57137.16
528.38	57785.49
528.55	58398.71
528.72	58733.40
528.89	58955.75
529.07	58567.23
529.24	57757.40
529.41	57322.06
529.58	56655.01
529.75	56891.40
529.92	57338.44
530.09	57614.63
530.26	57951.66
530.43	58396.37
530.60	58506.37
530.77	58602.33
530.94	58997.88
531.11	58211.46
531.28	57951.66
531.46	57532.71
531.63	57956.35
531.80	57726.97
531.97	57511.64
532.14	56533.30
532.31	55615.81
532.48	54958.12
532.65	54808.32
532.82	55845.18
532.99	56851.61
533.16	57305.68
533.33	57841.66
533.50	57490.58
533.67	56938.21
533.84	56479.47
534.01	56713.52
534.18	57020.13
534.35	57270.57
534.52	56980.34
534.69	57310.36
534.86	57380.57
535.03	57839.32
535.20	58265.30
535.37	58583.61
535.54	58499.35
535.71	58389.34
535.88	57986.77
536.05	57483.56
536.22	56886.72
536.38	56746.29
536.55	56104.98
536.72	55564.32
536.89	55657.94
537.06	56446.70
537.23	57511.64
537.40	57616.97
537.57	57752.72
537.74	57467.17
537.91	57223.76
538.08	57286.95
538.25	57336.10
538.42	57485.90
538.59	57291.63
538.75	56449.04
538.92	56264.14
539.09	56247.75
539.26	56100.30
539.43	55941.14
539.60	56055.83
539.77	56121.37
539.94	56116.68
540.11	55215.58
540.28	54604.70
540.44	54824.71
540.61	54990.89
540.78	55257.71
540.95	55756.24
541.12	56289.88
541.29	56458.40
541.46	56966.30
541.62	56774.37
541.79	56828.21
541.96	56123.71
542.13	55917.74
542.30	56383.51
542.47	56481.81
542.63	56324.99
542.80	56074.55
542.97	56062.85
543.14	55894.33
543.31	56219.67
543.48	56631.60
543.64	57165.24
543.81	57645.05
543.98	57549.09
544.15	56647.99
544.32	56086.26
544.48	56210.31
544.65	56671.39
544.82	56978.00
544.99	56779.06
545.16	56488.83
545.32	55985.61
545.49	56755.65
545.66	57263.55
545.83	56996.73
546.00	56491.17
546.16	56236.05
546.33	56142.43
546.50	56568.41
546.67	56722.88
546.83	56343.72
547.00	56310.95
547.17	55625.17
547.34	55103.23
547.50	54850.45
547.67	55627.51
547.84	55643.90
548.00	55824.12
548.17	56395.21
548.34	56205.62
548.51	56404.57
548.67	56196.26
548.84	56362.44
549.01	56432.66
549.18	56236.05
549.34	56154.13
549.51	56128.39
549.68	56214.99
549.84	55847.52
550.01	55831.14
550.18	55618.15
550.34	55714.11
550.51	55828.80
550.68	55934.12
550.84	55367.71
551.01	55246.00
551.18	55564.32
551.34	55405.16
551.51	55847.52
551.68	56374.14
551.84	56390.53
552.01	56123.71
552.18	56060.51
552.34	55224.94
552.51	54841.09
552.68	54501.71
552.84	54993.23
553.01	55388.78
553.18	55264.73
553.34	55260.05
553.51	55550.27
553.67	55899.01
553.84	56161.15
554.01	55639.22
554.17	55547.93
554.34	55601.77
554.51	55702.41
554.67	55985.61
554.84	56062.85
555.00	55538.57
555.17	55313.88
555.33	55311.54
555.50	55395.80
555.67	55253.03
555.83	55201.53
556.00	54901.95
556.16	54691.30
556.33	54370.64
556.50	54099.14
556.66	54417.46
556.83	54075.74
556.99	54071.06
557.16	54115.53
557.32	54887.90
557.49	54946.42
557.65	54885.56
557.82	54710.02
557.98	54389.37
558.15	53939.99
558.32	53268.25
558.48	52317.99
558.65	52701.84
558.81	53031.86
558.98	53099.73
559.14	53635.72
559.31	53825.30
559.47	53401.66
559.64	53233.14
559.80	52729.93
559.97	52753.33
560.13	53443.79
560.30	54520.44
560.46	55030.68
560.63	55168.77
560.79	55260.05
560.96	54644.49
561.12	53359.53
561.29	52591.84
561.45	52392.89
561.61	53090.37
561.78	53633.38
561.94	53794.87
562.11	53446.13
562.27	53399.32
562.44	53378.26
562.60	53998.50
562.77	54335.54
562.93	53942.33
563.10	53989.14
563.26	53272.93
563.42	53347.83
563.59	53303.36
563.75	53251.87
563.92	53401.66
564.08	53191.01
564.24	53593.59
564.41	53499.97
564.57	53511.67
564.74	53242.51
564.90	53181.65
565.07	53071.65
565.23	52640.99
565.39	52112.03
565.56	51601.79
565.72	51409.87
565.88	51721.16
566.05	52097.98
566.21	52121.39
566.38	52594.18
566.54	52809.51
566.70	53162.93
566.87	53183.99
567.03	53296.34
567.19	53148.88
567.36	53167.61
567.52	52650.35
567.68	52622.26
567.85	52140.11
568.01	51620.52
568.17	51316.25
568.34	51220.28
568.50	50948.78
568.66	51430.93
568.83	51622.86
568.99	51653.28
569.15	52016.07
569.32	51723.50
569.48	51784.35
569.64	51349.01
569.81	51119.64
569.97	51292.84
570.13	50651.53
570.30	50373.01
570.46	50122.57
570.62	49195.72
570.78	48968.69
570.95	49488.29
571.11	50031.29
571.27	50632.81
571.43	50593.02
571.60	51014.32
571.76	51353.69
571.92	51758.61
572.09	51700.09
572.25	51957.55
572.41	51746.90
572.57	51578.39
572.74	51505.83
572.90	51290.50
573.06	51208.58
573.22	51035.38
573.38	51192.20
573.55	51126.66
573.71	51058.79
573.87	51154.75
574.03	51016.66
574.20	51044.74
574.36	50667.92
574.52	50457.27
574.68	50499.40
574.84	49825.32
575.01	49483.61
575.17	49076.35
575.33	49556.16
575.49	49593.61
575.65	50045.33
575.82	49490.63
575.98	49462.54
576.14	49560.84
576.30	50314.50
576.46	50007.89
576.62	50183.43
576.79	50155.34
576.95	49787.88
577.11	49663.83
577.27	49846.39
577.43	49631.06
577.59	49518.71
577.75	49382.96
577.92	48109.71
578.08	47948.21
578.24	47737.57
578.40	48240.78
578.56	48442.07
578.72	48727.61
578.88	49006.14
579.04	48877.41
579.21	49116.14
579.37	49532.76
579.53	49357.22
579.69	49378.28
579.85	49464.88
580.01	49148.91
580.17	48739.32
580.33	48547.39
580.49	48910.17
580.65	48889.11
580.82	49331.47
580.98	49109.12
581.14	49139.55
581.30	49287.00
581.46	48802.51
581.62	49504.67
581.78	49579.57
581.94	49462.54
582.10	49045.93
582.26	49322.11
582.42	49628.72
582.58	49495.31
582.74	49357.22
582.90	49432.11
583.06	49528.08
583.22	49048.27
583.38	48959.33
583.54	48708.89
583.70	48966.35
583.86	48863.36
584.02	48612.93
584.18	48545.05
584.34	49097.42
584.50	49003.80
584.66	48481.86
584.82	48076.94
584.98	48287.59
585.14	47641.60
585.30	47129.03
