SpectraSuite Data File
++++++++++++++++++++++++++++++++++++
Date: Mon Oct 07 14:54:56 GMT-05:00 2013
User: price-jones
Dark Spectrum Present: No
Reference Spectrum Present: No
Number of Sampled Component Spectra: 1
Spectrometers: USB2+H05261
Integration Time (usec): 10000 (USB2+H05261)
Spectra Averaged: 1 (USB2+H05261)
Boxcar Smoothing: 0 (USB2+H05261)
Correct for Electrical Dark: No (USB2+H05261)
Strobe/Lamp Enabled: No (USB2+H05261)
Correct for Detector Non-linearity: No (USB2+H05261)
Correct for Stray Light: No (USB2+H05261)
Number of Pixels in Processed Spectrum: 2048
>>>>>Begin Processed Spectral Data<<<<<
365.73	0.00
365.92	0.00
366.12	0.00
366.32	0.00
366.52	0.00
366.72	0.00
366.91	0.00
367.11	0.00
367.31	0.00
367.51	0.00
367.70	0.00
367.90	0.00
368.10	0.00
368.30	0.00
368.49	0.00
368.69	0.00
368.89	0.00
369.09	0.00
369.28	0.00
369.48	0.00
369.68	0.00
369.87	0.00
370.07	0.00
370.27	0.00
370.47	0.00
370.66	393.21
370.86	503.22
371.06	554.71
371.25	631.94
371.45	449.38
371.65	543.00
371.84	458.74
372.04	498.53
372.24	554.71
372.44	512.58
372.63	585.13
372.83	482.15
373.03	407.25
373.22	376.83
373.42	491.51
373.62	503.22
373.81	512.58
374.01	404.91
374.21	358.10
374.40	400.23
374.60	528.96
374.79	543.00
374.99	727.91
375.19	636.63
375.38	702.16
375.58	713.86
375.78	610.88
375.97	760.67
376.17	772.38
376.37	681.10
376.56	695.14
376.76	812.17
376.95	917.49
377.15	891.74
377.35	976.00
377.54	898.77
377.74	1064.94
377.93	938.55
378.13	912.81
378.33	992.39
378.52	866.00
378.72	800.46
378.91	716.20
379.11	807.48
379.31	692.80
379.50	772.38
379.70	725.57
379.89	772.38
380.09	873.02
380.28	917.49
380.48	968.98
380.68	910.47
380.87	779.40
381.07	830.89
381.26	671.73
381.46	596.84
381.65	631.94
381.85	589.82
382.04	423.64
382.24	472.79
382.43	519.60
382.63	512.58
382.83	543.00
383.02	362.78
383.22	414.27
383.41	472.79
383.61	521.94
383.80	683.44
384.00	690.46
384.19	809.83
384.39	898.77
384.58	905.79
384.78	915.15
384.97	880.04
385.17	786.42
385.36	739.61
385.56	667.05
385.75	720.88
385.95	755.99
386.14	854.30
386.34	800.46
386.53	875.36
386.72	748.97
386.92	816.85
387.11	772.38
387.31	875.36
387.50	898.77
387.70	875.36
387.89	875.36
388.09	847.27
388.28	814.51
388.48	814.51
388.67	877.70
388.86	959.62
389.06	1083.67
389.25	1210.06
389.45	1198.35
389.64	1170.27
389.84	1121.12
390.03	1025.15
390.22	1090.69
390.42	1048.56
390.61	1364.53
390.81	1277.93
391.00	1439.43
391.19	1416.02
391.39	1392.62
391.58	1193.67
391.78	1153.88
391.97	1172.61
392.16	1001.75
392.36	849.61
392.55	631.94
392.75	451.72
392.94	308.95
393.13	386.19
393.33	444.70
393.52	713.86
393.71	816.85
393.91	971.32
394.10	1088.35
394.29	1245.16
394.49	1151.54
394.68	1497.94
394.88	1474.54
395.07	1371.55
395.26	1380.92
395.46	1411.34
395.65	1219.42
395.84	1125.80
396.04	870.68
396.23	798.12
396.42	559.39
396.62	543.00
396.81	706.84
397.00	936.21
397.19	1174.95
397.39	1362.19
397.58	1565.82
397.77	1589.22
397.97	1788.17
398.16	1650.08
398.35	1853.70
398.55	1912.22
398.74	1977.75
398.93	1933.28
399.12	1935.62
399.32	1907.54
399.51	1996.48
399.70	2003.50
399.90	2019.88
400.09	2047.97
400.28	1944.99
400.47	1900.52
400.67	2157.97
400.86	2045.63
401.05	2183.72
401.24	2197.76
401.44	2104.14
401.63	2235.21
401.82	2183.72
402.01	2176.70
402.21	2179.04
402.40	2172.02
402.59	2169.68
402.78	1954.35
402.97	2005.84
403.17	2087.76
403.36	2195.42
403.55	2345.22
403.74	2333.51
403.93	2216.49
404.13	1998.82
404.32	1942.64
404.51	2113.50
404.70	2172.02
404.89	2160.31
405.09	2143.93
405.28	2127.55
405.47	2062.01
405.66	2122.87
405.85	2069.03
406.05	1940.30
406.24	1858.39
406.43	2129.89
406.62	2204.78
406.81	2190.74
407.00	1991.80
407.20	2038.61
407.39	2078.40
407.58	2134.57
407.77	2242.23
407.96	2237.55
408.15	2291.38
408.34	2356.92
408.54	2284.36
408.73	2380.32
408.92	2513.74
409.11	2277.34
409.30	2190.74
409.49	2097.12
409.68	1968.39
409.87	1914.56
410.07	1865.41
410.26	2080.74
410.45	2293.72
410.64	2354.58
410.83	2462.24
411.02	2476.29
411.21	2621.40
411.40	2640.12
411.59	2480.97
411.78	2431.82
411.98	2394.37
412.17	2523.10
412.36	2422.45
412.55	2478.63
412.74	2380.32
412.93	2382.67
413.12	2392.03
413.31	2602.68
413.50	2710.34
413.69	2644.81
413.88	2612.04
414.07	2513.74
414.26	2452.88
414.45	2616.72
414.64	2569.91
414.83	2602.68
415.02	2576.93
415.22	2546.50
415.41	2569.91
415.60	2616.72
415.79	2796.94
415.98	2780.56
416.17	2803.96
416.36	2619.06
416.55	2708.00
416.74	2607.36
416.93	2511.39
417.12	2607.36
417.31	2497.35
417.50	2586.29
417.69	2656.51
417.88	2738.43
418.07	2708.00
418.26	2558.21
418.45	2670.55
418.64	2651.83
418.83	2949.08
419.02	2789.92
419.21	2724.38
419.39	2628.42
419.58	2642.46
419.77	2530.12
419.96	2672.89
420.15	2799.28
420.34	2930.35
420.53	2984.18
420.72	3141.00
420.91	2995.89
421.10	2956.10
421.29	2977.16
421.48	2708.00
421.67	2930.35
421.86	2782.90
422.05	2565.23
422.24	2324.15
422.43	2244.57
422.61	2565.23
422.80	2670.55
422.99	2745.45
423.18	2649.49
423.37	2647.15
423.56	2593.31
423.75	2738.43
423.94	2693.96
424.13	2464.58
424.32	2572.25
424.50	2628.42
424.69	2621.40
424.88	2621.40
425.07	2626.08
425.26	2527.78
425.45	2560.55
425.64	2413.09
425.83	2485.65
426.01	2640.12
426.20	2733.75
426.39	2626.08
426.58	2473.95
426.77	2324.15
426.96	2167.34
427.15	2263.30
427.33	2403.73
427.52	2483.31
427.71	2649.49
427.90	2548.84
428.09	2417.77
428.28	2455.22
428.46	2373.30
428.65	2289.04
428.84	2422.45
429.03	2485.65
429.22	2347.56
429.40	2064.35
429.59	1949.67
429.78	1633.69
429.97	1713.27
430.16	1757.74
430.34	1846.68
430.53	1645.40
430.72	1741.36
430.91	2054.99
431.10	2380.32
431.28	2895.24
431.47	2963.12
431.66	3087.17
431.85	2750.13
432.03	2513.74
432.22	2375.64
432.41	2457.56
432.60	2740.77
432.79	2956.10
432.97	2928.01
433.16	2942.05
433.35	2630.76
433.54	2363.94
433.72	2239.89
433.91	2277.34
434.10	2588.63
434.28	2722.04
434.47	2822.69
434.66	2738.43
434.85	2717.36
435.03	2855.45
435.22	2708.00
435.41	2972.48
435.59	3035.67
435.78	3063.76
435.97	2998.23
436.16	3204.19
436.34	3066.10
436.53	3012.27
436.72	3035.67
436.90	2710.34
437.09	2712.68
437.28	2600.34
437.46	2794.60
437.65	2813.32
437.84	2619.06
438.02	2452.88
438.21	2377.98
438.40	2576.93
438.58	2808.64
438.77	2902.26
438.96	2867.16
439.14	2981.84
439.33	3075.46
439.52	3112.91
439.70	2977.16
439.89	3038.02
440.08	2932.69
440.26	2832.05
440.45	2925.67
440.63	3218.24
440.82	3194.83
441.01	3251.00
441.19	3251.00
441.38	3260.37
441.57	3368.03
441.75	3461.65
441.94	3421.86
442.12	3323.56
442.31	3592.72
442.50	3548.25
442.68	3555.27
442.87	3365.69
443.05	3419.52
443.24	3454.63
443.43	3548.25
443.61	3459.31
443.80	3625.49
443.98	3344.63
444.17	3321.22
444.35	3419.52
444.54	3616.13
444.73	3548.25
444.91	3323.56
445.10	3251.00
445.28	3035.67
445.47	3033.33
445.65	2993.55
445.84	3084.83
446.02	3323.56
446.21	3150.36
446.39	3361.01
446.58	3414.84
446.77	3478.04
446.95	3503.78
447.14	3482.72
447.32	3653.58
447.51	3581.02
447.69	3375.05
447.88	3410.16
448.06	3475.70
448.25	3494.42
448.43	3599.74
448.62	3431.23
448.80	3459.31
448.99	3405.48
449.17	3478.04
449.36	3440.59
449.54	3576.34
449.73	3644.21
449.91	3616.13
450.10	3824.44
450.28	3705.07
450.46	3976.57
450.65	3627.83
450.83	3822.09
451.02	3758.90
451.20	3686.34
451.39	3726.13
451.57	3630.17
451.76	3705.07
451.94	3595.06
452.13	3691.02
452.31	3276.75
452.49	3148.02
452.68	3316.54
452.86	3323.56
453.05	3365.69
453.23	3421.86
453.42	3417.18
453.60	3515.48
453.78	3524.85
453.97	3442.93
454.15	3545.91
454.34	3473.36
454.52	3412.50
454.70	3335.26
454.89	3321.22
455.07	3517.83
455.26	3433.57
455.44	3618.47
455.62	3817.41
455.81	3716.77
455.99	3658.26
456.17	3550.59
456.36	3658.26
456.54	3705.07
456.73	3740.18
456.91	3904.01
457.09	3822.09
457.28	3960.19
457.46	3641.87
457.64	3700.39
457.83	3632.51
458.01	3538.89
458.19	3721.45
458.38	3623.15
458.56	3712.09
458.74	3873.59
458.93	3574.00
459.11	3623.15
459.29	3508.46
459.48	3571.66
459.66	3660.60
459.84	3667.62
460.03	3700.39
460.21	3684.00
460.39	3852.52
460.57	3815.07
460.76	3768.26
460.94	3822.09
461.12	3751.88
461.31	3779.97
461.49	3843.16
461.67	3775.28
461.85	3873.59
462.04	3709.75
462.22	3946.14
462.40	3913.38
462.59	3913.38
462.77	3770.60
462.95	3878.27
463.13	3803.37
463.32	3620.81
463.50	3611.45
463.68	3651.24
463.86	3805.71
464.05	3688.68
464.23	3648.90
464.41	3644.21
464.59	3538.89
464.78	3765.92
464.96	3644.21
465.14	3709.75
465.32	3756.56
465.50	3737.84
465.69	3866.56
465.87	3754.22
466.05	3688.68
466.23	3482.72
466.41	3463.99
466.60	3559.95
466.78	3578.68
466.96	3482.72
467.14	3627.83
467.32	3574.00
467.51	3847.84
467.69	3534.21
467.87	3613.79
468.05	3545.91
468.23	3791.67
468.41	3651.24
468.60	3609.11
468.78	3772.94
468.96	3630.17
469.14	3751.88
469.32	3709.75
469.50	3646.55
469.69	3527.19
469.87	3550.59
470.05	3524.85
470.23	3599.74
470.41	3583.36
470.59	3686.34
470.77	3574.00
470.95	3660.60
471.14	3747.20
471.32	3520.17
471.50	3981.25
471.68	3985.93
471.86	4119.34
472.04	3941.46
472.22	3726.13
472.40	3700.39
472.58	3829.12
472.77	3763.58
472.95	3749.54
473.13	3831.46
473.31	3721.45
473.49	3847.84
473.67	3782.31
473.85	3850.18
474.03	3960.19
474.21	3974.23
474.39	4025.72
474.57	3990.61
474.75	4072.53
474.93	4058.49
475.12	3822.09
475.30	3911.04
475.48	3939.12
475.66	4159.13
475.84	3953.16
476.02	3939.12
476.20	3810.39
476.38	3908.69
476.56	4056.15
476.74	4074.87
476.92	4217.65
477.10	4117.00
477.28	4320.63
477.46	4346.37
477.64	4278.50
477.82	4360.42
478.00	4329.99
478.18	4367.44
478.36	4329.99
478.54	4362.76
478.72	4454.04
478.90	4449.36
479.08	4594.47
479.26	4641.28
479.44	4587.45
479.62	4587.45
479.80	4580.43
479.98	4566.39
480.16	4739.58
480.34	4585.11
480.52	4760.65
480.70	4592.13
480.88	4664.69
481.06	4716.18
481.24	4744.27
481.41	4940.87
481.59	4992.36
481.77	4842.57
481.95	4793.42
482.13	4840.23
482.31	4987.68
482.49	4917.47
482.67	4777.03
482.85	4823.84
483.03	4894.06
483.21	4884.70
483.39	5097.69
483.57	4938.53
483.74	4898.74
483.92	4957.25
484.10	4873.00
484.28	5224.08
484.46	5195.99
484.64	5282.59
484.82	5090.67
485.00	5008.75
485.18	4744.27
485.35	4807.46
485.53	4287.86
485.71	3948.48
485.89	3908.69
486.07	4053.81
486.25	4337.01
486.43	4748.95
486.61	4870.65
486.78	4929.17
486.96	5036.83
487.14	5057.90
487.32	5146.84
487.50	5341.10
487.68	5493.24
487.85	5654.73
488.03	5488.56
488.21	5348.12
488.39	5296.63
488.57	5130.45
488.75	5146.84
488.92	5270.89
489.10	5579.84
489.28	5959.00
489.46	6108.80
489.64	5886.45
489.81	6069.01
489.99	6111.14
490.17	6038.58
490.35	6033.90
490.53	5834.96
490.70	5905.17
490.88	5830.27
491.06	6031.56
491.24	6197.74
491.41	5933.26
491.59	5738.99
491.77	5378.55
491.95	5727.29
492.13	5963.68
492.30	6073.69
492.48	6300.72
492.66	6307.74
492.84	6340.51
493.01	6293.70
493.19	6258.59
493.37	6003.47
493.54	6113.48
493.72	6171.99
493.90	6534.78
494.08	6562.86
494.25	6745.42
494.43	6684.57
494.61	6789.89
494.79	6740.74
494.96	6707.98
495.14	6649.46
495.32	6298.38
495.49	6108.80
495.67	6401.37
495.85	6846.07
496.02	6995.86
496.20	6953.73
496.38	6729.04
496.55	6750.10
496.73	6878.83
496.91	6768.83
497.09	6984.16
497.26	6899.90
497.44	6832.02
497.62	6927.99
497.79	6579.25
497.97	6223.48
498.14	6363.92
498.32	6551.16
498.50	6717.34
498.67	7082.46
498.85	6911.60
499.03	6782.87
499.20	7005.22
499.38	6843.73
499.56	6897.56
499.73	6850.75
499.91	6825.00
500.08	6619.04
500.26	6457.54
500.44	6492.65
500.61	6743.08
500.79	6782.87
500.97	6516.05
501.14	6487.96
501.32	6499.67
501.49	6581.59
501.67	6504.35
501.84	6485.62
502.02	6693.93
502.20	6780.53
502.37	6942.03
502.55	6899.90
502.72	7026.29
502.90	7021.61
503.07	7012.24
503.25	6843.73
503.43	6569.88
503.60	6579.25
503.78	6377.96
503.95	6413.07
504.13	6913.94
504.30	7215.87
504.48	7059.06
504.65	6860.11
504.83	6979.48
505.01	6972.46
505.18	7110.55
505.36	7108.21
505.53	7290.77
505.71	7431.20
505.88	7339.92
506.06	7258.00
506.23	7066.08
506.41	7075.44
506.58	7194.81
506.76	7030.97
506.93	6904.58
507.11	6820.32
507.28	7176.08
507.46	6738.40
507.63	6759.47
507.81	6679.89
507.98	6679.89
508.16	6923.30
508.33	7115.23
508.50	7126.93
508.68	7316.51
508.85	7265.02
509.03	7513.12
509.20	7267.36
509.38	7297.79
509.55	6778.19
509.73	6806.28
509.90	7059.06
510.08	7281.41
510.25	6979.48
510.42	7002.88
510.60	6906.92
510.77	6963.09
510.95	7087.14
511.12	7314.17
511.30	7503.76
511.47	7463.97
511.64	7339.92
511.82	7485.03
511.99	7150.34
512.17	7096.50
512.34	7019.27
512.51	6967.77
512.69	6810.96
512.86	6876.49
513.04	7040.33
513.21	7229.91
513.38	6857.77
513.56	6733.72
513.73	6792.23
513.90	6752.45
514.08	6853.09
514.25	6960.75
514.43	6965.43
514.60	6909.26
514.77	6998.20
514.95	7150.34
515.12	6895.22
515.29	6953.73
515.47	7126.93
515.64	7229.91
515.81	7068.42
515.99	6998.20
516.16	6572.22
516.33	6087.73
516.51	5771.76
516.68	5664.10
516.85	5474.51
517.03	5640.69
517.20	6136.88
517.37	6691.59
517.54	6942.03
517.72	6780.53
517.89	6216.46
518.06	5771.76
518.24	5748.36
518.41	6267.95
518.58	6593.29
518.75	6775.85
518.93	6654.14
519.10	6511.37
519.27	6752.45
519.45	6848.41
519.62	7030.97
519.79	7148.00
519.96	7124.59
520.14	6958.41
520.31	6586.27
520.48	6829.68
520.65	6817.98
520.83	7019.27
521.00	7253.32
521.17	7014.59
521.34	7021.61
521.52	6986.50
521.69	7124.59
521.86	7386.73
522.03	7129.27
522.20	6862.45
522.38	6621.38
522.55	6656.48
522.72	6923.30
522.89	6628.40
523.07	6888.20
523.24	7045.01
523.41	6951.39
523.58	7220.55
523.75	7393.75
523.92	7246.30
524.10	7344.60
524.27	7265.02
524.44	7194.81
524.61	7157.36
524.78	7183.10
524.96	7171.40
525.13	7169.06
525.30	7129.27
525.47	7417.16
525.64	7040.33
525.81	7030.97
525.98	6541.80
526.16	5963.68
526.33	6202.42
526.50	6045.60
526.67	6061.99
526.84	6122.84
527.01	6354.55
527.18	6700.95
527.36	6930.33
527.53	7117.57
527.70	7201.83
527.87	6937.35
528.04	6768.83
528.21	7000.54
528.38	7091.82
528.55	7330.56
528.72	7250.98
528.89	7375.03
529.07	7389.07
529.24	7225.23
529.41	6883.52
529.58	6857.77
529.75	6747.76
529.92	6855.43
530.09	7101.19
530.26	7211.19
530.43	7248.64
530.60	7342.26
530.77	7197.15
530.94	7382.05
531.11	7243.96
531.28	7166.72
531.46	6869.47
531.63	6974.80
531.80	7028.63
531.97	6984.16
532.14	6946.71
532.31	6485.62
532.48	6314.77
532.65	6242.21
532.82	6633.08
532.99	6733.72
533.16	6848.41
533.33	6925.65
533.50	7173.74
533.67	6778.19
533.84	6773.51
534.01	6874.15
534.18	6836.70
534.35	7101.19
534.52	6869.47
534.69	6913.94
534.86	6913.94
535.03	7103.53
535.20	7162.04
535.37	7293.11
535.54	7431.20
535.71	7243.96
535.88	7122.25
536.05	7080.12
536.22	6803.94
536.38	6724.36
536.55	6712.66
536.72	6436.47
536.89	6349.87
537.06	6698.61
537.23	7190.13
537.40	7119.91
537.57	7002.88
537.74	6785.21
537.91	6881.18
538.08	6857.77
538.25	6885.86
538.42	7012.24
538.59	6909.26
538.75	6705.63
538.92	6555.84
539.09	6565.20
539.26	6637.76
539.43	6478.60
539.60	6537.12
539.77	6504.35
539.94	6668.19
540.11	6321.79
540.28	6298.38
540.44	6237.53
540.61	6406.05
540.78	6464.56
540.95	6420.09
541.12	6703.29
541.29	6747.76
541.46	6775.85
541.62	6717.34
541.79	6616.69
541.96	6551.16
542.13	6427.11
542.30	6506.69
542.47	6717.34
542.63	6511.37
542.80	6682.23
542.97	6555.84
543.14	6506.69
543.31	6401.37
543.48	6668.19
543.64	6925.65
543.81	6782.87
543.98	6883.52
544.15	6581.59
544.32	6331.15
544.48	6597.97
544.65	6628.40
544.82	6787.55
544.99	6726.70
545.16	6373.28
545.32	6420.09
545.49	6663.51
545.66	6817.98
545.83	6628.40
546.00	6565.20
546.16	6614.35
546.33	6619.04
546.50	6572.22
546.67	6581.59
546.83	6502.01
547.00	6445.84
547.17	6380.30
547.34	6392.00
547.50	6345.19
547.67	6331.15
547.84	6396.68
548.00	6544.14
548.17	6523.07
548.34	6722.02
548.51	6480.94
548.67	6663.51
548.84	6502.01
549.01	6588.61
549.18	6640.10
549.34	6464.56
549.51	6558.18
549.68	6544.14
549.84	6546.48
550.01	6457.54
550.18	6211.78
550.34	6392.00
550.51	6415.41
550.68	6410.73
550.84	6331.15
551.01	6331.15
551.18	6335.83
551.34	6558.18
551.51	6469.24
551.68	6282.00
551.84	6319.45
552.01	6490.31
552.18	6609.67
552.34	6356.90
552.51	6167.31
552.68	6239.87
552.84	6239.87
553.01	6459.88
553.18	6394.34
553.34	6253.91
553.51	6237.53
553.67	6420.09
553.84	6448.18
554.01	6413.07
554.17	6342.85
554.34	6441.15
554.51	6326.47
554.67	6352.21
554.84	6368.60
555.00	6164.97
555.17	6228.17
555.33	6267.95
555.50	6328.81
555.67	6129.86
555.83	6277.32
556.00	6167.31
556.16	6083.05
556.33	5874.74
556.50	5987.09
556.66	6064.33
556.83	5870.06
556.99	6047.94
557.16	5933.26
557.32	6216.46
557.49	6115.82
557.65	6300.72
557.82	6249.23
557.98	6047.94
558.15	5963.68
558.32	5783.46
558.48	5561.11
558.65	5493.24
558.81	5678.14
558.98	5912.19
559.14	5818.57
559.31	5858.36
559.47	6078.37
559.64	5837.30
559.80	5703.89
559.97	5729.63
560.13	5795.17
560.30	6054.97
560.46	6225.82
560.63	6164.97
560.79	5956.66
560.96	6001.13
561.12	5802.19
561.29	5701.54
561.45	5680.48
561.61	5844.32
561.78	5884.11
561.94	5823.25
562.11	5961.34
562.27	5729.63
562.44	5900.49
562.60	5973.05
562.77	6045.60
562.93	5895.81
563.10	5937.94
563.26	5760.06
563.42	5673.46
563.59	5788.14
563.75	5650.05
563.92	5696.86
564.08	5769.42
564.24	5729.63
564.41	5867.72
564.57	5804.53
564.74	5998.79
564.90	5928.58
565.07	5799.85
565.23	5584.52
565.39	5448.77
565.56	5509.62
565.72	5514.30
565.88	5427.70
566.05	5273.23
566.21	5500.26
566.38	5554.09
566.54	5526.00
566.70	5682.82
566.87	5806.87
567.03	5774.10
567.19	5884.11
567.36	5657.07
567.52	5909.85
567.68	5673.46
567.85	5427.70
568.01	5626.65
568.17	5453.45
568.34	5298.97
568.50	5331.74
568.66	5135.14
568.83	5614.95
568.99	5486.22
569.15	5528.35
569.32	5659.42
569.48	5518.98
569.64	5275.57
569.81	5500.26
569.97	5348.12
570.13	5406.64
570.30	5195.99
570.46	5111.73
570.62	5027.47
570.78	5158.54
570.95	5114.07
571.11	5235.78
571.27	5383.23
571.43	5315.36
571.60	5383.23
571.76	5383.23
571.92	5514.30
572.09	5603.24
572.25	5448.77
572.41	5378.55
572.57	5483.88
572.74	5430.04
572.90	5446.43
573.06	5313.02
573.22	5310.68
573.38	5331.74
573.55	5163.22
573.71	5359.83
573.87	5439.40
574.03	5324.72
574.20	5373.87
574.36	5242.80
574.52	5282.59
574.68	5224.08
574.84	5273.23
575.01	5130.45
575.17	5238.12
575.33	5137.48
575.49	5144.50
575.65	5130.45
575.82	5107.05
575.98	4999.38
576.14	5172.58
576.30	5160.88
576.46	5284.93
576.62	5116.41
576.79	5158.54
576.95	5027.47
577.11	5146.84
577.27	5289.61
577.43	5081.30
577.59	5163.22
577.75	4964.28
577.92	4912.78
578.08	4837.89
578.24	4950.23
578.40	4830.87
578.56	4950.23
578.72	4966.62
578.88	4901.08
579.04	4933.85
579.21	5027.47
579.37	5165.56
579.53	5053.22
579.69	4924.49
579.85	5219.39
580.01	5011.09
580.17	4931.51
580.33	5130.45
580.49	4968.96
580.65	4931.51
580.82	4999.38
580.98	5008.75
581.14	5107.05
581.30	4971.30
581.46	4919.81
581.62	4961.94
581.78	5020.45
581.94	4961.94
582.10	4959.60
582.26	5039.17
582.42	5109.39
582.58	4994.70
582.74	5027.47
582.90	5060.24
583.06	5050.88
583.22	4968.96
583.38	4980.66
583.54	5081.30
583.70	5102.37
583.86	5022.79
584.02	4950.23
584.18	5064.92
584.34	4987.68
584.50	4779.37
584.66	4999.38
584.82	4917.47
584.98	4734.90
585.14	4800.44
585.30	4643.62
585.46	4519.57
585.62	4657.67
585.78	4791.08
585.94	4660.01
586.10	4748.95
586.26	4767.67
586.42	4898.74
586.58	4737.24
586.74	4889.38
586.90	4793.42
587.06	4770.01
587.22	4779.37
587.38	4807.46
587.54	4912.78
587.70	4592.13
587.86	4575.75
588.02	4608.51
588.18	4454.04
588.34	4285.52
588.49	4243.39
588.65	3854.86
588.81	3936.78
588.97	4060.83
589.13	3922.74
589.29	3927.42
589.45	4002.32
589.61	3997.64
589.77	4198.92
589.93	4292.54
590.08	4479.79
590.24	4505.53
590.40	4358.08
590.56	4514.89
590.72	4514.89
590.88	4587.45
591.04	4369.78
591.20	4407.23
591.35	4365.10
591.51	4381.48
591.67	4421.27
591.83	4430.63
591.99	4428.29
592.15	4344.03
592.31	4430.63
592.46	4472.76
592.62	4320.63
592.78	4273.82
592.94	4376.80
593.10	4510.21
593.26	4369.78
593.41	4456.38
593.57	4283.18
593.73	4320.63
593.89	4355.74
594.05	4334.67
594.20	4257.43
594.36	4306.59
594.52	4236.37
594.68	4109.98
594.84	4194.24
594.99	4262.12
595.15	4161.47
595.31	4201.26
595.47	4283.18
595.62	4381.48
595.78	4360.42
595.94	4266.80
596.10	4252.75
596.25	4229.35
596.41	4241.05
596.57	4414.25
596.73	4250.41
596.88	4250.41
597.04	4245.73
597.20	4163.81
597.36	4161.47
597.51	4346.37
597.67	4177.86
