SpectraSuite Data File
++++++++++++++++++++++++++++++++++++
Date: Mon Oct 07 14:53:56 GMT-05:00 2013
User: price-jones
Dark Spectrum Present: No
Reference Spectrum Present: No
Number of Sampled Component Spectra: 1
Spectrometers: USB2+H05261
Integration Time (usec): 100000 (USB2+H05261)
Spectra Averaged: 1 (USB2+H05261)
Boxcar Smoothing: 0 (USB2+H05261)
Correct for Electrical Dark: No (USB2+H05261)
Strobe/Lamp Enabled: No (USB2+H05261)
Correct for Detector Non-linearity: No (USB2+H05261)
Correct for Stray Light: No (USB2+H05261)
Number of Pixels in Processed Spectrum: 2048
>>>>>Begin Processed Spectral Data<<<<<
365.73	0.00
365.92	0.00
366.12	0.00
366.32	0.00
366.52	0.00
366.72	0.00
366.91	0.00
367.11	0.00
367.31	0.00
367.51	0.00
367.70	0.00
367.90	0.00
368.10	0.00
368.30	0.00
368.49	0.00
368.69	0.00
368.89	0.00
369.09	0.00
369.28	0.00
369.48	0.00
369.68	0.00
369.87	0.00
370.07	0.00
370.27	0.00
370.47	716.20
370.66	3620.81
370.86	4236.37
371.06	4641.28
371.25	4648.30
371.45	4334.67
371.65	3868.91
371.84	3548.25
372.04	3857.20
372.24	4318.29
372.44	4507.87
372.63	4168.49
372.83	4053.81
373.03	3684.00
373.22	3417.18
373.42	3609.11
373.62	4051.47
373.81	4381.48
374.01	4451.70
374.21	3775.28
374.40	3492.08
374.60	3702.73
374.79	4238.71
374.99	4819.16
375.19	5280.25
375.38	5366.85
375.58	5050.88
375.78	4922.15
375.97	5029.81
376.17	5142.16
376.37	5172.58
376.56	5446.43
376.76	5631.33
376.95	6038.58
377.15	6361.58
377.35	6558.18
377.54	6738.40
377.74	7281.41
377.93	7178.42
378.13	6843.73
378.33	6455.20
378.52	6057.31
378.72	5797.51
378.91	5743.67
379.11	5511.96
379.31	5476.85
379.50	5228.76
379.70	5804.53
379.89	6394.34
380.09	6693.93
380.28	6913.94
380.48	6881.18
380.68	6740.74
380.87	6785.21
381.07	6253.91
381.26	5462.81
381.46	5341.10
381.65	5102.37
381.85	5008.75
382.04	4706.82
382.24	4456.38
382.43	4299.56
382.63	4142.75
382.83	4170.83
383.02	4255.09
383.22	4332.33
383.41	4194.24
383.61	4472.76
383.80	4994.70
384.00	5781.12
384.19	6492.65
384.39	6855.43
384.58	6766.49
384.78	6555.84
384.97	6670.53
385.17	6282.00
385.36	6064.33
385.56	5652.39
385.75	5898.15
385.95	6431.79
386.14	6883.52
386.34	7000.54
386.53	6724.36
386.72	6317.11
386.92	6319.45
387.11	6626.06
387.31	6927.99
387.50	6960.75
387.70	6541.80
387.89	6670.53
388.09	6766.49
388.28	6588.61
388.48	6813.30
388.67	7204.17
388.86	7894.63
389.06	8489.12
389.25	9039.15
389.45	9294.27
389.64	9071.92
389.84	8894.04
390.03	8887.01
390.22	8879.99
390.42	9034.47
390.61	9593.86
390.81	10399.00
391.00	10530.07
391.19	10408.36
391.39	10022.17
391.58	9666.41
391.78	8926.80
391.97	8699.77
392.16	8107.62
392.36	7321.20
392.55	5888.79
392.75	4880.02
392.94	3794.01
393.13	3777.62
393.33	4521.92
393.52	5980.07
393.71	7096.50
393.91	8018.68
394.10	8559.34
394.29	9575.13
394.49	10125.16
394.68	11159.67
394.88	10995.84
395.07	11632.46
395.26	11300.11
395.46	11014.56
395.65	10415.38
395.84	9095.32
396.04	7520.14
396.23	6328.81
396.42	5121.09
396.62	5029.81
396.81	5734.31
397.00	7255.66
397.19	8952.55
397.39	10902.22
397.58	12313.56
397.77	13099.98
397.97	13486.17
398.16	14075.98
398.35	14319.40
398.55	14581.54
398.74	15021.56
398.93	15550.52
399.12	15309.44
399.32	14925.60
399.51	15470.94
399.70	15946.07
399.90	15927.35
400.09	15946.07
400.28	15772.87
400.47	15782.23
400.67	16840.15
400.86	17291.88
401.05	17118.68
401.24	17214.64
401.44	17462.74
401.63	17350.39
401.82	17965.95
402.01	17661.68
402.21	17762.33
402.40	17678.07
402.59	17319.96
402.78	16776.96
402.97	16203.53
403.17	16783.98
403.36	17591.47
403.55	18445.76
403.74	18864.72
403.93	17804.46
404.13	16491.41
404.32	16030.33
404.51	16809.73
404.70	18586.19
404.89	18207.03
405.09	17991.70
405.28	17322.30
405.47	17418.27
405.66	17619.55
405.85	16975.91
406.05	16442.26
406.24	16893.99
406.43	17483.80
406.62	18010.42
406.81	18174.26
407.00	17415.93
407.20	16814.41
407.39	17280.18
407.58	18012.76
407.77	18469.17
407.96	19480.28
408.15	19339.85
408.34	19620.71
408.54	20283.08
408.73	20568.63
408.92	20027.96
409.11	19728.38
409.30	18480.87
409.49	17605.51
409.68	16470.35
409.87	15714.36
410.07	16821.43
410.26	18321.71
410.45	19503.68
410.64	19854.76
410.83	20484.37
411.02	21013.33
411.21	21666.34
411.40	21455.69
411.59	21783.37
411.78	21193.55
411.98	21184.19
412.17	21647.61
412.36	21167.80
412.55	21240.36
412.74	21053.12
412.93	20081.80
413.12	20503.09
413.31	22207.00
413.50	22242.11
413.69	22745.33
413.88	22204.66
414.07	21338.66
414.26	21649.96
414.45	22682.13
414.64	22604.89
414.83	22558.08
415.02	22113.38
415.22	22230.41
415.41	22506.59
415.60	23410.04
415.79	24245.61
415.98	24779.25
416.17	24964.15
416.36	24114.54
416.55	23721.33
416.74	23007.47
416.93	22317.01
417.12	22211.68
417.31	22354.46
417.50	23124.49
417.69	23756.44
417.88	23796.23
418.07	23379.61
418.26	22785.12
418.45	23271.95
418.64	23807.93
418.83	24856.49
419.02	24716.06
419.21	24547.54
419.39	23311.74
419.58	22174.24
419.77	22169.55
419.96	23531.75
420.15	24435.19
420.34	25156.08
420.53	26398.90
420.72	26450.39
420.91	26183.57
421.10	26253.79
421.29	25891.01
421.48	24805.00
421.67	26199.96
421.86	25671.00
422.05	23962.40
422.24	21383.13
422.43	20793.32
422.61	23047.26
422.80	25163.10
422.99	25565.67
423.18	24205.82
423.37	23864.10
423.56	23807.93
423.75	24102.84
423.94	24734.78
424.13	23559.83
424.32	23587.92
424.50	23754.10
424.69	23534.09
424.88	23515.36
425.07	23630.05
425.26	23264.92
425.45	23227.48
425.64	22759.37
425.83	22370.84
426.01	24149.65
426.20	24680.95
426.39	23789.20
426.58	22822.56
426.77	20929.07
426.96	20168.40
427.15	20837.79
427.33	22750.01
427.52	23756.44
427.71	23702.61
427.90	23613.66
428.09	23257.90
428.28	22665.75
428.46	21914.44
428.65	21575.06
428.84	22050.19
429.03	22696.17
429.22	21570.38
429.40	20180.10
429.59	18668.11
429.78	16222.25
429.97	16512.48
430.16	16421.20
430.34	16594.40
430.53	16643.55
430.72	16919.73
430.91	18583.85
431.10	22071.25
431.28	25736.53
431.47	27934.29
431.66	28137.92
431.85	25727.17
432.03	23831.33
432.22	22836.61
432.41	23541.11
432.60	26171.87
432.79	26663.38
432.97	27957.70
433.16	27185.32
433.35	24926.71
433.54	22452.76
433.72	21214.62
433.91	21390.16
434.10	24107.52
434.28	25362.04
434.47	27098.72
434.66	26998.08
434.85	26256.13
435.03	25876.96
435.22	26419.97
435.41	27983.44
435.59	27985.79
435.78	28531.13
435.97	29439.26
436.16	29722.46
436.34	28924.34
436.53	28402.40
436.72	28240.90
436.90	26799.13
437.09	27110.43
437.28	26347.41
437.46	27510.66
437.65	26848.29
437.84	25619.50
438.02	23360.89
438.21	23033.21
438.40	24294.76
438.58	26733.60
438.77	27410.01
438.96	27297.67
439.14	28629.43
439.33	29146.69
439.52	29825.45
439.70	29153.71
439.89	28362.61
440.08	27541.08
440.26	27438.10
440.45	28276.01
440.63	30438.67
440.82	32285.35
441.01	31754.05
441.19	31351.48
441.38	31304.67
441.57	32725.37
441.75	33345.61
441.94	33432.21
442.12	32982.83
442.31	34082.88
442.50	33741.16
442.68	33848.83
442.87	32882.19
443.05	32369.61
443.24	33116.24
443.43	33207.52
443.61	34031.39
443.80	34436.30
443.98	32348.54
444.17	32701.96
444.35	34249.06
444.54	35171.23
444.73	34794.40
444.91	33251.99
445.10	32100.45
445.28	30773.36
445.47	30333.34
445.65	30300.58
445.84	31253.17
446.02	32339.18
446.21	32877.51
446.39	32875.16
446.58	33544.56
446.77	33799.68
446.95	34284.17
447.14	34660.99
447.32	35697.85
447.51	35138.46
447.69	33436.89
447.88	32943.04
448.06	33720.10
448.25	34644.61
448.43	34494.82
448.62	33677.97
448.80	33701.37
448.99	34019.69
449.17	34258.42
449.36	33961.17
449.54	35615.93
449.73	36156.60
449.91	36404.69
450.10	37497.72
450.28	38031.36
450.46	37518.79
450.65	37635.81
450.83	37523.47
451.02	36837.69
451.20	36535.76
451.39	36498.31
451.57	35959.99
451.76	36285.33
451.94	36011.48
452.13	35157.19
452.31	33626.48
452.49	31969.38
452.68	32929.00
452.86	32903.25
453.05	32783.88
453.23	33970.54
453.42	34768.66
453.60	35407.62
453.78	36098.08
453.97	35873.39
454.15	35555.08
454.34	34745.25
454.52	35232.08
454.70	33954.15
454.89	34562.69
455.07	34789.72
455.26	35346.77
455.44	36687.90
455.62	37268.35
455.81	37654.54
455.99	37376.01
456.17	36772.16
456.36	36758.11
456.54	37984.55
456.73	37823.06
456.91	38265.42
457.09	38717.14
457.28	39292.91
457.46	37727.10
457.64	37273.03
457.83	36467.89
458.01	35627.63
458.19	36369.58
458.38	36788.54
458.56	38293.50
458.74	37537.51
458.93	36903.23
459.11	36952.38
459.29	36629.38
459.48	36919.61
459.66	37219.20
459.84	37046.00
460.03	37560.92
460.21	37827.74
460.39	38295.85
460.57	38511.17
460.76	38845.87
460.94	38759.27
461.12	38834.17
461.31	38190.52
461.49	38691.40
461.67	38403.51
461.85	39400.58
462.04	39124.40
462.22	39875.71
462.40	39374.83
462.59	39302.28
462.77	39491.86
462.95	39339.72
463.13	39395.90
463.32	38366.06
463.50	38192.86
463.68	38347.34
463.86	38244.35
464.05	37827.74
464.23	36954.72
464.41	37118.56
464.59	36423.42
464.78	38277.12
464.96	37965.83
465.14	37518.79
465.32	38171.80
465.50	39885.07
465.69	39849.96
465.87	38817.78
466.05	37661.56
466.23	36481.93
466.41	35512.95
466.60	36788.54
466.78	36563.85
466.96	37497.72
467.14	37926.04
467.32	38274.78
467.51	38342.66
467.69	36924.29
467.87	37071.75
468.05	38174.14
468.23	37605.39
468.41	38319.25
468.60	37771.57
468.78	38541.60
468.96	37635.81
469.14	38445.64
469.32	39070.56
469.50	37226.22
469.69	37191.11
469.87	36842.37
470.05	36900.89
470.23	36617.68
470.41	36961.74
470.59	37448.57
470.77	37851.14
470.95	38689.06
471.14	38841.19
471.32	38960.56
471.50	40692.55
471.68	40718.30
471.86	41221.52
472.04	41448.55
472.22	41600.68
472.40	39391.22
472.58	38766.29
472.77	38384.79
472.95	39662.72
473.13	40580.21
473.31	39660.38
473.49	39496.54
473.67	40711.28
473.85	40783.83
474.03	41563.23
474.21	42021.98
474.39	42223.26
474.57	42103.90
474.75	42890.32
474.93	41841.76
475.12	41088.10
475.30	41242.58
475.48	41464.93
475.66	42314.55
475.84	41584.30
476.02	41006.19
476.20	40669.15
476.38	41446.21
476.56	42557.96
476.74	43201.61
476.92	43299.91
477.10	44044.20
477.28	45067.02
477.46	45102.12
477.64	45425.12
477.82	45289.37
478.00	45680.24
478.18	44854.03
478.36	44652.74
478.54	44528.69
478.72	45003.82
478.90	46143.66
479.08	47079.88
479.26	47765.65
479.44	47629.90
479.62	47049.45
479.80	47278.82
479.98	47445.00
480.16	47571.39
480.34	47501.17
480.52	47604.16
480.70	47971.62
480.88	48271.21
481.06	48839.96
481.24	49104.44
481.41	49605.31
481.59	50026.61
481.77	49998.52
481.95	49638.08
482.13	49471.90
482.31	49223.81
482.49	49652.12
482.67	50026.61
482.85	49895.54
483.03	50621.11
483.21	51229.65
483.39	51061.13
483.57	50204.49
483.74	49822.98
483.92	50199.81
484.10	50326.20
484.28	51264.75
484.46	51407.53
484.64	51957.55
484.82	51098.58
485.00	50614.08
485.18	50145.98
485.35	48626.97
485.53	46113.23
485.71	42225.60
485.89	41415.78
486.07	43702.48
486.25	47435.64
486.43	48914.86
486.61	49572.55
486.78	50035.97
486.96	50183.43
487.14	51318.59
487.32	51774.99
487.50	53230.80
487.68	53553.80
487.85	54042.97
488.03	54178.72
488.21	53673.16
488.39	53165.27
488.57	52622.26
488.75	52254.80
488.92	53144.20
489.10	55161.75
489.28	56179.88
489.46	56795.44
489.64	56495.85
489.81	56814.16
489.99	56261.80
490.17	56310.95
490.35	56804.80
490.53	56545.00
490.70	56236.05
490.88	55889.65
491.06	56903.10
491.24	56715.86
491.41	55948.17
491.59	54461.93
491.77	53691.89
491.95	54436.18
492.13	55758.58
492.30	56680.75
492.48	57633.35
492.66	57844.00
492.84	58120.18
493.01	57560.79
493.19	57181.63
493.37	57015.45
493.54	56821.19
493.72	57102.05
493.90	58340.19
494.08	58787.24
494.25	59086.82
494.43	59227.26
494.61	59774.94
494.79	59671.96
494.96	59337.26
495.14	58983.84
495.32	58085.07
495.49	57638.03
495.67	58567.23
495.85	59512.80
496.02	60069.85
496.20	59856.86
496.38	59634.51
496.55	59306.83
496.73	59812.39
496.91	59955.16
497.09	60584.77
497.26	60746.26
497.44	60275.82
497.62	59847.50
497.79	59061.08
497.97	57977.41
498.14	57698.89
498.32	58922.99
498.50	59924.74
498.67	60346.03
498.85	59889.63
499.03	60350.71
499.20	60413.91
499.38	60402.21
499.56	60465.40
499.73	59868.56
499.91	59693.02
500.08	59201.51
500.26	58307.43
500.44	59150.02
500.61	59749.20
500.79	59559.61
500.97	59035.33
501.14	58878.52
501.32	58850.43
501.49	58834.05
501.67	58901.92
501.84	59386.41
502.02	59737.49
502.20	60093.25
502.37	60074.53
502.55	60069.85
502.72	60725.20
502.90	60912.44
503.07	60760.31
503.25	60418.59
503.43	59852.18
503.60	59056.40
503.78	58333.17
503.95	58794.26
504.13	60039.42
504.30	60999.04
504.48	60985.00
504.65	60346.03
504.83	60528.59
505.01	61066.92
505.18	61263.52
505.36	61886.10
505.53	61836.95
505.71	62131.86
505.88	62209.10
506.06	61722.27
506.23	61134.79
506.41	60622.22
506.58	61158.20
506.76	61235.44
506.93	61162.88
507.11	60858.61
507.28	60940.53
507.46	60559.02
507.63	59906.01
507.81	59770.26
507.98	59903.67
508.16	60650.30
508.33	61116.07
508.50	61450.77
508.68	61773.76
508.85	62241.87
509.03	62401.02
509.20	61989.09
509.38	61298.63
509.55	60596.47
509.73	60746.26
509.90	61172.24
510.08	61698.86
510.25	61326.72
510.42	61080.96
510.60	60982.66
510.77	61478.85
510.95	62017.17
511.12	62103.77
511.30	62262.93
511.47	62649.12
511.64	62492.30
511.82	62106.12
511.99	61577.15
512.17	61087.98
512.34	60886.70
512.51	60914.78
512.69	60942.87
512.86	61062.24
513.04	61586.52
513.21	61520.98
513.38	61085.64
513.56	60720.52
513.73	60116.66
513.90	60418.59
514.08	60509.87
514.25	60816.48
514.43	60729.88
514.60	60846.91
514.77	61001.38
514.95	61361.82
515.12	61057.56
515.29	61322.04
515.47	61708.22
515.64	61986.75
515.81	61558.43
515.99	61001.38
516.16	59898.99
516.33	57923.58
516.51	56427.98
516.68	55693.05
516.85	55327.92
517.03	55688.37
517.20	58108.48
517.37	60378.80
517.54	61235.44
517.72	60802.44
517.89	58403.39
518.06	56334.35
518.24	56528.62
518.41	58717.02
518.58	59934.10
518.75	59854.52
518.93	60374.12
519.10	60072.19
519.27	60385.82
519.45	60629.24
519.62	61375.87
519.79	61528.00
519.96	61553.75
520.14	61027.13
520.31	60266.45
520.48	60184.54
520.65	60645.62
520.83	61478.85
521.00	61865.04
521.17	61689.50
521.34	61078.62
521.52	61511.62
521.69	61890.79
521.86	62323.78
522.03	62024.20
522.20	60893.72
522.38	59896.65
522.55	59753.88
522.72	60434.97
522.89	60559.02
523.07	60774.35
523.24	61165.22
523.41	61904.83
523.58	62157.61
523.75	62625.71
523.92	62328.47
524.10	62330.81
524.27	62368.26
524.44	62173.99
524.61	62059.30
524.78	61946.96
524.96	61799.50
525.13	61743.33
525.30	62063.99
525.47	62464.22
525.64	62312.08
525.81	61481.19
525.98	60395.18
526.16	58946.39
526.33	58583.61
526.50	58295.72
526.67	57808.89
526.84	58368.28
527.01	59363.01
527.18	60114.32
527.36	60804.78
527.53	61488.21
527.70	61865.04
527.87	61336.08
528.04	60870.31
528.21	61623.96
528.38	62049.94
528.55	62265.27
528.72	62857.43
528.89	62749.76
529.07	62569.54
529.24	62080.37
529.41	61338.42
529.58	60764.99
529.75	60938.19
529.92	61291.61
530.09	61923.55
530.26	62166.97
530.43	62433.79
530.60	62557.84
530.77	62695.93
530.94	62904.24
531.11	62534.43
531.28	61935.26
531.46	61946.96
531.63	61867.38
531.80	61731.63
531.97	61553.75
532.14	60774.35
532.31	59980.91
532.48	59283.43
532.65	59341.94
532.82	60313.26
532.99	61197.99
533.16	61471.83
533.33	61719.93
533.50	61764.40
533.67	61080.96
533.84	60603.49
534.01	60905.42
534.18	61247.14
534.35	61392.25
534.52	61200.33
534.69	61272.88
534.86	61799.50
535.03	61963.34
535.20	62415.07
535.37	62525.07
535.54	62714.65
535.71	62496.98
535.88	62047.60
536.05	61705.88
536.22	61066.92
536.38	60886.70
536.55	60397.52
536.72	60100.28
536.89	59859.20
537.06	60746.26
537.23	61556.09
537.40	61843.98
537.57	61752.69
537.74	61263.52
537.91	61102.03
538.08	61258.84
538.25	61490.55
538.42	61584.18
538.59	61401.61
538.75	60708.82
538.92	60680.73
539.09	60383.48
539.26	60322.63
539.43	60144.75
539.60	60097.94
539.77	60339.01
539.94	60224.32
540.11	59653.23
540.28	59068.10
540.44	59068.10
540.61	59327.90
540.78	59475.35
540.95	60182.19
541.12	60348.37
541.29	60636.26
541.46	60692.43
541.62	60935.85
541.79	60718.18
541.96	60217.30
542.13	60310.92
542.30	60486.46
542.47	60636.26
542.63	60250.07
542.80	60140.07
542.97	60083.89
543.14	60273.48
543.31	60257.09
543.48	60739.24
543.64	61298.63
543.81	61584.18
543.98	61305.65
544.15	60947.55
544.32	60310.92
544.48	60416.25
544.65	60825.84
544.82	61315.01
544.99	60786.05
545.16	60495.83
545.32	60123.68
545.49	61071.60
545.66	61298.63
545.83	60959.25
546.00	60643.28
546.16	60238.37
546.33	60107.30
546.50	60430.29
546.67	60844.57
546.83	60343.69
547.00	60467.74
547.17	59796.01
547.34	59367.69
547.50	59119.59
547.67	59700.04
547.84	59868.56
548.00	60154.11
548.17	60444.33
548.34	60186.88
548.51	60224.32
548.67	60385.82
548.84	60453.70
549.01	60418.59
549.18	60149.43
549.34	60149.43
549.51	60266.45
549.68	60126.02
549.84	60011.34
550.01	59735.15
550.18	59683.66
550.34	59786.64
550.51	59973.89
550.68	60027.72
550.84	59695.36
551.01	59653.23
551.18	59664.94
551.34	59938.78
551.51	60189.22
551.68	60582.43
551.84	60465.40
552.01	60055.81
552.18	60158.79
552.34	59440.24
552.51	59051.72
552.68	58897.24
552.84	59381.73
553.01	59636.85
553.18	59480.03
553.34	59854.52
553.51	59735.15
553.67	60044.10
553.84	60060.49
554.01	59840.48
554.17	59643.87
554.34	59653.23
554.51	60023.04
554.67	60163.47
554.84	60069.85
555.00	59817.07
555.17	59484.72
555.33	59538.55
555.50	59442.59
555.67	59505.78
555.83	59295.13
556.00	59025.97
556.16	59119.59
556.33	58836.39
556.50	58389.34
556.66	58576.59
556.83	58543.82
556.99	58471.26
557.16	58588.29
557.32	58752.13
557.49	59355.99
557.65	58906.60
557.82	58871.49
557.98	58810.64
558.15	58450.20
558.32	57851.02
558.48	57003.75
558.65	57080.98
558.81	57333.76
558.98	57776.12
559.14	57755.06
559.31	57867.40
559.47	57752.72
559.64	57591.22
559.80	57359.51
559.97	57286.95
560.13	57502.28
560.30	58768.51
560.46	59171.08
560.63	59178.10
560.79	59393.43
560.96	59021.29
561.12	58014.86
561.29	57102.05
561.45	57324.40
561.61	57731.65
561.78	58141.25
561.94	57771.44
562.11	57602.92
562.27	57659.10
562.44	57991.45
562.60	58195.08
562.77	58321.47
562.93	58426.79
563.10	58312.11
563.26	57787.83
563.42	57961.03
563.59	57490.58
563.75	57546.75
563.92	57584.20
564.08	57666.12
564.24	57783.15
564.41	57909.53
564.57	57818.25
564.74	57787.83
564.90	57483.56
565.07	57373.55
565.23	57066.94
565.39	56690.12
565.56	56222.01
565.72	56018.38
565.88	56348.40
566.05	56528.62
566.21	56736.93
566.38	56872.68
566.54	56860.97
566.70	57338.44
566.87	57638.03
567.03	57705.91
567.19	57694.21
567.36	57474.20
567.52	57249.50
567.68	57176.95
567.85	56463.08
568.01	56072.21
568.17	55835.82
568.34	56004.34
568.50	55929.44
568.66	55849.86
568.83	56411.59
568.99	56212.65
569.15	56493.51
569.32	56488.83
569.48	55906.04
569.64	56100.30
569.81	55662.62
569.97	55671.98
570.13	55599.43
570.30	54915.99
570.46	54923.01
570.62	54623.42
570.78	54071.06
570.95	54717.04
571.11	54955.78
571.27	55318.56
571.43	55238.98
571.60	55784.33
571.76	55980.93
571.92	56170.52
572.09	56292.22
572.25	56224.35
572.41	56214.99
572.57	56151.79
572.74	56299.25
572.90	55730.50
573.06	55828.80
573.22	55922.42
573.38	55657.94
573.55	55756.24
573.71	55817.10
573.87	55728.16
574.03	55468.36
574.20	55597.09
574.36	55388.78
574.52	55372.39
574.68	54974.50
574.84	54798.96
575.01	54625.76
575.17	54185.74
575.33	54351.92
575.49	54688.96
575.65	54756.83
575.82	54389.37
575.98	54454.90
576.14	54534.48
576.30	54948.76
576.46	54829.39
576.62	54768.54
576.79	54482.99
576.95	54637.47
577.11	54515.76
577.27	54564.91
577.43	54609.38
577.59	54010.20
577.75	54115.53
577.92	53146.54
578.08	53179.31
578.24	53078.67
578.40	53237.83
578.56	53869.77
578.72	53518.69
578.88	53872.11
579.04	54223.19
579.21	54110.85
579.37	54010.20
579.53	54401.07
579.69	54192.76
579.85	54295.75
580.01	54288.73
580.17	53834.66
580.33	53659.12
580.49	53549.12
580.65	54005.52
580.82	54141.27
580.98	54251.28
581.14	53968.07
581.30	54017.22
581.46	53904.88
581.62	54014.88
581.78	54398.73
581.94	54328.52
582.10	54148.29
582.26	54143.61
582.42	54241.92
582.58	54478.31
582.74	54129.57
582.90	54295.75
583.06	54115.53
583.22	53963.39
583.38	53954.03
583.54	53832.32
583.70	53893.18
583.86	54176.38
584.02	53958.71
584.18	53869.77
584.34	53825.30
584.50	53736.36
584.66	53565.50
584.82	53394.64
584.98	53364.21
585.14	52863.34
