SpectraSuite Data File
++++++++++++++++++++++++++++++++++++
Date: Mon Oct 07 14:53:02 GMT-05:00 2013
User: price-jones
Dark Spectrum Present: No
Reference Spectrum Present: No
Number of Sampled Component Spectra: 1
Spectrometers: USB2+H05261
Integration Time (usec): 100000 (USB2+H05261)
Spectra Averaged: 1 (USB2+H05261)
Boxcar Smoothing: 0 (USB2+H05261)
Correct for Electrical Dark: No (USB2+H05261)
Strobe/Lamp Enabled: No (USB2+H05261)
Correct for Detector Non-linearity: No (USB2+H05261)
Correct for Stray Light: No (USB2+H05261)
Number of Pixels in Processed Spectrum: 2048
>>>>>Begin Processed Spectral Data<<<<<
365.73	0.00
365.92	0.00
366.12	0.00
366.32	0.00
366.52	0.00
366.72	0.00
366.91	0.00
367.11	0.00
367.31	0.00
367.51	0.00
367.70	0.00
367.90	0.00
368.10	0.00
368.30	0.00
368.49	0.00
368.69	0.00
368.89	0.00
369.09	0.00
369.28	0.00
369.48	0.00
369.68	0.00
369.87	0.00
370.07	0.00
370.27	0.00
370.47	454.06
370.66	2803.96
370.86	3239.30
371.06	3471.01
371.25	3609.11
371.45	3059.08
371.65	3066.10
371.84	2750.13
372.04	2906.95
372.24	3155.04
372.44	3316.54
372.63	3166.74
372.83	3159.72
373.03	2616.72
373.22	2450.54
373.42	2527.78
373.62	3105.89
373.81	3375.05
374.01	3243.98
374.21	2935.03
374.40	2644.81
374.60	2942.05
374.79	3141.00
374.99	3758.90
375.19	3995.29
375.38	3913.38
375.58	3655.92
375.78	3655.92
375.97	3735.50
376.17	3918.06
376.37	3997.64
376.56	3995.29
376.76	4271.48
376.95	4484.47
377.15	4802.78
377.35	4999.38
377.54	5149.18
377.74	5378.55
377.93	5259.18
378.13	5242.80
378.33	5043.85
378.52	4538.30
378.72	4475.10
378.91	4266.80
379.11	4285.52
379.31	3936.78
379.50	3920.40
379.70	4440.00
379.89	4887.04
380.09	5039.17
380.28	5193.65
380.48	5191.31
380.68	5188.97
380.87	4999.38
381.07	4596.81
381.26	4287.86
381.46	4135.73
381.65	3918.06
381.85	3786.99
382.04	3557.61
382.24	3536.55
382.43	3190.15
382.63	3183.13
382.83	3272.07
383.02	3206.53
383.22	3204.19
383.41	3222.92
383.61	3405.48
383.80	3859.54
384.00	4353.40
384.19	4940.87
384.39	5212.37
384.58	5205.35
384.78	5125.77
384.97	5088.32
385.17	4727.88
385.36	4561.70
385.56	4290.20
385.75	4411.91
385.95	4975.98
386.14	5320.04
386.34	5535.37
386.53	5116.41
386.72	4816.82
386.92	4959.60
387.11	5123.43
387.31	5387.91
387.50	5277.91
387.70	5008.75
387.89	5146.84
388.09	5027.47
388.28	4912.78
388.48	5135.14
388.67	5533.03
388.86	6157.95
389.06	6572.22
389.25	7054.37
389.45	7138.63
389.64	6923.30
389.84	6881.18
390.03	6644.78
390.22	6932.67
390.42	6998.20
390.61	7613.76
390.81	8205.92
391.00	8046.76
391.19	7920.37
391.39	7833.77
391.58	7335.24
391.78	6759.47
391.97	6663.51
392.16	6307.74
392.36	5586.86
392.55	4662.35
392.75	3522.51
392.94	2960.78
393.13	2899.92
393.33	3485.06
393.52	4512.55
393.71	5453.45
393.91	6289.02
394.10	6590.95
394.29	7389.07
394.49	8037.40
394.68	8713.81
394.88	8432.95
395.07	8554.66
395.26	8772.33
395.46	8575.72
395.65	8011.65
395.84	6977.14
396.04	5865.38
396.23	4800.44
396.42	3953.16
396.62	3817.41
396.81	4545.32
397.00	5750.70
397.19	7227.57
397.39	8713.81
397.58	9671.09
397.77	10394.32
397.97	10619.01
398.16	10759.44
398.35	11014.56
398.55	11382.03
398.74	11800.98
398.93	11974.18
399.12	11857.15
399.32	11304.79
399.51	11756.51
399.70	12336.96
399.90	12322.92
400.09	12421.22
400.28	12463.35
400.47	12437.61
400.67	13118.70
400.86	13383.18
401.05	13488.51
401.24	13453.40
401.44	13982.36
401.63	13549.36
401.82	13973.00
402.01	13745.97
402.21	14031.51
402.40	13900.44
402.59	13586.81
402.78	12865.92
402.97	12575.70
403.17	12882.31
403.36	14031.51
403.55	14230.46
403.74	14626.01
403.93	14155.56
404.13	13263.82
404.32	12507.82
404.51	13254.45
404.70	14406.00
404.89	14375.57
405.09	13956.61
405.28	13671.07
405.47	13551.70
405.66	13715.54
405.85	13214.66
406.05	12922.10
406.24	12994.65
406.43	13532.98
406.62	14380.25
406.81	14125.13
407.00	13495.53
407.20	13268.50
407.39	13523.62
407.58	14153.22
407.77	14459.83
407.96	15080.07
408.15	15087.09
408.34	15260.29
408.54	16100.55
408.73	15932.03
408.92	15632.44
409.11	15496.69
409.30	14736.01
409.49	13626.60
409.68	12835.50
409.87	12617.83
410.07	13322.33
410.26	14429.40
410.45	15459.24
410.64	15403.07
410.83	16149.70
411.02	16741.85
411.21	17097.61
411.40	16933.78
411.59	17069.53
411.78	17013.35
411.98	16739.51
412.17	17106.98
412.36	16489.07
412.55	16711.42
412.74	16194.17
412.93	16123.95
413.12	16091.18
413.31	17846.58
413.50	17813.82
413.69	18277.24
413.88	17369.12
414.07	17130.38
414.26	17345.71
414.45	17937.87
414.64	17853.61
414.83	17813.82
415.02	17696.79
415.22	17687.43
415.41	18031.49
415.60	18438.74
415.79	18902.17
415.98	19470.92
416.17	19875.83
416.36	19442.83
416.55	18792.16
416.74	18052.55
416.93	17710.83
417.12	18045.53
417.31	18106.38
417.50	18047.87
417.69	18867.06
417.88	18974.72
418.07	18649.39
418.26	18377.89
418.45	18270.22
418.64	19314.10
418.83	19829.02
419.02	19225.16
419.21	19274.31
419.39	18487.89
419.58	17802.11
419.77	17921.48
419.96	18431.72
420.15	19562.20
420.34	20257.34
420.53	20910.35
420.72	21687.40
420.91	21259.09
421.10	20727.78
421.29	20308.83
421.48	19946.05
421.67	21142.06
421.86	20458.62
422.05	18998.13
422.24	16786.32
422.43	17053.14
422.61	19288.35
422.80	20362.66
422.99	20266.70
423.18	19356.23
423.37	19007.49
423.56	19281.33
423.75	19604.33
423.94	19943.70
424.13	18773.44
424.32	18773.44
424.50	19117.50
424.69	18911.53
424.88	18941.96
425.07	19037.92
425.26	18785.14
425.45	18747.69
425.64	18169.58
425.83	18420.02
426.01	19653.48
426.20	19410.06
426.39	19613.69
426.58	17841.90
426.77	17003.99
426.96	16372.05
427.15	16849.52
427.33	18448.10
427.52	18853.02
427.71	19290.70
427.90	18930.25
428.09	18860.04
428.28	18307.67
428.46	17586.79
428.65	17542.32
428.84	17965.95
429.03	17921.48
429.22	17315.28
429.40	16149.70
429.59	14516.00
429.78	12847.20
429.97	13137.43
430.16	13355.10
430.34	13444.04
430.53	13327.01
430.72	13647.66
430.91	15161.99
431.10	17823.18
431.28	21179.51
431.47	22780.43
431.66	22916.19
431.85	20460.96
432.03	19049.62
432.22	18167.24
432.41	18778.12
432.60	21287.17
432.79	21923.80
432.97	22560.42
433.16	21909.75
433.35	20063.07
433.54	17846.58
433.72	16844.84
433.91	17692.11
434.10	19599.65
434.28	20879.92
434.47	22253.81
434.66	21551.65
434.85	21345.69
435.03	21333.98
435.22	21811.45
435.41	23058.96
435.59	23073.00
435.78	23199.39
435.97	23817.29
436.16	24088.79
436.34	23288.33
436.53	23016.83
436.72	23082.36
436.90	21876.99
437.09	22005.72
437.28	21570.38
437.46	22506.59
437.65	22113.38
437.84	20367.34
438.02	19351.55
438.21	18878.76
438.40	19894.55
438.58	21565.70
438.77	22431.69
438.96	22670.43
439.14	23555.15
439.33	24168.37
439.52	24388.38
439.70	23793.89
439.89	23454.51
440.08	22544.04
440.26	22703.20
440.45	23510.68
440.63	25029.69
440.82	26274.85
441.01	25771.64
441.19	25369.07
441.38	26066.55
441.57	27185.32
441.75	27056.59
441.94	27737.69
442.12	27285.97
442.31	27742.37
442.50	27674.49
442.68	26927.86
442.87	26925.52
443.05	26319.32
443.24	27178.30
443.43	27648.75
443.61	27798.54
443.80	28802.63
443.98	26841.26
444.17	26595.51
444.35	28053.66
444.54	29010.94
444.73	28669.22
444.91	27417.04
445.10	26389.54
445.28	25813.77
445.47	25041.39
445.65	25200.55
445.84	25741.21
446.02	26801.47
446.21	26759.34
446.39	27150.21
446.58	27295.33
446.77	27793.86
446.95	28446.87
447.14	28882.21
447.32	29315.21
447.51	28720.71
447.69	27461.51
447.88	27297.67
448.06	27915.57
448.25	28346.23
448.43	28315.80
448.62	27793.86
448.80	27501.29
448.99	28009.19
449.17	28510.07
449.36	28584.96
449.54	29039.03
449.73	29376.06
449.91	30300.58
450.10	31475.52
450.28	31885.12
450.46	31150.19
450.65	31094.02
450.83	30831.88
451.02	30209.29
451.20	30366.11
451.39	30043.12
451.57	29890.98
451.76	30054.82
451.94	29687.36
452.13	29046.05
452.31	28018.55
452.49	26719.56
452.68	26834.24
452.86	27061.27
453.05	27704.92
453.23	27960.04
453.42	28676.24
453.60	29465.00
453.78	29649.91
453.97	29446.28
454.15	29280.10
454.34	28828.38
454.52	29221.59
454.70	28652.84
454.89	28872.85
455.07	28975.83
455.26	29546.92
455.44	30394.20
455.62	31278.92
455.81	31119.76
455.99	31131.47
456.17	30293.55
456.36	30403.56
456.54	31328.07
456.73	31384.24
456.91	32065.34
457.09	32313.44
457.28	32795.59
457.46	31630.00
457.64	31152.53
457.83	30717.19
458.01	29722.46
458.19	30478.46
458.38	30422.28
458.56	31922.57
458.74	31555.10
458.93	31185.30
459.11	30639.95
459.29	30424.62
459.48	30780.39
459.66	30764.00
459.84	31145.51
460.03	31215.72
460.21	31428.71
460.39	32165.98
460.57	32215.13
460.76	32624.73
460.94	32378.97
461.12	32224.50
461.31	32374.29
461.49	31978.74
461.67	32156.62
461.85	33259.01
462.04	32863.46
462.22	33441.57
462.40	33528.17
462.59	32842.40
462.77	33219.22
462.95	33046.02
463.13	32449.19
463.32	32484.30
463.50	32404.72
463.68	32313.44
463.86	32182.37
464.05	32011.51
464.23	30944.22
464.41	31124.44
464.59	30424.62
464.78	32252.58
464.96	32238.54
465.14	31564.46
465.32	32315.78
465.50	33345.61
465.69	33860.53
465.87	32645.79
466.05	31922.57
466.23	30223.34
466.41	29668.63
466.60	31110.40
466.78	30838.90
466.96	31440.42
467.14	31620.64
467.32	32308.76
467.51	32411.74
467.69	30885.71
467.87	31566.81
468.05	31931.93
468.23	31971.72
468.41	32175.34
468.60	32521.74
468.78	32488.98
468.96	31924.91
469.14	32861.12
469.32	32725.37
469.50	31587.87
469.69	31552.76
469.87	31185.30
470.05	31112.74
470.23	31077.63
470.41	31681.49
470.59	31936.61
470.77	31527.02
470.95	32533.45
471.14	32669.20
471.32	32645.79
471.50	34656.31
471.68	34953.56
471.86	35051.86
472.04	34756.96
472.22	35496.56
472.40	33399.44
472.58	33256.67
472.77	32919.63
472.95	33874.57
473.13	34579.07
473.31	33771.59
473.49	33804.36
473.67	34745.25
473.85	34541.63
474.03	35395.92
474.21	35683.81
474.39	35878.07
474.57	36112.13
474.75	35976.37
474.93	35800.83
475.12	34859.94
475.30	35239.11
475.48	35194.64
475.66	35999.78
475.84	35386.56
476.02	35037.82
476.20	34675.04
476.38	35220.38
476.56	36383.63
476.74	36678.54
476.92	36744.07
477.10	37528.15
477.28	38274.78
477.46	38520.54
477.64	39058.86
477.82	38958.22
478.00	38946.51
478.18	38693.74
478.36	38361.38
478.54	38485.43
478.72	38785.02
478.90	39503.56
479.08	40582.55
479.26	41436.84
479.44	41146.62
479.62	41038.95
479.80	40727.66
479.98	40898.52
480.16	41343.22
480.34	40825.96
480.52	41443.87
480.70	41720.05
480.88	41680.26
481.06	42698.39
481.24	43056.50
481.41	43878.02
481.59	43920.15
481.77	44020.80
481.95	43026.07
482.13	42983.94
482.31	43395.87
482.49	43540.99
482.67	43391.19
482.85	43934.20
483.03	44484.22
483.21	45261.28
483.39	45104.46
483.57	44215.06
483.74	44327.41
483.92	44194.00
484.10	44624.65
484.28	45588.95
484.46	45890.88
484.64	46185.79
484.82	45326.81
485.00	44289.96
485.18	44603.59
485.35	42602.43
485.53	39335.04
485.71	36252.56
485.89	35803.17
486.07	37675.60
486.25	41020.23
486.43	43299.91
486.61	43957.60
486.78	43545.67
486.96	43938.88
487.14	45399.37
487.32	46887.95
487.50	47842.89
487.68	48933.58
487.85	49013.16
488.03	49209.76
488.21	48765.06
488.39	47955.24
488.57	47133.71
488.75	46653.90
488.92	48261.85
489.10	50396.42
489.28	51868.61
489.46	52451.41
489.64	51662.64
489.81	52465.45
489.99	51805.42
490.17	51990.32
490.35	52589.50
490.53	51805.42
490.70	51363.06
490.88	51611.15
491.06	52495.88
491.24	52608.22
491.41	51203.90
491.59	49614.68
491.77	49130.19
491.95	49858.09
492.13	50946.44
492.30	52350.76
492.48	53492.94
492.66	53956.37
492.84	54031.27
493.01	53628.69
493.19	53279.96
493.37	52748.65
493.54	52247.78
493.72	53446.13
493.90	54377.67
494.08	54969.82
494.25	55416.86
494.43	55561.98
494.61	55772.63
494.79	55791.35
494.96	55601.77
495.14	54897.27
495.32	53977.43
495.49	53661.46
495.67	54571.93
495.85	55945.83
496.02	56479.47
496.20	56287.54
496.38	55543.25
496.55	55671.98
496.73	56317.97
496.91	55950.51
497.09	56563.73
497.26	56935.87
497.44	56573.09
497.62	55868.59
497.79	55318.56
497.97	53621.67
498.14	54323.83
498.32	55224.94
498.50	56163.50
498.67	56645.65
498.85	56547.34
499.03	56587.13
499.20	56989.70
499.38	56921.83
499.56	56786.08
499.73	56238.39
499.91	55838.16
500.08	55269.41
500.26	55121.96
500.44	55325.58
500.61	56102.64
500.79	55791.35
500.97	55231.96
501.14	55178.13
501.32	55229.62
501.49	55182.81
501.67	55117.28
501.84	55901.36
502.02	55992.64
502.20	56374.14
502.37	56498.19
502.55	56537.98
502.72	57251.84
502.90	57483.56
503.07	57289.29
503.25	56865.66
503.43	56151.79
503.60	55320.90
503.78	54759.17
503.95	55398.14
504.13	56757.99
504.30	57446.11
504.48	57219.08
504.65	56713.52
504.83	56886.72
505.01	57687.18
505.18	57675.48
505.36	58583.61
505.53	58480.63
505.71	58827.02
505.88	58637.44
506.06	58216.14
506.23	57925.92
506.41	57368.87
506.58	57623.99
506.76	57722.29
506.93	57598.24
507.11	57516.32
507.28	57764.42
507.46	56889.06
507.63	56514.58
507.81	56116.68
507.98	56900.76
508.16	57366.53
508.33	57724.63
508.50	58155.29
508.68	58410.41
508.85	58876.18
509.03	58820.00
509.20	58773.19
509.38	58103.80
509.55	57221.42
509.73	57616.97
509.90	57977.41
510.08	58291.04
510.25	58305.09
510.42	57801.87
510.60	57785.49
510.77	58190.40
510.95	58635.10
511.12	58822.34
511.30	59133.63
511.47	59206.19
511.64	59217.89
511.82	58972.14
511.99	58174.02
512.17	57691.86
512.34	57509.30
512.51	57680.16
512.69	57790.17
512.86	57811.23
513.04	58307.43
513.21	58274.66
513.38	57921.24
513.56	57195.67
513.73	56591.81
513.90	56999.07
514.08	57116.09
514.25	57322.06
514.43	57783.15
514.60	57808.89
514.77	57911.88
514.95	57949.32
515.12	57900.17
515.29	58127.20
515.47	58562.54
515.64	58733.40
515.81	58468.92
515.99	57694.21
516.16	56205.62
516.33	53766.79
516.51	52439.70
516.68	51587.75
516.85	51313.90
517.03	52041.81
517.20	54651.51
517.37	57195.67
517.54	58213.80
517.72	57448.45
517.89	54876.20
518.06	52802.49
518.24	53483.58
518.41	55650.92
518.58	56655.01
518.75	56718.20
518.93	56996.73
519.10	57027.15
519.27	57317.38
519.45	57766.76
519.62	58405.73
519.79	58810.64
519.96	58262.96
520.14	57918.90
520.31	56830.55
520.48	57275.25
520.65	57560.79
520.83	58436.16
521.00	58871.49
521.17	58319.13
521.34	58192.74
521.52	58335.51
521.69	58747.45
521.86	59192.15
522.03	58962.78
522.20	57717.61
522.38	56790.76
522.55	56823.53
522.72	57649.74
522.89	57689.52
523.07	57663.78
523.24	58099.12
523.41	58958.09
523.58	59189.81
523.75	59641.53
523.92	59449.61
524.10	59372.37
524.27	59318.54
524.44	59124.27
524.61	58974.48
524.78	59072.78
524.96	58768.51
525.13	58827.02
525.30	59119.59
525.47	59388.75
525.64	59473.01
525.81	58604.67
525.98	57429.72
526.16	55866.25
526.33	55131.32
526.50	55037.70
526.67	54665.55
526.84	55353.67
527.01	56231.37
527.18	56973.32
527.36	58089.76
527.53	58887.88
527.70	58939.37
527.87	58412.75
528.04	58085.07
528.21	58731.06
528.38	59084.48
528.55	59716.43
528.72	59990.27
528.89	60088.57
529.07	59702.38
529.24	59187.47
529.41	58471.26
529.58	58115.50
529.75	58019.54
529.92	58473.60
530.09	59299.81
530.26	59323.22
530.43	59852.18
530.60	59686.00
530.77	59922.40
530.94	59877.93
531.11	59639.19
531.28	59255.34
531.46	58990.86
531.63	59025.97
531.80	59028.31
531.97	58468.92
532.14	57813.57
532.31	56830.55
532.48	56259.46
532.65	56643.30
532.82	57532.71
532.99	58394.03
533.16	58628.08
533.33	59295.13
533.50	58944.05
533.67	58237.21
533.84	58052.31
534.01	58148.27
534.18	58466.58
534.35	58431.47
534.52	58379.98
534.69	58674.89
534.86	58932.35
535.03	59253.00
535.20	59707.07
535.37	59994.95
535.54	60158.79
535.71	59667.28
535.88	59327.90
536.05	58663.19
536.22	58302.74
536.38	58213.80
536.55	57588.88
536.72	57006.09
536.89	57193.33
537.06	57827.62
537.23	58740.42
537.40	59082.14
537.57	58901.92
537.74	58693.61
537.91	58688.93
538.08	58759.15
538.25	58812.98
538.42	58834.05
538.59	58731.06
538.75	58127.20
538.92	58122.52
539.09	57673.14
539.26	57712.93
539.43	57446.11
539.60	57506.96
539.77	57766.76
539.94	57619.31
540.11	56875.02
540.28	56432.66
540.44	56406.91
540.61	56706.50
540.78	56949.92
540.95	57368.87
541.12	57757.40
541.29	58071.03
541.46	58225.51
541.62	58443.18
541.79	58150.61
541.96	57403.98
542.13	57626.33
542.30	57776.12
542.47	57865.06
542.63	57743.36
542.80	57579.52
542.97	57841.66
543.14	57476.54
543.31	57602.92
543.48	58188.06
543.64	59072.78
543.81	59236.62
543.98	58911.28
544.15	58005.50
544.32	57645.05
544.48	57773.78
544.65	58358.92
544.82	58419.77
544.99	58054.65
545.16	57900.17
545.32	57719.95
545.49	58272.32
545.66	58817.66
545.83	58365.94
546.00	58056.99
546.16	57656.76
546.33	57764.42
546.50	57846.34
546.67	58445.52
546.83	57853.36
547.00	57670.80
547.17	57085.67
547.34	56793.10
547.50	56893.74
547.67	57162.90
547.84	57247.16
548.00	57523.35
548.17	58064.01
548.34	57806.55
548.51	57869.75
548.67	58078.05
548.84	58087.42
549.01	58089.76
549.18	57733.99
549.34	57591.22
549.51	57726.97
549.68	57792.51
549.84	57331.42
550.01	57483.56
550.18	57317.38
550.34	57537.39
550.51	57272.91
550.68	57504.62
550.84	56858.63
551.01	57153.54
551.18	57219.08
551.34	57165.24
551.51	57661.44
551.68	57921.24
551.84	57944.64
552.01	57755.06
552.18	57584.20
552.34	56720.54
552.51	56343.72
552.68	56488.83
552.84	57102.05
553.01	57106.73
553.18	56956.94
553.34	57277.59
553.51	57343.12
553.67	57579.52
553.84	57846.34
554.01	57364.19
554.17	57539.73
554.34	57242.48
554.51	57453.13
554.67	58066.35
554.84	57537.39
555.00	57275.25
555.17	57207.37
555.33	57249.50
555.50	57036.51
555.67	57233.12
555.83	57095.03
556.00	56736.93
556.16	56512.23
556.33	56598.83
556.50	56222.01
556.66	56147.11
556.83	55798.37
556.99	56186.90
557.16	56261.80
557.32	56339.04
557.49	56734.59
557.65	56598.83
557.82	56573.09
557.98	56566.07
558.15	55941.14
558.32	55047.06
558.48	54443.20
558.65	54782.58
558.81	55159.41
558.98	55353.67
559.14	55627.51
559.31	55538.57
559.47	55749.22
559.64	55182.81
559.80	54817.69
559.97	54993.23
560.13	55671.98
560.30	56467.76
560.46	56683.09
560.63	56814.16
560.79	57076.30
560.96	56552.02
561.12	55348.99
561.29	54733.43
561.45	54845.77
561.61	55421.55
561.78	55842.84
561.94	55798.37
562.11	55339.63
562.27	55398.14
562.44	55781.99
562.60	55903.70
562.77	56158.81
562.93	55934.12
563.10	55781.99
563.26	55491.76
563.42	55372.39
563.59	55271.75
563.75	55341.97
563.92	55374.73
564.08	55276.43
564.24	55597.09
564.41	55524.53
564.57	55503.46
564.74	55386.44
564.90	55395.80
565.07	55051.74
565.23	54642.15
565.39	54181.06
565.56	53900.20
565.72	53666.14
565.88	54054.67
566.05	54344.90
566.21	54677.25
566.38	54583.63
566.54	54770.88
566.70	55044.72
566.87	55461.33
567.03	55632.19
567.19	55547.93
567.36	55065.78
567.52	55187.49
567.68	54979.18
567.85	54300.43
568.01	53944.67
568.17	53457.84
568.34	53284.64
568.50	53305.70
568.66	53682.53
568.83	53804.24
568.99	53904.88
569.15	54223.19
569.32	54031.27
569.48	53624.01
569.64	53813.60
569.81	53595.93
569.97	53371.24
570.13	53235.48
570.30	52533.32
570.46	52453.75
570.62	51437.95
570.78	51824.14
570.95	51959.89
571.11	53036.54
571.27	52708.86
571.43	53134.84
571.60	53572.52
571.76	53773.81
571.92	53930.62
572.09	54248.94
572.25	53829.98
572.41	54351.92
572.57	53797.21
572.74	53886.15
572.90	53532.73
573.06	53577.20
573.22	53607.63
573.38	53521.03
573.55	53123.14
573.71	53464.86
573.87	53279.96
574.03	53230.80
574.20	53284.64
574.36	53256.55
574.52	52746.31
574.68	52755.68
574.84	52360.12
575.01	51922.44
575.17	52037.13
575.33	52313.31
575.49	52397.57
575.65	52552.05
575.82	52278.21
575.98	52067.56
576.14	52383.53
576.30	52477.15
576.46	52795.46
576.62	52420.98
576.79	52638.65
576.95	52378.85
577.11	52135.43
577.27	52406.94
577.43	52355.44
577.59	52163.52
577.75	51604.13
577.92	50532.17
578.08	50714.73
578.24	50735.79
578.40	51201.56
578.56	51278.80
578.72	51236.67
578.88	51749.24
579.04	51849.89
579.21	51856.91
579.37	52083.94
579.53	52006.70
579.69	51917.76
579.85	52072.24
580.01	51849.89
580.17	51437.95
580.33	50815.37
580.49	51482.42
580.65	51604.13
580.82	51840.53
580.98	51894.36
581.14	51723.50
581.30	52055.85
581.46	51636.90
581.62	51906.06
581.78	52240.76
581.94	52156.50
582.10	52044.15
582.26	51854.57
582.42	52320.34
582.58	52196.29
582.74	52086.28
582.90	52364.81
583.06	52374.17
583.22	52069.90
583.38	51735.20
583.54	51980.96
583.70	52004.36
583.86	52032.45
584.02	51632.22
584.18	51966.91
584.34	51824.14
584.50	51224.96
584.66	51395.82
584.82	51075.17
584.98	51014.32
585.14	50497.06
585.30	50068.74
