SpectraSuite Data File
++++++++++++++++++++++++++++++++++++
Date: Mon Oct 07 14:54:59 GMT-05:00 2013
User: price-jones
Dark Spectrum Present: No
Reference Spectrum Present: No
Number of Sampled Component Spectra: 1
Spectrometers: USB2+H05261
Integration Time (usec): 10000 (USB2+H05261)
Spectra Averaged: 1 (USB2+H05261)
Boxcar Smoothing: 0 (USB2+H05261)
Correct for Electrical Dark: No (USB2+H05261)
Strobe/Lamp Enabled: No (USB2+H05261)
Correct for Detector Non-linearity: No (USB2+H05261)
Correct for Stray Light: No (USB2+H05261)
Number of Pixels in Processed Spectrum: 2048
>>>>>Begin Processed Spectral Data<<<<<
365.73	0.00
365.92	0.00
366.12	0.00
366.32	0.00
366.52	0.00
366.72	0.00
366.91	0.00
367.11	0.00
367.31	0.00
367.51	0.00
367.70	0.00
367.90	0.00
368.10	0.00
368.30	0.00
368.49	0.00
368.69	0.00
368.89	0.00
369.09	0.00
369.28	0.00
369.48	0.00
369.68	0.00
369.87	0.00
370.07	0.00
370.27	0.00
370.47	0.00
370.66	470.45
370.86	645.99
371.06	617.90
371.25	608.54
371.45	561.73
371.65	461.09
371.84	411.93
372.04	554.71
372.24	587.47
372.44	690.46
372.63	601.52
372.83	592.16
373.03	477.47
373.22	482.15
373.42	533.64
373.62	645.99
373.81	573.43
374.01	578.11
374.21	573.43
374.40	528.96
374.60	519.60
374.79	627.26
374.99	826.21
375.19	842.59
375.38	851.96
375.58	732.59
375.78	870.68
375.97	791.10
376.17	835.57
376.37	915.15
376.56	763.01
376.76	905.79
376.95	938.55
377.15	1060.26
377.35	1069.62
377.54	1057.92
377.74	1041.54
377.93	1069.62
378.13	1102.39
378.33	1053.24
378.52	992.39
378.72	919.83
378.91	830.89
379.11	795.78
379.31	849.61
379.50	835.57
379.70	875.36
379.89	961.96
380.09	1018.13
380.28	1132.82
380.48	1132.82
380.68	1060.26
380.87	992.39
381.07	1011.11
381.26	833.23
381.46	709.18
381.65	713.86
381.85	798.12
382.04	674.07
382.24	620.24
382.43	543.00
382.63	550.03
382.83	533.64
383.02	507.90
383.22	496.19
383.41	594.50
383.61	564.07
383.80	716.20
384.00	826.21
384.19	1004.09
384.39	1020.47
384.58	924.51
384.78	976.00
384.97	1032.18
385.17	971.32
385.36	793.44
385.56	809.83
385.75	868.34
385.95	1053.24
386.14	1100.05
386.34	1083.67
386.53	983.02
386.72	922.17
386.92	997.07
387.11	980.68
387.31	1071.97
387.50	1118.78
387.70	997.07
387.89	849.61
388.09	983.02
388.28	1043.88
388.48	1029.84
388.67	1125.80
388.86	1242.82
389.06	1376.24
389.25	1547.09
389.45	1404.32
389.64	1411.34
389.84	1327.08
390.03	1327.08
390.22	1331.76
390.42	1432.41
390.61	1483.90
390.81	1638.38
391.00	1631.35
391.19	1645.40
391.39	1582.20
391.58	1451.13
391.78	1394.96
391.97	1315.38
392.16	1158.57
392.36	1036.86
392.55	849.61
392.75	543.00
392.94	468.11
393.13	447.04
393.33	601.52
393.52	772.38
393.71	940.90
393.91	1170.27
394.10	1284.95
394.29	1413.68
394.49	1577.52
394.68	1675.82
394.88	1645.40
395.07	1736.68
395.26	1715.61
395.46	1671.14
395.65	1486.24
395.84	1296.66
396.04	1048.56
396.23	842.59
396.42	603.86
396.62	732.59
396.81	774.72
397.00	1036.86
397.19	1430.07
397.39	1762.42
397.58	1870.09
397.77	1968.39
397.97	2141.59
398.16	2080.74
398.35	2235.21
398.55	2284.36
398.74	2349.90
398.93	2415.43
399.12	2237.55
399.32	2270.32
399.51	2284.36
399.70	2429.48
399.90	2469.27
400.09	2469.27
400.28	2523.10
400.47	2464.58
400.67	2572.25
400.86	2630.76
401.05	2565.23
401.24	2733.75
401.44	2679.91
401.63	2633.10
401.82	2679.91
402.01	2581.61
402.21	2675.23
402.40	2787.58
402.59	2663.53
402.78	2511.39
402.97	2520.76
403.17	2553.52
403.36	2621.40
403.55	2806.30
403.74	2815.66
403.93	2612.04
404.13	2466.92
404.32	2497.35
404.51	2597.99
404.70	2600.34
404.89	2656.51
405.09	2637.78
405.28	2649.49
405.47	2602.68
405.66	2576.93
405.85	2392.03
406.05	2511.39
406.24	2490.33
406.43	2583.95
406.62	2574.59
406.81	2661.19
407.00	2548.84
407.20	2485.65
407.39	2462.24
407.58	2579.27
407.77	2818.00
407.96	2799.28
408.15	2928.01
408.34	2925.67
408.54	2963.12
408.73	3009.93
408.92	2869.50
409.11	2822.69
409.30	2696.30
409.49	2434.16
409.68	2349.90
409.87	2382.67
410.07	2487.99
410.26	2705.66
410.45	2846.09
410.64	2930.35
410.83	2942.05
411.02	3103.55
411.21	3038.02
411.40	2911.63
411.59	3070.78
411.78	3101.21
411.98	3047.38
412.17	3030.99
412.36	2984.18
412.55	2897.58
412.74	2909.29
412.93	2972.48
413.12	2862.48
413.31	3157.38
413.50	3386.76
413.69	3227.60
413.88	3038.02
414.07	3117.59
414.26	3119.93
414.45	3105.89
414.64	3173.77
414.83	3108.23
415.02	3183.13
415.22	3152.70
415.41	3075.46
415.60	3330.58
415.79	3562.30
415.98	3550.59
416.17	3440.59
416.36	3377.39
416.55	3349.31
416.74	3199.51
416.93	3183.13
417.12	3047.38
417.31	3110.57
417.50	2998.23
417.69	3330.58
417.88	3218.24
418.07	3218.24
418.26	3227.60
418.45	3290.79
418.64	3410.16
418.83	3463.99
419.02	3396.12
419.21	3330.58
419.39	3213.56
419.58	2920.99
419.77	3143.34
419.96	3145.68
420.15	3344.63
420.34	3494.42
420.53	3597.40
420.72	3627.83
420.91	3485.06
421.10	3611.45
421.29	3627.83
421.48	3478.04
421.67	3566.98
421.86	3386.76
422.05	3246.32
422.24	2916.31
422.43	2789.92
422.61	3234.62
422.80	3351.65
422.99	3480.38
423.18	3286.11
423.37	3279.09
423.56	3190.15
423.75	3274.41
423.94	3295.47
424.13	3115.25
424.32	3136.32
424.50	3225.26
424.69	3148.02
424.88	3133.98
425.07	3108.23
425.26	3124.62
425.45	3054.40
425.64	3073.12
425.83	3108.23
426.01	3199.51
426.20	3159.72
426.39	3309.52
426.58	2897.58
426.77	2626.08
426.96	2626.08
427.15	2780.56
427.33	2979.50
427.52	3110.57
427.71	3136.32
427.90	3136.32
428.09	3047.38
428.28	3080.14
428.46	2857.79
428.65	2686.94
428.84	2888.22
429.03	2843.75
429.22	2722.04
429.40	2436.50
429.59	2267.98
429.78	2047.97
429.97	2047.97
430.16	1970.73
430.34	2083.08
430.53	2108.82
430.72	2179.04
430.91	2356.92
431.10	2874.18
431.28	3290.79
431.47	3452.29
431.66	3590.38
431.85	3180.79
432.03	3042.70
432.22	2778.22
432.41	3042.70
432.60	3438.25
432.79	3471.01
432.97	3592.72
433.16	3407.82
433.35	3038.02
433.54	2761.83
433.72	2609.70
433.91	2651.83
434.10	3045.04
434.28	3309.52
434.47	3391.44
434.66	3351.65
434.85	3211.22
435.03	3286.11
435.22	3330.58
435.41	3492.08
435.59	3529.53
435.78	3599.74
435.97	3651.24
436.16	3592.72
436.34	3660.60
436.53	3501.44
436.72	3562.30
436.90	3440.59
437.09	3353.99
437.28	3269.73
437.46	3403.14
437.65	3349.31
437.84	3016.95
438.02	2754.81
438.21	2972.48
438.40	3016.95
438.58	3213.56
438.77	3393.78
438.96	3382.07
439.14	3454.63
439.33	3559.95
439.52	3705.07
439.70	3456.97
439.89	3496.76
440.08	3421.86
440.26	3396.12
440.45	3599.74
440.63	3660.60
440.82	3744.86
441.01	3873.59
441.19	3798.69
441.38	3838.48
441.57	4074.87
441.75	4126.36
441.94	4074.87
442.12	4119.34
442.31	4004.66
442.50	4201.26
442.68	4100.62
442.87	3974.23
443.05	3936.78
443.24	3978.91
443.43	4074.87
443.61	4109.98
443.80	4189.56
443.98	3929.76
444.17	3988.27
444.35	4030.40
444.54	4262.12
444.73	4320.63
444.91	3925.08
445.10	3772.94
445.28	3639.53
445.47	3604.42
445.65	3672.30
445.84	3751.88
446.02	3925.08
446.21	3915.72
446.39	3716.77
446.58	3861.88
446.77	3971.89
446.95	4072.53
447.14	4243.39
447.32	4084.23
447.51	4079.55
447.69	3896.99
447.88	3957.85
448.06	4025.72
448.25	4067.85
448.43	4081.89
448.62	3901.67
448.80	3936.78
448.99	3953.16
449.17	3985.93
449.36	3953.16
449.54	4234.03
449.73	4243.39
449.91	4280.84
450.10	4437.66
450.28	4353.40
450.46	4477.44
450.65	4292.54
450.83	4346.37
451.02	3939.12
451.20	4152.11
451.39	4372.12
451.57	4166.15
451.76	4046.79
451.94	4091.26
452.13	4095.94
452.31	3950.82
452.49	3786.99
452.68	3737.84
452.86	3684.00
453.05	3850.18
453.23	4044.45
453.42	4032.74
453.60	4098.28
453.78	4248.07
453.97	4032.74
454.15	4184.88
454.34	4023.38
454.52	3878.27
454.70	3904.01
454.89	4025.72
455.07	3892.31
455.26	3990.61
455.44	4070.19
455.62	4196.58
455.81	4212.96
455.99	4133.39
456.17	4294.88
456.36	4002.32
456.54	4311.27
456.73	4196.58
456.91	4315.95
457.09	4463.40
457.28	4517.23
457.46	4210.62
457.64	4203.60
457.83	4177.86
458.01	3911.04
458.19	4021.04
458.38	4074.87
458.56	4248.07
458.74	4161.47
458.93	4067.85
459.11	4194.24
459.29	4056.15
459.48	4140.41
459.66	4102.96
459.84	4007.00
460.03	4056.15
460.21	4161.47
460.39	4166.15
460.57	4386.16
460.76	4325.31
460.94	4304.25
461.12	4145.09
461.31	4170.83
461.49	4250.41
461.67	4252.75
461.85	4250.41
462.04	4198.92
462.22	4271.48
462.40	4252.75
462.59	4271.48
462.77	4084.23
462.95	4184.88
463.13	4355.74
463.32	4227.01
463.50	4149.77
463.68	4126.36
463.86	4173.18
464.05	4140.41
464.23	4025.72
464.41	3868.91
464.59	3939.12
464.78	4205.94
464.96	4114.66
465.14	3992.95
465.32	4248.07
465.50	4180.20
465.69	4290.20
465.87	4180.20
466.05	4039.76
466.23	3882.95
466.41	3772.94
466.60	3929.76
466.78	4018.70
466.96	3978.91
467.14	4032.74
467.32	4180.20
467.51	4065.51
467.69	3770.60
467.87	3918.06
468.05	4042.11
468.23	4065.51
468.41	4051.47
468.60	4086.58
468.78	4058.49
468.96	3976.57
469.14	4107.64
469.32	4086.58
469.50	3873.59
469.69	3857.20
469.87	3885.29
470.05	3950.82
470.23	3885.29
470.41	3934.44
470.59	4044.45
470.77	3953.16
470.95	4021.04
471.14	4117.00
471.32	4135.73
471.50	4276.16
471.68	4372.12
471.86	4301.90
472.04	4425.95
472.22	4444.68
472.40	4201.26
472.58	4205.94
472.77	4004.66
472.95	4131.05
473.13	4212.96
473.31	4145.09
473.49	4161.47
473.67	4322.97
473.85	4191.90
474.03	4402.55
474.21	4428.29
474.39	4458.72
474.57	4313.61
474.75	4351.06
474.93	4358.08
475.12	4184.88
475.30	4222.33
475.48	4411.91
475.66	4376.80
475.84	4238.71
476.02	4271.48
476.20	4189.56
476.38	4278.50
476.56	4290.20
476.74	4379.14
476.92	4407.23
477.10	4606.17
477.28	4730.22
477.46	4695.11
477.64	4601.49
477.82	4755.97
478.00	4718.52
478.18	4606.17
478.36	4678.73
478.54	4739.58
478.72	4758.31
478.90	4725.54
479.08	4898.74
479.26	5071.94
479.44	5118.75
479.62	4964.28
479.80	4926.83
479.98	4793.42
480.16	4964.28
480.34	4924.49
480.52	4997.04
480.70	4980.66
480.88	4926.83
481.06	4964.28
481.24	5228.76
481.41	5172.58
481.59	5179.61
481.77	5181.95
481.95	5100.03
482.13	5027.47
482.31	5205.35
482.49	5188.97
482.67	5341.10
482.85	5425.36
483.03	5352.81
483.21	5518.98
483.39	5294.29
483.57	5308.34
483.74	5027.47
483.92	5315.36
484.10	5200.67
484.28	5373.87
484.46	5359.83
484.64	5661.76
484.82	5313.02
485.00	5418.34
485.18	5210.03
485.35	5090.67
485.53	4554.68
485.71	4248.07
485.89	4112.32
486.07	4348.72
486.25	4814.48
486.43	5032.15
486.61	5224.08
486.78	5238.12
486.96	5142.16
487.14	5418.34
487.32	5582.18
487.50	5572.82
487.68	5783.46
487.85	5830.27
488.03	5788.14
488.21	5671.12
488.39	5666.44
488.57	5528.35
488.75	5481.53
488.92	5671.12
489.10	5944.96
489.28	6040.92
489.46	6427.11
489.64	6312.42
489.81	6202.42
489.99	6267.95
490.17	6305.40
490.35	6328.81
490.53	6270.30
490.70	6319.45
490.88	6155.61
491.06	6548.82
491.24	6347.53
491.41	6115.82
491.59	5951.98
491.77	5577.50
491.95	5935.60
492.13	6043.26
492.30	6331.15
492.48	6698.61
492.66	6635.42
492.84	6513.71
493.01	6658.82
493.19	6553.50
493.37	6487.96
493.54	6326.47
493.72	6359.24
493.90	6700.95
494.08	6904.58
494.25	6740.74
494.43	6895.22
494.61	6888.20
494.79	7077.78
494.96	7054.37
495.14	7016.93
495.32	6710.32
495.49	6340.51
495.67	6743.08
495.85	6967.77
496.02	6956.07
496.20	7124.59
496.38	7077.78
496.55	6827.34
496.73	7108.21
496.91	7307.15
497.09	7405.46
497.26	7344.60
497.44	7213.53
497.62	6995.86
497.79	6698.61
497.97	6602.65
498.14	6682.23
498.32	6958.41
498.50	7115.23
498.67	7187.79
498.85	7140.97
499.03	7042.67
499.20	7199.49
499.38	7337.58
499.56	7068.42
499.73	7063.74
499.91	6871.81
500.08	6813.30
500.26	6684.57
500.44	6935.01
500.61	6944.37
500.79	6913.94
500.97	6740.74
501.14	6752.45
501.32	6604.99
501.49	6803.94
501.67	6761.81
501.84	6953.73
502.02	6909.26
502.20	6993.52
502.37	7045.01
502.55	6843.73
502.72	7241.62
502.90	7314.17
503.07	7119.91
503.25	7119.91
503.43	7148.00
503.60	6722.02
503.78	6441.15
503.95	6635.42
504.13	7112.89
504.30	7164.38
504.48	7295.45
504.65	7155.02
504.83	7234.60
505.01	7297.79
505.18	7314.17
505.36	7566.95
505.53	7473.33
505.71	7576.31
505.88	7384.39
506.06	7283.75
506.23	7204.17
506.41	7187.79
506.58	7089.48
506.76	7208.85
506.93	7229.91
507.11	7061.40
507.28	7169.06
507.46	7131.61
507.63	6944.37
507.81	6979.48
507.98	6963.09
508.16	7054.37
508.33	7173.74
508.50	7445.24
508.68	7410.14
508.85	7548.23
509.03	7609.08
509.20	7566.95
509.38	7297.79
509.55	6998.20
509.73	7197.15
509.90	7283.75
510.08	7494.40
510.25	7300.13
510.42	7054.37
510.60	7185.44
510.77	7281.41
510.95	7452.27
511.12	7286.09
511.30	7613.76
511.47	7616.10
511.64	7761.22
511.82	7576.31
511.99	7325.88
512.17	7033.31
512.34	6909.26
512.51	7028.63
512.69	7084.80
512.86	7028.63
513.04	7269.70
513.21	7236.94
513.38	7349.28
513.56	7108.21
513.73	6825.00
513.90	6782.87
514.08	6820.32
514.25	7061.40
514.43	7169.06
514.60	7185.44
514.77	7094.16
514.95	7110.55
515.12	7056.72
515.29	7253.32
515.47	7272.04
515.64	7159.70
515.81	7213.53
515.99	6974.80
516.16	6633.08
516.33	5973.05
516.51	5830.27
516.68	5614.95
516.85	5446.43
517.03	5535.37
517.20	6087.73
517.37	6698.61
517.54	6857.77
517.72	6839.05
517.89	6286.68
518.06	5823.25
518.24	5879.43
518.41	6370.94
518.58	6583.93
518.75	6825.00
518.93	6862.45
519.10	6766.49
519.27	6855.43
519.45	6736.06
519.62	6986.50
519.79	7218.21
519.96	7103.53
520.14	7021.61
520.31	6607.33
520.48	6668.19
520.65	6817.98
520.83	7206.51
521.00	7105.87
521.17	7108.21
521.34	6946.71
521.52	7073.10
521.69	7265.02
521.86	7262.68
522.03	7213.53
522.20	6937.35
522.38	6602.65
522.55	6434.13
522.72	6693.93
522.89	6876.49
523.07	6715.00
523.24	6843.73
523.41	7218.21
523.58	7012.24
523.75	7337.58
523.92	7248.64
524.10	7351.62
524.27	7421.84
524.44	7183.10
524.61	7201.83
524.78	7248.64
524.96	7082.46
525.13	7009.90
525.30	7138.63
525.47	7372.69
525.64	7227.57
525.81	7077.78
525.98	6677.55
526.16	6242.21
526.33	6164.97
526.50	6071.35
526.67	6047.94
526.84	6183.70
527.01	6438.81
527.18	6642.44
527.36	6857.77
527.53	6871.81
527.70	6942.03
527.87	6813.30
528.04	6614.35
528.21	6743.08
528.38	7000.54
528.55	7353.96
528.72	7325.88
528.89	7449.93
529.07	7255.66
529.24	7080.12
529.41	6984.16
529.58	6832.02
529.75	6820.32
529.92	6853.09
530.09	7176.08
530.26	7332.90
530.43	7253.32
530.60	7267.36
530.77	7253.32
530.94	7346.94
531.11	7155.02
531.28	6867.13
531.46	7070.76
531.63	7229.91
531.80	7166.72
531.97	6750.10
532.14	6675.21
532.31	6417.75
532.48	6349.87
532.65	6384.98
532.82	6604.99
532.99	6869.47
533.16	6958.41
533.33	7012.24
533.50	6848.41
533.67	6918.62
533.84	6663.51
534.01	6707.98
534.18	6932.67
534.35	6857.77
534.52	6911.60
534.69	6963.09
534.86	7148.00
535.03	7019.27
535.20	7108.21
535.37	7222.89
535.54	7265.02
535.71	7218.21
535.88	7012.24
536.05	6764.15
536.22	6789.89
536.38	6562.86
536.55	6768.83
536.72	6551.16
536.89	6537.12
537.06	6438.81
537.23	6675.21
537.40	6883.52
537.57	6855.43
537.74	6785.21
537.91	7047.35
538.08	6782.87
538.25	6911.60
538.42	6785.21
538.59	6867.13
538.75	6415.41
538.92	6464.56
539.09	6710.32
539.26	6314.77
539.43	6494.99
539.60	6516.05
539.77	6462.22
539.94	6595.63
540.11	6209.44
540.28	6230.51
540.44	6155.61
540.61	6331.15
540.78	6263.27
540.95	6228.17
541.12	6464.56
541.29	6377.96
541.46	6700.95
541.62	6546.48
541.79	6502.01
541.96	6370.94
542.13	6544.14
542.30	6574.56
542.47	6691.59
542.63	6743.08
542.80	6494.99
542.97	6450.52
543.14	6476.26
543.31	6389.66
543.48	6509.03
543.64	6612.01
543.81	6876.49
543.98	6799.26
544.15	6574.56
544.32	6319.45
544.48	6291.36
544.65	6518.39
544.82	6750.10
544.99	6548.82
545.16	6377.96
545.32	6504.35
545.49	6612.01
545.66	6832.02
545.83	6604.99
546.00	6457.54
546.16	6583.93
546.33	6590.95
546.50	6583.93
546.67	6609.67
546.83	6483.28
547.00	6494.99
547.17	6207.10
547.34	6127.52
547.50	6207.10
547.67	6303.06
547.84	6150.93
548.00	6317.11
548.17	6352.21
548.34	6305.40
548.51	6579.25
548.67	6523.07
548.84	6359.24
549.01	6459.88
549.18	6429.45
549.34	6361.58
549.51	6471.58
549.68	6413.07
549.84	6326.47
550.01	6274.98
550.18	6249.23
550.34	6324.13
550.51	6492.65
550.68	6389.66
550.84	6265.61
551.01	6305.40
551.18	6001.13
551.34	6328.81
551.51	6267.95
551.68	6408.39
551.84	6438.81
552.01	6377.96
552.18	6375.62
552.34	6181.35
552.51	6083.05
552.68	6167.31
552.84	6038.58
553.01	6195.40
553.18	6328.81
553.34	6211.78
553.51	6300.72
553.67	6251.57
553.84	6298.38
554.01	6246.89
554.17	6207.10
554.34	6223.48
554.51	6183.70
554.67	6345.19
554.84	6342.85
555.00	6263.27
555.17	6263.27
555.33	6291.36
555.50	6251.57
555.67	6141.57
555.83	6164.97
556.00	6085.39
556.16	5961.34
556.33	5724.95
556.50	5916.87
556.66	5888.79
556.83	5753.04
556.99	5912.19
557.16	5860.70
557.32	6122.84
557.49	5905.17
557.65	6036.24
557.82	5844.32
557.98	5898.15
558.15	5898.15
558.32	5734.31
558.48	5563.45
558.65	5523.66
558.81	5685.16
558.98	5661.76
559.14	5806.87
559.31	5614.95
559.47	5720.27
559.64	5577.50
559.80	5479.19
559.97	5427.70
560.13	5722.61
560.30	5856.02
560.46	6059.65
560.63	6040.92
560.79	6106.46
560.96	5872.40
561.12	5579.84
561.29	5343.44
561.45	5565.79
561.61	5430.04
561.78	5696.86
561.94	5802.19
562.11	5755.38
562.27	5708.57
562.44	5619.63
562.60	5778.78
562.77	5760.06
562.93	5699.20
563.10	5675.80
563.26	5678.14
563.42	5645.37
563.59	5734.31
563.75	5673.46
563.92	5671.12
564.08	5586.86
564.24	5589.20
564.41	5851.34
564.57	5626.65
564.74	5584.52
564.90	5636.01
565.07	5666.44
565.23	5549.41
565.39	5294.29
565.56	5387.91
565.72	5205.35
565.88	5394.93
566.05	5200.67
566.21	5289.61
566.38	5490.90
566.54	5458.13
566.70	5633.67
566.87	5628.99
567.03	5533.03
567.19	5631.33
567.36	5465.15
567.52	5621.97
567.68	5640.69
567.85	5331.74
568.01	5132.79
568.17	5242.80
568.34	5305.99
568.50	5228.76
568.66	5226.42
568.83	5423.02
568.99	5296.63
569.15	5486.22
569.32	5247.48
569.48	5408.98
569.64	5308.34
569.81	5177.26
569.97	5231.10
570.13	5088.32
570.30	5107.05
570.46	4961.94
570.62	5008.75
570.78	4983.00
570.95	4896.40
571.11	4945.55
571.27	5097.69
571.43	5181.95
571.60	5179.61
571.76	5256.84
571.92	5214.71
572.09	5408.98
572.25	5357.49
572.41	5181.95
572.57	5252.16
572.74	5296.63
572.90	5207.69
573.06	5268.55
573.22	5458.13
573.38	5210.03
573.55	5064.92
573.71	5177.26
573.87	5352.81
574.03	5181.95
574.20	5177.26
574.36	5022.79
574.52	5001.72
574.68	5032.15
574.84	4968.96
575.01	4791.08
575.17	4908.10
575.33	4945.55
575.49	5020.45
575.65	5034.49
575.82	4889.38
575.98	4870.65
576.14	5071.94
576.30	4924.49
576.46	4943.21
576.62	5022.79
576.79	4966.62
576.95	4770.01
577.11	5034.49
577.27	4983.00
577.43	5064.92
577.59	5078.96
577.75	4767.67
577.92	4697.46
578.08	4638.94
578.24	4610.86
578.40	4770.01
578.56	4732.56
578.72	4760.65
578.88	4760.65
579.04	4868.31
579.21	4779.37
579.37	4898.74
579.53	4912.78
579.69	4926.83
579.85	4887.04
580.01	4849.59
580.17	4793.42
580.33	4849.59
580.49	4889.38
580.65	4805.12
580.82	4800.44
580.98	4657.67
581.14	4704.48
581.30	5025.13
581.46	4910.44
581.62	4765.33
581.78	4896.40
581.94	4882.36
582.10	4922.15
582.26	4762.99
582.42	4697.46
582.58	4816.82
582.74	4816.82
582.90	4870.65
583.06	4786.40
583.22	4861.29
583.38	4748.95
583.54	4795.76
583.70	4847.25
583.86	4987.68
584.02	4753.63
584.18	4751.29
584.34	4873.00
584.50	4755.97
584.66	4660.01
584.82	4765.33
584.98	4615.54
585.14	4613.20
585.30	4748.95
585.46	4592.13
585.62	4479.79
585.78	4533.62
585.94	4617.88
586.10	4461.06
586.26	4737.24
586.42	4746.61
586.58	4585.11
586.74	4741.93
586.90	4704.48
587.06	4634.26
587.22	4727.88
587.38	4456.38
587.54	4723.20
587.70	4578.09
587.86	4397.87
588.02	4329.99
588.18	4348.72
588.34	4234.03
588.49	3878.27
588.65	3634.85
588.81	3660.60
588.97	3873.59
589.13	3698.05
589.29	3838.48
589.45	3906.35
589.61	3957.85
589.77	4030.40
589.93	4189.56
590.08	4234.03
590.24	4313.61
590.40	4259.78
590.56	4339.35
590.72	4432.97
590.88	4264.46
591.04	4161.47
591.20	4231.69
591.35	4163.81
591.51	4278.50
591.67	4278.50
591.83	4360.42
591.99	4229.35
592.15	4217.65
592.31	4451.70
592.46	4161.47
592.62	4276.16
592.78	4114.66
592.94	4306.59
593.10	4227.01
593.26	4313.61
593.41	4283.18
593.57	4346.37
593.73	4121.68
593.89	4198.92
594.05	4028.06
594.20	4091.26
594.36	4149.77
594.52	4067.85
594.68	3990.61
594.84	4053.81
594.99	4063.17
595.15	4142.75
595.31	4095.94
595.47	3908.69
595.62	4056.15
595.78	4105.30
595.94	4145.09
596.10	4236.37
596.25	4161.47
596.41	4145.09
596.57	4091.26
596.73	4140.41
596.88	3925.08
597.04	4056.15
597.20	4011.68
597.36	3906.35
