SpectraSuite Data File
++++++++++++++++++++++++++++++++++++
Date: Mon Oct 07 14:53:17 GMT-05:00 2013
User: price-jones
Dark Spectrum Present: No
Reference Spectrum Present: No
Number of Sampled Component Spectra: 1
Spectrometers: USB2+H05261
Integration Time (usec): 100000 (USB2+H05261)
Spectra Averaged: 1 (USB2+H05261)
Boxcar Smoothing: 0 (USB2+H05261)
Correct for Electrical Dark: No (USB2+H05261)
Strobe/Lamp Enabled: No (USB2+H05261)
Correct for Detector Non-linearity: No (USB2+H05261)
Correct for Stray Light: No (USB2+H05261)
Number of Pixels in Processed Spectrum: 2048
>>>>>Begin Processed Spectral Data<<<<<
365.73	0.00
365.92	0.00
366.12	0.00
366.32	0.00
366.52	0.00
366.72	0.00
366.91	0.00
367.11	0.00
367.31	0.00
367.51	0.00
367.70	0.00
367.90	0.00
368.10	0.00
368.30	0.00
368.49	0.00
368.69	0.00
368.89	0.00
369.09	0.00
369.28	0.00
369.48	0.00
369.68	0.00
369.87	0.00
370.07	0.00
370.27	0.00
370.47	1746.04
370.66	7384.39
370.86	8475.08
371.06	9139.79
371.25	8973.61
371.45	8112.30
371.65	7349.28
371.84	7033.31
372.04	7417.16
372.24	8229.32
372.44	8168.47
372.63	8170.81
372.83	7536.52
373.03	6843.73
373.22	6307.74
373.42	6705.63
373.62	7679.30
373.81	8241.03
374.01	7913.35
374.21	7136.29
374.40	6860.11
374.60	7372.69
374.79	8381.46
374.99	9486.19
375.19	9874.72
375.38	9881.74
375.58	9369.16
375.78	9064.89
375.97	9270.86
376.17	9451.08
376.37	9753.01
376.56	10090.05
376.76	10525.39
376.95	11321.17
377.15	12088.87
377.35	12538.25
377.54	12669.32
377.74	12814.43
377.93	12861.24
378.13	12491.44
378.33	11903.96
378.52	11042.65
378.72	10729.02
378.91	10586.24
379.11	10277.29
379.31	9848.97
379.50	9984.73
379.70	11002.86
379.89	11793.96
380.09	12404.84
380.28	13008.70
380.48	12636.55
380.68	12379.09
380.87	12074.82
381.07	11044.99
381.26	10253.89
381.46	9729.61
381.65	9310.65
381.85	9179.58
382.04	8596.79
382.24	8243.37
382.43	7705.04
382.63	7541.21
382.83	7529.50
383.02	7478.01
383.22	7590.36
383.41	7789.30
383.61	8327.63
383.80	9603.22
384.00	10637.73
384.19	12070.14
384.39	12580.38
384.58	12489.10
384.78	12016.31
384.97	11854.81
385.17	11379.68
385.36	10469.22
385.56	10377.94
385.75	10761.78
385.95	11784.60
386.14	12779.32
386.34	12147.38
386.53	11810.34
386.72	11225.21
386.92	11676.93
387.11	12093.55
387.31	12510.16
387.50	12369.73
387.70	12049.08
387.89	11908.65
388.09	11925.03
388.28	11903.96
388.48	12245.68
388.67	13277.86
388.86	14464.51
389.06	15281.36
389.25	16217.57
389.45	16414.18
389.64	16086.50
389.84	15927.35
390.03	15693.29
390.22	15758.83
390.42	16350.98
390.61	17589.13
390.81	18796.84
391.00	18815.57
391.19	18640.03
391.39	17900.42
391.58	16554.61
391.78	15847.77
391.97	15342.21
392.16	13973.00
392.36	12582.72
392.55	10267.93
392.75	8119.32
392.94	6878.83
393.13	6911.60
393.33	8388.48
393.52	10532.41
393.71	12697.41
393.91	14059.60
394.10	15733.08
394.29	17233.36
394.49	18097.02
394.68	19508.37
394.88	19337.51
395.07	20009.24
395.26	20102.86
395.46	18733.65
395.65	17886.37
395.84	15445.20
396.04	13121.04
396.23	10738.38
396.42	9067.24
396.62	9022.77
396.81	10719.65
397.00	13736.60
397.19	16961.86
397.39	19859.45
397.58	22272.54
397.77	23103.43
397.97	24407.11
398.16	24563.92
398.35	25340.98
398.55	26057.18
398.74	26881.05
398.93	27318.73
399.12	27101.06
399.32	26244.43
399.51	26834.24
399.70	28465.60
399.90	27683.86
400.09	27875.78
400.28	27494.27
400.47	27847.69
400.67	29172.44
400.86	29895.66
401.05	29682.67
401.24	29949.50
401.44	30228.02
401.63	30551.01
401.82	30253.76
402.01	30829.54
402.21	30876.35
402.40	31260.20
402.59	29961.20
402.78	28610.71
402.97	28276.01
403.17	29465.00
403.36	30979.33
403.55	31938.95
403.74	32940.70
403.93	30478.46
404.13	28994.56
404.32	28175.37
404.51	29809.06
404.70	31768.09
404.89	31599.57
405.09	30984.01
405.28	30078.22
405.47	30115.67
405.66	29881.62
405.85	29441.60
406.05	28767.52
406.24	29144.35
406.43	30221.00
406.62	31208.70
406.81	31236.79
407.00	30031.41
407.20	29427.56
407.39	29720.12
407.58	31213.38
407.77	32201.09
407.96	33179.43
408.15	33448.60
408.34	33455.62
408.54	35246.13
408.73	35089.31
408.92	34696.10
409.11	33574.98
409.30	32055.98
409.49	30167.16
409.68	28699.65
409.87	27971.74
410.07	29509.47
410.26	32285.35
410.45	33748.18
410.64	34785.04
410.83	36191.70
411.02	36973.44
411.21	37539.85
411.40	36378.95
411.59	36999.19
411.78	37102.17
411.98	36950.04
412.17	36964.08
412.36	36402.35
412.55	36863.44
412.74	35459.12
412.93	34883.34
413.12	35082.29
413.31	38696.08
413.50	38611.82
413.69	39463.77
413.88	37722.41
414.07	36847.05
414.26	37649.86
414.45	39026.09
414.64	38822.47
414.83	39208.65
415.02	38487.77
415.22	38513.52
415.41	39133.76
415.60	40411.69
415.79	41633.45
415.98	42136.66
416.17	42181.13
416.36	41336.20
416.55	41083.42
416.74	39423.98
416.93	38394.15
417.12	38817.78
417.31	39014.39
417.50	39590.16
417.69	40589.57
417.88	40612.98
418.07	40371.90
418.26	39391.22
418.45	40074.65
418.64	41474.29
418.83	42604.77
419.02	41682.60
419.21	41684.94
419.39	40435.10
419.58	38712.46
419.77	38621.18
419.96	40465.52
420.15	41808.99
420.34	42719.46
420.53	44271.23
420.72	45123.19
420.91	44844.66
421.10	44449.11
421.29	44137.82
421.48	42717.12
421.67	44088.67
421.86	42787.33
422.05	39969.33
422.24	36657.47
422.43	36643.43
422.61	40189.34
422.80	42782.65
422.99	43005.00
423.18	41308.11
423.37	40266.58
423.56	40947.67
423.75	41593.66
423.94	42398.80
424.13	39793.79
424.32	40538.08
424.50	40610.64
424.69	40121.46
424.88	40563.82
425.07	40023.16
425.26	39910.82
425.45	39519.95
425.64	38859.91
425.83	39557.39
426.01	41177.04
426.20	42351.99
426.39	41530.47
426.58	38607.14
426.77	36449.16
426.96	34686.74
427.15	36629.38
427.33	39643.99
427.52	40905.54
427.71	40222.11
427.90	40044.23
428.09	39501.22
428.28	39077.58
428.46	37434.53
428.65	37745.82
428.84	38658.63
429.03	38455.00
429.22	36514.70
429.40	34396.51
429.59	30927.84
429.78	28276.01
429.97	28531.13
430.16	28238.56
430.34	28449.21
430.53	28816.68
430.72	29724.80
430.91	32797.93
431.10	38490.11
431.28	43985.69
431.47	47035.41
431.66	46873.91
431.85	43040.11
432.03	39976.35
432.22	39143.12
432.41	40673.83
432.60	44547.42
432.79	46164.73
432.97	46665.60
433.16	44987.44
433.35	41860.48
433.54	37715.39
433.72	36353.20
433.91	37706.03
434.10	41511.74
434.28	43892.07
434.47	45963.44
434.66	45352.56
434.85	44311.02
435.03	44563.80
435.22	45340.86
435.41	47777.36
435.59	47292.86
435.78	47835.87
435.97	49214.44
436.16	48718.25
436.34	48493.56
436.53	47138.39
436.72	47356.06
436.90	45425.12
437.09	45649.81
437.28	45013.18
437.46	46284.09
437.65	46061.74
437.84	42637.54
438.02	39981.03
438.21	40266.58
438.40	41897.93
438.58	45464.91
438.77	46632.83
438.96	46937.10
439.14	48481.86
439.33	49090.40
439.52	49598.29
439.70	48769.74
439.89	47721.18
440.08	46532.19
440.26	46801.35
440.45	47681.39
440.63	50181.09
440.82	51812.44
441.01	51271.78
441.19	51168.79
441.38	51847.55
441.57	52858.66
441.75	52992.07
441.94	53235.48
442.12	53169.95
442.31	53609.97
442.50	53422.73
442.68	52811.85
442.87	52528.64
443.05	52446.72
443.24	53322.08
443.43	53675.51
443.61	54010.20
443.80	54279.36
443.98	52570.77
444.17	52472.47
444.35	54010.20
444.54	54618.74
444.73	54604.70
444.91	53176.97
445.10	51875.63
445.28	50539.19
445.47	49689.57
445.65	50429.18
445.84	51842.87
446.02	52378.85
446.21	52928.87
446.39	53036.54
446.58	53420.39
446.77	53745.72
446.95	54042.97
447.14	54995.57
447.32	55316.22
447.51	54445.54
447.69	53535.07
447.88	53462.52
448.06	53921.26
448.25	54134.25
448.43	54424.48
448.62	53874.45
448.80	53670.82
448.99	53968.07
449.17	54148.29
449.36	54064.03
449.54	55269.41
449.73	55231.96
449.91	55955.19
450.10	56713.52
450.28	56802.46
450.46	56795.44
450.65	56596.49
450.83	56535.64
451.02	55732.84
451.20	55910.72
451.39	55749.22
451.57	55978.59
451.76	55913.06
451.94	55267.07
452.13	54906.63
452.31	53647.42
452.49	51978.62
452.68	52392.89
452.86	52460.77
453.05	53193.36
453.23	54141.27
453.42	54855.14
453.60	55320.90
453.78	55753.90
453.97	55423.89
454.15	55433.25
454.34	54754.49
454.52	55068.12
454.70	54190.42
454.89	54457.24
455.07	54588.31
455.26	55145.36
455.44	55924.76
455.62	56479.47
455.81	56694.80
455.99	56308.61
456.17	56020.72
456.36	55812.41
456.54	56928.85
456.73	56940.55
456.91	57549.09
457.09	57333.76
457.28	57965.71
457.46	56636.28
457.64	56594.15
457.83	55749.22
458.01	55159.41
458.19	56191.58
458.38	56369.46
458.56	56968.64
458.74	56797.78
458.93	56776.72
459.11	56577.77
459.29	56271.16
459.48	56645.65
459.66	56161.15
459.84	56647.99
460.03	56921.83
460.21	56706.50
460.39	57467.17
460.57	57315.04
460.76	57790.17
460.94	58038.26
461.12	57415.68
461.31	57436.75
461.49	57516.32
461.67	57598.24
461.85	58176.36
462.04	58031.24
462.22	58171.67
462.40	57968.05
462.59	58000.82
462.77	58159.97
462.95	58035.92
463.13	57628.67
463.32	57329.08
463.50	57340.78
463.68	57481.22
463.86	57654.42
464.05	57200.35
464.23	56488.83
464.41	56425.64
464.59	56079.24
464.78	57387.60
464.96	57251.84
465.14	56889.06
465.32	57715.27
465.50	58391.68
465.69	58461.90
465.87	57982.09
466.05	57209.71
466.23	55856.88
466.41	55524.53
466.60	56303.93
466.78	56142.43
466.96	57076.30
467.14	57144.18
467.32	57443.77
467.51	57600.58
467.69	56018.38
467.87	56680.75
468.05	57265.89
468.23	57013.11
468.41	56938.21
468.60	57071.62
468.78	57111.41
468.96	57165.24
469.14	57600.58
469.32	57858.04
469.50	56470.11
469.69	56652.67
469.87	56545.00
470.05	56203.28
470.23	56140.09
470.41	56156.47
470.59	56781.40
470.77	56933.53
470.95	57301.00
471.14	57478.88
471.32	57607.61
471.50	59030.65
471.68	59121.93
471.86	59426.20
472.04	59686.00
472.22	59615.79
472.40	58209.12
472.58	58241.89
472.77	57736.34
472.95	58307.43
473.13	59318.54
473.31	58546.16
473.49	58717.02
473.67	58897.24
473.85	59023.63
474.03	59700.04
474.21	59756.22
474.39	59739.83
474.57	59917.71
474.75	60013.68
474.93	59934.10
475.12	59330.24
475.30	59140.66
475.48	59608.76
475.66	59943.46
475.84	59664.94
476.02	59487.06
476.20	58918.31
476.38	59676.64
476.56	60416.25
476.74	60549.66
476.92	60622.22
477.10	61024.79
477.28	61563.11
477.46	61815.89
477.64	61925.89
477.82	61851.00
478.00	61820.57
478.18	61579.49
478.36	61572.47
478.54	61731.63
478.72	61911.85
478.90	62681.89
479.08	62988.50
479.26	63238.93
479.44	63138.29
479.62	62997.86
479.80	62920.62
479.98	62918.28
480.16	63245.96
480.34	63112.55
480.52	63217.87
480.70	63367.66
480.88	63468.31
481.06	63826.41
481.24	63950.46
481.41	64465.38
481.59	65197.96
481.77	64725.17
481.95	64338.99
482.13	64353.03
482.31	64317.92
482.49	64652.62
482.67	64746.24
482.85	64933.48
483.03	65289.24
483.21	65511.59
483.39	65535.00
483.57	64842.20
483.74	64816.46
483.92	65137.11
484.10	65057.53
484.28	65464.78
484.46	65535.00
484.64	65535.00
484.82	65535.00
485.00	65396.91
485.18	64811.77
485.35	63901.31
485.53	61930.58
485.71	59875.58
485.89	59800.69
486.07	61172.24
486.25	63304.47
486.43	64362.39
486.61	64444.31
486.78	64486.44
486.96	64673.68
487.14	65326.69
487.32	65535.00
487.50	65535.00
487.68	65535.00
487.85	65535.00
488.03	65535.00
488.21	65535.00
488.39	65535.00
488.57	65535.00
488.75	65535.00
488.92	65535.00
489.10	65535.00
489.28	65535.00
489.46	65535.00
489.64	65535.00
489.81	65535.00
489.99	65535.00
490.17	65535.00
490.35	65535.00
490.53	65535.00
490.70	65535.00
490.88	65535.00
491.06	65535.00
491.24	65535.00
491.41	65535.00
491.59	65535.00
491.77	65535.00
491.95	65535.00
492.13	65535.00
492.30	65535.00
492.48	65535.00
492.66	65535.00
492.84	65535.00
493.01	65535.00
493.19	65535.00
493.37	65535.00
493.54	65535.00
493.72	65535.00
493.90	65535.00
494.08	65535.00
494.25	65535.00
494.43	65535.00
494.61	65535.00
494.79	65535.00
494.96	65535.00
495.14	65535.00
495.32	65535.00
495.49	65535.00
495.67	65535.00
495.85	65535.00
496.02	65535.00
496.20	65535.00
496.38	65535.00
496.55	65535.00
496.73	65535.00
496.91	65535.00
497.09	65535.00
497.26	65535.00
497.44	65535.00
497.62	65535.00
497.79	65535.00
497.97	65535.00
498.14	65535.00
498.32	65535.00
498.50	65535.00
498.67	65535.00
498.85	65535.00
499.03	65535.00
499.20	65535.00
499.38	65535.00
499.56	65535.00
499.73	65535.00
499.91	65535.00
500.08	65535.00
500.26	65535.00
500.44	65535.00
500.61	65535.00
500.79	65535.00
500.97	65535.00
501.14	65535.00
501.32	65535.00
501.49	65535.00
501.67	65535.00
501.84	65535.00
502.02	65535.00
502.20	65535.00
502.37	65535.00
502.55	65535.00
502.72	65535.00
502.90	65535.00
503.07	65535.00
503.25	65535.00
503.43	65535.00
503.60	65535.00
503.78	65535.00
503.95	65535.00
504.13	65535.00
504.30	65535.00
504.48	65535.00
504.65	65535.00
504.83	65535.00
505.01	65535.00
505.18	65535.00
505.36	65535.00
505.53	65535.00
505.71	65535.00
505.88	65535.00
506.06	65535.00
506.23	65535.00
506.41	65535.00
506.58	65535.00
506.76	65535.00
506.93	65535.00
507.11	65535.00
507.28	65535.00
507.46	65535.00
507.63	65535.00
507.81	65535.00
507.98	65535.00
508.16	65535.00
508.33	65535.00
508.50	65535.00
508.68	65535.00
508.85	65535.00
509.03	65535.00
509.20	65535.00
509.38	65535.00
509.55	65535.00
509.73	65535.00
509.90	65535.00
510.08	65535.00
510.25	65535.00
510.42	65535.00
510.60	65535.00
510.77	65535.00
510.95	65535.00
511.12	65535.00
511.30	65535.00
511.47	65535.00
511.64	65535.00
511.82	65535.00
511.99	65535.00
512.17	65535.00
512.34	65535.00
512.51	65535.00
512.69	65535.00
512.86	65535.00
513.04	65535.00
513.21	65535.00
513.38	65535.00
513.56	65535.00
513.73	65535.00
513.90	65535.00
514.08	65535.00
514.25	65535.00
514.43	65535.00
514.60	65535.00
514.77	65535.00
514.95	65535.00
515.12	65535.00
515.29	65535.00
515.47	65535.00
515.64	65535.00
515.81	65535.00
515.99	65535.00
516.16	65535.00
516.33	65535.00
516.51	65535.00
516.68	65535.00
516.85	65535.00
517.03	65535.00
517.20	65535.00
517.37	65535.00
517.54	65535.00
517.72	65535.00
517.89	65535.00
518.06	65535.00
518.24	65535.00
518.41	65535.00
518.58	65535.00
518.75	65535.00
518.93	65535.00
519.10	65535.00
519.27	65535.00
519.45	65535.00
519.62	65535.00
519.79	65535.00
519.96	65535.00
520.14	65535.00
520.31	65535.00
520.48	65535.00
520.65	65535.00
520.83	65535.00
521.00	65535.00
521.17	65535.00
521.34	65535.00
521.52	65535.00
521.69	65535.00
521.86	65535.00
522.03	65535.00
522.20	65535.00
522.38	65535.00
522.55	65535.00
522.72	65535.00
522.89	65535.00
523.07	65535.00
523.24	65535.00
523.41	65535.00
523.58	65535.00
523.75	65535.00
523.92	65535.00
524.10	65535.00
524.27	65535.00
524.44	65535.00
524.61	65535.00
524.78	65535.00
524.96	65535.00
525.13	65535.00
525.30	65535.00
525.47	65535.00
525.64	65535.00
525.81	65535.00
525.98	65535.00
526.16	65535.00
526.33	65535.00
526.50	65535.00
526.67	65535.00
526.84	65535.00
527.01	65535.00
527.18	65535.00
527.36	65535.00
527.53	65535.00
527.70	65535.00
527.87	65535.00
528.04	65535.00
528.21	65535.00
528.38	65535.00
528.55	65535.00
528.72	65535.00
528.89	65535.00
529.07	65535.00
529.24	65535.00
529.41	65535.00
529.58	65535.00
529.75	65535.00
529.92	65535.00
530.09	65535.00
530.26	65535.00
530.43	65535.00
530.60	65535.00
530.77	65535.00
530.94	65535.00
531.11	65535.00
531.28	65535.00
531.46	65535.00
531.63	65535.00
531.80	65535.00
531.97	65535.00
532.14	65535.00
532.31	65535.00
532.48	65535.00
532.65	65535.00
532.82	65535.00
532.99	65535.00
533.16	65535.00
533.33	65535.00
533.50	65535.00
533.67	65535.00
533.84	65535.00
534.01	65535.00
534.18	65535.00
534.35	65535.00
534.52	65535.00
534.69	65535.00
534.86	65535.00
535.03	65535.00
535.20	65535.00
535.37	65535.00
535.54	65535.00
535.71	65535.00
535.88	65535.00
536.05	65535.00
536.22	65535.00
536.38	65535.00
536.55	65535.00
536.72	65535.00
536.89	65535.00
537.06	65535.00
537.23	65535.00
537.40	65535.00
537.57	65535.00
537.74	65535.00
537.91	65535.00
538.08	65535.00
538.25	65535.00
538.42	65535.00
538.59	65535.00
538.75	65535.00
538.92	65535.00
539.09	65535.00
539.26	65535.00
539.43	65535.00
539.60	65535.00
539.77	65535.00
539.94	65535.00
540.11	65535.00
540.28	65535.00
540.44	65535.00
540.61	65535.00
540.78	65535.00
540.95	65535.00
541.12	65535.00
541.29	65535.00
541.46	65535.00
541.62	65535.00
541.79	65535.00
541.96	65535.00
542.13	65535.00
542.30	65535.00
542.47	65535.00
542.63	65535.00
542.80	65535.00
542.97	65535.00
543.14	65535.00
543.31	65535.00
543.48	65535.00
543.64	65535.00
543.81	65535.00
543.98	65535.00
544.15	65535.00
544.32	65535.00
544.48	65535.00
544.65	65535.00
544.82	65535.00
544.99	65535.00
545.16	65535.00
545.32	65535.00
545.49	65535.00
545.66	65535.00
545.83	65535.00
546.00	65535.00
546.16	65535.00
546.33	65535.00
546.50	65535.00
546.67	65535.00
546.83	65535.00
547.00	65535.00
547.17	65535.00
547.34	65535.00
547.50	65535.00
547.67	65535.00
547.84	65535.00
548.00	65535.00
548.17	65535.00
548.34	65535.00
548.51	65535.00
548.67	65535.00
548.84	65535.00
549.01	65535.00
549.18	65535.00
549.34	65535.00
549.51	65535.00
549.68	65535.00
549.84	65535.00
550.01	65535.00
550.18	65535.00
550.34	65535.00
550.51	65535.00
550.68	65535.00
550.84	65535.00
551.01	65535.00
551.18	65535.00
551.34	65535.00
551.51	65535.00
551.68	65535.00
551.84	65535.00
552.01	65535.00
552.18	65535.00
552.34	65535.00
552.51	65535.00
552.68	65535.00
552.84	65535.00
553.01	65535.00
553.18	65535.00
553.34	65535.00
553.51	65535.00
553.67	65535.00
553.84	65535.00
554.01	65535.00
554.17	65535.00
554.34	65535.00
554.51	65535.00
554.67	65535.00
554.84	65535.00
555.00	65535.00
555.17	65535.00
555.33	65535.00
555.50	65535.00
555.67	65535.00
555.83	65535.00
556.00	65535.00
556.16	65535.00
556.33	65535.00
556.50	65535.00
556.66	65535.00
556.83	65535.00
556.99	65535.00
557.16	65535.00
557.32	65535.00
557.49	65535.00
557.65	65535.00
557.82	65535.00
557.98	65535.00
558.15	65535.00
558.32	65535.00
558.48	65535.00
558.65	65535.00
558.81	65535.00
558.98	65535.00
559.14	65535.00
559.31	65535.00
559.47	65535.00
559.64	65535.00
559.80	65535.00
559.97	65535.00
560.13	65535.00
560.30	65535.00
560.46	65535.00
560.63	65535.00
560.79	65535.00
560.96	65535.00
561.12	65535.00
561.29	65535.00
561.45	65535.00
561.61	65535.00
561.78	65535.00
561.94	65535.00
562.11	65535.00
562.27	65535.00
562.44	65535.00
562.60	65535.00
562.77	65535.00
562.93	65535.00
563.10	65535.00
563.26	65535.00
563.42	65535.00
563.59	65535.00
563.75	65535.00
563.92	65535.00
564.08	65535.00
564.24	65535.00
564.41	65535.00
564.57	65535.00
564.74	65535.00
564.90	65535.00
565.07	65535.00
565.23	65535.00
565.39	65535.00
565.56	65535.00
565.72	65535.00
565.88	65535.00
566.05	65535.00
566.21	65535.00
566.38	65535.00
566.54	65535.00
566.70	65535.00
566.87	65535.00
567.03	65535.00
567.19	65535.00
567.36	65535.00
567.52	65535.00
567.68	65535.00
567.85	65535.00
568.01	65535.00
568.17	65535.00
568.34	65535.00
568.50	65535.00
568.66	65535.00
568.83	65535.00
568.99	65535.00
569.15	65535.00
569.32	65535.00
569.48	65535.00
569.64	65535.00
569.81	65535.00
569.97	65535.00
570.13	65535.00
570.30	65535.00
570.46	65535.00
570.62	65535.00
570.78	65535.00
570.95	65535.00
571.11	65535.00
571.27	65535.00
571.43	65535.00
571.60	65535.00
571.76	65535.00
571.92	65535.00
572.09	65535.00
572.25	65535.00
572.41	65535.00
572.57	65535.00
572.74	65535.00
572.90	65535.00
573.06	65535.00
573.22	65535.00
573.38	65535.00
573.55	65535.00
573.71	65535.00
573.87	65535.00
574.03	65535.00
574.20	65535.00
574.36	65535.00
574.52	65535.00
574.68	65535.00
574.84	65535.00
575.01	65535.00
575.17	65535.00
575.33	65535.00
575.49	65535.00
575.65	65535.00
575.82	65535.00
575.98	65535.00
576.14	65535.00
576.30	65535.00
576.46	65535.00
576.62	65535.00
576.79	65535.00
576.95	65535.00
577.11	65535.00
577.27	65535.00
577.43	65535.00
577.59	65535.00
577.75	65535.00
577.92	65535.00
578.08	65535.00
578.24	65535.00
578.40	65535.00
578.56	65535.00
578.72	65535.00
578.88	65535.00
579.04	65535.00
579.21	65535.00
579.37	65535.00
579.53	65535.00
579.69	65535.00
579.85	65535.00
580.01	65535.00
580.17	65535.00
580.33	65535.00
580.49	65535.00
580.65	65535.00
580.82	65535.00
580.98	65535.00
581.14	65535.00
581.30	65535.00
581.46	65535.00
581.62	65535.00
581.78	65535.00
581.94	65535.00
582.10	65535.00
582.26	65535.00
582.42	65535.00
582.58	65535.00
582.74	65535.00
582.90	65535.00
583.06	65535.00
583.22	65535.00
583.38	65535.00
583.54	65535.00
583.70	65535.00
583.86	65535.00
584.02	65535.00
584.18	65535.00
584.34	65535.00
