SpectraSuite Data File
++++++++++++++++++++++++++++++++++++
Date: Mon Oct 07 14:53:42 GMT-05:00 2013
User: price-jones
Dark Spectrum Present: No
Reference Spectrum Present: No
Number of Sampled Component Spectra: 1
Spectrometers: USB2+H05261
Integration Time (usec): 100000 (USB2+H05261)
Spectra Averaged: 1 (USB2+H05261)
Boxcar Smoothing: 0 (USB2+H05261)
Correct for Electrical Dark: No (USB2+H05261)
Strobe/Lamp Enabled: No (USB2+H05261)
Correct for Detector Non-linearity: No (USB2+H05261)
Correct for Stray Light: No (USB2+H05261)
Number of Pixels in Processed Spectrum: 2048
>>>>>Begin Processed Spectral Data<<<<<
365.73	0.00
365.92	0.00
366.12	0.00
366.32	0.00
366.52	0.00
366.72	0.00
366.91	0.00
367.11	0.00
367.31	0.00
367.51	0.00
367.70	0.00
367.90	0.00
368.10	0.00
368.30	0.00
368.49	0.00
368.69	0.00
368.89	0.00
369.09	0.00
369.28	0.00
369.48	0.00
369.68	0.00
369.87	0.00
370.07	0.00
370.27	0.00
370.47	510.24
370.66	2420.11
370.86	2871.84
371.06	3108.23
371.25	3272.07
371.45	2862.48
371.65	2644.81
371.84	2363.94
372.04	2462.24
372.24	2930.35
372.44	3016.95
372.63	2965.46
372.83	2689.28
373.03	2359.26
373.22	2120.53
373.42	2207.13
373.62	2743.11
373.81	2960.78
374.01	2820.35
374.21	2583.95
374.40	2511.39
374.60	2506.71
374.79	2906.95
374.99	3304.84
375.19	3679.32
375.38	3501.44
375.58	3407.82
375.78	3251.00
375.97	3330.58
376.17	3517.83
376.37	3442.93
376.56	3627.83
376.76	3934.44
376.95	4016.36
377.15	4306.59
377.35	4603.83
377.54	4777.03
377.74	4758.31
377.93	4882.36
378.13	4706.82
378.33	4514.89
378.52	3969.55
378.72	3927.42
378.91	3866.56
379.11	3817.41
379.31	3763.58
379.50	3681.66
379.70	3913.38
379.89	4355.74
380.09	4730.22
380.28	4788.74
380.48	4688.09
380.68	4751.29
380.87	4575.75
381.07	4236.37
381.26	3843.16
381.46	3602.08
381.65	3623.15
381.85	3454.63
382.04	3260.37
382.24	2951.42
382.43	2906.95
382.63	2850.77
382.83	2799.28
383.02	2871.84
383.22	2822.69
383.41	2897.58
383.61	3045.04
383.80	3550.59
384.00	3983.59
384.19	4491.49
384.39	4739.58
384.58	4718.52
384.78	4571.07
384.97	4664.69
385.17	4372.12
385.36	4030.40
385.56	4105.30
385.75	3962.53
385.95	4440.00
386.14	4868.31
386.34	4894.06
386.53	4758.31
386.72	4306.59
386.92	4444.68
387.11	4615.54
387.31	4781.71
387.50	4791.08
387.70	4533.62
387.89	4421.27
388.09	4655.33
388.28	4519.57
388.48	4793.42
388.67	5207.69
388.86	5540.05
389.06	6092.41
389.25	6338.17
389.45	6298.38
389.64	6265.61
389.84	6296.04
390.03	6237.53
390.22	6157.95
390.42	6445.84
390.61	6693.93
390.81	7206.51
391.00	7520.14
391.19	7302.47
391.39	7021.61
391.58	6499.67
391.78	6193.06
391.97	6134.54
392.16	5846.66
392.36	5174.92
392.55	4210.62
392.75	3276.75
392.94	2825.03
393.13	2628.42
393.33	3038.02
393.52	4028.06
393.71	4833.21
393.91	5444.09
394.10	5930.92
394.29	6567.54
394.49	7110.55
394.68	7747.17
394.88	7651.21
395.07	8086.55
395.26	7939.10
395.46	7758.88
395.65	7243.96
395.84	6499.67
396.04	5504.94
396.23	4346.37
396.42	3707.41
396.62	3534.21
396.81	4018.70
397.00	5172.58
397.19	6466.90
397.39	7784.62
397.58	8786.37
397.77	9296.61
397.97	9430.02
398.16	9797.48
398.35	9980.04
398.55	10546.45
398.74	10832.00
398.93	11215.85
399.12	10965.41
399.32	10506.66
399.51	10757.10
399.70	11569.27
399.90	11246.27
400.09	11405.43
400.28	11178.40
400.47	11276.70
400.67	12002.27
400.86	12145.04
401.05	12269.09
401.24	12250.36
401.44	12451.65
401.63	12442.29
401.82	12458.67
402.01	12725.49
402.21	12769.96
402.40	12828.48
402.59	12208.23
402.78	11868.86
402.97	11534.16
403.17	12051.42
403.36	12741.88
403.55	13062.53
403.74	13338.71
403.93	12664.64
404.13	11782.26
404.32	11606.72
404.51	11908.65
404.70	12931.46
404.89	13008.70
405.09	12791.03
405.28	12299.52
405.47	12341.64
405.66	12365.05
405.85	12119.29
406.05	11805.66
406.24	11800.98
406.43	12512.50
406.62	13008.70
406.81	13099.98
407.00	12521.87
407.20	12381.43
407.39	12365.05
407.58	12800.39
407.77	13348.08
407.96	13874.70
408.15	14155.56
408.34	13921.51
408.54	14796.87
408.73	14806.23
408.92	14497.28
409.11	14293.65
409.30	13579.79
409.49	12791.03
409.68	11850.13
409.87	11658.21
410.07	12205.89
410.26	13226.37
410.45	13895.76
410.64	14508.98
410.83	14733.67
411.02	15250.93
411.21	15709.68
411.40	15576.27
411.59	15576.27
411.78	15421.79
411.98	15426.47
412.17	15627.76
412.36	15246.25
412.55	15440.51
412.74	15295.40
412.93	14743.03
413.12	14780.48
413.31	16304.17
413.50	16339.28
413.69	16589.72
413.88	16137.99
414.07	15492.01
414.26	15803.30
414.45	16489.07
414.64	16533.54
414.83	16514.82
415.02	16060.76
415.22	16065.44
415.41	16407.16
415.60	16816.75
415.79	17240.39
415.98	18008.08
416.17	18045.53
416.36	17750.62
416.55	17518.91
416.74	16821.43
416.93	16074.80
417.12	16219.91
417.31	16517.16
417.50	16744.19
417.69	17172.51
417.88	17448.69
418.07	17118.68
418.26	16961.86
418.45	17252.09
418.64	17362.09
418.83	18295.97
419.02	17940.21
419.21	17809.14
419.39	17177.19
419.58	16072.46
419.77	16119.27
419.96	17296.56
420.15	18160.22
420.34	18403.63
420.53	19201.76
420.72	19613.69
420.91	19370.27
421.10	19138.56
421.29	18913.87
421.48	18499.59
421.67	19358.57
421.86	18803.86
422.05	17266.13
422.24	15807.98
422.43	15330.51
422.61	17226.34
422.80	18427.04
422.99	18490.23
423.18	17811.48
423.37	17568.06
423.56	17951.91
423.75	17752.96
423.94	18052.55
424.13	17125.70
424.32	17256.77
424.50	17518.91
424.69	17359.75
424.88	17523.59
425.07	17296.56
425.26	17273.15
425.45	17027.40
425.64	16751.21
425.83	16762.92
426.01	17797.43
426.20	18375.55
426.39	18141.49
426.58	16898.67
426.77	15531.80
426.96	14864.74
427.15	15396.04
427.33	16840.15
427.52	17507.21
427.71	17542.32
427.90	17268.47
428.09	17413.59
428.28	16606.10
428.46	16173.10
428.65	15939.05
428.84	16107.57
429.03	16650.57
429.22	15719.04
429.40	15049.64
429.59	13631.28
429.78	12070.14
429.97	12119.29
430.16	12219.94
430.34	12217.60
430.53	12131.00
430.72	12400.16
430.91	13893.42
431.10	16196.51
431.28	19112.81
431.47	20592.03
431.66	20926.73
431.85	19098.77
432.03	17544.66
432.22	16666.95
432.41	17174.85
432.60	19241.54
432.79	20128.61
432.97	20496.07
433.16	20166.06
433.35	18579.17
433.54	16704.40
433.72	15683.93
433.91	16091.18
434.10	17949.57
434.28	19194.73
434.47	20086.48
434.66	20187.12
434.85	19491.98
435.03	19396.02
435.22	20011.58
435.41	21062.48
435.59	20961.84
435.78	21432.29
435.97	21954.22
436.16	22017.42
436.34	21750.60
436.53	21013.33
436.72	21399.52
436.90	20247.97
437.09	20119.24
437.28	19571.56
437.46	20318.19
437.65	20386.07
437.84	19374.95
438.02	17591.47
438.21	17411.25
438.40	18427.04
438.58	19597.31
438.77	19995.20
438.96	20493.73
439.14	21455.69
439.33	21834.86
439.52	22228.07
439.70	22122.74
439.89	21270.79
440.08	20786.30
440.26	20844.81
440.45	21425.26
440.63	22661.07
440.82	24065.39
441.01	23475.57
441.19	23023.85
441.38	23840.70
441.57	24526.47
441.75	25013.31
441.94	25521.20
442.12	24992.24
442.31	25446.30
442.50	25156.08
442.68	25057.78
442.87	24966.49
443.05	24505.41
443.24	24641.16
443.43	24999.26
443.61	25912.07
443.80	26497.20
443.98	24510.09
444.17	24538.18
444.35	26380.18
444.54	26815.52
444.73	25872.28
444.91	25315.23
445.10	24276.04
445.28	23220.45
445.47	22768.73
445.65	23049.60
445.84	23449.83
446.02	24650.52
446.21	24493.71
446.39	24907.98
446.58	25219.27
446.77	25336.30
446.95	25654.61
447.14	26499.55
447.32	27103.40
447.51	26410.60
447.69	25212.25
447.88	24940.75
448.06	25429.92
448.25	26132.08
448.43	26164.85
448.62	25781.00
448.80	25621.84
448.99	25355.02
449.17	26003.35
449.36	25996.33
449.54	26920.84
449.73	27452.14
449.91	27601.94
450.10	28329.84
450.28	28776.89
450.46	28360.27
450.65	28357.93
450.83	28428.15
451.02	27847.69
451.20	27768.12
451.39	27775.14
451.57	27304.69
451.76	27417.04
451.94	27300.01
452.13	27044.89
452.31	25727.17
452.49	24261.99
452.68	24676.27
452.86	24664.57
453.05	24842.45
453.23	25710.78
453.42	26391.88
453.60	26974.67
453.78	27424.06
453.97	27367.88
454.15	27105.74
454.34	26370.82
454.52	26867.01
454.70	26125.06
454.89	26204.64
455.07	26450.39
455.26	26941.91
455.44	27967.06
455.62	28348.57
455.81	28191.75
455.99	28404.74
456.17	28037.28
456.36	28259.63
456.54	28776.89
456.73	28964.13
456.91	29427.56
457.09	29600.76
457.28	30150.78
457.46	29008.60
457.64	28912.64
457.83	27637.05
458.01	27047.23
458.19	28084.09
458.38	28388.36
458.56	29219.25
458.74	28861.15
458.93	28086.43
459.11	28177.71
459.29	28268.99
459.48	28109.83
459.66	28013.87
459.84	28465.60
460.03	28725.39
460.21	28336.87
460.39	29366.70
460.57	29371.38
460.76	29696.72
460.94	29804.38
461.12	29745.87
461.31	30017.37
461.49	29521.18
461.67	29544.58
461.85	30394.20
462.04	30361.43
462.22	30422.28
462.40	30780.39
462.59	30602.50
462.77	30572.08
462.95	30590.80
463.13	30082.91
463.32	29717.78
463.50	29785.66
463.68	29647.57
463.86	29336.27
464.05	28954.77
464.23	28613.05
464.41	28599.01
464.59	27702.58
464.78	29132.65
464.96	29109.24
465.14	28819.02
465.32	29860.55
465.50	30277.17
465.69	30911.46
465.87	30263.13
466.05	29734.17
466.23	28168.35
466.41	26913.82
466.60	28423.47
466.78	28112.17
466.96	28538.15
467.14	29338.62
467.32	29694.38
467.51	29619.48
467.69	28701.99
467.87	28732.42
468.05	29291.80
468.23	29043.71
468.41	29214.57
468.60	29338.62
468.78	29596.07
468.96	29347.98
469.14	29905.02
469.32	30246.74
469.50	28840.08
469.69	29186.48
469.87	28765.18
470.05	28154.30
470.23	28285.37
470.41	28760.50
470.59	28971.15
470.77	29233.29
470.95	29820.77
471.14	30120.35
471.32	29944.81
471.50	31688.51
471.68	31840.65
471.86	32046.62
472.04	32275.99
472.22	32154.28
472.40	30511.22
472.58	30382.49
472.77	29963.54
472.95	30513.56
473.13	31431.05
473.31	30775.70
473.49	30717.19
473.67	31353.82
473.85	31786.82
474.03	32818.99
474.21	32617.71
474.39	33053.05
474.57	33319.87
474.75	32748.78
474.93	33008.58
475.12	31964.70
475.30	31718.94
475.48	32238.54
475.66	32818.99
475.84	32313.44
476.02	31835.97
476.20	31896.82
476.38	32357.91
476.56	33441.57
476.74	33720.10
476.92	33399.44
477.10	34277.15
477.28	35519.97
477.46	35283.58
477.64	35747.00
477.82	35859.35
478.00	35981.06
478.18	35770.41
478.36	35187.61
478.54	34925.47
478.72	35669.76
478.90	36425.76
479.08	37343.25
479.26	37610.07
479.44	37715.39
479.62	37504.74
479.80	37596.03
479.98	37823.06
480.16	37743.48
480.34	37600.71
480.52	37794.97
480.70	38202.22
480.88	38515.86
481.06	38923.11
481.24	39438.03
481.41	39754.00
481.59	40734.68
481.77	40491.27
481.95	39814.85
482.13	39662.72
482.31	39379.51
482.49	40669.15
482.67	39922.52
482.85	40264.24
483.03	41308.11
483.21	41694.30
483.39	41130.23
483.57	40657.45
483.74	40397.65
483.92	40828.30
484.10	40907.88
484.28	41317.48
484.46	42368.38
484.64	42815.42
484.82	41944.74
485.00	41179.39
485.18	40720.64
485.35	39063.54
485.53	35896.80
485.71	33111.56
485.89	33146.67
486.07	34522.90
486.25	36959.40
486.43	39957.63
486.61	40526.38
486.78	40418.71
486.96	40383.60
487.14	41745.80
487.32	42782.65
487.50	44027.82
487.68	44985.10
487.85	45429.80
488.03	45209.79
488.21	44795.51
488.39	44177.61
488.57	43847.60
488.75	43021.39
488.92	44634.02
489.10	46625.81
489.28	48444.41
489.46	49254.23
489.64	48839.96
489.81	49350.20
489.99	48823.58
490.17	48896.13
490.35	49460.20
490.53	48685.48
490.70	48280.57
490.88	48018.43
491.06	49364.24
491.24	49357.22
491.41	48278.23
491.59	45897.91
491.77	45219.15
491.95	46483.04
492.13	47887.36
492.30	49406.37
492.48	50209.17
492.66	51145.39
492.84	51061.13
493.01	50593.02
493.19	49940.01
493.37	49375.94
493.54	49326.79
493.72	50277.05
493.90	51276.46
494.08	52362.46
494.25	52540.35
494.43	52839.93
494.61	53137.18
494.79	52853.98
494.96	52952.28
495.14	52371.83
495.32	51393.48
495.49	50483.01
495.67	51711.80
495.85	52978.03
496.02	53485.92
496.20	53654.44
496.38	53066.97
496.55	52858.66
496.73	53619.33
496.91	53462.52
497.09	54475.97
497.26	54480.65
497.44	53869.77
497.62	53378.26
497.79	52736.95
497.97	51187.52
498.14	51000.27
498.32	52236.08
498.50	53645.08
498.67	54171.70
498.85	53745.72
499.03	53954.03
499.20	54019.56
499.38	54342.56
499.56	54262.98
499.73	53565.50
499.91	53233.14
500.08	52978.03
500.26	51774.99
500.44	52339.06
500.61	53205.06
500.79	53062.29
500.97	52554.39
501.14	52334.38
501.32	52493.54
501.49	52186.92
501.67	52577.79
501.84	53357.19
502.02	53247.19
502.20	53661.46
502.37	53942.33
502.55	53841.68
502.72	54618.74
502.90	55103.23
503.07	54649.17
503.25	54347.24
503.43	53364.21
503.60	52516.94
503.78	51838.18
503.95	52196.29
504.13	54113.19
504.30	54908.97
504.48	54471.29
504.65	54277.02
504.83	54195.10
505.01	55107.91
505.18	55365.37
505.36	56074.55
505.53	55987.95
505.71	56278.18
505.88	56306.27
506.06	55494.10
506.23	55227.28
506.41	54674.91
506.58	55014.29
506.76	54969.82
506.93	55164.09
507.11	54899.61
507.28	55138.34
507.46	54475.97
507.63	53834.66
507.81	53478.90
507.98	53780.83
508.16	54873.86
508.33	55250.69
508.50	55723.47
508.68	55697.73
508.85	56598.83
509.03	56324.99
509.20	56252.44
509.38	55611.13
509.55	54663.21
509.73	55049.40
509.90	55395.80
510.08	55578.36
510.25	55585.38
510.42	55213.24
510.60	55416.86
510.77	55634.53
510.95	56114.34
511.12	56301.59
511.30	56552.02
511.47	56788.42
511.64	56825.87
511.82	56699.48
511.99	55679.00
512.17	55391.12
512.34	54955.78
512.51	54988.55
512.69	55222.60
512.86	55334.95
513.04	55917.74
513.21	55674.32
513.38	55683.69
513.56	54911.31
513.73	54255.96
513.90	54518.10
514.08	54611.72
514.25	54714.70
514.43	55128.98
514.60	55124.30
514.77	55196.85
514.95	55306.86
515.12	55351.33
515.29	55561.98
515.47	56030.08
515.64	56095.62
515.81	55739.86
515.99	55260.05
516.16	53860.41
516.33	51136.02
516.51	49631.06
516.68	48477.18
516.85	48198.65
517.03	48538.03
517.20	51524.55
517.37	54482.99
517.54	55255.37
517.72	54915.99
517.89	52310.97
518.06	49471.90
518.24	49488.29
518.41	52477.15
518.58	53743.38
518.75	54227.87
518.93	54335.54
519.10	54019.56
519.27	54712.36
519.45	55070.46
519.62	55597.09
519.79	55882.63
519.96	55840.50
520.14	55458.99
520.31	54691.30
520.48	54424.48
520.65	54908.97
520.83	55655.60
521.00	56168.18
521.17	56156.47
521.34	55206.22
521.52	55931.78
521.69	56252.44
521.86	56795.44
522.03	56587.13
522.20	55447.29
522.38	54122.55
522.55	53954.03
522.72	54653.85
522.89	55047.06
523.07	55196.85
523.24	55395.80
523.41	56315.63
523.58	56865.66
523.75	57223.76
523.92	56959.28
524.10	56816.50
524.27	56924.17
524.44	56711.18
524.61	56523.94
524.78	56252.44
524.96	55922.42
525.13	56257.12
525.30	56605.86
525.47	57109.07
525.64	57008.43
525.81	56409.25
525.98	54651.51
526.16	52940.58
526.33	52339.06
526.50	51920.10
526.67	51700.09
526.84	52212.67
527.01	53315.06
527.18	54330.86
527.36	55297.50
527.53	56191.58
527.70	56390.53
527.87	55964.55
528.04	55437.93
528.21	55777.31
528.38	56502.87
528.55	57305.68
528.72	57516.32
528.89	57733.99
529.07	57263.55
529.24	56811.82
529.41	55952.85
529.58	55414.52
529.75	55505.80
529.92	56041.79
530.09	56381.16
530.26	56999.07
530.43	57205.03
530.60	57237.80
530.77	57584.20
530.94	57605.26
531.11	56966.30
531.28	56647.99
531.46	56231.37
531.63	56720.54
531.80	56505.21
531.97	56186.90
532.14	55325.58
532.31	54131.91
532.48	53755.08
532.65	53385.28
532.82	54475.97
532.99	55618.15
533.16	56074.55
533.33	56816.50
533.50	56381.16
533.67	55800.71
533.84	55299.84
534.01	55749.22
534.18	55636.87
534.35	56109.66
534.52	55828.80
534.69	56142.43
534.86	56247.75
535.03	56786.08
535.20	56914.81
535.37	57516.32
535.54	57736.34
535.71	57041.20
535.88	56811.82
536.05	56032.42
536.22	55821.78
536.38	55522.19
536.55	54953.44
536.72	54539.16
536.89	54178.72
537.06	55138.34
537.23	56264.14
537.40	56161.15
537.57	56523.94
537.74	55943.48
537.91	56069.87
538.08	56048.81
538.25	56168.18
538.42	56444.36
538.59	56104.98
538.75	55456.65
538.92	55143.02
539.09	55159.41
539.26	54756.83
539.43	54541.50
539.60	54639.81
539.77	54955.78
539.94	54937.05
540.11	53827.64
540.28	53296.34
540.44	53628.69
540.61	54122.55
540.78	54085.10
540.95	54564.91
541.12	54862.16
541.29	55433.25
541.46	55674.32
541.62	55749.22
541.79	55377.08
541.96	54897.27
542.13	54752.15
542.30	55114.94
542.47	55299.84
542.63	55098.55
542.80	54820.03
542.97	55000.25
543.14	54644.49
543.31	54820.03
543.48	55077.49
543.64	56397.55
543.81	56437.34
543.98	56313.29
544.15	55756.24
544.32	54791.94
544.48	55220.26
544.65	55379.42
544.82	56076.90
544.99	55529.21
545.16	55166.43
545.32	55061.10
545.49	55833.48
545.66	55983.27
545.83	55798.37
546.00	55334.95
546.16	55040.04
546.33	54930.03
546.50	55119.62
546.67	55789.01
546.83	55147.70
547.00	55295.16
547.17	54450.22
547.34	53769.13
547.50	53734.02
547.67	54342.56
547.84	54525.12
548.00	54883.22
548.17	55182.81
548.34	55257.71
548.51	55227.28
548.67	55201.53
548.84	55309.20
549.01	55320.90
549.18	55150.04
549.34	54752.15
549.51	54951.10
549.68	54918.33
549.84	54714.70
550.01	54513.42
550.18	54445.54
550.34	54618.74
550.51	54906.63
550.68	54717.04
550.84	54078.08
551.01	54475.97
551.18	54108.50
551.34	54656.19
551.51	54775.56
551.68	55274.09
551.84	55107.91
552.01	54756.83
552.18	54845.77
552.34	54160.00
552.51	53773.81
552.68	53425.07
552.84	54080.42
553.01	54375.33
553.18	54073.40
553.34	54424.48
553.51	54443.20
553.67	54564.91
553.84	55058.76
554.01	54777.90
554.17	54557.89
554.34	54426.82
554.51	54684.28
554.67	55316.22
554.84	54829.39
555.00	54660.87
555.17	54213.83
555.33	54333.20
555.50	54101.48
555.67	54157.66
555.83	54040.63
556.00	53785.51
556.16	53876.79
556.33	53235.48
556.50	53373.58
556.66	53116.12
556.83	53165.27
556.99	53081.01
557.16	53146.54
557.32	53668.48
557.49	53701.25
557.65	53584.22
557.82	53797.21
557.98	53481.24
558.15	52954.62
558.32	52051.17
558.48	51433.27
558.65	51299.86
558.81	51892.02
558.98	52416.30
559.14	52556.73
559.31	52563.75
559.47	52409.28
559.64	52013.73
559.80	51435.61
559.97	51674.35
560.13	52320.34
560.30	52912.49
560.46	54035.95
560.63	54000.84
560.79	54246.60
560.96	53755.08
561.12	52561.41
561.29	51456.68
561.45	51554.98
561.61	52069.90
561.78	52439.70
561.94	52872.70
562.11	52556.73
562.27	52273.52
562.44	52687.80
562.60	53205.06
562.77	53169.95
562.93	53045.90
563.10	52870.36
563.26	52334.38
563.42	52629.29
563.59	52165.86
563.75	52144.80
563.92	51922.44
564.08	52060.54
564.24	52332.04
564.41	52678.44
564.57	52317.99
564.74	52100.32
564.90	52250.12
565.07	51831.16
565.23	51529.23
565.39	50607.06
565.56	50646.85
565.72	50342.58
565.88	50480.67
566.05	50852.82
566.21	50967.51
566.38	51330.29
566.54	51562.00
566.70	51831.16
566.87	52210.33
567.03	52313.31
567.19	52282.89
567.36	51854.57
567.52	52048.83
567.68	51718.82
567.85	50422.16
568.01	50321.52
568.17	50286.41
568.34	49869.79
568.50	49418.07
568.66	50068.74
568.83	50480.67
568.99	50543.87
569.15	50773.24
569.32	50754.52
569.48	50473.65
569.64	50185.77
569.81	49808.94
569.97	49965.76
570.13	49715.32
570.30	49244.87
570.46	48437.39
570.62	47878.00
570.78	48062.90
570.95	48123.75
571.11	49048.27
571.27	49539.78
571.43	50122.57
571.60	49822.98
571.76	49797.24
571.92	50398.76
572.09	50773.24
572.25	50925.38
572.41	50534.51
572.57	50560.25
572.74	50447.91
572.90	50085.12
573.06	50012.57
573.22	49998.52
573.38	50272.37
573.55	49893.20
573.71	50171.72
573.87	50129.59
574.03	49621.70
574.20	49668.51
574.36	49102.10
574.52	48956.99
574.68	49064.65
574.84	48217.38
575.01	48254.82
575.17	47826.51
575.33	48072.26
575.49	48645.69
575.65	48837.62
575.82	48680.80
575.98	48266.53
576.14	48758.04
576.30	49141.89
576.46	48935.92
576.62	48762.72
576.79	48701.87
576.95	48413.98
577.11	48149.50
577.27	48444.41
577.43	48643.35
577.59	48067.58
577.75	48041.84
577.92	47098.60
578.08	46696.03
578.24	46784.97
578.40	46948.81
578.56	47262.44
578.72	47531.60
578.88	48121.41
579.04	47997.37
579.21	47812.46
579.37	48252.48
579.53	48329.72
579.69	48055.88
579.85	48271.21
580.01	48610.59
580.17	47772.67
580.33	47702.46
580.49	47728.20
580.65	48287.59
580.82	48685.48
580.98	48378.87
581.14	47966.94
581.30	48296.95
581.46	47824.17
581.62	48364.83
581.78	48093.33
581.94	48229.08
582.10	48219.72
582.26	48498.24
582.42	48200.99
582.58	48596.54
582.74	48273.55
582.90	48355.47
583.06	48463.13
583.22	48121.41
583.38	48048.86
583.54	47475.43
583.70	47629.90
583.86	48067.58
584.02	47707.14
584.18	48074.60
584.34	47442.66
584.50	47828.85
584.66	47594.79
584.82	46855.18
584.98	46740.50
585.14	46340.27
585.30	45727.05
