SpectraSuite Data File
++++++++++++++++++++++++++++++++++++
Date: Mon Oct 07 14:53:33 GMT-05:00 2013
User: price-jones
Dark Spectrum Present: No
Reference Spectrum Present: No
Number of Sampled Component Spectra: 1
Spectrometers: USB2+H05261
Integration Time (usec): 100000 (USB2+H05261)
Spectra Averaged: 1 (USB2+H05261)
Boxcar Smoothing: 0 (USB2+H05261)
Correct for Electrical Dark: No (USB2+H05261)
Strobe/Lamp Enabled: No (USB2+H05261)
Correct for Detector Non-linearity: No (USB2+H05261)
Correct for Stray Light: No (USB2+H05261)
Number of Pixels in Processed Spectrum: 2048
>>>>>Begin Processed Spectral Data<<<<<
365.73	0.00
365.92	0.00
366.12	0.00
366.32	0.00
366.52	0.00
366.72	0.00
366.91	0.00
367.11	0.00
367.31	0.00
367.51	0.00
367.70	0.00
367.90	0.00
368.10	0.00
368.30	0.00
368.49	0.00
368.69	0.00
368.89	0.00
369.09	0.00
369.28	0.00
369.48	0.00
369.68	0.00
369.87	0.00
370.07	0.00
370.27	0.00
370.47	655.35
370.66	2965.46
370.86	3555.27
371.06	3904.01
371.25	3889.97
371.45	3365.69
371.65	3169.09
371.84	2869.50
372.04	3143.34
372.24	3431.23
372.44	3625.49
372.63	3602.08
372.83	3232.28
373.03	3054.40
373.22	2682.25
373.42	2745.45
373.62	3300.16
373.81	3515.48
374.01	3599.74
374.21	3267.39
374.40	3014.61
374.60	3162.06
374.79	3506.12
374.99	3985.93
375.19	4320.63
375.38	4381.48
375.58	4077.21
375.78	3990.61
375.97	4105.30
376.17	4234.03
376.37	4198.92
376.56	4241.05
376.76	4524.26
376.95	4929.17
377.15	5195.99
377.35	5584.52
377.54	5715.59
377.74	5849.00
377.93	5849.00
378.13	5785.80
378.33	5493.24
378.52	5006.41
378.72	4786.40
378.91	4805.12
379.11	4638.94
379.31	4528.94
379.50	4491.49
379.70	4882.36
379.89	5221.74
380.09	5549.41
380.28	5776.44
380.48	5619.63
380.68	5572.82
380.87	5596.22
381.07	5060.24
381.26	4681.07
381.46	4393.19
381.65	4283.18
381.85	4102.96
382.04	3892.31
382.24	3796.35
382.43	3557.61
382.63	3494.42
382.83	3414.84
383.02	3466.33
383.22	3492.08
383.41	3302.50
383.61	3815.07
383.80	4362.76
384.00	4795.76
384.19	5523.66
384.39	5846.66
384.58	5631.33
384.78	5652.39
384.97	5551.75
385.17	5118.75
385.36	4973.64
385.56	4741.93
385.75	4945.55
385.95	5341.10
386.14	5961.34
386.34	5984.75
386.53	5671.12
386.72	5228.76
386.92	5280.25
387.11	5383.23
387.31	5856.02
387.50	5856.02
387.70	5526.00
387.89	5565.79
388.09	5652.39
388.28	5762.40
388.48	5767.08
388.67	6050.28
388.86	6792.23
389.06	7220.55
389.25	7606.74
389.45	7456.95
389.64	7571.63
389.84	7456.95
390.03	7449.93
390.22	7405.46
390.42	7665.25
390.61	8095.91
390.81	8781.69
391.00	9067.24
391.19	8765.31
391.39	8430.61
391.58	7929.74
391.78	7302.47
391.97	7407.80
392.16	6698.61
392.36	6321.79
392.55	5050.88
392.75	3983.59
392.94	3363.35
393.13	3148.02
393.33	3665.28
393.52	4777.03
393.71	5902.83
393.91	6700.95
394.10	7164.38
394.29	8030.38
394.49	8669.34
394.68	9385.55
394.88	9359.80
395.07	9614.92
395.26	9570.45
395.46	9397.25
395.65	8975.95
395.84	7756.54
396.04	6532.44
396.23	5369.19
396.42	4250.41
396.62	4147.43
396.81	4922.15
397.00	6392.00
397.19	8035.06
397.39	9383.21
397.58	10497.30
397.77	11159.67
397.97	11861.84
398.16	11597.35
398.35	12318.24
398.55	12236.32
398.74	12978.27
398.93	13174.88
399.12	13184.24
399.32	12601.44
399.51	12959.55
399.70	13844.27
399.90	13488.51
400.09	13867.67
400.28	13886.40
400.47	13561.06
400.67	14235.14
400.86	14839.00
401.05	14640.05
401.24	14890.49
401.44	15000.49
401.63	14710.27
401.82	14977.09
402.01	15194.76
402.21	15131.56
402.40	15503.71
402.59	14927.94
402.78	14438.76
402.97	13664.05
403.17	13996.40
403.36	15077.73
403.55	15536.48
403.74	16030.33
403.93	15353.91
404.13	14183.65
404.32	13858.31
404.51	14750.06
404.70	15676.91
404.89	15477.96
405.09	15501.37
405.28	14848.36
405.47	14913.89
405.66	14909.21
405.85	14604.94
406.05	13909.80
406.24	14270.25
406.43	14883.47
406.62	15286.04
406.81	15431.15
407.00	15098.80
407.20	14696.22
407.39	14773.46
407.58	15260.29
407.77	16049.05
407.96	16390.77
408.15	16716.11
408.34	16933.78
408.54	17453.37
408.73	17680.41
408.92	17408.90
409.11	16840.15
409.30	15978.84
409.49	14967.73
409.68	14284.29
409.87	13806.82
410.07	14597.92
410.26	15775.21
410.45	16725.47
410.64	17319.96
410.83	17743.60
411.02	18068.94
411.21	18785.14
411.40	18579.17
411.59	18752.37
411.78	18405.97
411.98	18216.39
412.17	18593.22
412.36	18242.14
412.55	18356.82
412.74	17944.89
412.93	17717.86
413.12	17640.62
413.31	19257.93
413.50	19562.20
413.69	19943.70
413.88	19077.71
414.07	18548.75
414.26	19002.81
414.45	19461.55
414.64	19573.90
414.83	19646.46
415.02	19056.64
415.22	19323.46
415.41	19770.51
415.60	20278.40
415.79	20856.51
415.98	21394.84
416.17	21586.76
416.36	21071.84
416.55	20685.65
416.74	20451.60
416.93	19796.25
417.12	19307.08
417.31	19449.85
417.50	20091.16
417.69	20814.38
417.88	20823.75
418.07	20308.83
418.26	20311.17
418.45	20379.04
418.64	20978.22
418.83	21881.67
419.02	21443.99
419.21	21128.02
419.39	20339.26
419.58	19480.28
419.77	19550.49
419.96	20322.87
420.15	21546.97
420.34	21811.45
420.53	22897.46
420.72	23435.78
420.91	23454.51
421.10	22630.64
421.29	22808.52
421.48	21699.11
421.67	22899.80
421.86	22249.13
422.05	21057.80
422.24	18824.93
422.43	18441.08
422.61	20170.74
422.80	22169.55
422.99	22476.16
423.18	20959.50
423.37	21085.89
423.56	20783.96
423.75	21226.32
423.94	21668.68
424.13	20875.24
424.32	20737.15
424.50	20732.47
424.69	20847.15
424.88	20355.64
425.07	20783.96
425.26	20652.89
425.45	20222.23
425.64	19960.09
425.83	19976.47
426.01	21102.27
426.20	21834.86
426.39	21675.70
426.58	20084.14
426.77	18532.36
426.96	17745.94
427.15	18541.72
427.33	19524.75
427.52	20580.33
427.71	21231.00
427.90	20718.42
428.09	20615.44
428.28	20049.03
428.46	19253.25
428.65	19002.81
428.84	19590.28
429.03	19817.32
429.22	18801.52
429.40	18249.16
429.59	15953.09
429.78	14307.69
429.97	14382.59
430.16	14401.32
430.34	14487.92
430.53	14310.04
430.72	14881.13
430.91	16393.11
431.10	19335.17
431.28	22721.92
431.47	24746.48
431.66	25165.44
431.85	22494.89
432.03	21242.70
432.22	20196.48
432.41	21006.31
432.60	22972.36
432.79	23903.89
432.97	24276.04
433.16	23896.87
433.35	21951.88
433.54	19826.68
433.72	18237.45
433.91	19122.18
434.10	21441.65
434.28	22977.04
434.47	23873.46
434.66	23709.63
434.85	23372.59
435.03	22836.61
435.22	23915.59
435.41	24999.26
435.59	24746.48
435.78	25348.00
435.97	25783.34
436.16	26506.57
436.34	25781.00
436.53	25046.07
436.72	25436.94
436.90	24067.73
437.09	23896.87
437.28	23496.64
437.46	24261.99
437.65	24308.80
437.84	22544.04
438.02	20739.49
438.21	20456.28
438.40	21891.03
438.58	23695.58
438.77	24233.91
438.96	24669.25
439.14	25394.81
439.33	25900.37
439.52	26190.59
439.70	25993.99
439.89	25406.52
440.08	24765.21
440.26	24734.78
440.45	25195.87
440.63	26897.44
440.82	28638.80
441.01	28013.87
441.19	27847.69
441.38	28217.50
441.57	29457.98
441.75	29970.56
441.94	29881.62
442.12	29722.46
442.31	30253.76
442.50	30066.52
442.68	30024.39
442.87	29610.12
443.05	28727.74
443.24	29352.66
443.43	30008.01
443.61	30958.27
443.80	31091.68
443.98	29518.84
444.17	29111.58
444.35	30796.77
444.54	31339.77
444.73	30941.88
444.91	30064.18
445.10	28720.71
445.28	27398.31
445.47	26906.80
445.65	27452.14
445.84	27917.91
446.02	28959.45
446.21	29397.13
446.39	29537.56
446.58	29729.48
446.77	30040.78
446.95	30679.74
447.14	30815.49
447.32	31950.65
447.51	31318.71
447.69	29839.49
447.88	29392.45
448.06	30129.72
448.25	30747.62
448.43	31285.94
448.62	30202.27
448.80	30202.27
448.99	30707.83
449.17	30862.30
449.36	30462.07
449.54	31894.48
449.73	32306.41
449.91	32762.82
450.10	33663.93
450.28	34075.86
450.46	33684.99
450.65	33799.68
450.83	33972.88
451.02	32816.65
451.20	32746.44
451.39	32549.83
451.57	32360.25
451.76	32552.17
451.94	32095.77
452.13	31730.64
452.31	30424.62
452.49	28893.91
452.68	29380.74
452.86	29120.95
453.05	30080.56
453.23	30541.65
453.42	31646.38
453.60	32112.15
453.78	32793.25
453.97	32034.91
454.15	32079.38
454.34	31318.71
454.52	31519.99
454.70	30892.73
454.89	31194.66
455.07	31133.81
455.26	31831.29
455.44	33062.41
455.62	33621.80
455.81	33631.16
455.99	33717.76
456.17	33289.44
456.36	33261.35
456.54	34064.16
456.73	34227.99
456.91	34979.31
457.09	34469.07
457.28	35510.61
457.46	33900.32
457.64	34110.97
457.83	32809.63
458.01	32329.82
458.19	32985.17
458.38	33010.92
458.56	33968.19
458.74	34160.12
458.93	33350.29
459.11	33514.13
459.29	33090.49
459.48	33523.49
459.66	32961.76
459.84	33785.63
460.03	33869.89
460.21	34426.94
460.39	35234.42
460.57	34796.74
460.76	35349.11
460.94	35302.30
461.12	34199.91
461.31	34871.64
461.49	34501.84
461.67	35019.10
461.85	35910.84
462.04	35861.69
462.22	36561.51
462.40	35768.07
462.59	35800.83
462.77	35938.93
462.95	35770.41
463.13	35239.11
463.32	34911.43
463.50	34866.96
463.68	34583.76
463.86	34859.94
464.05	34588.44
464.23	33689.67
464.41	33223.90
464.59	33399.44
464.78	34272.46
464.96	34773.34
465.14	34141.39
465.32	34883.34
465.50	35913.18
465.69	36531.08
465.87	35370.18
466.05	34469.07
466.23	33202.84
466.41	32133.21
466.60	33394.76
466.78	33195.82
466.96	33582.01
467.14	34452.69
467.32	35124.42
467.51	34845.90
467.69	33116.24
467.87	33881.60
468.05	34543.97
468.23	34841.21
468.41	34899.73
468.60	34665.67
468.78	35274.21
468.96	34150.76
469.14	35201.66
469.32	35143.14
469.50	33942.45
469.69	34038.41
469.87	33479.02
470.05	33441.57
470.23	33174.75
470.41	33624.14
470.59	34057.14
470.77	34497.16
470.95	35159.53
471.14	35526.99
471.32	35424.01
471.50	37244.94
471.68	37373.67
471.86	38033.71
472.04	37933.06
472.22	38101.58
472.40	36257.24
472.58	36039.57
472.77	35550.40
472.95	36362.56
473.13	37502.40
473.31	36442.14
473.49	36556.83
473.67	37359.63
473.85	37216.86
474.03	38548.62
474.21	38312.23
474.39	38822.47
474.57	39388.88
474.75	38925.45
474.93	38543.94
475.12	37794.97
475.30	38183.50
475.48	38134.35
475.66	38565.01
475.84	38249.03
476.02	38010.30
476.20	37055.36
476.38	38036.05
476.56	39332.70
476.74	39620.59
476.92	39512.92
477.10	40435.10
477.28	41212.15
477.46	41418.12
477.64	41989.21
477.82	41860.48
478.00	42246.67
478.18	41872.18
478.36	41399.40
478.54	41687.28
478.72	41661.54
478.90	42466.68
479.08	43896.75
479.26	44264.21
479.44	44215.06
479.62	43468.43
479.80	44198.68
479.98	44123.78
480.16	44477.20
480.34	43896.75
480.52	44399.96
480.70	44914.88
480.88	44533.37
481.06	45315.11
481.24	45485.97
481.41	46646.88
481.59	47012.00
481.77	47077.54
481.95	46167.07
482.13	46068.76
482.31	46115.58
482.49	46976.89
482.67	46607.09
482.85	47058.81
483.03	48151.84
483.21	47831.19
483.39	47955.24
483.57	47037.75
483.74	47042.43
483.92	46941.78
484.10	47260.10
484.28	48392.92
484.46	48652.72
484.64	49212.10
484.82	48189.29
485.00	47917.79
485.18	46794.33
485.35	45338.52
485.53	42426.89
485.71	39030.77
485.89	38415.21
486.07	40252.53
486.25	43578.43
486.43	45837.05
486.61	46862.21
486.78	46597.73
486.96	46761.56
487.14	48875.07
487.32	49612.34
487.50	50227.90
487.68	51208.58
487.85	51625.20
488.03	51468.38
488.21	51100.92
488.39	50454.93
488.57	50007.89
488.75	49612.34
488.92	50855.16
489.10	52863.34
489.28	54000.84
489.46	54639.81
489.64	54307.45
489.81	54639.81
489.99	54312.13
490.17	54330.86
490.35	54761.51
490.53	54251.28
490.70	53907.22
490.88	53815.94
491.06	54822.37
491.24	54775.56
491.41	53509.33
491.59	52406.94
491.77	51199.22
491.95	52287.57
492.13	53605.29
492.30	54761.51
492.48	55484.74
492.66	56102.64
492.84	56016.04
493.01	55639.22
493.19	55566.66
493.37	54866.84
493.54	54576.61
493.72	55243.66
493.90	56346.06
494.08	56863.32
494.25	57233.12
494.43	57350.15
494.61	57829.96
494.79	58066.35
494.96	57675.48
495.14	57279.93
495.32	56324.99
495.49	55414.52
495.67	56516.92
495.85	57907.19
496.02	58171.67
496.20	58213.80
496.38	57715.27
496.55	57425.04
496.73	57970.39
496.91	57911.88
497.09	58642.12
497.26	58761.49
497.44	58408.07
497.62	57755.06
497.79	56949.92
497.97	55772.63
498.14	56053.49
498.32	57099.71
498.50	57797.19
498.67	58403.39
498.85	58286.36
499.03	58349.56
499.20	58862.13
499.38	58700.64
499.56	58770.85
499.73	58031.24
499.91	57916.56
500.08	57467.17
500.26	56605.86
500.44	57059.92
500.61	57752.72
500.79	57710.59
500.97	57478.88
501.14	57048.22
501.32	57020.13
501.49	56985.02
501.67	57228.44
501.84	57822.93
502.02	57972.73
502.20	58260.62
502.37	58284.02
502.55	58365.94
502.72	58817.66
502.90	59512.80
503.07	58951.07
503.25	58777.87
503.43	57954.00
503.60	57237.80
503.78	56645.65
503.95	57041.20
504.13	58354.24
504.30	59084.48
504.48	58997.88
504.65	58749.79
504.83	58637.44
505.01	59435.56
505.18	59667.28
505.36	60046.44
505.53	60250.07
505.71	60479.44
505.88	60467.74
506.06	59866.22
506.23	59578.34
506.41	59222.58
506.58	59414.50
506.76	59440.24
506.93	59370.03
507.11	59025.97
507.28	59262.36
507.46	58993.20
507.63	58363.60
507.81	58141.25
507.98	58618.72
508.16	59049.38
508.33	59594.72
508.50	59861.54
508.68	60147.09
508.85	60594.13
509.03	60282.84
509.20	60526.25
509.38	59828.77
509.55	59114.91
509.73	59065.76
509.90	59765.58
510.08	60200.92
510.25	59901.33
510.42	59711.75
510.60	59650.89
510.77	59662.60
510.95	60317.95
511.12	60563.70
511.30	60767.33
511.47	60989.68
511.64	60830.52
511.82	60673.71
511.99	59882.61
512.17	59580.68
512.34	59147.68
512.51	59423.86
512.69	59484.72
512.86	59332.58
513.04	59927.08
513.21	59796.01
513.38	59604.08
513.56	59063.42
513.73	58569.57
513.90	58827.02
514.08	59014.27
514.25	58995.54
514.43	59374.71
514.60	59498.76
514.77	59547.91
514.95	59887.29
515.12	59573.66
515.29	59821.75
515.47	60357.74
515.64	60544.98
515.81	60065.17
515.99	59313.86
516.16	58171.67
516.33	55831.14
516.51	54607.04
516.68	53930.62
516.85	53418.05
517.03	53895.52
517.20	56287.54
517.37	58611.70
517.54	59908.35
517.72	59526.84
517.89	56940.55
518.06	54677.25
518.24	54864.50
518.41	57008.43
518.58	58340.19
518.75	58684.25
518.93	58841.07
519.10	58597.65
519.27	59093.85
519.45	59119.59
519.62	59936.44
519.79	60259.43
519.96	60107.30
520.14	59686.00
520.31	58754.47
520.48	58822.34
520.65	59138.32
520.83	60100.28
521.00	60516.89
521.17	60264.11
521.34	59697.70
521.52	59693.02
521.69	60385.82
521.86	60896.06
522.03	60582.43
522.20	59510.46
522.38	58504.03
522.55	58665.53
522.72	59236.62
522.89	59355.99
523.07	59292.79
523.24	59779.62
523.41	60481.78
523.58	60891.38
523.75	61235.44
523.92	61085.64
524.10	60968.61
524.27	61233.10
524.44	60743.92
524.61	60692.43
524.78	60570.72
524.96	60406.89
525.13	60449.02
525.30	60603.49
525.47	61052.87
525.64	61130.11
525.81	60273.48
525.98	59042.35
526.16	57607.61
526.33	56870.34
526.50	56718.20
526.67	56589.47
526.84	56793.10
527.01	57769.10
527.18	58651.48
527.36	59526.84
527.53	60418.59
527.70	60652.64
527.87	60034.74
528.04	59526.84
528.21	59992.61
528.38	60764.99
528.55	61219.05
528.72	61523.32
528.89	61558.43
529.07	61247.14
529.24	60743.92
529.41	60252.41
529.58	59597.06
529.75	59627.49
529.92	60027.72
530.09	60390.50
530.26	60865.63
530.43	61270.54
530.60	61144.16
530.77	61565.45
530.94	61492.89
531.11	61251.82
531.28	60914.78
531.46	60678.39
531.63	60750.94
531.80	60605.83
531.97	60282.84
532.14	59648.55
532.31	58499.35
532.48	57956.35
532.65	57946.98
532.82	58740.42
532.99	59894.31
533.16	60175.17
533.33	60743.92
533.50	60409.23
533.67	59856.86
533.84	59674.30
534.01	59695.36
534.18	59725.79
534.35	60296.88
534.52	60090.91
534.69	60219.64
534.86	60502.85
535.03	60779.03
535.20	61160.54
535.37	61443.74
535.54	61598.22
535.71	61319.70
535.88	61029.47
536.05	60430.29
536.22	59920.05
536.38	59697.70
536.55	59299.81
536.72	58911.28
536.89	58431.47
537.06	59487.06
537.23	60203.26
537.40	60336.67
537.57	60432.63
537.74	60055.81
537.91	60097.94
538.08	60069.85
538.25	60133.04
538.42	60308.58
538.59	60097.94
538.75	59568.97
538.92	59243.64
539.09	59316.20
539.26	59185.13
539.43	58873.84
539.60	59032.99
539.77	59245.98
539.94	58946.39
540.11	58450.20
540.28	57872.09
540.44	57813.57
540.61	58080.39
540.78	58433.81
540.95	58763.83
541.12	59234.28
541.29	59480.03
541.46	59693.02
541.62	59756.22
541.79	59554.93
541.96	59124.27
542.13	58899.58
542.30	59215.55
542.47	59704.73
542.63	59339.60
542.80	58918.31
542.97	59077.46
543.14	58993.20
543.31	59072.78
543.48	59552.59
543.64	60100.28
543.81	60523.91
543.98	60303.90
544.15	59779.62
544.32	59171.08
544.48	59245.98
544.65	59622.81
544.82	60207.94
544.99	59817.07
545.16	59451.95
545.32	59112.57
545.49	59702.38
545.66	60289.86
545.83	60102.62
546.00	59643.87
546.16	59208.53
546.33	59260.02
546.50	59355.99
546.67	59760.90
546.83	59456.63
547.00	59271.73
547.17	58705.32
547.34	58277.00
547.50	58103.80
547.67	58653.82
547.84	58752.13
548.00	59030.65
548.17	59414.50
548.34	59236.62
548.51	59229.60
548.67	59283.43
548.84	59456.63
549.01	59194.49
549.18	59234.28
549.34	59154.70
549.51	59159.38
549.68	59126.61
549.84	58906.60
550.01	58941.71
550.18	58735.74
550.34	58878.52
550.51	58946.39
550.68	58951.07
550.84	58569.57
551.01	58754.47
551.18	58436.16
551.34	58801.28
551.51	58997.88
551.68	59320.88
551.84	59344.28
552.01	59178.10
552.18	59100.87
552.34	58417.43
552.51	57921.24
552.68	57820.59
552.84	58422.11
553.01	58592.97
553.18	58415.09
553.34	58513.39
553.51	58787.24
553.67	58897.24
553.84	59075.12
554.01	59021.29
554.17	58812.98
554.34	58798.94
554.51	59091.51
554.67	59014.27
554.84	59194.49
555.00	58913.62
555.17	58513.39
555.33	58712.34
555.50	58539.14
555.67	58408.07
555.83	58466.58
556.00	58078.05
556.16	58000.82
556.33	57544.41
556.50	57455.47
556.66	57518.67
556.83	57333.76
556.99	57490.58
557.16	57549.09
557.32	57989.11
557.49	58176.36
557.65	58129.54
557.82	57865.06
557.98	57939.96
558.15	57467.17
558.32	56631.60
558.48	55894.33
558.65	56102.64
558.81	56530.96
558.98	56650.33
559.14	56816.50
559.31	57057.58
559.47	57123.11
559.64	56989.70
559.80	56500.53
559.97	56385.85
560.13	56760.33
560.30	57691.86
560.46	58066.35
560.63	58368.28
560.79	58300.40
560.96	58005.50
561.12	56975.66
561.29	56177.54
561.45	56231.37
561.61	56638.62
561.78	57141.84
561.94	56942.89
562.11	56933.53
562.27	56774.37
562.44	57237.80
562.60	57378.23
562.77	57586.54
562.93	57396.96
563.10	57291.63
563.26	56835.23
563.42	56788.42
563.59	56463.08
563.75	56680.75
563.92	56837.57
564.08	56762.67
564.24	56935.87
564.41	57092.69
564.57	56877.36
564.74	57031.83
564.90	56589.47
565.07	56404.57
565.23	56004.34
565.39	55660.28
565.56	55529.21
565.72	55037.70
565.88	55608.79
566.05	55433.25
566.21	55917.74
566.38	56142.43
566.54	55791.35
566.70	56322.65
566.87	56465.42
567.03	56720.54
567.19	56746.29
567.36	56760.33
567.52	56610.54
567.68	56189.24
567.85	55536.23
568.01	55262.39
568.17	54740.45
568.34	55302.18
568.50	55072.81
568.66	55110.25
568.83	55332.60
568.99	55496.44
569.15	55512.83
569.32	55639.22
569.48	55346.65
569.64	55112.59
569.81	54695.98
569.97	54597.68
570.13	54883.22
570.30	54181.06
570.46	54092.12
570.62	53158.25
570.78	53425.07
570.95	53705.93
571.11	54389.37
571.27	54356.60
571.43	54742.79
571.60	54934.71
571.76	54955.78
571.92	55517.51
572.09	55599.43
572.25	55580.70
572.41	55363.03
572.57	55313.88
572.74	55393.46
572.90	54981.52
573.06	54698.32
573.22	55018.97
573.38	54997.91
573.55	54955.78
573.71	55238.98
573.87	55070.46
574.03	54805.98
574.20	54827.05
574.36	54204.47
574.52	54506.40
574.68	54124.89
574.84	53521.03
575.01	53406.34
575.17	53331.45
575.33	53584.22
575.49	53502.31
575.65	54157.66
575.82	53944.67
575.98	53572.52
576.14	53984.46
576.30	54068.72
576.46	54195.10
576.62	53890.83
576.79	54049.99
576.95	53822.96
577.11	53902.54
577.27	53607.63
577.43	53808.92
577.59	53453.15
577.75	53244.85
577.92	52786.10
578.08	52273.52
578.24	52552.05
578.40	52495.88
578.56	53024.84
578.72	52968.66
578.88	52973.34
579.04	53102.07
579.21	53371.24
579.37	53301.02
579.53	53661.46
579.69	53317.40
579.85	53408.68
580.01	53460.18
580.17	53186.33
580.33	52685.46
580.49	52971.00
580.65	53240.17
580.82	53485.92
580.98	53249.53
581.14	52963.98
581.30	53329.11
581.46	53228.46
581.62	53565.50
581.78	53389.96
581.94	53616.99
582.10	53361.87
582.26	53469.54
582.42	53455.50
582.58	53584.22
582.74	53474.22
582.90	53354.85
583.06	53462.52
583.22	53511.67
583.38	53350.17
583.54	53371.24
583.70	53123.14
583.86	53425.07
584.02	52853.98
584.18	53284.64
584.34	53055.26
584.50	53116.12
584.66	52725.25
584.82	52268.84
584.98	52271.18
585.14	51962.23
585.30	51564.34
