SpectraSuite Data File
++++++++++++++++++++++++++++++++++++
Date: Mon Oct 07 14:54:56 GMT-05:00 2013
User: price-jones
Dark Spectrum Present: No
Reference Spectrum Present: No
Number of Sampled Component Spectra: 1
Spectrometers: USB2+H05261
Integration Time (usec): 10000 (USB2+H05261)
Spectra Averaged: 1 (USB2+H05261)
Boxcar Smoothing: 0 (USB2+H05261)
Correct for Electrical Dark: No (USB2+H05261)
Strobe/Lamp Enabled: No (USB2+H05261)
Correct for Detector Non-linearity: No (USB2+H05261)
Correct for Stray Light: No (USB2+H05261)
Number of Pixels in Processed Spectrum: 2048
>>>>>Begin Processed Spectral Data<<<<<
365.73	0.00
365.92	0.00
366.12	0.00
366.32	0.00
366.52	0.00
366.72	0.00
366.91	0.00
367.11	0.00
367.31	0.00
367.51	0.00
367.70	0.00
367.90	0.00
368.10	0.00
368.30	0.00
368.49	0.00
368.69	0.00
368.89	0.00
369.09	0.00
369.28	0.00
369.48	0.00
369.68	0.00
369.87	0.00
370.07	0.00
370.27	0.00
370.47	0.00
370.66	25.75
370.86	140.43
371.06	198.95
371.25	156.82
371.45	203.63
371.65	142.77
371.84	121.71
372.04	77.24
372.24	182.56
372.44	189.58
372.63	154.48
372.83	184.90
373.03	117.03
373.22	30.43
373.42	156.82
373.62	215.33
373.81	231.71
374.01	238.73
374.21	145.11
374.40	56.17
374.60	114.69
374.79	198.95
374.99	304.27
375.19	388.53
375.38	306.61
375.58	227.03
375.78	250.44
375.97	266.82
376.17	276.18
376.37	248.10
376.56	238.73
376.76	411.93
376.95	365.12
377.15	379.17
377.35	339.38
377.54	442.36
377.74	447.04
377.93	461.09
378.13	463.43
378.33	491.51
378.52	390.87
378.72	320.65
378.91	283.20
379.11	287.89
379.31	311.29
379.50	337.04
379.70	344.06
379.89	407.25
380.09	395.55
380.28	512.58
380.48	547.69
380.68	388.53
380.87	440.02
381.07	290.23
381.26	341.72
381.46	238.73
381.65	191.92
381.85	217.67
382.04	203.63
382.24	257.46
382.43	86.60
382.63	161.50
382.83	131.07
383.02	60.85
383.22	166.18
383.41	217.67
383.61	147.45
383.80	205.97
384.00	292.57
384.19	353.42
384.39	381.51
384.58	463.43
384.78	383.85
384.97	397.89
385.17	346.40
385.36	358.10
385.56	290.23
385.75	416.62
385.95	390.87
386.14	442.36
386.34	449.38
386.53	407.25
386.72	353.42
386.92	353.42
387.11	418.96
387.31	470.45
387.50	423.64
387.70	400.23
387.89	418.96
388.09	388.53
388.28	449.38
388.48	390.87
388.67	477.47
388.86	503.22
389.06	519.60
389.25	587.47
389.45	580.45
389.64	631.94
389.84	662.37
390.03	557.05
390.22	613.22
390.42	610.88
390.61	617.90
390.81	779.40
391.00	706.84
391.19	674.07
391.39	711.52
391.58	589.82
391.78	592.16
391.97	585.13
392.16	496.19
392.36	477.47
392.55	322.99
392.75	252.78
392.94	67.88
393.13	126.39
393.33	131.07
393.52	243.42
393.71	500.87
393.91	521.94
394.10	526.62
394.29	547.69
394.49	770.04
394.68	828.55
394.88	793.44
395.07	851.96
395.26	786.42
395.46	739.61
395.65	723.23
395.84	685.78
396.04	423.64
396.23	372.15
396.42	262.14
396.62	231.71
396.81	355.76
397.00	535.98
397.19	650.67
397.39	849.61
397.58	959.62
397.77	908.13
397.97	1104.73
398.16	1053.24
398.35	1078.99
398.55	1165.59
398.74	1160.91
398.93	1324.74
399.12	1205.38
399.32	1160.91
399.51	1167.93
399.70	1224.10
399.90	1205.38
400.09	1214.74
400.28	1200.69
400.47	1261.55
400.67	1357.51
400.86	1336.45
401.05	1350.49
401.24	1345.81
401.44	1226.44
401.63	1364.53
401.82	1507.30
402.01	1418.36
402.21	1420.71
402.40	1345.81
402.59	1348.15
402.78	1320.06
402.97	1270.91
403.17	1308.36
403.36	1352.83
403.55	1455.81
403.74	1453.47
403.93	1455.81
404.13	1301.34
404.32	1294.32
404.51	1287.29
404.70	1493.26
404.89	1303.68
405.09	1387.94
405.28	1348.15
405.47	1289.64
405.66	1350.49
405.85	1287.29
406.05	1329.42
406.24	1343.47
406.43	1448.79
406.62	1409.00
406.81	1516.67
407.00	1387.94
407.20	1306.02
407.39	1373.89
407.58	1387.94
407.77	1533.05
407.96	1614.97
408.15	1481.56
408.34	1563.48
408.54	1563.48
408.73	1570.50
408.92	1530.71
409.11	1507.30
409.30	1432.41
409.49	1409.00
409.68	1247.51
409.87	1184.31
410.07	1369.21
410.26	1467.52
410.45	1629.01
410.64	1533.05
410.83	1699.23
411.02	1650.08
411.21	1820.94
411.40	1769.44
411.59	1673.48
411.78	1699.23
411.98	1710.93
412.17	1701.57
412.36	1692.21
412.55	1640.72
412.74	1629.01
412.93	1652.42
413.12	1629.01
413.31	1818.60
413.50	1858.39
413.69	1851.36
413.88	1755.40
414.07	1776.47
414.26	1748.38
414.45	1783.49
414.64	1736.68
414.83	1771.79
415.02	1736.68
415.22	1823.28
415.41	1785.83
415.60	1788.17
415.79	2045.63
415.98	2069.03
416.17	1928.60
416.36	1989.46
416.55	1912.22
416.74	1830.30
416.93	1839.66
417.12	1783.49
417.31	1856.04
417.50	1781.15
417.69	1998.82
417.88	1886.47
418.07	1865.41
418.26	1879.45
418.45	1898.17
418.64	1856.04
418.83	1921.58
419.02	2076.06
419.21	1984.77
419.39	1858.39
419.58	1783.49
419.77	1877.11
419.96	1760.08
420.15	2012.86
420.34	2195.42
420.53	2118.18
420.72	2104.14
420.91	2115.84
421.10	2050.31
421.29	2125.21
421.48	1977.75
421.67	2118.18
421.86	2045.63
422.05	1832.64
422.24	1750.72
422.43	1694.55
422.61	1874.77
422.80	2024.56
422.99	1998.82
423.18	1968.39
423.37	1891.15
423.56	1834.98
423.75	1774.13
423.94	1956.69
424.13	1895.83
424.32	1825.62
424.50	1874.77
424.69	1813.92
424.88	1900.52
425.07	1830.30
425.26	1785.83
425.45	1834.98
425.64	1790.51
425.83	1888.81
426.01	1926.26
426.20	2076.06
426.39	1949.67
426.58	1788.17
426.77	1668.80
426.96	1633.69
427.15	1621.99
427.33	1790.51
427.52	1874.77
427.71	1888.81
427.90	1832.64
428.09	1898.17
428.28	1753.06
428.46	1713.27
428.65	1596.25
428.84	1753.06
429.03	1736.68
429.22	1767.10
429.40	1652.42
429.59	1490.92
429.78	1256.87
429.97	1313.04
430.16	1261.55
430.34	1231.12
430.53	1310.70
430.72	1277.93
430.91	1528.37
431.10	1654.76
431.28	2015.20
431.47	2270.32
431.66	2204.78
431.85	2069.03
432.03	1952.01
432.22	1823.28
432.41	1827.96
432.60	1996.48
432.79	2237.55
432.97	2090.10
433.16	2209.47
433.35	1874.77
433.54	1722.63
433.72	1638.38
433.91	1570.50
434.10	1907.54
434.28	2146.27
434.47	2101.80
434.66	2174.36
434.85	2024.56
435.03	2083.08
435.22	2054.99
435.41	2202.44
435.59	2165.00
435.78	2230.53
435.97	2373.30
436.16	2406.07
436.34	2342.88
436.53	2307.77
436.72	2284.36
436.90	2172.02
437.09	2174.36
437.28	2172.02
437.46	2225.85
437.65	2155.63
437.84	2139.25
438.02	1818.60
438.21	1785.83
438.40	1907.54
438.58	2143.93
438.77	2253.94
438.96	2155.63
439.14	2300.75
439.33	2317.13
439.52	2408.41
439.70	2230.53
439.89	2246.91
440.08	2167.34
440.26	2195.42
440.45	2258.62
440.63	2422.45
440.82	2504.37
441.01	2567.57
441.19	2490.33
441.38	2476.29
441.57	2731.41
441.75	2637.78
441.94	2731.41
442.12	2686.94
442.31	2745.45
442.50	2700.98
442.68	2825.03
442.87	2520.76
443.05	2761.83
443.24	2628.42
443.43	2626.08
443.61	2841.41
443.80	2787.58
443.98	2562.89
444.17	2560.55
444.35	2839.07
444.54	2883.54
444.73	2820.35
444.91	2630.76
445.10	2534.80
445.28	2408.41
445.47	2354.58
445.65	2443.52
445.84	2532.46
446.02	2555.86
446.21	2700.98
446.39	2565.23
446.58	2661.19
446.77	2644.81
446.95	2710.34
447.14	2899.92
447.32	2818.00
447.51	2773.53
447.69	2684.59
447.88	2555.86
448.06	2635.44
448.25	2682.25
448.43	2712.68
448.62	2738.43
448.80	2698.64
448.99	2827.37
449.17	2712.68
449.36	2745.45
449.54	2803.96
449.73	2850.77
449.91	2808.64
450.10	2981.84
450.28	3077.80
450.46	3059.08
450.65	3049.72
450.83	3059.08
451.02	2963.12
451.20	2939.71
451.39	2860.13
451.57	2747.79
451.76	2789.92
451.94	2853.11
452.13	2911.63
452.31	2740.77
452.49	2438.84
452.68	2602.68
452.86	2654.17
453.05	2693.96
453.23	2679.91
453.42	2911.63
453.60	2867.16
453.78	2782.90
453.97	2832.05
454.15	2803.96
454.34	2785.24
454.52	2778.22
454.70	2747.79
454.89	2869.50
455.07	2729.06
455.26	2860.13
455.44	2920.99
455.62	2897.58
455.81	3012.27
455.99	2991.20
456.17	2958.44
456.36	2902.26
456.54	2993.55
456.73	3026.31
456.91	3066.10
457.09	3063.76
457.28	2979.50
457.46	2986.52
457.64	2979.50
457.83	2801.62
458.01	2815.66
458.19	2937.37
458.38	2881.20
458.56	2981.84
458.74	2986.52
458.93	2862.48
459.11	2925.67
459.29	2911.63
459.48	2993.55
459.66	3038.02
459.84	2930.35
460.03	2984.18
460.21	2991.20
460.39	3190.15
460.57	3133.98
460.76	3103.55
460.94	3084.83
461.12	3028.65
461.31	3073.12
461.49	2949.08
461.67	3122.27
461.85	3000.57
462.04	3117.59
462.22	3201.85
462.40	3082.49
462.59	3096.53
462.77	3052.06
462.95	3061.42
463.13	3115.25
463.32	3112.91
463.50	3000.57
463.68	3054.40
463.86	2953.76
464.05	2930.35
464.23	2850.77
464.41	2949.08
464.59	2944.39
464.78	2995.89
464.96	3066.10
465.14	3096.53
465.32	3028.65
465.50	3176.11
465.69	3220.58
465.87	2937.37
466.05	2958.44
466.23	2942.05
466.41	2834.39
466.60	2808.64
466.78	2930.35
466.96	2869.50
467.14	2932.69
467.32	3077.80
467.51	3070.78
467.69	2885.88
467.87	2991.20
468.05	3045.04
468.23	3145.68
468.41	3021.63
468.60	3035.67
468.78	2930.35
468.96	2904.60
469.14	2988.86
469.32	3021.63
469.50	2860.13
469.69	2946.73
469.87	2885.88
470.05	2897.58
470.23	2897.58
470.41	2876.52
470.59	2895.24
470.77	2839.07
470.95	3026.31
471.14	2935.03
471.32	2995.89
471.50	3243.98
471.68	3145.68
471.86	3265.05
472.04	3187.81
472.22	3255.69
472.40	3169.09
472.58	3089.51
472.77	3068.44
472.95	3005.25
473.13	3162.06
473.31	3126.96
473.49	3260.37
473.67	3166.74
473.85	3103.55
474.03	3243.98
474.21	3307.18
474.39	3274.41
474.57	3368.03
474.75	3445.27
474.93	3335.26
475.12	3262.71
475.30	3220.58
475.48	3157.38
475.66	3304.84
475.84	3255.69
476.02	3162.06
476.20	3239.30
476.38	3274.41
476.56	3272.07
476.74	3255.69
476.92	3515.48
477.10	3433.57
477.28	3595.06
477.46	3545.91
477.64	3632.51
477.82	3646.55
478.00	3651.24
478.18	3412.50
478.36	3489.74
478.54	3655.92
478.72	3623.15
478.90	3660.60
479.08	3674.64
479.26	3735.50
479.44	3824.44
479.62	3749.54
479.80	3779.97
479.98	3822.09
480.16	3812.73
480.34	3953.16
480.52	3838.48
480.70	4011.68
480.88	3758.90
481.06	3889.97
481.24	3847.84
481.41	3969.55
481.59	4028.06
481.77	4025.72
481.95	3936.78
482.13	3880.61
482.31	4004.66
482.49	4037.42
482.67	4088.92
482.85	4086.58
483.03	3943.80
483.21	4234.03
483.39	4327.65
483.57	4098.28
483.74	4109.98
483.92	4016.36
484.10	4196.58
484.28	4236.37
484.46	4273.82
484.64	4231.69
484.82	4222.33
485.00	4173.18
485.18	4016.36
485.35	3880.61
485.53	3541.23
485.71	3325.90
485.89	3307.18
486.07	3372.71
486.25	3794.01
486.43	3985.93
486.61	4142.75
486.78	4095.94
486.96	4037.42
487.14	4266.80
487.32	4273.82
487.50	4341.69
487.68	4624.90
487.85	4713.84
488.03	4650.64
488.21	4542.98
488.39	4566.39
488.57	4528.94
488.75	4454.04
488.92	4545.32
489.10	4781.71
489.28	4997.04
489.46	5004.07
489.64	4929.17
489.81	5102.37
489.99	5006.41
490.17	5008.75
490.35	5111.73
490.53	4983.00
490.70	4931.51
490.88	4957.25
491.06	5029.81
491.24	4983.00
491.41	4865.97
491.59	4671.71
491.77	4610.86
491.95	4702.14
492.13	4880.02
492.30	5212.37
492.48	5254.50
492.66	5259.18
492.84	5305.99
493.01	5198.33
493.19	5329.40
493.37	5135.14
493.54	5041.51
493.72	5226.42
493.90	5284.93
494.08	5451.11
494.25	5621.97
494.43	5619.63
494.61	5849.00
494.79	5640.69
494.96	5706.23
495.14	5516.64
495.32	5203.01
495.49	5160.88
495.67	5390.25
495.85	5790.49
496.02	5902.83
496.20	5724.95
496.38	5694.52
496.55	5612.60
496.73	5610.26
496.91	5905.17
497.09	6122.84
497.26	5954.32
497.44	5678.14
497.62	5682.82
497.79	5586.86
497.97	5320.04
498.14	5228.76
498.32	5568.13
498.50	5617.29
498.67	5788.14
498.85	5898.15
499.03	5914.53
499.20	5839.64
499.38	5942.62
499.56	5879.43
499.73	5647.71
499.91	5680.48
500.08	5521.32
500.26	5373.87
500.44	5420.68
500.61	5762.40
500.79	5727.29
500.97	5404.30
501.14	5385.57
501.32	5315.36
501.49	5455.79
501.67	5444.09
501.84	5680.48
502.02	5551.75
502.20	5809.21
502.37	5767.08
502.55	5736.65
502.72	5900.49
502.90	6134.54
503.07	5888.79
503.25	5778.78
503.43	5617.29
503.60	5502.60
503.78	5383.23
503.95	5582.18
504.13	5748.36
504.30	5966.03
504.48	5893.47
504.65	5769.42
504.83	5841.98
505.01	5937.94
505.18	6132.20
505.36	6176.67
505.53	6197.74
505.71	6310.08
505.88	6392.00
506.06	6038.58
506.23	5865.38
506.41	5949.64
506.58	5884.11
506.76	6010.50
506.93	5795.17
507.11	5774.10
507.28	5944.96
507.46	5846.66
507.63	5741.33
507.81	5645.37
507.98	5717.93
508.16	5954.32
508.33	5865.38
508.50	6050.28
508.68	6071.35
508.85	6242.21
509.03	6174.33
509.20	6319.45
509.38	6104.12
509.55	6071.35
509.73	6045.60
509.90	6047.94
510.08	6066.67
510.25	5905.17
510.42	5951.98
510.60	5706.23
510.77	5935.60
510.95	5994.11
511.12	6155.61
511.30	6237.53
511.47	6155.61
511.64	6244.55
511.82	6162.63
511.99	6169.65
512.17	5867.72
512.34	5820.91
512.51	5926.24
512.69	5937.94
512.86	6017.52
513.04	6045.60
513.21	6160.29
513.38	5923.90
513.56	5879.43
513.73	5760.06
513.90	5741.33
514.08	5678.14
514.25	5893.47
514.43	5872.40
514.60	5853.68
514.77	5959.00
514.95	6179.01
515.12	6026.88
515.29	6083.05
515.47	6136.88
515.64	6001.13
515.81	5987.09
515.99	6040.92
516.16	5577.50
516.33	5114.07
516.51	4912.78
516.68	4744.27
516.85	4713.84
517.03	4723.20
517.20	5200.67
517.37	5771.76
517.54	5898.15
517.72	5853.68
517.89	5198.33
518.06	5046.20
518.24	4882.36
518.41	5387.91
518.58	5570.48
518.75	5645.37
518.93	5612.60
519.10	5596.22
519.27	5853.68
519.45	5944.96
519.62	5963.68
519.79	5914.53
519.96	5884.11
520.14	5954.32
520.31	5717.93
520.48	5834.96
520.65	5825.59
520.83	6064.33
521.00	6059.65
521.17	5949.64
521.34	5966.03
521.52	5984.75
521.69	6239.87
521.86	6104.12
522.03	6164.97
522.20	6001.13
522.38	5743.67
522.55	5631.33
522.72	5694.52
522.89	5671.12
523.07	6115.82
523.24	5951.98
523.41	6104.12
523.58	6258.59
523.75	6200.08
523.92	6176.67
524.10	6160.29
524.27	6127.52
524.44	6164.97
524.61	6153.27
524.78	6188.38
524.96	6024.54
525.13	5919.21
525.30	6307.74
525.47	6214.12
525.64	6225.82
525.81	5991.77
525.98	5797.51
526.16	5423.02
526.33	5291.95
526.50	5345.78
526.67	5114.07
526.84	5282.59
527.01	5486.22
527.18	5600.90
527.36	5738.99
527.53	5970.71
527.70	6094.76
527.87	6010.50
528.04	5858.36
528.21	5881.77
528.38	6024.54
528.55	6305.40
528.72	6473.92
528.89	6279.66
529.07	6225.82
529.24	6190.72
529.41	5916.87
529.58	5877.09
529.75	5970.71
529.92	5977.73
530.09	6136.88
530.26	6054.97
530.43	6272.64
530.60	6136.88
530.77	6141.57
530.94	6207.10
531.11	6235.19
531.28	6125.18
531.46	6179.01
531.63	6134.54
531.80	5926.24
531.97	5877.09
532.14	5792.83
532.31	5577.50
532.48	5376.21
532.65	5460.47
532.82	5533.03
532.99	5647.71
533.16	5849.00
533.33	6040.92
533.50	5870.06
533.67	5834.96
533.84	5748.36
534.01	5764.74
534.18	5764.74
534.35	5989.43
534.52	5928.58
534.69	5734.31
534.86	5907.51
535.03	6125.18
535.20	6188.38
535.37	6422.43
535.54	6256.25
535.71	6052.63
535.88	6099.44
536.05	5937.94
536.22	5837.30
536.38	5788.14
536.55	5554.09
536.72	5486.22
536.89	5465.15
537.06	5851.34
537.23	5914.53
537.40	5907.51
537.57	5907.51
537.74	5694.52
537.91	6080.71
538.08	5930.92
538.25	5846.66
538.42	5832.62
538.59	5881.77
538.75	5720.27
538.92	5617.29
539.09	5699.20
539.26	5743.67
539.43	5607.92
539.60	5654.73
539.77	5437.06
539.94	5907.51
540.11	5418.34
540.28	5500.26
540.44	5472.17
540.61	5294.29
540.78	5593.88
540.95	5537.71
541.12	5589.20
541.29	5664.10
541.46	5755.38
541.62	5902.83
541.79	5841.98
541.96	5671.12
542.13	5570.48
542.30	5750.70
542.47	5795.17
542.63	5610.26
542.80	5820.91
542.97	5600.90
543.14	5696.86
543.31	5591.54
543.48	5781.12
543.64	5893.47
543.81	6024.54
543.98	5998.79
544.15	5769.42
544.32	5514.30
544.48	5638.35
544.65	5621.97
544.82	5696.86
544.99	5619.63
545.16	5614.95
545.32	5551.75
545.49	5713.25
545.66	5652.39
545.83	5710.91
546.00	5710.91
546.16	5731.97
546.33	5612.60
546.50	5479.19
546.67	5872.40
546.83	5619.63
547.00	5584.52
547.17	5488.56
547.34	5301.31
547.50	5273.23
547.67	5472.17
547.84	5383.23
548.00	5579.84
548.17	5535.37
548.34	5596.22
548.51	5547.07
548.67	5626.65
548.84	5645.37
549.01	5640.69
549.18	5666.44
549.34	5741.33
549.51	5568.13
549.68	5612.60
549.84	5652.39
550.01	5556.43
550.18	5261.52
550.34	5469.83
550.51	5434.72
550.68	5479.19
550.84	5401.96
551.01	5301.31
551.18	5305.99
551.34	5528.35
551.51	5743.67
551.68	5547.07
551.84	5460.47
552.01	5504.94
552.18	5558.77
552.34	5556.43
552.51	5493.24
552.68	5334.08
552.84	5408.98
553.01	5366.85
553.18	5483.88
553.34	5504.94
553.51	5406.64
553.67	5600.90
553.84	5561.11
554.01	5427.70
554.17	5387.91
554.34	5432.38
554.51	5554.09
554.67	5652.39
554.84	5600.90
555.00	5481.53
555.17	5504.94
555.33	5607.92
555.50	5408.98
555.67	5359.83
555.83	5301.31
556.00	5198.33
556.16	5401.96
556.33	5291.95
556.50	5125.77
556.66	5242.80
556.83	5114.07
556.99	5160.88
557.16	5214.71
557.32	5224.08
557.49	5233.44
557.65	5359.83
557.82	5397.28
557.98	5296.63
558.15	5069.60
558.32	5022.79
558.48	4765.33
558.65	5022.79
558.81	4975.98
558.98	4950.23
559.14	5188.97
559.31	5034.49
559.47	4844.91
559.64	4983.00
559.80	5006.41
559.97	4880.02
560.13	4952.57
560.30	5263.86
560.46	5343.44
560.63	5135.14
560.79	5427.70
560.96	5275.57
561.12	4961.94
561.29	4882.36
561.45	4978.32
561.61	4931.51
561.78	5025.13
561.94	5069.60
562.11	4954.91
562.27	4975.98
562.44	4938.53
562.60	5100.03
562.77	5163.22
562.93	5174.92
563.10	5085.98
563.26	5001.72
563.42	5053.22
563.59	4994.70
563.75	4840.23
563.92	4933.85
564.08	4959.60
564.24	4950.23
564.41	5041.51
564.57	4903.42
564.74	4952.57
564.90	4973.64
565.07	4681.07
565.23	4821.50
565.39	4758.31
565.56	4730.22
565.72	4770.01
565.88	4674.05
566.05	4830.87
566.21	4802.78
566.38	4734.90
566.54	4767.67
566.70	4868.31
566.87	5011.09
567.03	4964.28
567.19	4992.36
567.36	4772.35
567.52	4823.84
567.68	4774.69
567.85	4812.14
568.01	4620.22
568.17	4524.26
568.34	4552.34
568.50	4667.03
568.66	4531.28
568.83	4695.11
568.99	4585.11
569.15	4784.06
569.32	4669.37
569.48	4542.98
569.64	4596.81
569.81	4550.00
569.97	4512.55
570.13	4461.06
570.30	4456.38
570.46	4479.79
570.62	4351.06
570.78	4245.73
570.95	4344.03
571.11	4484.47
571.27	4456.38
571.43	4702.14
571.60	4552.34
571.76	4725.54
571.92	4540.64
572.09	4526.60
572.25	4531.28
572.41	4578.09
572.57	4671.71
572.74	4800.44
572.90	4716.18
573.06	4664.69
573.22	4634.26
573.38	4627.24
573.55	4601.49
573.71	4664.69
573.87	4524.26
574.03	4643.62
574.20	4472.76
574.36	4535.96
574.52	4402.55
574.68	4496.17
574.84	4358.08
575.01	4287.86
575.17	4358.08
575.33	4236.37
575.49	4423.61
575.65	4372.12
575.82	4444.68
575.98	4224.67
576.14	4327.65
576.30	4416.59
576.46	4348.72
576.62	4423.61
576.79	4440.00
576.95	4222.33
577.11	4542.98
577.27	4353.40
577.43	4315.95
577.59	4353.40
577.75	4170.83
577.92	4128.70
578.08	3999.98
578.24	4224.67
578.40	4205.94
578.56	4290.20
578.72	4191.90
578.88	4290.20
579.04	4315.95
579.21	4500.85
579.37	4224.67
579.53	4337.01
579.69	4238.71
579.85	4383.82
580.01	4339.35
580.17	4238.71
580.33	4234.03
580.49	4269.14
580.65	4236.37
580.82	4292.54
580.98	4154.45
581.14	4390.84
581.30	4173.18
581.46	4341.69
581.62	4283.18
581.78	4241.05
581.94	4376.80
582.10	4322.97
582.26	4278.50
582.42	4395.53
582.58	4269.14
582.74	4353.40
582.90	4325.31
583.06	4287.86
583.22	4383.82
583.38	4287.86
583.54	4315.95
583.70	4346.37
583.86	4166.15
584.02	4215.30
584.18	4318.29
584.34	4245.73
584.50	4301.90
584.66	4091.26
584.82	4313.61
584.98	4264.46
585.14	4117.00
585.30	4046.79
585.46	3925.08
585.62	4011.68
585.78	4166.15
585.94	3964.87
586.10	4063.17
586.26	4124.02
586.42	4072.53
586.58	4102.96
586.74	4152.11
586.90	4135.73
587.06	4131.05
587.22	4095.94
587.38	4039.76
587.54	4166.15
587.70	3981.25
587.86	4088.92
588.02	3978.91
588.18	3911.04
588.34	3805.71
588.49	3576.34
588.65	3396.12
588.81	3295.47
588.97	3421.86
589.13	3316.54
589.29	3241.64
589.45	3412.50
589.61	3501.44
589.77	3595.06
589.93	3721.45
590.08	3786.99
590.24	3833.80
590.40	3871.25
590.56	3896.99
590.72	3995.29
590.88	3651.24
591.04	3721.45
591.20	3721.45
591.35	3733.15
591.51	3770.60
591.67	3662.94
591.83	3684.00
591.99	3763.58
592.15	3796.35
592.31	3819.75
592.46	3845.50
592.62	3735.50
592.78	3698.05
592.94	3674.64
593.10	3852.52
593.26	3824.44
593.41	3763.58
593.57	3803.37
593.73	3672.30
593.89	3616.13
594.05	3639.53
594.20	3754.22
594.36	3534.21
594.52	3515.48
594.68	3590.38
594.84	3562.30
594.99	3698.05
595.15	3730.81
595.31	3679.32
595.47	3667.62
595.62	3716.77
595.78	3618.47
595.94	3747.20
596.10	3735.50
596.25	3723.79
596.41	3627.83
596.57	3524.85
596.73	3765.92
596.88	3524.85
597.04	3658.26
597.20	3625.49
597.36	3618.47
597.51	3599.74
597.67	3611.45
597.83	3602.08
597.99	3604.42
