SpectraSuite Data File
++++++++++++++++++++++++++++++++++++
Date: Mon Oct 07 14:52:53 GMT-05:00 2013
User: price-jones
Dark Spectrum Present: No
Reference Spectrum Present: No
Number of Sampled Component Spectra: 1
Spectrometers: USB2+H05261
Integration Time (usec): 100000 (USB2+H05261)
Spectra Averaged: 1 (USB2+H05261)
Boxcar Smoothing: 0 (USB2+H05261)
Correct for Electrical Dark: No (USB2+H05261)
Strobe/Lamp Enabled: No (USB2+H05261)
Correct for Detector Non-linearity: No (USB2+H05261)
Correct for Stray Light: No (USB2+H05261)
Number of Pixels in Processed Spectrum: 2048
>>>>>Begin Processed Spectral Data<<<<<
365.73	0.00
365.92	0.00
366.12	0.00
366.32	0.00
366.52	0.00
366.72	0.00
366.91	0.00
367.11	0.00
367.31	0.00
367.51	0.00
367.70	0.00
367.90	0.00
368.10	0.00
368.30	0.00
368.49	0.00
368.69	0.00
368.89	0.00
369.09	0.00
369.28	0.00
369.48	0.00
369.68	0.00
369.87	0.00
370.07	0.00
370.27	0.00
370.47	847.27
370.66	4145.09
370.86	4741.93
371.06	5090.67
371.25	5135.14
371.45	4585.11
371.65	4175.52
371.84	3934.44
372.04	4212.96
372.24	4589.79
372.44	4847.25
372.63	4692.77
372.83	4292.54
373.03	3920.40
373.22	3517.83
373.42	3768.26
373.62	4390.84
373.81	4760.65
374.01	4669.37
374.21	4102.96
374.40	3840.82
374.60	4166.15
374.79	4641.28
374.99	5261.52
375.19	5778.78
375.38	5476.85
375.58	5221.74
375.78	5268.55
375.97	5207.69
376.17	5401.96
376.37	5633.67
376.56	5626.65
376.76	6015.18
376.95	6415.41
377.15	6761.81
377.35	6855.43
377.54	7377.37
377.74	7618.44
377.93	7489.71
378.13	7253.32
378.33	7000.54
378.52	6310.08
378.72	6113.48
378.91	6085.39
379.11	5886.45
379.31	5675.80
379.50	5654.73
379.70	6148.59
379.89	6740.74
380.09	7126.93
380.28	7445.24
380.48	7351.62
380.68	7272.04
380.87	6885.86
381.07	6415.41
381.26	5858.36
381.46	5500.26
381.65	5380.89
381.85	5231.10
382.04	4983.00
382.24	4685.75
382.43	4444.68
382.63	4386.16
382.83	4477.44
383.02	4444.68
383.22	4503.19
383.41	4285.52
383.61	4800.44
383.80	5661.76
384.00	6300.72
384.19	6920.96
384.39	7091.82
384.58	7159.70
384.78	6780.53
384.97	6794.58
385.17	6487.96
385.36	6310.08
385.56	6209.44
385.75	6216.46
385.95	6817.98
386.14	7346.94
386.34	7407.80
386.53	6967.77
386.72	6546.48
386.92	6860.11
387.11	7173.74
387.31	7337.58
387.50	7286.09
387.70	6963.09
387.89	6794.58
388.09	6904.58
388.28	6836.70
388.48	7140.97
388.67	7733.13
388.86	8341.67
389.06	8985.32
389.25	9397.25
389.45	9635.99
389.64	9259.16
389.84	9301.29
390.03	9027.45
390.22	9186.60
390.42	9664.07
390.61	10260.91
390.81	10682.20
391.00	11084.78
391.19	10785.19
391.39	10363.89
391.58	9659.39
391.78	9074.26
391.97	8968.93
392.16	8395.50
392.36	7466.31
392.55	5984.75
392.75	4849.59
392.94	4007.00
393.13	4124.02
393.33	4793.42
393.52	6155.61
393.71	7435.88
393.91	8388.48
394.10	9008.72
394.29	9755.35
394.49	10761.78
394.68	11438.20
394.88	11499.05
395.07	11845.45
395.26	11719.06
395.46	11286.06
395.65	10511.35
395.84	9181.92
396.04	7538.87
396.23	6179.01
396.42	5158.54
396.62	5217.05
396.81	6221.14
397.00	7974.21
397.19	9923.87
397.39	11543.52
397.58	12882.31
397.77	13912.14
397.97	14223.44
398.16	14221.10
398.35	15082.41
398.55	15367.96
398.74	15962.45
398.93	16439.92
399.12	16145.02
399.32	15323.49
399.51	15915.64
399.70	16924.41
399.90	16271.40
400.09	16339.28
400.28	16360.34
400.47	16830.79
400.67	17713.17
400.86	17532.95
401.05	17743.60
401.24	17731.90
401.44	18630.66
401.63	18253.84
401.82	18185.96
402.01	18537.04
402.21	18546.40
402.40	18427.04
402.59	17907.44
402.78	16924.41
402.97	16924.41
403.17	17420.61
403.36	18459.81
403.55	19262.61
403.74	19082.39
403.93	18457.46
404.13	16954.84
404.32	16638.87
404.51	17734.24
404.70	19077.71
404.89	18719.60
405.09	18328.74
405.28	18230.43
405.47	18218.73
405.66	17867.65
405.85	17507.21
406.05	16936.12
406.24	17221.66
406.43	18090.00
406.62	18635.35
406.81	18853.02
407.00	17647.64
407.20	17348.05
407.39	17734.24
407.58	18820.25
407.77	19515.39
407.96	20119.24
408.15	20184.78
408.34	20343.94
408.54	21128.02
408.73	21193.55
408.92	21153.76
409.11	20304.15
409.30	19417.08
409.49	18239.79
409.68	17102.29
409.87	16496.10
410.07	17642.96
410.26	18895.14
410.45	20023.28
410.64	20734.81
410.83	21193.55
411.02	21818.47
411.21	22958.31
411.40	22419.99
411.59	22314.67
411.78	22541.70
411.98	21839.54
412.17	22148.49
412.36	21568.04
412.55	21919.12
412.74	21865.28
412.93	21202.91
413.12	21497.82
413.31	23520.04
413.50	23606.64
413.69	23426.42
413.88	23187.69
414.07	22380.20
414.26	22920.87
414.45	23353.87
414.64	23730.69
414.83	23513.02
415.02	22991.08
415.22	23260.24
415.41	23669.84
415.60	24500.73
415.79	25071.82
415.98	25874.62
416.17	26143.78
416.36	24978.20
416.55	24645.84
416.74	24140.29
416.93	22883.42
417.12	22995.76
417.31	24067.73
417.50	24203.48
417.69	24912.66
417.88	24601.37
418.07	24025.60
418.26	24084.11
418.45	24584.99
418.64	25287.15
418.83	25785.68
419.02	25956.54
419.21	25181.82
419.39	24217.52
419.58	23056.62
419.77	23351.52
419.96	24254.97
420.15	25762.28
420.34	26326.35
420.53	27447.46
420.72	27887.48
420.91	27555.13
421.10	26876.37
421.29	27367.88
421.48	26057.18
421.67	27307.03
421.86	26209.32
422.05	24772.23
422.24	22260.84
422.43	22328.71
422.61	24966.49
422.80	26366.13
422.99	26340.39
423.18	25560.99
423.37	24877.55
423.56	24933.73
423.75	25596.10
423.94	26010.37
424.13	24751.17
424.32	24723.08
424.50	24755.85
424.69	24769.89
424.88	24652.86
425.07	24723.08
425.26	24702.01
425.45	24009.22
425.64	23850.06
425.83	24095.82
426.01	25343.32
426.20	25748.23
426.39	25635.89
426.58	23906.23
426.77	22459.78
426.96	21383.13
427.15	22450.42
427.33	24599.03
427.52	24657.54
427.71	24992.24
427.90	24453.92
428.09	24334.55
428.28	24126.24
428.46	23288.33
428.65	22930.23
428.84	23597.28
429.03	23620.69
429.22	22324.03
429.40	20975.88
429.59	19307.08
429.78	17270.81
429.97	17315.28
430.16	17413.59
430.34	17633.60
430.53	17579.76
430.72	18120.43
430.91	20236.27
431.10	23510.68
431.28	27367.88
431.47	29305.85
431.66	29572.67
431.85	26810.84
432.03	24945.43
432.22	23990.49
432.41	25109.27
432.60	27765.78
432.79	28734.76
432.97	29504.79
433.16	28212.82
433.35	25886.32
433.54	23580.90
433.72	22679.79
433.91	23302.37
434.10	25710.78
434.28	27541.08
434.47	28563.90
434.66	27997.49
434.85	27548.11
435.03	27611.30
435.22	28215.16
435.41	29624.16
435.59	29577.35
435.78	29963.54
435.97	30813.15
436.16	31721.28
436.34	30216.32
436.53	29872.26
436.72	30031.41
436.90	28943.06
437.09	28723.05
437.28	27784.50
437.46	29022.64
437.65	28903.28
437.84	26841.26
438.02	24788.61
438.21	24512.43
438.40	26005.69
438.58	28718.37
438.77	28978.17
438.96	29289.46
439.14	30675.06
439.33	31398.29
439.52	31566.81
439.70	31002.74
439.89	29956.52
440.08	29347.98
440.26	29914.39
440.45	30405.90
440.63	32631.75
440.82	34213.95
441.01	33352.63
441.19	33003.89
441.38	33933.09
441.57	34831.85
441.75	35391.24
441.94	35749.34
442.12	35328.05
442.31	36369.58
442.50	36292.35
442.68	35674.45
442.87	34995.69
443.05	34532.26
443.24	35082.29
443.43	36290.01
443.61	36613.00
443.80	37038.98
443.98	34792.06
444.17	34937.18
444.35	36662.15
444.54	37226.22
444.73	37046.00
444.91	35512.95
445.10	34024.37
445.28	32905.59
445.47	32266.63
445.65	32390.67
445.84	33762.23
446.02	34450.35
446.21	35489.54
446.39	35019.10
446.58	35770.41
446.77	35887.43
446.95	36903.23
447.14	37469.64
447.32	38426.92
447.51	37228.56
447.69	35606.57
447.88	35648.70
448.06	35477.84
448.25	36973.44
448.43	36760.45
448.62	36320.43
448.80	35828.92
448.99	36730.03
449.17	36868.12
449.36	36919.61
449.54	38345.00
449.73	38967.58
449.91	39414.62
450.10	40697.24
450.28	40212.74
450.46	40488.93
450.65	40084.01
450.83	39676.76
451.02	39093.97
451.20	38969.92
451.39	38508.83
451.57	38555.64
451.76	38883.32
451.94	38424.57
452.13	37614.75
452.31	35990.42
452.49	34532.26
452.68	35316.34
452.86	35229.74
453.05	35730.62
453.23	37514.11
453.42	37748.16
453.60	38398.83
453.78	39232.06
453.97	37921.36
454.15	38176.48
454.34	37450.91
454.52	37909.66
454.70	37301.12
454.89	36935.99
455.07	37787.95
455.26	38515.86
455.44	39810.17
455.62	40245.51
455.81	39810.17
455.99	39910.82
456.17	39676.76
456.36	39555.05
456.54	40563.82
456.73	41057.68
456.91	41448.55
457.09	41521.10
457.28	42241.99
457.46	40500.63
457.64	40603.61
457.83	39681.44
458.01	38497.13
458.19	39374.83
458.38	40168.27
458.56	41062.36
458.74	40783.83
458.93	40348.50
459.11	39941.24
459.29	39763.36
459.48	40313.39
459.66	39639.31
459.84	40587.23
460.03	40975.76
460.21	41184.07
460.39	41825.37
460.57	41317.48
460.76	42007.94
460.94	42050.06
461.12	41490.68
461.31	41558.55
461.49	41420.46
461.67	41375.99
461.85	43119.69
462.04	42651.58
462.22	43122.03
462.40	42625.84
462.59	42553.28
462.77	42698.39
462.95	42693.71
463.13	41937.72
463.32	42174.11
463.50	41680.26
463.68	42206.88
463.86	41787.92
464.05	41102.15
464.23	40540.42
464.41	40399.99
464.59	39082.27
464.78	41977.51
464.96	41064.70
465.14	41125.55
465.32	41956.44
465.50	43026.07
465.69	43255.44
465.87	42394.12
466.05	41507.06
466.23	39337.38
466.41	38560.33
466.60	40163.59
466.78	40142.53
466.96	40603.61
467.14	41148.96
467.32	41495.36
467.51	42143.69
467.69	40081.67
467.87	40636.38
468.05	41598.34
468.23	41315.14
468.41	41256.62
468.60	41511.74
468.78	41729.41
468.96	41603.02
469.14	42136.66
469.32	42351.99
469.50	40938.31
469.69	40844.69
469.87	40444.46
470.05	39847.62
470.23	40304.02
470.41	40304.02
470.59	41228.54
470.77	41371.31
470.95	42000.91
471.14	42555.62
471.32	42597.75
471.50	44765.09
471.68	44383.58
471.86	45055.31
472.04	45052.97
472.22	45059.99
472.40	42602.43
472.58	42997.98
472.77	42424.55
472.95	43466.09
473.13	44402.30
473.31	43400.55
473.49	43512.90
473.67	44240.81
473.85	44755.72
474.03	45731.73
474.21	46031.32
474.39	45869.82
474.57	46644.54
474.75	46239.62
474.93	46089.83
475.12	45212.13
475.30	45038.93
475.48	45361.92
475.66	46054.72
475.84	45652.15
476.02	44854.03
476.20	44130.80
476.38	45375.97
476.56	46438.57
476.74	46761.56
476.92	47363.08
477.10	47702.46
477.28	48467.81
477.46	48863.36
477.64	48992.09
477.82	49010.82
478.00	49586.59
478.18	49148.91
478.36	48748.68
478.54	48725.27
478.72	49244.87
478.90	49804.26
479.08	50892.61
479.26	51339.65
479.44	51030.70
479.62	51002.61
479.80	50731.11
479.98	51384.12
480.16	51309.22
480.34	51021.34
480.52	51487.10
480.70	51674.35
480.88	51599.45
481.06	52240.76
481.24	52633.97
481.41	53265.91
481.59	53640.40
481.77	53169.95
481.95	52835.25
482.13	52629.29
482.31	52624.60
482.49	53521.03
482.67	53268.25
482.85	53537.41
483.03	54005.52
483.21	54255.96
483.39	54330.86
483.57	53558.48
483.74	53680.19
483.92	54185.74
484.10	54143.61
484.28	54628.10
484.46	54887.90
484.64	55068.12
484.82	54358.94
485.00	54108.50
485.18	53333.79
485.35	52521.62
485.53	49518.71
485.71	45947.06
485.89	46347.29
486.07	48198.65
486.25	51037.72
486.43	53045.90
486.61	53476.56
486.78	53282.30
486.96	53642.74
487.14	54674.91
487.32	55386.44
487.50	56278.18
487.68	56746.29
487.85	57176.95
488.03	57080.98
488.21	56610.54
488.39	56336.69
488.57	55543.25
488.75	55480.06
488.92	56699.48
489.10	58059.33
489.28	59093.85
489.46	59737.49
489.64	59288.11
489.81	59573.66
489.99	59332.58
490.17	59405.14
490.35	59683.66
490.53	59292.79
490.70	58927.67
490.88	58857.45
491.06	59643.87
491.24	59723.45
491.41	58520.41
491.59	57338.44
491.77	56891.40
491.95	57932.94
492.13	59082.14
492.30	60095.60
492.48	60781.37
492.66	61064.58
492.84	61017.77
493.01	60816.48
493.19	60264.11
493.37	59927.08
493.54	59938.78
493.72	60563.70
493.90	61197.99
494.08	61755.03
494.25	62148.24
494.43	62335.49
494.61	62642.10
494.79	62639.76
494.96	62532.09
495.14	61846.32
495.32	61045.85
495.49	60832.86
495.67	61570.13
495.85	62522.73
496.02	62852.75
496.20	62522.73
496.38	62382.30
496.55	62248.89
496.73	62761.47
496.91	62754.44
497.09	63243.62
497.26	63421.50
497.44	63206.17
497.62	62548.48
497.79	61677.80
497.97	60905.42
498.14	61298.63
498.32	62035.90
498.50	62590.61
498.67	63117.23
498.85	63098.50
499.03	63264.68
499.20	63639.17
499.38	63477.67
499.56	63269.36
499.73	62663.16
499.91	62548.48
500.08	61968.02
500.26	61680.14
500.44	62059.30
500.61	62508.69
500.79	62496.98
500.97	62021.86
501.14	62026.54
501.32	61820.57
501.49	61972.70
501.67	61951.64
501.84	62475.92
502.02	62695.93
502.20	62812.96
502.37	63140.63
502.55	63168.72
502.72	63884.92
502.90	64205.58
503.07	63716.40
503.25	63260.00
503.43	62585.92
503.60	62063.99
503.78	61598.22
503.95	62007.81
504.13	63126.59
504.30	63887.26
504.48	63709.38
504.65	63351.28
504.83	63685.98
505.01	64051.10
505.18	64196.21
505.36	64807.09
505.53	64746.24
505.71	65141.79
505.88	64940.50
506.06	64343.67
506.23	64184.51
506.41	63913.01
506.58	64062.80
506.76	64126.00
506.93	64179.83
507.11	63749.17
507.28	63859.18
507.46	63519.80
507.63	63079.78
507.81	62878.49
507.98	63285.75
508.16	63854.50
508.33	64130.68
508.50	64603.47
508.68	64795.39
508.85	65200.30
509.03	65270.52
509.20	64942.84
509.38	64460.69
509.55	63648.53
509.73	63908.33
509.90	64329.62
510.08	64587.08
510.25	64535.59
510.42	64383.46
510.60	64198.55
510.77	64495.80
510.95	64980.29
511.12	64886.67
511.30	65432.02
511.47	65535.00
511.64	65513.94
511.82	65130.09
511.99	64474.74
512.17	64175.15
512.34	63903.65
512.51	64032.38
512.69	64247.71
512.86	64196.21
513.04	64654.96
513.21	64680.70
513.38	64402.18
513.56	63917.69
513.73	63241.28
513.90	63582.99
514.08	63613.42
514.25	63936.41
514.43	64128.34
514.60	64154.08
514.77	64250.05
514.95	64299.20
515.12	64481.76
515.29	64521.55
515.47	64886.67
515.64	64999.02
515.81	64818.80
515.99	64030.04
516.16	62869.13
516.33	60935.85
516.51	59966.87
516.68	59054.06
516.85	59037.67
517.03	59529.19
517.20	61872.06
517.37	63884.92
517.54	64437.29
517.72	63812.37
517.89	61808.87
518.06	59868.56
518.24	60479.44
518.41	62115.48
518.58	63142.97
518.75	63318.51
518.93	63604.06
519.10	63437.88
519.27	63917.69
519.45	64097.91
519.62	64664.32
519.79	65200.30
519.96	64704.11
520.14	64385.80
520.31	63388.73
520.48	63674.27
520.65	64147.06
520.83	64809.43
521.00	64910.08
521.17	64580.06
521.34	64617.51
521.52	64837.52
521.69	64954.55
521.86	65535.00
522.03	65221.37
522.20	64219.62
522.38	63552.57
522.55	63419.16
522.72	64032.38
522.89	64154.08
523.07	64257.07
523.24	64530.91
523.41	65270.52
523.58	65535.00
523.75	65535.00
523.92	65535.00
524.10	65535.00
524.27	65535.00
524.44	65535.00
524.61	65462.44
524.78	65382.87
524.96	65118.38
525.13	65195.62
525.30	65380.52
525.47	65535.00
525.64	65535.00
525.81	64825.82
525.98	63772.58
526.16	62677.21
526.33	62195.06
526.50	61738.65
526.67	61745.67
526.84	61998.45
527.01	62677.21
527.18	63702.36
527.36	64472.40
527.53	64917.10
527.70	65204.98
527.87	64760.28
528.04	64191.53
528.21	65048.17
528.38	65474.15
528.55	65535.00
528.72	65535.00
528.89	65535.00
529.07	65535.00
529.24	65535.00
529.41	65029.44
529.58	64371.75
529.75	64278.13
529.92	64783.69
530.09	65364.14
530.26	65535.00
530.43	65535.00
530.60	65535.00
530.77	65535.00
530.94	65535.00
531.11	65535.00
531.28	65427.34
531.46	65277.54
531.63	65535.00
531.80	65427.34
531.97	65003.70
532.14	64296.86
532.31	63398.09
532.48	62808.28
532.65	63220.21
532.82	63945.78
532.99	64601.13
533.16	65078.60
533.33	65527.98
533.50	65329.03
533.67	64725.17
533.84	64364.73
534.01	64444.31
534.18	64891.35
534.35	64879.65
534.52	64683.04
534.69	64835.18
534.86	65410.95
535.03	65483.51
535.20	65535.00
535.37	65535.00
535.54	65535.00
535.71	65535.00
535.88	65535.00
536.05	65038.81
536.22	64821.14
536.38	64502.82
536.55	64020.67
536.72	63753.85
536.89	63599.38
537.06	64493.46
537.23	65272.86
537.40	65270.52
537.57	65219.03
537.74	64973.27
537.91	64947.53
538.08	65165.20
538.25	65104.34
538.42	65415.63
538.59	64879.65
538.75	64444.31
538.92	64203.24
539.09	64032.38
539.26	63835.77
539.43	63838.11
539.60	64238.34
539.77	64062.80
539.94	63941.10
540.11	63236.59
540.28	62962.75
540.44	62899.56
540.61	63112.55
540.78	63358.30
540.95	63716.40
541.12	64250.05
541.29	64236.00
541.46	64706.45
541.62	64629.21
541.79	64488.78
541.96	63950.46
542.13	63971.52
542.30	64280.47
542.47	64268.77
542.63	64184.51
542.80	63920.03
542.97	64118.98
543.14	63856.84
543.31	64018.33
543.48	64619.85
543.64	65123.07
543.81	65532.66
543.98	65195.62
544.15	64580.06
544.32	63987.91
544.48	64397.50
544.65	64781.35
544.82	65200.30
544.99	64755.60
545.16	64434.95
545.32	64306.22
545.49	64910.08
545.66	65155.83
545.83	64690.07
546.00	64315.58
546.16	64296.86
546.33	64076.85
546.50	64364.73
546.67	64711.13
546.83	64355.37
547.00	64315.58
547.17	63749.17
547.34	63391.07
547.50	63281.06
547.67	63725.77
547.84	63730.45
548.00	64292.18
548.17	64425.59
548.34	64481.76
548.51	64385.80
548.67	64528.57
548.84	64474.74
549.01	64378.78
549.18	64001.95
549.34	64116.64
549.51	64217.28
549.68	64032.38
549.84	63821.73
550.01	63983.22
550.18	63737.47
550.34	63987.91
550.51	64041.74
550.68	63959.82
550.84	63505.76
551.01	63707.04
551.18	63716.40
551.34	63674.27
551.51	64053.44
551.68	64336.65
551.84	64287.49
552.01	64060.46
552.18	63847.47
552.34	63220.21
552.51	63203.83
552.68	63039.99
552.84	63416.82
553.01	63627.46
553.18	63721.08
553.34	63587.67
553.51	63868.54
553.67	64046.42
553.84	64196.21
554.01	64023.01
554.17	63870.88
554.34	64081.53
554.51	64217.28
554.67	64310.90
554.84	64317.92
555.00	63983.22
555.17	63662.57
555.33	63604.06
555.50	63611.08
555.67	63730.45
555.83	63398.09
556.00	63351.28
556.16	63229.57
556.33	63154.68
556.50	62925.30
556.66	62784.87
556.83	62728.70
556.99	62768.49
557.16	62805.94
557.32	63243.62
557.49	63522.14
557.65	63140.63
557.82	63068.08
557.98	62925.30
558.15	62595.29
558.32	62035.90
558.48	61338.42
558.65	61607.58
558.81	61888.45
558.98	62106.12
559.14	62223.14
559.31	62298.04
559.47	62014.83
559.64	62075.69
559.80	61443.74
559.97	61876.74
560.13	62192.72
560.30	62972.11
560.46	63290.43
560.63	63559.59
560.79	63419.16
560.96	63152.33
561.12	62370.60
561.29	61434.38
561.45	61403.95
561.61	62253.57
561.78	62541.45
561.94	62349.53
562.11	62258.25
562.27	62085.05
562.44	62284.00
562.60	62841.04
562.77	62695.93
562.93	62679.55
563.10	62700.61
563.26	62056.96
563.42	62120.16
563.59	61799.50
563.75	62024.20
563.92	62162.29
564.08	62003.13
564.24	62415.07
564.41	62312.08
564.57	62337.83
564.74	62216.12
564.90	62227.82
565.07	61851.00
565.23	61476.51
565.39	61076.28
565.56	60954.57
565.72	60928.83
565.88	61085.64
566.05	61293.95
566.21	61462.47
566.38	61399.27
566.54	61434.38
566.70	61698.86
566.87	62202.08
567.03	62078.03
567.19	62127.18
567.36	62136.54
567.52	61731.63
567.68	61642.69
567.85	61183.94
568.01	60842.23
568.17	60434.97
568.34	60474.76
568.50	60542.64
568.66	60713.50
568.83	60882.02
568.99	60996.70
569.15	61167.56
569.32	61219.05
569.48	60903.08
569.64	60746.26
569.81	60577.75
569.97	60573.06
570.13	60341.35
570.30	59955.16
570.46	59690.68
570.62	59004.91
570.78	59313.86
570.95	59440.24
571.11	60142.41
571.27	60329.65
571.43	60481.78
571.60	60753.29
571.76	60851.59
571.92	61291.61
572.09	61052.87
572.25	61017.77
572.41	60851.59
572.57	60968.61
572.74	60795.42
572.90	60746.26
573.06	60647.96
573.22	60631.58
573.38	60559.02
573.55	60271.14
573.71	60858.61
573.87	60673.71
574.03	60161.13
574.20	60437.31
574.36	60076.87
574.52	60095.60
574.68	59838.14
574.84	59437.90
575.01	59276.41
575.17	59365.35
575.33	59678.98
575.49	59936.44
575.65	60027.72
575.82	59718.77
575.98	59599.40
576.14	59697.70
576.30	59742.17
576.46	59847.50
576.62	60083.89
576.79	59990.27
576.95	59557.27
577.11	59627.49
577.27	59856.86
577.43	59662.60
577.59	59264.70
577.75	58869.15
577.92	58688.93
578.08	58473.60
578.24	58475.94
578.40	58890.22
578.56	58899.58
578.72	59096.19
578.88	59107.89
579.04	59423.86
579.21	59360.67
579.37	59557.27
579.53	59306.83
579.69	59255.34
579.85	59564.29
580.01	59145.34
580.17	58794.26
580.33	58803.62
580.49	59091.51
580.65	59257.68
580.82	59358.33
580.98	59227.26
581.14	59150.02
581.30	59578.34
581.46	59178.10
581.62	59480.03
581.78	59550.25
581.94	59491.74
582.10	59611.10
582.26	59676.64
582.42	59625.15
582.58	59711.75
582.74	59512.80
582.90	59618.13
583.06	59316.20
583.22	59217.89
583.38	59283.43
583.54	59391.09
583.70	59168.74
583.86	59262.36
584.02	59147.68
584.18	59409.82
584.34	59217.89
584.50	59042.35
584.66	59054.06
584.82	58625.74
584.98	58419.77
585.14	58152.95
