SpectraSuite Data File
++++++++++++++++++++++++++++++++++++
Date: Mon Oct 07 14:53:30 GMT-05:00 2013
User: price-jones
Dark Spectrum Present: No
Reference Spectrum Present: No
Number of Sampled Component Spectra: 1
Spectrometers: USB2+H05261
Integration Time (usec): 100000 (USB2+H05261)
Spectra Averaged: 1 (USB2+H05261)
Boxcar Smoothing: 0 (USB2+H05261)
Correct for Electrical Dark: No (USB2+H05261)
Strobe/Lamp Enabled: No (USB2+H05261)
Correct for Detector Non-linearity: No (USB2+H05261)
Correct for Stray Light: No (USB2+H05261)
Number of Pixels in Processed Spectrum: 2048
>>>>>Begin Processed Spectral Data<<<<<
365.73	0.00
365.92	0.00
366.12	0.00
366.32	0.00
366.52	0.00
366.72	0.00
366.91	0.00
367.11	0.00
367.31	0.00
367.51	0.00
367.70	0.00
367.90	0.00
368.10	0.00
368.30	0.00
368.49	0.00
368.69	0.00
368.89	0.00
369.09	0.00
369.28	0.00
369.48	0.00
369.68	0.00
369.87	0.00
370.07	0.00
370.27	0.00
370.47	650.67
370.66	2970.14
370.86	3604.42
371.06	4018.70
371.25	3974.23
371.45	3534.21
371.65	3307.18
371.84	3080.14
372.04	3159.72
372.24	3641.87
372.44	3592.72
372.63	3700.39
372.83	3478.04
373.03	3169.09
373.22	2857.79
373.42	2916.31
373.62	3485.06
373.81	3742.52
374.01	3754.22
374.21	3382.07
374.40	3108.23
374.60	3248.66
374.79	3545.91
374.99	4269.14
375.19	4496.17
375.38	4620.22
375.58	4182.54
375.78	4299.56
375.97	4301.90
376.17	4423.61
376.37	4367.44
376.56	4634.26
376.76	4725.54
376.95	5069.60
377.15	5554.09
377.35	5514.30
377.54	5991.77
377.74	5982.41
377.93	6211.78
378.13	5914.53
378.33	5720.27
378.52	5270.89
378.72	4884.70
378.91	5018.11
379.11	4793.42
379.31	4655.33
379.50	4521.92
379.70	4999.38
379.89	5376.21
380.09	5837.30
380.28	6169.65
380.48	6090.07
380.68	6045.60
380.87	5659.42
381.07	5408.98
381.26	4950.23
381.46	4535.96
381.65	4540.64
381.85	4351.06
382.04	4105.30
382.24	3936.78
382.43	3742.52
382.63	3669.96
382.83	3597.40
383.02	3721.45
383.22	3562.30
383.41	3574.00
383.61	3932.10
383.80	4395.53
384.00	5125.77
384.19	5666.44
384.39	6104.12
384.58	6047.94
384.78	5816.23
384.97	5736.65
385.17	5603.24
385.36	5055.56
385.56	4997.04
385.75	4990.02
385.95	5654.73
386.14	6132.20
386.34	6127.52
386.53	5858.36
386.72	5551.75
386.92	5612.60
387.11	5832.62
387.31	6193.06
387.50	6134.54
387.70	5893.47
387.89	5748.36
388.09	5729.63
388.28	5959.00
388.48	5916.87
388.67	6408.39
388.86	6949.05
389.06	7501.42
389.25	7826.75
389.45	7915.69
389.64	7969.52
389.84	7793.98
390.03	7660.57
390.22	7730.79
390.42	7946.12
390.61	8538.27
390.81	8912.76
391.00	9291.93
391.19	9153.84
391.39	8950.21
391.58	8215.28
391.78	7925.05
391.97	7595.04
392.16	7169.06
392.36	6520.73
392.55	5217.05
392.75	4327.65
392.94	3576.34
393.13	3325.90
393.33	3864.22
393.52	5020.45
393.71	6129.86
393.91	6743.08
394.10	7524.82
394.29	8205.92
394.49	9027.45
394.68	9645.35
394.88	9701.52
395.07	10195.37
395.26	9982.38
395.46	9537.68
395.65	9277.88
395.84	7939.10
396.04	6722.02
396.23	5425.36
396.42	4547.66
396.62	4383.82
396.81	5125.77
397.00	6406.05
397.19	8191.88
397.39	9722.59
397.58	10813.28
397.77	11756.51
397.97	12182.49
398.16	12266.75
398.35	12493.78
398.55	12849.54
398.74	13661.71
398.93	13745.97
399.12	13586.81
399.32	13233.39
399.51	13610.22
399.70	14331.10
399.90	13980.02
400.09	14221.10
400.28	14003.43
400.47	13982.36
400.67	14703.25
400.86	15372.64
401.05	15335.19
401.24	15456.90
401.44	15590.31
401.63	15463.92
401.82	15548.18
402.01	15438.17
402.21	16032.67
402.40	15939.05
402.59	15391.36
402.78	14860.06
402.97	14368.55
403.17	14890.49
403.36	15742.44
403.55	16489.07
403.74	16690.36
403.93	15791.59
404.13	14590.90
404.32	14480.89
404.51	15096.46
404.70	16240.98
404.89	16147.36
405.09	15826.70
405.28	15365.62
405.47	15325.83
405.66	15534.14
405.85	14906.87
406.05	14516.00
406.24	14853.04
406.43	15714.36
406.62	15875.85
406.81	16170.76
407.00	15616.05
407.20	15374.98
407.39	15047.30
407.58	16081.82
407.77	16842.50
407.96	17090.59
408.15	17378.48
408.34	17593.81
408.54	18045.53
408.73	18466.83
408.92	18122.77
409.11	17624.23
409.30	16868.24
409.49	15559.88
409.68	14846.02
409.87	14387.27
410.07	15272.00
410.26	16390.77
410.45	17383.16
410.64	17926.16
410.83	18583.85
411.02	18743.01
411.21	19454.53
411.40	19250.91
411.59	19339.85
411.78	19171.33
411.98	19040.26
412.17	19398.36
412.36	19014.51
412.55	19246.23
412.74	18691.52
412.93	17872.33
413.12	18401.29
413.31	20247.97
413.50	20119.24
413.69	20620.12
413.88	20205.84
414.07	19571.56
414.26	19433.47
414.45	20173.08
414.64	20404.79
414.83	20212.87
415.02	20105.20
415.22	20020.94
415.41	20137.97
415.60	20959.50
415.79	21874.65
415.98	22431.69
416.17	22434.03
416.36	21769.32
416.55	21535.27
416.74	20613.10
416.93	20142.65
417.12	20074.77
417.31	20407.13
417.50	20587.35
417.69	21268.45
417.88	21252.06
418.07	21139.72
418.26	21003.97
418.45	21010.99
418.64	21769.32
418.83	22733.62
419.02	22462.12
419.21	22122.74
419.39	20929.07
419.58	20013.92
419.77	20334.57
419.96	21310.58
420.15	22291.26
420.34	23197.05
420.53	23372.59
420.72	24067.73
420.91	23639.41
421.10	23559.83
421.29	23477.91
421.48	22483.19
421.67	23473.23
421.86	23098.75
422.05	21315.26
422.24	19229.84
422.43	18911.53
422.61	21071.84
422.80	22916.19
422.99	22911.50
423.18	21839.54
423.37	21731.87
423.56	21738.90
423.75	22141.47
423.94	22855.33
424.13	21163.12
424.32	21474.42
424.50	21759.96
424.69	21135.04
424.88	21312.92
425.07	21333.98
425.26	21305.90
425.45	20882.26
425.64	20451.60
425.83	20613.10
426.01	22012.74
426.20	22499.57
426.39	22160.19
426.58	20350.96
426.77	19206.44
426.96	18728.97
427.15	18927.91
427.33	20563.95
427.52	21137.38
427.71	21741.24
427.90	21558.67
428.09	21116.31
428.28	20430.54
428.46	19920.30
428.65	19515.39
428.84	20372.02
429.03	20519.48
429.22	19737.74
429.40	18562.79
429.59	16514.82
429.78	14644.73
429.97	14775.80
430.16	15124.54
430.34	15185.40
430.53	15122.20
430.72	15241.57
430.91	16875.26
431.10	19936.68
431.28	23587.92
431.47	25500.14
431.66	25802.07
431.85	23349.18
432.03	21790.39
432.22	20610.76
432.41	21472.07
432.60	23840.70
432.79	24278.38
432.97	25345.66
433.16	24947.77
433.35	22773.41
433.54	20573.31
433.72	19222.82
433.91	19814.98
434.10	22174.24
434.28	23562.17
434.47	24510.09
434.66	24425.83
434.85	23789.20
435.03	23646.43
435.22	24437.53
435.41	25535.24
435.59	25837.17
435.78	26572.10
435.97	27037.87
436.16	27269.58
436.34	26749.98
436.53	25972.92
436.72	26288.90
436.90	24910.32
437.09	24727.76
437.28	24032.62
437.46	24966.49
437.65	25022.67
437.84	23288.33
438.02	21053.12
438.21	21315.26
438.40	22422.33
438.58	24128.58
438.77	25032.03
438.96	25745.89
439.14	26375.50
439.33	26693.81
439.52	27421.72
439.70	26888.07
439.89	26436.35
440.08	25528.22
440.26	25177.14
440.45	26438.69
440.63	27892.16
440.82	29340.96
441.01	29493.09
441.19	28861.15
441.38	29036.69
441.57	30305.26
441.75	30946.56
441.94	30841.24
442.12	30518.25
442.31	31414.67
442.50	31119.76
442.68	30244.40
442.87	30658.68
443.05	30092.27
443.24	30471.43
443.43	30796.77
443.61	31281.26
443.80	32098.11
443.98	30338.02
444.17	30239.72
444.35	31864.05
444.54	32421.10
444.73	31910.86
444.91	30902.09
445.10	29355.00
445.28	28364.95
445.47	28016.21
445.65	28194.09
445.84	28863.49
446.02	30012.69
446.21	30539.31
446.39	30436.33
446.58	30728.89
446.77	31325.73
446.95	31566.81
447.14	32463.23
447.32	32961.76
447.51	32278.33
447.69	31161.89
447.88	30955.93
448.06	31297.64
448.25	31660.43
448.43	32098.11
448.62	31346.79
448.80	31325.73
448.99	31194.66
449.17	31452.12
449.36	31718.94
449.54	33060.07
449.73	33558.60
449.91	34099.26
450.10	34574.39
450.28	35201.66
450.46	35213.36
450.65	34986.33
450.83	34808.45
451.02	33937.77
451.20	34153.10
451.39	33565.62
451.57	33462.64
451.76	33682.65
451.94	33425.19
452.13	33015.60
452.31	31168.91
452.49	29724.80
452.68	30213.98
452.86	30162.48
453.05	30815.49
453.23	31527.02
453.42	32271.31
453.60	33064.75
453.78	33539.88
453.97	32924.32
454.15	33048.36
454.34	32259.60
454.52	32474.93
454.70	31681.49
454.89	32088.74
455.07	32409.40
455.26	32870.48
455.44	34183.52
455.62	34639.93
455.81	34637.59
455.99	34677.38
456.17	34050.11
456.36	34141.39
456.54	35358.47
456.73	34895.05
456.91	35793.81
457.09	35667.42
457.28	36411.71
457.46	35337.41
457.64	34609.50
457.83	34024.37
458.01	33186.46
458.19	33860.53
458.38	34183.52
458.56	35208.68
458.74	35536.35
458.93	34490.13
459.11	34373.11
459.29	34323.96
459.48	34232.68
459.66	34047.77
459.84	34756.96
460.03	35180.59
460.21	34742.91
460.39	36140.21
460.57	35725.94
460.76	36395.33
460.94	36432.78
461.12	36126.17
461.31	36088.72
461.49	35672.10
461.67	35899.14
461.85	36987.49
462.04	37174.73
462.22	37511.77
462.40	36760.45
462.59	36582.57
462.77	36828.33
462.95	36692.58
463.13	36833.01
463.32	35964.67
463.50	36018.50
463.68	35398.26
463.86	35997.44
464.05	35606.57
464.23	34932.50
464.41	34625.89
464.59	33780.95
464.78	35314.00
464.96	35676.79
465.14	35150.17
465.32	35985.74
465.50	36928.97
465.69	37156.00
465.87	36821.31
466.05	35690.83
466.23	34171.82
466.41	33270.72
466.60	34480.77
466.78	34431.62
466.96	34845.90
467.14	35503.59
467.32	36229.15
467.51	35761.05
467.69	34319.28
467.87	35009.73
468.05	35707.21
468.23	35412.31
468.41	35700.19
468.60	35791.47
468.78	35714.23
468.96	35494.22
469.14	36680.88
469.32	36617.68
469.50	34948.88
469.69	35007.39
469.87	35049.52
470.05	34717.17
470.23	34356.72
470.41	34801.43
470.59	35035.48
470.77	35267.19
470.95	35976.37
471.14	36402.35
471.32	36821.31
471.50	38719.48
471.68	38417.55
471.86	39178.23
472.04	38983.96
472.22	39220.36
472.40	37539.85
472.58	36790.88
472.77	36430.44
472.95	37364.31
473.13	38162.43
473.31	36854.08
473.49	37560.92
473.67	38031.36
473.85	38513.52
474.03	39632.29
474.21	39550.37
474.39	39922.52
474.57	39959.97
474.75	40018.48
474.93	39875.71
475.12	38588.41
475.30	38852.89
475.48	38962.90
475.66	39421.64
475.84	39178.23
476.02	38920.77
476.20	37970.51
476.38	38890.34
476.56	39810.17
476.74	40556.80
476.92	40762.77
477.10	41682.60
477.28	42869.25
477.46	42703.07
477.64	42871.59
477.82	43187.56
478.00	43669.72
478.18	42553.28
478.36	42478.38
478.54	42389.44
478.72	42768.61
478.90	43576.09
479.08	44879.77
479.26	45294.05
479.44	45167.66
479.62	44612.95
479.80	44577.84
479.98	45808.96
480.16	45851.09
480.34	45242.56
480.52	45694.28
480.70	45687.26
480.88	45661.51
481.06	46761.56
481.24	46431.55
481.41	47597.13
481.59	47983.32
481.77	48121.41
481.95	47620.54
482.13	47311.59
482.31	47325.63
482.49	47988.00
482.67	48004.39
482.85	47852.25
483.03	48739.32
483.21	49055.29
483.39	49317.43
483.57	48219.72
483.74	47840.55
483.92	48210.35
484.10	48210.35
484.28	49504.67
484.46	49661.49
484.64	50033.63
484.82	49258.91
485.00	48708.89
485.18	48011.41
485.35	46611.77
485.53	43510.56
485.71	40161.25
485.89	39299.94
486.07	41296.41
486.25	44814.24
486.43	46974.55
486.61	47255.42
486.78	47524.58
486.96	48055.88
487.14	49425.09
487.32	50216.19
487.50	50974.53
487.68	52350.76
487.85	52776.74
488.03	52563.75
488.21	52198.63
488.39	51430.93
488.57	50829.41
488.75	50639.83
488.92	51604.13
489.10	53886.15
489.28	54857.48
489.46	55290.48
489.64	55320.90
489.81	55419.20
489.99	54918.33
490.17	55063.44
490.35	55451.97
490.53	54822.37
490.70	54733.43
490.88	54644.49
491.06	55547.93
491.24	55480.06
491.41	54593.00
491.59	52996.75
491.77	51835.84
491.95	53441.45
492.13	54700.66
492.30	55451.97
492.48	56381.16
492.66	56697.14
492.84	56652.67
493.01	56390.53
493.19	55924.76
493.37	55707.09
493.54	55608.79
493.72	55990.30
493.90	56989.70
494.08	57584.20
494.25	58108.48
494.43	58066.35
494.61	58337.85
494.79	58447.86
494.96	58433.81
495.14	57860.38
495.32	56963.96
495.49	56409.25
495.67	57233.12
495.85	58361.26
496.02	58885.54
496.20	58759.15
496.38	58138.91
496.55	58300.40
496.73	58749.79
496.91	58787.24
497.09	59194.49
497.26	59578.34
497.44	58967.46
497.62	58504.03
497.79	57682.50
497.97	56601.18
498.14	56781.40
498.32	57722.29
498.50	58508.71
498.67	59224.92
498.85	59196.83
499.03	59147.68
499.20	59494.08
499.38	59482.37
499.56	59255.34
499.73	58890.22
499.91	58485.31
500.08	58131.89
500.26	57343.12
500.44	57874.43
500.61	58525.10
500.79	58078.05
500.97	57858.04
501.14	57858.04
501.32	57780.81
501.49	57822.93
501.67	57703.57
501.84	58314.45
502.02	58539.14
502.20	58862.13
502.37	59058.74
502.55	59044.69
502.72	59437.90
502.90	60163.47
503.07	59765.58
503.25	59250.66
503.43	58478.28
503.60	57865.06
503.78	57219.08
503.95	57616.97
504.13	58824.68
504.30	59770.26
504.48	59636.85
504.65	59409.82
504.83	59320.88
505.01	59835.80
505.18	60116.66
505.36	60781.37
505.53	60741.58
505.71	60938.19
505.88	61015.43
506.06	60622.22
506.23	60170.49
506.41	59695.36
506.58	60193.90
506.76	60027.72
506.93	60058.15
507.11	59784.30
507.28	60018.36
507.46	59597.06
507.63	59007.25
507.81	58930.01
507.98	58986.18
508.16	59749.20
508.33	60299.22
508.50	60474.76
508.68	60849.25
508.85	61125.43
509.03	61193.31
509.20	61038.83
509.38	60355.39
509.55	59571.32
509.73	59828.77
509.90	60189.22
510.08	60605.83
510.25	60465.40
510.42	60226.66
510.60	60100.28
510.77	60495.83
510.95	60818.82
511.12	61181.60
511.30	61352.46
511.47	61656.73
511.64	61502.26
511.82	61038.83
511.99	60357.74
512.17	59962.18
512.34	59667.28
512.51	59810.05
512.69	60018.36
512.86	60053.47
513.04	60470.08
513.21	60647.96
513.38	60472.42
513.56	59737.49
513.73	59224.92
513.90	59391.09
514.08	59419.18
514.25	59807.71
514.43	59896.65
514.60	60121.34
514.77	60231.35
514.95	60350.71
515.12	60219.64
515.29	60477.10
515.47	60772.01
515.64	61034.15
515.81	60732.22
515.99	59898.99
516.16	58698.30
516.33	56540.32
516.51	55295.16
516.68	54733.43
516.85	54335.54
517.03	54621.08
517.20	57006.09
517.37	59580.68
517.54	60264.11
517.72	59760.90
517.89	57626.33
518.06	55522.19
518.24	55444.95
518.41	57420.36
518.58	58983.84
518.75	59189.81
518.93	59374.71
519.10	59224.92
519.27	59725.79
519.45	59770.26
519.62	60666.69
519.79	60961.59
519.96	60643.28
520.14	60350.71
520.31	59330.24
520.48	59564.29
520.65	59749.20
520.83	60636.26
521.00	60985.00
521.17	60734.56
521.34	60278.16
521.52	60500.51
521.69	60837.54
521.86	61471.83
522.03	61275.22
522.20	60001.97
522.38	59138.32
522.55	59002.56
522.72	59765.58
522.89	59847.50
523.07	60123.68
523.24	60226.66
523.41	61041.17
523.58	61221.39
523.75	61790.14
523.92	61848.66
524.10	61719.93
524.27	61537.36
524.44	61392.25
524.61	61148.84
524.78	61024.79
524.96	60856.27
525.13	60945.21
525.30	61289.27
525.47	61542.05
525.64	61598.22
525.81	60755.63
525.98	59653.23
526.16	58408.07
526.33	57762.08
526.50	57647.39
526.67	56884.38
526.84	57759.74
527.01	58553.18
527.18	59058.74
527.36	60020.70
527.53	60956.91
527.70	61158.20
527.87	60509.87
528.04	60046.44
528.21	60631.58
528.38	61244.80
528.55	61776.10
528.72	62038.24
528.89	62232.50
529.07	61825.25
529.24	61240.12
529.41	60570.72
529.58	60027.72
529.75	60233.69
529.92	60711.16
530.09	61155.86
530.26	61523.32
530.43	61829.93
530.60	61752.69
530.77	61946.96
530.94	62225.48
531.11	61572.47
531.28	61268.20
531.46	61062.24
531.63	61123.09
531.80	61069.26
531.97	60690.09
532.14	60322.63
532.31	59131.29
532.48	58710.00
532.65	58717.02
532.82	59484.72
532.99	60336.67
533.16	60708.82
533.33	61263.52
533.50	61357.14
533.67	60559.02
533.84	59990.27
534.01	60156.45
534.18	60603.49
534.35	60762.65
534.52	60809.46
534.69	60804.78
534.86	60919.46
535.03	61345.44
535.20	61776.10
535.37	62033.56
535.54	62096.75
535.71	61595.88
535.88	61609.92
536.05	60874.99
536.22	60568.38
536.38	60378.80
536.55	59966.87
536.72	59353.65
536.89	59110.23
537.06	60067.51
537.23	61045.85
537.40	61160.54
537.57	61181.60
537.74	60928.83
537.91	60729.88
538.08	60856.27
538.25	60933.51
538.42	60921.80
538.59	60783.71
538.75	60170.49
538.92	60020.70
539.09	59882.61
539.26	59749.20
539.43	59496.42
539.60	59751.54
539.77	59906.01
539.94	59917.71
540.11	58962.78
540.28	58370.62
540.44	58794.26
540.61	58782.55
540.78	58876.18
540.95	59573.66
541.12	59840.48
541.29	60062.83
541.46	60172.83
541.62	60317.95
541.79	60254.75
541.96	59639.19
542.13	59643.87
542.30	59997.29
542.47	59922.40
542.63	59760.90
542.80	59615.79
542.97	59737.49
543.14	59788.98
543.31	59583.02
543.48	60214.96
543.64	60839.89
543.81	61174.58
543.98	60977.98
544.15	60233.69
544.32	59796.01
544.48	59973.89
544.65	60294.54
544.82	60718.18
544.99	60313.26
545.16	60041.76
545.32	59580.68
545.49	60432.63
545.66	60952.23
545.83	60374.12
546.00	60142.41
546.16	59845.16
546.33	59959.84
546.50	59817.07
546.67	60186.88
546.83	60123.68
547.00	59936.44
547.17	59372.37
547.34	58871.49
547.50	58843.41
547.67	59250.66
547.84	59168.74
548.00	59515.14
548.17	59994.95
548.34	59997.29
548.51	60060.49
548.67	59798.35
548.84	59952.82
549.01	59908.35
549.18	59803.03
549.34	59725.79
549.51	59721.11
549.68	59723.45
549.84	59426.20
550.01	59501.10
550.18	59255.34
550.34	59442.59
550.51	59496.42
550.68	59465.99
550.84	58948.73
551.01	59135.98
551.18	59042.35
551.34	59470.67
551.51	59557.27
551.68	59817.07
551.84	59922.40
552.01	59922.40
552.18	59557.27
552.34	58866.81
552.51	58590.63
552.68	58354.24
552.84	58920.65
553.01	59161.72
553.18	58864.47
553.34	59161.72
553.51	59180.45
553.67	59456.63
553.84	59526.84
554.01	59613.44
554.17	59276.41
554.34	59470.67
554.51	59559.61
554.67	59716.43
554.84	59781.96
555.00	59365.35
555.17	59082.14
555.33	59096.19
555.50	59126.61
555.67	59117.25
555.83	59011.93
556.00	58845.75
556.16	58738.08
556.33	58166.99
556.50	58052.31
556.66	58443.18
556.83	58033.58
556.99	58178.70
557.16	58305.09
557.32	58431.47
557.49	58866.81
557.65	58660.85
557.82	58623.40
557.98	58347.21
558.15	57872.09
558.32	57425.04
558.48	56395.21
558.65	56811.82
558.81	57134.82
558.98	57322.06
559.14	57525.69
559.31	57528.03
559.47	57619.31
559.64	57511.64
559.80	56926.51
559.97	57097.37
560.13	57422.70
560.30	58398.71
560.46	58883.20
560.63	58885.54
560.79	58869.15
560.96	58796.60
561.12	57628.67
561.29	56760.33
561.45	56928.85
561.61	57301.00
561.78	57787.83
561.94	57815.91
562.11	57717.61
562.27	57331.42
562.44	57563.14
562.60	57961.03
562.77	58183.38
562.93	58113.16
563.10	57982.09
563.26	57296.31
563.42	57413.34
563.59	57148.86
563.75	57364.19
563.92	57322.06
564.08	57282.27
564.24	57595.90
564.41	57563.14
564.57	57563.14
564.74	57235.46
564.90	57305.68
565.07	56968.64
565.23	56701.82
565.39	56191.58
565.56	55870.93
565.72	55863.91
565.88	56446.70
566.05	56540.32
566.21	56341.38
566.38	56402.23
566.54	56739.27
566.70	56945.23
566.87	57095.03
567.03	57268.23
567.19	57558.45
567.36	57008.43
567.52	57343.12
567.68	56828.21
567.85	56243.07
568.01	55959.87
568.17	55648.58
568.34	55700.07
568.50	55569.00
568.66	55372.39
568.83	55941.14
568.99	56196.26
569.15	56381.16
569.32	56006.68
569.48	56023.06
569.64	55592.40
569.81	55391.12
569.97	55313.88
570.13	55346.65
570.30	54770.88
570.46	54436.18
570.62	53813.60
570.78	53944.67
570.95	54230.21
571.11	54838.75
571.27	55337.29
571.43	55302.18
571.60	55606.45
571.76	55718.79
571.92	56210.31
572.09	56210.31
572.25	56161.15
572.41	56069.87
572.57	55840.50
572.74	55969.23
572.90	55529.21
573.06	55681.34
573.22	55777.31
573.38	55412.18
573.55	55737.52
573.71	55880.29
573.87	55601.77
574.03	55262.39
574.20	55653.26
574.36	55264.73
574.52	55051.74
574.68	54735.77
574.84	54593.00
575.01	53911.90
575.17	54124.89
575.33	54218.51
575.49	54471.29
575.65	54911.31
575.82	54553.21
575.98	54181.06
576.14	54536.82
576.30	54831.73
576.46	54857.48
576.62	54777.90
576.79	54663.21
576.95	54340.22
577.11	54181.06
577.27	54415.11
577.43	54656.19
577.59	54052.33
577.75	53989.14
577.92	53296.34
578.08	53123.14
578.24	52746.31
578.40	53244.85
578.56	53841.68
578.72	53675.51
578.88	53626.35
579.04	53984.46
579.21	53923.60
579.37	54227.87
579.53	54148.29
579.69	54169.36
579.85	54330.86
580.01	54127.23
580.17	53591.25
580.33	53546.78
580.49	53661.46
580.65	54117.87
580.82	54017.22
580.98	54000.84
581.14	54131.91
581.30	54085.10
581.46	53883.81
581.62	54202.13
581.78	53979.78
581.94	54358.94
582.10	54216.17
582.26	54136.59
582.42	54167.02
582.58	54073.40
582.74	54017.22
582.90	54333.20
583.06	54157.66
583.22	54010.20
583.38	53808.92
583.54	53790.19
583.70	53932.96
583.86	53799.55
584.02	53712.95
584.18	54021.90
584.34	53790.19
584.50	53715.29
584.66	53514.01
584.82	53102.07
584.98	53193.36
585.14	52411.62
