SpectraSuite Data File
++++++++++++++++++++++++++++++++++++
Date: Mon Oct 07 14:53:55 GMT-05:00 2013
User: price-jones
Dark Spectrum Present: No
Reference Spectrum Present: No
Number of Sampled Component Spectra: 1
Spectrometers: USB2+H05261
Integration Time (usec): 100000 (USB2+H05261)
Spectra Averaged: 1 (USB2+H05261)
Boxcar Smoothing: 0 (USB2+H05261)
Correct for Electrical Dark: No (USB2+H05261)
Strobe/Lamp Enabled: No (USB2+H05261)
Correct for Detector Non-linearity: No (USB2+H05261)
Correct for Stray Light: No (USB2+H05261)
Number of Pixels in Processed Spectrum: 2048
>>>>>Begin Processed Spectral Data<<<<<
365.73	0.00
365.92	0.00
366.12	0.00
366.32	0.00
366.52	0.00
366.72	0.00
366.91	0.00
367.11	0.00
367.31	0.00
367.51	0.00
367.70	0.00
367.90	0.00
368.10	0.00
368.30	0.00
368.49	0.00
368.69	0.00
368.89	0.00
369.09	0.00
369.28	0.00
369.48	0.00
369.68	0.00
369.87	0.00
370.07	0.00
370.27	0.00
370.47	430.66
370.66	2813.32
370.86	3300.16
371.06	3660.60
371.25	3641.87
371.45	3492.08
371.65	3066.10
371.84	2832.05
372.04	2960.78
372.24	3307.18
372.44	3435.91
372.63	3459.31
372.83	3218.24
373.03	2818.00
373.22	2576.93
373.42	2747.79
373.62	3155.04
373.81	3487.40
374.01	3559.95
374.21	3021.63
374.40	2796.94
374.60	3009.93
374.79	3269.73
374.99	3964.87
375.19	4313.61
375.38	4397.87
375.58	3904.01
375.78	3892.31
375.97	3864.22
376.17	4187.22
376.37	4109.98
376.56	4222.33
376.76	4528.94
376.95	4777.03
377.15	5048.54
377.35	5294.29
377.54	5488.56
377.74	5589.20
377.93	5650.05
378.13	5526.00
378.33	5268.55
378.52	4652.98
378.72	4620.22
378.91	4641.28
379.11	4262.12
379.31	4248.07
379.50	4259.78
379.70	4662.35
379.89	5093.01
380.09	5348.12
380.28	5537.71
380.48	5476.85
380.68	5467.49
380.87	5324.72
381.07	4943.21
381.26	4592.13
381.46	4234.03
381.65	4042.11
381.85	4102.96
382.04	3861.88
382.24	3440.59
382.43	3506.12
382.63	3379.73
382.83	3234.62
383.02	3246.32
383.22	3365.69
383.41	3492.08
383.61	3541.23
383.80	4011.68
384.00	4617.88
384.19	5231.10
384.39	5607.92
384.58	5469.83
384.78	5252.16
384.97	5294.29
385.17	5046.20
385.36	4781.71
385.56	4468.08
385.75	4542.98
385.95	5331.74
386.14	5624.31
386.34	5451.11
386.53	5371.53
386.72	5001.72
386.92	5153.86
387.11	5313.02
387.31	5680.48
387.50	5547.07
387.70	5397.28
387.89	5327.06
388.09	5313.02
388.28	5413.66
388.48	5334.08
388.67	5898.15
388.86	6345.19
389.06	6848.41
389.25	7276.73
389.45	7211.19
389.64	7218.21
389.84	7206.51
390.03	7150.34
390.22	7155.02
390.42	7358.64
390.61	7836.11
390.81	8432.95
391.00	8568.70
391.19	8468.06
391.39	8219.96
391.58	7597.38
391.78	7138.63
391.97	6911.60
392.16	6506.69
392.36	5966.03
392.55	4798.10
392.75	3695.71
392.94	3070.78
393.13	3056.74
393.33	3517.83
393.52	4547.66
393.71	5593.88
393.91	6602.65
394.10	6906.92
394.29	7667.60
394.49	8081.87
394.68	8973.61
394.88	8856.59
395.07	9121.07
395.26	8950.21
395.46	8828.50
395.65	8358.05
395.84	7447.58
396.04	6174.33
396.23	4954.91
396.42	4189.56
396.62	3978.91
396.81	4531.28
397.00	6108.80
397.19	7506.10
397.39	8931.48
397.58	9806.84
397.77	10684.55
397.97	10977.11
398.16	11213.51
398.35	11543.52
398.55	11808.00
398.74	12547.61
398.93	12514.84
399.12	12400.16
399.32	11943.75
399.51	12166.10
399.70	13043.81
399.90	12917.42
400.09	12835.50
400.28	12872.95
400.47	12849.54
400.67	13659.37
400.86	14270.25
401.05	13963.64
401.24	13837.25
401.44	13977.68
401.63	14389.61
401.82	14279.61
402.01	14534.73
402.21	14190.67
402.40	14731.33
402.59	14183.65
402.78	13593.83
402.97	12975.93
403.17	13523.62
403.36	14167.26
403.55	14794.53
403.74	15075.39
403.93	14487.92
404.13	13268.50
404.32	13097.64
404.51	13511.91
404.70	14911.55
404.89	14710.27
405.09	14527.71
405.28	14148.54
405.47	13818.52
405.66	14024.49
405.85	13547.02
406.05	13359.78
406.24	13371.48
406.43	13916.83
406.62	14420.04
406.81	14771.12
407.00	14094.71
407.20	13919.17
407.39	13919.17
407.58	14787.50
407.77	15185.40
407.96	15517.75
408.15	15435.83
408.34	15758.83
408.54	16585.04
408.73	16702.06
408.92	16386.09
409.11	15754.15
409.30	15138.58
409.49	14286.63
409.68	13310.63
409.87	12931.46
410.07	13923.85
410.26	14710.27
410.45	15616.05
410.64	16121.61
410.83	16755.90
411.02	17231.02
411.21	17755.30
411.40	17790.41
411.59	17408.90
411.78	17385.50
411.98	17233.36
412.17	17703.81
412.36	17207.62
412.55	17310.60
412.74	17032.08
412.93	16397.79
413.12	16542.91
413.31	18218.73
413.50	18188.30
413.69	18731.31
413.88	18082.98
414.07	17448.69
414.26	17781.05
414.45	18183.62
414.64	18260.86
414.83	18412.99
415.02	18064.25
415.22	18017.44
415.41	18445.76
415.60	19103.45
415.79	19482.62
415.98	20348.62
416.17	20423.51
416.36	19822.00
416.55	19274.31
416.74	18562.79
416.93	18171.92
417.12	17972.97
417.31	18696.20
417.50	18625.98
417.69	19220.48
417.88	19686.25
418.07	19154.94
418.26	18897.49
418.45	18710.24
418.64	19644.12
418.83	20016.26
419.02	20121.59
419.21	19995.20
419.39	19204.10
419.58	18134.47
419.77	18242.14
419.96	18724.29
420.15	20292.44
420.34	20690.34
420.53	21238.02
420.72	21443.99
420.91	21422.92
421.10	21401.86
421.29	21317.60
421.48	20219.89
421.67	21336.32
421.86	20952.48
422.05	19728.38
422.24	17434.65
422.43	17116.34
422.61	19044.94
422.80	20666.93
422.99	20573.31
423.18	19997.54
423.37	19562.20
423.56	19424.11
423.75	19730.72
423.94	20201.16
424.13	19201.76
424.32	19304.74
424.50	19009.83
424.69	19325.80
424.88	19208.78
425.07	19049.62
425.26	19260.27
425.45	18970.04
425.64	18396.61
425.83	18679.82
426.01	20147.33
426.20	19903.92
426.39	19866.47
426.58	18682.16
426.77	17385.50
426.96	16549.93
427.15	17362.09
427.33	18644.71
427.52	19435.81
427.71	19592.62
427.90	19255.59
428.09	19040.26
428.28	18822.59
428.46	17902.76
428.65	17832.54
428.84	17996.38
429.03	18373.21
429.22	17212.30
429.40	16762.92
429.59	14951.34
429.78	13348.08
429.97	13153.81
430.16	13289.56
430.34	13591.49
430.53	13362.12
430.72	13762.35
430.91	15548.18
431.10	18174.26
431.28	20851.83
431.47	22682.13
431.66	23150.24
431.85	21273.13
432.03	19264.95
432.22	18319.37
432.41	19307.08
432.60	21366.75
432.79	22267.86
432.97	22724.26
433.16	22199.98
433.35	20467.98
433.54	18141.49
433.72	17228.68
433.91	17511.89
434.10	19552.84
434.28	21298.88
434.47	22621.28
434.66	21907.41
434.85	21415.90
435.03	21303.56
435.22	21855.92
435.41	23049.60
435.59	22918.53
435.78	23578.56
435.97	24072.41
436.16	24252.63
436.34	23388.97
436.53	23192.37
436.72	23452.17
436.90	22085.30
437.09	22012.74
437.28	21724.85
437.46	22567.45
437.65	22576.81
437.84	21249.72
438.02	19054.30
438.21	19271.97
438.40	19852.42
438.58	21881.67
438.77	22104.02
438.96	22766.39
439.14	23452.17
439.33	23857.08
439.52	24325.19
439.70	24170.71
439.89	23520.04
440.08	22845.97
440.26	22607.23
440.45	23662.82
440.63	24992.24
440.82	26300.60
441.01	26162.51
441.19	25535.24
441.38	26001.01
441.57	27187.66
441.75	27384.27
441.94	27835.99
442.12	27030.85
442.31	27920.25
442.50	27665.13
442.68	27597.26
442.87	27356.18
443.05	26632.96
443.24	26850.63
443.43	27742.37
443.61	28081.75
443.80	28622.41
443.98	26878.71
444.17	26902.12
444.35	28498.36
444.54	28936.04
444.73	28629.43
444.91	27400.65
445.10	26618.91
445.28	25385.45
445.47	24566.26
445.65	24641.16
445.84	25635.89
446.02	26834.24
446.21	27049.57
446.39	27276.60
446.58	27412.35
446.77	27821.95
446.95	28130.90
447.14	28793.27
447.32	29460.32
447.51	28542.83
447.69	27545.76
447.88	26941.91
448.06	27667.47
448.25	28652.84
448.43	28343.89
448.62	28271.33
448.80	27885.14
448.99	27864.08
449.17	27971.74
449.36	28032.60
449.54	29144.35
449.73	29717.78
449.91	29874.60
450.10	30639.95
450.28	30984.01
450.46	30939.54
450.65	31166.57
450.83	30672.72
451.02	30216.32
451.20	29905.02
451.39	29713.10
451.57	29645.23
451.76	30087.59
451.94	29670.97
452.13	29041.37
452.31	27737.69
452.49	26553.38
452.68	26817.86
452.86	26735.94
453.05	27424.06
453.23	28020.89
453.42	28840.08
453.60	29713.10
453.78	29689.70
453.97	29743.53
454.15	29254.36
454.34	28411.76
454.52	29010.94
454.70	28238.56
454.89	28837.74
455.07	28584.96
455.26	29034.35
455.44	30408.24
455.62	31023.80
455.81	30932.52
455.99	30611.87
456.17	30616.55
456.36	30441.01
456.54	31391.26
456.73	31131.47
456.91	31852.35
457.09	32044.27
457.28	32519.40
457.46	31491.91
457.64	31026.14
457.83	30270.15
458.01	29015.62
458.19	30103.97
458.38	29860.55
458.56	31431.05
458.74	31232.11
458.93	30609.53
459.11	30457.39
459.29	30029.07
459.48	30415.26
459.66	30045.46
459.84	30466.75
460.03	30890.39
460.21	31180.62
460.39	31976.40
460.57	31952.99
460.76	31983.42
460.94	32002.14
461.12	32037.25
461.31	31721.28
461.49	31796.18
461.67	31651.06
461.85	32631.75
462.04	32531.11
462.22	33420.51
462.40	32542.81
462.59	32519.40
462.77	32741.75
462.95	32327.48
463.13	32346.20
463.32	31917.89
463.50	31517.65
463.68	31744.69
463.86	31983.42
464.05	31042.53
464.23	30951.24
464.41	30211.64
464.59	29912.05
464.78	31447.44
464.96	31033.16
465.14	31021.46
465.32	31648.72
465.50	32755.80
465.69	33151.35
465.87	32306.41
466.05	31363.18
466.23	30178.87
466.41	28863.49
466.60	30188.23
466.78	30272.49
466.96	30670.38
467.14	31358.50
467.32	31651.06
467.51	31798.52
467.69	30286.53
467.87	30948.90
468.05	31622.98
468.23	31491.91
468.41	31323.39
468.60	30965.29
468.78	31885.12
468.96	31407.65
469.14	32079.38
469.32	31971.72
469.50	30841.24
469.69	30984.01
469.87	30518.25
470.05	30401.22
470.23	30644.63
470.41	30747.62
470.59	30689.10
470.77	31229.77
470.95	31400.63
471.14	32212.79
471.32	32334.50
471.50	34202.25
471.68	33914.36
471.86	34419.92
472.04	34838.87
472.22	34749.93
472.40	32917.29
472.58	32378.97
472.77	32568.55
472.95	33134.96
473.13	33521.15
473.31	33097.52
473.49	32868.14
473.67	33853.51
473.85	33617.11
474.03	34948.88
474.21	34782.70
474.39	34881.00
474.57	35381.88
474.75	35236.77
474.93	35084.63
475.12	33970.54
475.30	34314.59
475.48	34176.50
475.66	34953.56
475.84	34658.65
476.02	34047.77
476.20	33455.62
476.38	34527.58
476.56	35145.48
476.74	36009.14
476.92	36030.21
477.10	36510.02
477.28	37488.36
477.46	37785.61
477.64	38218.61
477.82	37909.66
478.00	38007.96
478.18	37352.61
478.36	37663.90
478.54	37556.24
478.72	37399.42
478.90	38960.56
479.08	39358.45
479.26	40100.40
479.44	40175.30
479.62	39686.12
479.80	39667.40
479.98	40254.87
480.16	40072.31
480.34	39613.57
480.52	40011.46
480.70	40376.58
480.88	40313.39
481.06	41230.88
481.24	41556.21
481.41	42471.36
481.59	42836.48
481.77	42328.59
481.95	42211.56
482.13	41659.20
482.31	42129.64
482.49	42462.00
482.67	42284.12
482.85	42986.28
483.03	43253.10
483.21	44018.46
483.39	43461.41
483.57	42815.42
483.74	42904.36
483.92	42934.79
484.10	42960.53
484.28	44271.23
484.46	44669.12
484.64	44811.90
484.82	43697.80
485.00	43777.38
485.18	42543.92
485.35	41270.67
485.53	38698.42
485.71	35056.54
485.89	34504.18
486.07	36245.54
486.25	39206.31
486.43	41720.05
486.61	42171.77
486.78	42431.57
486.96	42284.12
487.14	44198.68
487.32	44910.20
487.50	46230.26
487.68	47140.73
487.85	47505.85
488.03	47805.44
488.21	47096.26
488.39	46920.72
488.57	45860.46
488.75	45265.96
488.92	46735.82
489.10	48854.00
489.28	50443.23
489.46	51269.43
489.64	50869.20
489.81	51140.71
489.99	50782.60
490.17	50754.52
490.35	50766.22
490.53	50747.50
490.70	50061.72
490.88	50216.19
491.06	51079.85
491.24	51124.32
491.41	50164.70
491.59	48151.84
491.77	47114.98
491.95	48385.89
492.13	49705.96
492.30	50885.59
492.48	52072.24
492.66	52683.12
492.84	52568.43
493.01	52399.91
493.19	51847.55
493.37	51550.30
493.54	51054.11
493.72	52037.13
493.90	52868.02
494.08	53727.00
494.25	53881.47
494.43	54183.40
494.61	54508.74
494.79	54759.17
494.96	54548.53
495.14	53799.55
495.32	52456.09
495.49	52044.15
495.67	53282.30
495.85	54759.17
496.02	55018.97
496.20	55234.30
496.38	54454.90
496.55	54251.28
496.73	54813.01
496.91	54721.72
497.09	55730.50
497.26	55601.77
497.44	55313.88
497.62	54623.42
497.79	53893.18
497.97	52493.54
498.14	52624.60
498.32	53785.51
498.50	54906.63
498.67	55496.44
498.85	55337.29
499.03	55653.26
499.20	55566.66
499.38	55543.25
499.56	55346.65
499.73	55084.51
499.91	54614.06
500.08	54375.33
500.26	53123.14
500.44	53972.75
500.61	54459.58
500.79	54227.87
500.97	53860.41
501.14	53886.15
501.32	53687.21
501.49	53935.30
501.67	53944.67
501.84	54588.31
502.02	54817.69
502.20	54976.84
502.37	55068.12
502.55	55131.32
502.72	55889.65
502.90	56278.18
503.07	55866.25
503.25	55444.95
503.43	54618.74
503.60	54080.42
503.78	53052.92
503.95	53977.43
504.13	55110.25
504.30	55877.95
504.48	55891.99
504.65	55234.30
504.83	55395.80
505.01	56233.71
505.18	56357.76
505.36	56947.57
505.53	57162.90
505.71	57088.01
505.88	57212.06
506.06	56725.22
506.23	56353.08
506.41	55964.55
506.58	56390.53
506.76	56296.91
506.93	56266.48
507.11	55980.93
507.28	56069.87
507.46	55950.51
507.63	54946.42
507.81	54852.80
507.98	55096.21
508.16	55791.35
508.33	56383.51
508.50	56699.48
508.68	56996.73
508.85	57551.43
509.03	57317.38
509.20	57425.04
509.38	56617.56
509.55	55702.41
509.73	56128.39
509.90	56322.65
510.08	56708.84
510.25	56612.88
510.42	56189.24
510.60	56374.14
510.77	56779.06
510.95	57120.77
511.12	57144.18
511.30	57532.71
511.47	57631.01
511.64	57771.44
511.82	57551.43
511.99	56633.94
512.17	56346.06
512.34	55634.53
512.51	56179.88
512.69	56252.44
512.86	56378.82
513.04	56879.70
513.21	56825.87
513.38	56498.19
513.56	55744.54
513.73	55035.36
513.90	55318.56
514.08	55454.31
514.25	55648.58
514.43	56135.41
514.60	56142.43
514.77	56341.38
514.95	56523.94
515.12	56427.98
515.29	56416.27
515.47	56893.74
515.64	57219.08
515.81	56870.34
515.99	56252.44
516.16	54962.80
516.33	52423.32
516.51	50728.77
516.68	49684.89
516.85	49174.66
517.03	49478.92
517.20	52823.55
517.37	55269.41
517.54	56264.14
517.72	55973.91
517.89	53247.19
518.06	50391.73
518.24	51091.55
518.41	53357.19
518.58	54974.50
518.75	55063.44
518.93	55185.15
519.10	55264.73
519.27	55449.63
519.45	55894.33
519.62	56633.94
519.79	56830.55
519.96	56573.09
520.14	56376.48
520.31	55398.14
520.48	55604.11
520.65	55601.77
520.83	56750.97
521.00	57216.74
521.17	56706.50
521.34	56207.97
521.52	56718.20
521.69	57301.00
521.86	57602.92
522.03	57354.83
522.20	55973.91
522.38	54946.42
522.55	54983.86
522.72	55786.67
522.89	55721.13
523.07	55924.76
523.24	56423.29
523.41	57092.69
523.58	57436.75
523.75	57932.94
523.92	57984.43
524.10	57715.27
524.27	57698.89
524.44	57701.23
524.61	57193.33
524.78	56886.72
524.96	57244.82
525.13	56935.87
525.30	57368.87
525.47	57790.17
525.64	57640.37
525.81	56989.70
525.98	55688.37
526.16	53853.39
526.33	52879.72
526.50	53008.45
526.67	52580.13
526.84	53179.31
527.01	54422.14
527.18	54904.29
527.36	55868.59
527.53	56858.63
527.70	57106.73
527.87	56552.02
528.04	56161.15
528.21	56636.28
528.38	57106.73
528.55	57902.51
528.72	58218.49
528.89	58450.20
529.07	58014.86
529.24	57485.90
529.41	56736.93
529.58	56095.62
529.75	56233.71
529.92	56678.41
530.09	57195.67
530.26	57682.50
530.43	57687.18
530.60	57862.72
530.77	58237.21
530.94	58075.71
531.11	57834.64
531.28	57401.64
531.46	56952.26
531.63	57368.87
531.80	57125.46
531.97	56786.08
532.14	56123.71
532.31	54953.44
532.48	53972.75
532.65	54326.17
532.82	55166.43
532.99	56226.69
533.16	56676.07
533.33	57425.04
533.50	57043.54
533.67	56488.83
533.84	56107.32
534.01	56222.01
534.18	56463.08
534.35	56697.14
534.52	56381.16
534.69	56626.92
534.86	57043.54
535.03	57200.35
535.20	57565.48
535.37	57897.83
535.54	58096.78
535.71	57900.17
535.88	57464.83
536.05	56699.48
536.22	56439.68
536.38	56058.17
536.55	55615.81
536.72	55157.06
536.89	55274.09
537.06	55957.53
537.23	56631.60
537.40	57055.24
537.57	56961.62
537.74	56662.03
537.91	56547.34
538.08	56430.32
538.25	56851.61
538.42	56760.33
538.59	56788.42
538.75	56170.52
538.92	55976.25
539.09	55723.47
539.26	55491.76
539.43	55323.24
539.60	55344.31
539.77	55348.99
539.94	55297.50
540.11	54644.49
540.28	53769.13
540.44	53989.14
540.61	54370.64
540.78	54564.91
540.95	54925.35
541.12	55367.71
541.29	55863.91
541.46	55959.87
541.62	56023.06
541.79	55929.44
541.96	55302.18
542.13	55351.33
542.30	55601.77
542.47	55606.45
542.63	55545.59
542.80	55000.25
542.97	55512.83
543.14	55351.33
543.31	55290.48
543.48	55840.50
543.64	56734.59
543.81	56865.66
543.98	56921.83
544.15	56079.24
544.32	55255.37
544.48	55449.63
544.65	56130.73
544.82	56273.50
544.99	55952.85
545.16	55636.87
545.32	55620.49
545.49	56172.86
545.66	56491.17
545.83	56128.39
546.00	55536.23
546.16	55494.10
546.33	55545.59
546.50	55648.58
546.67	55884.97
546.83	55515.17
547.00	55721.13
547.17	54850.45
547.34	54176.38
547.50	54223.19
547.67	54688.96
547.84	54841.09
548.00	54981.52
548.17	55501.12
548.34	55444.95
548.51	55409.84
548.67	55571.34
548.84	55798.37
549.01	55543.25
549.18	55421.55
549.34	55229.62
549.51	55454.31
549.68	55311.54
549.84	54997.91
550.01	54829.39
550.18	55051.74
550.34	55243.66
550.51	54983.86
550.68	55246.00
550.84	54321.49
551.01	54471.29
551.18	54780.24
551.34	54857.48
551.51	55243.66
551.68	55784.33
551.84	55503.46
552.01	55421.55
552.18	55131.32
552.34	54482.99
552.51	54040.63
552.68	53787.85
552.84	54518.10
553.01	54578.95
553.18	54466.61
553.34	54735.77
553.51	54798.96
553.67	55189.83
553.84	55309.20
554.01	55229.62
554.17	54515.76
554.34	54836.41
554.51	55061.10
554.67	55545.59
554.84	55093.87
555.00	54834.07
555.17	54396.39
555.33	54534.48
555.50	54550.87
555.67	54679.60
555.83	54384.69
556.00	54216.17
556.16	54068.72
556.33	53799.55
556.50	53289.32
556.66	53584.22
556.83	53092.71
556.99	53450.81
557.16	53511.67
557.32	53860.41
557.49	54089.78
557.65	53853.39
557.82	53914.24
557.98	53787.85
558.15	53228.46
558.32	52215.01
558.48	51126.66
558.65	51613.49
558.81	51987.98
558.98	52343.74
559.14	52605.88
559.31	52750.99
559.47	52741.63
559.64	52177.56
559.80	52161.18
559.97	51966.91
560.13	52584.82
560.30	53584.22
560.46	53968.07
560.63	54340.22
560.79	54319.15
560.96	53942.33
561.12	52697.16
561.29	51358.38
561.45	52027.77
561.61	52355.44
561.78	52624.60
561.94	52715.89
562.11	52659.71
562.27	52458.43
562.44	52493.54
562.60	53088.03
562.77	53298.68
562.93	53043.56
563.10	52931.22
563.26	52301.61
563.42	52388.21
563.59	52250.12
563.75	52381.19
563.92	52233.74
564.08	52119.05
564.24	52577.79
564.41	52680.78
564.57	52626.95
564.74	52404.59
564.90	52215.01
565.07	51887.34
565.23	51821.80
565.39	51049.42
565.56	50513.44
565.72	50344.92
565.88	50798.99
566.05	50983.89
566.21	51395.82
566.38	51140.71
566.54	51444.98
566.70	51948.19
566.87	52177.56
567.03	52062.88
567.19	52535.66
567.36	52273.52
567.52	51828.82
567.68	51669.67
567.85	50808.35
568.01	50770.90
568.17	50241.94
568.34	50351.94
568.50	49839.37
568.66	49883.84
568.83	50312.16
568.99	50836.44
569.15	50955.80
569.32	51082.19
569.48	50443.23
569.64	50307.47
569.81	50073.42
569.97	50033.63
570.13	49640.42
570.30	49226.15
570.46	48790.81
570.62	47777.36
570.78	47812.46
570.95	48552.07
571.11	49179.34
571.27	49399.35
571.43	49801.92
571.60	49794.90
571.76	50234.92
571.92	50593.02
572.09	50541.53
572.25	50646.85
572.41	50831.75
572.57	50649.19
572.74	50263.00
572.90	49886.18
573.06	49970.44
573.22	49832.35
573.38	49776.17
573.55	50157.68
573.71	49734.04
573.87	49914.26
574.03	49944.69
574.20	49771.49
574.36	49317.43
574.52	49251.89
574.68	49081.03
574.84	48474.84
575.01	48037.16
575.17	47629.90
575.33	47861.61
575.49	48540.37
575.65	48523.99
575.82	48519.31
575.98	48133.12
576.14	48355.47
576.30	48856.34
576.46	48828.26
576.62	49303.38
576.79	48980.39
576.95	48339.08
577.11	48191.63
577.27	48612.93
577.43	48549.73
577.59	48123.75
577.75	47505.85
577.92	46841.14
578.08	46696.03
578.24	46490.06
578.40	47047.11
578.56	47288.18
578.72	47519.90
578.88	47557.35
579.04	47641.60
579.21	47896.72
579.37	47992.68
579.53	48168.22
579.69	48172.91
579.85	48161.20
580.01	48224.40
580.17	47320.95
580.33	47566.71
580.49	47210.95
580.65	47896.72
580.82	47936.51
580.98	47863.96
581.14	48027.79
581.30	47791.40
581.46	47606.50
581.62	47938.85
581.78	47807.78
581.94	48161.20
582.10	47966.94
582.26	48261.85
582.42	48177.59
582.58	48144.82
582.74	48437.39
582.90	48275.89
583.06	48107.37
583.22	47641.60
583.38	47915.45
583.54	47667.35
583.70	47475.43
583.86	47683.73
584.02	47283.50
584.18	47470.75
584.34	47393.51
584.50	47033.07
584.66	47166.48
584.82	46679.64
584.98	46356.65
585.14	45841.73
585.30	45301.07
