SpectraSuite Data File
++++++++++++++++++++++++++++++++++++
Date: Mon Oct 07 14:54:58 GMT-05:00 2013
User: price-jones
Dark Spectrum Present: No
Reference Spectrum Present: No
Number of Sampled Component Spectra: 1
Spectrometers: USB2+H05261
Integration Time (usec): 10000 (USB2+H05261)
Spectra Averaged: 1 (USB2+H05261)
Boxcar Smoothing: 0 (USB2+H05261)
Correct for Electrical Dark: No (USB2+H05261)
Strobe/Lamp Enabled: No (USB2+H05261)
Correct for Detector Non-linearity: No (USB2+H05261)
Correct for Stray Light: No (USB2+H05261)
Number of Pixels in Processed Spectrum: 2048
>>>>>Begin Processed Spectral Data<<<<<
365.73	0.00
365.92	0.00
366.12	0.00
366.32	0.00
366.52	0.00
366.72	0.00
366.91	0.00
367.11	0.00
367.31	0.00
367.51	0.00
367.70	0.00
367.90	0.00
368.10	0.00
368.30	0.00
368.49	0.00
368.69	0.00
368.89	0.00
369.09	0.00
369.28	0.00
369.48	0.00
369.68	0.00
369.87	0.00
370.07	0.00
370.27	0.00
370.47	0.00
370.66	433.00
370.86	587.47
371.06	662.37
371.25	613.22
371.45	482.15
371.65	435.34
371.84	376.83
372.04	498.53
372.24	582.79
372.44	606.20
372.63	519.60
372.83	524.28
373.03	409.59
373.22	440.02
373.42	454.06
373.62	500.87
373.81	695.14
374.01	608.54
374.21	507.90
374.40	496.19
374.60	545.34
374.79	587.47
374.99	641.31
375.19	835.57
375.38	699.82
375.58	737.27
375.78	638.97
375.97	662.37
376.17	702.16
376.37	603.86
376.56	819.19
376.76	835.57
376.95	926.85
377.15	1013.45
377.35	961.96
377.54	994.73
377.74	1032.18
377.93	1043.88
378.13	1071.97
378.33	866.00
378.52	933.87
378.72	858.98
378.91	823.87
379.11	791.10
379.31	685.78
379.50	802.80
379.70	910.47
379.89	1006.43
380.09	1034.52
380.28	1008.77
380.48	1100.05
380.68	912.81
380.87	924.51
381.07	882.38
381.26	732.59
381.46	711.52
381.65	798.12
381.85	599.18
382.04	594.50
382.24	528.96
382.43	500.87
382.63	587.47
382.83	491.51
383.02	472.79
383.22	493.85
383.41	430.66
383.61	535.98
383.80	734.93
384.00	844.93
384.19	929.19
384.39	992.39
384.58	917.49
384.78	1001.75
384.97	961.96
385.17	842.59
385.36	779.40
385.56	718.54
385.75	786.42
385.95	968.98
386.14	936.21
386.34	950.26
386.53	884.72
386.72	823.87
386.92	870.68
387.11	924.51
387.31	858.98
387.50	950.26
387.70	922.17
387.89	858.98
388.09	884.72
388.28	908.13
388.48	1013.45
388.67	1090.69
388.86	1107.07
389.06	1177.29
389.25	1263.89
389.45	1355.17
389.64	1245.16
389.84	1320.06
390.03	1270.91
390.22	1320.06
390.42	1275.59
390.61	1383.26
390.81	1423.05
391.00	1549.43
391.19	1418.36
391.39	1486.24
391.58	1224.10
391.78	1261.55
391.97	1167.93
392.16	1107.07
392.36	992.39
392.55	676.41
392.75	512.58
392.94	402.57
393.13	423.64
393.33	559.39
393.52	807.48
393.71	952.60
393.91	1018.13
394.10	1226.44
394.29	1299.00
394.49	1425.39
394.68	1504.96
394.88	1523.69
395.07	1659.44
395.26	1621.99
395.46	1474.54
395.65	1427.73
395.84	1170.27
396.04	978.34
396.23	732.59
396.42	568.75
396.62	615.56
396.81	732.59
397.00	931.53
397.19	1254.53
397.39	1526.03
397.58	1732.00
397.77	1947.33
397.97	1952.01
398.16	1944.99
398.35	2101.80
398.55	2012.86
398.74	2200.10
398.93	2092.44
399.12	2139.25
399.32	2064.35
399.51	2141.59
399.70	2335.85
399.90	2209.47
400.09	2249.25
400.28	2181.38
400.47	2207.13
400.67	2284.36
400.86	2450.54
401.05	2385.01
401.24	2286.70
401.44	2396.71
401.63	2382.67
401.82	2476.29
402.01	2375.64
402.21	2548.84
402.40	2429.48
402.59	2349.90
402.78	2289.04
402.97	2282.02
403.17	2228.19
403.36	2342.88
403.55	2527.78
403.74	2354.58
403.93	2406.07
404.13	2246.91
404.32	2202.44
404.51	2289.04
404.70	2429.48
404.89	2462.24
405.09	2429.48
405.28	2408.41
405.47	2319.47
405.66	2214.15
405.85	2277.34
406.05	2324.15
406.24	2286.70
406.43	2211.81
406.62	2377.98
406.81	2389.69
407.00	2296.07
407.20	2235.21
407.39	2244.57
407.58	2427.14
407.77	2546.50
407.96	2504.37
408.15	2649.49
408.34	2560.55
408.54	2623.74
408.73	2630.76
408.92	2626.08
409.11	2574.59
409.30	2424.80
409.49	2223.51
409.68	2076.06
409.87	2129.89
410.07	2160.31
410.26	2300.75
410.45	2595.65
410.64	2541.82
410.83	2715.02
411.02	2689.28
411.21	2874.18
411.40	2920.99
411.59	2806.30
411.78	2757.15
411.98	2754.81
412.17	2881.20
412.36	2686.94
412.55	2626.08
412.74	2605.02
412.93	2621.40
413.12	2679.91
413.31	2855.45
413.50	2857.79
413.69	2853.11
413.88	2757.15
414.07	2836.73
414.26	2820.35
414.45	2717.36
414.64	2925.67
414.83	2827.37
415.02	2677.57
415.22	2794.60
415.41	2876.52
415.60	3185.47
415.79	3126.96
415.98	3108.23
416.17	3227.60
416.36	3021.63
416.55	2981.84
416.74	2822.69
416.93	2780.56
417.12	2773.53
417.31	3028.65
417.50	2750.13
417.69	2993.55
417.88	2916.31
418.07	2850.77
418.26	2780.56
418.45	2860.13
418.64	3021.63
418.83	3023.97
419.02	3096.53
419.21	3030.99
419.39	2808.64
419.58	2733.75
419.77	2670.55
419.96	2951.42
420.15	2984.18
420.34	3080.14
420.53	3150.36
420.72	3321.22
420.91	3215.90
421.10	3117.59
421.29	3056.74
421.48	3028.65
421.67	3094.19
421.86	2930.35
422.05	2876.52
422.24	2663.53
422.43	2546.50
422.61	2878.86
422.80	3063.76
422.99	3101.21
423.18	2939.71
423.37	2803.96
423.56	2923.33
423.75	2796.94
423.94	3021.63
424.13	2841.41
424.32	2874.18
424.50	2677.57
424.69	2881.20
424.88	2939.71
425.07	2853.11
425.26	2850.77
425.45	2628.42
425.64	2712.68
425.83	2696.30
426.01	2825.03
426.20	2796.94
426.39	3070.78
426.58	2530.12
426.77	2448.20
426.96	2366.28
427.15	2530.12
427.33	2722.04
427.52	2782.90
427.71	2782.90
427.90	2796.94
428.09	2757.15
428.28	2738.43
428.46	2434.16
428.65	2502.03
428.84	2605.02
429.03	2684.59
429.22	2342.88
429.40	2263.30
429.59	2090.10
429.78	1879.45
429.97	1842.00
430.16	1853.70
430.34	1870.09
430.53	1792.85
430.72	1968.39
430.91	2059.67
431.10	2476.29
431.28	2972.48
431.47	3255.69
431.66	3173.77
431.85	2871.84
432.03	2658.85
432.22	2616.72
432.41	2733.75
432.60	3030.99
432.79	3164.40
432.97	3241.64
433.16	3096.53
433.35	2881.20
433.54	2546.50
433.72	2487.99
433.91	2553.52
434.10	2684.59
434.28	2864.82
434.47	2958.44
434.66	3054.40
434.85	2951.42
435.03	3056.74
435.22	3075.46
435.41	3178.45
435.59	3183.13
435.78	3304.84
435.97	3222.92
436.16	3337.60
436.34	3328.24
436.53	3297.81
436.72	3258.03
436.90	2946.73
437.09	3070.78
437.28	3042.70
437.46	3075.46
437.65	3056.74
437.84	2848.43
438.02	2609.70
438.21	2628.42
438.40	2768.85
438.58	3021.63
438.77	3035.67
438.96	3098.87
439.14	3288.45
439.33	3152.70
439.52	3314.20
439.70	3232.28
439.89	3061.42
440.08	3105.89
440.26	3040.36
440.45	3197.17
440.63	3424.20
440.82	3536.55
441.01	3538.89
441.19	3489.74
441.38	3641.87
441.57	3623.15
441.75	3611.45
441.94	3719.11
442.12	3552.93
442.31	3761.24
442.50	3723.79
442.68	3852.52
442.87	3609.11
443.05	3604.42
443.24	3627.83
443.43	3765.92
443.61	3819.75
443.80	3698.05
443.98	3548.25
444.17	3585.70
444.35	3817.41
444.54	3815.07
444.73	3744.86
444.91	3705.07
445.10	3559.95
445.28	3435.91
445.47	3307.18
445.65	3332.92
445.84	3424.20
446.02	3485.06
446.21	3590.38
446.39	3548.25
446.58	3751.88
446.77	3662.94
446.95	3798.69
447.14	3927.42
447.32	3932.10
447.51	3719.11
447.69	3712.09
447.88	3545.91
448.06	3632.51
448.25	3585.70
448.43	3740.18
448.62	3550.59
448.80	3552.93
448.99	3695.71
449.17	3618.47
449.36	3749.54
449.54	3948.48
449.73	3929.76
449.91	4009.34
450.10	4049.13
450.28	4077.21
450.46	4182.54
450.65	4095.94
450.83	3971.89
451.02	3861.88
451.20	4046.79
451.39	3758.90
451.57	3939.12
451.76	4011.68
451.94	3658.26
452.13	3735.50
452.31	3588.04
452.49	3428.88
452.68	3435.91
452.86	3487.40
453.05	3337.60
453.23	3648.90
453.42	3712.09
453.60	3672.30
453.78	3824.44
453.97	3742.52
454.15	3779.97
454.34	3688.68
454.52	3482.72
454.70	3684.00
454.89	3644.21
455.07	3691.02
455.26	3679.32
455.44	3852.52
455.62	3873.59
455.81	3859.54
455.99	3824.44
456.17	3861.88
456.36	3892.31
456.54	3962.53
456.73	4039.76
456.91	4058.49
457.09	4032.74
457.28	4222.33
457.46	4009.34
457.64	3894.65
457.83	3859.54
458.01	3639.53
458.19	3824.44
458.38	3833.80
458.56	3873.59
458.74	3845.50
458.93	3812.73
459.11	3730.81
459.29	3754.22
459.48	3892.31
459.66	3801.03
459.84	3833.80
460.03	3896.99
460.21	3918.06
460.39	3861.88
460.57	3873.59
460.76	3948.48
460.94	3997.64
461.12	3988.27
461.31	3875.93
461.49	4018.70
461.67	3988.27
461.85	4154.45
462.04	3999.98
462.22	3957.85
462.40	3981.25
462.59	4105.30
462.77	3950.82
462.95	3915.72
463.13	3894.65
463.32	3969.55
463.50	3873.59
463.68	3786.99
463.86	4014.02
464.05	3754.22
464.23	3754.22
464.41	3740.18
464.59	3585.70
464.78	3873.59
464.96	3765.92
465.14	3765.92
465.32	3754.22
465.50	3817.41
465.69	3927.42
465.87	3896.99
466.05	3789.33
466.23	3676.98
466.41	3550.59
466.60	3735.50
466.78	3646.55
466.96	3751.88
467.14	3719.11
467.32	3840.82
467.51	3882.95
467.69	3637.19
467.87	3688.68
468.05	3747.20
468.23	3744.86
468.41	3838.48
468.60	3859.54
468.78	3801.03
468.96	3740.18
469.14	3878.27
469.32	3859.54
469.50	3651.24
469.69	3623.15
469.87	3597.40
470.05	3639.53
470.23	3641.87
470.41	3651.24
470.59	3770.60
470.77	3730.81
470.95	3749.54
471.14	3894.65
471.32	3981.25
471.50	4014.02
471.68	4018.70
471.86	4156.79
472.04	4037.42
472.22	4175.52
472.40	3892.31
472.58	3854.86
472.77	3866.56
472.95	3922.74
473.13	3976.57
473.31	3747.20
473.49	3967.21
473.67	3904.01
473.85	3964.87
474.03	4154.45
474.21	4126.36
474.39	4011.68
474.57	4280.84
474.75	4100.62
474.93	4149.77
475.12	4072.53
475.30	4112.32
475.48	4152.11
475.66	4032.74
475.84	4154.45
476.02	4009.34
476.20	4023.38
476.38	3995.29
476.56	4161.47
476.74	4086.58
476.92	4212.96
477.10	4252.75
477.28	4489.15
477.46	4292.54
477.64	4388.50
477.82	4566.39
478.00	4348.72
478.18	4348.72
478.36	4468.08
478.54	4372.12
478.72	4397.87
478.90	4491.49
479.08	4652.98
479.26	4849.59
479.44	4699.80
479.62	4648.30
479.80	4655.33
479.98	4720.86
480.16	4861.29
480.34	4734.90
480.52	4718.52
480.70	4594.47
480.88	4777.03
481.06	4922.15
481.24	4994.70
481.41	5029.81
481.59	5179.61
481.77	4896.40
481.95	4847.25
482.13	4908.10
482.31	4898.74
482.49	5144.50
482.67	5097.69
482.85	5006.41
483.03	5027.47
483.21	5060.24
483.39	5060.24
483.57	4980.66
483.74	5020.45
483.92	4936.19
484.10	5064.92
484.28	5156.20
484.46	5247.48
484.64	5369.19
484.82	5107.05
485.00	4971.30
485.18	4987.68
485.35	4709.16
485.53	4332.33
485.71	3798.69
485.89	3796.35
486.07	4131.05
486.25	4575.75
486.43	4868.31
486.61	4837.89
486.78	4894.06
486.96	5036.83
487.14	5224.08
487.32	5327.06
487.50	5418.34
487.68	5465.15
487.85	5453.45
488.03	5570.48
488.21	5380.89
488.39	5273.23
488.57	5210.03
488.75	5235.78
488.92	5518.98
489.10	5753.04
489.28	5914.53
489.46	6118.16
489.64	5984.75
489.81	6221.14
489.99	6099.44
490.17	6029.22
490.35	6139.23
490.53	6085.39
490.70	5879.43
490.88	5905.17
491.06	6115.82
491.24	6195.40
491.41	5870.06
491.59	5710.91
491.77	5565.79
491.95	5736.65
492.13	5928.58
492.30	6195.40
492.48	6310.08
492.66	6221.14
492.84	6464.56
493.01	6228.17
493.19	6104.12
493.37	6134.54
493.54	6092.41
493.72	6171.99
493.90	6473.92
494.08	6609.67
494.25	6771.17
494.43	6817.98
494.61	6899.90
494.79	6752.45
494.96	6942.03
495.14	6604.99
495.32	6293.70
495.49	6314.77
495.67	6417.75
495.85	6747.76
496.02	6698.61
496.20	6892.88
496.38	6869.47
496.55	6635.42
496.73	6857.77
496.91	6888.20
497.09	6995.86
497.26	7159.70
497.44	6942.03
497.62	6710.32
497.79	6473.92
497.97	6284.34
498.14	6431.79
498.32	6450.52
498.50	6932.67
498.67	7019.27
498.85	6995.86
499.03	6965.43
499.20	7136.29
499.38	7126.93
499.56	6920.96
499.73	6548.82
499.91	6574.56
500.08	6560.52
500.26	6354.55
500.44	6581.59
500.61	6607.33
500.79	6712.66
500.97	6647.12
501.14	6548.82
501.32	6399.02
501.49	6569.88
501.67	6644.78
501.84	6544.14
502.02	6633.08
502.20	6775.85
502.37	6825.00
502.55	6764.15
502.72	7063.74
502.90	7101.19
503.07	7159.70
503.25	6902.24
503.43	6572.22
503.60	6651.80
503.78	6377.96
503.95	6441.15
504.13	6569.88
504.30	7052.03
504.48	7028.63
504.65	6658.82
504.83	6801.60
505.01	6871.81
505.18	7281.41
505.36	7232.26
505.53	7178.42
505.71	7243.96
505.88	7440.56
506.06	7197.15
506.23	7115.23
506.41	6939.69
506.58	6796.92
506.76	7131.61
506.93	6946.71
507.11	6988.84
507.28	6993.52
507.46	6789.89
507.63	6700.95
507.81	6743.08
507.98	6612.01
508.16	6827.34
508.33	7152.68
508.50	7091.82
508.68	7318.86
508.85	7108.21
509.03	7190.13
509.20	7328.22
509.38	7133.95
509.55	6822.66
509.73	6808.62
509.90	7094.16
510.08	6956.07
510.25	7056.72
510.42	7124.59
510.60	7089.48
510.77	7204.17
510.95	7267.36
511.12	7068.42
511.30	7564.61
511.47	7269.70
511.64	7400.77
511.82	7485.03
511.99	7276.73
512.17	7265.02
512.34	6820.32
512.51	6869.47
512.69	6993.52
512.86	7143.32
513.04	7059.06
513.21	6946.71
513.38	7087.14
513.56	6885.86
513.73	6722.02
513.90	6871.81
514.08	6808.62
514.25	6855.43
514.43	6932.67
514.60	6794.58
514.77	6981.82
514.95	6939.69
515.12	6953.73
515.29	6986.50
515.47	6958.41
515.64	7047.35
515.81	7119.91
515.99	6939.69
516.16	6471.58
516.33	6057.31
516.51	5701.54
516.68	5624.31
516.85	5495.58
517.03	5579.84
517.20	6174.33
517.37	6595.63
517.54	6885.86
517.72	6607.33
517.89	6422.43
518.06	5678.14
518.24	5795.17
518.41	6314.77
518.58	6750.10
518.75	6530.09
518.93	6595.63
519.10	6799.26
519.27	6722.02
519.45	6984.16
519.62	6806.28
519.79	6904.58
519.96	6932.67
520.14	6942.03
520.31	6441.15
520.48	6616.69
520.65	6768.83
520.83	7012.24
521.00	7070.76
521.17	6897.56
521.34	6850.75
521.52	7047.35
521.69	7094.16
521.86	7194.81
522.03	7030.97
522.20	6815.64
522.38	6401.37
522.55	6771.17
522.72	6729.04
522.89	6738.40
523.07	6675.21
523.24	6935.01
523.41	7145.66
523.58	7382.05
523.75	7190.13
523.92	7171.40
524.10	7084.80
524.27	7164.38
524.44	7040.33
524.61	7108.21
524.78	7110.55
524.96	6998.20
525.13	6979.48
525.30	7098.84
525.47	7070.76
525.64	7143.32
525.81	6946.71
525.98	6553.50
526.16	6176.67
526.33	6155.61
526.50	5874.74
526.67	5940.28
526.84	6008.16
527.01	6193.06
527.18	6499.67
527.36	6754.79
527.53	7105.87
527.70	6916.28
527.87	6780.53
528.04	6700.95
528.21	6757.13
528.38	7021.61
528.55	7211.19
528.72	7220.55
528.89	7185.44
529.07	7304.81
529.24	6944.37
529.41	6619.04
529.58	6672.87
529.75	6614.35
529.92	6972.46
530.09	7035.65
530.26	7194.81
530.43	7288.43
530.60	7136.29
530.77	7180.76
530.94	7246.30
531.11	6911.60
531.28	7047.35
531.46	6911.60
531.63	6949.05
531.80	6916.28
531.97	6927.99
532.14	6724.36
532.31	6384.98
532.48	6286.68
532.65	6361.58
532.82	6483.28
532.99	6583.93
533.16	6897.56
533.33	7206.51
533.50	6967.77
533.67	6717.34
533.84	6677.55
534.01	6569.88
534.18	6707.98
534.35	6925.65
534.52	6920.96
534.69	6710.32
534.86	6953.73
535.03	6944.37
535.20	7070.76
535.37	7171.40
535.54	7344.60
535.71	7112.89
535.88	6979.48
536.05	6930.33
536.22	6684.57
536.38	6768.83
536.55	6466.90
536.72	6338.17
536.89	6319.45
537.06	6780.53
537.23	6738.40
537.40	6820.32
537.57	6717.34
537.74	6839.05
537.91	6740.74
538.08	6726.70
538.25	6827.34
538.42	6897.56
538.59	6736.06
538.75	6434.13
538.92	6595.63
539.09	6394.34
539.26	6328.81
539.43	6221.14
539.60	6492.65
539.77	6429.45
539.94	6305.40
540.11	6094.76
540.28	6239.87
540.44	6080.71
540.61	6232.85
540.78	6300.72
540.95	6441.15
541.12	6408.39
541.29	6635.42
541.46	6616.69
541.62	6612.01
541.79	6668.19
541.96	6202.42
542.13	6249.23
542.30	6457.54
542.47	6665.85
542.63	6443.49
542.80	6457.54
542.97	6541.80
543.14	6436.47
543.31	6366.26
543.48	6572.22
543.64	6644.78
543.81	6665.85
543.98	6715.00
544.15	6469.24
544.32	6279.66
544.48	6380.30
544.65	6417.75
544.82	6532.44
544.99	6642.44
545.16	6328.81
545.32	6370.94
545.49	6813.30
545.66	6628.40
545.83	6396.68
546.00	6597.97
546.16	6216.46
546.33	6396.68
546.50	6300.72
546.67	6361.58
546.83	6525.41
547.00	6403.71
547.17	6293.70
547.34	6073.69
547.50	6237.53
547.67	6303.06
547.84	6136.88
548.00	6342.85
548.17	6485.62
548.34	6321.79
548.51	6455.20
548.67	6595.63
548.84	6403.71
549.01	6415.41
549.18	6537.12
549.34	6452.86
549.51	6406.05
549.68	6356.90
549.84	6246.89
550.01	6274.98
550.18	6239.87
550.34	6394.34
550.51	6464.56
550.68	6354.55
550.84	6160.29
551.01	6239.87
551.18	6120.50
551.34	6090.07
551.51	6384.98
551.68	6324.13
551.84	6340.51
552.01	6253.91
552.18	6214.12
552.34	6104.12
552.51	6076.03
552.68	5954.32
552.84	6150.93
553.01	6270.30
553.18	6230.51
553.34	6263.27
553.51	6129.86
553.67	6293.70
553.84	6321.79
554.01	6375.62
554.17	6267.95
554.34	6263.27
554.51	6352.21
554.67	6176.67
554.84	6258.59
555.00	6097.10
555.17	6148.59
555.33	6134.54
555.50	6171.99
555.67	6176.67
555.83	6143.91
556.00	5951.98
556.16	6190.72
556.33	5973.05
556.50	5970.71
556.66	5926.24
556.83	5790.49
556.99	5937.94
557.16	6106.46
557.32	5991.77
557.49	5963.68
557.65	6045.60
557.82	5954.32
557.98	5930.92
558.15	5881.77
558.32	5673.46
558.48	5673.46
558.65	5654.73
558.81	5764.74
558.98	5657.07
559.14	5628.99
559.31	5811.55
559.47	5830.27
559.64	5678.14
559.80	5593.88
559.97	5561.11
560.13	5713.25
560.30	5921.56
560.46	6073.69
560.63	5947.30
560.79	6019.86
560.96	5919.21
561.12	5802.19
561.29	5685.16
561.45	5710.91
561.61	5598.56
561.78	5724.95
561.94	5743.67
562.11	5514.30
562.27	5685.16
562.44	5898.15
562.60	5823.25
562.77	5813.89
562.93	5830.27
563.10	5781.12
563.26	5640.69
563.42	5741.33
563.59	5652.39
563.75	5502.60
563.92	5734.31
564.08	5596.22
564.24	5685.16
564.41	5736.65
564.57	5717.93
564.74	5650.05
564.90	5617.29
565.07	5448.77
565.23	5404.30
565.39	5406.64
565.56	5327.06
565.72	5406.64
565.88	5413.66
566.05	5462.81
566.21	5408.98
566.38	5296.63
566.54	5366.85
566.70	5399.62
566.87	5654.73
567.03	5717.93
567.19	5563.45
567.36	5631.33
567.52	5561.11
567.68	5401.96
567.85	5544.73
568.01	5341.10
568.17	5266.21
568.34	5184.29
568.50	5284.93
568.66	5207.69
568.83	5341.10
568.99	5355.15
569.15	5394.93
569.32	5408.98
569.48	5378.55
569.64	5221.74
569.81	5179.61
569.97	5294.29
570.13	4994.70
570.30	5259.18
570.46	5067.26
570.62	5008.75
570.78	5018.11
570.95	4924.49
571.11	4905.76
571.27	5093.01
571.43	5235.78
571.60	5254.50
571.76	5064.92
571.92	5345.78
572.09	5198.33
572.25	5542.39
572.41	5376.21
572.57	5282.59
572.74	5301.31
572.90	5149.18
573.06	5249.82
573.22	5294.29
573.38	5348.12
573.55	5284.93
573.71	5132.79
573.87	5151.52
574.03	5146.84
574.20	5083.64
574.36	5188.97
574.52	5090.67
574.68	5135.14
574.84	5165.56
575.01	4891.72
575.17	4704.48
575.33	4919.81
575.49	4936.19
575.65	5050.88
575.82	4985.34
575.98	4840.23
576.14	5125.77
576.30	4933.85
576.46	5102.37
576.62	5090.67
576.79	4971.30
576.95	5132.79
577.11	4894.06
577.27	5039.17
577.43	5095.35
577.59	5001.72
577.75	4840.23
577.92	4858.95
578.08	4786.40
578.24	4566.39
578.40	4664.69
578.56	4781.71
578.72	4887.04
578.88	4833.21
579.04	4957.25
579.21	4781.71
579.37	4938.53
579.53	4964.28
579.69	4877.68
579.85	4877.68
580.01	4968.96
580.17	4961.94
580.33	4812.14
580.49	4767.67
580.65	4814.48
580.82	4865.97
580.98	4896.40
581.14	4765.33
581.30	4938.53
581.46	4936.19
581.62	4744.27
581.78	4908.10
581.94	5020.45
582.10	4931.51
582.26	4856.61
582.42	4882.36
582.58	4873.00
582.74	4975.98
582.90	4837.89
583.06	4896.40
583.22	4870.65
583.38	4823.84
583.54	4746.61
583.70	4835.55
583.86	4908.10
584.02	4957.25
584.18	4800.44
584.34	4837.89
584.50	4858.95
584.66	4781.71
584.82	4835.55
584.98	4781.71
585.14	4620.22
585.30	4503.19
585.46	4545.32
585.62	4393.19
585.78	4510.21
585.94	4559.36
586.10	4699.80
586.26	4620.22
586.42	4683.41
586.58	4629.58
586.74	4538.30
586.90	4559.36
587.06	4620.22
587.22	4547.66
587.38	4596.81
587.54	4458.72
587.70	4634.26
587.86	4465.74
588.02	4444.68
588.18	4390.84
588.34	4292.54
588.49	4131.05
588.65	3805.71
588.81	3655.92
588.97	3885.29
589.13	3840.82
589.29	3866.56
589.45	3885.29
589.61	3978.91
589.77	4149.77
589.93	4222.33
590.08	4458.72
590.24	4437.66
590.40	4491.49
590.56	4568.73
590.72	4416.59
590.88	4404.89
591.04	4245.73
591.20	4234.03
591.35	4168.49
591.51	4290.20
591.67	4311.27
591.83	4189.56
591.99	4191.90
592.15	4468.08
592.31	4325.31
592.46	4255.09
592.62	4285.52
592.78	4182.54
592.94	4262.12
593.10	4325.31
593.26	4315.95
593.41	4388.50
593.57	4250.41
593.73	3985.93
593.89	4191.90
594.05	4154.45
594.20	4105.30
594.36	4011.68
594.52	4030.40
594.68	3981.25
594.84	4009.34
594.99	4102.96
595.15	4264.46
595.31	4107.64
595.47	4208.28
595.62	4138.07
595.78	4224.67
595.94	4119.34
596.10	4236.37
596.25	4180.20
596.41	4194.24
596.57	4119.34
596.73	4081.89
596.88	4126.36
597.04	4154.45
597.20	4056.15
597.36	4088.92
597.51	4023.38
