SpectraSuite Data File
++++++++++++++++++++++++++++++++++++
Date: Mon Oct 07 14:53:05 GMT-05:00 2013
User: price-jones
Dark Spectrum Present: No
Reference Spectrum Present: No
Number of Sampled Component Spectra: 1
Spectrometers: USB2+H05261
Integration Time (usec): 100000 (USB2+H05261)
Spectra Averaged: 1 (USB2+H05261)
Boxcar Smoothing: 0 (USB2+H05261)
Correct for Electrical Dark: No (USB2+H05261)
Strobe/Lamp Enabled: No (USB2+H05261)
Correct for Detector Non-linearity: No (USB2+H05261)
Correct for Stray Light: No (USB2+H05261)
Number of Pixels in Processed Spectrum: 2048
>>>>>Begin Processed Spectral Data<<<<<
365.73	0.00
365.92	0.00
366.12	0.00
366.32	0.00
366.52	0.00
366.72	0.00
366.91	0.00
367.11	0.00
367.31	0.00
367.51	0.00
367.70	0.00
367.90	0.00
368.10	0.00
368.30	0.00
368.49	0.00
368.69	0.00
368.89	0.00
369.09	0.00
369.28	0.00
369.48	0.00
369.68	0.00
369.87	0.00
370.07	0.00
370.27	0.00
370.47	491.51
370.66	2619.06
370.86	3232.28
371.06	3543.57
371.25	3520.17
371.45	3258.03
371.65	2867.16
371.84	2588.63
372.04	2818.00
372.24	3159.72
372.44	3260.37
372.63	3176.11
372.83	2979.50
373.03	2602.68
373.22	2373.30
373.42	2581.61
373.62	2857.79
373.81	3222.92
374.01	3138.66
374.21	2890.56
374.40	2715.02
374.60	2750.13
374.79	3150.36
374.99	3595.06
375.19	3992.95
375.38	4023.38
375.58	3794.01
375.78	3742.52
375.97	3667.62
376.17	3866.56
376.37	3999.98
376.56	4128.70
376.76	4072.53
376.95	4456.38
377.15	4849.59
377.35	4868.31
377.54	5193.65
377.74	5165.56
377.93	5249.82
378.13	5114.07
378.33	4929.17
378.52	4477.44
378.72	4400.21
378.91	4198.92
379.11	4077.21
379.31	4014.02
379.50	3908.69
379.70	4334.67
379.89	4713.84
380.09	5008.75
380.28	5088.32
380.48	5137.48
380.68	5060.24
380.87	4997.04
381.07	4601.49
381.26	4301.90
381.46	3786.99
381.65	3765.92
381.85	3889.97
382.04	3632.51
382.24	3288.45
382.43	3169.09
382.63	3110.57
382.83	3169.09
383.02	3056.74
383.22	3239.30
383.41	3096.53
383.61	3323.56
383.80	3847.84
384.00	4397.87
384.19	4884.70
384.39	5341.10
384.58	4938.53
384.78	5015.77
384.97	5020.45
385.17	4650.64
385.36	4662.35
385.56	4264.46
385.75	4435.32
385.95	4877.68
386.14	5261.52
386.34	5357.49
386.53	5114.07
386.72	4880.02
386.92	4692.77
387.11	4887.04
387.31	5416.00
387.50	5308.34
387.70	5008.75
387.89	4933.85
388.09	4912.78
388.28	5097.69
388.48	5160.88
388.67	5458.13
388.86	6167.31
389.06	6476.26
389.25	6801.60
389.45	6923.30
389.64	6651.80
389.84	6787.55
390.03	6668.19
390.22	6684.57
390.42	6782.87
390.61	7344.60
390.81	7822.07
391.00	7946.12
391.19	7840.79
391.39	7744.83
391.58	7112.89
391.78	6733.72
391.97	6766.49
392.16	5947.30
392.36	5572.82
392.55	4510.21
392.75	3414.84
392.94	2897.58
393.13	2988.86
393.33	3515.48
393.52	4411.91
393.71	5516.64
393.91	6050.28
394.10	6612.01
394.29	7297.79
394.49	7831.43
394.68	8269.11
394.88	8423.59
395.07	8713.81
395.26	8545.30
395.46	8318.26
395.65	8065.49
395.84	6722.02
396.04	5823.25
396.23	4578.09
396.42	3896.99
396.62	3866.56
396.81	4521.92
397.00	5682.82
397.19	7066.08
397.39	8528.91
397.58	9652.37
397.77	10090.05
397.97	10588.58
398.16	10614.33
398.35	10841.36
398.55	11227.55
398.74	11695.66
398.93	11728.42
399.12	11599.70
399.32	11463.94
399.51	11754.17
399.70	12322.92
399.90	12170.79
400.09	12540.59
400.28	12093.55
400.47	12123.98
400.67	12978.27
400.86	12863.58
401.05	13235.73
401.24	13202.96
401.44	13511.91
401.63	13446.38
401.82	13638.30
402.01	13568.09
402.21	13582.13
402.40	13855.97
402.59	13245.09
402.78	12683.36
402.97	12386.12
403.17	13268.50
403.36	13507.23
403.55	13848.95
403.74	14324.08
403.93	13359.78
404.13	12732.51
404.32	12397.82
404.51	12926.78
404.70	14188.33
404.89	14153.22
405.09	13881.72
405.28	13453.40
405.47	13369.14
405.66	13165.51
405.85	13121.04
406.05	12919.76
406.24	12734.85
406.43	13261.48
406.62	13668.73
406.81	14005.77
407.00	13490.85
407.20	13226.37
407.39	13434.68
407.58	14143.86
407.77	14382.59
407.96	14719.63
408.15	14927.94
408.34	14927.94
408.54	15609.03
408.73	15758.83
408.92	15590.31
409.11	15286.04
409.30	14471.53
409.49	13661.71
409.68	12542.93
409.87	12067.80
410.07	12903.37
410.26	14068.96
410.45	15014.54
410.64	15522.43
410.83	15768.19
411.02	16273.74
411.21	16861.22
411.40	16629.51
411.59	16753.55
411.78	16676.32
411.98	16498.44
412.17	16819.09
412.36	16315.87
412.55	16517.16
412.74	16058.42
412.93	15658.18
413.12	16006.92
413.31	17364.43
413.50	17200.60
413.69	17769.35
413.88	17221.66
414.07	16643.55
414.26	16844.84
414.45	17390.18
414.64	17713.17
414.83	17488.48
415.02	17146.76
415.22	17284.86
415.41	17495.50
415.60	18127.45
415.79	18953.66
415.98	19491.98
416.17	19227.50
416.36	18874.08
416.55	18574.49
416.74	18207.03
416.93	17380.82
417.12	17352.73
417.31	17862.97
417.50	17914.46
417.69	18544.06
417.88	18394.27
418.07	18160.22
418.26	18012.76
418.45	18590.88
418.64	18857.70
418.83	19424.11
419.02	19197.07
419.21	19098.77
419.39	18230.43
419.58	17441.67
419.77	17338.69
419.96	18359.16
420.15	19108.13
420.34	19679.22
420.53	20475.01
420.72	20900.98
420.91	20673.95
421.10	20416.49
421.29	20318.19
421.48	19536.45
421.67	20381.38
421.86	19901.58
422.05	18448.10
422.24	16753.55
422.43	16774.62
422.61	18237.45
422.80	19789.23
422.99	19765.82
423.18	18712.58
423.37	18525.34
423.56	18625.98
423.75	19480.28
423.94	19356.23
424.13	18326.39
424.32	18452.78
424.50	18595.56
424.69	18429.38
424.88	18410.65
425.07	18476.19
425.26	18281.92
425.45	18136.81
425.64	17951.91
425.83	17987.02
426.01	18838.97
426.20	19264.95
426.39	19377.30
426.58	17827.86
426.77	16624.83
426.96	15976.50
427.15	16652.91
427.33	17919.14
427.52	18595.56
427.71	18813.23
427.90	18305.33
428.09	18450.44
428.28	18284.26
428.46	17284.86
428.65	16922.07
428.84	17593.81
429.03	17958.93
429.22	17022.72
429.40	15646.48
429.59	14384.93
429.78	12863.58
429.97	13081.25
430.16	13050.83
430.34	12884.65
430.53	13064.87
430.72	13462.76
430.91	14981.77
431.10	17303.58
431.28	20540.54
431.47	22394.25
431.66	22693.83
431.85	20428.20
432.03	18752.37
432.22	18064.25
432.41	18625.98
432.60	20690.34
432.79	21275.47
432.97	22143.81
433.16	21593.78
433.35	19360.91
433.54	17788.07
433.72	16854.20
433.91	17238.05
434.10	19126.86
434.28	20346.28
434.47	21659.32
434.66	21392.50
434.85	20589.69
435.03	20505.43
435.22	21025.03
435.41	22602.55
435.59	22651.70
435.78	22721.92
435.97	23491.96
436.16	23688.56
436.34	23068.32
436.53	22768.73
436.72	22892.78
436.90	21467.39
437.09	21535.27
437.28	21120.99
437.46	21902.73
437.65	21766.98
437.84	20121.59
438.02	18628.32
438.21	18525.34
438.40	19711.99
438.58	21280.15
438.77	22122.74
438.96	21788.05
439.14	22946.61
439.33	23515.36
439.52	23885.17
439.70	23386.63
439.89	22630.64
440.08	22120.40
440.26	22298.28
440.45	22588.51
440.63	24180.07
440.82	25565.67
441.01	24840.11
441.19	25160.76
441.38	25460.35
441.57	26239.75
441.75	26745.30
441.94	27105.74
442.12	26340.39
442.31	27426.40
442.50	27143.19
442.68	27166.60
442.87	26340.39
443.05	25958.88
443.24	26115.70
443.43	27126.81
443.61	27412.35
443.80	27948.34
443.98	26377.84
444.17	26459.76
444.35	28072.39
444.54	28325.16
444.73	28332.18
444.91	26567.42
445.10	25614.82
445.28	24910.32
445.47	24245.61
445.65	24393.06
445.84	25418.22
446.02	26080.59
446.21	26642.32
446.39	26506.57
446.58	26764.03
446.77	27426.40
446.95	27786.84
447.14	28444.53
447.32	29099.88
447.51	27875.78
447.69	26789.77
447.88	26698.49
448.06	26766.37
448.25	27676.83
448.43	28177.71
448.62	27035.53
448.80	27161.92
448.99	27768.12
449.17	28088.77
449.36	27992.81
449.54	28854.12
449.73	29390.11
449.91	29436.92
450.10	30307.60
450.28	30974.65
450.46	30668.04
450.65	30869.33
450.83	30335.68
451.02	29507.13
451.20	29778.64
451.39	29184.14
451.57	29039.03
451.76	29308.19
451.94	28929.02
452.13	28739.44
452.31	26977.01
452.49	25853.56
452.68	26375.50
452.86	26221.02
453.05	26789.77
453.23	27859.40
453.42	28088.77
453.60	28884.55
453.78	29053.07
453.97	28783.91
454.15	28556.88
454.34	28205.80
454.52	28599.01
454.70	27562.15
454.89	28580.28
455.07	28105.15
455.26	28678.58
455.44	29797.36
455.62	30583.78
455.81	30740.60
455.99	30249.08
456.17	29818.42
456.36	30000.99
456.54	31044.87
456.73	30548.67
456.91	31164.23
457.09	31866.39
457.28	32058.32
457.46	30752.30
457.64	30635.27
457.83	29479.05
458.01	29085.84
458.19	29907.37
458.38	29862.90
458.56	30834.22
458.74	30649.32
458.93	30614.21
459.11	30031.41
459.29	30073.54
459.48	30307.60
459.66	29773.95
459.84	30452.71
460.03	31140.83
460.21	30710.17
460.39	31388.92
460.57	31641.70
460.76	31915.54
460.94	31782.13
461.12	31880.44
461.31	31374.88
461.49	31625.32
461.67	31658.09
461.85	32620.05
462.04	32545.15
462.22	33151.35
462.40	32680.90
462.59	32311.10
462.77	32442.17
462.95	31936.61
463.13	32266.63
463.32	32140.24
463.50	31541.06
463.68	31749.37
463.86	31707.24
464.05	31009.76
464.23	30335.68
464.41	30710.17
464.59	30239.72
464.78	31276.58
464.96	31185.30
465.14	31000.40
465.32	31737.66
465.50	32659.84
465.69	33067.09
465.87	31854.69
466.05	31236.79
466.23	29759.91
466.41	29362.02
466.60	30256.11
466.78	29858.21
466.96	30679.74
467.14	31285.94
467.32	31857.03
467.51	31515.31
467.69	30075.88
467.87	30752.30
468.05	31307.01
468.23	31288.28
468.41	31269.56
468.60	31847.67
468.78	31466.16
468.96	31133.81
469.14	32074.70
469.32	32287.69
469.50	30576.76
469.69	31119.76
469.87	30286.53
470.05	30197.59
470.23	30632.93
470.41	30871.67
470.59	30803.79
470.77	31316.37
470.95	31735.32
471.14	32280.67
471.32	31903.84
471.50	34146.08
471.68	33907.34
471.86	34265.44
472.04	34527.58
472.22	34129.69
472.40	33053.05
472.58	32587.28
472.77	32245.56
472.95	33010.92
473.13	33692.01
473.31	32772.18
473.49	33039.00
473.67	33883.94
473.85	34092.24
474.03	34731.21
474.21	34946.54
474.39	35571.46
474.57	35367.84
474.75	35416.99
474.93	35072.93
475.12	34134.37
475.30	34361.40
475.48	34934.84
475.66	35440.39
475.84	34213.95
476.02	34487.79
476.20	34050.11
476.38	34761.64
476.56	35536.35
476.74	35889.77
476.92	36236.17
477.10	36685.56
477.28	37706.03
477.46	37785.61
477.64	38148.39
477.82	38424.57
478.00	38335.63
478.18	37385.38
478.36	37471.98
478.54	37738.80
478.72	38047.75
478.90	38696.08
479.08	39868.69
479.26	40313.39
479.44	40198.70
479.62	40053.59
479.80	39981.03
479.98	40219.77
480.16	40381.26
480.34	39821.87
480.52	40849.37
480.70	40463.18
480.88	41097.47
481.06	41787.92
481.24	41858.14
481.41	42623.50
481.59	42887.98
481.77	42925.42
481.95	42660.94
482.13	42029.00
482.31	42300.50
482.49	42927.77
482.67	42848.19
482.85	43126.71
483.03	43854.62
483.21	44552.10
483.39	44261.87
483.57	43491.83
483.74	43012.02
483.92	43356.08
484.10	43936.54
484.28	44823.60
484.46	45118.51
484.64	45256.60
484.82	44807.22
485.00	43878.02
485.18	43079.90
485.35	42080.49
485.53	38794.38
485.71	35236.77
485.89	35119.74
486.07	37141.96
486.25	40435.10
486.43	42635.20
486.61	43023.73
486.78	43236.72
486.96	42838.83
487.14	45059.99
487.32	45687.26
487.50	46939.44
487.68	48060.56
487.85	48149.50
488.03	48449.09
488.21	47580.75
488.39	47086.90
488.57	45862.80
488.75	45778.54
488.92	47508.19
489.10	49757.45
489.28	51194.54
489.46	51753.93
489.64	51363.06
489.81	51882.66
489.99	51454.34
490.17	51288.16
490.35	51742.22
490.53	51175.81
490.70	50831.75
490.88	50897.29
491.06	51636.90
491.24	51679.03
491.41	50237.26
491.59	48409.30
491.77	47950.56
491.95	49436.80
492.13	50412.80
492.30	51889.68
492.48	52816.53
492.66	53207.40
492.84	53071.65
493.01	53134.84
493.19	52442.04
493.37	52051.17
493.54	51943.51
493.72	52587.16
493.90	53521.03
494.08	54405.75
494.25	54899.61
494.43	54876.20
494.61	55192.17
494.79	55414.52
494.96	55089.19
495.14	54433.84
495.32	53396.98
495.49	52802.49
495.67	54035.95
495.85	55283.45
496.02	55948.17
496.20	55461.33
496.38	55131.32
496.55	54939.39
496.73	55267.07
496.91	55831.14
497.09	56266.48
497.26	56217.33
497.44	55955.19
497.62	55423.89
497.79	54340.22
497.97	52961.64
498.14	53455.50
498.32	54733.43
498.50	55466.02
498.67	56224.35
498.85	56161.15
499.03	56034.77
499.20	56453.72
499.38	56456.06
499.56	56170.52
499.73	55526.87
499.91	55491.76
500.08	54990.89
500.26	54113.19
500.44	54728.75
500.61	55494.10
500.79	55091.53
500.97	54939.39
501.14	54728.75
501.32	54560.23
501.49	54794.28
501.67	54866.84
501.84	55285.79
502.02	55573.68
502.20	55887.31
502.37	56027.74
502.55	55964.55
502.72	56676.07
502.90	56992.04
503.07	56743.95
503.25	56250.09
503.43	55346.65
503.60	54714.70
503.78	54003.18
503.95	54670.23
504.13	56156.47
504.30	56928.85
504.48	56767.35
504.65	56324.99
504.83	56350.74
505.01	57193.33
505.18	57546.75
505.36	57972.73
505.53	57925.92
505.71	58211.46
505.88	58169.33
506.06	57591.22
506.23	57336.10
506.41	56779.06
506.58	57343.12
506.76	57134.82
506.93	57066.94
507.11	56945.23
507.28	57029.49
507.46	56601.18
507.63	56069.87
507.81	55985.61
507.98	56280.52
508.16	56889.06
508.33	57268.23
508.50	57593.56
508.68	57876.77
508.85	58323.81
509.03	58431.47
509.20	58131.89
509.38	57631.01
509.55	56729.90
509.73	56886.72
509.90	57495.26
510.08	57495.26
510.25	57638.03
510.42	57340.78
510.60	57247.16
510.77	57478.88
510.95	58288.70
511.12	58295.72
511.30	58660.85
511.47	58707.66
511.64	58777.87
511.82	58557.86
511.99	57490.58
512.17	57237.80
512.34	56844.59
512.51	57048.22
512.69	57216.74
512.86	57286.95
513.04	57888.47
513.21	57731.65
513.38	57471.85
513.56	57118.43
513.73	56259.46
513.90	56608.20
514.08	56781.40
514.25	57144.18
514.43	57223.76
514.60	57336.10
514.77	57190.99
514.95	57717.61
515.12	57340.78
515.29	57434.41
515.47	58085.07
515.64	58284.02
515.81	57848.68
515.99	57315.04
516.16	55875.61
516.33	53418.05
516.51	52158.84
516.68	51215.60
516.85	50761.54
517.03	51344.33
517.20	54136.59
517.37	56580.11
517.54	57628.67
517.72	56914.81
517.89	54391.71
518.06	51828.82
518.24	52502.90
518.41	54688.96
518.58	56039.45
518.75	55941.14
518.93	56261.80
519.10	56320.31
519.27	56526.28
519.45	57329.08
519.62	57621.65
519.79	58124.86
519.96	57783.15
520.14	57453.13
520.31	56612.88
520.48	56664.37
520.65	56750.97
520.83	57935.28
521.00	58115.50
521.17	58080.39
521.34	57429.72
521.52	57972.73
521.69	58471.26
521.86	58808.30
522.03	58595.31
522.20	57043.54
522.38	56154.13
522.55	56177.54
522.72	56889.06
522.89	56966.30
523.07	57237.80
523.24	57581.86
523.41	58447.86
523.58	58913.62
523.75	59025.97
523.92	58798.94
524.10	58960.44
524.27	58817.66
524.44	58712.34
524.61	58468.92
524.78	58660.85
524.96	58258.27
525.13	58248.91
525.30	58599.99
525.47	59208.53
525.64	58763.83
525.81	58192.74
525.98	56795.44
526.16	55117.28
526.33	54651.51
526.50	54312.13
526.67	54038.29
526.84	54768.54
527.01	55732.84
527.18	56608.20
527.36	57528.03
527.53	58166.99
527.70	58405.73
527.87	58071.03
528.04	57329.08
528.21	58047.63
528.38	58618.72
528.55	59351.30
528.72	59426.20
528.89	59543.23
529.07	59297.47
529.24	58539.14
529.41	58038.26
529.58	57535.05
529.75	57530.37
529.92	58066.35
530.09	58618.72
530.26	58976.82
530.43	59131.29
530.60	59196.83
530.77	59370.03
530.94	59451.95
531.11	59290.45
531.28	58564.88
531.46	58630.42
531.63	58684.25
531.80	58632.76
531.97	58183.38
532.14	57654.42
532.31	56245.41
532.48	55746.88
532.65	56109.66
532.82	56540.32
532.99	57961.03
533.16	58066.35
533.33	58798.94
533.50	58550.84
533.67	57975.07
533.84	57642.71
534.01	57925.92
534.18	57869.75
534.35	58134.23
534.52	57881.45
534.69	58220.83
534.86	58492.33
535.03	58731.06
535.20	59236.62
535.37	59573.66
535.54	59725.79
535.71	59124.27
535.88	58922.99
536.05	58279.34
536.22	57741.02
536.38	57719.95
536.55	57153.54
536.72	56514.58
536.89	56526.28
537.06	57640.37
537.23	58288.70
537.40	58602.33
537.57	58211.46
537.74	58501.69
537.91	58176.36
538.08	58262.96
538.25	58230.19
538.42	58487.65
538.59	58199.76
538.75	57488.24
538.92	57439.09
539.09	57223.76
539.26	56914.81
539.43	56912.47
539.60	56999.07
539.77	57118.43
539.94	56835.23
540.11	56086.26
540.28	55908.38
540.44	55681.34
540.61	56287.54
540.78	56444.36
540.95	56917.15
541.12	57254.18
541.29	57584.20
541.46	57750.38
541.62	57909.53
541.79	57556.11
541.96	56839.91
542.13	57048.22
542.30	57176.95
542.47	57443.77
542.63	57146.52
542.80	56889.06
542.97	57090.35
543.14	57006.09
543.31	57116.09
543.48	57411.00
543.64	58468.92
543.81	58717.02
543.98	58281.68
544.15	57631.01
544.32	57247.16
544.48	57425.04
544.65	57808.89
544.82	58152.95
544.99	57631.01
545.16	57277.59
545.32	57092.69
545.49	57918.90
545.66	58122.52
545.83	57733.99
546.00	57556.11
546.16	57230.78
546.33	57429.72
546.50	57155.88
546.67	57691.86
546.83	57366.53
547.00	57291.63
547.17	56704.16
547.34	56069.87
547.50	56259.46
547.67	56603.52
547.84	56853.95
548.00	56980.34
548.17	57389.94
548.34	57448.45
548.51	57506.96
548.67	57312.70
548.84	57570.16
549.01	57368.87
549.18	57256.53
549.34	57240.14
549.51	57268.23
549.68	57162.90
549.84	56797.78
550.01	56788.42
550.18	56528.62
550.34	56851.61
550.51	56800.12
550.68	57106.73
550.84	56484.15
551.01	56624.58
551.18	56610.54
551.34	56573.09
551.51	57221.42
551.68	57354.83
551.84	57448.45
552.01	57214.40
552.18	57104.39
552.34	56112.00
552.51	55875.61
552.68	56149.45
552.84	56376.48
553.01	56413.93
553.18	56444.36
553.34	56718.20
553.51	56853.95
553.67	57158.22
553.84	57174.61
554.01	56952.26
554.17	56853.95
554.34	56963.96
554.51	57008.43
554.67	57406.32
554.84	57289.29
555.00	57073.96
555.17	56413.93
555.33	56619.90
555.50	56533.30
555.67	56460.74
555.83	56245.41
556.00	56179.88
556.16	56058.17
556.33	55693.05
556.50	55723.47
556.66	55751.56
556.83	55412.18
556.99	55721.13
557.16	55709.43
557.32	56315.63
557.49	56207.97
557.65	56126.05
557.82	55854.54
557.98	55910.72
558.15	55264.73
558.32	54688.96
558.48	53752.74
558.65	54309.79
558.81	54658.53
558.98	54497.03
559.14	54843.43
559.31	54873.86
559.47	54976.84
559.64	54522.78
559.80	54447.88
559.97	54169.36
560.13	54855.14
560.30	55529.21
560.46	56189.24
560.63	56486.49
560.79	56521.60
560.96	55941.14
561.12	54944.08
561.29	53815.94
561.45	54134.25
561.61	54869.18
561.78	55276.43
561.94	54962.80
562.11	54805.98
562.27	55025.99
562.44	55009.61
562.60	55236.64
562.77	55730.50
562.93	55440.27
563.10	55664.96
563.26	55206.22
563.42	54918.33
563.59	54742.79
563.75	54808.32
563.92	54829.39
564.08	54733.43
564.24	55180.47
564.41	55140.68
564.57	55000.25
564.74	54557.89
564.90	54550.87
565.07	54167.02
565.23	53963.39
565.39	53743.38
565.56	53228.46
565.72	52898.45
565.88	53614.65
566.05	53528.05
566.21	54094.46
566.38	54064.03
566.54	54389.37
566.70	54270.00
566.87	54560.23
567.03	54616.40
567.19	55147.70
567.36	54447.88
567.52	54576.61
567.68	54365.96
567.85	53483.58
568.01	53373.58
568.17	52633.97
568.34	52849.30
568.50	52870.36
568.66	52940.58
568.83	53001.43
568.99	53310.38
569.15	53647.42
569.32	53502.31
569.48	53319.74
569.64	53326.77
569.81	52727.59
569.97	52903.13
570.13	52842.27
570.30	52076.92
570.46	51789.03
570.62	50806.01
570.78	51138.36
570.95	51487.10
571.11	52231.40
571.27	52418.64
571.43	52594.18
571.60	53216.76
571.76	53024.84
571.92	53361.87
572.09	53621.67
572.25	53256.55
572.41	53272.93
572.57	53081.01
572.74	53237.83
572.90	52982.71
573.06	52561.41
573.22	52992.07
573.38	53104.41
573.55	52830.57
573.71	52743.97
573.87	52942.92
574.03	52809.51
574.20	52664.39
574.36	52378.85
574.52	52339.06
574.68	52065.22
574.84	51767.97
575.01	51267.09
575.17	51255.39
575.33	51587.75
575.49	51707.12
575.65	52037.13
575.82	51517.53
575.98	51756.27
576.14	51512.85
576.30	51995.00
576.46	52116.71
576.62	51861.59
576.79	52067.56
576.95	51760.95
577.11	51601.79
577.27	51765.63
577.43	51765.63
577.59	51470.72
577.75	50752.18
577.92	50237.26
578.08	49888.52
578.24	49977.46
578.40	50543.87
578.56	50775.58
578.72	50934.74
578.88	50784.94
579.04	51290.50
579.21	51372.42
579.37	51297.52
579.53	51075.17
579.69	51440.29
579.85	51566.68
580.01	51332.63
580.17	50548.55
580.33	50670.26
580.49	50939.42
580.65	51157.09
580.82	51297.52
580.98	51475.40
581.14	51023.68
581.30	51173.47
581.46	51105.60
581.62	51501.15
581.78	51346.67
581.94	51955.21
582.10	51676.69
582.26	51683.71
582.42	51746.90
582.58	51587.75
582.74	51419.23
582.90	51657.96
583.06	51566.68
583.22	51650.94
583.38	50958.14
583.54	50969.85
583.70	51164.11
583.86	51281.14
584.02	51114.96
584.18	51096.24
584.34	50974.53
584.50	51047.08
584.66	50679.62
584.82	50195.13
584.98	50157.68
585.14	49474.24
585.30	49490.63
