SpectraSuite Data File
++++++++++++++++++++++++++++++++++++
Date: Mon Oct 07 14:53:47 GMT-05:00 2013
User: price-jones
Dark Spectrum Present: No
Reference Spectrum Present: No
Number of Sampled Component Spectra: 1
Spectrometers: USB2+H05261
Integration Time (usec): 100000 (USB2+H05261)
Spectra Averaged: 1 (USB2+H05261)
Boxcar Smoothing: 0 (USB2+H05261)
Correct for Electrical Dark: No (USB2+H05261)
Strobe/Lamp Enabled: No (USB2+H05261)
Correct for Detector Non-linearity: No (USB2+H05261)
Correct for Stray Light: No (USB2+H05261)
Number of Pixels in Processed Spectrum: 2048
>>>>>Begin Processed Spectral Data<<<<<
365.73	0.00
365.92	0.00
366.12	0.00
366.32	0.00
366.52	0.00
366.72	0.00
366.91	0.00
367.11	0.00
367.31	0.00
367.51	0.00
367.70	0.00
367.90	0.00
368.10	0.00
368.30	0.00
368.49	0.00
368.69	0.00
368.89	0.00
369.09	0.00
369.28	0.00
369.48	0.00
369.68	0.00
369.87	0.00
370.07	0.00
370.27	0.00
370.47	599.18
370.66	3183.13
370.86	3744.86
371.06	4105.30
371.25	4170.83
371.45	3803.37
371.65	3487.40
371.84	3222.92
372.04	3368.03
372.24	3808.05
372.44	4086.58
372.63	3779.97
372.83	3665.28
373.03	3183.13
373.22	2923.33
373.42	3030.99
373.62	3522.51
373.81	3854.86
374.01	3803.37
374.21	3534.21
374.40	3225.26
374.60	3339.94
374.79	3868.91
374.99	4491.49
375.19	4748.95
375.38	4723.20
375.58	4414.25
375.78	4423.61
375.97	4486.81
376.17	4475.10
376.37	4505.53
376.56	4671.71
376.76	5064.92
376.95	5345.78
377.15	5645.37
377.35	5802.19
377.54	6134.54
377.74	6370.94
377.93	6429.45
378.13	6263.27
378.33	6036.24
378.52	5369.19
378.72	5249.82
378.91	5088.32
379.11	4889.38
379.31	4648.30
379.50	4737.24
379.70	5128.11
379.89	5769.42
380.09	5893.47
380.28	6312.42
380.48	6143.91
380.68	6169.65
380.87	5940.28
381.07	5406.64
381.26	5015.77
381.46	4868.31
381.65	4610.86
381.85	4437.66
382.04	4149.77
382.24	3999.98
382.43	3772.94
382.63	3681.66
382.83	3648.90
383.02	3709.75
383.22	3810.39
383.41	3812.73
383.61	4140.41
383.80	4587.45
384.00	5191.31
384.19	5762.40
384.39	6101.78
384.58	6080.71
384.78	5984.75
384.97	6050.28
385.17	5900.49
385.36	5605.58
385.56	5310.68
385.75	5235.78
385.95	5792.83
386.14	6221.14
386.34	6317.11
386.53	6104.12
386.72	5657.07
386.92	5809.21
387.11	6019.86
387.31	6450.52
387.50	6333.49
387.70	5996.45
387.89	5816.23
388.09	6003.47
388.28	6195.40
388.48	6171.99
388.67	6661.16
388.86	7265.02
389.06	7740.15
389.25	8283.16
389.45	8250.39
389.64	8435.29
389.84	7971.86
390.03	8201.24
390.22	8060.80
390.42	8156.77
390.61	8692.75
390.81	9509.60
391.00	9584.49
391.19	9434.70
391.39	9235.75
391.58	8985.32
391.78	8145.06
391.97	7983.57
392.16	7386.73
392.36	6628.40
392.55	5516.64
392.75	4304.25
392.94	3564.64
393.13	3405.48
393.33	3999.98
393.52	5294.29
393.71	6366.26
393.91	7356.30
394.10	8039.74
394.29	8861.27
394.49	9188.94
394.68	10040.90
394.88	10157.92
395.07	10326.44
395.26	10431.77
395.46	9994.09
395.65	9518.96
395.84	8374.44
396.04	7073.10
396.23	5680.48
396.42	4861.29
396.62	4456.38
396.81	5284.93
397.00	6684.57
397.19	8521.89
397.39	9916.85
397.58	11325.85
397.77	12250.36
397.97	12659.96
398.16	12739.54
398.35	13029.76
398.55	13586.81
398.74	14024.49
398.93	14303.01
399.12	14029.17
399.32	13659.37
399.51	13923.85
399.70	14829.63
399.90	14476.21
400.09	14736.01
400.28	14728.99
400.47	14469.19
400.67	15337.53
400.86	15873.51
401.05	15761.17
401.24	15796.28
401.44	16365.03
401.63	16358.00
401.82	16299.49
402.01	16369.71
402.21	16301.83
402.40	16709.08
402.59	16013.95
402.78	15346.89
402.97	14806.23
403.17	15367.96
403.36	16355.66
403.55	16868.24
403.74	17184.21
403.93	16512.48
404.13	15250.93
404.32	14934.96
404.51	15758.83
404.70	16786.32
404.89	16908.03
405.09	16512.48
405.28	15735.42
405.47	16088.84
405.66	16229.27
405.85	15688.61
406.05	15197.10
406.24	15454.56
406.43	15836.06
406.62	16465.67
406.81	16751.21
407.00	16056.08
407.20	15733.08
407.39	15803.30
407.58	16313.53
407.77	17404.22
407.96	17898.08
408.15	18214.05
408.34	18120.43
408.54	19255.59
408.73	18878.76
408.92	18836.63
409.11	18331.08
409.30	17177.19
409.49	16215.23
409.68	15513.07
409.87	15000.49
410.07	15754.15
410.26	16938.46
410.45	17832.54
410.64	18420.02
410.83	19222.82
411.02	19592.62
411.21	20269.04
411.40	19882.85
411.59	20060.73
411.78	19854.76
411.98	19927.32
412.17	20217.55
412.36	19667.52
412.55	19873.49
412.74	19094.09
412.93	19033.24
413.12	19115.16
413.31	20741.83
413.50	21050.78
413.69	21376.11
413.88	20329.89
414.07	20058.39
414.26	20049.03
414.45	20783.96
414.64	21156.10
414.83	20858.85
415.02	20702.04
415.22	20428.20
415.41	21369.09
415.60	21879.33
415.79	22665.75
415.98	23428.76
416.17	23232.16
416.36	22544.04
416.55	22398.93
416.74	21900.39
416.93	20613.10
417.12	20739.49
417.31	21055.46
417.50	21418.24
417.69	22256.15
417.88	22239.77
418.07	22221.05
418.26	21664.00
418.45	21596.12
418.64	22232.75
418.83	23506.00
419.02	23009.81
419.21	23026.19
419.39	21884.01
419.58	21050.78
419.77	21048.44
419.96	21921.46
420.15	22913.84
420.34	23936.66
420.53	24437.53
420.72	24662.22
420.91	24797.98
421.10	24573.28
421.29	24456.26
421.48	23517.70
421.67	24498.39
421.86	24156.67
422.05	22834.27
422.24	20091.16
422.43	19976.47
422.61	21933.16
422.80	23608.98
422.99	23896.87
423.18	22649.36
423.37	22628.30
423.56	22288.92
423.75	23002.78
423.94	23255.56
424.13	21968.27
424.32	22059.55
424.50	22501.91
424.69	21916.78
424.88	22024.44
425.07	22195.30
425.26	22274.88
425.45	21872.31
425.64	21458.03
425.83	21390.16
426.01	22820.22
426.20	23293.01
426.39	23122.15
426.58	21418.24
426.77	20027.96
426.96	18948.98
427.15	19812.63
427.33	21577.40
427.52	22391.91
427.71	22553.40
427.90	22017.42
428.09	22207.00
428.28	21664.00
428.46	20720.76
428.65	20182.44
428.84	20924.39
429.03	21516.54
429.22	19967.11
429.40	19452.19
429.59	17256.77
429.78	15449.88
429.97	15035.60
430.16	15531.80
430.34	15885.22
430.53	15974.16
430.72	15777.55
430.91	17568.06
431.10	20774.60
431.28	24486.68
431.47	26429.33
431.66	26525.29
431.85	24460.94
432.03	22394.25
432.22	21254.40
432.41	22555.74
432.60	24311.14
432.79	25624.18
432.97	26450.39
433.16	25465.03
433.35	23590.26
433.54	21415.90
433.72	19452.19
433.91	20376.70
434.10	22473.82
434.28	24570.94
434.47	25785.68
434.66	25425.24
434.85	24938.41
435.03	24755.85
435.22	25357.36
435.41	26913.82
435.59	26618.91
435.78	27014.46
435.97	27817.27
436.16	28091.11
436.34	27714.28
436.53	26862.33
436.72	26977.01
436.90	25649.93
437.09	25685.04
437.28	24978.20
437.46	25715.47
437.65	26038.46
437.84	24790.95
438.02	22169.55
438.21	22066.57
438.40	23573.88
438.58	25394.81
438.77	26136.76
438.96	26326.35
439.14	27555.13
439.33	28273.67
439.52	28416.44
439.70	27835.99
439.89	27372.57
440.08	26218.68
440.26	26384.86
440.45	27290.65
440.63	28877.53
440.82	30817.83
441.01	30277.17
441.19	29886.30
441.38	30213.98
441.57	31555.10
441.75	31800.86
441.94	32039.59
442.12	31475.52
442.31	32325.14
442.50	32385.99
442.68	31906.18
442.87	31124.44
443.05	31089.34
443.24	31323.39
443.43	31812.56
443.61	32587.28
443.80	33017.94
443.98	31091.68
444.17	31377.22
444.35	33111.56
444.54	33532.86
444.73	33209.86
444.91	32041.93
445.10	30445.69
445.28	29404.15
445.47	28643.48
445.65	29043.71
445.84	29872.26
446.02	30958.27
446.21	31267.22
446.39	31751.71
446.58	31655.75
446.77	32107.47
446.95	33031.98
447.14	33120.92
447.32	34160.12
447.51	33244.97
447.69	32240.88
447.88	31545.74
448.06	32175.34
448.25	32982.83
448.43	33504.77
448.62	32542.81
448.80	32498.34
448.99	32397.70
449.17	33034.32
449.36	33149.01
449.54	34150.76
449.73	34363.75
449.91	34976.97
450.10	35585.50
450.28	36650.45
450.46	36535.76
450.65	35997.44
450.83	36191.70
451.02	34967.60
451.20	34801.43
451.39	34644.61
451.57	35267.19
451.76	34780.36
451.94	34670.36
452.13	33750.52
452.31	32189.39
452.49	30668.04
452.68	31475.52
452.86	31653.40
453.05	31676.81
453.23	32641.11
453.42	33326.89
453.60	34452.69
453.78	34637.59
453.97	34197.57
454.15	33888.62
454.34	33273.06
454.52	33383.06
454.70	32950.06
454.89	33537.54
455.07	33717.76
455.26	33593.71
455.44	35253.15
455.62	35892.12
455.81	35835.94
455.99	35665.08
456.17	35330.39
456.36	35185.27
456.54	36259.58
456.73	36645.77
456.91	36683.22
457.09	36779.18
457.28	37963.49
457.46	36304.05
457.64	36177.66
457.83	35470.82
458.01	33919.04
458.19	35075.27
458.38	35456.78
458.56	36783.86
458.74	36456.18
458.93	35739.98
459.11	35817.22
459.29	35416.99
459.48	35646.36
459.66	35522.31
459.84	35906.16
460.03	36158.94
460.21	36208.09
460.39	37275.37
460.57	37263.67
460.76	37902.64
460.94	37799.65
461.12	36727.69
461.31	37258.99
461.49	37516.45
461.67	37024.93
461.85	38333.29
462.04	38319.25
462.22	38258.40
462.40	37958.81
462.59	37741.14
462.77	37876.89
462.95	38188.18
463.13	37656.88
463.32	37244.94
463.50	36994.51
463.68	37111.53
463.86	37574.96
464.05	36924.29
464.23	35709.55
464.41	36280.64
464.59	35456.78
464.78	36889.18
464.96	37060.04
465.14	36259.58
465.32	37521.13
465.50	38014.98
465.69	38462.02
465.87	38022.00
466.05	37053.02
466.23	35477.84
466.41	34359.06
466.60	35969.35
466.78	35232.08
466.96	36187.02
467.14	36322.77
467.32	37233.24
467.51	37228.56
467.69	35342.09
467.87	35917.86
468.05	36699.60
468.23	37038.98
468.41	36987.49
468.60	36762.79
468.78	37684.97
468.96	36526.40
469.14	37631.13
469.32	37593.68
469.50	36231.49
469.69	36435.12
469.87	35700.19
470.05	35730.62
470.23	35838.28
470.41	35913.18
470.59	36264.26
470.77	36769.82
470.95	37308.14
471.14	37928.38
471.32	37633.47
471.50	39536.33
471.68	39814.85
471.86	40278.28
472.04	40428.07
472.22	40776.81
472.40	38932.47
472.58	38305.21
472.77	37544.53
472.95	38352.02
473.13	39824.22
473.31	38665.65
473.49	39147.80
473.67	39470.79
473.85	40130.83
474.03	40678.51
474.21	40903.20
474.39	40971.08
474.57	41155.98
474.75	41268.33
474.93	41406.42
475.12	40311.05
475.30	40240.83
475.48	40175.30
475.66	40718.30
475.84	40371.90
476.02	40163.59
476.20	39620.59
476.38	40301.68
476.56	41490.68
476.74	42143.69
476.92	42188.16
477.10	42777.97
477.28	43711.84
477.46	43924.83
477.64	44505.29
477.82	44720.62
478.00	44341.45
478.18	44121.44
478.36	43636.95
478.54	43789.08
478.72	44203.36
478.90	44683.17
479.08	46167.07
479.26	46733.48
479.44	46511.13
479.62	46167.07
479.80	46422.19
479.98	46518.15
480.16	46944.12
480.34	46319.20
480.52	46829.44
480.70	47063.49
480.88	47199.24
481.06	47758.63
481.24	48451.43
481.41	49167.63
481.59	49434.45
481.77	48952.30
481.95	48463.13
482.13	48690.16
482.31	48767.40
482.49	49090.40
482.67	48940.60
482.85	49095.08
483.03	49954.05
483.21	50038.31
483.39	50169.38
483.57	49336.15
483.74	48987.41
483.92	49481.27
484.10	49666.17
484.28	50368.33
484.46	50806.01
484.64	51131.34
484.82	50550.89
485.00	50188.11
485.18	49165.29
485.35	48198.65
485.53	45406.39
485.71	41038.95
485.89	40577.87
486.07	42784.99
486.25	45984.51
486.43	48308.66
486.61	49214.44
486.78	49104.44
486.96	48928.90
487.14	50782.60
487.32	51351.35
487.50	52577.79
487.68	53113.78
487.85	53736.36
488.03	53492.94
488.21	53308.04
488.39	52538.01
488.57	52315.65
488.75	51636.90
488.92	52540.35
489.10	54616.40
489.28	55749.22
489.46	56207.97
489.64	56058.17
489.81	56456.06
489.99	55966.89
490.17	55945.83
490.35	56362.44
490.53	56027.74
490.70	55669.64
490.88	55299.84
491.06	56278.18
491.24	56278.18
491.41	55381.76
491.59	53895.52
491.77	53097.39
491.95	54178.72
492.13	55367.71
492.30	56233.71
492.48	57244.82
492.66	57815.91
492.84	57654.42
493.01	57483.56
493.19	57036.51
493.37	56516.92
493.54	56537.98
493.72	57085.67
493.90	57799.53
494.08	58489.99
494.25	58745.11
494.43	58784.90
494.61	59243.64
494.79	59353.65
494.96	59040.01
495.14	58710.00
495.32	57689.52
495.49	57034.17
495.67	58199.76
495.85	59386.41
496.02	59636.85
496.20	59496.42
496.38	59082.14
496.55	59007.25
496.73	59348.96
496.91	59641.53
497.09	60149.43
497.26	60233.69
497.44	59927.08
497.62	59175.76
497.79	58803.62
497.97	57546.75
498.14	57530.37
498.32	58665.53
498.50	59391.09
498.67	60200.92
498.85	59887.29
499.03	60090.91
499.20	60163.47
499.38	60310.92
499.56	59929.42
499.73	59880.27
499.91	59330.24
500.08	58721.70
500.26	58143.59
500.44	58653.82
500.61	59110.23
500.79	59091.51
500.97	58630.42
501.14	58618.72
501.32	58492.33
501.49	58548.50
501.67	58464.24
501.84	59435.56
502.02	59561.95
502.20	59896.65
502.37	60046.44
502.55	59852.18
502.72	60322.63
502.90	60692.43
503.07	60594.13
503.25	60292.20
503.43	59330.24
503.60	58906.60
503.78	58042.95
503.95	58546.16
504.13	59856.86
504.30	60652.64
504.48	60418.59
504.65	60149.43
504.83	60060.49
505.01	60636.26
505.18	61022.45
505.36	61481.19
505.53	61523.32
505.71	62042.92
505.88	62012.49
506.06	61385.23
506.23	61020.11
506.41	60568.38
506.58	60938.19
506.76	60713.50
506.93	60989.68
507.11	60753.29
507.28	60680.73
507.46	60233.69
507.63	59962.18
507.81	59707.07
507.98	59966.87
508.16	60467.74
508.33	60774.35
508.50	61392.25
508.68	61605.24
508.85	61811.21
509.03	62087.39
509.20	61916.53
509.38	61052.87
509.55	60441.99
509.73	60512.21
509.90	61179.26
510.08	61282.25
510.25	61256.50
510.42	61066.92
510.60	60985.00
510.77	61244.80
510.95	61729.29
511.12	61970.36
511.30	62026.54
511.47	62375.28
511.64	62286.34
511.82	62068.67
511.99	61347.78
512.17	60907.76
512.34	60622.22
512.51	60657.32
512.69	60800.10
512.86	60907.76
513.04	61256.50
513.21	61410.98
513.38	61062.24
513.56	60720.52
513.73	59877.93
513.90	60397.52
514.08	60224.32
514.25	60657.32
514.43	60736.90
514.60	60814.14
514.77	61092.66
514.95	61130.11
515.12	60884.36
515.29	61197.99
515.47	61703.54
515.64	61748.01
515.81	61567.79
515.99	61066.92
516.16	59693.02
516.33	57598.24
516.51	56591.81
516.68	55590.06
516.85	55243.66
517.03	55351.33
517.20	57839.32
517.37	60126.02
517.54	61109.05
517.72	60793.07
517.89	58653.82
518.06	56322.65
518.24	56296.91
518.41	58475.94
518.58	59739.83
518.75	60111.98
518.93	60067.51
519.10	59910.69
519.27	60472.42
519.45	60580.09
519.62	61188.63
519.79	61614.60
519.96	61357.14
520.14	61017.77
520.31	60140.07
520.48	60205.60
520.65	60535.62
520.83	61291.61
521.00	61710.56
521.17	61352.46
521.34	61134.79
521.52	61286.93
521.69	61893.13
521.86	62316.76
522.03	61869.72
522.20	60933.51
522.38	59929.42
522.55	59798.35
522.72	60594.13
522.89	60673.71
523.07	60884.36
523.24	61153.52
523.41	61902.49
523.58	62047.60
523.75	62492.30
523.92	62363.57
524.10	62321.44
524.27	62340.17
524.44	62068.67
524.61	61984.41
524.78	61792.48
524.96	61815.89
525.13	61855.68
525.30	62078.03
525.47	62489.96
525.64	62511.03
525.81	61806.53
525.98	60343.69
526.16	59089.16
526.33	58370.62
526.50	58166.99
526.67	57654.42
526.84	58625.74
527.01	59426.20
527.18	60004.31
527.36	60687.75
527.53	61708.22
527.70	61771.42
527.87	61399.27
528.04	61116.07
528.21	61420.34
528.38	62040.58
528.55	62583.58
528.72	62677.21
528.89	63124.25
529.07	62656.14
529.24	62181.01
529.41	61621.62
529.58	60982.66
529.75	60996.70
529.92	61448.42
530.09	61862.70
530.26	62323.78
530.43	62408.04
530.60	62611.67
530.77	62831.68
530.94	62836.36
531.11	62478.26
531.28	61939.94
531.46	61932.92
531.63	62094.41
531.80	61991.43
531.97	61401.61
532.14	60809.46
532.31	60048.78
532.48	59365.35
532.65	59381.73
532.82	60315.61
532.99	61289.27
533.16	61446.08
533.33	62052.28
533.50	61874.40
533.67	61261.18
533.84	60987.34
534.01	61223.73
534.18	61460.13
534.35	61387.57
534.52	61312.67
534.69	61446.08
534.86	61883.76
535.03	61935.26
535.20	62534.43
535.37	62871.47
535.54	62848.06
535.71	62501.67
535.88	62204.42
536.05	61694.18
536.22	61378.21
536.38	61095.00
536.55	60624.56
536.72	59990.27
536.89	60093.25
537.06	60846.91
537.23	61551.41
537.40	61673.12
537.57	61787.80
537.74	61399.27
537.91	61616.94
538.08	61516.30
538.25	61602.90
538.42	61804.19
538.59	61509.28
538.75	61062.24
538.92	60631.58
539.09	60591.79
539.26	60470.08
539.43	60282.84
539.60	60292.20
539.77	60619.88
539.94	60357.74
540.11	59765.58
540.28	59093.85
540.44	59444.93
540.61	59477.69
540.78	59938.78
540.95	60341.35
541.12	60598.81
541.29	60687.75
541.46	61235.44
541.62	61144.16
541.79	60952.23
541.96	60247.73
542.13	60254.75
542.30	60818.82
542.47	60779.03
542.63	60683.07
542.80	60566.04
542.97	60631.58
543.14	60444.33
543.31	60369.44
543.48	60825.84
543.64	61471.83
543.81	61813.55
543.98	61628.65
544.15	61008.40
544.32	60364.76
544.48	60554.34
544.65	60994.36
544.82	61357.14
544.99	61090.32
545.16	60589.45
545.32	60350.71
545.49	61317.35
545.66	61633.33
545.83	61228.41
546.00	60832.86
546.16	60502.85
546.33	60460.72
546.50	60640.94
546.67	60905.42
546.83	60680.73
547.00	60659.66
547.17	60006.65
547.34	59585.36
547.50	59388.75
547.67	59980.91
547.84	60018.36
548.00	60392.84
548.17	60959.25
548.34	60687.75
548.51	60647.96
548.67	60718.18
548.84	60760.31
549.01	60474.76
549.18	60608.17
549.34	60556.68
549.51	60582.43
549.68	60575.40
549.84	60130.70
550.01	60198.58
550.18	59913.03
550.34	60165.81
550.51	59927.08
550.68	60327.31
550.84	59700.04
551.01	59971.55
551.18	59915.37
551.34	60090.91
551.51	60430.29
551.68	60666.69
551.84	60582.43
552.01	60601.15
552.18	60612.85
552.34	59681.32
552.51	59365.35
552.68	59213.21
552.84	59604.08
553.01	59980.91
553.18	59831.11
553.34	59994.95
553.51	59983.25
553.67	60135.38
553.84	60289.86
554.01	60233.69
554.17	60140.07
554.34	60252.41
554.51	60233.69
554.67	60521.57
554.84	60514.55
555.00	60039.42
555.17	59796.01
555.33	60027.72
555.50	59777.28
555.67	59840.48
555.83	59709.41
556.00	59601.74
556.16	59473.01
556.33	59082.14
556.50	58801.28
556.66	59025.97
556.83	58611.70
556.99	58674.89
557.16	58787.24
557.32	59185.13
557.49	59559.61
557.65	59316.20
557.82	59325.56
557.98	59271.73
558.15	58820.00
558.32	58176.36
558.48	57420.36
558.65	57670.80
558.81	57982.09
558.98	58202.10
559.14	58307.43
559.31	58457.22
559.47	58358.92
559.64	57963.37
559.80	57820.59
559.97	57766.76
560.13	58134.23
560.30	59133.63
560.46	59557.27
560.63	59597.06
560.79	59653.23
560.96	59334.92
561.12	58597.65
561.29	57312.70
561.45	57785.49
561.61	58277.00
561.78	58504.03
561.94	58492.33
562.11	58326.15
562.27	57932.94
562.44	58391.68
562.60	58379.98
562.77	58738.08
562.93	58773.19
563.10	58562.54
563.26	58166.99
563.42	58286.36
563.59	57879.11
563.75	57921.24
563.92	58000.82
564.08	57944.64
564.24	58148.27
564.41	58288.70
564.57	58277.00
564.74	57829.96
564.90	57916.56
565.07	57726.97
565.23	57659.10
565.39	56814.16
565.56	56772.03
565.72	56420.95
565.88	56942.89
566.05	56992.04
566.21	57233.12
566.38	57513.98
566.54	57265.89
566.70	57769.10
566.87	58066.35
567.03	58059.33
567.19	58038.26
567.36	57902.51
567.52	57792.51
567.68	57413.34
567.85	57153.54
568.01	56484.15
568.17	56378.82
568.34	56233.71
568.50	56343.72
568.66	56332.01
568.83	56853.95
568.99	56903.10
569.15	56924.17
569.32	56914.81
569.48	56860.97
569.64	56662.03
569.81	56404.57
569.97	56177.54
570.13	56268.82
570.30	55992.64
570.46	55533.89
570.62	54700.66
570.78	54754.49
570.95	55077.49
571.11	55704.75
571.27	56060.51
571.43	56154.13
571.60	56395.21
571.76	56369.46
571.92	56708.84
572.09	56683.09
572.25	56933.53
572.41	56917.15
572.57	56596.49
572.74	56685.43
572.90	56381.16
573.06	56301.59
573.22	56172.86
573.38	56413.93
573.55	56294.56
573.71	56549.68
573.87	56334.35
574.03	56385.85
574.20	56296.91
574.36	55969.23
574.52	55744.54
574.68	55842.84
574.84	55313.88
575.01	54791.94
575.17	54759.17
575.33	54997.91
575.49	55227.28
575.65	55686.03
575.82	55348.99
575.98	54974.50
576.14	55540.91
576.30	55611.13
576.46	55552.62
576.62	55217.92
576.79	55508.14
576.95	55152.38
577.11	55189.83
577.27	55023.65
577.43	55246.00
577.59	54960.46
577.75	54445.54
577.92	54103.82
578.08	53572.52
578.24	53752.74
578.40	54354.26
578.56	54300.43
578.72	54337.88
578.88	54564.91
579.04	54899.61
579.21	54871.52
579.37	54813.01
579.53	54777.90
579.69	54951.10
579.85	55114.94
580.01	54923.01
580.17	54677.25
580.33	54291.07
580.49	54644.49
580.65	54843.43
580.82	54756.83
580.98	55096.21
581.14	54822.37
581.30	54735.77
581.46	54745.13
581.62	55037.70
581.78	54789.60
581.94	54934.71
582.10	54756.83
582.26	55063.44
582.42	55206.22
582.58	55103.23
582.74	54787.26
582.90	55103.23
583.06	54906.63
583.22	54873.86
583.38	54815.35
583.54	54644.49
583.70	54595.34
583.86	54831.73
584.02	54370.64
584.18	54726.41
584.34	54417.46
584.50	54365.96
584.66	54443.20
584.82	54344.90
584.98	53984.46
585.14	53588.91
