SpectraSuite Data File
++++++++++++++++++++++++++++++++++++
Date: Mon Oct 07 14:53:08 GMT-05:00 2013
User: price-jones
Dark Spectrum Present: No
Reference Spectrum Present: No
Number of Sampled Component Spectra: 1
Spectrometers: USB2+H05261
Integration Time (usec): 100000 (USB2+H05261)
Spectra Averaged: 1 (USB2+H05261)
Boxcar Smoothing: 0 (USB2+H05261)
Correct for Electrical Dark: No (USB2+H05261)
Strobe/Lamp Enabled: No (USB2+H05261)
Correct for Detector Non-linearity: No (USB2+H05261)
Correct for Stray Light: No (USB2+H05261)
Number of Pixels in Processed Spectrum: 2048
>>>>>Begin Processed Spectral Data<<<<<
365.73	0.00
365.92	0.00
366.12	0.00
366.32	0.00
366.52	0.00
366.72	0.00
366.91	0.00
367.11	0.00
367.31	0.00
367.51	0.00
367.70	0.00
367.90	0.00
368.10	0.00
368.30	0.00
368.49	0.00
368.69	0.00
368.89	0.00
369.09	0.00
369.28	0.00
369.48	0.00
369.68	0.00
369.87	0.00
370.07	0.00
370.27	0.00
370.47	788.76
370.66	3669.96
370.86	4170.83
371.06	4699.80
371.25	4688.09
371.45	4205.94
371.65	3777.62
371.84	3569.32
372.04	3878.27
372.24	4248.07
372.44	4348.72
372.63	4292.54
372.83	3992.95
373.03	3543.57
373.22	3225.26
373.42	3492.08
373.62	3899.33
373.81	4339.35
374.01	4219.99
374.21	3843.16
374.40	3623.15
374.60	3770.60
374.79	4297.22
374.99	5071.94
375.19	5177.26
375.38	5174.92
375.58	5034.49
375.78	4912.78
375.97	4975.98
376.17	5217.05
376.37	5289.61
376.56	5291.95
376.76	5518.98
376.95	5783.46
377.15	6183.70
377.35	6565.20
377.54	6829.68
377.74	7047.35
377.93	7033.31
378.13	6843.73
378.33	6289.02
378.52	6069.01
378.72	5720.27
378.91	5659.42
379.11	5636.01
379.31	5397.28
379.50	5214.71
379.70	5734.31
379.89	6284.34
380.09	6633.08
380.28	6972.46
380.48	6799.26
380.68	6754.79
380.87	6715.00
381.07	6106.46
381.26	5554.09
381.46	5345.78
381.65	5231.10
381.85	5100.03
382.04	4662.35
382.24	4454.04
382.43	4154.45
382.63	4194.24
382.83	4252.75
383.02	4276.16
383.22	4145.09
383.41	4163.81
383.61	4397.87
383.80	5186.63
384.00	5935.60
384.19	6700.95
384.39	6846.07
384.58	6843.73
384.78	6750.10
384.97	6499.67
385.17	6476.26
385.36	5877.09
385.56	5795.17
385.75	6069.01
385.95	6640.10
386.14	7091.82
386.34	7084.80
386.53	6614.35
386.72	6303.06
386.92	6483.28
387.11	6890.54
387.31	7131.61
387.50	7002.88
387.70	6729.04
387.89	6684.57
388.09	6569.88
388.28	6782.87
388.48	6656.48
388.67	7218.21
388.86	8126.34
389.06	8765.31
389.25	9078.94
389.45	9238.09
389.64	9083.62
389.84	9111.71
390.03	8692.75
390.22	8882.33
390.42	9355.12
390.61	9795.14
390.81	10359.21
391.00	10410.70
391.19	10354.53
391.39	10228.14
391.58	9703.86
391.78	9142.13
391.97	8805.10
392.16	8201.24
392.36	7344.60
392.55	5792.83
392.75	4877.68
392.94	3728.47
393.13	3894.65
393.33	4652.98
393.52	5792.83
393.71	7276.73
393.91	8105.28
394.10	8734.88
394.29	9809.19
394.49	10319.42
394.68	11040.31
394.88	11019.24
395.07	11356.28
395.26	11463.94
395.46	10918.60
395.65	10530.07
395.84	9125.75
396.04	7838.45
396.23	6167.31
396.42	5238.12
396.62	5121.09
396.81	6022.20
397.00	7674.62
397.19	9504.92
397.39	11180.74
397.58	12690.38
397.77	13193.60
397.97	13975.34
398.16	13963.64
398.35	14745.38
398.55	14951.34
398.74	15487.32
398.93	15660.52
399.12	15688.61
399.32	15115.18
399.51	15674.57
399.70	16374.39
399.90	15985.86
400.09	16348.64
400.28	16105.23
400.47	16271.40
400.67	16971.22
400.86	17649.98
401.05	17544.66
401.24	17535.29
401.44	17844.24
401.63	18066.60
401.82	18218.73
402.01	17937.87
402.21	18265.54
402.40	18242.14
402.59	17713.17
402.78	17020.38
402.97	16336.94
403.17	17249.75
403.36	18408.31
403.55	18906.85
403.74	18817.91
403.93	18281.92
404.13	16807.39
404.32	16519.50
404.51	17408.90
404.70	18895.14
404.89	18448.10
405.09	18445.76
405.28	17900.42
405.47	17928.50
405.66	17785.73
405.85	17334.01
406.05	16924.41
406.24	17099.95
406.43	17905.10
406.62	18501.93
406.81	18403.63
407.00	17895.74
407.20	17605.51
407.39	17661.68
407.58	18331.08
407.77	19271.97
407.96	19768.16
408.15	19913.28
408.34	20034.99
408.54	20774.60
408.73	21242.70
408.92	20587.35
409.11	20414.15
409.30	19297.72
409.49	18087.66
409.68	16851.86
409.87	16681.00
410.07	17914.46
410.26	18963.02
410.45	19831.36
410.64	20411.81
410.83	21235.68
411.02	21696.77
411.21	22349.78
411.40	22097.00
411.59	22223.39
411.78	21731.87
411.98	21813.79
412.17	22300.62
412.36	21748.26
412.55	21762.30
412.74	21682.72
412.93	20746.51
413.12	21216.96
413.31	22977.04
413.50	23520.04
413.69	23765.80
413.88	22630.64
414.07	22188.28
414.26	22878.74
414.45	23257.90
414.64	23349.18
414.83	23592.60
415.02	22782.77
415.22	23147.90
415.41	23777.50
415.60	24301.78
415.79	25156.08
415.98	25467.37
416.17	25886.32
416.36	25163.10
416.55	24652.86
416.74	23999.85
416.93	23222.80
417.12	23058.96
417.31	23601.96
417.50	23908.57
417.69	24912.66
417.88	24772.23
418.07	24451.58
418.26	23917.93
418.45	24531.15
418.64	24992.24
418.83	26108.68
419.02	25610.14
419.21	25481.41
419.39	23882.83
419.58	22974.70
419.77	23178.33
419.96	24467.96
420.15	25392.47
420.34	26370.82
420.53	27339.80
420.72	27910.89
420.91	27697.90
421.10	27241.50
421.29	27040.21
421.48	25865.26
421.67	27388.95
421.86	26909.14
422.05	24566.26
422.24	22317.01
422.43	22015.08
422.61	24222.20
422.80	26253.79
422.99	26391.88
423.18	25394.81
423.37	24449.24
423.56	25022.67
423.75	25453.33
423.94	25970.58
424.13	24470.30
424.32	24776.91
424.50	24699.67
424.69	24524.13
424.88	24940.75
425.07	24786.27
425.26	24528.81
425.45	24194.12
425.64	23791.55
425.83	24063.05
426.01	25626.53
426.20	25912.07
426.39	25727.17
426.58	23924.96
426.77	22047.85
426.96	21348.03
427.15	22190.62
427.33	24212.84
427.52	24999.26
427.71	24709.04
427.90	24517.11
428.09	24151.99
428.28	23676.86
428.46	23232.16
428.65	22693.83
428.84	23475.57
429.03	23943.68
429.22	22443.40
429.40	20793.32
429.59	19339.85
429.78	17228.68
429.97	17198.26
430.16	17607.85
430.34	17621.89
430.53	17193.58
430.72	18192.98
430.91	19985.83
431.10	23625.37
431.28	27843.01
431.47	29539.90
431.66	29930.77
431.85	27218.09
432.03	25359.70
432.22	24006.87
432.41	25245.02
432.60	27927.27
432.79	28687.95
432.97	29530.54
433.16	28561.56
433.35	25991.65
433.54	23660.48
433.72	22427.01
433.91	22890.44
434.10	25439.28
434.28	27278.94
434.47	29102.22
434.66	27866.42
434.85	27494.27
435.03	27470.87
435.22	28215.16
435.41	29804.38
435.59	29865.24
435.78	30052.48
435.97	31669.79
436.16	31264.88
436.34	30878.69
436.53	30188.23
436.72	30192.91
436.90	28493.68
437.09	28467.94
437.28	27887.48
437.46	29153.71
437.65	29053.07
437.84	27000.42
438.02	24870.53
438.21	25022.67
438.40	26349.75
438.58	28692.63
438.77	29109.24
438.96	29352.66
439.14	30717.19
439.33	31447.44
439.52	31807.88
439.70	31213.38
439.89	30387.18
440.08	29813.74
440.26	29439.26
440.45	30132.06
440.63	32526.42
440.82	34052.45
441.01	33816.06
441.19	33263.69
441.38	33879.25
441.57	35285.92
441.75	35161.87
441.94	36067.66
442.12	35599.55
442.31	36208.09
442.50	36091.06
442.68	35826.58
442.87	35384.22
443.05	34539.29
443.24	35276.55
443.43	35817.22
443.61	36685.56
443.80	37071.75
443.98	34986.33
444.17	34953.56
444.35	37130.26
444.54	37612.41
444.73	37099.83
444.91	35618.27
445.10	34115.65
445.28	32917.29
445.47	32751.12
445.65	32634.09
445.84	33329.23
446.02	34560.35
446.21	34920.79
446.39	35295.28
446.58	35646.36
446.77	36381.29
446.95	36629.38
447.14	37830.08
447.32	37844.12
447.51	37642.84
447.69	35637.00
447.88	35438.05
448.06	36439.80
448.25	36994.51
448.43	37167.71
448.62	36034.89
448.80	35978.72
448.99	36715.98
449.17	36994.51
449.36	36753.43
449.54	38258.40
449.73	38831.83
449.91	39349.09
450.10	40477.22
450.28	40793.20
450.46	40488.93
450.65	41069.38
450.83	40299.34
451.02	39374.83
451.20	39108.01
451.39	39115.03
451.57	39129.08
451.76	38995.67
451.94	38649.27
452.13	37933.06
452.31	36371.92
452.49	34995.69
452.68	35503.59
452.86	35480.18
453.05	35754.02
453.23	36954.72
453.42	37750.50
453.60	38501.81
453.78	38424.57
453.97	38321.59
454.15	38387.13
454.34	37345.59
454.52	37710.71
454.70	37303.46
454.89	37624.11
455.07	37614.75
455.26	38754.59
455.44	39976.35
455.62	40205.72
455.81	40814.26
455.99	40493.61
456.17	39749.32
456.36	39959.97
456.54	41027.25
456.73	41029.59
456.91	42160.07
457.09	41883.89
457.28	42513.49
457.46	40959.38
457.64	40545.10
457.83	39756.34
458.01	38796.72
458.19	39512.92
458.38	39828.90
458.56	41095.13
458.74	40980.44
458.93	40112.10
459.11	40273.60
459.29	40095.72
459.48	39995.07
459.66	39505.90
459.84	40589.57
460.03	40772.13
460.21	40718.30
460.39	41954.10
460.57	41668.56
460.76	42478.38
460.94	42387.10
461.12	41825.37
461.31	41467.27
461.49	41799.63
461.67	42253.69
461.85	43391.19
462.04	42916.06
462.22	43239.06
462.40	42567.32
462.59	42843.51
462.77	42777.97
462.95	43002.66
463.13	42649.24
463.32	41848.78
463.50	41743.45
463.68	41827.71
463.86	41565.57
464.05	41387.69
464.23	40790.86
464.41	40861.07
464.59	39693.15
464.78	41928.36
464.96	41684.94
465.14	41130.23
465.32	42054.75
465.50	43164.16
465.69	43557.37
465.87	42817.76
466.05	41287.05
466.23	39655.70
466.41	38897.36
466.60	40020.82
466.78	40065.29
466.96	40818.94
467.14	41429.82
467.32	41708.35
467.51	41530.47
467.69	40320.41
467.87	41062.36
468.05	41888.57
468.23	41574.94
468.41	41991.55
468.60	41904.95
468.78	41844.10
468.96	41373.65
469.14	42525.19
469.32	42473.70
469.50	40617.66
469.69	41530.47
469.87	40790.86
470.05	40428.07
470.23	40318.07
470.41	40605.95
470.59	41614.72
470.77	41530.47
470.95	42684.35
471.14	43005.00
471.32	42906.70
471.50	45050.63
471.68	45041.27
471.86	45736.41
472.04	45553.85
472.22	45605.34
472.40	43643.97
472.58	43576.09
472.77	42883.30
472.95	44016.11
473.13	45041.27
473.31	43374.81
473.49	43896.75
473.67	44657.42
473.85	45214.47
474.03	46045.36
474.21	46038.34
474.39	46590.70
474.57	46452.61
474.75	46639.86
474.93	46265.37
475.12	44753.38
475.30	45879.18
475.48	45790.24
475.66	46204.52
475.84	45741.09
476.02	45476.61
476.20	45043.61
476.38	45593.64
476.56	46728.80
476.74	47608.84
476.92	47344.36
477.10	48236.10
477.28	48940.60
477.46	49336.15
477.64	49418.07
477.82	49867.45
478.00	49956.39
478.18	49071.67
478.36	48947.62
478.54	49193.38
478.72	49633.40
478.90	50136.62
479.08	51262.41
479.26	51906.06
479.44	51562.00
479.62	51091.55
479.80	51229.65
479.98	51311.56
480.16	51936.49
480.34	51524.55
480.52	51688.39
480.70	51903.72
480.88	51793.71
481.06	52406.94
481.24	52711.20
481.41	53301.02
481.59	53921.26
481.77	53607.63
481.95	53106.76
482.13	52926.53
482.31	53279.96
482.49	53743.38
482.67	53563.16
482.85	53673.16
483.03	54347.24
483.21	54686.62
483.39	54274.68
483.57	53855.73
483.74	53453.15
483.92	53961.05
484.10	54309.79
484.28	54890.24
484.46	54995.57
484.64	55288.13
484.82	54571.93
485.00	54614.06
485.18	53701.25
485.35	52432.68
485.53	50075.76
485.71	46543.89
485.89	46153.02
486.07	48140.14
486.25	51164.11
486.43	53038.88
486.61	53715.29
486.78	53333.79
486.96	53673.16
487.14	55037.70
487.32	55693.05
487.50	56523.94
487.68	57099.71
487.85	57420.36
488.03	57212.06
488.21	57104.39
488.39	56409.25
488.57	56112.00
488.75	55597.09
488.92	56753.31
489.10	58550.84
489.28	59360.67
489.46	59840.48
489.64	59634.51
489.81	59767.92
489.99	59587.70
490.17	59678.98
490.35	59938.78
490.53	59573.66
490.70	59185.13
490.88	59400.46
491.06	59945.80
491.24	59913.03
491.41	59178.10
491.59	57738.68
491.77	57478.88
491.95	58113.16
492.13	59147.68
492.30	60102.62
492.48	60643.28
492.66	61207.35
492.84	61146.50
493.01	60816.48
493.19	60669.03
493.37	60086.23
493.54	60009.00
493.72	60547.32
493.90	61319.70
494.08	61982.07
494.25	62120.16
494.43	62307.40
494.61	62747.42
494.79	62871.47
494.96	62532.09
495.14	61881.42
495.32	61202.67
495.49	60748.60
495.67	61827.59
495.85	62803.59
496.02	63260.00
496.20	62915.94
496.38	62583.58
496.55	62642.10
496.73	62920.62
496.91	63000.20
497.09	63737.47
497.26	63632.14
497.44	63224.89
497.62	62763.81
497.79	62220.80
497.97	60942.87
498.14	61216.71
498.32	62291.02
498.50	62960.41
498.67	63444.90
498.85	63346.60
499.03	63505.76
499.20	63707.04
499.38	63650.87
499.56	63458.94
499.73	63276.38
499.91	62894.88
500.08	62396.34
500.26	61918.87
500.44	62080.37
500.61	62810.62
500.79	62625.71
500.97	62096.75
501.14	61975.05
501.32	62110.80
501.49	62047.60
501.67	62195.06
501.84	62752.10
502.02	62918.28
502.20	63159.36
502.37	63320.85
502.55	63370.00
502.72	64034.72
502.90	64243.02
503.07	63952.80
503.25	63566.61
503.43	62911.26
503.60	62166.97
503.78	61829.93
503.95	62166.97
504.13	63580.65
504.30	64219.62
504.48	63997.27
504.65	63667.25
504.83	63763.21
505.01	64191.53
505.18	64647.94
505.36	65094.98
505.53	65109.02
505.71	65183.92
505.88	65261.16
506.06	64622.19
506.23	64495.80
506.41	64273.45
506.58	64481.76
506.76	64331.96
506.93	64331.96
507.11	63992.59
507.28	64324.94
507.46	63854.50
507.63	63351.28
507.81	63222.55
507.98	63416.82
508.16	63999.61
508.33	64561.34
508.50	64687.73
508.68	65052.85
508.85	65483.51
509.03	65422.65
509.20	65219.03
509.38	64451.33
509.55	63845.13
509.73	64154.08
509.90	64669.00
510.08	64858.59
510.25	64767.30
510.42	64657.30
510.60	64575.38
510.77	64839.86
510.95	65275.20
511.12	65228.39
511.30	65535.00
511.47	65535.00
511.64	65535.00
511.82	65387.55
511.99	64804.75
512.17	64399.84
512.34	64081.53
512.51	64402.18
512.69	64530.91
512.86	64589.42
513.04	64886.67
513.21	64881.99
513.38	64474.74
513.56	64224.30
513.73	63615.76
513.90	63854.50
514.08	63903.65
514.25	64020.67
514.43	64261.75
514.60	64505.16
514.77	64673.68
514.95	64732.20
515.12	64481.76
515.29	64769.64
515.47	65263.50
515.64	65513.94
515.81	65137.11
515.99	64465.38
516.16	62958.07
516.33	61371.19
516.51	60006.65
516.68	59573.66
516.85	59196.83
517.03	59515.14
517.20	61970.36
517.37	63812.37
517.54	64727.52
517.72	64086.21
517.89	62071.01
518.06	60067.51
518.24	60666.69
518.41	62394.00
518.58	63470.65
518.75	63662.57
518.93	63746.83
519.10	63674.27
519.27	64072.17
519.45	64331.96
519.62	64872.63
519.79	65242.43
519.96	65165.20
520.14	64605.81
520.31	63859.18
520.48	64051.10
520.65	64315.58
520.83	65183.92
521.00	65469.46
521.17	65052.85
521.34	64849.22
521.52	65104.34
521.69	65453.08
521.86	65535.00
522.03	65490.53
522.20	64451.33
522.38	63601.72
522.55	63744.49
522.72	64179.83
522.89	64257.07
523.07	64575.38
523.24	64718.15
523.41	65488.19
523.58	65535.00
523.75	65535.00
523.92	65535.00
524.10	65535.00
524.27	65535.00
524.44	65535.00
524.61	65535.00
524.78	65396.91
524.96	65413.29
525.13	65469.46
525.30	65535.00
525.47	65535.00
525.64	65535.00
525.81	65394.57
525.98	64175.15
526.16	62941.69
526.33	62262.93
526.50	61925.89
526.67	61818.23
526.84	62305.06
527.01	63145.31
527.18	63917.69
527.36	64657.30
527.53	65509.25
527.70	65535.00
527.87	65153.49
528.04	64626.87
528.21	65165.20
528.38	65535.00
528.55	65535.00
528.72	65535.00
528.89	65535.00
529.07	65535.00
529.24	65535.00
529.41	65207.32
529.58	64680.70
529.75	64879.65
529.92	65389.89
530.09	65535.00
530.26	65535.00
530.43	65535.00
530.60	65535.00
530.77	65535.00
530.94	65535.00
531.11	65535.00
531.28	65535.00
531.46	65535.00
531.63	65535.00
531.80	65535.00
531.97	65350.10
532.14	64526.23
532.31	63667.25
532.48	63178.08
532.65	63262.34
532.82	64128.34
532.99	64984.97
533.16	65366.48
533.33	65535.00
533.50	65535.00
533.67	65041.15
533.84	64626.87
534.01	65013.06
534.18	64973.27
534.35	65256.48
534.52	65090.30
534.69	65305.63
534.86	65535.00
535.03	65535.00
535.20	65535.00
535.37	65535.00
535.54	65535.00
535.71	65535.00
535.88	65535.00
536.05	65336.05
536.22	64928.80
536.38	64842.20
536.55	64341.33
536.72	63898.97
536.89	63973.86
537.06	64694.75
537.23	65446.06
537.40	65535.00
537.57	65535.00
537.74	65525.64
537.91	65282.22
538.08	65190.94
538.25	65319.67
538.42	65417.97
538.59	65488.19
538.75	64851.56
538.92	64736.88
539.09	64559.00
539.26	64385.80
539.43	64072.17
539.60	64437.29
539.77	64315.58
539.94	64282.81
540.11	63655.55
540.28	63121.91
540.44	63400.43
540.61	63578.31
540.78	63784.28
540.95	63978.54
541.12	64427.93
541.29	64818.80
541.46	64865.61
541.62	65024.76
541.79	64816.46
541.96	64186.85
542.13	64537.93
542.30	64484.10
542.47	64736.88
542.63	64404.52
542.80	64355.37
542.97	64467.72
543.14	64203.24
543.31	64470.06
543.48	64690.07
543.64	65499.89
543.81	65535.00
543.98	65513.94
544.15	64973.27
544.32	64346.01
544.48	64556.66
544.65	64858.59
544.82	65441.38
544.99	64947.53
545.16	64561.34
545.32	64601.13
545.49	65179.24
545.66	65527.98
545.83	65036.47
546.00	64535.59
546.16	64357.71
546.33	64551.98
546.50	64811.77
546.67	64954.55
546.83	64694.75
547.00	64720.49
547.17	64088.55
547.34	63608.74
547.50	63688.32
547.67	63959.82
547.84	64121.32
548.00	64231.32
548.17	64800.07
548.34	64507.50
548.51	64647.94
548.67	64732.20
548.84	64615.17
549.01	64624.53
549.18	64650.28
549.34	64631.55
549.51	64708.79
549.68	64346.01
549.84	64264.09
550.01	64191.53
550.18	64114.29
550.34	64158.76
550.51	64189.19
550.68	64224.30
550.84	63931.73
551.01	63913.01
551.18	64048.76
551.34	63934.07
551.51	64296.86
551.68	64800.07
551.84	64748.58
552.01	64549.63
552.18	64308.56
552.34	63627.46
552.51	63505.76
552.68	63248.30
552.84	63812.37
553.01	63835.77
553.18	64001.95
553.34	63971.52
553.51	64165.79
553.67	64350.69
553.84	64388.14
554.01	64301.54
554.17	64093.23
554.34	64203.24
554.51	64299.20
554.67	64760.28
554.84	64406.86
555.00	64228.98
555.17	63929.39
555.33	63938.75
555.50	64135.36
555.67	63948.12
555.83	63884.92
556.00	63503.42
556.16	63613.42
556.33	63260.00
556.50	63149.99
556.66	63332.56
556.83	63035.31
556.99	62918.28
557.16	63260.00
557.32	63620.44
557.49	63587.67
557.65	63587.67
557.82	63351.28
557.98	63540.86
558.15	62941.69
558.32	62347.19
558.48	61715.25
558.65	61984.41
558.81	62316.76
558.98	62415.07
559.14	62763.81
559.31	62766.15
559.47	62555.50
559.64	62415.07
559.80	61998.45
559.97	62335.49
560.13	62651.46
560.30	63306.81
560.46	63653.21
560.63	63889.60
560.79	63896.62
560.96	63463.63
561.12	62777.85
561.29	61961.00
561.45	61989.09
561.61	62536.77
561.78	62738.06
561.94	62810.62
562.11	62480.60
562.27	62553.16
562.44	62834.02
562.60	63119.57
562.77	63407.45
562.93	63112.55
563.10	63128.93
563.26	62614.01
563.42	62480.60
563.59	62426.77
563.75	62279.31
563.92	62494.64
564.08	62492.30
564.24	62712.31
564.41	62585.92
564.57	62548.48
564.74	62499.33
564.90	62199.74
565.07	62246.55
565.23	61958.66
565.39	61588.86
565.56	61352.46
565.72	61254.16
565.88	61394.59
566.05	61614.60
566.21	61921.21
566.38	61911.85
566.54	62059.30
566.70	62110.80
566.87	62478.26
567.03	62438.47
567.19	62780.19
567.36	62239.53
567.52	62162.29
567.68	61914.19
567.85	61506.94
568.01	61214.37
568.17	60999.04
568.34	61076.28
568.50	60877.33
568.66	60945.21
568.83	61219.05
568.99	61387.57
569.15	61691.84
569.32	61399.27
569.48	61254.16
569.64	61146.50
569.81	60860.95
569.97	60690.09
570.13	60842.23
570.30	60481.78
570.46	60001.97
570.62	59627.49
570.78	59707.07
570.95	59980.91
571.11	60308.58
571.27	60671.37
571.43	60764.99
571.60	60919.46
571.76	61345.44
571.92	61305.65
572.09	61588.86
572.25	61453.11
572.41	61434.38
572.57	61226.07
572.74	61268.20
572.90	61045.85
573.06	61034.15
573.22	60945.21
573.38	60917.12
573.55	60961.59
573.71	61078.62
573.87	61132.45
574.03	60844.57
574.20	60970.96
574.36	60643.28
574.52	60491.15
574.68	60317.95
574.84	59854.52
575.01	59742.17
575.17	59594.72
575.33	59870.90
575.49	60135.38
575.65	60196.24
575.82	59859.20
575.98	59788.98
576.14	59999.63
576.30	60273.48
576.46	60353.05
576.62	60364.76
576.79	60278.16
576.95	59917.71
577.11	59877.93
577.27	60250.07
577.43	60058.15
577.59	59828.77
577.75	59391.09
577.92	58735.74
578.08	58688.93
578.24	58852.77
578.40	59175.76
578.56	59295.13
578.72	59220.23
578.88	59568.97
579.04	59711.75
579.21	59667.28
579.37	59632.17
579.53	59683.66
579.69	59732.81
579.85	59894.31
580.01	59641.53
580.17	59274.07
580.33	59227.26
580.49	59367.69
580.65	59746.86
580.82	59688.34
580.98	59704.73
581.14	59543.23
581.30	59606.42
581.46	59639.19
581.62	59774.94
581.78	59840.48
581.94	60060.49
582.10	60044.10
582.26	59973.89
582.42	59770.26
582.58	59976.23
582.74	59983.25
582.90	59941.12
583.06	59880.27
583.22	59650.89
583.38	59693.02
583.54	59540.89
583.70	59590.04
583.86	59639.19
584.02	59414.50
584.18	59597.06
584.34	59346.62
584.50	59487.06
584.66	59341.94
584.82	58941.71
584.98	59063.42
585.14	58700.64
