SpectraSuite Data File
++++++++++++++++++++++++++++++++++++
Date: Mon Oct 07 14:52:59 GMT-05:00 2013
User: price-jones
Dark Spectrum Present: No
Reference Spectrum Present: No
Number of Sampled Component Spectra: 1
Spectrometers: USB2+H05261
Integration Time (usec): 100000 (USB2+H05261)
Spectra Averaged: 1 (USB2+H05261)
Boxcar Smoothing: 0 (USB2+H05261)
Correct for Electrical Dark: No (USB2+H05261)
Strobe/Lamp Enabled: No (USB2+H05261)
Correct for Detector Non-linearity: No (USB2+H05261)
Correct for Stray Light: No (USB2+H05261)
Number of Pixels in Processed Spectrum: 2048
>>>>>Begin Processed Spectral Data<<<<<
365.73	0.00
365.92	0.00
366.12	0.00
366.32	0.00
366.52	0.00
366.72	0.00
366.91	0.00
367.11	0.00
367.31	0.00
367.51	0.00
367.70	0.00
367.90	0.00
368.10	0.00
368.30	0.00
368.49	0.00
368.69	0.00
368.89	0.00
369.09	0.00
369.28	0.00
369.48	0.00
369.68	0.00
369.87	0.00
370.07	0.00
370.27	0.00
370.47	545.34
370.66	2773.53
370.86	3337.60
371.06	3503.78
371.25	3691.02
371.45	3267.39
371.65	2885.88
371.84	2747.79
372.04	2869.50
372.24	3265.05
372.44	3407.82
372.63	3375.05
372.83	3115.25
373.03	2630.76
373.22	2487.99
373.42	2644.81
373.62	3000.57
373.81	3314.20
374.01	3316.54
374.21	2932.69
374.40	2825.03
374.60	2855.45
374.79	3281.43
374.99	3796.35
375.19	4070.19
375.38	4128.70
375.58	3857.20
375.78	3754.22
375.97	3758.90
376.17	3971.89
376.37	3941.46
376.56	4191.90
376.76	4348.72
376.95	4641.28
377.15	4954.91
377.35	5064.92
377.54	5247.48
377.74	5329.40
377.93	5626.65
378.13	5352.81
378.33	4882.36
378.52	4496.17
378.72	4533.62
378.91	4685.75
379.11	4318.29
379.31	4098.28
379.50	4161.47
379.70	4552.34
379.89	5057.90
380.09	5153.86
380.28	5210.03
380.48	5362.17
380.68	5078.96
380.87	5078.96
381.07	4554.68
381.26	4285.52
381.46	4236.37
381.65	3934.44
381.85	3775.28
382.04	3716.77
382.24	3281.43
382.43	3208.87
382.63	3279.09
382.83	3234.62
383.02	3337.60
383.22	3239.30
383.41	3236.96
383.61	3529.53
383.80	4053.81
384.00	4608.51
384.19	5046.20
384.39	5238.12
384.58	5453.45
384.78	5130.45
384.97	5165.56
385.17	4954.91
385.36	4650.64
385.56	4367.44
385.75	4697.46
385.95	5062.58
386.14	5430.04
386.34	5518.98
386.53	5212.37
386.72	4760.65
386.92	4910.44
387.11	5383.23
387.31	5434.72
387.50	5259.18
387.70	5116.41
387.89	4990.02
388.09	5205.35
388.28	5331.74
388.48	5322.38
388.67	5753.04
388.86	6417.75
389.06	6679.89
389.25	7133.95
389.45	7199.49
389.64	6925.65
389.84	7080.12
390.03	6707.98
390.22	7026.29
390.42	6998.20
390.61	7595.04
390.81	8074.85
391.00	8177.83
391.19	8248.05
391.39	7950.80
391.58	7391.41
391.78	7117.57
391.97	6707.98
392.16	6324.13
392.36	5596.22
392.55	4582.77
392.75	3669.96
392.94	3054.40
393.13	3166.74
393.33	3541.23
393.52	4610.86
393.71	5551.75
393.91	6099.44
394.10	6890.54
394.29	7595.04
394.49	7976.55
394.68	8638.92
394.88	8751.26
395.07	8840.20
395.26	8741.90
395.46	8535.93
395.65	8135.70
395.84	6885.86
396.04	6111.14
396.23	4844.91
396.42	4007.00
396.62	3894.65
396.81	4671.71
397.00	5912.19
397.19	7344.60
397.39	8669.34
397.58	9961.32
397.77	10305.38
397.97	10864.77
398.16	11021.58
398.35	11265.00
398.55	11391.39
398.74	12020.99
398.93	12318.24
399.12	12175.47
399.32	11714.38
399.51	11997.59
399.70	12638.89
399.90	12290.15
400.09	12760.60
400.28	12138.02
400.47	12461.01
400.67	13289.56
400.86	13572.77
401.05	13500.21
401.24	13586.81
401.44	13724.90
401.63	13870.01
401.82	13891.08
402.01	13867.67
402.21	14031.51
402.40	14153.22
402.59	13497.87
402.78	13224.03
402.97	12631.87
403.17	13270.84
403.36	13703.84
403.55	14764.10
403.74	14897.51
403.93	14036.19
404.13	12842.52
404.32	12849.54
404.51	13383.18
404.70	14576.86
404.89	14434.08
405.09	14167.26
405.28	13717.88
405.47	13788.10
405.66	13694.47
405.85	13425.31
406.05	12959.55
406.24	13011.04
406.43	13954.27
406.62	14291.31
406.81	14546.43
407.00	13776.39
407.20	13673.41
407.39	13628.94
407.58	14335.78
407.77	14864.74
407.96	15211.14
408.15	15508.39
408.34	15587.97
408.54	16437.58
408.73	16453.97
408.92	16006.92
409.11	15803.30
409.30	14979.43
409.49	13844.27
409.68	13090.62
409.87	12758.26
410.07	13504.89
410.26	14586.22
410.45	15496.69
410.64	16032.67
410.83	16388.43
411.02	16683.34
411.21	17455.72
411.40	16884.62
411.59	17050.80
411.78	17097.61
411.98	16919.73
412.17	17544.66
412.36	16861.22
412.55	16856.54
412.74	16685.68
412.93	15992.88
413.12	16430.56
413.31	17734.24
413.50	18237.45
413.69	18384.91
413.88	17858.29
414.07	17193.58
414.26	17727.22
414.45	17937.87
414.64	17898.08
414.83	18377.89
415.02	17844.24
415.22	17720.20
415.41	18078.30
415.60	18963.02
415.79	19669.86
415.98	19978.81
416.17	20023.28
416.36	19681.56
416.55	19480.28
416.74	18445.76
416.93	17958.93
417.12	17982.34
417.31	18253.84
417.50	18530.02
417.69	19199.41
417.88	19293.04
418.07	18913.87
418.26	18761.73
418.45	18927.91
418.64	19520.07
418.83	20161.37
419.02	19892.21
419.21	19627.73
419.39	18944.30
419.58	17727.22
419.77	18223.41
419.96	18789.82
420.15	20084.14
420.34	20407.13
420.53	21008.65
420.72	21418.24
420.91	21296.53
421.10	21102.27
421.29	20905.66
421.48	20149.67
421.67	21301.22
421.86	20746.51
422.05	19206.44
422.24	16931.44
422.43	17231.02
422.61	19044.94
422.80	20437.56
422.99	20463.30
423.18	19660.50
423.37	19475.60
423.56	19669.86
423.75	20074.77
423.94	19964.77
424.13	19145.58
424.32	19049.62
424.50	19616.03
424.69	19073.03
424.88	19337.51
425.07	19030.90
425.26	19061.32
425.45	18850.67
425.64	18649.39
425.83	18445.76
426.01	19499.00
426.20	20100.52
426.39	19810.29
426.58	18462.15
426.77	16830.79
426.96	16428.22
427.15	17139.74
427.33	18387.25
427.52	19122.18
427.71	19524.75
427.90	19073.03
428.09	18937.27
428.28	18359.16
428.46	17874.67
428.65	17467.42
428.84	18087.66
429.03	18499.59
429.22	17326.99
429.40	16505.46
429.59	15138.58
429.78	13291.90
429.97	13408.93
430.16	13305.95
430.34	13547.02
430.53	13624.26
430.72	13977.68
430.91	15496.69
431.10	18314.69
431.28	21488.46
431.47	22635.32
431.66	23068.32
431.85	21116.31
432.03	19531.77
432.22	18759.39
432.41	19218.14
432.60	21289.51
432.79	22359.14
432.97	22867.03
433.16	22185.94
433.35	20189.46
433.54	18092.34
433.72	17109.32
433.91	17923.82
434.10	20292.44
434.28	21362.07
434.47	22382.54
434.66	22057.21
434.85	21565.70
435.03	21139.72
435.22	21710.81
435.41	23201.73
435.59	23239.18
435.78	23655.79
435.97	24100.50
436.16	24383.70
436.34	23646.43
436.53	23431.10
436.72	23321.10
436.90	21989.33
437.09	22101.68
437.28	22192.96
437.46	22700.86
437.65	22611.92
437.84	21135.04
438.02	19585.60
438.21	19552.84
438.40	20168.40
438.58	21907.41
438.77	22609.58
438.96	22787.46
439.14	24081.77
439.33	24208.16
439.52	24706.70
439.70	24168.37
439.89	23880.49
440.08	22663.41
440.26	23241.52
440.45	23435.78
440.63	25568.01
440.82	26457.42
441.01	26038.46
441.19	26052.50
441.38	26314.64
441.57	27126.81
441.75	27796.20
441.94	27843.01
442.12	27447.46
442.31	28105.15
442.50	28325.16
442.68	28119.20
442.87	27765.78
443.05	26836.58
443.24	27358.52
443.43	27690.88
443.61	28465.60
443.80	28540.49
443.98	27248.52
444.17	27267.24
444.35	28919.66
444.54	29151.37
444.73	28884.55
444.91	27721.30
445.10	26850.63
445.28	25954.20
445.47	25001.60
445.65	25486.09
445.84	26249.11
446.02	27178.30
446.21	27353.84
446.39	27316.39
446.58	27819.61
446.77	28170.69
446.95	28552.20
447.14	29165.42
447.32	29336.27
447.51	28713.69
447.69	27793.86
447.88	27967.06
448.06	28144.94
448.25	28786.25
448.43	28999.24
448.62	28414.10
448.80	28053.66
448.99	28802.63
449.17	28528.79
449.36	28575.60
449.54	29795.02
449.73	30122.69
449.91	30799.11
450.10	31213.38
450.28	31962.36
450.46	31648.72
450.65	31707.24
450.83	31147.85
451.02	30607.19
451.20	30192.91
451.39	30646.97
451.57	30522.93
451.76	30492.50
451.94	30115.67
452.13	29509.47
452.31	28547.51
452.49	26960.63
452.68	27269.58
452.86	27522.36
453.05	27714.28
453.23	28786.25
453.42	29123.29
453.60	30295.89
453.78	30256.11
453.97	30050.14
454.15	30298.23
454.34	29495.43
454.52	29535.22
454.70	29118.60
454.89	29053.07
455.07	29472.03
455.26	29844.17
455.44	30834.22
455.62	31601.91
455.81	31550.42
455.99	31096.36
456.17	31199.34
456.36	31204.02
456.54	32039.59
456.73	31632.34
456.91	32393.01
457.09	32828.35
457.28	33207.52
457.46	31714.26
457.64	31934.27
457.83	30794.43
458.01	29996.31
458.19	30740.60
458.38	31019.12
458.56	32257.26
458.74	31861.71
458.93	31309.35
459.11	31246.15
459.29	31150.19
459.48	31215.72
459.66	31377.22
459.84	31814.90
460.03	31732.98
460.21	31695.53
460.39	32283.01
460.57	32613.02
460.76	32903.25
460.94	33343.27
461.12	32439.82
461.31	32903.25
461.49	32673.88
461.67	32701.96
461.85	33867.55
462.04	33516.47
462.22	34206.93
462.40	33560.94
462.59	33635.84
462.77	33490.73
462.95	33677.97
463.13	33184.12
463.32	32865.80
463.50	32769.84
463.68	32723.03
463.86	32652.81
464.05	32308.76
464.23	31693.19
464.41	31622.98
464.59	31054.23
464.78	32723.03
464.96	32598.98
465.14	31990.44
465.32	32795.59
465.50	33649.88
465.69	34078.20
465.87	33422.85
466.05	32336.84
466.23	30960.61
466.41	30031.41
466.60	31299.98
466.78	31342.11
466.96	31798.52
467.14	32418.76
467.32	32435.14
467.51	32662.18
467.69	31433.39
467.87	32144.92
468.05	32617.71
468.23	32507.70
468.41	32624.73
468.60	32587.28
468.78	32978.15
468.96	32755.80
469.14	33366.68
469.32	33340.93
469.50	32091.09
469.69	32306.41
469.87	31292.96
470.05	31740.00
470.23	31428.71
470.41	31775.11
470.59	32381.31
470.77	32608.34
470.95	32767.50
471.14	33010.92
471.32	33574.98
471.50	35349.11
471.68	35576.14
471.86	35463.80
472.04	35810.20
472.22	35901.48
472.40	34153.10
472.58	34071.18
472.77	33329.23
472.95	33998.62
473.13	35033.14
473.31	34277.15
473.49	34401.19
473.67	35257.83
473.85	35178.25
474.03	36414.05
474.21	36498.31
474.39	36329.80
474.57	36741.73
474.75	36329.80
474.93	36233.83
475.12	35810.20
475.30	35644.02
475.48	35765.73
475.66	36341.50
475.84	35737.64
476.02	34829.51
476.20	34810.79
476.38	36158.94
476.56	36835.35
476.74	37249.63
476.92	37443.89
477.10	37935.40
477.28	39639.31
477.46	38953.54
477.64	39271.85
477.82	40051.25
478.00	39887.41
478.18	39016.73
478.36	38906.73
478.54	39033.11
478.72	39473.13
478.90	40282.96
479.08	41525.78
479.26	41617.07
479.44	42052.41
479.62	41621.75
479.80	41673.24
479.98	41706.01
480.16	42057.09
480.34	41717.71
480.52	42094.53
480.70	42021.98
480.88	42185.82
481.06	43473.11
481.24	43143.09
481.41	44631.68
481.59	45001.48
481.77	44423.37
481.95	43761.00
482.13	44233.78
482.31	43782.06
482.49	44619.97
482.67	44065.27
482.85	44325.07
483.03	45139.57
483.21	45481.29
483.39	45572.57
483.57	44268.89
483.74	44648.06
483.92	45167.66
484.10	45132.55
484.28	46101.53
484.46	46422.19
484.64	46824.76
484.82	45808.96
485.00	45595.98
485.18	44631.68
485.35	43683.76
485.53	39915.50
485.71	36692.58
485.89	36624.70
486.07	38501.81
486.25	41577.28
486.43	43962.28
486.61	44713.59
486.78	44699.55
486.96	44629.34
487.14	46213.88
487.32	47363.08
487.50	48360.15
487.68	49434.45
487.85	49682.55
488.03	49813.62
488.21	49116.14
488.39	48294.61
488.57	47810.12
488.75	47260.10
488.92	48818.89
489.10	50880.91
489.28	52163.52
489.46	53118.46
489.64	52746.31
489.81	52966.32
489.99	52514.60
490.17	52701.84
490.35	53333.79
490.53	52388.21
490.70	52332.04
490.88	52011.38
491.06	52846.96
491.24	52905.47
491.41	51796.06
491.59	50581.32
491.77	49523.40
491.95	50904.31
492.13	51833.50
492.30	52870.36
492.48	53904.88
492.66	54438.52
492.84	54358.94
493.01	54281.70
493.19	53813.60
493.37	53436.77
493.54	52968.66
493.72	53684.87
493.90	54827.05
494.08	55231.96
494.25	55814.76
494.43	56081.58
494.61	56582.45
494.79	56537.98
494.96	56264.14
495.14	55531.55
495.32	54614.06
495.49	54237.23
495.67	55051.74
495.85	56530.96
496.02	56800.12
496.20	56591.81
496.38	56189.24
496.55	56051.15
496.73	56779.06
496.91	56493.51
497.09	57366.53
497.26	57415.68
497.44	57045.88
497.62	56481.81
497.79	55660.28
497.97	54447.88
498.14	54700.66
498.32	55718.79
498.50	56535.64
498.67	57408.66
498.85	57240.14
499.03	57125.46
499.20	57305.68
499.38	57265.89
499.56	57188.65
499.73	56835.23
499.91	56369.46
500.08	56151.79
500.26	55508.14
500.44	55746.88
500.61	56481.81
500.79	56317.97
500.97	55833.48
501.14	55887.31
501.32	55444.95
501.49	55749.22
501.67	55931.78
501.84	56402.23
502.02	56755.65
502.20	56839.91
502.37	57298.65
502.55	57041.20
502.72	57607.61
502.90	58141.25
503.07	57649.74
503.25	57209.71
503.43	56603.52
503.60	55973.91
503.78	55271.75
503.95	55648.58
504.13	57198.01
504.30	57928.26
504.48	57689.52
504.65	57336.10
504.83	57581.86
505.01	58031.24
505.18	58415.09
505.36	59089.16
505.53	58930.01
505.71	59241.30
505.88	59143.00
506.06	58569.57
506.23	58300.40
506.41	58099.12
506.58	58375.30
506.76	58253.59
506.93	58178.70
507.11	58071.03
507.28	58218.49
507.46	57476.54
507.63	57006.09
507.81	57029.49
507.98	57043.54
508.16	57670.80
508.33	58253.59
508.50	58590.63
508.68	58876.18
508.85	59487.06
509.03	59206.19
509.20	59032.99
509.38	58288.70
509.55	57724.63
509.73	57963.37
509.90	58592.97
510.08	58642.12
510.25	58698.30
510.42	58494.67
510.60	58148.27
510.77	58534.46
510.95	59276.41
511.12	59370.03
511.30	59531.53
511.47	59690.68
511.64	59742.17
511.82	59384.07
511.99	58422.11
512.17	58356.58
512.34	58099.12
512.51	58204.44
512.69	58314.45
512.86	58522.76
513.04	58810.64
513.21	58908.94
513.38	58408.07
513.56	57918.90
513.73	57272.91
513.90	57659.10
514.08	57750.38
514.25	58035.92
514.43	58108.48
514.60	58314.45
514.77	58480.63
514.95	58284.02
515.12	58403.39
515.29	58494.67
515.47	59182.79
515.64	59370.03
515.81	58838.73
515.99	58340.19
516.16	56580.11
516.33	54740.45
516.51	53212.08
516.68	52416.30
516.85	51915.42
517.03	52666.73
517.20	55241.32
517.37	57717.61
517.54	58930.01
517.72	57963.37
517.89	55306.86
518.06	53172.29
518.24	53932.96
518.41	55805.39
518.58	57109.07
518.75	57258.87
518.93	57345.47
519.10	57359.51
519.27	57836.98
519.45	58110.82
519.62	58756.81
519.79	59110.23
519.96	58871.49
520.14	58457.22
520.31	57455.47
520.48	57645.05
520.65	58007.84
520.83	58894.90
521.00	59304.49
521.17	58707.66
521.34	58459.56
521.52	58948.73
521.69	59599.40
521.86	59484.72
522.03	59154.70
522.20	57970.39
522.38	57144.18
522.55	57331.42
522.72	58071.03
522.89	57956.35
523.07	58368.28
523.24	58698.30
523.41	59241.30
523.58	59597.06
523.75	60051.12
523.92	59971.55
524.10	60041.76
524.27	59877.93
524.44	59618.13
524.61	59531.53
524.78	59229.60
524.96	59222.58
525.13	59283.43
525.30	59585.36
525.47	59976.23
525.64	59814.73
525.81	59093.85
525.98	57888.47
526.16	56390.53
526.33	55941.14
526.50	55384.10
526.67	55278.77
526.84	55987.95
527.01	56743.95
527.18	57628.67
527.36	58389.34
527.53	59480.03
527.70	59451.95
527.87	58761.49
528.04	58789.58
528.21	59021.29
528.38	59676.64
528.55	60140.07
528.72	60449.02
528.89	60519.23
529.07	60226.66
529.24	59587.70
529.41	58997.88
529.58	58447.86
529.75	58621.06
529.92	59047.04
530.09	59416.84
530.26	59772.60
530.43	60247.73
530.60	60093.25
530.77	60236.03
530.94	60427.95
531.11	60044.10
531.28	59613.44
531.46	59559.61
531.63	59618.13
531.80	59686.00
531.97	59117.25
532.14	58321.47
532.31	57380.57
532.48	56741.61
532.65	56942.89
532.82	57612.29
532.99	58848.09
533.16	59133.63
533.33	59812.39
533.50	59409.82
533.67	58843.41
533.84	58735.74
534.01	58735.74
534.18	58981.50
534.35	58990.86
534.52	58632.76
534.69	59014.27
534.86	59594.72
535.03	59690.68
535.20	60001.97
535.37	60502.85
535.54	60725.20
535.71	60111.98
535.88	59753.88
536.05	59063.42
536.22	58915.96
536.38	58588.29
536.55	58188.06
536.72	57509.30
536.89	57579.52
537.06	58529.78
537.23	59290.45
537.40	59597.06
537.57	59508.12
537.74	59292.79
537.91	59217.89
538.08	59168.74
538.25	59353.65
538.42	59456.63
538.59	59079.80
538.75	58569.57
538.92	58422.11
539.09	58314.45
539.26	57914.22
539.43	57822.93
539.60	58080.39
539.77	58260.62
539.94	58052.31
540.11	57186.31
540.28	57059.92
540.44	57134.82
540.61	57055.24
540.78	57490.58
540.95	57792.51
541.12	58108.48
541.29	58564.88
541.46	58609.35
541.62	58693.61
541.79	58532.12
541.96	57949.32
542.13	58120.18
542.30	58398.71
542.47	58471.26
542.63	58204.44
542.80	58136.57
542.97	58049.97
543.14	58157.63
543.31	58319.13
543.48	58827.02
543.64	59152.36
543.81	59683.66
543.98	59253.00
544.15	58710.00
544.32	58223.17
544.48	58396.37
544.65	58665.53
544.82	59007.25
544.99	58621.06
545.16	58204.44
545.32	57965.71
545.49	59056.40
545.66	59157.04
545.83	58922.99
546.00	58532.12
546.16	58099.12
546.33	58169.33
546.50	58422.11
546.67	58791.92
546.83	58321.47
547.00	58251.25
547.17	57607.61
547.34	57293.97
547.50	57242.48
547.67	57748.04
547.84	57759.74
548.00	57942.30
548.17	58525.10
548.34	58433.81
548.51	58440.84
548.67	58323.81
548.84	58529.78
549.01	58368.28
549.18	58101.46
549.34	58190.40
549.51	58471.26
549.68	58206.78
549.84	57893.15
550.01	57893.15
550.18	57556.11
550.34	57907.19
550.51	57902.51
550.68	57998.48
550.84	57474.20
551.01	57532.71
551.18	57745.70
551.34	57733.99
551.51	58103.80
551.68	58220.83
551.84	58419.77
552.01	58340.19
552.18	58005.50
552.34	57251.84
552.51	57015.45
552.68	56975.66
552.84	57403.98
553.01	57591.22
553.18	57506.96
553.34	57612.29
553.51	57762.08
553.67	57918.90
553.84	58150.61
554.01	57886.13
554.17	57733.99
554.34	57968.05
554.51	58033.58
554.67	58457.22
554.84	58185.72
555.00	57750.38
555.17	57572.50
555.33	57544.41
555.50	57464.83
555.67	57642.71
555.83	57293.97
556.00	57102.05
556.16	57190.99
556.33	56907.79
556.50	56631.60
556.66	56605.86
556.83	56505.21
556.99	56685.43
557.16	56458.40
557.32	56989.70
557.49	57237.80
557.65	57106.73
557.82	57130.14
557.98	57118.43
558.15	56542.66
558.32	55524.53
558.48	54932.37
558.65	55295.16
558.81	55569.00
558.98	55835.82
559.14	55917.74
559.31	56006.68
559.47	55758.58
559.64	55611.13
559.80	55393.46
559.97	55758.58
560.13	56161.15
560.30	56772.03
560.46	57251.84
560.63	57488.24
560.79	57511.64
560.96	56973.32
561.12	55943.48
561.29	55348.99
561.45	55428.57
561.61	56086.26
561.78	56287.54
561.94	56212.65
562.11	56191.58
562.27	55985.61
562.44	56289.88
562.60	56463.08
562.77	56781.40
562.93	56608.20
563.10	56516.92
563.26	55966.89
563.42	56158.81
563.59	55910.72
563.75	55531.55
563.92	55955.19
564.08	55856.88
564.24	56067.53
564.41	56322.65
564.57	56294.56
564.74	55653.26
564.90	55922.42
565.07	55608.79
565.23	55098.55
565.39	54593.00
565.56	54667.89
565.72	54213.83
565.88	54436.18
566.05	54747.47
566.21	55044.72
566.38	55196.85
566.54	55334.95
566.70	55306.86
566.87	55922.42
567.03	55875.61
567.19	56264.14
567.36	55875.61
567.52	55700.07
567.68	55274.09
567.85	54482.99
568.01	54588.31
568.17	53839.34
568.34	53989.14
568.50	53862.75
568.66	54335.54
568.83	54351.92
568.99	54520.44
569.15	54569.59
569.32	54726.41
569.48	54450.22
569.64	54410.43
569.81	53785.51
569.97	53963.39
570.13	53785.51
570.30	53179.31
570.46	52832.91
570.62	52629.29
570.78	52545.03
570.95	52732.27
571.11	53560.82
571.27	53649.76
571.43	53783.17
571.60	54195.10
571.76	54251.28
571.92	54630.44
572.09	54777.90
572.25	54595.34
572.41	54546.18
572.57	54291.07
572.74	54410.43
572.90	54284.04
573.06	54054.67
573.22	54216.17
573.38	54143.61
573.55	54035.95
573.71	54120.21
573.87	54288.73
574.03	53925.94
574.20	53858.07
574.36	53743.38
574.52	53577.20
574.68	53214.42
574.84	52856.32
575.01	52718.23
575.17	52458.43
575.33	52516.94
575.49	52886.74
575.65	53350.17
575.82	52884.40
575.98	52842.27
576.14	53120.80
576.30	53233.14
576.46	53275.27
576.62	53076.33
576.79	53338.47
576.95	53083.35
577.11	52945.26
577.27	52809.51
577.43	52800.15
577.59	52325.02
577.75	52048.83
577.92	51634.56
578.08	51643.92
578.24	51147.73
578.40	51943.51
578.56	51650.94
578.72	51906.06
578.88	52388.21
579.04	52203.31
579.21	52397.57
579.37	52488.85
579.53	52629.29
579.69	52687.80
579.85	52942.92
580.01	52502.90
580.17	52002.02
580.33	51952.87
580.49	52147.14
580.65	52472.47
580.82	52587.16
580.98	52413.96
581.14	52430.34
581.30	52507.58
581.46	52685.46
581.62	52418.64
581.78	52652.69
581.94	52978.03
582.10	52954.62
582.26	52809.51
582.42	52655.03
582.58	52626.95
582.74	52762.70
582.90	52875.04
583.06	52907.81
583.22	52458.43
583.38	52374.17
583.54	52037.13
583.70	52467.79
583.86	52617.58
584.02	52285.23
584.18	52395.23
584.34	52257.14
584.50	51964.57
584.66	52013.73
584.82	51440.29
584.98	51459.02
585.14	51114.96
585.30	50213.85
