SpectraSuite Data File
++++++++++++++++++++++++++++++++++++
Date: Mon Oct 07 14:53:34 GMT-05:00 2013
User: price-jones
Dark Spectrum Present: No
Reference Spectrum Present: No
Number of Sampled Component Spectra: 1
Spectrometers: USB2+H05261
Integration Time (usec): 100000 (USB2+H05261)
Spectra Averaged: 1 (USB2+H05261)
Boxcar Smoothing: 0 (USB2+H05261)
Correct for Electrical Dark: No (USB2+H05261)
Strobe/Lamp Enabled: No (USB2+H05261)
Correct for Detector Non-linearity: No (USB2+H05261)
Correct for Stray Light: No (USB2+H05261)
Number of Pixels in Processed Spectrum: 2048
>>>>>Begin Processed Spectral Data<<<<<
365.73	0.00
365.92	0.00
366.12	0.00
366.32	0.00
366.52	0.00
366.72	0.00
366.91	0.00
367.11	0.00
367.31	0.00
367.51	0.00
367.70	0.00
367.90	0.00
368.10	0.00
368.30	0.00
368.49	0.00
368.69	0.00
368.89	0.00
369.09	0.00
369.28	0.00
369.48	0.00
369.68	0.00
369.87	0.00
370.07	0.00
370.27	0.00
370.47	454.06
370.66	2906.95
370.86	3410.16
371.06	3742.52
371.25	3819.75
371.45	3426.54
371.65	3178.45
371.84	2743.11
372.04	2970.14
372.24	3311.86
372.44	3485.06
372.63	3424.20
372.83	3169.09
373.03	2899.92
373.22	2572.25
373.42	2691.62
373.62	3075.46
373.81	3435.91
374.01	3471.01
374.21	3157.38
374.40	2836.73
374.60	2925.67
374.79	3211.22
374.99	3967.21
375.19	4369.78
375.38	4236.37
375.58	3941.46
375.78	3885.29
375.97	3873.59
376.17	4217.65
376.37	4149.77
376.56	4250.41
376.76	4416.59
376.95	4648.30
377.15	5097.69
377.35	5252.16
377.54	5434.72
377.74	5713.25
377.93	5802.19
378.13	5554.09
378.33	5305.99
378.52	4877.68
378.72	4641.28
378.91	4648.30
379.11	4559.36
379.31	4402.55
379.50	4320.63
379.70	4517.23
379.89	4943.21
380.09	5423.02
380.28	5748.36
380.48	5636.01
380.68	5497.92
380.87	5331.74
381.07	4968.96
381.26	4620.22
381.46	4421.27
381.65	4182.54
381.85	4030.40
382.04	3913.38
382.24	3709.75
382.43	3351.65
382.63	3330.58
382.83	3396.12
383.02	3447.61
383.22	3316.54
383.41	3330.58
383.61	3679.32
383.80	4067.85
384.00	4683.41
384.19	5418.34
384.39	5458.13
384.58	5614.95
384.78	5434.72
384.97	5418.34
385.17	5160.88
385.36	4870.65
385.56	4770.01
385.75	4835.55
385.95	5153.86
386.14	5879.43
386.34	5830.27
386.53	5458.13
386.72	5221.74
386.92	5263.86
387.11	5540.05
387.31	5834.96
387.50	5612.60
387.70	5291.95
387.89	5448.77
388.09	5465.15
388.28	5488.56
388.48	5483.88
388.67	5975.39
388.86	6539.46
389.06	7021.61
389.25	7382.05
389.45	7452.27
389.64	7557.59
389.84	7232.26
390.03	7096.50
390.22	7197.15
390.42	7417.16
390.61	7922.71
390.81	8580.40
391.00	8723.18
391.19	8484.44
391.39	8278.47
391.58	7789.30
391.78	7473.33
391.97	7166.72
392.16	6745.42
392.36	6043.26
392.55	4856.61
392.75	3918.06
392.94	3194.83
393.13	3180.79
393.33	3634.85
393.52	4772.35
393.71	5825.59
393.91	6689.25
394.10	7005.22
394.29	7765.90
394.49	8486.78
394.68	9032.13
394.88	8985.32
395.07	9228.73
395.26	9483.85
395.46	8973.61
395.65	8535.93
395.84	7534.18
396.04	6574.56
396.23	5041.51
396.42	4173.18
396.62	4119.34
396.81	4784.06
397.00	6097.10
397.19	7634.83
397.39	9158.52
397.58	10174.31
397.77	11056.69
397.97	11302.45
398.16	11157.33
398.35	11800.98
398.55	12049.08
398.74	12578.04
398.93	13214.66
399.12	12847.20
399.32	12596.76
399.51	12589.74
399.70	13525.96
399.90	13107.00
400.09	13521.27
400.28	13261.48
400.47	13350.42
400.67	13970.66
400.86	14441.11
401.05	14223.44
401.24	14200.03
401.44	14661.12
401.63	14670.48
401.82	14583.88
402.01	14647.07
402.21	14780.48
402.40	15007.52
402.59	14616.65
402.78	13760.01
402.97	13287.22
403.17	13907.46
403.36	14778.14
403.55	15192.42
403.74	15606.69
403.93	14813.25
404.13	13757.67
404.32	13490.85
404.51	13954.27
404.70	15332.85
404.89	15066.03
405.09	15094.11
405.28	14572.18
405.47	14516.00
405.66	14422.38
405.85	14246.84
406.05	13820.86
406.24	13858.31
406.43	14497.28
406.62	14993.47
406.81	15262.63
407.00	14602.60
407.20	14335.78
407.39	14417.70
407.58	15206.46
407.77	15449.88
407.96	16023.31
408.15	16339.28
408.34	16587.38
408.54	17099.95
408.73	17060.16
408.92	17036.76
409.11	16512.48
409.30	15805.64
409.49	14696.22
409.68	13902.78
409.87	13481.49
410.07	14132.15
410.26	15480.30
410.45	16358.00
410.64	16723.13
410.83	17289.54
411.02	17598.49
411.21	18527.68
411.40	18155.54
411.59	18225.75
411.78	18387.25
411.98	18071.28
412.17	18286.61
412.36	17912.12
412.55	17907.44
412.74	17542.32
412.93	17378.48
413.12	17256.77
413.31	19033.24
413.50	19276.65
413.69	19585.60
413.88	18518.32
414.07	18267.88
414.26	18511.30
414.45	18904.51
414.64	19271.97
414.83	19145.58
415.02	18668.11
415.22	18642.37
415.41	19227.50
415.60	19655.82
415.79	20739.49
415.98	21125.68
416.17	21216.96
416.36	20732.47
416.55	20479.69
416.74	19672.20
416.93	18824.93
417.12	18827.27
417.31	19297.72
417.50	19548.15
417.69	20229.25
417.88	20056.05
418.07	20088.82
418.26	19513.05
418.45	19410.06
418.64	20573.31
418.83	21308.24
419.02	20751.19
419.21	20713.74
419.39	19957.75
419.58	18981.74
419.77	18874.08
419.96	19957.75
420.15	21235.68
420.34	21385.47
420.53	22326.37
420.72	22703.20
420.91	22335.73
421.10	22511.27
421.29	22302.96
421.48	21303.56
421.67	22235.09
421.86	21851.24
422.05	20177.76
422.24	18141.49
422.43	18082.98
422.61	19836.04
422.80	21598.46
422.99	21647.61
423.18	20835.45
423.37	20549.90
423.56	20313.51
423.75	20922.05
423.94	21427.60
424.13	19871.15
424.32	20510.11
424.50	20376.70
424.69	20114.56
424.88	20346.28
425.07	20107.54
425.26	20147.33
425.45	19899.23
425.64	19473.26
425.83	19510.71
426.01	20753.53
426.20	21436.97
426.39	20985.24
426.58	19578.58
426.77	17881.69
426.96	17233.36
427.15	18174.26
427.33	19491.98
427.52	20128.61
427.71	20472.67
427.90	20177.76
428.09	19896.89
428.28	19758.80
428.46	18757.05
428.65	18511.30
428.84	18754.71
429.03	19477.94
429.22	18412.99
429.40	17759.98
429.59	15728.40
429.78	13792.78
429.97	13748.31
430.16	14291.31
430.34	14345.14
430.53	14015.13
430.72	14490.26
430.91	15927.35
431.10	19033.24
431.28	21881.67
431.47	23810.27
431.66	24645.84
431.85	22148.49
432.03	20755.87
432.22	19658.16
432.41	20259.68
432.60	22515.95
432.79	23590.26
432.97	23920.28
433.16	23601.96
433.35	21469.73
433.54	19323.46
433.72	18150.85
433.91	18532.36
434.10	20842.47
434.28	22527.66
434.47	23756.44
434.66	23133.86
434.85	22410.63
435.03	22043.17
435.22	23255.56
435.41	24233.91
435.59	24629.46
435.78	24582.65
435.97	25504.82
436.16	25551.63
436.34	25015.65
436.53	24781.59
436.72	25017.99
436.90	23578.56
437.09	23480.25
437.28	22963.00
437.46	23594.94
437.65	23604.30
437.84	22284.24
438.02	20163.72
438.21	20229.25
438.40	21465.05
438.58	22951.29
438.77	23758.78
438.96	23901.55
439.14	24884.58
439.33	25303.53
439.52	26085.27
439.70	25413.54
439.89	25195.87
440.08	24196.46
440.26	23716.65
440.45	24875.21
440.63	26387.20
440.82	28114.52
441.01	27470.87
441.19	27501.29
441.38	27562.15
441.57	28315.80
441.75	29017.96
441.94	29385.43
442.12	28982.85
442.31	29708.42
442.50	29448.62
442.68	29221.59
442.87	28893.91
443.05	28439.85
443.24	28786.25
443.43	29315.21
443.61	30209.29
443.80	30075.88
443.98	28753.48
444.17	28797.95
444.35	30389.52
444.54	31037.84
444.73	30244.40
444.91	29083.50
445.10	28056.00
445.28	26745.30
445.47	26316.98
445.65	26838.92
445.84	27449.80
446.02	28142.60
446.21	28833.06
446.39	28959.45
446.58	29303.51
446.77	29949.50
446.95	29745.87
447.14	30689.10
447.32	30876.35
447.51	30862.30
447.69	29392.45
447.88	29048.39
448.06	29399.47
448.25	29743.53
448.43	30555.69
448.62	29532.88
448.80	29530.54
448.99	29968.22
449.17	29961.20
449.36	30010.35
449.54	31288.28
449.73	31716.60
449.91	32027.89
450.10	32584.94
450.28	33469.66
450.46	33191.14
450.65	33006.23
450.83	32725.37
451.02	32268.97
451.20	32180.03
451.39	32135.56
451.57	31838.31
451.76	31969.38
451.94	31770.43
452.13	31145.51
452.31	29528.20
452.49	28219.84
452.68	28493.68
452.86	28636.45
453.05	28914.98
453.23	29975.24
453.42	30843.58
453.60	31569.15
453.78	31538.72
453.97	30948.90
454.15	31655.75
454.34	30827.20
454.52	30843.58
454.70	30206.95
454.89	30424.62
455.07	30469.09
455.26	31187.64
455.44	31889.80
455.62	32947.72
455.81	33046.02
455.99	32613.02
456.17	32589.62
456.36	32493.66
456.54	33188.80
456.73	33385.40
456.91	33699.03
457.09	34295.87
457.28	34433.96
457.46	33806.70
457.64	33020.28
457.83	31938.95
458.01	31435.74
458.19	32301.73
458.38	32638.77
458.56	33488.38
458.74	33481.36
458.93	32779.20
459.11	32449.19
459.29	32423.44
459.48	32692.60
459.66	32596.64
459.84	32608.34
460.03	33692.01
460.21	33652.22
460.39	33977.56
460.57	34202.25
460.76	34422.26
460.94	35112.72
461.12	33820.74
461.31	34375.45
461.49	34026.71
461.67	34019.69
461.85	35122.08
462.04	35021.44
462.22	35714.23
462.40	34892.71
462.59	34808.45
462.77	35084.63
462.95	34890.37
463.13	34569.71
463.32	34565.03
463.50	34480.77
463.68	34225.65
463.86	34005.64
464.05	33603.07
464.23	33472.00
464.41	32865.80
464.59	32596.64
464.78	34061.82
464.96	33701.37
465.14	33909.68
465.32	34384.81
465.50	35585.50
465.69	35648.70
465.87	34618.86
466.05	33919.04
466.23	32278.33
466.41	31585.53
466.60	32341.52
466.78	32037.25
466.96	33352.63
467.14	33699.03
467.32	34169.48
467.51	34183.52
467.69	32699.62
467.87	33352.63
468.05	34101.61
468.23	34022.03
468.41	34251.40
468.60	33954.15
468.78	34328.64
468.96	33930.75
469.14	34279.49
469.32	34859.94
469.50	33586.69
469.69	33331.57
469.87	33366.68
470.05	33046.02
470.23	32875.16
470.41	33039.00
470.59	33385.40
470.77	33455.62
470.95	34328.64
471.14	34745.25
471.32	35159.53
471.50	36664.49
471.68	37048.34
471.86	37298.78
472.04	37111.53
472.22	37535.17
472.40	35749.34
472.58	35564.44
472.77	34663.33
472.95	35777.43
473.13	36718.32
473.31	35821.90
473.49	35681.47
473.67	36362.56
473.85	36362.56
474.03	37642.84
474.21	37879.23
474.39	38167.12
474.57	38356.70
474.75	38384.79
474.93	37846.46
475.12	36840.03
475.30	37067.06
475.48	36992.17
475.66	37764.54
475.84	37518.79
476.02	37247.29
476.20	36446.82
476.38	36952.38
476.56	38307.55
476.74	38667.99
476.92	38960.56
477.10	39482.50
477.28	40835.33
477.46	40727.66
477.64	40945.33
477.82	41010.87
478.00	41708.35
478.18	40671.49
478.36	40802.56
478.54	40800.22
478.72	41001.50
478.90	41883.89
479.08	42625.84
479.26	43922.49
479.44	43243.74
479.62	42930.11
479.80	42845.85
479.98	42955.85
480.16	43379.49
480.34	43225.01
480.52	43505.88
480.70	43601.84
480.88	43290.55
481.06	44547.42
481.24	45069.36
481.41	45773.86
481.59	46443.25
481.77	45830.03
481.95	45256.60
482.13	45364.26
482.31	45450.86
482.49	45991.53
482.67	45890.88
482.85	46323.88
483.03	46763.90
483.21	47227.33
483.39	47477.77
483.57	46571.98
483.74	46129.62
483.92	46445.59
484.10	46408.14
484.28	47468.40
484.46	47536.28
484.64	48271.21
484.82	47313.93
485.00	46909.02
485.18	46529.85
485.35	45102.12
485.53	41907.29
485.71	38630.54
485.89	37127.92
486.07	39402.92
486.25	42773.29
486.43	45244.90
486.61	46190.47
486.78	45923.65
486.96	46436.23
487.14	47660.33
487.32	48758.04
487.50	49766.81
487.68	50347.26
487.85	51004.95
488.03	50883.25
488.21	50513.44
488.39	50108.53
488.57	49134.87
488.75	49118.48
488.92	49752.77
489.10	51751.59
489.28	53485.92
489.46	53911.90
489.64	53755.08
489.81	54387.03
489.99	53469.54
490.17	53609.97
490.35	54094.46
490.53	53521.03
490.70	53151.23
490.88	53066.97
491.06	53942.33
491.24	53984.46
491.41	53462.52
491.59	51494.13
491.77	50707.71
491.95	51992.66
492.13	53048.24
492.30	54155.32
492.48	55000.25
492.66	55597.09
492.84	55440.27
493.01	55173.45
493.19	54752.15
493.37	54302.77
493.54	54087.44
493.72	54630.44
493.90	55662.62
494.08	56425.64
494.25	56891.40
494.43	57097.37
494.61	57162.90
494.79	57471.85
494.96	56999.07
495.14	56701.82
495.32	55863.91
495.49	55096.21
495.67	56032.42
495.85	57284.61
496.02	57537.39
496.20	57593.56
496.38	57055.24
496.55	56896.08
496.73	57439.09
496.91	57780.81
497.09	58099.12
497.26	58295.72
497.44	57801.87
497.62	57570.16
497.79	56669.05
497.97	55367.71
498.14	55426.23
498.32	56432.66
498.50	57366.53
498.67	58073.37
498.85	57888.47
499.03	58094.44
499.20	58190.40
499.38	58548.50
499.56	58295.72
499.73	57570.16
499.91	57247.16
500.08	56683.09
500.26	56147.11
500.44	56573.09
500.61	57406.32
500.79	57254.18
500.97	56650.33
501.14	56779.06
501.32	56296.91
501.49	56369.46
501.67	56406.91
501.84	57195.67
502.02	57511.64
502.20	57799.53
502.37	58082.73
502.55	58096.78
502.72	58265.30
502.90	58997.88
503.07	58564.88
503.25	58127.20
503.43	57457.81
503.60	56676.07
503.78	56310.95
503.95	56631.60
504.13	57841.66
504.30	58756.81
504.48	58553.18
504.65	58379.98
504.83	58195.08
505.01	58855.11
505.18	58908.94
505.36	59788.98
505.53	59587.70
505.71	59898.99
505.88	59973.89
506.06	59398.12
506.23	59107.89
506.41	58637.44
506.58	58927.67
506.76	58773.19
506.93	58789.58
507.11	58719.36
507.28	58801.28
507.46	58518.07
507.63	57932.94
507.81	57661.44
507.98	58113.16
508.16	58653.82
508.33	59098.53
508.50	59419.18
508.68	59686.00
508.85	60268.79
509.03	60060.49
509.20	59950.48
509.38	59395.77
509.55	58592.97
509.73	58642.12
509.90	59143.00
510.08	59400.46
510.25	59304.49
510.42	59154.70
510.60	59145.34
510.77	59360.67
510.95	60046.44
511.12	60032.40
511.30	60240.71
511.47	60690.09
511.64	60336.67
511.82	60423.27
511.99	59496.42
512.17	59030.65
512.34	58684.25
512.51	59004.91
512.69	58908.94
512.86	59119.59
513.04	59522.16
513.21	59456.63
513.38	59255.34
513.56	58646.80
513.73	58096.78
513.90	58244.23
514.08	58351.90
514.25	58592.97
514.43	58824.68
514.60	58726.38
514.77	59070.44
514.95	59164.06
515.12	59248.32
515.29	59430.88
515.47	59873.24
515.64	60079.21
515.81	59667.28
515.99	58997.88
516.16	57750.38
516.33	55470.70
516.51	53895.52
516.68	53406.34
516.85	52931.22
517.03	53221.44
517.20	55917.74
517.37	58436.16
517.54	59344.28
517.72	59042.35
517.89	56360.10
518.06	54171.70
518.24	54424.48
518.41	56388.19
518.58	57794.85
518.75	57923.58
518.93	58248.91
519.10	58337.85
519.27	58539.14
519.45	58829.37
519.62	59398.12
519.79	59721.11
519.96	59590.04
520.14	59281.09
520.31	58328.49
520.48	58195.08
520.65	58752.13
520.83	59693.02
521.00	60016.02
521.17	59716.43
521.34	59243.64
521.52	59470.67
521.69	59917.71
521.86	60554.34
522.03	60158.79
522.20	59178.10
522.38	57949.32
522.55	57984.43
522.72	58735.74
522.89	58635.10
523.07	59082.14
523.24	59229.60
523.41	59994.95
523.58	60516.89
523.75	60764.99
523.92	60633.92
524.10	60612.85
524.27	60619.88
524.44	60266.45
524.61	60072.19
524.78	59945.80
524.96	59943.46
525.13	59945.80
525.30	60189.22
525.47	60556.68
525.64	60369.44
525.81	59882.61
525.98	58585.95
526.16	57146.52
526.33	56383.51
526.50	56114.34
526.67	55880.29
526.84	56320.31
527.01	57350.15
527.18	58064.01
527.36	59025.97
527.53	59805.37
527.70	60158.79
527.87	59545.57
528.04	59051.72
528.21	59480.03
528.38	60151.77
528.55	60741.58
528.72	60907.76
528.89	61123.09
529.07	61071.60
529.24	60299.22
529.41	59814.73
529.58	59079.80
529.75	59353.65
529.92	59601.74
530.09	60025.38
530.26	60486.46
530.43	60486.46
530.60	60746.26
530.77	60961.59
530.94	61212.03
531.11	60640.94
531.28	60353.05
531.46	60086.23
531.63	60308.58
531.80	60133.04
531.97	59882.61
532.14	59126.61
532.31	58087.42
532.48	57666.12
532.65	57560.79
532.82	58464.24
532.99	59416.84
533.16	59803.03
533.33	60348.37
533.50	60147.09
533.67	59494.08
533.84	59110.23
534.01	59297.47
534.18	59456.63
534.35	59847.50
534.52	59407.48
534.69	59697.70
534.86	60140.07
535.03	60273.48
535.20	60626.90
535.37	61080.96
535.54	61134.79
535.71	60760.31
535.88	60624.56
536.05	59812.39
536.22	59393.43
536.38	59348.96
536.55	58794.26
536.72	58328.49
536.89	58225.51
537.06	58930.01
537.23	59807.71
537.40	59976.23
537.57	60133.04
537.74	59913.03
537.91	59749.20
538.08	59601.74
538.25	59861.54
538.42	59814.73
538.59	59826.43
538.75	59049.38
538.92	58894.90
539.09	58885.54
539.26	58672.55
539.43	58532.12
539.60	58281.68
539.77	58841.07
539.94	58475.94
540.11	57998.48
540.28	57488.24
540.44	57467.17
540.61	57865.06
540.78	58033.58
540.95	58452.54
541.12	58670.21
541.29	58962.78
541.46	59220.23
541.62	59428.54
541.79	59077.46
541.96	58599.99
542.13	58583.61
542.30	58693.61
542.47	59030.65
542.63	58995.54
542.80	58489.99
542.97	58878.52
543.14	58518.07
543.31	58529.78
543.48	59196.83
543.64	59859.20
543.81	59938.78
543.98	60009.00
544.15	59395.77
544.32	58773.19
544.48	58827.02
544.65	59313.86
544.82	59597.06
544.99	59217.89
545.16	59135.98
545.32	58555.52
545.49	59465.99
545.66	59760.90
545.83	59435.56
546.00	59154.70
546.16	58787.24
546.33	58871.49
546.50	58679.57
546.67	59515.14
546.83	58812.98
547.00	58688.93
547.17	58269.98
547.34	57696.55
547.50	57293.97
547.67	58026.56
547.84	58202.10
548.00	58698.30
548.17	59051.72
548.34	58976.82
548.51	58717.02
548.67	58857.45
548.84	58913.62
549.01	58883.20
549.18	58770.85
549.34	58770.85
549.51	58845.75
549.68	58869.15
549.84	58501.69
550.01	58396.37
550.18	58204.44
550.34	58513.39
550.51	58450.20
550.68	58585.95
550.84	57773.78
551.01	58068.69
551.18	57942.30
551.34	58309.77
551.51	58494.67
551.68	58962.78
551.84	58908.94
552.01	58721.70
552.18	58461.90
552.34	57762.08
552.51	57317.38
552.68	57324.40
552.84	57785.49
553.01	58162.31
553.18	58335.51
553.34	57874.43
553.51	58089.76
553.67	58529.78
553.84	58646.80
554.01	58281.68
554.17	58019.54
554.34	58347.21
554.51	58504.03
554.67	58789.58
554.84	58693.61
555.00	58225.51
555.17	57911.88
555.33	58106.14
555.50	57963.37
555.67	58136.57
555.83	58010.18
556.00	57813.57
556.16	57783.15
556.33	57200.35
556.50	57078.64
556.66	57064.60
556.83	56893.74
556.99	57029.49
557.16	56996.73
557.32	57483.56
557.49	57858.04
557.65	57528.03
557.82	57600.58
557.98	57439.09
558.15	56868.00
558.32	56474.79
558.48	55386.44
558.65	55526.87
558.81	55796.03
558.98	56217.33
559.14	56582.45
559.31	56399.89
559.47	56556.70
559.64	56020.72
559.80	56090.94
559.97	55831.14
560.13	56170.52
560.30	57144.18
560.46	57829.96
560.63	57710.59
560.79	57771.44
560.96	57626.33
561.12	56465.42
561.29	55714.11
561.45	55648.58
561.61	56048.81
561.78	56453.72
561.94	56697.14
562.11	56521.60
562.27	56306.27
562.44	56540.32
562.60	57109.07
562.77	57045.88
562.93	57024.81
563.10	56865.66
563.26	56336.69
563.42	56341.38
563.59	56081.58
563.75	56200.94
563.92	56238.39
564.08	56266.48
564.24	56418.61
564.41	56313.29
564.57	56324.99
564.74	56200.94
564.90	56203.28
565.07	56219.67
565.23	55814.76
565.39	55250.69
565.56	54845.77
565.72	54574.27
565.88	55180.47
566.05	54953.44
566.21	55168.77
566.38	55451.97
566.54	55545.59
566.70	55973.91
566.87	56086.26
567.03	56037.11
567.19	56657.35
567.36	56236.05
567.52	55927.10
567.68	55774.97
567.85	55126.64
568.01	54681.94
568.17	54274.68
568.34	54349.58
568.50	54569.59
568.66	54487.67
568.83	55056.42
568.99	54887.90
569.15	54960.46
569.32	55150.04
569.48	54728.75
569.64	54700.66
569.81	54335.54
569.97	54347.24
570.13	53883.81
570.30	53703.59
570.46	53389.96
570.62	52844.62
570.78	52622.26
570.95	53176.97
571.11	53785.51
571.27	54054.67
571.43	54230.21
571.60	54326.17
571.76	54511.08
571.92	54906.63
572.09	55028.34
572.25	54965.14
572.41	54944.08
572.57	54686.62
572.74	54876.20
572.90	54438.52
573.06	54340.22
573.22	54555.55
573.38	54440.86
573.55	54410.43
573.71	54747.47
573.87	54424.48
574.03	54279.36
574.20	54143.61
574.36	53794.87
574.52	53748.06
574.68	53633.38
574.84	53434.43
575.01	52842.27
575.17	52748.65
575.33	53069.31
575.49	53240.17
575.65	53415.71
575.82	53368.90
575.98	52999.09
576.14	53315.06
576.30	53717.64
576.46	53738.70
576.62	53804.24
576.79	53483.58
576.95	53167.61
577.11	53179.31
577.27	53284.64
577.43	53258.89
577.59	52952.28
577.75	52633.97
577.92	52163.52
578.08	51648.60
578.24	51482.42
578.40	52278.21
578.56	52406.94
578.72	52112.03
578.88	52371.83
579.04	52748.65
579.21	52956.96
579.37	52917.17
579.53	52992.07
579.69	52839.93
579.85	53282.30
580.01	53104.41
580.17	52615.24
580.33	51999.68
580.49	52310.97
580.65	52582.48
580.82	52963.98
580.98	52736.95
581.14	52809.51
581.30	52966.32
581.46	52275.87
581.62	53064.63
581.78	53022.50
581.94	53099.73
582.10	53081.01
582.26	53099.73
582.42	52917.17
582.58	53258.89
582.74	52853.98
582.90	52935.90
583.06	53123.14
583.22	52891.43
583.38	52643.33
583.54	52608.22
583.70	52545.03
583.86	52521.62
584.02	52680.78
584.18	52566.09
584.34	52229.05
584.50	52299.27
584.66	52378.85
584.82	52088.62
584.98	52044.15
585.14	51800.74
585.30	50525.14
