SpectraSuite Data File
++++++++++++++++++++++++++++++++++++
Date: Mon Oct 07 14:53:06 GMT-05:00 2013
User: price-jones
Dark Spectrum Present: No
Reference Spectrum Present: No
Number of Sampled Component Spectra: 1
Spectrometers: USB2+H05261
Integration Time (usec): 100000 (USB2+H05261)
Spectra Averaged: 1 (USB2+H05261)
Boxcar Smoothing: 0 (USB2+H05261)
Correct for Electrical Dark: No (USB2+H05261)
Strobe/Lamp Enabled: No (USB2+H05261)
Correct for Detector Non-linearity: No (USB2+H05261)
Correct for Stray Light: No (USB2+H05261)
Number of Pixels in Processed Spectrum: 2048
>>>>>Begin Processed Spectral Data<<<<<
365.73	0.00
365.92	0.00
366.12	0.00
366.32	0.00
366.52	0.00
366.72	0.00
366.91	0.00
367.11	0.00
367.31	0.00
367.51	0.00
367.70	0.00
367.90	0.00
368.10	0.00
368.30	0.00
368.49	0.00
368.69	0.00
368.89	0.00
369.09	0.00
369.28	0.00
369.48	0.00
369.68	0.00
369.87	0.00
370.07	0.00
370.27	0.00
370.47	608.54
370.66	3119.93
370.86	3709.75
371.06	4121.68
371.25	4032.74
371.45	3688.68
371.65	3239.30
371.84	3131.64
372.04	3148.02
372.24	3438.25
372.44	3595.06
372.63	3700.39
372.83	3391.44
373.03	2949.08
373.22	2792.26
373.42	2897.58
373.62	3442.93
373.81	3655.92
374.01	3574.00
374.21	3339.94
374.40	3124.62
374.60	3321.22
374.79	3644.21
374.99	4262.12
375.19	4603.83
375.38	4461.06
375.58	4273.82
375.78	4156.79
375.97	4430.63
376.17	4484.47
376.37	4517.23
376.56	4777.03
376.76	5006.41
376.95	5165.56
377.15	5551.75
377.35	5722.61
377.54	5902.83
377.74	6153.27
377.93	6111.14
378.13	5884.11
378.33	5479.19
378.52	5022.79
378.72	4971.30
378.91	4891.72
379.11	4821.50
379.31	4648.30
379.50	4606.17
379.70	4812.14
379.89	5530.69
380.09	5834.96
380.28	5980.07
380.48	5951.98
380.68	5879.43
380.87	5664.10
381.07	5324.72
381.26	4980.66
381.46	4376.80
381.65	4514.89
381.85	4337.01
382.04	4156.79
382.24	3946.14
382.43	3789.33
382.63	3672.30
382.83	3655.92
383.02	3707.41
383.22	3583.36
383.41	3606.77
383.61	3892.31
383.80	4404.89
384.00	5198.33
384.19	5612.60
384.39	5788.14
384.58	5753.04
384.78	5717.93
384.97	5734.31
385.17	5455.79
385.36	5320.04
385.56	5055.56
385.75	5125.77
385.95	5533.03
386.14	6120.50
386.34	6246.89
386.53	5792.83
386.72	5472.17
386.92	5479.19
387.11	5863.04
387.31	6129.86
387.50	6087.73
387.70	5682.82
387.89	5717.93
388.09	5813.89
388.28	5783.46
388.48	5968.37
388.67	6282.00
388.86	7131.61
389.06	7426.52
389.25	7918.03
389.45	7901.65
389.64	7885.26
389.84	7770.58
390.03	7784.62
390.22	7588.02
390.42	7920.37
390.61	8402.52
390.81	9146.81
391.00	9352.78
391.19	9224.05
391.39	8730.20
391.58	8416.57
391.78	7864.20
391.97	7431.20
392.16	7037.99
392.36	6326.47
392.55	5001.72
392.75	4044.45
392.94	3283.77
393.13	3410.16
393.33	4009.34
393.52	5100.03
393.71	6200.08
393.91	6958.41
394.10	7442.90
394.29	8425.93
394.49	8898.72
394.68	9554.07
394.88	9673.43
395.07	10040.90
395.26	9921.53
395.46	9561.09
395.65	9055.53
395.84	7882.92
396.04	6600.31
396.23	5497.92
396.42	4402.55
396.62	4252.75
396.81	5282.59
397.00	6682.23
397.19	7990.59
397.39	9628.96
397.58	10930.30
397.77	11646.51
397.97	12126.32
398.16	12264.41
398.35	12652.94
398.55	13132.75
398.74	13371.48
398.93	13855.97
399.12	13610.22
399.32	12753.58
399.51	13413.61
399.70	14511.32
399.90	14277.27
400.09	14293.65
400.28	13935.55
400.47	14120.45
400.67	14799.21
400.86	15061.35
401.05	15208.80
401.24	15492.01
401.44	15555.20
401.63	15618.39
401.82	15676.91
402.01	15543.50
402.21	15805.64
402.40	15817.34
402.59	15393.70
402.78	14815.59
402.97	14073.64
403.17	15005.17
403.36	15925.00
403.55	16397.79
403.74	16961.86
403.93	15932.03
404.13	14778.14
404.32	14218.75
404.51	15016.88
404.70	16414.18
404.89	16217.57
405.09	15988.20
405.28	15499.03
405.47	15382.00
405.66	15592.65
405.85	15047.30
406.05	14808.57
406.24	14991.13
406.43	15449.88
406.62	16009.26
406.81	16231.62
407.00	15494.35
407.20	15152.63
407.39	15342.21
407.58	16173.10
407.77	16833.13
407.96	17076.55
408.15	17413.59
408.34	17570.40
408.54	18422.36
408.73	18209.37
408.92	18045.53
409.11	17575.08
409.30	16699.72
409.49	15772.87
409.68	14651.75
409.87	14094.71
410.07	15332.85
410.26	16475.03
410.45	17247.41
410.64	18202.35
410.83	18324.05
411.02	18871.74
411.21	19791.57
411.40	19421.77
411.59	19349.21
411.78	19110.47
411.98	18988.77
412.17	19192.39
412.36	19021.53
412.55	18817.91
412.74	18457.46
412.93	18417.68
413.12	18445.76
413.31	20397.77
413.50	20252.66
413.69	20870.56
413.88	19648.80
414.07	19426.45
414.26	19908.60
414.45	20510.11
414.64	20435.22
414.83	20514.80
415.02	19873.49
415.22	19873.49
415.41	20643.52
415.60	21135.04
415.79	21678.04
415.98	22412.97
416.17	22281.90
416.36	22024.44
416.55	21888.69
416.74	20774.60
416.93	20182.44
417.12	19812.63
417.31	20711.40
417.50	20922.05
417.69	21443.99
417.88	21362.07
418.07	21256.75
418.26	21025.03
418.45	20898.64
418.64	22022.10
418.83	22721.92
419.02	22497.23
419.21	22387.22
419.39	21186.53
419.58	20301.81
419.77	20283.08
419.96	21362.07
420.15	22263.18
420.34	22843.63
420.53	23630.05
420.72	24077.09
420.91	23941.34
421.10	23531.75
421.29	23494.30
421.48	22796.82
421.67	23988.15
421.86	23379.61
422.05	21596.12
422.24	19632.41
422.43	19033.24
422.61	21193.55
422.80	22883.42
422.99	22998.10
423.18	22291.26
423.37	21738.90
423.56	21930.82
423.75	22171.89
423.94	22490.21
424.13	21336.32
424.32	21656.98
424.50	21635.91
424.69	21570.38
424.88	21523.57
425.07	21530.59
425.26	21296.53
425.45	21191.21
425.64	20727.78
425.83	20622.46
426.01	22204.66
426.20	22569.79
426.39	22349.78
426.58	20669.27
426.77	19101.11
426.96	18565.13
427.15	19585.60
427.33	20627.14
427.52	21254.40
427.71	21774.00
427.90	21441.65
428.09	21359.73
428.28	21163.12
428.46	20245.63
428.65	19822.00
428.84	20215.21
429.03	21034.39
429.22	19213.46
429.40	18721.95
429.59	16996.97
429.78	15056.67
429.97	15084.75
430.16	15014.54
430.34	15262.63
430.53	15293.06
430.72	15658.18
430.91	17385.50
431.10	20243.29
431.28	23866.44
431.47	25795.04
431.66	25998.67
431.85	23658.14
432.03	21745.92
432.22	20666.93
432.41	21954.22
432.60	23667.50
432.79	24936.07
432.97	25401.83
433.16	25020.33
433.35	23023.85
433.54	20673.95
433.72	19199.41
433.91	19864.13
434.10	22270.20
434.28	23786.86
434.47	25282.47
434.66	24786.27
434.85	24205.82
435.03	23828.99
435.22	24716.06
435.41	26017.40
435.59	25813.77
435.78	26501.89
435.97	27524.70
436.16	27211.07
436.34	26829.56
436.53	26321.66
436.72	26274.85
436.90	25029.69
437.09	25074.16
437.28	24575.62
437.46	25558.65
437.65	25193.53
437.84	23384.29
438.02	21734.21
438.21	21729.53
438.40	22885.76
438.58	24580.31
438.77	25514.18
438.96	25610.14
439.14	26801.47
439.33	27239.15
439.52	28168.35
439.70	27058.93
439.89	26558.06
440.08	25462.69
440.26	25961.22
440.45	26691.47
440.63	28268.99
440.82	30258.45
441.01	29177.12
441.19	29219.25
441.38	29567.99
441.57	30822.51
441.75	31234.45
441.94	31159.55
442.12	31063.59
442.31	31620.64
442.50	31606.59
442.68	30888.05
442.87	30869.33
443.05	30244.40
443.24	30960.61
443.43	31662.77
443.61	32116.83
443.80	32727.71
443.98	31028.48
444.17	30815.49
444.35	32790.91
444.54	32816.65
444.73	32395.35
444.91	31449.78
445.10	29895.66
445.28	29055.41
445.47	28489.00
445.65	28521.77
445.84	29067.11
446.02	30235.04
446.21	30717.19
446.39	31161.89
446.58	31428.71
446.77	31910.86
446.95	31894.48
447.14	32936.02
447.32	33179.43
447.51	32786.22
447.69	31290.62
447.88	31262.54
448.06	31564.46
448.25	32376.63
448.43	32790.91
448.62	31789.16
448.80	31409.99
448.99	31793.84
449.17	31859.37
449.36	31981.08
449.54	33392.42
449.73	34012.66
449.91	34246.72
450.10	35168.89
450.28	35810.20
450.46	35374.86
450.65	35761.05
450.83	35105.70
451.02	34480.77
451.20	34452.69
451.39	34377.79
451.57	34068.84
451.76	33869.89
451.94	33921.38
452.13	33158.37
452.31	31810.22
452.49	30686.76
452.68	30909.11
452.86	30684.42
453.05	31267.22
453.23	32294.71
453.42	33067.09
453.60	33811.38
453.78	33867.55
453.97	33436.89
454.15	33343.27
454.34	33149.01
454.52	33024.96
454.70	32556.85
454.89	33074.11
455.07	33256.67
455.26	33308.16
455.44	34829.51
455.62	35522.31
455.81	35847.64
455.99	35372.52
456.17	34792.06
456.36	34948.88
456.54	36175.32
456.73	35896.80
456.91	36774.50
457.09	36617.68
457.28	37195.79
457.46	35599.55
457.64	35770.41
457.83	34445.66
458.01	33715.42
458.19	34920.79
458.38	35185.27
458.56	36013.82
458.74	35903.82
458.93	34892.71
459.11	34785.04
459.29	35491.88
459.48	35140.80
459.66	35042.50
459.84	35466.14
460.03	35847.64
460.21	36023.19
460.39	36952.38
460.57	36397.67
460.76	37043.66
460.94	37263.67
461.12	36758.11
461.31	36935.99
461.49	36404.69
461.67	36987.49
461.85	38157.75
462.04	37883.91
462.22	38225.63
462.40	37844.12
462.59	37668.58
462.77	37832.42
462.95	37851.14
463.13	36931.31
463.32	36816.63
463.50	36802.58
463.68	36673.85
463.86	36975.78
464.05	36112.13
464.23	35405.28
464.41	35526.99
464.59	35079.95
464.78	36554.49
464.96	36531.08
465.14	36109.78
465.32	37067.06
465.50	38110.94
465.69	37727.10
465.87	37525.81
466.05	36048.93
466.23	34590.78
466.41	34291.19
466.60	34785.04
466.78	35304.64
466.96	35964.67
467.14	36002.12
467.32	36776.84
467.51	36767.48
467.69	35178.25
467.87	36243.20
468.05	36718.32
468.23	36708.96
468.41	36648.11
468.60	37088.13
468.78	36720.66
468.96	36350.86
469.14	37677.94
469.32	37699.01
469.50	35601.89
469.69	36395.33
469.87	35557.42
470.05	35531.67
470.23	35349.11
470.41	35545.72
470.59	35885.09
470.77	36517.04
470.95	37088.13
471.14	37148.98
471.32	37661.56
471.50	39445.05
471.68	39702.51
471.86	39833.58
472.04	40081.67
472.22	40318.07
472.40	38267.76
472.58	38061.79
472.77	37483.68
472.95	38450.32
473.13	39423.98
473.31	38101.58
473.49	39091.63
473.67	39772.72
473.85	39257.81
474.03	40598.93
474.21	40575.53
474.39	41013.21
474.57	41001.50
474.75	41055.34
474.93	40542.76
475.12	39826.56
475.30	40252.53
475.48	40030.18
475.66	40605.95
475.84	40287.64
476.02	39985.71
476.20	39283.55
476.38	40067.63
476.56	41324.50
476.74	41860.48
476.92	42045.38
477.10	42637.54
477.28	43751.63
477.46	43833.55
477.64	44332.09
477.82	44240.81
478.00	44617.63
478.18	43072.88
478.36	43653.33
478.54	43491.83
478.72	43894.41
478.90	45099.78
479.08	46206.86
479.26	46579.00
479.44	46494.74
479.62	45883.86
479.80	46251.33
479.98	46775.61
480.16	46904.34
480.34	46724.11
480.52	46368.35
480.70	46958.17
480.88	47213.29
481.06	47704.80
481.24	48500.58
481.41	48769.74
481.59	49492.97
481.77	49127.84
481.95	48633.99
482.13	48430.36
482.31	48418.66
482.49	48870.39
482.67	49041.24
482.85	48973.37
483.03	49977.46
483.21	50223.22
483.39	49811.28
483.57	49521.05
483.74	49294.02
483.92	49305.73
484.10	49525.74
484.28	50595.36
484.46	51040.06
484.64	51227.31
484.82	50295.77
485.00	50026.61
485.18	49158.27
485.35	47908.43
485.53	44690.19
485.71	41181.73
485.89	40678.51
486.07	43267.14
486.25	46099.19
486.43	48472.49
486.61	48964.01
486.78	48858.68
486.96	49249.55
487.14	50775.58
487.32	51461.36
487.50	52486.51
487.68	53013.13
487.85	53535.07
488.03	53492.94
488.21	52910.15
488.39	52481.83
488.57	52072.24
488.75	51718.82
488.92	52626.95
489.10	54731.09
489.28	55781.99
489.46	56575.43
489.64	56343.72
489.81	56484.15
489.99	56097.96
490.17	55854.54
490.35	56458.40
490.53	55667.30
490.70	55756.24
490.88	55526.87
491.06	56320.31
491.24	56425.64
491.41	55554.96
491.59	54110.85
491.77	53577.20
491.95	54604.70
492.13	55564.32
492.30	56486.49
492.48	57432.07
492.66	57726.97
492.84	57841.66
493.01	57581.86
493.19	57055.24
493.37	56701.82
493.54	56528.62
493.72	56931.19
493.90	57932.94
494.08	58529.78
494.25	58773.19
494.43	59112.57
494.61	59332.58
494.79	59489.40
494.96	59271.73
495.14	58616.38
495.32	57829.96
495.49	57352.49
495.67	58363.60
495.85	59636.85
496.02	59852.18
496.20	59723.45
496.38	59297.47
496.55	59208.53
496.73	59653.23
496.91	59957.50
497.09	60229.01
497.26	60229.01
497.44	60034.74
497.62	59400.46
497.79	58733.40
497.97	57684.84
498.14	57736.34
498.32	58939.37
498.50	59564.29
498.67	60250.07
498.85	60184.54
499.03	60200.92
499.20	60484.12
499.38	60589.45
499.56	60306.24
499.73	59812.39
499.91	59763.24
500.08	59112.57
500.26	58541.48
500.44	58969.80
500.61	59529.19
500.79	59381.73
500.97	58972.14
501.14	58808.30
501.32	58621.06
501.49	58810.64
501.67	59093.85
501.84	59515.14
502.02	59683.66
502.20	59924.74
502.37	60137.72
502.55	60168.15
502.72	60638.60
502.90	60947.55
503.07	60729.88
503.25	60453.70
503.43	59597.06
503.60	59035.33
503.78	58527.44
503.95	59047.04
504.13	60289.86
504.30	60893.72
504.48	60659.66
504.65	60362.42
504.83	60575.40
505.01	61010.74
505.18	61261.18
505.36	61822.91
505.53	61900.15
505.71	61935.26
505.88	62162.29
506.06	61647.37
506.23	61160.54
506.41	61045.85
506.58	61176.92
506.76	61130.11
506.93	61050.53
507.11	60811.80
507.28	61015.43
507.46	60666.69
507.63	60299.22
507.81	59906.01
507.98	60126.02
508.16	60598.81
508.33	61200.33
508.50	61579.49
508.68	61876.74
508.85	62106.12
509.03	62223.14
509.20	62010.15
509.38	61432.04
509.55	60853.93
509.73	61027.13
509.90	61406.30
510.08	61682.48
510.25	61593.54
510.42	61338.42
510.60	61139.47
510.77	61645.03
510.95	62073.35
511.12	62216.12
511.30	62464.22
511.47	62684.23
511.64	62646.78
511.82	62363.57
511.99	61600.56
512.17	61520.98
512.34	61010.74
512.51	61326.72
512.69	61139.47
512.86	61251.82
513.04	61708.22
513.21	61513.96
513.38	61247.14
513.56	60839.89
513.73	60360.08
513.90	60589.45
514.08	60931.17
514.25	61073.94
514.43	61127.77
514.60	61307.99
514.77	61230.75
514.95	61464.81
515.12	61307.99
515.29	61584.18
515.47	61935.26
515.64	62368.26
515.81	61703.54
515.99	61319.70
516.16	59845.16
516.33	57853.36
516.51	56746.29
516.68	55767.94
516.85	55531.55
517.03	56142.43
517.20	58422.11
517.37	60626.90
517.54	61406.30
517.72	60905.42
517.89	58698.30
518.06	56629.26
518.24	57389.94
518.41	58958.09
518.58	60116.66
518.75	60385.82
518.93	60406.89
519.10	60378.80
519.27	60823.50
519.45	61083.30
519.62	61652.05
519.79	61991.43
519.96	61914.19
520.14	61439.06
520.31	60690.09
520.48	60594.13
520.65	61083.30
520.83	61829.93
521.00	62293.36
521.17	61853.34
521.34	61621.62
521.52	61797.16
521.69	62351.87
521.86	62637.42
522.03	62260.59
522.20	61312.67
522.38	60257.09
522.55	60275.82
522.72	61132.45
522.89	61029.47
523.07	61186.28
523.24	61719.93
523.41	62291.02
523.58	62585.92
523.75	62979.14
523.92	62855.09
524.10	62796.57
524.27	62632.74
524.44	62555.50
524.61	62569.54
524.78	62501.67
524.96	62141.22
525.13	62251.23
525.30	62532.09
525.47	62997.86
525.64	62740.40
525.81	62078.03
525.98	60874.99
526.16	59695.36
526.33	59023.63
526.50	58663.19
526.67	58663.19
526.84	59210.87
527.01	59910.69
527.18	60603.49
527.36	61371.19
527.53	62162.29
527.70	62494.64
527.87	62056.96
528.04	61481.19
528.21	61928.23
528.38	62461.88
528.55	63072.76
528.72	63229.57
528.89	63491.71
529.07	63276.38
529.24	62536.77
529.41	61939.94
529.58	61401.61
529.75	61579.49
529.92	62138.88
530.09	62452.51
530.26	62775.51
530.43	63124.25
530.60	63131.27
530.77	63154.68
530.94	63393.41
531.11	63100.84
531.28	62672.52
531.46	62515.71
531.63	62686.57
531.80	62630.40
531.97	62026.54
532.14	61567.79
532.31	60348.37
532.48	59992.61
532.65	60212.62
532.82	60975.64
532.99	61778.44
533.16	62190.37
533.33	62534.43
533.50	62658.48
533.67	61932.92
533.84	61525.66
534.01	61729.29
534.18	61914.19
534.35	62068.67
534.52	62103.77
534.69	62188.03
534.86	62337.83
535.03	62670.18
535.20	62962.75
535.37	63362.98
535.54	63456.60
535.71	63072.76
535.88	62595.29
536.05	62129.52
536.22	61949.30
536.38	61448.42
536.55	61123.09
536.72	60559.02
536.89	60882.02
537.06	61502.26
537.23	62447.83
537.40	62377.62
537.57	62309.74
537.74	61998.45
537.91	62073.35
538.08	62349.53
538.25	62131.86
538.42	62499.33
538.59	62321.44
538.75	61858.02
538.92	61513.96
539.09	61495.24
539.26	61071.60
539.43	60949.89
539.60	61069.26
539.77	61300.97
539.94	61010.74
540.11	60261.77
540.28	59896.65
540.44	60095.60
540.61	60449.02
540.78	60495.83
540.95	60802.44
541.12	61261.18
541.29	61504.60
541.46	61666.09
541.62	61799.50
541.79	61502.26
541.96	61235.44
542.13	60846.91
542.30	61293.95
542.47	61516.30
542.63	61174.58
542.80	61190.97
542.97	61305.65
543.14	61104.37
543.31	61118.41
543.48	61462.47
543.64	62284.00
543.81	62560.18
543.98	62454.86
544.15	61588.86
544.32	61249.48
544.48	61453.11
544.65	61726.95
544.82	62124.84
544.99	61752.69
545.16	61392.25
545.32	61240.12
545.49	61942.28
545.66	62218.46
545.83	61661.41
546.00	61591.20
546.16	61209.69
546.33	61286.93
546.50	61506.94
546.67	61806.53
546.83	61251.82
547.00	61525.66
547.17	60867.97
547.34	60425.61
547.50	60081.55
547.67	60767.33
547.84	60825.84
548.00	61095.00
548.17	61626.31
548.34	61464.81
548.51	61563.11
548.67	61490.55
548.84	61443.74
549.01	61230.75
549.18	61326.72
549.34	61263.52
549.51	61289.27
549.68	61401.61
549.84	60956.91
550.01	60910.10
550.18	60800.10
550.34	60910.10
550.51	61017.77
550.68	60935.85
550.84	60774.35
551.01	60652.64
551.18	60619.88
551.34	60886.70
551.51	61270.54
551.68	61307.99
551.84	61705.88
552.01	61516.30
552.18	61123.09
552.34	60224.32
552.51	60154.11
552.68	60037.08
552.84	60619.88
553.01	60603.49
553.18	60685.41
553.34	60828.18
553.51	61099.68
553.67	61080.96
553.84	61300.97
554.01	60970.96
554.17	61024.79
554.34	61097.34
554.51	61069.26
554.67	61565.45
554.84	61364.17
555.00	61008.40
555.17	60708.82
555.33	60802.44
555.50	60816.48
555.67	60659.66
555.83	60582.43
556.00	60404.55
556.16	60329.65
556.33	60046.44
556.50	59938.78
556.66	59985.59
556.83	59784.30
556.99	59784.30
557.16	59903.67
557.32	59983.25
557.49	60523.91
557.65	60147.09
557.82	60331.99
557.98	59854.52
558.15	59749.20
558.32	58941.71
558.48	58288.70
558.65	58815.32
558.81	58651.48
558.98	59054.06
559.14	59290.45
559.31	59231.94
559.47	59267.05
559.64	58817.66
559.80	58667.87
559.97	58670.21
560.13	59103.21
560.30	60051.12
560.46	60505.19
560.63	60474.76
560.79	60699.45
560.96	60292.20
561.12	59245.98
561.29	58426.79
561.45	58625.74
561.61	58974.48
561.78	59496.42
561.94	59538.55
562.11	59217.89
562.27	59077.46
562.44	59423.86
562.60	59554.93
562.77	60095.60
562.93	59763.24
563.10	59458.97
563.26	59419.18
563.42	59171.08
563.59	59075.12
563.75	59121.93
563.92	59224.92
564.08	59037.67
564.24	59332.58
564.41	59561.95
564.57	59194.49
564.74	59178.10
564.90	59047.04
565.07	58745.11
565.23	58534.46
565.39	58239.55
565.56	57771.44
565.72	57551.43
565.88	58080.39
566.05	58003.16
566.21	58454.88
566.38	58693.61
566.54	58525.10
566.70	58873.84
566.87	59152.36
567.03	59112.57
567.19	59316.20
567.36	59222.58
567.52	58887.88
567.68	58609.35
567.85	58078.05
568.01	57977.41
568.17	57476.54
568.34	57228.44
568.50	57535.05
568.66	57427.38
568.83	58038.26
568.99	57975.07
569.15	58003.16
569.32	58176.36
569.48	58150.61
569.64	57748.04
569.81	57670.80
569.97	57434.41
570.13	57333.76
570.30	56886.72
570.46	56638.62
570.62	56163.50
570.78	56123.71
570.95	56294.56
571.11	57031.83
571.27	57095.03
571.43	57221.42
571.60	57645.05
571.76	57890.81
571.92	57996.13
572.09	58155.29
572.25	57918.90
572.41	57963.37
572.57	57902.51
572.74	58056.99
572.90	57645.05
573.06	57389.94
573.22	57612.29
573.38	57649.74
573.55	57516.32
573.71	57806.55
573.87	57832.30
574.03	57460.15
574.20	57502.28
574.36	57249.50
574.52	57078.64
574.68	57006.09
574.84	56479.47
575.01	56317.97
575.17	56126.05
575.33	56376.48
575.49	56507.55
575.65	56687.78
575.82	56516.92
575.98	56427.98
576.14	56545.00
576.30	56640.96
576.46	56708.84
576.62	56886.72
576.79	56882.04
576.95	56514.58
577.11	56390.53
577.27	56678.41
577.43	56559.05
577.59	56175.20
577.75	55910.72
577.92	55311.54
578.08	55208.56
578.24	55210.90
578.40	55524.53
578.56	55936.46
578.72	55613.47
578.88	55854.54
579.04	55749.22
579.21	56250.09
579.37	56107.32
579.53	56222.01
579.69	56142.43
579.85	56690.12
580.01	56119.02
580.17	55709.43
580.33	55784.33
580.49	55861.57
580.65	56289.88
580.82	56156.47
580.98	55894.33
581.14	56051.15
581.30	56116.68
581.46	56093.28
581.62	56233.71
581.78	56044.13
581.94	56329.67
582.10	56505.21
582.26	56404.57
582.42	56210.31
582.58	56205.62
582.74	56240.73
582.90	56360.10
583.06	56388.19
583.22	55936.46
583.38	56226.69
583.54	56378.82
583.70	55786.67
583.86	56158.81
584.02	55913.06
584.18	56219.67
584.34	55873.27
584.50	55760.92
584.66	55693.05
584.82	55386.44
584.98	55365.37
585.14	54890.24
