SpectraSuite Data File
++++++++++++++++++++++++++++++++++++
Date: Mon Oct 07 14:55:02 GMT-05:00 2013
User: price-jones
Dark Spectrum Present: No
Reference Spectrum Present: No
Number of Sampled Component Spectra: 1
Spectrometers: USB2+H05261
Integration Time (usec): 10000 (USB2+H05261)
Spectra Averaged: 1 (USB2+H05261)
Boxcar Smoothing: 0 (USB2+H05261)
Correct for Electrical Dark: No (USB2+H05261)
Strobe/Lamp Enabled: No (USB2+H05261)
Correct for Detector Non-linearity: No (USB2+H05261)
Correct for Stray Light: No (USB2+H05261)
Number of Pixels in Processed Spectrum: 2048
>>>>>Begin Processed Spectral Data<<<<<
365.73	0.00
365.92	0.00
366.12	0.00
366.32	0.00
366.52	0.00
366.72	0.00
366.91	0.00
367.11	0.00
367.31	0.00
367.51	0.00
367.70	0.00
367.90	0.00
368.10	0.00
368.30	0.00
368.49	0.00
368.69	0.00
368.89	0.00
369.09	0.00
369.28	0.00
369.48	0.00
369.68	0.00
369.87	0.00
370.07	0.00
370.27	0.00
370.47	421.30
370.66	2829.71
370.86	3119.93
371.06	3403.14
371.25	3323.56
371.45	3040.36
371.65	2726.72
371.84	2532.46
372.04	2977.16
372.24	3283.77
372.44	3321.22
372.63	3119.93
372.83	2775.88
373.03	2464.58
373.22	2408.41
373.42	2710.34
373.62	3066.10
373.81	3222.92
374.01	2993.55
374.21	2722.04
374.40	2616.72
374.60	2822.69
374.79	3166.74
374.99	3763.58
375.19	3831.46
375.38	3843.16
375.58	3667.62
375.78	3454.63
375.97	3531.87
376.17	3817.41
376.37	3824.44
376.56	3850.18
376.76	4166.15
376.95	4416.59
377.15	4720.86
377.35	4961.94
377.54	5210.03
377.74	5214.71
377.93	5195.99
378.13	5029.81
378.33	4779.37
378.52	4489.15
378.72	4163.81
378.91	4243.39
379.11	3955.51
379.31	3831.46
379.50	4056.15
379.70	4418.93
379.89	4870.65
380.09	5081.30
380.28	5207.69
380.48	5282.59
380.68	4901.08
380.87	4837.89
381.07	4421.27
381.26	4100.62
381.46	3878.27
381.65	3786.99
381.85	3772.94
382.04	3501.44
382.24	3225.26
382.43	3208.87
382.63	3040.36
382.83	3070.78
383.02	3141.00
383.22	3005.25
383.41	3108.23
383.61	3419.52
383.80	3960.19
384.00	4486.81
384.19	5029.81
384.39	5273.23
384.58	5050.88
384.78	5100.03
384.97	5118.75
385.17	4688.09
385.36	4334.67
385.56	4365.10
385.75	4552.34
385.95	5006.41
386.14	5397.28
386.34	5385.57
386.53	5022.79
386.72	4683.41
386.92	4854.27
387.11	5266.21
387.31	5334.08
387.50	5123.43
387.70	5109.39
387.89	5006.41
388.09	4919.81
388.28	5071.94
388.48	5137.48
388.67	5701.54
388.86	6260.93
389.06	6635.42
389.25	7047.35
389.45	6995.86
389.64	7047.35
389.84	6764.15
390.03	6670.53
390.22	6953.73
390.42	7239.28
390.61	7559.93
390.81	8018.68
391.00	8257.41
391.19	8070.17
391.39	7793.98
391.58	7117.57
391.78	6951.39
391.97	6689.25
392.16	6251.57
392.36	5476.85
392.55	4299.56
392.75	3358.67
392.94	2853.11
393.13	3016.95
393.33	3815.07
393.52	4840.23
393.71	5781.12
393.91	6384.98
394.10	7033.31
394.29	7672.28
394.49	8049.10
394.68	8901.06
394.88	8676.37
395.07	9118.73
395.26	8875.31
395.46	8564.02
395.65	7716.75
395.84	6773.51
396.04	5647.71
396.23	4545.32
396.42	3789.33
396.62	4081.89
396.81	5029.81
397.00	6328.81
397.19	7648.87
397.39	9217.03
397.58	10043.24
397.77	10504.32
397.97	11059.03
398.16	11234.57
398.35	11431.18
398.55	11756.51
398.74	12358.03
398.93	12549.95
399.12	12236.32
399.32	11840.77
399.51	12404.84
399.70	12945.50
399.90	12606.13
400.09	12697.41
400.28	12505.48
400.47	12996.99
400.67	13495.53
400.86	13804.48
401.05	13947.25
401.24	13556.38
401.44	14099.39
401.63	14183.65
401.82	14410.68
402.01	13977.68
402.21	14377.91
402.40	14600.26
402.59	13853.63
402.78	12985.29
402.97	12968.91
403.17	13942.57
403.36	14642.39
403.55	14876.44
403.74	15066.03
403.93	14197.69
404.13	12957.21
404.32	13135.09
404.51	13937.89
404.70	14670.48
404.89	14480.89
405.09	14345.14
405.28	14101.73
405.47	14022.15
405.66	14078.32
405.85	13769.37
406.05	13205.30
406.24	13900.44
406.43	14380.25
406.62	14724.31
406.81	14743.03
407.00	14171.94
407.20	14143.86
407.39	14317.06
407.58	14745.38
407.77	15356.25
407.96	15915.64
408.15	16208.21
408.34	16219.91
408.54	16802.71
408.73	16678.66
408.92	16430.56
409.11	15824.36
409.30	14925.60
409.49	14188.33
409.68	13462.76
409.87	13219.35
410.07	14239.82
410.26	15360.94
410.45	15913.30
410.64	16311.19
410.83	16861.22
411.02	17401.88
411.21	17694.45
411.40	17682.75
411.59	17968.29
411.78	17928.50
411.98	17392.52
412.17	17869.99
412.36	17462.74
412.55	17579.76
412.74	17121.02
412.93	16741.85
413.12	17671.04
413.31	19023.87
413.50	18930.25
413.69	19115.16
413.88	18487.89
414.07	18312.35
414.26	18672.79
414.45	18757.05
414.64	18750.03
414.83	18483.21
415.02	18286.61
415.22	18686.84
415.41	19154.94
415.60	19843.06
415.79	20170.74
415.98	20931.41
416.17	20566.29
416.36	20070.09
416.55	19728.38
416.74	18860.04
416.93	18663.43
417.12	19150.26
417.31	19000.47
417.50	19344.53
417.69	20030.30
417.88	19798.59
418.07	19702.63
418.26	19365.59
418.45	19866.47
418.64	20706.72
418.83	21565.70
419.02	20875.24
419.21	20049.03
419.39	19609.01
419.58	18937.27
419.77	19084.73
419.96	20512.46
420.15	21209.93
420.34	21666.34
420.53	21968.27
420.72	22429.35
420.91	22780.43
421.10	22038.48
421.29	21727.19
421.48	21198.23
421.67	22476.16
421.86	20994.61
422.05	19302.40
422.24	17795.09
422.43	18822.59
422.61	20828.43
422.80	21600.80
422.99	21078.86
423.18	20383.73
423.37	20592.03
423.56	20498.41
423.75	21584.42
423.94	21692.08
424.13	20166.06
424.32	20262.02
424.50	20203.50
424.69	20580.33
424.88	20776.94
425.07	20631.82
425.26	20854.17
425.45	19576.24
425.64	19178.35
425.83	20039.67
426.01	21153.76
426.20	21090.57
426.39	21029.71
426.58	19304.74
426.77	17958.93
426.96	18111.07
427.15	18625.98
427.33	20004.56
427.52	21104.61
427.71	20711.40
427.90	20599.05
428.09	20144.99
428.28	19391.34
428.46	18810.89
428.65	18843.65
428.84	19590.28
429.03	19440.49
429.22	18511.30
429.40	16947.82
429.59	15714.36
429.78	13912.14
429.97	14310.04
430.16	14310.04
430.34	14359.19
430.53	14803.89
430.72	15749.46
430.91	17081.23
431.10	20292.44
431.28	23274.29
431.47	25149.06
431.66	24079.43
431.85	21790.39
432.03	20484.37
432.22	20170.74
432.41	21465.05
432.60	23314.08
432.79	24493.71
432.97	24386.04
433.16	22986.40
433.35	21109.29
433.54	19094.09
433.72	18541.72
433.91	20060.73
434.10	21926.14
434.28	23424.08
434.47	24093.47
434.66	23421.74
434.85	22813.20
435.03	23410.04
435.22	23583.24
435.41	24884.58
435.59	25811.43
435.78	25376.09
435.97	25965.90
436.16	25979.95
436.34	25357.36
436.53	24933.73
436.72	25193.53
436.90	24325.19
437.09	23819.63
437.28	23613.66
437.46	24531.15
437.65	23318.76
437.84	21984.65
438.02	20910.35
438.21	21247.38
438.40	21855.92
438.58	23346.84
438.77	24500.73
438.96	24732.44
439.14	25958.88
439.33	26375.50
439.52	26567.42
439.70	25586.74
439.89	24961.81
440.08	24767.55
440.26	24989.90
440.45	26038.46
440.63	27714.28
440.82	28606.03
441.01	27758.75
441.19	27943.66
441.38	28872.85
441.57	29834.81
441.75	29750.55
441.94	29961.20
442.12	29853.53
442.31	30937.20
442.50	30396.54
442.68	29516.50
442.87	29565.65
443.05	29184.14
443.24	29567.99
443.43	30120.35
443.61	30794.43
443.80	31129.12
443.98	30272.49
444.17	29954.18
444.35	31255.51
444.54	31445.10
444.73	30785.07
444.91	29427.56
445.10	28746.46
445.28	27515.34
445.47	27365.54
445.65	27728.33
445.84	28240.90
446.02	28814.34
446.21	29565.65
446.39	30061.84
446.58	30314.62
446.77	31154.87
446.95	31152.53
447.14	31854.69
447.32	32514.72
447.51	31859.37
447.69	30532.29
447.88	30253.76
448.06	31089.34
448.25	31082.31
448.43	31023.80
448.62	30703.15
448.80	30827.20
448.99	30864.64
449.17	31269.56
449.36	31847.67
449.54	32601.32
449.73	32767.50
449.91	33146.67
450.10	34817.81
450.28	34455.03
450.46	34426.94
450.65	34052.45
450.83	34162.46
451.02	33413.49
451.20	33406.47
451.39	33764.57
451.57	33350.29
451.76	33207.52
451.94	32297.05
452.13	31754.05
452.31	30162.48
452.49	28943.06
452.68	29350.32
452.86	30321.64
453.05	30607.19
453.23	32004.49
453.42	32243.22
453.60	32968.79
453.78	32975.81
453.97	32758.14
454.15	32823.67
454.34	31370.20
454.52	31285.94
454.70	31426.37
454.89	32133.21
455.07	32137.90
455.26	32591.96
455.44	33251.99
455.62	34174.16
455.81	33970.54
455.99	34092.24
456.17	33640.52
456.36	34698.44
456.54	35026.12
456.73	34459.71
456.91	35091.65
457.09	35290.60
457.28	36077.02
457.46	34148.42
457.64	34302.89
457.83	33397.10
458.01	33483.70
458.19	34656.31
458.38	35196.98
458.56	35304.64
458.74	34946.54
458.93	34220.97
459.11	33787.97
459.29	33893.30
459.48	34815.47
459.66	33689.67
459.84	33741.16
460.03	34260.76
460.21	35409.96
460.39	36278.30
460.57	35316.34
460.76	35337.41
460.94	35927.22
461.12	36112.13
461.31	35988.08
461.49	36566.19
461.67	36002.12
461.85	37198.13
462.04	36730.03
462.22	36587.25
462.40	36383.63
462.59	36327.45
462.77	36598.96
462.95	36315.75
463.13	36121.49
463.32	35316.34
463.50	35072.93
463.68	35314.00
463.86	35871.05
464.05	34611.84
464.23	34256.08
464.41	34696.10
464.59	34115.65
464.78	36055.95
464.96	34539.29
465.14	34139.05
465.32	36044.25
465.50	36879.82
465.69	38127.33
465.87	36325.11
466.05	35548.06
466.23	34120.33
466.41	33181.77
466.60	34504.18
466.78	33713.08
466.96	34677.38
467.14	35318.68
467.32	35632.32
467.51	35599.55
467.69	34125.01
467.87	35239.11
468.05	35629.98
468.23	35620.61
468.41	35571.46
468.60	35981.06
468.78	36435.12
468.96	35995.10
469.14	36566.19
469.32	36481.93
469.50	34532.26
469.69	35112.72
469.87	34670.36
470.05	34155.44
470.23	34553.33
470.41	34885.68
470.59	35215.70
470.77	35009.73
470.95	35894.46
471.14	36676.19
471.32	37144.30
471.50	38892.68
471.68	38639.90
471.86	39129.08
472.04	38808.42
472.22	38965.24
472.40	37233.24
472.58	36961.74
472.77	37146.64
472.95	37912.00
473.13	38785.02
473.31	36971.10
473.49	37097.49
473.67	38078.18
473.85	39012.05
474.03	40577.87
474.21	40552.12
474.39	40566.16
474.57	40612.98
474.75	40842.35
474.93	40018.48
475.12	38550.96
475.30	39526.97
475.48	39126.74
475.66	39363.13
475.84	38761.61
476.02	39267.17
476.20	38595.43
476.38	39218.02
476.56	40666.81
476.74	41404.08
476.92	41275.35
477.10	41694.30
477.28	42679.67
477.46	42969.90
477.64	43023.73
477.82	43859.30
478.00	44034.84
478.18	42693.71
478.36	41944.74
478.54	42829.46
478.72	43199.27
478.90	45244.90
479.08	46213.88
479.26	46349.63
479.44	46497.08
479.62	45757.47
479.80	46288.77
479.98	46277.07
480.16	46483.04
480.34	45741.09
480.52	46506.44
480.70	46586.02
480.88	46316.86
481.06	47175.84
481.24	47342.02
481.41	48449.09
481.59	49331.47
481.77	48081.63
481.95	47784.38
482.13	47870.98
482.31	48264.19
482.49	48718.25
482.67	48062.90
482.85	48252.48
483.03	48575.48
483.21	49399.35
483.39	49574.89
483.57	48884.43
483.74	48699.53
483.92	49078.69
484.10	48987.41
484.28	49600.63
484.46	49354.88
484.64	51072.83
484.82	49986.82
485.00	49305.73
485.18	48631.65
485.35	46632.83
485.53	41226.20
485.71	38888.00
485.89	39892.09
486.07	43217.99
486.25	45015.52
486.43	47735.23
486.61	48285.25
486.78	47524.58
486.96	49010.82
487.14	50078.10
487.32	50911.33
487.50	51774.99
487.68	52823.55
487.85	53598.27
488.03	52753.33
488.21	52156.50
488.39	51835.84
488.57	50501.74
488.75	50899.63
488.92	52203.31
489.10	54101.48
489.28	54326.17
489.46	55987.95
489.64	55536.23
489.81	55950.51
489.99	55330.26
490.17	55299.84
490.35	55550.27
490.53	55049.40
490.70	55044.72
490.88	54827.05
491.06	56020.72
491.24	56467.76
491.41	55236.64
491.59	53619.33
491.77	53743.38
491.95	54543.84
492.13	55690.71
492.30	56395.21
492.48	56877.36
492.66	57226.10
492.84	56685.43
493.01	56657.35
493.19	56523.94
493.37	56023.06
493.54	56399.89
493.72	57455.47
493.90	57528.03
494.08	58375.30
494.25	58305.09
494.43	58735.74
494.61	58967.46
494.79	58883.20
494.96	59339.60
495.14	58766.17
495.32	57446.11
495.49	57851.02
495.67	58810.64
495.85	59484.72
496.02	59962.18
496.20	59248.32
496.38	58981.50
496.55	59037.67
496.73	59653.23
496.91	59772.60
497.09	59758.56
497.26	60488.80
497.44	59533.87
497.62	58892.56
497.79	58291.04
497.97	57265.89
498.14	58073.37
498.32	59243.64
498.50	59419.18
498.67	58930.01
498.85	59166.40
499.03	59908.35
499.20	60324.97
499.38	59655.57
499.56	59004.91
499.73	58873.84
499.91	58649.14
500.08	58284.02
500.26	57858.04
500.44	58574.25
500.61	59126.61
500.79	58817.66
500.97	59044.69
501.14	57989.11
501.32	57719.95
501.49	58096.78
501.67	58796.60
501.84	58595.31
502.02	59370.03
502.20	59604.08
502.37	59781.96
502.55	59810.05
502.72	60563.70
502.90	61045.85
503.07	60720.52
503.25	59583.02
503.43	58838.73
503.60	58497.01
503.78	58351.90
503.95	58740.42
504.13	59767.92
504.30	60465.40
504.48	59721.11
504.65	59812.39
504.83	59931.76
505.01	60643.28
505.18	61020.11
505.36	61272.88
505.53	61312.67
505.71	61485.87
505.88	61755.03
506.06	61043.51
506.23	60657.32
506.41	60776.69
506.58	60980.32
506.76	60783.71
506.93	60025.38
507.11	60289.86
507.28	60516.89
507.46	59821.75
507.63	59814.73
507.81	59480.03
507.98	59849.84
508.16	60912.44
508.33	60924.14
508.50	61127.77
508.68	61621.62
508.85	61673.12
509.03	62232.50
509.20	61520.98
509.38	60495.83
509.55	60800.10
509.73	60809.46
509.90	61038.83
510.08	60977.98
510.25	60666.69
510.42	60582.43
510.60	60975.64
510.77	61305.65
510.95	61106.71
511.12	61825.25
511.30	62389.32
511.47	62649.12
511.64	62230.16
511.82	62433.79
511.99	61275.22
512.17	61139.47
512.34	60788.39
512.51	60828.18
512.69	61296.29
512.86	60996.70
513.04	61197.99
513.21	60802.44
513.38	60004.31
513.56	59678.98
513.73	59318.54
513.90	60364.76
514.08	60266.45
514.25	60367.10
514.43	60715.84
514.60	60860.95
514.77	60982.66
514.95	61174.58
515.12	60867.97
515.29	61420.34
515.47	61865.04
515.64	61851.00
515.81	61481.19
515.99	60266.45
516.16	58787.24
516.33	56605.86
516.51	56406.91
516.68	55318.56
516.85	54330.86
517.03	56257.12
517.20	58560.20
517.37	60395.18
517.54	60987.34
517.72	59887.29
517.89	57010.77
518.06	55725.81
518.24	57095.03
518.41	59047.04
518.58	59632.17
518.75	60142.41
518.93	59847.50
519.10	59337.26
519.27	60516.89
519.45	60804.78
519.62	61469.49
519.79	61722.27
519.96	61017.77
520.14	60793.07
520.31	59611.10
520.48	59533.87
520.65	60692.43
520.83	61862.70
521.00	61453.11
521.17	60968.61
521.34	61102.03
521.52	61558.43
521.69	61808.87
521.86	61968.02
522.03	61675.46
522.20	60271.14
522.38	59814.73
522.55	60320.29
522.72	60685.41
522.89	60158.79
523.07	61113.73
523.24	61420.34
523.41	62251.23
523.58	62447.83
523.75	62454.86
523.92	62452.51
524.10	62195.06
524.27	61860.36
524.44	61743.33
524.61	60865.63
524.78	61815.89
524.96	61483.53
525.13	61504.60
525.30	62504.01
525.47	62674.87
525.64	62361.23
525.81	61443.74
525.98	59711.75
526.16	58506.37
526.33	58827.02
526.50	58314.45
526.67	58358.92
526.84	58871.49
527.01	59772.60
527.18	60121.34
527.36	60917.12
527.53	61794.82
527.70	61396.93
527.87	60065.17
528.04	61024.79
528.21	61525.66
528.38	62012.49
528.55	62960.41
528.72	62745.08
528.89	62291.02
529.07	62216.12
529.24	60938.19
529.41	60647.96
529.58	60870.31
529.75	61717.59
529.92	61897.81
530.09	61776.10
530.26	62354.21
530.43	63021.26
530.60	62312.08
530.77	62805.94
530.94	62880.83
531.11	61752.69
531.28	62017.17
531.46	61975.05
531.63	61965.68
531.80	61635.67
531.97	61413.32
532.14	61408.64
532.31	59756.22
532.48	59168.74
532.65	59653.23
532.82	60149.43
532.99	61792.48
533.16	61944.62
533.33	61682.48
533.50	62134.20
533.67	61694.18
533.84	61300.97
534.01	61572.47
534.18	61656.73
534.35	61247.14
534.52	60755.63
534.69	61432.04
534.86	61907.17
535.03	62213.78
535.20	62045.26
535.37	62974.45
535.54	62972.11
535.71	62667.84
535.88	62709.97
536.05	61539.71
536.22	61041.17
536.38	61083.30
536.55	60203.26
536.72	60051.12
536.89	60793.07
537.06	60643.28
537.23	60914.78
537.40	60907.76
537.57	60762.65
537.74	61174.58
537.91	61429.70
538.08	61364.17
538.25	61415.66
538.42	62333.15
538.59	61605.24
538.75	60963.93
538.92	60116.66
539.09	60697.11
539.26	60395.18
539.43	60530.93
539.60	60137.72
539.77	60975.64
539.94	60563.70
540.11	59863.88
540.28	59526.84
540.44	59278.75
540.61	59456.63
540.78	59788.98
540.95	60271.14
541.12	60533.28
541.29	61062.24
541.46	60940.53
541.62	61298.63
541.79	60502.85
541.96	60025.38
542.13	60392.84
542.30	60207.94
542.47	60610.51
542.63	60582.43
542.80	60434.97
542.97	60001.97
543.14	59901.33
543.31	60149.43
543.48	61069.26
543.64	61092.66
543.81	62134.20
543.98	61925.89
544.15	60844.57
544.32	61193.31
544.48	60678.39
544.65	60640.94
544.82	61090.32
544.99	59943.46
545.16	59765.58
545.32	60023.04
545.49	60484.12
545.66	60704.13
545.83	60584.77
546.00	60977.98
546.16	60589.45
546.33	60680.73
546.50	60519.23
546.67	61268.20
546.83	60552.00
547.00	61001.38
547.17	59597.06
547.34	58796.60
547.50	59047.04
547.67	59845.16
547.84	60767.33
548.00	60884.36
548.17	60397.52
548.34	60910.10
548.51	61022.45
548.67	60725.20
548.84	60598.81
549.01	61109.05
549.18	60507.53
549.34	60718.18
549.51	60886.70
549.68	61066.92
549.84	60336.67
550.01	59590.04
550.18	59578.34
550.34	60009.00
550.51	60247.73
550.68	60591.79
550.84	60488.80
551.01	59725.79
551.18	59693.02
551.34	59271.73
551.51	60523.91
551.68	60697.11
551.84	60814.14
552.01	60306.24
552.18	60055.81
552.34	59208.53
552.51	59203.85
552.68	58974.48
552.84	59543.23
553.01	59391.09
553.18	59866.22
553.34	59798.35
553.51	60144.75
553.67	60123.68
553.84	60172.83
554.01	60547.32
554.17	59784.30
554.34	59877.93
554.51	59840.48
554.67	59215.55
554.84	59632.17
555.00	59248.32
555.17	59536.21
555.33	58838.73
555.50	58934.69
555.67	59440.24
555.83	59641.53
556.00	59192.15
556.16	58941.71
556.33	58775.53
556.50	58990.86
556.66	58937.03
556.83	58569.57
556.99	58293.38
557.16	58890.22
557.32	58410.41
557.49	58955.75
557.65	58848.09
557.82	59217.89
557.98	59475.35
558.15	58148.27
558.32	57762.08
558.48	57354.83
558.65	57481.22
558.81	57614.63
558.98	58656.17
559.14	58536.80
559.31	58305.09
559.47	57998.48
559.64	58028.90
559.80	57371.21
559.97	58277.00
560.13	58871.49
560.30	59676.64
560.46	59962.18
560.63	60226.66
560.79	59983.25
560.96	59133.63
561.12	58136.57
561.29	57930.60
561.45	57991.45
561.61	59175.76
561.78	58351.90
561.94	58768.51
562.11	58464.24
562.27	57858.04
562.44	58925.33
562.60	59147.68
562.77	59210.87
562.93	58302.74
563.10	58335.51
563.26	58588.29
563.42	58981.50
563.59	58384.66
563.75	58255.93
563.92	57783.15
564.08	57492.92
564.24	58644.46
564.41	57923.58
564.57	58686.59
564.74	58450.20
564.90	57946.98
565.07	57642.71
565.23	56765.01
565.39	56458.40
565.56	56699.48
565.72	57350.15
565.88	56090.94
566.05	58047.63
566.21	58202.10
566.38	57567.82
566.54	58005.50
566.70	58925.33
566.87	58286.36
567.03	57808.89
567.19	59035.33
567.36	59320.88
567.52	57673.14
567.68	57406.32
567.85	56865.66
568.01	57144.18
568.17	57106.73
568.34	57364.19
568.50	56804.80
568.66	56650.33
568.83	56362.44
568.99	56184.56
569.15	56430.32
569.32	56598.83
569.48	56727.56
569.64	56470.11
569.81	56420.95
569.97	56151.79
570.13	55550.27
570.30	54897.27
570.46	54782.58
570.62	54145.95
570.78	54497.03
570.95	55318.56
571.11	55580.70
571.27	55206.22
571.43	55503.46
571.60	55271.75
571.76	56346.06
571.92	56521.60
572.09	56954.60
572.25	56324.99
572.41	56636.28
572.57	56416.27
572.74	57097.37
572.90	57963.37
573.06	57415.68
573.22	57425.04
573.38	57240.14
573.55	58171.67
573.71	56547.34
573.87	56802.46
574.03	56673.73
574.20	56432.66
574.36	56004.34
574.52	55494.10
574.68	55786.67
574.84	54876.20
575.01	55255.37
575.17	55018.97
575.33	55416.86
575.49	55587.72
575.65	54522.78
575.82	54986.21
575.98	55222.60
576.14	56104.98
576.30	56573.09
576.46	55126.64
576.62	55473.04
576.79	55618.15
576.95	55498.78
577.11	55927.10
577.27	55540.91
577.43	55985.61
577.59	55323.24
577.75	54361.28
577.92	54227.87
578.08	54681.94
578.24	55082.17
578.40	55011.95
578.56	53677.85
578.72	54277.02
578.88	53982.12
579.04	54607.04
579.21	54270.00
579.37	54564.91
579.53	54796.62
579.69	54204.47
579.85	54110.85
580.01	54358.94
580.17	54010.20
580.33	54939.39
580.49	54951.10
580.65	53785.51
580.82	54703.00
580.98	55051.74
581.14	54932.37
581.30	54464.27
581.46	54167.02
581.62	54578.95
581.78	55318.56
581.94	55592.40
582.10	55599.43
582.26	55358.35
582.42	55451.97
582.58	54241.92
582.74	54607.04
582.90	54473.63
583.06	54850.45
583.22	54866.84
583.38	54658.53
583.54	55283.45
583.70	55152.38
583.86	55391.12
584.02	54370.64
584.18	54129.57
584.34	54000.84
584.50	53762.11
584.66	53930.62
584.82	54253.62
584.98	54227.87
585.14	53532.73
585.30	53544.44
