SpectraSuite Data File
++++++++++++++++++++++++++++++++++++
Date: Mon Oct 07 14:55:03 GMT-05:00 2013
User: price-jones
Dark Spectrum Present: No
Reference Spectrum Present: No
Number of Sampled Component Spectra: 1
Spectrometers: USB2+H05261
Integration Time (usec): 10000 (USB2+H05261)
Spectra Averaged: 1 (USB2+H05261)
Boxcar Smoothing: 0 (USB2+H05261)
Correct for Electrical Dark: No (USB2+H05261)
Strobe/Lamp Enabled: No (USB2+H05261)
Correct for Detector Non-linearity: No (USB2+H05261)
Correct for Stray Light: No (USB2+H05261)
Number of Pixels in Processed Spectrum: 2048
>>>>>Begin Processed Spectral Data<<<<<
365.73	0.00
365.92	0.00
366.12	0.00
366.32	0.00
366.52	0.00
366.72	0.00
366.91	0.00
367.11	0.00
367.31	0.00
367.51	0.00
367.70	0.00
367.90	0.00
368.10	0.00
368.30	0.00
368.49	0.00
368.69	0.00
368.89	0.00
369.09	0.00
369.28	0.00
369.48	0.00
369.68	0.00
369.87	0.00
370.07	0.00
370.27	0.00
370.47	428.32
370.66	2771.19
370.86	3124.62
371.06	3372.71
371.25	3293.13
371.45	2963.12
371.65	2642.46
371.84	2588.63
372.04	2768.85
372.24	3126.96
372.44	3197.17
372.63	3119.93
372.83	3014.61
373.03	2597.99
373.22	2408.41
373.42	2698.64
373.62	2942.05
373.81	3136.32
374.01	3049.72
374.21	2616.72
374.40	2703.32
374.60	2794.60
374.79	3255.69
374.99	3836.14
375.19	3990.61
375.38	3770.60
375.58	3702.73
375.78	3515.48
375.97	3658.26
376.17	3859.54
376.37	3845.50
376.56	3943.80
376.76	4208.28
376.95	4430.63
377.15	4770.01
377.35	4887.04
377.54	5053.22
377.74	5303.65
377.93	5256.84
378.13	4880.02
378.33	4683.41
378.52	4404.89
378.72	4285.52
378.91	4191.90
379.11	4053.81
379.31	4009.34
379.50	3932.10
379.70	4332.33
379.89	4823.84
380.09	5114.07
380.28	5181.95
380.48	5055.56
380.68	4971.30
380.87	4802.78
381.07	4369.78
381.26	3974.23
381.46	3824.44
381.65	3742.52
381.85	3602.08
382.04	3398.46
382.24	3112.91
382.43	3239.30
382.63	3080.14
382.83	3084.83
383.02	3084.83
383.22	2965.46
383.41	3119.93
383.61	3468.67
383.80	3911.04
384.00	4573.41
384.19	4739.58
384.39	5313.02
384.58	5214.71
384.78	5135.14
384.97	4767.67
385.17	4629.58
385.36	4372.12
385.56	4430.63
385.75	4669.37
385.95	5022.79
386.14	5469.83
386.34	5287.27
386.53	4814.48
386.72	4716.18
386.92	4751.29
387.11	5165.56
387.31	5345.78
387.50	5294.29
387.70	5067.26
387.89	4973.64
388.09	5125.77
388.28	5275.57
388.48	5142.16
388.67	5591.54
388.86	6265.61
389.06	6537.12
389.25	7040.33
389.45	7087.14
389.64	6899.90
389.84	6738.40
390.03	6628.40
390.22	6918.62
390.42	7073.10
390.61	7768.24
390.81	7915.69
391.00	8269.11
391.19	8138.04
391.39	7597.38
391.58	7337.58
391.78	6642.44
391.97	6497.33
392.16	6097.10
392.36	5212.37
392.55	4142.75
392.75	3339.94
392.94	2906.95
393.13	2972.48
393.33	3765.92
393.52	4889.38
393.71	5636.01
393.91	6296.04
394.10	6897.56
394.29	7564.61
394.49	8147.40
394.68	8667.00
394.88	8491.46
395.07	8872.97
395.26	8664.66
395.46	8540.61
395.65	7719.09
395.84	6731.38
396.04	5528.35
396.23	4524.26
396.42	3911.04
396.62	3950.82
396.81	4957.25
397.00	6155.61
397.19	7679.30
397.39	8959.57
397.58	10003.45
397.77	10558.16
397.97	10974.77
398.16	11098.82
398.35	11410.11
398.55	11623.10
398.74	12362.71
398.93	12514.84
399.12	12376.75
399.32	11929.71
399.51	12287.81
399.70	12936.14
399.90	12636.55
400.09	12470.37
400.28	12477.40
400.47	13053.17
400.67	13516.59
400.86	13631.28
401.05	13818.52
401.24	13745.97
401.44	14216.41
401.63	14370.89
401.82	13696.82
402.01	13898.10
402.21	14380.25
402.40	14277.27
402.59	13516.59
402.78	12847.20
402.97	12989.97
403.17	13818.52
403.36	14445.79
403.55	14934.96
403.74	15295.40
403.93	14216.41
404.13	13348.08
404.32	13188.92
404.51	13572.77
404.70	14841.34
404.89	14511.32
405.09	14415.36
405.28	14090.02
405.47	13996.40
405.66	14185.99
405.85	13771.71
406.05	13404.25
406.24	13818.52
406.43	14101.73
406.62	14494.94
406.81	14719.63
407.00	14298.33
407.20	13980.02
407.39	14188.33
407.58	14848.36
407.77	15330.51
407.96	15658.18
408.15	16166.08
408.34	16266.72
408.54	16854.20
408.73	16690.36
408.92	16189.49
409.11	15585.63
409.30	15241.57
409.49	14120.45
409.68	13334.03
409.87	13235.73
410.07	14242.16
410.26	15126.88
410.45	15999.90
410.64	16767.60
410.83	16903.35
411.02	17392.52
411.21	17902.76
411.40	17446.35
411.59	18183.62
411.78	17944.89
411.98	17757.64
412.17	17820.84
412.36	17366.78
412.55	17589.13
412.74	17254.43
412.93	17003.99
413.12	17441.67
413.31	18862.38
413.50	18675.13
413.69	19033.24
413.88	18284.26
414.07	18033.83
414.26	18398.95
414.45	18911.53
414.64	18420.02
414.83	18583.85
415.02	18511.30
415.22	18429.38
415.41	18956.00
415.60	19843.06
415.79	20154.35
415.98	20964.18
416.17	20702.04
416.36	20224.57
416.55	19941.36
416.74	18768.76
416.93	18389.59
417.12	19089.41
417.31	19044.94
417.50	19606.67
417.69	20100.52
417.88	20109.88
418.07	19646.46
418.26	19421.77
418.45	19627.73
418.64	20540.54
418.83	21394.84
419.02	20823.75
419.21	20458.62
419.39	19637.09
419.58	18705.56
419.77	19204.10
419.96	20453.94
420.15	21184.19
420.34	21832.52
420.53	22155.51
420.72	22757.03
420.91	22408.29
421.10	21575.06
421.29	21961.25
421.48	21305.90
421.67	22302.96
421.86	21088.23
422.05	19646.46
422.24	18185.96
422.43	18771.10
422.61	20720.76
422.80	21675.70
422.99	21186.53
423.18	20510.11
423.37	20531.18
423.56	20908.01
423.75	21479.10
423.94	21558.67
424.13	20432.88
424.32	20266.70
424.50	20343.94
424.69	20334.57
424.88	20638.84
425.07	20650.55
425.26	20535.86
425.45	19716.67
425.64	19499.00
425.83	19833.70
426.01	21069.50
426.20	21572.72
426.39	21076.52
426.58	19466.24
426.77	18171.92
426.96	18237.45
427.15	18892.80
427.33	20397.77
427.52	20622.46
427.71	21001.63
427.90	20545.22
428.09	20229.25
428.28	19704.97
428.46	19030.90
428.65	18801.52
428.84	19583.26
429.03	19906.26
429.22	18754.71
429.40	17303.58
429.59	15494.35
429.78	13998.74
429.97	14501.96
430.16	14253.86
430.34	14291.31
430.53	14501.96
430.72	15641.80
430.91	17069.53
431.10	20269.04
431.28	23150.24
431.47	25071.82
431.66	24039.64
431.85	21216.96
432.03	20414.15
432.22	20322.87
432.41	21748.26
432.60	23318.76
432.79	24105.18
432.97	24397.74
433.16	23541.11
433.35	20917.37
433.54	19009.83
433.72	18483.21
433.91	19800.93
434.10	21923.80
434.28	22995.76
434.47	24081.77
434.66	22792.14
434.85	22450.42
435.03	23393.65
435.22	23700.26
435.41	24781.59
435.59	25755.26
435.78	25537.59
435.97	26487.84
436.16	26199.96
436.34	25579.71
436.53	25153.74
436.72	25261.40
436.90	24187.10
437.09	24308.80
437.28	23662.82
437.46	24919.68
437.65	23908.57
437.84	21806.77
438.02	20783.96
438.21	21088.23
438.40	22108.70
438.58	23836.02
438.77	24273.70
438.96	24940.75
439.14	26279.54
439.33	26078.25
439.52	26459.76
439.70	25427.58
439.89	24872.87
440.08	25055.43
440.26	24905.64
440.45	26258.47
440.63	28151.96
440.82	28879.87
441.01	27854.72
441.19	28238.56
441.38	28737.10
441.57	29614.80
441.75	29404.15
441.94	29900.34
442.12	29392.45
442.31	30780.39
442.50	30628.25
442.68	29860.55
442.87	29825.45
443.05	28903.28
443.24	29766.93
443.43	30747.62
443.61	31026.14
443.80	31332.75
443.98	30401.22
444.17	29710.76
444.35	31168.91
444.54	31950.65
444.73	30808.47
444.91	29699.06
445.10	28687.95
445.28	27995.15
445.47	27421.72
445.65	27463.85
445.84	28339.21
446.02	28816.68
446.21	30033.75
446.39	29977.58
446.58	30675.06
446.77	31049.55
446.95	30703.15
447.14	31969.38
447.32	33078.79
447.51	31983.42
447.69	30485.48
447.88	30918.48
448.06	31068.27
448.25	31517.65
448.43	31267.22
448.62	30644.63
448.80	30717.19
448.99	31323.39
449.17	31700.22
449.36	31962.36
449.54	32811.97
449.73	33476.68
449.91	33764.57
450.10	34698.44
450.28	34859.94
450.46	34639.93
450.65	34555.67
450.83	34171.82
451.02	33553.92
451.20	33780.95
451.39	33706.05
451.57	33596.05
451.76	33825.42
451.94	32659.84
452.13	32072.36
452.31	30373.13
452.49	28924.34
452.68	29799.70
452.86	30464.41
453.05	30572.08
453.23	31967.04
453.42	32168.32
453.60	33415.83
453.78	33200.50
453.97	32879.85
454.15	32730.05
454.34	31358.50
454.52	31505.95
454.70	31807.88
454.89	31824.26
455.07	32128.53
455.26	32856.44
455.44	33535.20
455.62	34057.14
455.81	33947.13
455.99	34675.04
456.17	33661.58
456.36	34501.84
456.54	34735.89
456.73	34895.05
456.91	35260.17
457.09	35009.73
457.28	36488.95
457.46	34539.29
457.64	34319.28
457.83	33467.32
458.01	33085.81
458.19	34258.42
458.38	35021.44
458.56	35222.72
458.74	35447.41
458.93	34244.38
459.11	34038.41
459.29	33916.70
459.48	34761.64
459.66	34188.21
459.84	34122.67
460.03	34457.37
460.21	35218.04
460.39	36315.75
460.57	35835.94
460.76	36313.41
460.94	36584.91
461.12	36278.30
461.31	35917.86
461.49	36528.74
461.67	36708.96
461.85	37818.38
462.04	36999.19
462.22	37116.22
462.40	36800.24
462.59	36397.67
462.77	37006.21
462.95	36608.32
463.13	36315.75
463.32	35765.73
463.50	35622.95
463.68	35777.43
463.86	36123.83
464.05	34883.34
464.23	34511.20
464.41	34731.21
464.59	34167.14
464.78	35833.60
464.96	34799.08
465.14	34752.27
465.32	36556.83
465.50	37612.41
465.69	37890.93
465.87	36573.21
466.05	36044.25
466.23	34298.21
466.41	33347.95
466.60	34845.90
466.78	34773.34
466.96	34763.98
467.14	35424.01
467.32	35428.69
467.51	36034.89
467.69	34380.13
467.87	35363.15
468.05	36257.24
468.23	35981.06
468.41	36231.49
468.60	36400.01
468.78	36201.07
468.96	36051.27
469.14	36842.37
469.32	36769.82
469.50	35353.79
469.69	35283.58
469.87	35079.95
470.05	34473.75
470.23	34754.61
470.41	35262.51
470.59	34925.47
470.77	35360.81
470.95	36037.23
471.14	36484.27
471.32	37074.09
471.50	39100.99
471.68	38937.15
471.86	39636.97
472.04	38885.66
472.22	38990.98
472.40	37373.67
472.58	37916.68
472.77	37228.56
472.95	38045.41
473.13	39016.73
473.31	37771.57
473.49	38066.47
473.67	38857.57
473.85	39395.90
474.03	40746.39
474.21	40730.00
474.39	40634.04
474.57	40872.78
474.75	40900.86
474.93	39849.96
475.12	39122.05
475.30	39571.44
475.48	39407.60
475.66	40128.48
475.84	38916.09
476.02	39597.18
476.20	38866.94
476.38	39672.08
476.56	40940.65
476.74	41801.97
476.92	41675.58
477.10	42078.15
477.28	43178.20
477.46	43566.73
477.64	44224.42
477.82	43892.07
478.00	43784.40
478.18	43412.26
478.36	42899.68
478.54	43393.53
478.72	43536.30
478.90	45404.05
479.08	45998.55
479.26	45762.15
479.44	47019.02
479.62	46012.59
479.80	46244.30
479.98	46176.43
480.16	46665.60
480.34	45617.04
480.52	46433.89
480.70	46548.57
480.88	46480.70
481.06	47147.75
481.24	47353.72
481.41	48673.78
481.59	49184.02
481.77	47835.87
481.95	47821.83
482.13	47999.71
482.31	48664.42
482.49	49495.31
482.67	48533.35
482.85	49015.50
483.03	49279.98
483.21	49691.91
483.39	49942.35
483.57	49284.66
483.74	49275.30
483.92	49270.62
484.10	49429.77
484.28	49659.15
484.46	50272.37
484.64	50986.23
484.82	50204.49
485.00	49645.10
485.18	49169.97
485.35	47023.70
485.53	42157.73
485.71	39171.21
485.89	40521.69
486.07	43889.73
486.25	45694.28
486.43	48090.99
486.61	48945.28
486.78	47803.10
486.96	49226.15
487.14	50536.85
487.32	51452.00
487.50	52046.49
487.68	52945.26
487.85	53411.02
488.03	52853.98
488.21	52310.97
488.39	52114.37
488.57	50447.91
488.75	51061.13
488.92	52385.87
489.10	54410.43
489.28	54885.56
489.46	56062.85
489.64	55440.27
489.81	56046.47
489.99	55671.98
490.17	55641.56
490.35	56128.39
490.53	55466.02
490.70	55370.05
490.88	55274.09
491.06	56390.53
491.24	56575.43
491.41	55442.61
491.59	54064.03
491.77	53572.52
491.95	54649.17
492.13	56002.00
492.30	56467.76
492.48	57347.81
492.66	57616.97
492.84	56945.23
493.01	56685.43
493.19	56495.85
493.37	56200.94
493.54	56453.72
493.72	57602.92
493.90	58136.57
494.08	58401.05
494.25	58717.02
494.43	59355.99
494.61	59222.58
494.79	59241.30
494.96	59344.28
495.14	58930.01
495.32	57546.75
495.49	57719.95
495.67	58820.00
495.85	59587.70
496.02	60165.81
496.20	59393.43
496.38	58983.84
496.55	58981.50
496.73	59409.82
496.91	60013.68
497.09	60217.30
497.26	60970.96
497.44	59833.46
497.62	59208.53
497.79	58752.13
497.97	57752.72
498.14	58541.48
498.32	59330.24
498.50	59573.66
498.67	59587.70
498.85	59442.59
499.03	59915.37
499.20	60009.00
499.38	59629.83
499.56	58871.49
499.73	59133.63
499.91	58908.94
500.08	58239.55
500.26	58110.82
500.44	58763.83
500.61	59367.69
500.79	58958.09
500.97	58653.82
501.14	58349.56
501.32	57652.08
501.49	58248.91
501.67	59049.38
501.84	58852.77
502.02	59400.46
502.20	59681.32
502.37	59526.84
502.55	60137.72
502.72	61020.11
502.90	61305.65
503.07	60928.83
503.25	59875.58
503.43	59119.59
503.60	58836.39
503.78	58745.11
503.95	59568.97
504.13	60353.05
504.30	60893.72
504.48	60067.51
504.65	60343.69
504.83	60467.74
505.01	60996.70
505.18	61347.78
505.36	61820.57
505.53	61666.09
505.71	61324.38
505.88	61904.83
506.06	61535.02
506.23	61205.01
506.41	60860.95
506.58	60961.59
506.76	60669.03
506.93	60294.54
507.11	60381.14
507.28	60685.41
507.46	59774.94
507.63	60093.25
507.81	60048.78
507.98	60196.24
508.16	60856.27
508.33	60994.36
508.50	61392.25
508.68	61846.32
508.85	62206.76
509.03	62300.38
509.20	61944.62
509.38	61104.37
509.55	61378.21
509.73	61305.65
509.90	61090.32
510.08	61312.67
510.25	60966.27
510.42	60697.11
510.60	60903.08
510.77	61525.66
510.95	61757.38
511.12	62094.41
511.30	62742.74
511.47	63014.24
511.64	62410.38
511.82	62691.25
511.99	61591.20
512.17	61446.08
512.34	60999.04
512.51	61476.51
512.69	61663.75
512.86	61052.87
513.04	61415.66
513.21	61048.19
513.38	60507.53
513.56	59870.90
513.73	59545.57
513.90	60683.07
514.08	60678.39
514.25	60823.50
514.43	60921.80
514.60	61034.15
514.77	61546.73
514.95	61647.37
515.12	61525.66
515.29	61759.72
515.47	62192.72
515.64	62258.25
515.81	61886.10
515.99	60867.97
516.16	59192.15
516.33	57095.03
516.51	56860.97
516.68	55508.14
516.85	54703.00
517.03	56332.01
517.20	58791.92
517.37	60706.47
517.54	61336.08
517.72	60521.57
517.89	57635.69
518.06	56177.54
518.24	57027.15
518.41	59274.07
518.58	60594.13
518.75	60523.91
518.93	60320.29
519.10	59859.20
519.27	60797.76
519.45	61003.72
519.62	61869.72
519.79	61961.00
519.96	61460.13
520.14	61286.93
520.31	60441.99
520.48	60250.07
520.65	61228.41
520.83	62141.22
521.00	61769.08
521.17	60968.61
521.34	61291.61
521.52	62000.79
521.69	62246.55
521.86	62403.36
522.03	61958.66
522.20	60596.47
522.38	60140.07
522.55	60633.92
522.72	60762.65
522.89	60135.38
523.07	61577.15
523.24	62040.58
523.41	62443.15
523.58	62499.33
523.75	62632.74
523.92	62780.19
524.10	62419.75
524.27	62265.27
524.44	61731.63
524.61	61132.45
524.78	61961.00
524.96	61759.72
525.13	62003.13
525.30	62475.92
525.47	62812.96
525.64	62796.57
525.81	61769.08
525.98	60053.47
526.16	58897.24
526.33	59213.21
526.50	58539.14
526.67	58702.98
526.84	59421.52
527.01	60133.04
527.18	60395.18
527.36	61001.38
527.53	61949.30
527.70	61506.94
527.87	60399.86
528.04	61134.79
528.21	61712.91
528.38	62117.82
528.55	63192.12
528.72	62759.12
528.89	62518.05
529.07	62576.56
529.24	61495.24
529.41	61317.35
529.58	61336.08
529.75	62078.03
529.92	62405.70
530.09	62450.17
530.26	62920.62
530.43	63374.69
530.60	62862.11
530.77	63370.00
530.94	63159.36
531.11	62475.92
531.28	62223.14
531.46	62319.10
531.63	62260.59
531.80	62251.23
531.97	61965.68
532.14	61689.50
532.31	60109.64
532.48	59468.33
532.65	60121.34
532.82	60395.18
532.99	62475.92
533.16	62412.73
533.33	62440.81
533.50	62504.01
533.67	61710.56
533.84	61623.96
534.01	62021.86
534.18	61757.38
534.35	61595.88
534.52	61083.30
534.69	61797.16
534.86	62173.99
535.03	62705.29
535.20	62621.03
535.37	63407.45
535.54	63423.84
535.71	62688.91
535.88	62759.12
536.05	61752.69
536.22	61190.97
536.38	61352.46
536.55	61069.26
536.72	60685.41
536.89	61038.83
537.06	61062.24
537.23	61598.22
537.40	61247.14
537.57	61209.69
537.74	61797.16
537.91	61783.12
538.08	61584.18
538.25	62190.37
538.42	62700.61
538.59	62251.23
538.75	61352.46
538.92	60636.26
539.09	61123.09
539.26	60924.14
539.43	60795.42
539.60	60406.89
539.77	61319.70
539.94	60568.38
540.11	60268.79
540.28	59791.33
540.44	59854.52
540.61	59845.16
540.78	60374.12
540.95	60947.55
541.12	60584.77
541.29	61235.44
541.46	61132.45
541.62	61563.11
541.79	60816.48
541.96	60479.44
542.13	60889.04
542.30	60821.16
542.47	60903.08
542.63	61022.45
542.80	60891.38
542.97	60563.70
543.14	60701.79
543.31	61048.19
543.48	61565.45
543.64	61820.57
543.81	62295.70
543.98	62244.21
544.15	61244.80
544.32	61324.38
544.48	61027.13
544.65	60837.54
544.82	61661.41
544.99	60629.24
545.16	60205.60
545.32	60713.50
545.49	61186.28
545.66	61462.47
545.83	61338.42
546.00	61520.98
546.16	60748.60
546.33	60404.55
546.50	60617.53
546.67	61481.19
546.83	61087.98
547.00	61315.01
547.17	59983.25
547.34	59348.96
547.50	59461.31
547.67	59985.59
547.84	60821.16
548.00	61319.70
548.17	61043.51
548.34	61158.20
548.51	61111.39
548.67	60666.69
548.84	60921.80
549.01	61347.78
549.18	60659.66
549.34	60924.14
549.51	61324.38
549.68	61483.53
549.84	60615.19
550.01	59927.08
550.18	60189.22
550.34	60444.33
550.51	60495.83
550.68	60928.83
550.84	61127.77
551.01	60161.13
551.18	60219.64
551.34	60355.39
551.51	61155.86
551.68	61160.54
551.84	61979.73
552.01	60989.68
552.18	60477.10
552.34	59781.96
552.51	59388.75
552.68	59353.65
552.84	59992.61
553.01	60009.00
553.18	59805.37
553.34	60030.06
553.51	60294.54
553.67	60512.21
553.84	60882.02
554.01	61254.16
554.17	60495.83
554.34	60556.68
554.51	60409.23
554.67	59917.71
554.84	60315.61
555.00	59402.80
555.17	59779.62
555.33	59819.41
555.50	59765.58
555.67	60191.56
555.83	60243.05
556.00	59456.63
556.16	59388.75
556.33	59267.05
556.50	59503.44
556.66	59590.04
556.83	58805.96
556.99	58953.41
557.16	59613.44
557.32	59150.02
557.49	59746.86
557.65	59597.06
557.82	59662.60
557.98	60151.77
558.15	59007.25
558.32	58457.22
558.48	58127.20
558.65	57804.21
558.81	58110.82
558.98	58829.37
559.14	58721.70
559.31	58920.65
559.47	58599.99
559.64	58564.88
559.80	57776.12
559.97	58337.85
560.13	59159.38
560.30	60137.72
560.46	60390.50
560.63	60521.57
560.79	60603.49
560.96	59709.41
561.12	58658.51
561.29	58887.88
561.45	58581.27
561.61	59540.89
561.78	58419.77
561.94	58733.40
562.11	58651.48
562.27	58021.88
562.44	59353.65
562.60	59416.84
562.77	59550.25
562.93	59058.74
563.10	59028.31
563.26	59175.76
563.42	59433.22
563.59	59100.87
563.75	58665.53
563.92	58295.72
564.08	58651.48
564.24	59330.24
564.41	58546.16
564.57	59681.32
564.74	59047.04
564.90	58635.10
565.07	57951.66
565.23	57254.18
565.39	56692.46
565.56	57546.75
565.72	57659.10
565.88	57289.29
566.05	58494.67
566.21	58401.05
566.38	58143.59
566.54	58829.37
566.70	59503.44
566.87	58908.94
567.03	58763.83
567.19	59887.29
567.36	59849.84
567.52	58438.50
567.68	57881.45
567.85	57396.96
568.01	57741.02
568.17	57581.86
568.34	57808.89
568.50	57198.01
568.66	57141.84
568.83	57120.77
568.99	56912.47
569.15	57141.84
569.32	56868.00
569.48	57055.24
569.64	57263.55
569.81	57078.64
569.97	56875.02
570.13	56210.31
570.30	55210.90
570.46	55236.64
570.62	54880.88
570.78	55178.13
570.95	55901.36
571.11	56449.04
571.27	55821.78
571.43	56605.86
571.60	56404.57
571.76	56914.81
571.92	57701.23
572.09	57614.63
572.25	57097.37
572.41	56926.51
572.57	57195.67
572.74	57509.30
572.90	58087.42
573.06	58080.39
573.22	58028.90
573.38	57712.93
573.55	58677.23
573.71	57546.75
573.87	57340.78
574.03	57420.36
574.20	56743.95
574.36	56491.17
574.52	56203.28
574.68	56069.87
574.84	55796.03
575.01	55348.99
575.17	55189.83
575.33	55884.97
575.49	56025.40
575.65	55178.13
575.82	55334.95
575.98	55863.91
576.14	56509.89
576.30	57207.37
576.46	55962.21
576.62	56053.49
576.79	56278.18
576.95	56254.78
577.11	56535.64
577.27	56130.73
577.43	56130.73
577.59	56090.94
577.75	55407.50
577.92	55353.67
578.08	55409.84
578.24	55533.89
578.40	55409.84
578.56	54475.97
578.72	55093.87
578.88	55112.59
579.04	55480.06
579.21	55213.24
579.37	55313.88
579.53	55601.77
579.69	54784.92
579.85	54808.32
580.01	54880.88
580.17	54677.25
580.33	55379.42
580.49	55503.46
580.65	55128.98
580.82	55494.10
580.98	55557.30
581.14	55276.43
581.30	55025.99
581.46	54461.93
581.62	55054.08
581.78	55891.99
581.94	55971.57
582.10	55901.36
582.26	55894.33
582.42	55732.84
582.58	55423.89
582.74	55440.27
582.90	55150.04
583.06	55957.53
583.22	55629.85
583.38	55751.56
583.54	55828.80
583.70	55899.01
583.86	55887.31
584.02	54567.25
584.18	54813.01
584.34	54801.30
584.50	54429.16
584.66	54766.20
584.82	54700.66
584.98	54742.79
585.14	53708.27
585.30	53900.20
