SpectraSuite Data File
++++++++++++++++++++++++++++++++++++
Date: Mon Oct 07 14:53:43 GMT-05:00 2013
User: price-jones
Dark Spectrum Present: No
Reference Spectrum Present: No
Number of Sampled Component Spectra: 1
Spectrometers: USB2+H05261
Integration Time (usec): 100000 (USB2+H05261)
Spectra Averaged: 1 (USB2+H05261)
Boxcar Smoothing: 0 (USB2+H05261)
Correct for Electrical Dark: No (USB2+H05261)
Strobe/Lamp Enabled: No (USB2+H05261)
Correct for Detector Non-linearity: No (USB2+H05261)
Correct for Stray Light: No (USB2+H05261)
Number of Pixels in Processed Spectrum: 2048
>>>>>Begin Processed Spectral Data<<<<<
365.73	0.00
365.92	0.00
366.12	0.00
366.32	0.00
366.52	0.00
366.72	0.00
366.91	0.00
367.11	0.00
367.31	0.00
367.51	0.00
367.70	0.00
367.90	0.00
368.10	0.00
368.30	0.00
368.49	0.00
368.69	0.00
368.89	0.00
369.09	0.00
369.28	0.00
369.48	0.00
369.68	0.00
369.87	0.00
370.07	0.00
370.27	0.00
370.47	713.86
370.66	3662.94
370.86	4290.20
371.06	4800.44
371.25	4765.33
371.45	4231.69
371.65	3922.74
371.84	3595.06
372.04	3721.45
372.24	4196.58
372.44	4477.44
372.63	4470.42
372.83	4124.02
373.03	3590.38
373.22	3281.43
373.42	3569.32
373.62	3899.33
373.81	4409.57
374.01	4341.69
374.21	3988.27
374.40	3651.24
374.60	3749.54
374.79	4257.43
374.99	4933.85
375.19	5369.19
375.38	5350.46
375.58	5076.62
375.78	4840.23
375.97	5064.92
376.17	5238.12
376.37	5177.26
376.56	5575.16
376.76	5572.82
376.95	6127.52
377.15	6621.38
377.35	6586.27
377.54	7014.59
377.74	7101.19
377.93	7208.85
378.13	7016.93
378.33	6633.08
378.52	6209.44
378.72	5816.23
378.91	5870.06
379.11	5654.73
379.31	5394.93
379.50	5511.96
379.70	5839.64
379.89	6459.88
380.09	6684.57
380.28	7183.10
380.48	7258.00
380.68	7030.97
380.87	6871.81
381.07	6249.23
381.26	5804.53
381.46	5221.74
381.65	5331.74
381.85	5067.26
382.04	4847.25
382.24	4596.81
382.43	4156.79
382.63	4271.48
382.83	4287.86
383.02	4231.69
383.22	4304.25
383.41	4259.78
383.61	4636.60
383.80	5231.10
384.00	5858.36
384.19	6640.10
384.39	6979.48
384.58	6923.30
384.78	6787.55
384.97	6787.55
385.17	6366.26
385.36	6010.50
385.56	5982.41
385.75	5816.23
385.95	6607.33
386.14	7206.51
386.34	7218.21
386.53	6803.94
386.72	6602.65
386.92	6462.22
387.11	6897.56
387.31	7204.17
387.50	7068.42
387.70	6909.26
387.89	6892.88
388.09	6668.19
388.28	6813.30
388.48	7049.69
388.67	7302.47
388.86	8439.97
389.06	8765.31
389.25	9254.48
389.45	9387.89
389.64	9291.93
389.84	9378.53
390.03	9142.13
390.22	9224.05
390.42	9413.63
390.61	9942.60
390.81	10693.91
391.00	10731.36
391.19	10677.52
391.39	10455.17
391.58	10003.45
391.78	9174.90
391.97	8910.42
392.16	8168.47
392.36	7581.00
392.55	6246.89
392.75	4898.74
392.94	4021.04
393.13	3817.41
393.33	4660.01
393.52	5909.85
393.71	7246.30
393.91	8292.52
394.10	8882.33
394.29	9703.86
394.49	10434.11
394.68	11372.66
394.88	11503.73
395.07	11768.21
395.26	11733.11
395.46	11438.20
395.65	10501.98
395.84	9359.80
396.04	8053.78
396.23	6434.13
396.42	5341.10
396.62	4992.36
396.81	5872.40
397.00	7719.09
397.19	9731.95
397.39	11477.99
397.58	12662.30
397.77	13635.96
397.97	14195.35
398.16	14216.41
398.35	15094.11
398.55	15398.38
398.74	16025.65
398.93	16053.73
399.12	15800.96
399.32	15367.96
399.51	16170.76
399.70	16613.12
399.90	16795.68
400.09	16872.92
400.28	16470.35
400.47	16805.05
400.67	17238.05
400.86	17734.24
401.05	17872.33
401.24	18078.30
401.44	18185.96
401.63	18214.05
401.82	18520.66
402.01	18492.57
402.21	19035.58
402.40	18988.77
402.59	18160.22
402.78	17554.02
402.97	16891.65
403.17	17425.29
403.36	18560.45
403.55	19037.92
403.74	19681.56
403.93	18953.66
404.13	17542.32
404.32	16610.78
404.51	17429.97
404.70	18822.59
404.89	18855.36
405.09	18773.44
405.28	18082.98
405.47	18286.61
405.66	18394.27
405.85	17792.75
406.05	17064.85
406.24	17315.28
406.43	18298.31
406.62	19122.18
406.81	19054.30
407.00	18225.75
407.20	18057.23
407.39	17972.97
407.58	19119.84
407.77	19681.56
407.96	20297.13
408.15	20285.42
408.34	20683.31
408.54	21479.10
408.73	21689.74
408.92	21589.10
409.11	20648.21
409.30	19740.08
409.49	18642.37
409.68	17535.29
409.87	16568.65
410.07	18338.10
410.26	18934.93
410.45	20409.47
410.64	20821.41
410.83	21708.47
411.02	21893.37
411.21	23000.44
411.40	22925.55
411.59	22651.70
411.78	22284.24
411.98	22176.58
412.17	22904.48
412.36	22539.36
412.55	22347.44
412.74	22235.09
412.93	21331.64
413.12	21357.39
413.31	23686.22
413.50	23936.66
413.69	24458.60
413.88	23309.40
414.07	22698.52
414.26	23173.64
414.45	23836.02
414.64	23770.48
414.83	23709.63
415.02	23775.16
415.22	23711.97
415.41	24074.75
415.60	24926.71
415.79	25727.17
415.98	26244.43
416.17	26228.04
416.36	25685.04
416.55	25481.41
416.74	24617.75
416.93	23653.45
417.12	23662.82
417.31	23976.45
417.50	24807.34
417.69	25296.51
417.88	24938.41
418.07	24950.11
418.26	24444.56
418.45	25048.41
418.64	25706.10
418.83	26897.44
419.02	26377.84
419.21	25940.16
419.39	24772.23
419.58	23674.52
419.77	23538.77
419.96	24734.78
420.15	26127.40
420.34	26925.52
420.53	27707.26
420.72	28362.61
420.91	27882.80
421.10	27601.94
421.29	27641.73
421.48	26515.93
421.67	27899.19
421.86	27201.71
422.05	25752.91
422.24	22555.74
422.43	22281.90
422.61	24580.31
422.80	26766.37
422.99	27021.48
423.18	26125.06
423.37	25558.65
423.56	25235.66
423.75	25811.43
423.94	26239.75
424.13	25055.43
424.32	25408.86
424.50	25518.86
424.69	24952.45
424.88	25495.46
425.07	25139.69
425.26	24929.05
425.45	24439.87
425.64	24011.56
425.83	24243.27
426.01	25701.42
426.20	26373.16
426.39	26335.71
426.58	24467.96
426.77	22253.81
426.96	21586.76
427.15	22361.48
427.33	24489.03
427.52	25465.03
427.71	25338.64
427.90	25172.46
428.09	25116.29
428.28	24407.11
428.46	23585.58
428.65	23218.11
428.84	23892.19
429.03	24306.46
429.22	22761.71
429.40	22036.14
429.59	19941.36
429.78	17294.22
429.97	17500.19
430.16	17673.39
430.34	17902.76
430.53	17626.57
430.72	18207.03
430.91	19908.60
431.10	23686.22
431.28	27791.52
431.47	30089.93
431.66	30361.43
431.85	27889.82
432.03	25642.91
432.22	24624.78
432.41	25193.53
432.60	27938.97
432.79	29249.67
432.97	29876.94
433.16	29380.74
433.35	27255.54
433.54	24332.21
433.72	22597.87
433.91	23143.22
434.10	25696.74
434.28	27733.01
434.47	29071.79
434.66	29399.47
434.85	28493.68
435.03	27943.66
435.22	28531.13
435.41	30323.98
435.59	30511.22
435.78	30920.82
435.97	31695.53
436.16	31967.04
436.34	31777.45
436.53	31021.46
436.72	30583.78
436.90	28704.33
437.09	29237.97
437.28	28287.71
437.46	29408.83
437.65	29525.86
437.84	27887.48
438.02	25235.66
438.21	25120.97
438.40	26272.51
438.58	29017.96
438.77	29715.44
438.96	29699.06
439.14	31108.06
439.33	31770.43
439.52	32481.95
439.70	31735.32
439.89	30513.56
440.08	29806.72
440.26	30015.03
440.45	30855.28
440.63	32987.51
440.82	34749.93
441.01	34103.95
441.19	33837.12
441.38	34581.42
441.57	35416.99
441.75	36294.69
441.94	36423.42
442.12	35749.34
442.31	36800.24
442.50	36669.17
442.68	36161.28
442.87	35779.77
443.05	35154.85
443.24	35929.56
443.43	36322.77
443.61	37209.84
443.80	37591.34
443.98	35550.40
444.17	35384.22
444.35	37399.42
444.54	38045.41
444.73	37893.27
444.91	35922.54
445.10	34864.62
445.28	33329.23
445.47	32725.37
445.65	32797.93
445.84	33993.94
446.02	35173.57
446.21	35739.98
446.39	35681.47
446.58	35938.93
446.77	36678.54
446.95	36950.04
447.14	38014.98
447.32	38672.67
447.51	37832.42
447.69	36486.61
447.88	36006.80
448.06	36133.19
448.25	37015.57
448.43	37361.97
448.62	37024.93
448.80	36512.36
448.99	36758.11
449.17	37368.99
449.36	37607.73
449.54	38536.92
449.73	38665.65
449.91	39866.34
450.10	40575.53
450.28	40957.03
450.46	40828.30
450.65	41249.60
450.83	40722.98
451.02	39854.64
451.20	39384.19
451.39	39721.23
451.57	38831.83
451.76	39058.86
451.94	39356.11
452.13	38316.91
452.31	36683.22
452.49	34920.79
452.68	35693.17
452.86	35351.45
453.05	35833.60
453.23	37207.50
453.42	37965.83
453.60	38548.62
453.78	39328.02
453.97	38796.72
454.15	38785.02
454.34	38052.43
454.52	38263.08
454.70	37160.69
454.89	37694.33
455.07	38256.06
455.26	38363.72
455.44	39838.26
455.62	40748.73
455.81	40470.20
455.99	40334.45
456.17	40055.93
456.36	40524.04
456.54	41071.72
456.73	41181.73
456.91	41652.17
457.09	42192.84
457.28	42426.89
457.46	41282.37
457.64	41343.22
457.83	40105.08
458.01	38848.21
458.19	39861.66
458.38	39875.71
458.56	41713.03
458.74	41214.49
458.93	40687.87
459.11	40278.28
459.29	40278.28
459.48	40437.44
459.66	39903.79
459.84	40594.25
460.03	41378.33
460.21	41144.28
460.39	41820.69
460.57	41841.76
460.76	42836.48
460.94	43042.45
461.12	41715.37
461.31	41684.94
461.49	41963.46
461.67	41926.02
461.85	43281.19
462.04	43615.88
462.22	43426.30
462.40	43374.81
462.59	42731.16
462.77	43683.76
462.95	42974.58
463.13	42707.76
463.32	42305.18
463.50	42122.62
463.68	42139.00
463.86	41970.49
464.05	41888.57
464.23	40645.74
464.41	40648.08
464.59	40088.70
464.78	42134.32
464.96	41879.21
465.14	40968.74
465.32	42328.59
465.50	42960.53
465.69	43519.92
465.87	42721.80
466.05	42012.62
466.23	40423.39
466.41	39019.07
466.60	40479.57
466.78	39971.67
466.96	41088.10
467.14	41060.02
467.32	42131.98
467.51	41771.54
467.69	40226.79
467.87	41265.99
468.05	41682.60
468.23	42005.59
468.41	41546.85
468.60	42363.70
468.78	42302.84
468.96	41659.20
469.14	42586.05
469.32	42735.84
469.50	40942.99
469.69	40971.08
469.87	41123.21
470.05	40388.28
470.23	40804.90
470.41	40942.99
470.59	41146.62
470.77	41404.08
470.95	42110.92
471.14	42632.86
471.32	42766.27
471.50	44811.90
471.68	45366.60
471.86	45261.28
472.04	45677.90
472.22	45698.96
472.40	43765.68
472.58	43192.25
472.77	42873.93
472.95	43779.72
473.13	44428.05
473.31	43449.70
473.49	44158.89
473.67	44725.30
473.85	44949.99
474.03	45785.56
474.21	46021.95
474.39	46136.64
474.57	46574.32
474.75	46869.23
474.93	46099.19
475.12	45558.53
475.30	45308.09
475.48	45280.00
475.66	45860.46
475.84	46024.29
476.02	45076.38
476.20	44580.18
476.38	45696.62
476.56	46859.87
476.74	46845.82
476.92	47210.95
477.10	48126.10
477.28	48985.07
477.46	48978.05
477.64	49326.79
477.82	49397.01
478.00	49886.18
478.18	49036.56
478.36	48975.71
478.54	49162.95
478.72	49160.61
478.90	50281.73
479.08	51040.06
479.26	51484.76
479.44	51412.21
479.62	51278.80
479.80	50866.86
479.98	51344.33
480.16	51824.14
480.34	51311.56
480.52	51639.24
480.70	51943.51
480.88	51529.23
481.06	52193.95
481.24	52741.63
481.41	53322.08
481.59	53682.53
481.77	53462.52
481.95	53312.72
482.13	53010.79
482.31	53134.84
482.49	53652.10
482.67	53514.01
482.85	53621.67
483.03	53982.12
483.21	54438.52
483.39	54487.67
483.57	53930.62
483.74	53593.59
483.92	53670.82
484.10	53916.58
484.28	54574.27
484.46	55051.74
484.64	55231.96
484.82	54513.42
485.00	54120.21
485.18	53509.33
485.35	52750.99
485.53	49881.50
485.71	46595.38
485.89	45689.60
486.07	47732.89
486.25	50595.36
486.43	52830.57
486.61	53389.96
486.78	53579.54
486.96	53549.12
487.14	54899.61
487.32	55316.22
487.50	56142.43
487.68	56760.33
487.85	57298.65
488.03	57256.53
488.21	56889.06
488.39	56360.10
488.57	55924.76
488.75	55760.92
488.92	56416.27
489.10	58379.98
489.28	59215.55
489.46	59655.57
489.64	59634.51
489.81	59716.43
489.99	59348.96
490.17	59494.08
490.35	59688.34
490.53	59433.22
490.70	59021.29
490.88	59007.25
491.06	60001.97
491.24	59653.23
491.41	58925.33
491.59	57731.65
491.77	57088.01
491.95	57939.96
492.13	59044.69
492.30	59758.56
492.48	60491.15
492.66	60825.84
492.84	60973.30
493.01	60853.93
493.19	60280.50
493.37	59861.54
493.54	59765.58
493.72	60296.88
493.90	61031.81
494.08	61656.73
494.25	61787.80
494.43	62099.09
494.61	62401.02
494.79	62810.62
494.96	62468.90
495.14	61874.40
495.32	61176.92
495.49	60523.91
495.67	61403.95
495.85	62819.98
496.02	62915.94
496.20	62915.94
496.38	62314.42
496.55	62281.66
496.73	62915.94
496.91	62768.49
497.09	63285.75
497.26	63594.70
497.44	62873.81
497.62	62511.03
497.79	61836.95
497.97	60945.21
498.14	61052.87
498.32	61815.89
498.50	62590.61
498.67	63210.85
498.85	63276.38
499.03	63168.72
499.20	63306.81
499.38	63515.12
499.56	63337.24
499.73	62983.82
499.91	62541.45
500.08	62335.49
500.26	61577.15
500.44	61883.76
500.61	62487.62
500.79	62365.91
500.97	62017.17
501.14	61862.70
501.32	61731.63
501.49	61740.99
501.67	62054.62
501.84	62576.56
502.02	62770.83
502.20	62908.92
502.37	63079.78
502.55	62920.62
502.72	63618.10
502.90	63877.90
503.07	63758.53
503.25	63257.66
503.43	62913.60
503.60	62035.90
503.78	61609.92
503.95	61855.68
504.13	63222.55
504.30	63903.65
504.48	63629.80
504.65	63391.07
504.83	63346.60
505.01	63847.47
505.18	64133.02
505.36	64828.16
505.53	64769.64
505.71	64935.82
505.88	65066.89
506.06	64568.36
506.23	64231.32
506.41	63723.43
506.58	64027.70
506.76	64065.14
506.93	64126.00
507.11	63812.37
507.28	64065.14
507.46	63662.57
507.63	63142.97
507.81	62915.94
507.98	63117.23
508.16	63519.80
508.33	64205.58
508.50	64456.01
508.68	64776.67
508.85	65125.41
509.03	65162.85
509.20	64987.31
509.38	64357.71
509.55	63655.55
509.73	63770.24
509.90	64128.34
510.08	64596.45
510.25	64390.48
510.42	64287.49
510.60	64065.14
510.77	64301.54
510.95	64949.87
511.12	65158.17
511.30	65204.98
511.47	65420.31
511.64	65420.31
511.82	65151.15
511.99	64568.36
512.17	63994.93
512.34	63735.13
512.51	64006.63
512.69	64135.36
512.86	64219.62
513.04	64521.55
513.21	64367.07
513.38	64280.47
513.56	63732.79
513.73	63243.62
513.90	63456.60
514.08	63707.04
514.25	63838.11
514.43	63997.27
514.60	64093.23
514.77	64275.79
514.95	64369.41
515.12	64219.62
515.29	64301.54
515.47	64748.58
515.64	64945.18
515.81	64729.86
515.99	64065.14
516.16	63037.65
516.33	61043.51
516.51	59807.71
516.68	59192.15
516.85	58695.95
517.03	59028.31
517.20	61240.12
517.37	63454.26
517.54	64254.73
517.72	63950.46
517.89	61911.85
518.06	59866.22
518.24	59950.48
518.41	61890.79
518.58	62997.86
518.75	63157.02
518.93	63405.11
519.10	63009.56
519.27	63678.96
519.45	63772.58
519.62	64535.59
519.79	64764.96
519.96	64664.32
520.14	64301.54
520.31	63430.86
520.48	63447.24
520.65	63681.30
520.83	64547.29
521.00	64949.87
521.17	64657.30
521.34	64264.09
521.52	64516.87
521.69	64999.02
521.86	65373.50
522.03	65090.30
522.20	64109.61
522.38	63220.21
522.55	63114.89
522.72	63891.94
522.89	63920.03
523.07	64013.65
523.24	64144.72
523.41	65106.68
523.58	65240.09
523.75	65535.00
523.92	65499.89
524.10	65490.53
524.27	65495.21
524.44	65350.10
524.61	65132.43
524.78	65139.45
524.96	64856.24
525.13	65113.70
525.30	65272.86
525.47	65535.00
525.64	65476.49
525.81	64807.09
525.98	63573.63
526.16	62396.34
526.33	61764.40
526.50	61579.49
526.67	61125.43
526.84	61722.27
527.01	62571.88
527.18	63320.85
527.36	64126.00
527.53	64821.14
527.70	65144.13
527.87	64554.32
528.04	63992.59
528.21	64551.98
528.38	65167.54
528.55	65535.00
528.72	65535.00
528.89	65535.00
529.07	65535.00
529.24	65298.61
529.41	64753.26
529.58	64175.15
529.75	64191.53
529.92	64661.98
530.09	65111.36
530.26	65535.00
530.43	65535.00
530.60	65535.00
530.77	65535.00
530.94	65535.00
531.11	65535.00
531.28	65319.67
531.46	65195.62
531.63	65403.93
531.80	65207.32
531.97	64685.39
532.14	64142.38
532.31	63091.48
532.48	62700.61
532.65	62529.75
532.82	63365.32
532.99	64472.40
533.16	64720.49
533.33	65338.40
533.50	65010.72
533.67	64725.17
533.84	64018.33
534.01	64226.64
534.18	64465.38
534.35	64683.04
534.52	64378.78
534.69	64727.52
534.86	64947.53
535.03	65310.31
535.20	65535.00
535.37	65535.00
535.54	65535.00
535.71	65535.00
535.88	65469.46
536.05	64891.35
536.22	64540.27
536.38	64231.32
536.55	63728.11
536.72	63313.83
536.89	63323.19
537.06	64062.80
537.23	64849.22
537.40	64928.80
537.57	64966.25
537.74	64870.29
537.91	64722.83
538.08	64704.11
538.25	64727.52
538.42	65043.49
538.59	64809.43
538.75	64205.58
538.92	63898.97
539.09	63877.90
539.26	63660.23
539.43	63690.66
539.60	63468.31
539.77	63760.87
539.94	63737.47
540.11	62988.50
540.28	62539.11
540.44	62700.61
540.61	62948.71
540.78	62932.32
540.95	63566.61
541.12	63868.54
541.29	63861.52
541.46	64179.83
541.62	64355.37
541.79	64205.58
541.96	63711.72
542.13	63608.74
542.30	63898.97
542.47	64015.99
542.63	63835.77
542.80	63615.76
542.97	63800.66
543.14	63800.66
543.31	63524.48
543.48	64165.79
543.64	64699.43
543.81	65071.57
543.98	64917.10
544.15	64116.64
544.32	63732.79
544.48	63758.53
544.65	64189.19
544.82	64549.63
544.99	64226.64
545.16	64097.91
545.32	63704.70
545.49	64390.48
545.66	64720.49
545.83	64423.25
546.00	64114.29
546.16	63774.92
546.33	63798.32
546.50	63929.39
546.67	64238.34
546.83	63868.54
547.00	64001.95
547.17	63320.85
547.34	63065.73
547.50	62639.76
547.67	63323.19
547.84	63231.91
548.00	63590.01
548.17	64015.99
548.34	64006.63
548.51	63824.07
548.67	63807.68
548.84	64025.35
549.01	64015.99
549.18	63803.00
549.34	63868.54
549.51	63725.77
549.68	63828.75
549.84	63646.19
550.01	63641.51
550.18	63231.91
550.34	63281.06
550.51	63578.31
550.68	63552.57
550.84	63187.44
551.01	63262.34
551.18	63051.69
551.34	63353.62
551.51	63863.86
551.68	64086.21
551.84	64044.08
552.01	63842.79
552.18	63756.19
552.34	63037.65
552.51	62663.16
552.68	62695.93
552.84	62864.45
553.01	63309.15
553.18	63229.57
553.34	63241.28
553.51	63374.69
553.67	63384.05
553.84	63693.00
554.01	63653.21
554.17	63327.87
554.34	63496.39
554.51	63372.34
554.67	63777.26
554.84	63730.45
555.00	63475.33
555.17	63199.15
555.33	63049.35
555.50	63014.24
555.67	63112.55
555.83	62995.52
556.00	62831.68
556.16	62653.80
556.33	62363.57
556.50	62209.10
556.66	62452.51
556.83	61937.60
556.99	62265.27
557.16	62295.70
557.32	62735.72
557.49	62871.47
557.65	62721.68
557.82	62628.05
557.98	62672.52
558.15	62056.96
558.32	61570.13
558.48	60711.16
558.65	60727.54
558.81	61481.19
558.98	61453.11
559.14	61712.91
559.31	61757.38
559.47	61757.38
559.64	61460.13
559.80	61307.99
559.97	61153.52
560.13	61553.75
560.30	62396.34
560.46	62628.05
560.63	62983.82
560.79	63147.65
560.96	62812.96
561.12	61642.69
561.29	60924.14
561.45	60954.57
561.61	61511.62
561.78	61914.19
561.94	61874.40
562.11	61633.33
562.27	61670.78
562.44	61881.42
562.60	62026.54
562.77	62295.70
562.93	62148.24
563.10	62087.39
563.26	61532.68
563.42	61729.29
563.59	61478.85
563.75	61640.35
563.92	61694.18
564.08	61567.79
564.24	61675.46
564.41	61661.41
564.57	61652.05
564.74	61532.68
564.90	61556.09
565.07	61197.99
565.23	60837.54
565.39	60673.71
565.56	60399.86
565.72	60250.07
565.88	60678.39
566.05	60451.36
566.21	60842.23
566.38	60961.59
566.54	61008.40
566.70	61289.27
566.87	61443.74
567.03	61460.13
567.19	61476.51
567.36	61233.10
567.52	61249.48
567.68	61092.66
567.85	60573.06
568.01	60198.58
568.17	59994.95
568.34	59913.03
568.50	59866.22
568.66	60126.02
568.83	60299.22
568.99	60463.06
569.15	60629.24
569.32	60654.98
569.48	60257.09
569.64	60172.83
569.81	59973.89
569.97	59880.27
570.13	59744.51
570.30	59508.12
570.46	59135.98
570.62	58623.40
570.78	58637.44
570.95	58960.44
571.11	59323.22
571.27	59533.87
571.43	59842.82
571.60	59814.73
571.76	60065.17
571.92	60364.76
572.09	60434.97
572.25	60430.29
572.41	60404.55
572.57	60114.32
572.74	60184.54
572.90	59849.84
573.06	59870.90
573.22	60037.08
573.38	59952.82
573.55	59917.71
573.71	60072.19
573.87	59969.21
574.03	59884.95
574.20	59849.84
574.36	59592.38
574.52	59332.58
574.68	59491.74
574.84	59159.38
575.01	58578.93
575.17	58731.06
575.33	58773.19
575.49	59105.55
575.65	59152.36
575.82	58848.09
575.98	58791.92
576.14	58951.07
576.30	59126.61
576.46	59288.11
576.62	59250.66
576.79	59295.13
576.95	58878.52
577.11	58754.47
577.27	58880.86
577.43	58897.24
577.59	58719.36
577.75	58557.86
577.92	58007.84
578.08	57827.62
578.24	57766.76
578.40	58171.67
578.56	58384.66
578.72	58312.11
578.88	58468.92
579.04	58417.43
579.21	58749.79
579.37	58536.80
579.53	58808.30
579.69	58595.31
579.85	58983.84
580.01	58642.12
580.17	58326.15
580.33	58298.06
580.49	58335.51
580.65	58602.33
580.82	58614.04
580.98	58604.67
581.14	58475.94
581.30	58408.07
581.46	58649.14
581.62	58674.89
581.78	58803.62
581.94	58932.35
582.10	58962.78
582.26	58883.20
582.42	58808.30
582.58	58745.11
582.74	58604.67
582.90	58700.64
583.06	58520.41
583.22	58485.31
583.38	58447.86
583.54	58466.58
583.70	58323.81
583.86	58557.86
584.02	58585.95
584.18	58314.45
584.34	58323.81
584.50	58314.45
584.66	58101.46
584.82	58014.86
584.98	57848.68
585.14	57631.01
