SpectraSuite Data File
++++++++++++++++++++++++++++++++++++
Date: Mon Oct 07 14:53:30 GMT-05:00 2013
User: price-jones
Dark Spectrum Present: No
Reference Spectrum Present: No
Number of Sampled Component Spectra: 1
Spectrometers: USB2+H05261
Integration Time (usec): 100000 (USB2+H05261)
Spectra Averaged: 1 (USB2+H05261)
Boxcar Smoothing: 0 (USB2+H05261)
Correct for Electrical Dark: No (USB2+H05261)
Strobe/Lamp Enabled: No (USB2+H05261)
Correct for Detector Non-linearity: No (USB2+H05261)
Correct for Stray Light: No (USB2+H05261)
Number of Pixels in Processed Spectrum: 2048
>>>>>Begin Processed Spectral Data<<<<<
365.73	0.00
365.92	0.00
366.12	0.00
366.32	0.00
366.52	0.00
366.72	0.00
366.91	0.00
367.11	0.00
367.31	0.00
367.51	0.00
367.70	0.00
367.90	0.00
368.10	0.00
368.30	0.00
368.49	0.00
368.69	0.00
368.89	0.00
369.09	0.00
369.28	0.00
369.48	0.00
369.68	0.00
369.87	0.00
370.07	0.00
370.27	0.00
370.47	615.56
370.66	3042.70
370.86	3723.79
371.06	4042.11
371.25	4021.04
371.45	3609.11
371.65	3365.69
371.84	2944.39
372.04	3206.53
372.24	3651.24
372.44	3728.47
372.63	3676.98
372.83	3379.73
373.03	2923.33
373.22	2689.28
373.42	2979.50
373.62	3328.24
373.81	3676.98
374.01	3583.36
374.21	3431.23
374.40	3105.89
374.60	3267.39
374.79	3681.66
374.99	4201.26
375.19	4690.43
375.38	4514.89
375.58	4374.46
375.78	4245.73
375.97	4124.02
376.17	4552.34
376.37	4400.21
376.56	4629.58
376.76	4760.65
376.95	5060.24
377.15	5607.92
377.35	5638.35
377.54	5998.79
377.74	6218.80
377.93	6008.16
378.13	5996.45
378.33	5680.48
378.52	5296.63
378.72	4966.62
378.91	4858.95
379.11	4704.48
379.31	4582.77
379.50	4561.70
379.70	5006.41
379.89	5404.30
380.09	5748.36
380.28	6061.99
380.48	5921.56
380.68	5753.04
380.87	5598.56
381.07	5280.25
381.26	5008.75
381.46	4650.64
381.65	4355.74
381.85	4320.63
382.04	4079.55
382.24	3789.33
382.43	3777.62
382.63	3449.95
382.83	3714.43
383.02	3651.24
383.22	3672.30
383.41	3740.18
383.61	3918.06
383.80	4404.89
384.00	4882.36
384.19	5731.97
384.39	5966.03
384.58	5856.02
384.78	5624.31
384.97	5916.87
385.17	5474.51
385.36	5313.02
385.56	4905.76
385.75	5039.17
385.95	5638.35
386.14	6162.63
386.34	6232.85
386.53	5970.71
386.72	5537.71
386.92	5451.11
387.11	5816.23
387.31	6085.39
387.50	6146.25
387.70	5877.09
387.89	5671.12
388.09	5851.34
388.28	5881.77
388.48	6047.94
388.67	6298.38
388.86	7005.22
389.06	7478.01
389.25	7698.02
389.45	8018.68
389.64	7728.45
389.84	7878.24
390.03	7836.11
390.22	7808.03
390.42	7955.48
390.61	8461.04
390.81	9146.81
391.00	9217.03
391.19	9018.08
391.39	8910.42
391.58	8432.95
391.78	7786.96
391.97	7564.61
392.16	7204.17
392.36	6494.99
392.55	5453.45
392.75	4215.30
392.94	3438.25
393.13	3239.30
393.33	3920.40
393.52	5181.95
393.71	6260.93
393.91	7185.44
394.10	7428.86
394.29	8280.82
394.49	8863.61
394.68	9638.33
394.88	9715.56
395.07	9963.66
395.26	9886.42
395.46	9666.41
395.65	9121.07
395.84	8116.98
396.04	6825.00
396.23	5294.29
396.42	4507.87
396.62	4390.84
396.81	5193.65
397.00	6497.33
397.19	8170.81
397.39	9783.44
397.58	10925.62
397.77	11527.14
397.97	12077.16
398.16	12173.13
398.35	12606.13
398.55	13128.06
398.74	13441.70
398.93	13888.74
399.12	13692.13
399.32	13383.18
399.51	13238.07
399.70	14300.67
399.90	14099.39
400.09	13980.02
400.28	14141.52
400.47	14218.75
400.67	14703.25
400.86	15421.79
401.05	15204.12
401.24	15400.72
401.44	15389.02
401.63	15667.55
401.82	15765.85
402.01	15723.72
402.21	15637.12
402.40	16088.84
402.59	15477.96
402.78	14740.69
402.97	14214.07
403.17	14707.93
403.36	15431.15
403.55	16280.77
403.74	16716.11
403.93	16170.76
404.13	14630.69
404.32	14403.66
404.51	14815.59
404.70	16175.44
404.89	16233.96
405.09	16114.59
405.28	15344.55
405.47	15562.22
405.66	15281.36
405.85	15059.01
406.05	14516.00
406.24	14780.48
406.43	15433.49
406.62	15913.30
406.81	16177.78
407.00	15440.51
407.20	15241.57
407.39	15417.11
407.58	16112.25
407.77	16430.56
407.96	16868.24
408.15	17575.08
408.34	17570.40
408.54	18319.37
408.73	18939.62
408.92	18211.71
409.11	17694.45
409.30	16690.36
409.49	15473.28
409.68	15042.62
409.87	14293.65
410.07	15014.54
410.26	16297.15
410.45	17376.14
410.64	17640.62
410.83	18216.39
411.02	18853.02
411.21	19559.86
411.40	19154.94
411.59	19262.61
411.78	19183.03
411.98	18881.10
412.17	19290.70
412.36	18944.30
412.55	19080.05
412.74	18560.45
412.93	18291.29
413.12	18307.67
413.31	19924.98
413.50	20198.82
413.69	20638.84
413.88	19929.66
414.07	19016.85
414.26	19470.92
414.45	20123.93
414.64	20187.12
414.83	20526.50
415.02	19894.55
415.22	19779.87
415.41	20484.37
415.60	21071.84
415.79	22082.95
415.98	22324.03
416.17	22256.15
416.36	21783.37
416.55	21348.03
416.74	20889.28
416.93	19950.73
417.12	20299.47
417.31	20453.94
417.50	20599.05
417.69	21460.37
417.88	21256.75
418.07	21284.83
418.26	20957.16
418.45	20798.00
418.64	21879.33
418.83	22504.25
419.02	22249.13
419.21	21827.84
419.39	21284.83
419.58	19669.86
419.77	20107.54
419.96	21242.70
420.15	22150.83
420.34	22714.90
420.53	23569.19
420.72	24379.02
420.91	23304.71
421.10	23648.77
421.29	23473.23
421.48	22326.37
421.67	23695.58
421.86	23211.09
422.05	21881.67
422.24	19438.15
422.43	19096.43
422.61	21357.39
422.80	22895.12
422.99	22972.36
423.18	22125.08
423.37	21741.24
423.56	21310.58
423.75	21888.69
423.94	22473.82
424.13	21039.08
424.32	21348.03
424.50	21671.02
424.69	20861.19
424.88	21010.99
425.07	21109.29
425.26	21057.80
425.45	20849.49
425.64	20746.51
425.83	20774.60
426.01	21699.11
426.20	22115.72
426.39	22321.69
426.58	20570.97
426.77	18860.04
426.96	18265.54
427.15	19087.07
427.33	20414.15
427.52	21465.05
427.71	21577.40
427.90	21298.88
428.09	20767.57
428.28	20879.92
428.46	20018.60
428.65	19693.27
428.84	20156.69
429.03	20615.44
429.22	19389.00
429.40	18431.72
429.59	16650.57
429.78	14747.72
429.97	14864.74
430.16	14927.94
430.34	15108.16
430.53	14958.36
430.72	15391.36
430.91	17018.04
431.10	20060.73
431.28	23536.43
431.47	25076.50
431.66	25788.02
431.85	23639.41
432.03	21516.54
432.22	20577.99
432.41	21757.62
432.60	23700.26
432.79	24692.65
432.97	25053.09
433.16	24723.08
433.35	22852.99
433.54	20460.96
433.72	19058.98
433.91	19634.75
434.10	21947.20
434.28	23349.18
434.47	24945.43
434.66	24437.53
434.85	23639.41
435.03	23758.78
435.22	24023.26
435.41	25731.85
435.59	25933.14
435.78	26129.74
435.97	27019.14
436.16	26895.10
436.34	26558.06
436.53	25818.45
436.72	26202.30
436.90	24453.92
437.09	24559.24
437.28	23915.59
437.46	24781.59
437.65	24898.62
437.84	23616.01
438.02	21291.85
438.21	21200.57
438.40	22368.50
438.58	24187.10
438.77	24800.32
438.96	25097.56
439.14	26218.68
439.33	26883.39
439.52	27190.00
439.70	26773.39
439.89	25841.85
440.08	25333.96
440.26	25310.55
440.45	25942.50
440.63	27510.66
440.82	29661.61
441.01	28861.15
441.19	28755.82
441.38	29039.03
441.57	30328.66
441.75	30244.40
441.94	30609.53
442.12	30806.13
442.31	31002.74
442.50	30654.00
442.68	30518.25
442.87	30539.31
443.05	29935.45
443.24	30171.85
443.43	30761.66
443.61	31889.80
443.80	31945.97
443.98	30171.85
444.17	29867.58
444.35	31311.69
444.54	32273.65
444.73	31835.97
444.91	30607.19
445.10	29635.86
445.28	28442.19
445.47	27885.14
445.65	28231.54
445.84	28395.38
446.02	29921.41
446.21	29986.94
446.39	30185.89
446.58	30883.37
446.77	30937.20
446.95	31545.74
447.14	32409.40
447.32	32826.01
447.51	31889.80
447.69	30843.58
447.88	30602.50
448.06	31021.46
448.25	31374.88
448.43	32189.39
448.62	30937.20
448.80	31065.93
448.99	31424.03
449.17	31447.44
449.36	32006.83
449.54	32889.21
449.73	33064.75
449.91	33921.38
450.10	34937.18
450.28	34981.65
450.46	34738.23
450.65	35131.44
450.83	34398.85
451.02	33598.39
451.20	33539.88
451.39	33846.49
451.57	33844.15
451.76	33298.80
451.94	33083.47
452.13	32264.28
452.31	31192.32
452.49	29881.62
452.68	30246.74
452.86	30249.08
453.05	30464.41
453.23	31197.00
453.42	32341.52
453.60	33209.86
453.78	33539.88
453.97	32959.42
454.15	32943.04
454.34	32341.52
454.52	32804.95
454.70	31765.75
454.89	32142.58
455.07	32442.17
455.26	32643.45
455.44	33951.81
455.62	34438.64
455.81	34808.45
455.99	34183.52
456.17	33785.63
456.36	34426.94
456.54	34986.33
456.73	35047.18
456.91	35805.52
457.09	35541.03
457.28	36587.25
457.46	35304.64
457.64	34941.86
457.83	33780.95
458.01	33186.46
458.19	33876.91
458.38	34492.47
458.56	34923.13
458.74	35070.59
458.93	34946.54
459.11	34408.22
459.29	34312.25
459.48	34574.39
459.66	33923.72
459.84	34206.93
460.03	35353.79
460.21	35028.46
460.39	35838.28
460.57	35922.54
460.76	36053.61
460.94	35950.63
461.12	35632.32
461.31	35938.93
461.49	35859.35
461.67	35927.22
461.85	36919.61
462.04	37130.26
462.22	37275.37
462.40	36566.19
462.59	36783.86
462.77	36952.38
462.95	36634.06
463.13	36081.70
463.32	36041.91
463.50	35943.61
463.68	35934.24
463.86	36187.02
464.05	35021.44
464.23	34651.63
464.41	34686.74
464.59	33820.74
464.78	35484.86
464.96	35585.50
465.14	35033.14
465.32	36388.31
465.50	37055.36
465.69	37633.47
465.87	36432.78
466.05	35543.38
466.23	33436.89
466.41	33373.70
466.60	34202.25
466.78	34302.89
466.96	34565.03
467.14	35433.37
467.32	35777.43
467.51	35894.46
467.69	34440.98
467.87	34897.39
468.05	35557.42
468.23	35393.58
468.41	35639.34
468.60	35594.87
468.78	35805.52
468.96	35784.45
469.14	36334.48
469.32	36201.07
469.50	35044.84
469.69	35166.55
469.87	34864.62
470.05	34534.60
470.23	34443.32
470.41	35201.66
470.59	34731.21
470.77	35426.35
470.95	35899.14
471.14	36491.29
471.32	36329.80
471.50	38431.60
471.68	38623.52
471.86	38888.00
472.04	38761.61
472.22	38930.13
472.40	37270.69
472.58	36912.59
472.77	36488.95
472.95	37050.68
473.13	38380.10
473.31	37235.58
473.49	37373.67
473.67	38141.37
473.85	38405.85
474.03	38969.92
474.21	39526.97
474.39	39791.45
474.57	40093.38
474.75	40177.64
474.93	39945.92
475.12	38445.64
475.30	39023.75
475.48	38770.97
475.66	39810.17
475.84	39098.65
476.02	39173.55
476.20	38110.94
476.38	38890.34
476.56	39541.01
476.74	40580.21
476.92	40769.79
477.10	41556.21
477.28	42548.60
477.46	42464.34
477.64	42923.08
477.82	42876.27
478.00	43122.03
478.18	42611.79
478.36	42649.24
478.54	42408.17
478.72	42536.90
478.90	43452.05
479.08	44383.58
479.26	45382.99
479.44	44821.26
479.62	44465.50
479.80	44484.22
479.98	45280.00
480.16	45371.28
480.34	44566.14
480.52	45153.62
480.70	45560.87
480.88	45551.51
481.06	46656.24
481.24	46464.32
481.41	47569.05
481.59	48238.44
481.77	47807.78
481.95	47178.18
482.13	47040.09
482.31	47093.92
482.49	47828.85
482.67	47695.44
482.85	47793.74
483.03	48563.78
483.21	48982.73
483.39	49029.54
483.57	47973.96
483.74	47894.38
483.92	47777.36
484.10	47997.37
484.28	49415.73
484.46	49649.78
484.64	49645.10
484.82	49127.84
485.00	48643.35
485.18	47929.49
485.35	46672.62
485.53	43627.59
485.71	40055.93
485.89	39412.28
486.07	41055.34
486.25	44392.94
486.43	46536.87
486.61	47555.00
486.78	47702.46
486.96	47466.06
487.14	49247.21
487.32	50160.02
487.50	50813.03
487.68	51833.50
487.85	52327.36
488.03	52474.81
488.21	51746.90
488.39	51452.00
488.57	50820.05
488.75	50218.53
488.92	51428.59
489.10	53539.75
489.28	54389.37
489.46	55306.86
489.64	55147.70
489.81	55150.04
489.99	55227.28
490.17	55009.61
490.35	55433.25
490.53	54904.29
490.70	54768.54
490.88	54293.41
491.06	55580.70
491.24	55379.42
491.41	54429.16
491.59	52619.92
491.77	51821.80
491.95	53401.66
492.13	54321.49
492.30	55337.29
492.48	55959.87
492.66	56797.78
492.84	56814.16
493.01	56484.15
493.19	55786.67
493.37	55725.81
493.54	55281.11
493.72	56081.58
493.90	56912.47
494.08	57471.85
494.25	57909.53
494.43	57963.37
494.61	58363.60
494.79	58333.17
494.96	58164.65
495.14	57762.08
495.32	56762.67
495.49	56123.71
495.67	57343.12
495.85	58328.49
496.02	58876.18
496.20	58621.06
496.38	58340.19
496.55	58171.67
496.73	58670.21
496.91	58628.08
497.09	59208.53
497.26	59566.63
497.44	58955.75
497.62	58382.32
497.79	57738.68
497.97	56556.70
498.14	56952.26
498.32	57825.28
498.50	58616.38
498.67	59262.36
498.85	59096.19
499.03	59117.25
499.20	59042.35
499.38	59442.59
499.56	59318.54
499.73	58843.41
499.91	58588.29
500.08	57979.75
500.26	57214.40
500.44	57752.72
500.61	58344.87
500.79	58258.27
500.97	57654.42
501.14	57586.54
501.32	57668.46
501.49	57684.84
501.67	57893.15
501.84	58157.63
502.02	58494.67
502.20	58714.68
502.37	58827.02
502.55	58829.37
502.72	59461.31
502.90	59838.14
503.07	59695.36
503.25	59416.84
503.43	58501.69
503.60	57895.49
503.78	57198.01
503.95	57759.74
504.13	58941.71
504.30	59793.67
504.48	59444.93
504.65	59206.19
504.83	59299.81
505.01	59835.80
505.18	60224.32
505.36	60636.26
505.53	60706.47
505.71	61022.45
505.88	61134.79
506.06	60376.46
506.23	60172.83
506.41	59742.17
506.58	60217.30
506.76	59938.78
506.93	60140.07
507.11	59664.94
507.28	59898.99
507.46	59433.22
507.63	58820.00
507.81	58688.93
507.98	58824.68
508.16	59622.81
508.33	60158.79
508.50	60360.08
508.68	60683.07
508.85	61216.71
509.03	61087.98
509.20	61013.08
509.38	60360.08
509.55	59758.56
509.73	59611.10
509.90	60196.24
510.08	60577.75
510.25	60540.30
510.42	60224.32
510.60	60006.65
510.77	60367.10
510.95	60898.40
511.12	60938.19
511.30	61209.69
511.47	61687.16
511.64	61326.72
511.82	61022.45
511.99	60420.93
512.17	60158.79
512.34	59880.27
512.51	60097.94
512.69	59861.54
512.86	60079.21
513.04	60441.99
513.21	60491.15
513.38	60491.15
513.56	59805.37
513.73	59018.95
513.90	59274.07
514.08	59482.37
514.25	59786.64
514.43	59700.04
514.60	59929.42
514.77	60069.85
514.95	60226.66
515.12	60123.68
515.29	60362.42
515.47	60919.46
515.64	61104.37
515.81	60516.89
515.99	60020.70
516.16	58803.62
516.33	56748.63
516.51	55339.63
516.68	54527.46
516.85	54115.53
517.03	54452.56
517.20	57118.43
517.37	59344.28
517.54	60217.30
517.72	59852.18
517.89	57762.08
518.06	55379.42
518.24	55700.07
518.41	57668.46
518.58	58827.02
518.75	59227.26
518.93	59299.81
519.10	59077.46
519.27	59515.14
519.45	59746.86
519.62	60521.57
519.79	60781.37
519.96	60568.38
520.14	60343.69
520.31	59414.50
520.48	59451.95
520.65	59613.44
520.83	60495.83
521.00	60968.61
521.17	60486.46
521.34	60023.04
521.52	60383.48
521.69	61010.74
521.86	61293.95
522.03	61118.41
522.20	60107.30
522.38	59000.22
522.55	59105.55
522.72	59552.59
522.89	59807.71
523.07	59948.14
523.24	60261.77
523.41	61080.96
523.58	61434.38
523.75	61764.40
523.92	61593.54
524.10	61371.19
524.27	61553.75
524.44	61228.41
524.61	61293.95
524.78	61022.45
524.96	60853.93
525.13	60966.27
525.30	61057.56
525.47	61593.54
525.64	61518.64
525.81	60788.39
525.98	59735.15
526.16	58075.71
526.33	57446.11
526.50	57188.65
526.67	56928.85
526.84	57546.75
527.01	58370.62
527.18	59306.83
527.36	59838.14
527.53	60781.37
527.70	60954.57
527.87	60498.17
528.04	60088.57
528.21	60552.00
528.38	61146.50
528.55	61909.51
528.72	61932.92
528.89	62049.94
529.07	61982.07
529.24	61413.32
529.41	60657.32
529.58	60051.12
529.75	60182.19
529.92	60739.24
530.09	60905.42
530.26	61483.53
530.43	61965.68
530.60	61733.97
530.77	62040.58
530.94	61982.07
531.11	61551.41
531.28	61279.91
531.46	61006.06
531.63	61420.34
531.80	61092.66
531.97	60547.32
532.14	60191.56
532.31	59135.98
532.48	58504.03
532.65	58672.55
532.82	59395.77
532.99	60301.56
533.16	60699.45
533.33	61275.22
533.50	61066.92
533.67	60423.27
533.84	59929.42
534.01	60261.77
534.18	60416.25
534.35	60779.03
534.52	60533.28
534.69	60636.26
534.86	60970.96
535.03	61270.54
535.20	61492.89
535.37	61989.09
535.54	61942.28
535.71	61839.29
535.88	61441.40
536.05	61050.53
536.22	60385.82
536.38	60238.37
536.55	59847.50
536.72	59264.70
536.89	59402.80
537.06	60023.04
537.23	60767.33
537.40	61043.51
537.57	61162.88
537.74	60659.66
537.91	60708.82
538.08	60633.92
538.25	60708.82
538.42	60851.59
538.59	60814.14
538.75	60186.88
538.92	60032.40
539.09	59849.84
539.26	59700.04
539.43	59571.32
539.60	59550.25
539.77	59671.96
539.94	59842.82
540.11	59032.99
540.28	58370.62
540.44	58396.37
540.61	58925.33
540.78	58693.61
540.95	59297.47
541.12	59573.66
541.29	60177.51
541.46	60114.32
541.62	60437.31
541.79	60257.09
541.96	59826.43
542.13	59482.37
542.30	59817.07
542.47	59976.23
542.63	59955.16
542.80	59594.72
542.97	59721.11
543.14	59653.23
543.31	59826.43
543.48	59934.10
543.64	61045.85
543.81	61137.13
543.98	61038.83
544.15	60402.21
544.32	59573.66
544.48	59660.26
544.65	60154.11
544.82	60652.64
544.99	60205.60
545.16	59800.69
545.32	59517.48
545.49	60397.52
545.66	60615.19
545.83	60303.90
546.00	60149.43
546.16	59732.81
546.33	60013.68
546.50	59779.62
546.67	60390.50
546.83	59721.11
547.00	59917.71
547.17	59229.60
547.34	58777.87
547.50	58567.23
547.67	59051.72
547.84	59147.68
548.00	59508.12
548.17	59788.98
548.34	59700.04
548.51	59810.05
548.67	59828.77
548.84	60011.34
549.01	59962.18
549.18	59835.80
549.34	59728.13
549.51	59526.84
549.68	59714.09
549.84	59545.57
550.01	59402.80
550.18	59330.24
550.34	59297.47
550.51	59468.33
550.68	59678.98
550.84	58960.44
551.01	59135.98
551.18	59016.61
551.34	59377.05
551.51	59587.70
551.68	59835.80
551.84	59723.45
552.01	59856.86
552.18	59587.70
552.34	58925.33
552.51	58405.73
552.68	58309.77
552.84	59112.57
553.01	59166.40
553.18	58974.48
553.34	59119.59
553.51	59271.73
553.67	59381.73
553.84	59505.78
554.01	59583.02
554.17	59372.37
554.34	59487.06
554.51	59405.14
554.67	59753.88
554.84	59753.88
555.00	59304.49
555.17	58981.50
555.33	59147.68
555.50	59072.78
555.67	59040.01
555.83	58855.11
556.00	58513.39
556.16	58714.68
556.33	58192.74
556.50	58108.48
556.66	58211.46
556.83	57937.62
556.99	58064.01
557.16	58042.95
557.32	58513.39
557.49	58848.09
557.65	58454.88
557.82	58384.66
557.98	58255.93
558.15	57972.73
558.32	57497.60
558.48	56456.06
558.65	56851.61
558.81	57085.67
558.98	57535.05
559.14	57483.56
559.31	57633.35
559.47	57478.88
559.64	57429.72
559.80	57120.77
559.97	56601.18
560.13	57446.11
560.30	58068.69
560.46	58705.32
560.63	59000.22
560.79	59049.38
560.96	58653.82
561.12	57549.09
561.29	56818.84
561.45	56844.59
561.61	57214.40
561.78	57563.14
561.94	57499.94
562.11	57476.54
562.27	57221.42
562.44	57783.15
562.60	57897.83
562.77	57965.71
562.93	58080.39
563.10	57968.05
563.26	57291.63
563.42	57614.63
563.59	57205.03
563.75	57401.64
563.92	57293.97
564.08	57315.04
564.24	57455.47
564.41	57649.74
564.57	57326.74
564.74	57296.31
564.90	57315.04
565.07	57104.39
565.23	56559.05
565.39	56240.73
565.56	56121.37
565.72	55800.71
565.88	56123.71
566.05	56362.44
566.21	56509.89
566.38	56446.70
566.54	56809.48
566.70	57090.35
566.87	57322.06
567.03	57202.69
567.19	57485.90
567.36	57069.28
567.52	57024.81
567.68	56851.61
567.85	56133.07
568.01	55973.91
568.17	55700.07
568.34	55428.57
568.50	55304.52
568.66	55629.85
568.83	55821.78
568.99	56058.17
569.15	56275.84
569.32	56205.62
569.48	55786.67
569.64	55889.65
569.81	55334.95
569.97	55302.18
570.13	55416.86
570.30	54918.33
570.46	54520.44
570.62	54057.01
570.78	53525.71
570.95	54232.55
571.11	55028.34
571.27	55007.27
571.43	55269.41
571.60	55751.56
571.76	55503.46
571.92	56018.38
572.09	56051.15
572.25	55917.74
572.41	55908.38
572.57	55927.10
572.74	55800.71
572.90	55557.30
573.06	55498.78
573.22	55667.30
573.38	55182.81
573.55	55655.60
573.71	55828.80
573.87	55550.27
574.03	55025.99
574.20	55482.40
574.36	55117.28
574.52	55054.08
574.68	54583.63
574.84	54218.51
575.01	54237.23
575.17	53811.26
575.33	54183.40
575.49	54270.00
575.65	54674.91
575.82	54047.65
575.98	53968.07
576.14	54138.93
576.30	54630.44
576.46	54836.41
576.62	54485.33
576.79	54557.89
576.95	54356.60
577.11	53935.30
577.27	54487.67
577.43	54497.03
577.59	53900.20
577.75	53811.26
577.92	53160.59
578.08	52776.74
578.24	53024.84
578.40	52959.30
578.56	53380.60
578.72	53631.04
578.88	53841.68
579.04	54174.04
579.21	53865.09
579.37	54178.72
579.53	54127.23
579.69	54094.46
579.85	54127.23
580.01	54277.02
580.17	53916.58
580.33	53415.71
580.49	53624.01
580.65	54223.19
580.82	54199.79
580.98	53829.98
581.14	53661.46
581.30	54286.39
581.46	53872.11
581.62	54267.66
581.78	54157.66
581.94	54302.77
582.10	54057.01
582.26	54363.62
582.42	54000.84
582.58	54108.50
582.74	54195.10
582.90	54042.97
583.06	54255.96
583.22	54028.93
583.38	53656.78
583.54	53712.95
583.70	53638.06
583.86	53530.39
584.02	53668.48
584.18	53860.41
584.34	53727.00
584.50	53820.62
584.66	53581.88
584.82	53076.33
584.98	52870.36
585.14	52594.18
585.30	52055.85
