SpectraSuite Data File
++++++++++++++++++++++++++++++++++++
Date: Mon Oct 07 14:54:54 GMT-05:00 2013
User: price-jones
Dark Spectrum Present: No
Reference Spectrum Present: No
Number of Sampled Component Spectra: 1
Spectrometers: USB2+H05261
Integration Time (usec): 10000 (USB2+H05261)
Spectra Averaged: 1 (USB2+H05261)
Boxcar Smoothing: 0 (USB2+H05261)
Correct for Electrical Dark: No (USB2+H05261)
Strobe/Lamp Enabled: No (USB2+H05261)
Correct for Detector Non-linearity: No (USB2+H05261)
Correct for Stray Light: No (USB2+H05261)
Number of Pixels in Processed Spectrum: 2048
>>>>>Begin Processed Spectral Data<<<<<
365.73	0.00
365.92	0.00
366.12	0.00
366.32	0.00
366.52	0.00
366.72	0.00
366.91	0.00
367.11	0.00
367.31	0.00
367.51	0.00
367.70	0.00
367.90	0.00
368.10	0.00
368.30	0.00
368.49	0.00
368.69	0.00
368.89	0.00
369.09	0.00
369.28	0.00
369.48	0.00
369.68	0.00
369.87	0.00
370.07	0.00
370.27	0.00
370.47	0.00
370.66	0.00
370.86	0.00
371.06	14.04
371.25	67.88
371.45	0.00
371.65	9.36
371.84	0.00
372.04	0.00
372.24	18.72
372.44	28.09
372.63	14.04
372.83	23.41
373.03	0.00
373.22	9.36
373.42	0.00
373.62	4.68
373.81	0.00
374.01	18.72
374.21	25.75
374.40	49.15
374.60	0.00
374.79	14.04
374.99	65.54
375.19	128.73
375.38	74.90
375.58	145.11
375.78	0.00
375.97	128.73
376.17	46.81
376.37	93.62
376.56	0.00
376.76	105.32
376.95	119.37
377.15	163.84
377.35	238.73
377.54	229.37
377.74	187.24
377.93	248.10
378.13	159.16
378.33	175.54
378.52	152.13
378.72	112.35
378.91	121.71
379.11	98.30
379.31	163.84
379.50	112.35
379.70	93.62
379.89	168.52
380.09	138.09
380.28	259.80
380.48	149.79
380.68	220.01
380.87	205.97
381.07	133.41
381.26	191.92
381.46	91.28
381.65	112.35
381.85	30.43
382.04	4.68
382.24	51.49
382.43	35.11
382.63	0.00
382.83	0.00
383.02	32.77
383.22	18.72
383.41	23.41
383.61	84.26
383.80	93.62
384.00	124.05
384.19	182.56
384.39	191.92
384.58	173.20
384.78	210.65
384.97	110.01
385.17	110.01
385.36	95.96
385.56	9.36
385.75	70.22
385.95	182.56
386.14	182.56
386.34	126.39
386.53	177.88
386.72	203.63
386.92	149.79
387.11	126.39
387.31	203.63
387.50	175.54
387.70	156.82
387.89	131.07
388.09	187.24
388.28	166.18
388.48	77.24
388.67	238.73
388.86	334.70
389.06	276.18
389.25	278.52
389.45	379.17
389.64	308.95
389.84	271.50
390.03	313.63
390.22	315.97
390.42	327.68
390.61	416.62
390.81	461.09
391.00	407.25
391.19	372.15
391.39	411.93
391.58	390.87
391.78	313.63
391.97	334.70
392.16	273.84
392.36	290.23
392.55	175.54
392.75	16.38
392.94	0.00
393.13	4.68
393.33	0.00
393.52	128.73
393.71	222.35
393.91	283.20
394.10	393.21
394.29	358.10
394.49	367.46
394.68	416.62
394.88	386.19
395.07	484.49
395.26	519.60
395.46	449.38
395.65	479.81
395.84	360.44
396.04	191.92
396.23	124.05
396.42	72.56
396.62	37.45
396.81	121.71
397.00	238.73
397.19	304.27
397.39	440.02
397.58	636.63
397.77	683.44
397.97	671.73
398.16	568.75
398.35	664.71
398.55	669.39
398.74	669.39
398.93	713.86
399.12	685.78
399.32	763.01
399.51	753.65
399.70	765.36
399.90	791.10
400.09	774.72
400.28	788.76
400.47	833.23
400.67	772.38
400.86	784.08
401.05	814.51
401.24	898.77
401.44	842.59
401.63	821.53
401.82	753.65
402.01	856.64
402.21	901.11
402.40	861.32
402.59	863.66
402.78	802.80
402.97	741.95
403.17	720.88
403.36	770.04
403.55	971.32
403.74	954.94
403.93	898.77
404.13	727.91
404.32	765.36
404.51	805.14
404.70	1034.52
404.89	896.43
405.09	926.85
405.28	856.64
405.47	884.72
405.66	887.06
405.85	798.12
406.05	802.80
406.24	744.29
406.43	844.93
406.62	861.32
406.81	978.34
407.00	760.67
407.20	805.14
407.39	837.91
407.58	919.83
407.77	854.30
407.96	1015.79
408.15	943.24
408.34	938.55
408.54	994.73
408.73	1076.65
408.92	1013.45
409.11	999.41
409.30	1013.45
409.49	894.08
409.68	863.66
409.87	823.87
410.07	816.85
410.26	896.43
410.45	1004.09
410.64	1050.90
410.83	987.71
411.02	1121.12
411.21	1067.28
411.40	1088.35
411.59	1048.56
411.78	1153.88
411.98	1107.07
412.17	1137.50
412.36	1053.24
412.55	1015.79
412.74	1029.84
412.93	983.02
413.12	973.66
413.31	1203.04
413.50	1160.91
413.69	1118.78
413.88	1107.07
414.07	1100.05
414.26	1198.35
414.45	1158.57
414.64	1104.73
414.83	1118.78
415.02	1104.73
415.22	1163.25
415.41	1172.61
415.60	1212.40
415.79	1310.70
415.98	1242.82
416.17	1200.69
416.36	1214.74
416.55	1242.82
416.74	1111.75
416.93	1177.29
417.12	1081.33
417.31	1090.69
417.50	1221.76
417.69	1231.12
417.88	1301.34
418.07	1198.35
418.26	1062.60
418.45	1163.25
418.64	1270.91
418.83	1291.98
419.02	1135.16
419.21	1198.35
419.39	1259.21
419.58	1107.07
419.77	1060.26
419.96	1184.31
420.15	1247.51
420.34	1242.82
420.53	1327.08
420.72	1287.29
420.91	1294.32
421.10	1296.66
421.29	1315.38
421.48	1266.23
421.67	1366.87
421.86	1238.14
422.05	1275.59
422.24	1083.67
422.43	1025.15
422.61	1130.48
422.80	1165.59
422.99	1313.04
423.18	1252.19
423.37	1261.55
423.56	1203.04
423.75	1196.01
423.94	1249.85
424.13	1167.93
424.32	1177.29
424.50	1188.99
424.69	1184.31
424.88	1238.14
425.07	1210.06
425.26	1196.01
425.45	1167.93
425.64	1088.35
425.83	1153.88
426.01	1221.76
426.20	1306.02
426.39	1275.59
426.58	1067.28
426.77	1025.15
426.96	1020.47
427.15	1008.77
427.33	1109.41
427.52	1228.78
427.71	1156.22
427.90	1167.93
428.09	1172.61
428.28	1083.67
428.46	1057.92
428.65	1097.71
428.84	1114.10
429.03	1048.56
429.22	1043.88
429.40	1013.45
429.59	884.72
429.78	870.68
429.97	674.07
430.16	753.65
430.34	725.57
430.53	777.06
430.72	809.83
430.91	957.28
431.10	1043.88
431.28	1320.06
431.47	1380.92
431.66	1418.36
431.85	1252.19
432.03	1097.71
432.22	1149.20
432.41	1207.72
432.60	1235.80
432.79	1390.28
432.97	1383.26
433.16	1423.05
433.35	1252.19
433.54	1107.07
433.72	978.34
433.91	1027.50
434.10	1270.91
434.28	1406.66
434.47	1322.40
434.66	1324.74
434.85	1291.98
435.03	1282.61
435.22	1329.42
435.41	1490.92
435.59	1394.96
435.78	1432.41
435.97	1493.26
436.16	1519.01
436.34	1486.24
436.53	1397.30
436.72	1348.15
436.90	1313.04
437.09	1399.64
437.28	1338.79
437.46	1366.87
437.65	1401.98
437.84	1268.57
438.02	1151.54
438.21	1144.52
438.40	1116.44
438.58	1331.76
438.77	1310.70
438.96	1352.83
439.14	1364.53
439.33	1561.14
439.52	1533.05
439.70	1474.54
439.89	1465.18
440.08	1427.73
440.26	1420.71
440.45	1458.15
440.63	1598.59
440.82	1657.10
441.01	1673.48
441.19	1565.82
441.38	1645.40
441.57	1703.91
441.75	1694.55
441.94	1689.87
442.12	1724.97
442.31	1748.38
442.50	1706.25
442.68	1741.36
442.87	1521.35
443.05	1584.54
443.24	1753.06
443.43	1774.13
443.61	1853.70
443.80	1739.02
443.98	1659.44
444.17	1739.02
444.35	1853.70
444.54	1722.63
444.73	1816.26
444.91	1760.08
445.10	1664.12
445.28	1483.90
445.47	1465.18
445.65	1617.31
445.84	1673.48
446.02	1682.85
446.21	1741.36
446.39	1739.02
446.58	1757.74
446.77	1753.06
446.95	1750.72
447.14	1921.58
447.32	1816.26
447.51	1661.78
447.69	1633.69
447.88	1806.89
448.06	1778.81
448.25	1699.23
448.43	1827.96
448.62	1799.87
448.80	1699.23
448.99	1696.89
449.17	1788.17
449.36	1722.63
449.54	1881.79
449.73	1802.21
449.91	1799.87
450.10	1991.80
450.28	1989.46
450.46	1963.71
450.65	1900.52
450.83	1973.07
451.02	1912.22
451.20	1804.55
451.39	1884.13
451.57	1907.54
451.76	1888.81
451.94	1830.30
452.13	1783.49
452.31	1734.34
452.49	1671.14
452.68	1671.14
452.86	1631.35
453.05	1668.80
453.23	1701.57
453.42	1827.96
453.60	1860.73
453.78	1877.11
453.97	1806.89
454.15	1825.62
454.34	1741.36
454.52	1818.60
454.70	1722.63
454.89	1771.79
455.07	1748.38
455.26	1741.36
455.44	1746.04
455.62	1956.69
455.81	1884.13
455.99	1872.43
456.17	1898.17
456.36	1942.64
456.54	2043.29
456.73	2017.54
456.91	2057.33
457.09	1963.71
457.28	1963.71
457.46	2019.88
457.64	1851.36
457.83	1799.87
458.01	1806.89
458.19	1867.75
458.38	1762.42
458.56	1968.39
458.74	1966.05
458.93	1954.35
459.11	1891.15
459.29	1839.66
459.48	1834.98
459.66	1881.79
459.84	1902.86
460.03	1928.60
460.21	1959.03
460.39	1919.24
460.57	1926.26
460.76	2045.63
460.94	2057.33
461.12	1996.48
461.31	1982.43
461.49	2085.42
461.67	1905.20
461.85	2054.99
462.04	1933.28
462.22	2073.71
462.40	2108.82
462.59	2015.20
462.77	2052.65
462.95	2064.35
463.13	1994.14
463.32	2010.52
463.50	1888.81
463.68	1886.47
463.86	2033.93
464.05	1849.02
464.23	1893.49
464.41	1914.56
464.59	1926.26
464.78	1802.21
464.96	1804.55
465.14	1769.44
465.32	1980.09
465.50	1991.80
465.69	1975.41
465.87	1944.99
466.05	1989.46
466.23	1879.45
466.41	1767.10
466.60	1746.04
466.78	1760.08
466.96	2033.93
467.14	1907.54
467.32	1952.01
467.51	1998.82
467.69	1912.22
467.87	1879.45
468.05	2015.20
468.23	1947.33
468.41	1900.52
468.60	1858.39
468.78	1961.37
468.96	1928.60
469.14	1952.01
469.32	2073.71
469.50	1834.98
469.69	1905.20
469.87	1809.23
470.05	1767.10
470.23	1818.60
470.41	1820.94
470.59	1956.69
470.77	1851.36
470.95	1907.54
471.14	1961.37
471.32	1907.54
471.50	2099.46
471.68	2029.24
471.86	2106.48
472.04	1998.82
472.22	2052.65
472.40	1998.82
472.58	1963.71
472.77	1947.33
472.95	2040.95
473.13	2001.16
473.31	1891.15
473.49	1949.67
473.67	2059.67
473.85	2005.84
474.03	2139.25
474.21	2052.65
474.39	2183.72
474.57	2118.18
474.75	2167.34
474.93	2127.55
475.12	2038.61
475.30	2038.61
475.48	2078.40
475.66	2197.76
475.84	2015.20
476.02	2026.90
476.20	2031.58
476.38	2115.84
476.56	2139.25
476.74	2228.19
476.92	2249.25
477.10	2293.72
477.28	2228.19
477.46	2319.47
477.64	2347.56
477.82	2277.34
478.00	2319.47
478.18	2345.22
478.36	2176.70
478.54	2277.34
478.72	2209.47
478.90	2354.58
479.08	2462.24
479.26	2476.29
479.44	2347.56
479.62	2436.50
479.80	2469.27
479.98	2502.03
480.16	2434.16
480.34	2586.29
480.52	2527.78
480.70	2415.43
480.88	2445.86
481.06	2509.05
481.24	2609.70
481.41	2509.05
481.59	2644.81
481.77	2764.17
481.95	2518.42
482.13	2586.29
482.31	2642.46
482.49	2675.23
482.67	2644.81
482.85	2665.87
483.03	2658.85
483.21	2656.51
483.39	2672.89
483.57	2686.94
483.74	2635.44
483.92	2562.89
484.10	2579.27
484.28	2775.88
484.46	2717.36
484.64	2825.03
484.82	2738.43
485.00	2633.10
485.18	2548.84
485.35	2478.63
485.53	2291.38
485.71	2062.01
485.89	2045.63
486.07	2176.70
486.25	2509.05
486.43	2565.23
486.61	2539.48
486.78	2600.34
486.96	2663.53
487.14	2731.41
487.32	2733.75
487.50	2974.82
487.68	2942.05
487.85	3056.74
488.03	2930.35
488.21	2911.63
488.39	2928.01
488.57	2885.88
488.75	2773.53
488.92	2911.63
489.10	3105.89
489.28	3251.00
489.46	3321.22
489.64	3396.12
489.81	3302.50
489.99	3176.11
490.17	3300.16
490.35	3349.31
490.53	3293.13
490.70	3211.22
490.88	3169.09
491.06	3260.37
491.24	3234.62
491.41	3187.81
491.59	2974.82
491.77	2892.90
491.95	3035.67
492.13	3091.85
492.30	3295.47
492.48	3293.13
492.66	3351.65
492.84	3461.65
493.01	3398.46
493.19	3351.65
493.37	3279.09
493.54	3311.86
493.72	3321.22
493.90	3520.17
494.08	3548.25
494.25	3606.77
494.43	3660.60
494.61	3557.61
494.79	3747.20
494.96	3627.83
495.14	3662.94
495.32	3403.14
495.49	3276.75
495.67	3428.88
495.85	3653.58
496.02	3761.24
496.20	3686.34
496.38	3698.05
496.55	3604.42
496.73	3583.36
496.91	3918.06
497.09	3805.71
497.26	3735.50
497.44	3843.16
497.62	3604.42
497.79	3445.27
497.97	3398.46
498.14	3407.82
498.32	3520.17
498.50	3641.87
498.67	3803.37
498.85	3782.31
499.03	3688.68
499.20	3786.99
499.38	3850.18
499.56	3733.15
499.73	3648.90
499.91	3632.51
500.08	3632.51
500.26	3426.54
500.44	3536.55
500.61	3709.75
500.79	3681.66
500.97	3585.70
501.14	3541.23
501.32	3543.57
501.49	3346.97
501.67	3604.42
501.84	3644.21
502.02	3665.28
502.20	3625.49
502.37	3686.34
502.55	3627.83
502.72	3871.25
502.90	4004.66
503.07	3915.72
503.25	3875.93
503.43	3693.37
503.60	3548.25
503.78	3531.87
503.95	3698.05
504.13	3716.77
504.30	3765.92
504.48	3838.48
504.65	3723.79
504.83	3707.41
505.01	3915.72
505.18	3782.31
505.36	3946.14
505.53	3887.63
505.71	3964.87
505.88	4060.83
506.06	3985.93
506.23	3946.14
506.41	3768.26
506.58	3852.52
506.76	3875.93
506.93	3957.85
507.11	3845.50
507.28	3831.46
507.46	3934.44
507.63	3662.94
507.81	3779.97
507.98	3669.96
508.16	3770.60
508.33	3948.48
508.50	3859.54
508.68	4056.15
508.85	3978.91
509.03	3960.19
509.20	4212.96
509.38	3866.56
509.55	3639.53
509.73	3819.75
509.90	3859.54
510.08	4014.02
510.25	4030.40
510.42	3824.44
510.60	3803.37
510.77	3831.46
510.95	3889.97
511.12	4053.81
511.30	4100.62
511.47	4070.19
511.64	3941.46
511.82	4161.47
511.99	3894.65
512.17	3913.38
512.34	3866.56
512.51	3772.94
512.69	3836.14
512.86	3892.31
513.04	3922.74
513.21	3929.76
513.38	3913.38
513.56	3824.44
513.73	3662.94
513.90	3651.24
514.08	3742.52
514.25	3850.18
514.43	3871.25
514.60	3826.78
514.77	3861.88
514.95	3723.79
515.12	3896.99
515.29	3777.62
515.47	3894.65
515.64	4002.32
515.81	3838.48
515.99	3779.97
516.16	3566.98
516.33	3396.12
516.51	3138.66
516.68	3096.53
516.85	3056.74
517.03	3136.32
517.20	3323.56
517.37	3810.39
517.54	3962.53
517.72	3868.91
517.89	3393.78
518.06	3131.64
518.24	3248.66
518.41	3438.25
518.58	3667.62
518.75	3611.45
518.93	3646.55
519.10	3707.41
519.27	3681.66
519.45	3812.73
519.62	3815.07
519.79	3974.23
519.96	3971.89
520.14	3941.46
520.31	3740.18
520.48	3653.58
520.65	3698.05
520.83	3936.78
521.00	3859.54
521.17	3981.25
521.34	3852.52
521.52	3798.69
521.69	3932.10
521.86	3971.89
522.03	4105.30
522.20	3850.18
522.38	3611.45
522.55	3644.21
522.72	3709.75
522.89	3791.67
523.07	3756.56
523.24	3733.15
523.41	3887.63
523.58	3941.46
523.75	3971.89
523.92	4007.00
524.10	3927.42
524.27	3934.44
524.44	4060.83
524.61	3794.01
524.78	3974.23
524.96	3852.52
525.13	3985.93
525.30	3918.06
525.47	4021.04
525.64	4060.83
525.81	3831.46
525.98	3747.20
526.16	3496.76
526.33	3407.82
526.50	3372.71
526.67	3337.60
526.84	3262.71
527.01	3538.89
527.18	3686.34
527.36	3676.98
527.53	3824.44
527.70	3850.18
527.87	3665.28
528.04	3840.82
528.21	3761.24
528.38	4023.38
528.55	4154.45
528.72	4107.64
528.89	4028.06
529.07	3967.21
529.24	3929.76
529.41	3866.56
529.58	3576.34
529.75	3667.62
529.92	3810.39
530.09	3983.59
530.26	3901.67
530.43	4044.45
530.60	4025.72
530.77	3983.59
530.94	4084.23
531.11	4002.32
531.28	3913.38
531.46	3878.27
531.63	3861.88
531.80	3922.74
531.97	3922.74
532.14	3751.88
532.31	3674.64
532.48	3550.59
532.65	3454.63
532.82	3609.11
532.99	3833.80
533.16	3875.93
533.33	4018.70
533.50	3824.44
533.67	3824.44
533.84	3796.35
534.01	3742.52
534.18	3756.56
534.35	3957.85
534.52	3756.56
534.69	3796.35
534.86	3859.54
535.03	3943.80
535.20	4121.68
535.37	4042.11
535.54	4021.04
535.71	3882.95
535.88	4023.38
536.05	3714.43
536.22	3810.39
536.38	3744.86
536.55	3693.37
536.72	3501.44
536.89	3531.87
537.06	3728.47
537.23	3798.69
537.40	3763.58
537.57	3801.03
537.74	3779.97
537.91	3901.67
538.08	3803.37
538.25	3751.88
538.42	3815.07
538.59	3686.34
538.75	3648.90
538.92	3695.71
539.09	3618.47
539.26	3548.25
539.43	3543.57
539.60	3674.64
539.77	3740.18
539.94	3728.47
540.11	3515.48
540.28	3428.88
540.44	3431.23
540.61	3499.10
540.78	3543.57
540.95	3613.79
541.12	3489.74
541.29	3693.37
541.46	3611.45
541.62	3658.26
541.79	3801.03
541.96	3639.53
542.13	3726.13
542.30	3599.74
542.47	3625.49
542.63	3648.90
542.80	3634.85
542.97	3508.46
543.14	3585.70
543.31	3637.19
543.48	3754.22
543.64	3754.22
543.81	3990.61
543.98	3850.18
544.15	3726.13
544.32	3515.48
544.48	3604.42
544.65	3707.41
544.82	3768.26
544.99	3730.81
545.16	3494.42
545.32	3562.30
545.49	3747.20
545.66	3756.56
545.83	3653.58
546.00	3798.69
546.16	3723.79
546.33	3611.45
546.50	3552.93
546.67	3620.81
546.83	3501.44
547.00	3630.17
547.17	3595.06
547.34	3588.04
547.50	3466.33
547.67	3438.25
547.84	3478.04
548.00	3566.98
548.17	3583.36
548.34	3653.58
548.51	3574.00
548.67	3501.44
548.84	3566.98
549.01	3625.49
549.18	3634.85
549.34	3527.19
549.51	3658.26
549.68	3599.74
549.84	3513.14
550.01	3604.42
550.18	3538.89
550.34	3609.11
550.51	3595.06
550.68	3515.48
550.84	3407.82
551.01	3386.76
551.18	3421.86
551.34	3513.14
551.51	3562.30
551.68	3583.36
551.84	3676.98
552.01	3475.70
552.18	3529.53
552.34	3527.19
552.51	3307.18
552.68	3412.50
552.84	3412.50
553.01	3424.20
553.18	3468.67
553.34	3550.59
553.51	3349.31
553.67	3454.63
553.84	3548.25
554.01	3382.07
554.17	3571.66
554.34	3487.40
554.51	3529.53
554.67	3527.19
554.84	3496.76
555.00	3534.21
555.17	3534.21
555.33	3545.91
555.50	3534.21
555.67	3508.46
555.83	3438.25
556.00	3424.20
556.16	3447.61
556.33	3459.31
556.50	3363.35
556.66	3323.56
556.83	3232.28
556.99	3281.43
557.16	3353.99
557.32	3417.18
557.49	3281.43
557.65	3332.92
557.82	3314.20
557.98	3426.54
558.15	3236.96
558.32	3180.79
558.48	3066.10
558.65	3183.13
558.81	3236.96
558.98	3124.62
559.14	3138.66
559.31	3084.83
559.47	3021.63
559.64	3141.00
559.80	3101.21
559.97	3124.62
560.13	3218.24
560.30	3368.03
560.46	3389.10
560.63	3480.38
560.79	3424.20
560.96	3335.26
561.12	3236.96
561.29	3063.76
561.45	3075.46
561.61	3157.38
561.78	3258.03
561.94	3148.02
562.11	3206.53
562.27	3276.75
562.44	3281.43
562.60	3206.53
562.77	3328.24
562.93	3255.69
563.10	3206.53
563.26	3129.30
563.42	3136.32
563.59	3098.87
563.75	3169.09
563.92	3229.94
564.08	3115.25
564.24	3199.51
564.41	3215.90
564.57	3059.08
564.74	3204.19
564.90	3061.42
565.07	3243.98
565.23	3098.87
565.39	2925.67
565.56	2977.16
565.72	2998.23
565.88	3033.33
566.05	3019.29
566.21	3014.61
566.38	3061.42
566.54	3012.27
566.70	3096.53
566.87	3143.34
567.03	2981.84
567.19	3023.97
567.36	3218.24
567.52	3105.89
567.68	3014.61
567.85	2902.26
568.01	2904.60
568.17	2853.11
568.34	2939.71
568.50	3009.93
568.66	2937.37
568.83	3000.57
568.99	3035.67
569.15	3112.91
569.32	2977.16
569.48	2960.78
569.64	2944.39
569.81	2949.08
569.97	2855.45
570.13	2871.84
570.30	2848.43
570.46	2785.24
570.62	2759.49
570.78	2677.57
570.95	2766.51
571.11	2895.24
571.27	2874.18
571.43	2970.14
571.60	2939.71
571.76	3119.93
571.92	2925.67
572.09	3075.46
572.25	2942.05
572.41	3028.65
572.57	3009.93
572.74	3080.14
572.90	2935.03
573.06	2878.86
573.22	2846.09
573.38	2930.35
573.55	2813.32
573.71	2944.39
573.87	2822.69
574.03	2869.50
574.20	2965.46
574.36	2899.92
574.52	2967.80
574.68	2843.75
574.84	2764.17
575.01	2708.00
575.17	2773.53
575.33	2775.88
575.49	2839.07
575.65	2853.11
575.82	2848.43
575.98	2808.64
576.14	2768.85
576.30	2740.77
576.46	2885.88
576.62	2792.26
576.79	2806.30
576.95	2787.58
577.11	2672.89
577.27	2850.77
577.43	2808.64
577.59	2724.38
577.75	2761.83
577.92	2764.17
578.08	2621.40
578.24	2661.19
578.40	2733.75
578.56	2745.45
578.72	2736.09
578.88	2696.30
579.04	2675.23
579.21	2658.85
579.37	2696.30
579.53	2724.38
579.69	2724.38
579.85	2747.79
580.01	2771.19
580.17	2712.68
580.33	2733.75
580.49	2724.38
580.65	2722.04
580.82	2766.51
580.98	2789.92
581.14	2820.35
581.30	2794.60
581.46	2684.59
581.62	2909.29
581.78	2808.64
581.94	2846.09
582.10	2822.69
582.26	2764.17
582.42	2759.49
582.58	2888.22
582.74	2822.69
582.90	2647.15
583.06	2766.51
583.22	2747.79
583.38	2792.26
583.54	2719.70
583.70	2696.30
583.86	2726.72
584.02	2663.53
584.18	2843.75
584.34	2682.25
584.50	2642.46
584.66	2656.51
584.82	2689.28
584.98	2644.81
585.14	2616.72
585.30	2630.76
585.46	2499.69
585.62	2581.61
585.78	2532.46
585.94	2497.35
586.10	2651.83
586.26	2626.08
586.42	2560.55
586.58	2630.76
586.74	2546.50
586.90	2471.61
587.06	2623.74
587.22	2602.68
587.38	2546.50
587.54	2555.86
587.70	2574.59
587.86	2462.24
588.02	2487.99
588.18	2429.48
588.34	2385.01
588.49	2260.96
588.65	2190.74
588.81	2066.69
588.97	2167.34
589.13	2136.91
589.29	2148.61
589.45	2143.93
589.61	2104.14
589.77	2375.64
589.93	2406.07
590.08	2368.62
590.24	2457.56
590.40	2471.61
590.56	2452.88
590.72	2385.01
590.88	2424.80
591.04	2284.36
591.20	2293.72
591.35	2373.30
591.51	2382.67
591.67	2349.90
591.83	2394.37
591.99	2373.30
592.15	2387.35
592.31	2443.52
592.46	2427.14
592.62	2427.14
592.78	2363.94
592.94	2321.81
593.10	2462.24
593.26	2431.82
593.41	2438.84
593.57	2396.71
593.73	2345.22
593.89	2289.04
594.05	2382.67
594.20	2209.47
594.36	2296.07
594.52	2232.87
594.68	2157.97
594.84	2167.34
594.99	2298.41
595.15	2251.60
595.31	2431.82
595.47	2251.60
595.62	2471.61
595.78	2338.20
595.94	2406.07
596.10	2277.34
596.25	2300.75
596.41	2303.09
596.57	2193.08
596.73	2399.05
596.88	2406.07
597.04	2305.43
597.20	2256.28
597.36	2181.38
597.51	2354.58
597.67	2377.98
597.83	2296.07
597.99	2258.62
598.14	2319.47
598.30	2258.62
598.46	2251.60
598.61	2167.34
598.77	2263.30
598.93	2284.36
599.09	2265.64
599.24	2270.32
599.40	2228.19
599.56	2183.72
