SpectraSuite Data File
++++++++++++++++++++++++++++++++++++
Date: Mon Oct 07 14:53:06 GMT-05:00 2013
User: price-jones
Dark Spectrum Present: No
Reference Spectrum Present: No
Number of Sampled Component Spectra: 1
Spectrometers: USB2+H05261
Integration Time (usec): 100000 (USB2+H05261)
Spectra Averaged: 1 (USB2+H05261)
Boxcar Smoothing: 0 (USB2+H05261)
Correct for Electrical Dark: No (USB2+H05261)
Strobe/Lamp Enabled: No (USB2+H05261)
Correct for Detector Non-linearity: No (USB2+H05261)
Correct for Stray Light: No (USB2+H05261)
Number of Pixels in Processed Spectrum: 2048
>>>>>Begin Processed Spectral Data<<<<<
365.73	0.00
365.92	0.00
366.12	0.00
366.32	0.00
366.52	0.00
366.72	0.00
366.91	0.00
367.11	0.00
367.31	0.00
367.51	0.00
367.70	0.00
367.90	0.00
368.10	0.00
368.30	0.00
368.49	0.00
368.69	0.00
368.89	0.00
369.09	0.00
369.28	0.00
369.48	0.00
369.68	0.00
369.87	0.00
370.07	0.00
370.27	0.00
370.47	454.06
370.66	2916.31
370.86	3543.57
371.06	3857.20
371.25	3679.32
371.45	3433.57
371.65	3110.57
371.84	2885.88
372.04	3035.67
372.24	3452.29
372.44	3569.32
372.63	3421.86
372.83	3091.85
373.03	2892.90
373.22	2670.55
373.42	2832.05
373.62	3136.32
373.81	3438.25
374.01	3571.66
374.21	3073.12
374.40	2930.35
374.60	3124.62
374.79	3583.36
374.99	4025.72
375.19	4248.07
375.38	4315.95
375.58	3920.40
375.78	3992.95
375.97	4084.23
376.17	4135.73
376.37	4112.32
376.56	4351.06
376.76	4435.32
376.95	4875.34
377.15	4985.34
377.35	5350.46
377.54	5598.56
377.74	5724.95
377.93	5657.07
378.13	5584.52
378.33	5320.04
378.52	4819.16
378.72	4631.92
378.91	4711.50
379.11	4510.21
379.31	4344.03
379.50	4283.18
379.70	4713.84
379.89	5177.26
380.09	5474.51
380.28	5577.50
380.48	5727.29
380.68	5621.97
380.87	5329.40
381.07	5034.49
381.26	4629.58
381.46	4208.28
381.65	4196.58
381.85	4018.70
382.04	3786.99
382.24	3669.96
382.43	3442.93
382.63	3267.39
382.83	3438.25
383.02	3412.50
383.22	3431.23
383.41	3527.19
383.61	3716.77
383.80	4091.26
384.00	4706.82
384.19	5296.63
384.39	5741.33
384.58	5542.39
384.78	5401.96
384.97	5420.68
385.17	5195.99
385.36	4875.34
385.56	4622.56
385.75	4671.71
385.95	5458.13
386.14	5762.40
386.34	5738.99
386.53	5549.41
386.72	5167.90
386.92	5151.52
387.11	5556.43
387.31	5692.18
387.50	5547.07
387.70	5364.51
387.89	5497.92
388.09	5554.09
388.28	5401.96
388.48	5631.33
388.67	5977.73
388.86	6722.02
389.06	7117.57
389.25	7339.92
389.45	7356.30
389.64	7571.63
389.84	7281.41
390.03	7124.59
390.22	7414.82
390.42	7555.25
390.61	8091.23
390.81	8472.74
391.00	8727.86
391.19	8741.90
391.39	8404.86
391.58	7765.90
391.78	7318.86
391.97	7201.83
392.16	6710.32
392.36	5980.07
392.55	4922.15
392.75	3705.07
392.94	3087.17
393.13	3229.94
393.33	3875.93
393.52	4711.50
393.71	5877.09
393.91	6586.27
394.10	7164.38
394.29	8011.65
394.49	8454.02
394.68	9102.34
394.88	8992.34
395.07	9460.45
395.26	9287.25
395.46	8994.68
395.65	8451.67
395.84	7548.23
396.04	6214.12
396.23	5102.37
396.42	4283.18
396.62	4109.98
396.81	4851.93
397.00	6197.74
397.19	7810.37
397.39	9224.05
397.58	10567.52
397.77	10951.37
397.97	11283.72
398.16	11400.75
398.35	12002.27
398.55	12376.75
398.74	12776.98
398.93	13034.44
399.12	12727.83
399.32	12407.18
399.51	12674.00
399.70	13692.13
399.90	13095.30
400.09	13561.06
400.28	13238.07
400.47	13490.85
400.67	13940.23
400.86	14387.27
401.05	14251.52
401.24	14398.98
401.44	14614.30
401.63	14441.11
401.82	14740.69
402.01	14984.11
402.21	15040.28
402.40	14707.93
402.59	14403.66
402.78	13987.04
402.97	13530.64
403.17	13940.23
403.36	14827.29
403.55	15255.61
403.74	15740.10
403.93	14843.68
404.13	13769.37
404.32	13776.39
404.51	14293.65
404.70	15257.95
404.89	15468.60
405.09	15133.90
405.28	14698.56
405.47	14780.48
405.66	14766.44
405.85	14148.54
406.05	13933.21
406.24	14083.00
406.43	14677.50
406.62	15094.11
406.81	15227.53
407.00	14567.49
407.20	14516.00
407.39	14527.71
407.58	15243.91
407.77	15709.68
407.96	16049.05
408.15	16283.11
408.34	16334.60
408.54	17177.19
408.73	17200.60
408.92	17207.62
409.11	16650.57
409.30	15709.68
409.49	14705.59
409.68	13860.65
409.87	13401.91
410.07	14272.59
410.26	15360.94
410.45	16329.92
410.64	16929.09
410.83	17312.94
411.02	17387.84
411.21	18569.81
411.40	17888.71
411.59	18288.95
411.78	17902.76
411.98	17944.89
412.17	18700.88
412.36	17776.37
412.55	17680.41
412.74	17624.23
412.93	16978.25
413.12	17376.14
413.31	19002.81
413.50	19211.12
413.69	19625.39
413.88	18693.86
414.07	18008.08
414.26	18607.26
414.45	19136.22
414.64	19246.23
414.83	19295.38
415.02	18972.38
415.22	18897.49
415.41	19496.66
415.60	19836.04
415.79	20905.66
415.98	21235.68
416.17	21120.99
416.36	20730.12
416.55	20489.05
416.74	19662.84
416.93	18948.98
417.12	18956.00
417.31	19400.70
417.50	19538.79
417.69	20107.54
417.88	20081.80
418.07	19948.39
418.26	19871.15
418.45	19969.45
418.64	20786.30
418.83	21233.34
419.02	20893.96
419.21	20992.26
419.39	19807.95
419.58	18904.51
419.77	19225.16
419.96	19964.77
420.15	21193.55
420.34	21710.81
420.53	22525.32
420.72	22794.48
420.91	22609.58
421.10	22352.12
421.29	22190.62
421.48	21476.76
421.67	22579.15
421.86	21837.20
422.05	20100.52
422.24	18356.82
422.43	18120.43
422.61	20290.10
422.80	21781.03
422.99	21563.36
423.18	20896.30
423.37	20575.65
423.56	20554.58
423.75	20847.15
423.94	21656.98
424.13	20187.12
424.32	20404.79
424.50	20285.42
424.69	20051.37
424.88	20013.92
425.07	20079.46
425.26	20189.46
425.45	19723.69
425.64	19459.21
425.83	19960.09
426.01	20858.85
426.20	21261.43
426.39	21139.72
426.58	19623.05
426.77	17963.61
426.96	17671.04
427.15	18125.11
427.33	19932.00
427.52	20465.64
427.71	20297.13
427.90	20037.33
428.09	20147.33
428.28	19674.54
428.46	19080.05
428.65	18497.25
428.84	19101.11
429.03	19513.05
429.22	18443.42
429.40	17640.62
429.59	15922.66
429.78	14071.30
429.97	14171.94
430.16	14389.61
430.34	14499.62
430.53	14497.28
430.72	14752.40
430.91	16552.27
431.10	19070.68
431.28	22581.49
431.47	24442.21
431.66	24390.72
431.85	22286.58
432.03	20556.93
432.22	19669.86
432.41	20917.37
432.60	22843.63
432.79	23662.82
432.97	24229.23
433.16	23887.51
433.35	21366.75
433.54	19178.35
433.72	18293.63
433.91	19159.63
434.10	21013.33
434.28	22602.55
434.47	23740.05
434.66	23356.21
434.85	22869.37
435.03	22977.04
435.22	23213.43
435.41	24767.55
435.59	24315.83
435.78	24936.07
435.97	25748.23
436.16	26005.69
436.34	25336.30
436.53	24870.53
436.72	24868.19
436.90	23658.14
437.09	23665.16
437.28	23342.16
437.46	24046.66
437.65	24098.16
437.84	22279.56
438.02	20479.69
438.21	20676.29
438.40	21336.32
438.58	23227.48
438.77	23920.28
438.96	24292.42
439.14	25053.09
439.33	25570.35
439.52	26129.74
439.70	25612.48
439.89	25174.80
440.08	24142.63
440.26	24383.70
440.45	25343.32
440.63	26419.97
440.82	28140.26
441.01	27601.94
441.19	27463.85
441.38	28039.62
441.57	29053.07
441.75	29132.65
441.94	29799.70
442.12	29235.63
442.31	29640.54
442.50	30141.42
442.68	29472.03
442.87	29055.41
443.05	28327.50
443.24	29394.79
443.43	29495.43
443.61	30209.29
443.80	30548.67
443.98	28943.06
444.17	28926.68
444.35	30808.47
444.54	30661.02
444.73	30829.54
444.91	29296.49
445.10	28004.51
445.28	27239.15
445.47	26588.49
445.65	26911.48
445.84	27779.82
446.02	28760.50
446.21	29249.67
446.39	28849.44
446.58	29411.17
446.77	29839.49
446.95	30480.80
447.14	30778.04
447.32	31697.88
447.51	30813.15
447.69	29776.30
447.88	29472.03
448.06	29806.72
448.25	30562.72
448.43	30628.25
448.62	29752.89
448.80	30169.51
448.99	30174.19
449.17	30424.62
449.36	30085.25
449.54	31772.77
449.73	32133.21
449.91	32226.84
450.10	33504.77
450.28	33986.92
450.46	33567.96
450.65	33699.03
450.83	33387.74
451.02	32381.31
451.20	32446.85
451.39	32273.65
451.57	32077.04
451.76	31889.80
451.94	32081.72
452.13	31477.86
452.31	29989.28
452.49	28783.91
452.68	29024.98
452.86	29184.14
453.05	29441.60
453.23	30085.25
453.42	30974.65
453.60	31686.17
453.78	31910.86
453.97	32002.14
454.15	31931.93
454.34	31262.54
454.52	31211.04
454.70	30611.87
454.89	31138.49
455.07	31587.87
455.26	31679.15
455.44	32835.38
455.62	33207.52
455.81	33294.12
455.99	33237.95
456.17	33301.14
456.36	33263.69
456.54	33851.17
456.73	34045.43
456.91	34651.63
457.09	35047.18
457.28	35077.61
457.46	33610.09
457.64	33315.19
457.83	32669.20
458.01	31800.86
458.19	32627.07
458.38	32856.44
458.56	34005.64
458.74	33457.96
458.93	33259.01
459.11	33144.33
459.29	32851.76
459.48	33333.91
459.66	33036.66
459.84	33717.76
460.03	33795.00
460.21	33570.30
460.39	34558.01
460.57	34675.04
460.76	35374.86
460.94	35276.55
461.12	34679.72
461.31	34602.48
461.49	34689.08
461.67	34726.53
461.85	35789.13
462.04	35452.09
462.22	36208.09
462.40	35693.17
462.59	35550.40
462.77	35943.61
462.95	35529.33
463.13	35365.49
463.32	34918.45
463.50	34558.01
463.68	34632.91
463.86	34574.39
464.05	34265.44
464.23	33460.30
464.41	33694.35
464.59	33165.39
464.78	34492.47
464.96	34244.38
465.14	33996.28
465.32	34976.97
465.50	35709.55
465.69	36027.87
465.87	35178.25
466.05	34682.06
466.23	32833.04
466.41	32170.66
466.60	33230.93
466.78	32985.17
466.96	33591.37
467.14	34036.07
467.32	34586.10
467.51	34813.13
467.69	33567.96
467.87	34183.52
468.05	34017.35
468.23	34871.64
468.41	34375.45
468.60	34403.53
468.78	34611.84
468.96	34820.15
469.14	35248.47
469.32	35470.82
469.50	33888.62
469.69	34487.79
469.87	33113.90
470.05	33198.16
470.23	33600.73
470.41	33610.09
470.59	34164.80
470.77	34263.10
470.95	35026.12
471.14	35405.28
471.32	35768.07
471.50	37113.87
471.68	37537.51
471.86	37801.99
472.04	37743.48
472.22	38019.66
472.40	36407.03
472.58	36175.32
472.77	35386.56
472.95	36552.15
473.13	37282.39
473.31	36297.03
473.49	36294.69
473.67	37036.64
473.85	37390.06
474.03	38724.16
474.21	38003.28
474.39	38660.97
474.57	38965.24
474.75	39117.37
474.93	38473.73
475.12	37715.39
475.30	37460.27
475.48	37851.14
475.66	38548.62
475.84	37912.00
476.02	37673.26
476.20	37338.57
476.38	38040.73
476.56	39007.37
476.74	39725.91
476.92	39501.22
477.10	40336.79
477.28	41020.23
477.46	41455.57
477.64	41511.74
477.82	41993.89
478.00	41989.21
478.18	41312.80
478.36	41687.28
478.54	41488.34
478.72	41867.50
478.90	42714.78
479.08	43634.61
479.26	44168.25
479.44	44327.41
479.62	43908.45
479.80	43917.81
479.98	44144.84
480.16	44453.79
480.34	43796.10
480.52	44404.64
480.70	44549.76
480.88	44821.26
481.06	45368.94
481.24	45825.35
481.41	46457.29
481.59	47124.35
481.77	46609.43
481.95	46309.84
482.13	45986.85
482.31	46094.51
482.49	47107.96
482.67	46829.44
482.85	46946.47
483.03	47779.70
483.21	48081.63
483.39	48184.61
483.57	46836.46
483.74	47100.94
483.92	47482.45
484.10	47386.49
484.28	48488.88
484.46	48666.76
484.64	49186.36
484.82	48278.23
485.00	47707.14
485.18	47014.34
485.35	46061.74
485.53	42211.56
485.71	38986.30
485.89	38632.88
486.07	40456.16
486.25	43894.41
486.43	46546.23
486.61	46822.42
486.78	46866.89
486.96	47311.59
487.14	48912.52
487.32	49509.35
487.50	50010.23
487.68	51316.25
487.85	51482.42
488.03	51789.03
488.21	51157.09
488.39	50415.14
488.57	49691.91
488.75	49511.69
488.92	51065.81
489.10	52938.24
489.28	54028.93
489.46	54784.92
489.64	54506.40
489.81	54808.32
489.99	54466.61
490.17	54232.55
490.35	54834.07
490.53	54220.85
490.70	53897.86
490.88	53900.20
491.06	54866.84
491.24	54791.94
491.41	53661.46
491.59	52105.01
491.77	51793.71
491.95	52809.51
492.13	53874.45
492.30	54927.69
492.48	55714.11
492.66	56069.87
492.84	55924.76
493.01	56060.51
493.19	55538.57
493.37	55004.93
493.54	55082.17
493.72	55540.91
493.90	56474.79
494.08	57034.17
494.25	57425.04
494.43	57640.37
494.61	57996.13
494.79	57993.79
494.96	57621.65
495.14	57062.26
495.32	56177.54
495.49	55765.60
495.67	56816.50
495.85	57991.45
496.02	58298.06
496.20	58157.63
496.38	57769.10
496.55	57537.39
496.73	58028.90
496.91	58094.44
497.09	58789.58
497.26	59171.08
497.44	58412.75
497.62	58089.76
497.79	57551.43
497.97	56142.43
498.14	56456.06
498.32	57570.16
498.50	58148.27
498.67	58897.24
498.85	58459.56
499.03	58719.36
499.20	58995.54
499.38	59011.93
499.56	58773.19
499.73	58293.38
499.91	57996.13
500.08	57621.65
500.26	57120.77
500.44	57698.89
500.61	58003.16
500.79	57993.79
500.97	57455.47
501.14	57354.83
501.32	57308.02
501.49	57083.33
501.67	57399.30
501.84	57932.94
502.02	58267.64
502.20	58464.24
502.37	58595.31
502.55	58742.77
502.72	59131.29
502.90	59765.58
503.07	59330.24
503.25	59107.89
503.43	58129.54
503.60	57478.88
503.78	56853.95
503.95	57418.02
504.13	58670.21
504.30	59501.10
504.48	58974.48
504.65	58862.13
504.83	58981.50
505.01	59557.27
505.18	59648.55
505.36	60472.42
505.53	60587.11
505.71	60610.51
505.88	60708.82
506.06	60006.65
506.23	59709.41
506.41	59503.44
506.58	59686.00
506.76	59730.47
506.93	59449.61
507.11	59433.22
507.28	59475.35
507.46	59178.10
507.63	58700.64
507.81	58445.52
507.98	58569.57
508.16	59501.10
508.33	59887.29
508.50	60156.45
508.68	60203.26
508.85	60999.04
509.03	61006.06
509.20	60781.37
509.38	60025.38
509.55	59255.34
509.73	59508.12
509.90	59880.27
510.08	60285.18
510.25	60224.32
510.42	59805.37
510.60	59861.54
510.77	60294.54
510.95	60720.52
511.12	60713.50
511.30	61020.11
511.47	61338.42
511.64	61315.01
511.82	60896.06
511.99	60053.47
512.17	59866.22
512.34	59423.86
512.51	59648.55
512.69	59849.84
512.86	59835.80
513.04	60128.36
513.21	60156.45
513.38	59824.09
513.56	59370.03
513.73	58855.11
513.90	59285.77
514.08	59224.92
514.25	59646.21
514.43	59650.89
514.60	59475.35
514.77	59770.26
514.95	59889.63
515.12	59718.77
515.29	60067.51
515.47	60570.72
515.64	60732.22
515.81	60458.38
515.99	59833.46
516.16	58354.24
516.33	56217.33
516.51	55042.38
516.68	54312.13
516.85	53907.22
517.03	54277.02
517.20	57027.15
517.37	59196.83
517.54	60137.72
517.72	59522.16
517.89	57228.44
518.06	54953.44
518.24	55463.67
518.41	57731.65
518.58	58721.70
518.75	58894.90
518.93	59030.65
519.10	59044.69
519.27	59405.14
519.45	59608.76
519.62	60310.92
519.79	60549.66
519.96	60374.12
520.14	59952.82
520.31	59236.62
520.48	59213.21
520.65	59669.62
520.83	60505.19
521.00	60896.06
521.17	60395.18
521.34	59973.89
521.52	60647.96
521.69	61127.77
521.86	61289.27
522.03	60968.61
522.20	59866.22
522.38	58887.88
522.55	59035.33
522.72	59718.77
522.89	59547.91
523.07	59831.11
523.24	60144.75
523.41	61013.08
523.58	60933.51
523.75	61663.75
523.92	61197.99
524.10	61581.84
524.27	61406.30
524.44	61085.64
524.61	60968.61
524.78	60779.03
524.96	60692.43
525.13	60886.70
525.30	60987.34
525.47	61614.60
525.64	61446.08
525.81	60692.43
525.98	59264.70
526.16	57984.43
526.33	57661.44
526.50	57188.65
526.67	56790.76
526.84	57542.07
527.01	58354.24
527.18	59112.57
527.36	60147.09
527.53	60891.38
527.70	61073.94
527.87	60465.40
528.04	60254.75
528.21	60577.75
528.38	61111.39
528.55	61862.70
528.72	61979.73
528.89	61822.91
529.07	61764.40
529.24	61212.03
529.41	60552.00
529.58	60037.08
529.75	60306.24
529.92	60582.43
530.09	61226.07
530.26	61357.14
530.43	61722.27
530.60	61776.10
530.77	61829.93
530.94	62127.18
531.11	61588.86
531.28	61350.12
531.46	61010.74
531.63	61197.99
531.80	61013.08
531.97	60762.65
532.14	60086.23
532.31	59014.27
532.48	58534.46
532.65	58494.67
532.82	59463.65
532.99	60446.68
533.16	60687.75
533.33	61368.85
533.50	60949.89
533.67	60542.64
533.84	60170.49
534.01	60289.86
534.18	60458.38
534.35	60589.45
534.52	60530.93
534.69	60769.67
534.86	61013.08
535.03	61406.30
535.20	61691.84
535.37	61937.60
535.54	61963.34
535.71	61712.91
535.88	61137.13
536.05	60652.64
536.22	60463.06
536.38	60247.73
536.55	59709.41
536.72	59243.64
536.89	59358.33
537.06	60196.24
537.23	60818.82
537.40	61116.07
537.57	60963.93
537.74	60554.34
537.91	60825.84
538.08	60746.26
538.25	61015.43
538.42	60790.73
538.59	60694.77
538.75	59999.63
538.92	59948.14
539.09	59814.73
539.26	59678.98
539.43	59353.65
539.60	59529.19
539.77	59686.00
539.94	59664.94
540.11	58885.54
540.28	58291.04
540.44	58478.28
540.61	58707.66
540.78	59051.72
540.95	59522.16
541.12	59763.24
541.29	60135.38
541.46	60252.41
541.62	60097.94
541.79	60165.81
541.96	59667.28
542.13	59686.00
542.30	59973.89
542.47	60140.07
542.63	59812.39
542.80	59683.66
542.97	59934.10
543.14	59669.62
543.31	59608.76
543.48	60168.15
543.64	60968.61
543.81	61080.96
543.98	60898.40
544.15	60203.26
544.32	59714.09
544.48	59990.27
544.65	60622.22
544.82	60516.89
544.99	60306.24
545.16	60058.15
545.32	59819.41
545.49	60540.30
545.66	60905.42
545.83	60355.39
546.00	60179.85
546.16	59695.36
546.33	59870.90
546.50	60025.38
546.67	60530.93
546.83	60100.28
547.00	59957.50
547.17	59348.96
547.34	58899.58
547.50	58913.62
547.67	59344.28
547.84	59318.54
548.00	59737.49
548.17	60046.44
548.34	59980.91
548.51	60030.06
548.67	59781.96
548.84	60069.85
549.01	59880.27
549.18	59880.27
549.34	59831.11
549.51	59676.64
549.68	59817.07
549.84	59522.16
550.01	59405.14
550.18	59353.65
550.34	59512.80
550.51	59489.40
550.68	59760.90
550.84	59051.72
551.01	59391.09
551.18	59126.61
551.34	59297.47
551.51	59739.83
551.68	59962.18
551.84	60004.31
552.01	59863.88
552.18	59723.45
552.34	58990.86
552.51	58642.12
552.68	58578.93
552.84	58958.09
553.01	59334.92
553.18	59175.76
553.34	59458.97
553.51	59245.98
553.67	59765.58
553.84	59821.75
554.01	59613.44
554.17	59482.37
554.34	59494.08
554.51	59746.86
554.67	60271.14
554.84	59889.63
555.00	59576.00
555.17	59276.41
555.33	59334.92
555.50	59227.26
555.67	59178.10
555.83	58981.50
556.00	59000.22
556.16	58955.75
556.33	58660.85
556.50	58316.79
556.66	58295.72
556.83	58234.87
556.99	58281.68
557.16	58129.54
557.32	58625.74
557.49	58756.81
557.65	58862.13
557.82	58646.80
557.98	58667.87
558.15	58122.52
558.32	57272.91
558.48	56769.69
558.65	57167.58
558.81	57518.67
558.98	57492.92
559.14	57769.10
559.31	57766.76
559.47	57841.66
559.64	57439.09
559.80	57186.31
559.97	57485.90
560.13	57586.54
560.30	58489.99
560.46	58939.37
560.63	59192.15
560.79	59171.08
560.96	58852.77
561.12	57670.80
561.29	56956.94
561.45	56949.92
561.61	57382.91
561.78	57907.19
561.94	57649.74
562.11	57638.03
562.27	57600.58
562.44	57928.26
562.60	58319.13
562.77	58356.58
562.93	58312.11
563.10	58314.45
563.26	57542.07
563.42	57790.17
563.59	57483.56
563.75	57558.45
563.92	57396.96
564.08	57605.26
564.24	57804.21
564.41	57698.89
564.57	57787.83
564.74	57521.01
564.90	57455.47
565.07	57153.54
565.23	56907.79
565.39	56505.21
565.56	56177.54
565.72	55910.72
565.88	56563.73
566.05	56385.85
566.21	56783.74
566.38	56692.46
566.54	57158.22
566.70	57219.08
566.87	57553.77
567.03	57579.52
567.19	57986.77
567.36	57396.96
567.52	57235.46
567.68	56868.00
567.85	56390.53
568.01	56016.04
568.17	55807.73
568.34	55833.48
568.50	55913.06
568.66	56062.85
568.83	56226.69
568.99	56301.59
569.15	56523.94
569.32	56526.28
569.48	56121.37
569.64	55777.31
569.81	55824.12
569.97	55508.14
570.13	55648.58
570.30	55175.79
570.46	54988.55
570.62	54501.71
570.78	54562.57
570.95	54761.51
571.11	55449.63
571.27	55700.07
571.43	55669.64
571.60	55948.17
571.76	56065.19
571.92	56296.91
572.09	56376.48
572.25	56439.68
572.41	56280.52
572.57	56044.13
572.74	56336.69
572.90	55833.48
573.06	55803.05
573.22	56030.08
573.38	55676.66
573.55	55760.92
573.71	56079.24
573.87	56088.60
574.03	55882.63
574.20	55702.41
574.36	55374.73
574.52	55545.59
574.68	55480.06
574.84	54990.89
575.01	54230.21
575.17	54284.04
575.33	54740.45
575.49	54815.35
575.65	55157.06
575.82	54775.56
575.98	54527.46
576.14	54621.08
576.30	55016.63
576.46	55180.47
576.62	55224.94
576.79	55124.30
576.95	54782.58
577.11	54880.88
577.27	54710.02
577.43	55189.83
577.59	54562.57
577.75	54019.56
577.92	53616.99
578.08	53102.07
578.24	53546.78
578.40	53553.80
578.56	53839.34
578.72	54038.29
578.88	54227.87
579.04	54370.64
579.21	54274.68
579.37	54679.60
579.53	54511.08
579.69	54106.16
579.85	54651.51
580.01	54548.53
580.17	53935.30
580.33	53888.49
580.49	54241.92
580.65	54429.16
580.82	54651.51
580.98	54405.75
581.14	54101.48
581.30	54515.76
581.46	54117.87
581.62	54492.35
581.78	54557.89
581.94	54578.95
582.10	54841.09
582.26	54574.27
582.42	54590.66
582.58	54798.96
582.74	54621.08
582.90	54724.07
583.06	54745.13
583.22	54347.24
583.38	54368.30
583.54	54277.02
583.70	54490.01
583.86	54370.64
584.02	54131.91
584.18	54429.16
584.34	54213.83
584.50	54127.23
584.66	54195.10
584.82	53626.35
584.98	53560.82
585.14	53331.45
585.30	52662.05
