SpectraSuite Data File
++++++++++++++++++++++++++++++++++++
Date: Mon Oct 07 14:53:48 GMT-05:00 2013
User: price-jones
Dark Spectrum Present: No
Reference Spectrum Present: No
Number of Sampled Component Spectra: 1
Spectrometers: USB2+H05261
Integration Time (usec): 100000 (USB2+H05261)
Spectra Averaged: 1 (USB2+H05261)
Boxcar Smoothing: 0 (USB2+H05261)
Correct for Electrical Dark: No (USB2+H05261)
Strobe/Lamp Enabled: No (USB2+H05261)
Correct for Detector Non-linearity: No (USB2+H05261)
Correct for Stray Light: No (USB2+H05261)
Number of Pixels in Processed Spectrum: 2048
>>>>>Begin Processed Spectral Data<<<<<
365.73	0.00
365.92	0.00
366.12	0.00
366.32	0.00
366.52	0.00
366.72	0.00
366.91	0.00
367.11	0.00
367.31	0.00
367.51	0.00
367.70	0.00
367.90	0.00
368.10	0.00
368.30	0.00
368.49	0.00
368.69	0.00
368.89	0.00
369.09	0.00
369.28	0.00
369.48	0.00
369.68	0.00
369.87	0.00
370.07	0.00
370.27	0.00
370.47	552.37
370.66	2803.96
370.86	3246.32
371.06	3728.47
371.25	3824.44
371.45	3229.94
371.65	3035.67
371.84	2820.35
372.04	2951.42
372.24	3382.07
372.44	3578.68
372.63	3463.99
372.83	3225.26
373.03	2972.48
373.22	2642.46
373.42	2759.49
373.62	3126.96
373.81	3391.44
374.01	3365.69
374.21	3152.70
374.40	2827.37
374.60	3035.67
374.79	3206.53
374.99	3934.44
375.19	4322.97
375.38	4191.90
375.58	4023.38
375.78	3749.54
375.97	3843.16
376.17	4088.92
376.37	4241.05
376.56	4128.70
376.76	4341.69
376.95	4741.93
377.15	5093.01
377.35	5296.63
377.54	5462.81
377.74	5600.90
377.93	5661.76
378.13	5476.85
378.33	5322.38
378.52	4868.31
378.72	4510.21
378.91	4451.70
379.11	4580.43
379.31	4168.49
379.50	4180.20
379.70	4648.30
379.89	5081.30
380.09	5195.99
380.28	5696.86
380.48	5465.15
380.68	5352.81
380.87	5317.70
381.07	5018.11
381.26	4435.32
381.46	4355.74
381.65	4231.69
381.85	3995.29
382.04	3922.74
382.24	3475.70
382.43	3337.60
382.63	3300.16
382.83	3375.05
383.02	3330.58
383.22	3442.93
383.41	3431.23
383.61	3719.11
383.80	4070.19
384.00	4538.30
384.19	5158.54
384.39	5486.22
384.58	5446.43
384.78	5294.29
384.97	5207.69
385.17	5022.79
385.36	4716.18
385.56	4510.21
385.75	4931.51
385.95	5273.23
386.14	5687.50
386.34	5612.60
386.53	5469.83
386.72	5071.94
386.92	5167.90
387.11	5376.21
387.31	5579.84
387.50	5509.62
387.70	5350.46
387.89	5355.15
388.09	5238.12
388.28	5385.57
388.48	5579.84
388.67	5802.19
388.86	6492.65
389.06	7023.95
389.25	7199.49
389.45	7466.31
389.64	7449.93
389.84	7222.89
390.03	7155.02
390.22	7005.22
390.42	7365.67
390.61	7824.41
390.81	8442.31
391.00	8582.74
391.19	8575.72
391.39	8376.78
391.58	7887.61
391.78	7325.88
391.97	7030.97
392.16	6668.19
392.36	5980.07
392.55	4870.65
392.75	3782.31
392.94	3075.46
393.13	3000.57
393.33	3606.77
393.52	4706.82
393.71	5776.44
393.91	6478.60
394.10	6963.09
394.29	7627.81
394.49	8262.09
394.68	8917.44
394.88	9163.20
395.07	9535.34
395.26	9015.74
395.46	8872.97
395.65	8416.57
395.84	7482.69
396.04	6148.59
396.23	5057.90
396.42	4098.28
396.62	3978.91
396.81	4699.80
397.00	6076.03
397.19	7487.37
397.39	9263.84
397.58	10029.20
397.77	10576.88
397.97	11162.01
398.16	11112.86
398.35	11597.35
398.55	11896.94
398.74	12512.50
398.93	12798.05
399.12	12545.27
399.32	11941.41
399.51	12318.24
399.70	13116.36
399.90	13029.76
400.09	13184.24
400.28	13163.17
400.47	13146.79
400.67	13568.09
400.86	14312.38
401.05	14122.79
401.24	14111.09
401.44	14352.16
401.63	14499.62
401.82	14441.11
402.01	14618.99
402.21	14415.36
402.40	14705.59
402.59	14464.51
402.78	13521.27
402.97	13448.72
403.17	13860.65
403.36	14621.33
403.55	14998.15
403.74	15779.89
403.93	14747.72
404.13	13420.63
404.32	13212.32
404.51	13848.95
404.70	14848.36
404.89	14918.57
405.09	14696.22
405.28	14338.12
405.47	14387.27
405.66	14120.45
405.85	13898.10
406.05	13397.23
406.24	13729.58
406.43	14265.57
406.62	14675.16
406.81	15133.90
407.00	14225.78
407.20	13958.96
407.39	13827.88
407.58	14633.03
407.77	15300.08
407.96	15889.90
408.15	15990.54
408.34	16025.65
408.54	16854.20
408.73	16783.98
408.92	16636.53
409.11	16229.27
409.30	15201.78
409.49	14398.98
409.68	13703.84
409.87	13177.22
410.07	14132.15
410.26	15272.00
410.45	16044.37
410.64	16519.50
410.83	16840.15
411.02	17261.45
411.21	17972.97
411.40	17813.82
411.59	18115.75
411.78	17661.68
411.98	17394.86
412.17	17937.87
412.36	17572.74
412.55	17713.17
412.74	17177.19
412.93	16563.97
413.12	16922.07
413.31	18403.63
413.50	18679.82
413.69	18883.44
413.88	18237.45
414.07	17696.79
414.26	17963.61
414.45	18679.82
414.64	18726.63
414.83	18998.13
415.02	18396.61
415.22	18302.99
415.41	18874.08
415.60	19527.09
415.79	20432.88
415.98	20435.22
416.17	20608.42
416.36	19735.40
416.55	19594.96
416.74	19138.56
416.93	18436.40
417.12	18682.16
417.31	18920.89
417.50	19105.79
417.69	19744.76
417.88	19639.44
418.07	19590.28
418.26	19168.99
418.45	19267.29
418.64	20060.73
418.83	20823.75
419.02	20676.29
419.21	20526.50
419.39	19515.39
419.58	18497.25
419.77	18700.88
419.96	19248.57
420.15	20692.68
420.34	21010.99
420.53	21593.78
420.72	22286.58
420.91	21879.33
421.10	21729.53
421.29	21413.56
421.48	20929.07
421.67	21930.82
421.86	21441.65
422.05	19859.45
422.24	17551.68
422.43	17579.76
422.61	19300.06
422.80	21078.86
422.99	20809.70
423.18	20290.10
423.37	20219.89
423.56	19852.42
423.75	20404.79
423.94	20772.25
424.13	19372.61
424.32	19686.25
424.50	19594.96
424.69	19683.91
424.88	19800.93
425.07	19639.44
425.26	19536.45
425.45	19351.55
425.64	19215.80
425.83	19124.52
426.01	20280.74
426.20	20369.68
426.39	20570.97
426.58	19185.37
426.77	17778.71
426.96	16669.30
427.15	17759.98
427.33	18948.98
427.52	19681.56
427.71	19861.79
427.90	20032.65
428.09	19393.68
428.28	18979.40
428.46	18368.52
428.65	17947.23
428.84	18530.02
429.03	18998.13
429.22	18033.83
429.40	17153.79
429.59	15393.70
429.78	13441.70
429.97	13671.07
430.16	13799.80
430.34	13961.30
430.53	13891.08
430.72	14288.97
430.91	15513.07
431.10	18221.07
431.28	21717.83
431.47	23630.05
431.66	23697.92
431.85	21914.44
432.03	20079.46
432.22	18838.97
432.41	19229.84
432.60	21399.52
432.79	22541.70
432.97	23187.69
433.16	22611.92
433.35	20975.88
433.54	18745.35
433.72	17362.09
433.91	18235.11
434.10	20435.22
434.28	21916.78
434.47	23042.57
434.66	22618.94
434.85	21692.08
435.03	21921.46
435.22	22237.43
435.41	23896.87
435.59	23442.81
435.78	23946.02
435.97	24922.02
436.16	25198.21
436.34	24379.02
436.53	24170.71
436.72	23934.32
436.90	22644.68
437.09	22895.12
437.28	21956.57
437.46	22864.69
437.65	23271.95
437.84	21200.57
438.02	19889.87
438.21	19491.98
438.40	20470.33
438.58	22532.34
438.77	23033.21
438.96	23253.22
439.14	24004.53
439.33	24680.95
439.52	25053.09
439.70	24648.18
439.89	24011.56
440.08	23468.55
440.26	23281.31
440.45	24299.44
440.63	25649.93
440.82	27019.14
441.01	26939.57
441.19	26551.04
441.38	26546.36
441.57	27840.67
441.75	27927.27
441.94	28297.08
442.12	28112.17
442.31	28725.39
442.50	28252.61
442.68	28285.37
442.87	27812.59
443.05	27510.66
443.24	28238.56
443.43	28561.56
443.61	29134.99
443.80	29223.93
443.98	27693.22
444.17	28002.17
444.35	29628.84
444.54	29956.52
444.73	29247.33
444.91	28339.21
445.10	27309.37
445.28	26153.15
445.47	25495.46
445.65	25642.91
445.84	26665.72
446.02	27330.44
446.21	27604.28
446.39	27971.74
446.58	28395.38
446.77	28737.10
446.95	29198.18
447.14	29682.67
447.32	30024.39
447.51	29654.59
447.69	28533.47
447.88	28341.55
448.06	28566.24
448.25	29331.59
448.43	29432.24
448.62	28657.52
448.80	28575.60
448.99	28826.04
449.17	29209.89
449.36	29160.73
449.54	30745.28
449.73	30712.51
449.91	31054.23
450.10	32095.77
450.28	32538.13
450.46	31967.04
450.65	32240.88
450.83	31206.36
451.02	31321.05
451.20	31016.78
451.39	31199.34
451.57	30618.89
451.76	30560.37
451.94	30773.36
452.13	30045.46
452.31	28741.78
452.49	27316.39
452.68	27660.45
452.86	27632.36
453.05	27833.65
453.23	28886.89
453.42	29699.06
453.60	30361.43
453.78	30672.72
453.97	30155.46
454.15	30366.11
454.34	29535.22
454.52	29804.38
454.70	29202.86
454.89	29596.07
455.07	29802.04
455.26	30274.83
455.44	31147.85
455.62	31873.42
455.81	31803.20
455.99	32044.27
456.17	31199.34
456.36	31337.43
456.54	32301.73
456.73	32348.54
456.91	32650.47
457.09	33113.90
457.28	33652.22
457.46	32341.52
457.64	32098.11
457.83	31037.84
458.01	30590.80
458.19	31192.32
458.38	31220.41
458.56	32341.52
458.74	32369.61
458.93	31562.12
459.11	31599.57
459.29	31152.53
459.48	31473.18
459.66	31592.55
459.84	31782.13
460.03	32212.79
460.21	32058.32
460.39	33071.77
460.57	32926.66
460.76	33085.81
460.94	33013.26
461.12	32755.80
461.31	33338.59
461.49	33088.15
461.67	32994.53
461.85	34366.09
462.04	33720.10
462.22	33832.44
462.40	33743.50
462.59	33848.83
462.77	33940.11
462.95	33965.85
463.13	33596.05
463.32	33277.74
463.50	33120.92
463.68	32613.02
463.86	32837.72
464.05	32655.15
464.23	32002.14
464.41	31758.73
464.59	31447.44
464.78	32957.08
464.96	32594.30
465.14	32301.73
465.32	32795.59
465.50	34368.43
465.69	33883.94
465.87	33631.16
466.05	32929.00
466.23	31585.53
466.41	30216.32
466.60	31309.35
466.78	31267.22
466.96	32123.85
467.14	32933.68
467.32	33177.09
467.51	33090.49
467.69	31321.05
467.87	32116.83
468.05	32568.55
468.23	32388.33
468.41	32573.24
468.60	32783.88
468.78	33053.05
468.96	32811.97
469.14	33146.67
469.32	33661.58
469.50	31810.22
469.69	32084.06
469.87	31826.60
470.05	31447.44
470.23	31653.40
470.41	31557.44
470.59	32275.99
470.77	32327.48
470.95	33301.14
471.14	33638.18
471.32	33291.78
471.50	35543.38
471.68	35370.18
471.86	35606.57
472.04	36004.46
472.22	36215.11
472.40	34038.41
472.58	34195.23
472.77	33514.13
472.95	34345.02
473.13	35363.15
473.31	34253.74
473.49	34466.73
473.67	35374.86
473.85	35295.28
474.03	36142.55
474.21	36198.73
474.39	36685.56
474.57	36734.71
474.75	36624.70
474.93	36451.50
475.12	35615.93
475.30	35419.33
475.48	35997.44
475.66	36538.10
475.84	35711.89
476.02	35763.39
476.20	34925.47
476.38	36217.45
476.56	36781.52
476.74	37511.77
476.92	37490.70
477.10	38150.73
477.28	38979.28
477.46	39068.22
477.64	39538.67
477.82	39381.85
478.00	40093.38
478.18	39215.68
478.36	39239.08
478.54	39040.14
478.72	39438.03
478.90	40495.95
479.08	41549.19
479.26	41471.95
479.44	41476.63
479.62	41808.99
479.80	41947.08
479.98	41600.68
480.16	41607.70
480.34	41764.52
480.52	41748.14
480.70	42024.32
480.88	41778.56
481.06	43035.43
481.24	42880.95
481.41	44388.26
481.59	44727.64
481.77	44233.78
481.95	43810.15
482.13	43306.93
482.31	43438.00
482.49	44285.28
482.67	44383.58
482.85	44729.98
483.03	44900.84
483.21	45062.33
483.39	45436.82
483.57	44453.79
483.74	44088.67
483.92	44919.56
484.10	45052.97
484.28	45893.22
484.46	46347.29
484.64	46653.90
484.82	45673.21
485.00	45317.45
485.18	44516.99
485.35	43075.22
485.53	40399.99
485.71	36715.98
485.89	35782.11
486.07	37591.34
486.25	41113.85
486.43	43508.22
486.61	44505.29
486.78	44224.42
486.96	44528.69
487.14	46426.87
487.32	46906.68
487.50	48294.61
487.68	48690.16
487.85	49347.86
488.03	49270.62
488.21	49422.75
488.39	48240.78
488.57	47636.92
488.75	47000.30
488.92	48399.94
489.10	50468.97
489.28	51753.93
489.46	52530.98
489.64	52287.57
489.81	52629.29
489.99	52453.75
490.17	52353.10
490.35	52505.24
490.53	52016.07
490.70	51746.90
490.88	51592.43
491.06	52617.58
491.24	52442.04
491.41	51585.41
491.59	49567.87
491.77	48959.33
491.95	50234.92
492.13	51452.00
492.30	52924.19
492.48	53947.01
492.66	54054.67
492.84	54124.89
493.01	53991.48
493.19	52942.92
493.37	53270.59
493.54	52580.13
493.72	53455.50
493.90	54241.92
494.08	55271.75
494.25	55416.86
494.43	55388.78
494.61	55959.87
494.79	56121.37
494.96	55749.22
495.14	55234.30
495.32	54333.20
495.49	53766.79
495.67	54768.54
495.85	55957.53
496.02	56329.67
496.20	56327.33
496.38	55728.16
496.55	55899.01
496.73	56299.25
496.91	56432.66
497.09	57045.88
497.26	57193.33
497.44	56622.24
497.62	56025.40
497.79	55276.43
497.97	53738.70
498.14	54042.97
498.32	55257.71
498.50	56142.43
498.67	56734.59
498.85	56570.75
499.03	56975.66
499.20	56956.94
499.38	57228.44
499.56	57045.88
499.73	56273.50
499.91	55976.25
500.08	55625.17
500.26	54724.07
500.44	55442.61
500.61	55913.06
500.79	55903.70
500.97	55269.41
501.14	55035.36
501.32	55145.36
501.49	55044.72
501.67	55370.05
501.84	55779.65
502.02	56088.60
502.20	56530.96
502.37	56603.52
502.55	56573.09
502.72	57193.33
502.90	57755.06
503.07	57296.31
503.25	56982.68
503.43	55992.64
503.60	55255.37
503.78	54616.40
503.95	55234.30
504.13	56783.74
504.30	57537.39
504.48	57219.08
504.65	56736.93
504.83	56795.44
505.01	57471.85
505.18	57778.46
505.36	58504.03
505.53	58246.57
505.71	58405.73
505.88	58630.42
506.06	58042.95
506.23	57930.60
506.41	57488.24
506.58	57539.73
506.76	57701.23
506.93	57822.93
507.11	57434.41
507.28	57518.67
507.46	57158.22
507.63	56734.59
507.81	56278.18
507.98	56563.73
508.16	57418.02
508.33	57846.34
508.50	58347.21
508.68	58564.88
508.85	58761.49
509.03	58782.55
509.20	58815.32
509.38	58192.74
509.55	57324.40
509.73	57186.31
509.90	57799.53
510.08	58159.97
510.25	58042.95
510.42	58054.65
510.60	57684.84
510.77	58260.62
510.95	58532.12
511.12	58693.61
511.30	58887.88
511.47	59437.90
511.64	59316.20
511.82	58904.26
511.99	58052.31
512.17	57874.43
512.34	57460.15
512.51	57523.35
512.69	57591.22
512.86	57773.78
513.04	58305.09
513.21	58188.06
513.38	57860.38
513.56	57340.78
513.73	56877.36
513.90	56931.19
514.08	57069.28
514.25	57439.09
514.43	57572.50
514.60	57691.86
514.77	57759.74
514.95	57853.36
515.12	57874.43
515.29	58017.20
515.47	58363.60
515.64	58674.89
515.81	58382.32
515.99	57799.53
516.16	56339.04
516.33	54028.93
516.51	52687.80
516.68	51618.17
516.85	51220.28
517.03	51409.87
517.20	54237.23
517.37	56884.38
517.54	57846.34
517.72	57382.91
517.89	55292.82
518.06	52549.71
518.24	52631.63
518.41	54890.24
518.58	56172.86
518.75	56493.51
518.93	56837.57
519.10	56797.78
519.27	57085.67
519.45	57333.76
519.62	58232.53
519.79	58464.24
519.96	58277.00
520.14	57848.68
520.31	57088.01
520.48	57062.26
520.65	57230.78
520.83	58354.24
521.00	58707.66
521.17	58255.93
521.34	58056.99
521.52	58129.54
521.69	58787.24
521.86	59047.04
522.03	58885.54
522.20	57495.26
522.38	56341.38
522.55	56500.53
522.72	57228.44
522.89	57418.02
523.07	57612.29
523.24	57801.87
523.41	58660.85
523.58	58997.88
523.75	59400.46
523.92	59224.92
524.10	59271.73
524.27	59171.08
524.44	59135.98
524.61	58995.54
524.78	58691.27
524.96	58651.48
525.13	58520.41
525.30	58829.37
525.47	59269.39
525.64	59201.51
525.81	58333.17
525.98	57240.14
526.16	55716.45
526.33	55037.70
526.50	54866.84
526.67	54375.33
526.84	54674.91
527.01	55938.80
527.18	56640.96
527.36	57647.39
527.53	58293.38
527.70	58656.17
527.87	58157.63
528.04	57731.65
528.21	58253.59
528.38	58922.99
528.55	59395.77
528.72	59552.59
528.89	60004.31
529.07	59618.13
529.24	58965.12
529.41	58279.34
529.58	57750.38
529.75	57680.16
529.92	58368.28
530.09	58646.80
530.26	59255.34
530.43	59540.89
530.60	59271.73
530.77	59669.62
530.94	59669.62
531.11	59332.58
531.28	58990.86
531.46	58812.98
531.63	58834.05
531.80	58742.77
531.97	58230.19
532.14	57715.27
532.31	56587.13
532.48	55896.67
532.65	56119.02
532.82	56999.07
532.99	57937.62
533.16	58298.06
533.33	58869.15
533.50	58674.89
533.67	58026.56
533.84	57865.06
534.01	57911.88
534.18	58145.93
534.35	58211.46
534.52	57916.56
534.69	58445.52
534.86	58695.95
535.03	58812.98
535.20	59257.68
535.37	59540.89
535.54	59796.01
535.71	59451.95
535.88	59014.27
536.05	58459.56
536.22	58251.25
536.38	57773.78
536.55	57235.46
536.72	56715.86
536.89	56652.67
537.06	57619.31
537.23	58375.30
537.40	58539.14
537.57	58464.24
537.74	58291.04
537.91	58277.00
538.08	58190.40
538.25	58230.19
538.42	58553.18
538.59	58410.41
538.75	57848.68
538.92	57354.83
539.09	57378.23
539.26	57146.52
539.43	56844.59
539.60	57076.30
539.77	57254.18
539.94	57221.42
540.11	56360.10
540.28	55891.99
540.44	55910.72
540.61	56123.71
540.78	56329.67
540.95	56891.40
541.12	56891.40
541.29	57371.21
541.46	57762.08
541.62	57769.10
541.79	57834.64
541.96	57001.41
542.13	57059.92
542.30	57198.01
542.47	57518.67
542.63	57303.34
542.80	57071.62
542.97	57251.84
543.14	56996.73
543.31	57162.90
543.48	57523.35
543.64	58148.27
543.81	58777.87
543.98	58543.82
544.15	57598.24
544.32	57071.62
544.48	57432.07
544.65	57745.70
544.82	58230.19
544.99	57855.70
545.16	57380.57
545.32	57169.93
545.49	57855.70
545.66	58136.57
545.83	58075.71
546.00	57607.61
546.16	57095.03
546.33	57186.31
546.50	57298.65
546.67	57780.81
546.83	57284.61
547.00	57392.28
547.17	56849.27
547.34	56458.40
547.50	55920.08
547.67	56535.64
547.84	56720.54
548.00	57003.75
548.17	57293.97
548.34	57434.41
548.51	57216.74
548.67	57031.83
548.84	57467.17
549.01	57504.62
549.18	57221.42
549.34	57076.30
549.51	57247.16
549.68	57029.49
549.84	57020.13
550.01	56563.73
550.18	56472.45
550.34	56757.99
550.51	56842.25
550.68	56935.87
550.84	56605.86
551.01	56362.44
551.18	56243.07
551.34	56818.84
551.51	57130.14
551.68	57429.72
551.84	57584.20
552.01	57256.53
552.18	57148.86
552.34	56397.55
552.51	55674.32
552.68	55700.07
552.84	56156.47
553.01	56416.27
553.18	56346.06
553.34	56629.26
553.51	56657.35
553.67	57041.20
553.84	56907.79
554.01	57031.83
554.17	56683.09
554.34	56699.48
554.51	56985.02
554.67	57062.26
554.84	57008.43
555.00	56809.48
555.17	56514.58
555.33	56624.58
555.50	56273.50
555.67	56591.81
555.83	56376.48
556.00	56198.60
556.16	56039.45
556.33	55447.29
556.50	55353.67
556.66	55351.33
556.83	55194.51
556.99	55297.50
557.16	55636.87
557.32	55894.33
557.49	56278.18
557.65	55688.37
557.82	55852.20
557.98	55751.56
558.15	55395.80
558.32	54389.37
558.48	53553.80
558.65	53759.76
558.81	54440.86
558.98	54436.18
559.14	54670.23
559.31	54780.24
559.47	54927.69
559.64	54574.27
559.80	54024.25
559.97	54010.20
560.13	54609.38
560.30	55468.36
560.46	56198.60
560.63	56231.37
560.79	56275.84
560.96	55835.82
561.12	54740.45
561.29	54017.22
561.45	53909.56
561.61	54438.52
561.78	54995.57
561.94	55070.46
562.11	54497.03
562.27	54457.24
562.44	54749.81
562.60	55222.60
562.77	55388.78
562.93	55442.61
563.10	54967.48
563.26	54234.89
563.42	54471.29
563.59	54377.67
563.75	54759.17
563.92	54637.47
564.08	54480.65
564.24	54719.38
564.41	54539.16
564.57	54440.86
564.74	54227.87
564.90	54522.78
565.07	54080.42
565.23	53773.81
565.39	53172.29
565.56	52884.40
565.72	52680.78
565.88	53109.10
566.05	53329.11
566.21	53553.80
566.38	53586.57
566.54	53879.13
566.70	53783.17
566.87	54288.73
567.03	54363.62
567.19	54471.29
567.36	54099.14
567.52	54122.55
567.68	54059.35
567.85	53052.92
568.01	52935.90
568.17	52179.90
568.34	52540.35
568.50	52266.50
568.66	52336.72
568.83	53043.56
568.99	53022.50
569.15	53045.90
569.32	53202.72
569.48	52919.51
569.64	52910.15
569.81	52507.58
569.97	52093.30
570.13	52346.08
570.30	51503.49
570.46	50983.89
570.62	50499.40
570.78	50475.99
570.95	50965.17
571.11	51339.65
571.27	51807.76
571.43	51863.93
571.60	52193.95
571.76	52472.47
571.92	52577.79
572.09	53244.85
572.25	53095.05
572.41	53088.03
572.57	52830.57
572.74	52818.87
572.90	52025.43
573.06	52219.69
573.22	52481.83
573.38	52240.76
573.55	52376.51
573.71	52538.01
573.87	52289.91
574.03	52315.65
574.20	52126.07
574.36	52018.41
574.52	51676.69
574.68	51358.38
574.84	51011.98
575.01	50789.62
575.17	50281.73
575.33	51047.08
575.49	51316.25
575.65	51339.65
575.82	50930.06
575.98	51051.76
576.14	51138.36
576.30	51564.34
576.46	51576.04
576.62	51440.29
576.79	51615.83
576.95	51435.61
577.11	50972.19
577.27	51079.85
577.43	51173.47
577.59	50862.18
577.75	50365.99
577.92	49652.12
578.08	49354.88
578.24	49382.96
578.40	49876.82
578.56	50234.92
578.72	50394.07
578.88	50419.82
579.04	50571.96
579.21	50513.44
579.37	50511.10
579.53	50532.17
579.69	50831.75
579.85	51075.17
580.01	50974.53
580.17	50335.56
580.33	50445.57
580.49	50373.01
580.65	50471.31
580.82	50887.93
580.98	50700.68
581.14	50305.13
581.30	50754.52
581.46	50216.19
581.62	50499.40
581.78	50843.46
581.94	51363.06
582.10	50782.60
582.26	50892.61
582.42	50993.25
582.58	50967.51
582.74	50693.66
582.90	50843.46
583.06	50824.73
583.22	50490.04
583.38	50696.00
583.54	50415.14
583.70	50164.70
583.86	50433.86
584.02	50206.83
584.18	50459.61
584.34	50206.83
584.50	50078.10
584.66	49921.29
584.82	49378.28
584.98	49734.04
585.14	49066.99
585.30	48355.47
