SpectraSuite Data File
++++++++++++++++++++++++++++++++++++
Date: Mon Oct 07 14:53:29 GMT-05:00 2013
User: price-jones
Dark Spectrum Present: No
Reference Spectrum Present: No
Number of Sampled Component Spectra: 1
Spectrometers: USB2+H05261
Integration Time (usec): 100000 (USB2+H05261)
Spectra Averaged: 1 (USB2+H05261)
Boxcar Smoothing: 0 (USB2+H05261)
Correct for Electrical Dark: No (USB2+H05261)
Strobe/Lamp Enabled: No (USB2+H05261)
Correct for Detector Non-linearity: No (USB2+H05261)
Correct for Stray Light: No (USB2+H05261)
Number of Pixels in Processed Spectrum: 2048
>>>>>Begin Processed Spectral Data<<<<<
365.73	0.00
365.92	0.00
366.12	0.00
366.32	0.00
366.52	0.00
366.72	0.00
366.91	0.00
367.11	0.00
367.31	0.00
367.51	0.00
367.70	0.00
367.90	0.00
368.10	0.00
368.30	0.00
368.49	0.00
368.69	0.00
368.89	0.00
369.09	0.00
369.28	0.00
369.48	0.00
369.68	0.00
369.87	0.00
370.07	0.00
370.27	0.00
370.47	653.01
370.66	2967.80
370.86	3730.81
371.06	4018.70
371.25	4074.87
371.45	3721.45
371.65	3370.37
371.84	2993.55
372.04	3255.69
372.24	3616.13
372.44	3691.02
372.63	3639.53
372.83	3527.19
373.03	3185.47
373.22	2857.79
373.42	2939.71
373.62	3323.56
373.81	3854.86
374.01	3740.18
374.21	3475.70
374.40	3248.66
374.60	3136.32
374.79	3707.41
374.99	4243.39
375.19	4599.15
375.38	4643.62
375.58	4219.99
375.78	4367.44
375.97	4355.74
376.17	4517.23
376.37	4503.19
376.56	4718.52
376.76	4868.31
376.95	5142.16
377.15	5575.16
377.35	5708.57
377.54	5994.11
377.74	6066.67
377.93	6176.67
378.13	5799.85
378.33	5628.99
378.52	5322.38
378.72	4992.36
378.91	5020.45
379.11	4929.17
379.31	4573.41
379.50	4676.39
379.70	4877.68
379.89	5598.56
380.09	5923.90
380.28	5975.39
380.48	5909.85
380.68	6071.35
380.87	5743.67
381.07	5533.03
381.26	4999.38
381.46	4645.96
381.65	4369.78
381.85	4257.43
382.04	4152.11
382.24	3946.14
382.43	3786.99
382.63	3571.66
382.83	3705.07
383.02	3639.53
383.22	3597.40
383.41	3831.46
383.61	3868.91
383.80	4493.83
384.00	4964.28
384.19	5734.31
384.39	5959.00
384.58	6071.35
384.78	5804.53
384.97	5825.59
385.17	5514.30
385.36	5294.29
385.56	4961.94
385.75	5027.47
385.95	5708.57
386.14	6164.97
386.34	6235.19
386.53	5834.96
386.72	5565.79
386.92	5809.21
387.11	5755.38
387.31	6179.01
387.50	6099.44
387.70	6085.39
387.89	5858.36
388.09	5944.96
388.28	5916.87
388.48	5937.94
388.67	6403.71
388.86	7075.44
389.06	7566.95
389.25	7838.45
389.45	8091.23
389.64	7882.92
389.84	7885.26
390.03	7761.22
390.22	7901.65
390.42	8109.96
390.61	8549.98
390.81	9195.96
391.00	9245.12
391.19	9210.01
391.39	8887.01
391.58	8344.01
391.78	7866.54
391.97	7744.83
392.16	7054.37
392.36	6597.97
392.55	5238.12
392.75	4243.39
392.94	3478.04
393.13	3449.95
393.33	4063.17
393.52	5193.65
393.71	6249.23
393.91	7063.74
394.10	7510.78
394.29	8486.78
394.49	9008.72
394.68	9596.20
394.88	9778.76
395.07	9951.96
395.26	9919.19
395.46	9790.46
395.65	9109.36
395.84	8091.23
396.04	6822.66
396.23	5570.48
396.42	4650.64
396.62	4454.04
396.81	5100.03
397.00	6581.59
397.19	8325.29
397.39	9792.80
397.58	11234.57
397.77	11765.87
397.97	12032.69
398.16	12269.09
398.35	12863.58
398.55	12999.34
398.74	13614.90
398.93	13834.91
399.12	13879.38
399.32	13191.26
399.51	13439.36
399.70	14504.30
399.90	14101.73
400.09	14228.12
400.28	14129.81
400.47	14312.38
400.67	15274.34
400.86	15484.98
401.05	15328.17
401.24	15630.10
401.44	15782.23
401.63	15564.56
401.82	15557.54
402.01	15613.71
402.21	15807.98
402.40	15969.48
402.59	15515.41
402.78	15026.24
402.97	14480.89
403.17	14956.02
403.36	15798.62
403.55	16395.45
403.74	17092.93
403.93	15866.49
404.13	14937.30
404.32	14544.09
404.51	15101.14
404.70	16269.06
404.89	16547.59
405.09	16145.02
405.28	15782.23
405.47	15660.52
405.66	15772.87
405.85	14853.04
406.05	14817.93
406.24	14941.98
406.43	15655.84
406.62	16367.37
406.81	16273.74
407.00	15665.21
407.20	15419.45
407.39	15419.45
407.58	16114.59
407.77	16570.99
407.96	17549.34
408.15	17399.54
408.34	17568.06
408.54	18382.57
408.73	18607.26
408.92	18335.76
409.11	17874.67
409.30	16952.50
409.49	15957.77
409.68	14775.80
409.87	14485.58
410.07	15169.01
410.26	16709.08
410.45	17530.61
410.64	17610.19
410.83	18438.74
411.02	19201.76
411.21	19482.62
411.40	19522.41
411.59	19370.27
411.78	19412.40
411.98	18963.02
412.17	19896.89
412.36	18817.91
412.55	19220.48
412.74	18904.51
412.93	18291.29
413.12	18288.95
413.31	19946.05
413.50	20510.11
413.69	20898.64
413.88	19632.41
414.07	19346.87
414.26	19716.67
414.45	20549.90
414.64	20706.72
414.83	20695.02
415.02	20170.74
415.22	20044.35
415.41	20718.42
415.60	21256.75
415.79	21881.67
415.98	22506.59
416.17	22347.44
416.36	21722.51
416.55	21696.77
416.74	21008.65
416.93	20393.09
417.12	20329.89
417.31	20758.21
417.50	21039.08
417.69	21462.71
417.88	21355.05
418.07	21179.51
418.26	21170.15
418.45	21191.21
418.64	21839.54
418.83	22726.60
419.02	22359.14
419.21	22134.45
419.39	21518.89
419.58	20102.86
419.77	20180.10
419.96	21378.45
420.15	22019.76
420.34	23124.49
420.53	23634.73
420.72	24245.61
420.91	23929.64
421.10	23889.85
421.29	23506.00
421.48	22792.14
421.67	23648.77
421.86	23229.82
422.05	21671.02
422.24	19445.17
422.43	19232.18
422.61	21219.30
422.80	22913.84
422.99	23260.24
423.18	22331.05
423.37	21797.41
423.56	21717.83
423.75	22045.51
423.94	22312.33
424.13	21696.77
424.32	21699.11
424.50	21710.81
424.69	21488.46
424.88	21465.05
425.07	20985.24
425.26	21436.97
425.45	21160.78
425.64	20863.54
425.83	20685.65
426.01	22022.10
426.20	22522.98
426.39	22663.41
426.58	21083.55
426.77	19185.37
426.96	18693.86
427.15	19365.59
427.33	20879.92
427.52	21530.59
427.71	21624.21
427.90	21355.05
428.09	21357.39
428.28	20774.60
428.46	19934.34
428.65	19775.19
428.84	20524.16
429.03	20840.13
429.22	19438.15
429.40	18735.99
429.59	16975.91
429.78	15035.60
429.97	14864.74
430.16	15311.78
430.34	15145.61
430.53	15508.39
430.72	15510.73
430.91	17284.86
431.10	20079.46
431.28	23854.74
431.47	25617.16
431.66	25989.31
431.85	23620.69
432.03	21722.51
432.22	20978.22
432.41	21371.43
432.60	23772.82
432.79	24971.18
432.97	25656.95
433.16	24840.11
433.35	22890.44
433.54	20629.48
433.72	19089.41
433.91	19917.96
434.10	22370.84
434.28	23484.94
434.47	25216.93
434.66	24622.44
434.85	24517.11
435.03	23967.09
435.22	24631.80
435.41	26375.50
435.59	26115.70
435.78	26232.72
435.97	26944.25
436.16	27398.31
436.34	26808.50
436.53	26010.37
436.72	26721.90
436.90	25303.53
437.09	24524.13
437.28	24411.79
437.46	25376.09
437.65	24968.84
437.84	23679.20
438.02	21701.45
438.21	21362.07
438.40	22445.74
438.58	24271.36
438.77	25216.93
438.96	25827.81
439.14	26272.51
439.33	26958.29
439.52	27653.43
439.70	27089.36
439.89	26452.73
440.08	25570.35
440.26	25860.58
440.45	26141.44
440.63	28177.71
440.82	29467.34
441.01	29144.35
441.19	29277.76
441.38	29537.56
441.57	30401.22
441.75	30810.81
441.94	31105.72
442.12	30646.97
442.31	31297.64
442.50	31344.45
442.68	30995.71
442.87	30630.59
443.05	30148.44
443.24	30632.93
443.43	31119.76
443.61	31789.16
443.80	32774.52
443.98	30279.51
444.17	30239.72
444.35	31754.05
444.54	32570.90
444.73	32524.08
444.91	30747.62
445.10	29724.80
445.28	28744.12
445.47	28119.20
445.65	28259.63
445.84	28973.49
446.02	30033.75
446.21	30625.91
446.39	30906.77
446.58	31168.91
446.77	31714.26
446.95	31730.64
447.14	32842.40
447.32	33050.70
447.51	32292.37
447.69	31002.74
447.88	30794.43
448.06	31290.62
448.25	32051.30
448.43	32133.21
448.62	31709.58
448.80	31388.92
448.99	31599.57
449.17	31938.95
449.36	32006.83
449.54	33230.93
449.73	33439.23
449.91	33926.07
450.10	34466.73
450.28	35082.29
450.46	35122.08
450.65	35014.41
450.83	35241.45
451.02	34288.85
451.20	34328.64
451.39	34108.63
451.57	33816.06
451.76	33668.61
451.94	33516.47
452.13	32793.25
452.31	31363.18
452.49	29851.19
452.68	30419.94
452.86	30574.42
453.05	31171.25
453.23	31730.64
453.42	32488.98
453.60	33350.29
453.78	33593.71
453.97	33270.72
454.15	33425.19
454.34	32442.17
454.52	32989.85
454.70	31985.76
454.89	32275.99
455.07	32545.15
455.26	32994.53
455.44	34450.35
455.62	34852.92
455.81	35302.30
455.99	34866.96
456.17	34431.62
456.36	34232.68
456.54	35618.27
456.73	35173.57
456.91	35945.95
457.09	35981.06
457.28	36678.54
457.46	35424.01
457.64	34855.26
457.83	34036.07
458.01	33219.22
458.19	34330.98
458.38	34321.62
458.56	35693.17
458.74	35487.20
458.93	34408.22
459.11	34810.79
459.29	34300.55
459.48	34586.10
459.66	34553.33
459.84	34951.22
460.03	35330.39
460.21	35339.75
460.39	36554.49
460.57	35842.96
460.76	36407.03
460.94	36414.05
461.12	36346.18
461.31	36360.22
461.49	36687.90
461.67	35929.56
461.85	37567.94
462.04	37177.07
462.22	37724.75
462.40	37514.11
462.59	37186.43
462.77	37144.30
462.95	37125.58
463.13	36828.33
463.32	36467.89
463.50	35929.56
463.68	36268.94
463.86	36341.50
464.05	35576.14
464.23	34925.47
464.41	35178.25
464.59	34321.62
464.78	36051.27
464.96	35655.72
465.14	35681.47
465.32	36308.73
465.50	37205.16
465.69	37160.69
465.87	36491.29
466.05	35739.98
466.23	34443.32
466.41	33411.15
466.60	34359.06
466.78	34373.11
466.96	34754.61
467.14	35866.37
467.32	36210.43
467.51	36418.74
467.69	34300.55
467.87	35028.46
468.05	35688.49
468.23	35669.76
468.41	36081.70
468.60	36121.49
468.78	36505.34
468.96	35871.05
469.14	36645.77
469.32	36605.98
469.50	35580.82
469.69	35672.10
469.87	34714.83
470.05	34714.83
470.23	35037.82
470.41	34937.18
470.59	35157.19
470.77	35522.31
470.95	36610.66
471.14	36683.22
471.32	37074.09
471.50	38478.41
471.68	38888.00
471.86	39203.97
472.04	39473.13
472.22	39559.73
472.40	37593.68
472.58	37151.32
472.77	36514.70
472.95	37691.99
473.13	38286.48
473.31	37518.79
473.49	37436.87
473.67	38284.14
473.85	38476.07
474.03	39690.80
474.21	39421.64
474.39	40130.83
474.57	40367.22
474.75	40217.43
474.93	39934.22
475.12	38913.75
475.30	39054.18
475.48	39477.82
475.66	40161.25
475.84	39470.79
476.02	39178.23
476.20	38667.99
476.38	38983.96
476.56	40027.84
476.74	40643.40
476.92	41188.75
477.10	41411.10
477.28	42906.70
477.46	43206.29
477.64	43660.35
477.82	43150.12
478.00	43543.33
478.18	42895.00
478.36	42899.68
478.54	42354.33
478.72	43316.29
478.90	43814.83
479.08	45488.31
479.26	45984.51
479.44	45336.18
479.62	45532.78
479.80	45003.82
479.98	45773.86
480.16	45893.22
480.34	45038.93
480.52	45783.22
480.70	46059.40
480.88	46351.97
481.06	46677.30
481.24	46780.29
481.41	48268.87
481.59	48273.55
481.77	48355.47
481.95	47690.76
482.13	47353.72
482.31	47470.75
482.49	48004.39
482.67	47831.19
482.85	48311.00
483.03	48715.91
483.21	49134.87
483.39	49198.06
483.57	48545.05
483.74	48219.72
483.92	48402.28
484.10	48561.44
484.28	49787.88
484.46	49951.71
484.64	50316.84
484.82	49198.06
485.00	49160.61
485.18	48252.48
485.35	46948.81
485.53	43999.73
485.71	40343.81
485.89	39559.73
486.07	41879.21
486.25	44947.65
486.43	47019.02
486.61	47833.53
486.78	48086.31
486.96	48128.44
487.14	49301.04
487.32	50656.21
487.50	51620.52
487.68	51885.00
487.85	52683.12
488.03	52603.54
488.21	52442.04
488.39	51615.83
488.57	51112.62
488.75	50630.47
488.92	51945.85
489.10	53741.04
489.28	54920.67
489.46	55494.10
489.64	55402.82
489.81	55669.64
489.99	55332.60
490.17	55100.89
490.35	55922.42
490.53	55379.42
490.70	54752.15
490.88	54604.70
491.06	55669.64
491.24	55660.28
491.41	54735.77
491.59	52961.64
491.77	52392.89
491.95	53375.92
492.13	54593.00
492.30	55627.51
492.48	56598.83
492.66	56933.53
492.84	56757.99
493.01	56765.01
493.19	56116.68
493.37	55873.27
493.54	55576.02
493.72	56236.05
493.90	57148.86
494.08	57813.57
494.25	58241.89
494.43	58553.18
494.61	58667.87
494.79	58801.28
494.96	58372.96
495.14	58035.92
495.32	56942.89
495.49	56343.72
495.67	57301.00
495.85	58756.81
496.02	58983.84
496.20	59070.44
496.38	58461.90
496.55	58291.04
496.73	58803.62
496.91	58712.34
497.09	59634.51
497.26	59550.25
497.44	59035.33
497.62	58642.12
497.79	58052.31
497.97	56837.57
498.14	57099.71
498.32	57930.60
498.50	58789.58
498.67	59405.14
498.85	59201.51
499.03	59391.09
499.20	59641.53
499.38	59498.76
499.56	59384.07
499.73	58852.77
499.91	58422.11
500.08	58239.55
500.26	57616.97
500.44	57879.11
500.61	58529.78
500.79	58450.20
500.97	58127.20
501.14	57942.30
501.32	57731.65
501.49	57752.72
501.67	58181.04
501.84	58466.58
502.02	58698.30
502.20	59044.69
502.37	59056.40
502.55	59323.22
502.72	59695.36
502.90	60062.83
503.07	59859.20
503.25	59590.04
503.43	58761.49
503.60	58145.93
503.78	57361.85
503.95	58082.73
504.13	59203.85
504.30	59908.35
504.48	59721.11
504.65	59456.63
504.83	59639.19
505.01	60121.34
505.18	60406.89
505.36	61062.24
505.53	61109.05
505.71	61071.60
505.88	61322.04
506.06	60753.29
506.23	60425.61
506.41	59817.07
506.58	60219.64
506.76	60292.20
506.93	59915.37
507.11	59908.35
507.28	60154.11
507.46	59606.42
507.63	58995.54
507.81	58899.58
507.98	59257.68
508.16	59742.17
508.33	60294.54
508.50	60767.33
508.68	60652.64
508.85	61284.59
509.03	61422.68
509.20	61380.55
509.38	60573.06
509.55	59934.10
509.73	59826.43
509.90	60631.58
510.08	60673.71
510.25	60741.58
510.42	60507.53
510.60	60327.31
510.77	60568.38
510.95	60863.29
511.12	61282.25
511.30	61350.12
511.47	61612.26
511.64	61586.52
511.82	61506.94
511.99	60629.24
512.17	60252.41
512.34	60027.72
512.51	59884.95
512.69	60198.58
512.86	60336.67
513.04	60680.73
513.21	60722.86
513.38	60493.49
513.56	59849.84
513.73	59414.50
513.90	59508.12
514.08	59643.87
514.25	59920.05
514.43	60123.68
514.60	60093.25
514.77	60537.96
514.95	60371.78
515.12	60420.93
515.29	60559.02
515.47	61069.26
515.64	61275.22
515.81	61022.45
515.99	60556.68
516.16	59185.13
516.33	56933.53
516.51	55458.99
516.68	54759.17
516.85	54660.87
517.03	54958.12
517.20	57270.57
517.37	59477.69
517.54	60622.22
517.72	59962.18
517.89	58042.95
518.06	55494.10
518.24	55753.90
518.41	58005.50
518.58	59178.10
518.75	59210.87
518.93	59566.63
519.10	59367.69
519.27	59833.46
519.45	59985.59
519.62	60790.73
519.79	60970.96
519.96	60921.80
520.14	60399.86
520.31	59519.82
520.48	59468.33
520.65	59931.76
520.83	60743.92
521.00	61099.68
521.17	60795.42
521.34	60425.61
521.52	60566.04
521.69	61382.89
521.86	61755.03
522.03	61331.40
522.20	60289.86
522.38	59138.32
522.55	59327.90
522.72	59580.68
522.89	60023.04
523.07	60149.43
523.24	60451.36
523.41	61205.01
523.58	61684.82
523.75	61939.94
523.92	61698.86
524.10	62019.52
524.27	61726.95
524.44	61511.62
524.61	61357.14
524.78	61240.12
524.96	61174.58
525.13	61219.05
525.30	61399.27
525.47	61822.91
525.64	61551.41
525.81	60987.34
525.98	59739.83
526.16	58644.46
526.33	57900.17
526.50	57403.98
526.67	57088.01
526.84	57801.87
527.01	58742.77
527.18	59484.72
527.36	60069.85
527.53	60921.80
527.70	61237.78
527.87	60725.20
528.04	60196.24
528.21	60659.66
528.38	61345.44
528.55	61944.62
528.72	62300.38
528.89	62349.53
529.07	62031.22
529.24	61485.87
529.41	60940.53
529.58	60259.43
529.75	60376.46
529.92	60757.97
530.09	61490.55
530.26	61523.32
530.43	61832.27
530.60	61965.68
530.77	62340.17
530.94	62134.20
531.11	61841.63
531.28	61628.65
531.46	61125.43
531.63	61483.53
531.80	61214.37
531.97	61125.43
532.14	60287.52
532.31	59440.24
532.48	58880.86
532.65	58960.44
532.82	59608.76
532.99	60793.07
533.16	61022.45
533.33	61434.38
533.50	61006.06
533.67	60839.89
533.84	60313.26
534.01	60420.93
534.18	60877.33
534.35	60825.84
534.52	60654.98
534.69	61031.81
534.86	61310.33
535.03	61652.05
535.20	61991.43
535.37	62454.86
535.54	62286.34
535.71	61977.39
535.88	61825.25
536.05	61176.92
536.22	60657.32
536.38	60521.57
536.55	59971.55
536.72	59531.53
536.89	59477.69
537.06	60343.69
537.23	61148.84
537.40	61275.22
537.57	61396.93
537.74	61193.31
537.91	60992.02
538.08	60924.14
538.25	60919.46
538.42	61146.50
538.59	60884.36
538.75	60463.06
538.92	60275.82
539.09	59983.25
539.26	59721.11
539.43	59599.40
539.60	59842.82
539.77	59852.18
539.94	59887.29
540.11	59215.55
540.28	58389.34
540.44	58798.94
540.61	59143.00
540.78	59096.19
540.95	59533.87
541.12	59917.71
541.29	60254.75
541.46	60568.38
541.62	60624.56
541.79	60331.99
541.96	59882.61
542.13	59688.34
542.30	60074.53
542.47	60289.86
542.63	59950.48
542.80	59824.09
542.97	59819.41
543.14	59690.68
543.31	59732.81
543.48	60095.60
543.64	61155.86
543.81	61375.87
543.98	61116.07
544.15	60383.48
544.32	59716.43
544.48	59875.58
544.65	60598.81
544.82	60853.93
544.99	60556.68
545.16	60390.50
545.32	59842.82
545.49	60491.15
545.66	61013.08
545.83	60680.73
546.00	60423.27
546.16	59887.29
546.33	60037.08
546.50	60238.37
546.67	60371.78
546.83	60046.44
547.00	60102.62
547.17	59655.57
547.34	59084.48
547.50	58899.58
547.67	59367.69
547.84	59290.45
548.00	59538.55
548.17	60243.05
548.34	60060.49
548.51	60046.44
548.67	59906.01
548.84	60163.47
549.01	60074.53
549.18	59964.52
549.34	59990.27
549.51	59983.25
549.68	59669.62
549.84	59657.91
550.01	59653.23
550.18	59669.62
550.34	59510.46
550.51	59772.60
550.68	59845.16
550.84	59372.37
551.01	59302.15
551.18	59391.09
551.34	59475.35
551.51	59896.65
551.68	59990.27
551.84	60219.64
552.01	59889.63
552.18	59784.30
552.34	59241.30
552.51	58738.08
552.68	58576.59
552.84	58915.96
553.01	59260.02
553.18	59344.28
553.34	59201.51
553.51	59381.73
553.67	59863.88
553.84	59861.54
554.01	59702.38
554.17	59428.54
554.34	59526.84
554.51	59805.37
554.67	60048.78
554.84	59852.18
555.00	59552.59
555.17	59367.69
555.33	59299.81
555.50	59044.69
555.67	59264.70
555.83	59114.91
556.00	58798.94
556.16	58899.58
556.33	58464.24
556.50	58614.04
556.66	58429.13
556.83	58106.14
556.99	58209.12
557.16	58457.22
557.32	58642.12
557.49	58845.75
557.65	58857.45
557.82	58866.81
557.98	58677.23
558.15	58253.59
558.32	57642.71
558.48	56732.25
558.65	56877.36
558.81	57153.54
558.98	57523.35
559.14	57535.05
559.31	57638.03
559.47	57780.81
559.64	57471.85
559.80	56940.55
559.97	57263.55
560.13	57516.32
560.30	58548.50
560.46	58843.41
560.63	59213.21
560.79	59164.06
560.96	58616.38
561.12	57696.55
561.29	57083.33
561.45	56891.40
561.61	57591.22
561.78	57804.21
561.94	57886.13
562.11	57537.39
562.27	57464.83
562.44	57968.05
562.60	58120.18
562.77	58438.50
562.93	58391.68
563.10	58354.24
563.26	57680.16
563.42	57574.84
563.59	57338.44
563.75	57382.91
563.92	57502.28
564.08	57354.83
564.24	57726.97
564.41	57623.99
564.57	57757.40
564.74	57614.63
564.90	57436.75
565.07	57162.90
565.23	56849.27
565.39	56250.09
565.56	56360.10
565.72	55957.53
565.88	56432.66
566.05	56549.68
566.21	56783.74
566.38	56640.96
566.54	56816.50
566.70	57279.93
566.87	57368.87
567.03	57354.83
567.19	57766.76
567.36	57158.22
567.52	57106.73
567.68	56978.00
567.85	56409.25
568.01	56112.00
568.17	55803.05
568.34	55828.80
568.50	55686.03
568.66	55866.25
568.83	56233.71
568.99	56282.86
569.15	56629.26
569.32	56336.69
569.48	56198.60
569.64	55854.54
569.81	55789.01
569.97	55789.01
570.13	55526.87
570.30	55175.79
570.46	54637.47
570.62	54389.37
570.78	54171.70
570.95	54396.39
571.11	55063.44
571.27	55283.45
571.43	55522.19
571.60	55786.67
571.76	55814.76
571.92	56126.05
572.09	56500.53
572.25	56189.24
572.41	56385.85
572.57	55964.55
572.74	56151.79
572.90	55751.56
573.06	55561.98
573.22	55810.07
573.38	55877.95
573.55	55674.32
573.71	56032.42
573.87	55870.93
574.03	55442.61
574.20	55674.32
574.36	55260.05
574.52	55180.47
574.68	55068.12
574.84	54852.80
575.01	54391.71
575.17	54213.83
575.33	54443.20
575.49	54651.51
575.65	54901.95
575.82	54623.42
575.98	54501.71
576.14	54691.30
576.30	54939.39
576.46	54981.52
576.62	54925.35
576.79	54742.79
576.95	54440.86
577.11	54281.70
577.27	54717.04
577.43	54742.79
577.59	54258.30
577.75	54120.21
577.92	53399.32
578.08	53088.03
578.24	53347.83
578.40	53471.88
578.56	53829.98
578.72	53984.46
578.88	54227.87
579.04	54087.44
579.21	54176.38
579.37	54202.13
579.53	54356.60
579.69	54536.82
579.85	54377.67
580.01	54475.97
580.17	53790.19
580.33	53579.54
580.49	53956.37
580.65	54061.69
580.82	54293.41
580.98	54071.06
581.14	54136.59
581.30	54604.70
581.46	54157.66
581.62	54089.78
581.78	54452.56
581.94	54869.18
582.10	54358.94
582.26	54401.07
582.42	54267.66
582.58	54597.68
582.74	54670.23
582.90	54611.72
583.06	54293.41
583.22	54183.40
583.38	54085.10
583.54	54237.23
583.70	54239.57
583.86	54251.28
584.02	53996.16
584.18	54174.04
584.34	53825.30
584.50	53649.76
584.66	53616.99
584.82	53450.81
584.98	53579.54
585.14	52870.36
585.30	52542.69
