SpectraSuite Data File
++++++++++++++++++++++++++++++++++++
Date: Mon Oct 07 14:54:02 GMT-05:00 2013
User: price-jones
Dark Spectrum Present: No
Reference Spectrum Present: No
Number of Sampled Component Spectra: 1
Spectrometers: USB2+H05261
Integration Time (usec): 100000 (USB2+H05261)
Spectra Averaged: 1 (USB2+H05261)
Boxcar Smoothing: 0 (USB2+H05261)
Correct for Electrical Dark: No (USB2+H05261)
Strobe/Lamp Enabled: No (USB2+H05261)
Correct for Detector Non-linearity: No (USB2+H05261)
Correct for Stray Light: No (USB2+H05261)
Number of Pixels in Processed Spectrum: 2048
>>>>>Begin Processed Spectral Data<<<<<
365.73	0.00
365.92	0.00
366.12	0.00
366.32	0.00
366.52	0.00
366.72	0.00
366.91	0.00
367.11	0.00
367.31	0.00
367.51	0.00
367.70	0.00
367.90	0.00
368.10	0.00
368.30	0.00
368.49	0.00
368.69	0.00
368.89	0.00
369.09	0.00
369.28	0.00
369.48	0.00
369.68	0.00
369.87	0.00
370.07	0.00
370.27	0.00
370.47	777.06
370.66	3627.83
370.86	4287.86
371.06	4510.21
371.25	4681.07
371.45	4217.65
371.65	3826.78
371.84	3442.93
372.04	3641.87
372.24	4222.33
372.44	4351.06
372.63	4407.23
372.83	4159.13
373.03	3440.59
373.22	3145.68
373.42	3466.33
373.62	4014.02
373.81	4365.10
374.01	4091.26
374.21	3758.90
374.40	3440.59
374.60	3602.08
374.79	4152.11
374.99	4858.95
375.19	5242.80
375.38	5207.69
375.58	4896.40
375.78	4880.02
375.97	4933.85
376.17	5036.83
376.37	4957.25
376.56	5247.48
376.76	5570.48
376.95	5802.19
377.15	6106.46
377.35	6406.05
377.54	6801.60
377.74	6956.07
377.93	6860.11
378.13	6684.57
378.33	6384.98
378.52	5966.03
378.72	5755.38
378.91	5633.67
379.11	5350.46
379.31	5142.16
379.50	5334.08
379.70	5633.67
379.89	6157.95
380.09	6541.80
380.28	7009.90
380.48	6855.43
380.68	6569.88
380.87	6392.00
381.07	6047.94
381.26	5561.11
381.46	5315.36
381.65	4987.68
381.85	4854.27
382.04	4674.05
382.24	4358.08
382.43	4252.75
382.63	4035.08
382.83	4067.85
383.02	4119.34
383.22	4021.04
383.41	4152.11
383.61	4322.97
383.80	4901.08
384.00	5678.14
384.19	6420.09
384.39	6642.44
384.58	6588.61
384.78	6518.39
384.97	6410.73
385.17	6164.97
385.36	5973.05
385.56	5551.75
385.75	5764.74
385.95	6345.19
386.14	6801.60
386.34	6719.68
386.53	6628.40
386.72	6150.93
386.92	6083.05
387.11	6394.34
387.31	6747.76
387.50	6731.38
387.70	6361.58
387.89	6375.62
388.09	6490.31
388.28	6469.24
388.48	6602.65
388.67	7260.34
388.86	7896.97
389.06	8414.23
389.25	8585.08
389.45	8884.67
389.64	8877.65
389.84	8737.22
390.03	8500.83
390.22	8664.66
390.42	8812.12
390.61	9460.45
390.81	10068.98
391.00	10438.79
391.19	10328.78
391.39	9926.21
391.58	9401.93
391.78	8772.33
391.97	8451.67
392.16	7882.92
392.36	7164.38
392.55	5750.70
392.75	4594.47
392.94	3728.47
393.13	3859.54
393.33	4454.04
393.52	5666.44
393.71	6883.52
393.91	7665.25
394.10	8400.18
394.29	9202.99
394.49	10038.56
394.68	10513.69
394.88	10661.14
395.07	11077.76
395.26	10991.16
395.46	10757.10
395.65	10083.03
395.84	8971.27
396.04	7606.74
396.23	5959.00
396.42	5029.81
396.62	4821.50
396.81	5671.12
397.00	7190.13
397.19	9062.55
397.39	10516.03
397.58	12131.00
397.77	12819.11
397.97	13490.85
398.16	13586.81
398.35	13874.70
398.55	14462.17
398.74	15023.90
398.93	15276.68
399.12	15342.21
399.32	14761.76
399.51	14733.67
399.70	15819.68
399.90	15700.31
400.09	15492.01
400.28	15445.20
400.47	15882.88
400.67	16512.48
400.86	16868.24
401.05	16833.13
401.24	16666.95
401.44	17025.06
401.63	17303.58
401.82	17474.44
402.01	17252.09
402.21	17436.99
402.40	17664.02
402.59	16882.28
402.78	16343.96
402.97	15639.46
403.17	16355.66
403.36	17163.15
403.55	17996.38
403.74	18785.14
403.93	17366.78
404.13	16009.26
404.32	15712.02
404.51	16257.36
404.70	17727.22
404.89	17813.82
405.09	17298.90
405.28	16980.59
405.47	16856.54
405.66	17055.48
405.85	16552.27
406.05	15864.15
406.24	16205.87
406.43	16968.88
406.62	17877.01
406.81	17788.07
407.00	17039.10
407.20	16819.09
407.39	16755.90
407.58	17296.56
407.77	18345.12
407.96	18897.49
408.15	18998.13
408.34	19180.69
408.54	20011.58
408.73	20217.55
408.92	19517.73
409.11	19016.85
409.30	18422.36
409.49	17114.00
409.68	16051.39
409.87	15524.77
410.07	16542.91
410.26	17902.76
410.45	19021.53
410.64	19557.52
410.83	19847.74
411.02	20545.22
411.21	21172.49
411.40	20915.03
411.59	20889.28
411.78	20819.07
411.98	20968.86
412.17	20996.95
412.36	20599.05
412.55	20697.36
412.74	20257.34
412.93	19796.25
413.12	20095.84
413.31	21626.55
413.50	21745.92
413.69	22670.43
413.88	21694.43
414.07	20732.47
414.26	21490.80
414.45	22017.42
414.64	22001.04
414.83	22445.74
415.02	21603.14
415.22	21411.22
415.41	22424.67
415.60	22838.95
415.79	23604.30
415.98	24163.69
416.17	24472.64
416.36	23608.98
416.55	23424.08
416.74	22522.98
416.93	22085.30
417.12	21532.93
417.31	22398.93
417.50	22305.31
417.69	23344.50
417.88	23091.73
418.07	23030.87
418.26	22848.31
418.45	22668.09
418.64	23377.27
418.83	24453.92
419.02	24039.64
419.21	23798.57
419.39	23124.49
419.58	21685.06
419.77	21715.49
419.96	22998.10
420.15	23786.86
420.34	24648.18
420.53	25570.35
420.72	26033.78
420.91	25912.07
421.10	25364.39
421.29	25230.98
421.48	24556.90
421.67	25383.11
421.86	25144.38
422.05	23220.45
422.24	21018.01
422.43	20570.97
422.61	22733.62
422.80	24720.74
422.99	24648.18
423.18	23447.49
423.37	23365.57
423.56	23101.09
423.75	23800.91
423.94	24360.30
424.13	22960.66
424.32	23206.41
424.50	23227.48
424.69	22867.03
424.88	23023.85
425.07	22761.71
425.26	23005.13
425.45	22766.39
425.64	22125.08
425.83	22071.25
426.01	23943.68
426.20	23962.40
426.39	23908.57
426.58	22003.38
426.77	20819.07
426.96	19854.76
427.15	20580.33
427.33	22169.55
427.52	23117.47
427.71	23391.31
427.90	22869.37
428.09	22789.80
428.28	22328.71
428.46	21380.79
428.65	21181.85
428.84	21500.16
429.03	21951.88
429.22	20929.07
429.40	19777.53
429.59	18228.09
429.78	16025.65
429.97	16027.99
430.16	16210.55
430.34	16367.37
430.53	16105.23
430.72	16472.69
430.91	18251.50
431.10	21425.26
431.28	25408.86
431.47	27461.51
431.66	27655.77
431.85	25355.02
432.03	22843.63
432.22	21898.05
432.41	23096.41
432.60	25682.70
432.79	26544.02
432.97	26895.10
433.16	26668.06
433.35	24142.63
433.54	21937.84
433.72	20343.94
433.91	21083.55
434.10	23461.53
434.28	25127.99
434.47	26431.67
434.66	26139.10
434.85	25223.95
435.03	25181.82
435.22	26024.42
435.41	27695.56
435.59	27543.42
435.78	27901.53
435.97	28907.96
436.16	28690.29
436.34	28683.27
436.53	27508.32
436.72	27960.04
436.90	26075.91
437.09	26340.39
437.28	25954.20
437.46	26668.06
437.65	26871.69
437.84	25006.28
438.02	22792.14
438.21	22647.02
438.40	23686.22
438.58	26080.59
438.77	26654.02
438.96	26789.77
439.14	28205.80
439.33	28608.37
439.52	28999.24
439.70	28697.31
439.89	28116.86
440.08	26871.69
440.26	27147.87
440.45	27899.19
440.63	29984.60
440.82	30986.35
441.01	30848.26
441.19	30834.22
441.38	30960.61
441.57	32084.06
441.75	32624.73
441.94	32481.95
442.12	32428.12
442.31	33226.24
442.50	33071.77
442.68	32449.19
442.87	32390.67
443.05	31960.02
443.24	31978.74
443.43	32826.01
443.61	33659.24
443.80	33558.60
443.98	31892.14
444.17	31725.96
444.35	33905.00
444.54	34384.81
444.73	33720.10
444.91	32191.73
445.10	31587.87
445.28	29879.28
445.47	29486.07
445.65	29450.96
445.84	30644.63
446.02	31503.61
446.21	32109.81
446.39	32077.04
446.58	32741.75
446.77	33006.23
446.95	33453.28
447.14	34457.37
447.32	35044.84
447.51	34117.99
447.69	32491.32
447.88	32283.01
448.06	32690.26
448.25	33610.09
448.43	33921.38
448.62	33085.81
448.80	32601.32
448.99	32790.91
449.17	33418.17
449.36	33385.40
449.54	34955.90
449.73	35321.02
449.91	35517.63
450.10	36524.06
450.28	36673.85
450.46	36374.27
450.65	36954.72
450.83	36643.43
451.02	35709.55
451.20	35711.89
451.39	35297.62
451.57	35316.34
451.76	35431.03
451.94	34972.28
452.13	34218.63
452.31	32940.70
452.49	31555.10
452.68	31838.31
452.86	31683.83
453.05	32233.86
453.23	33642.86
453.42	33722.44
453.60	34625.89
453.78	34740.57
453.97	34923.13
454.15	34869.30
454.34	34499.50
454.52	34398.85
454.70	33504.77
454.89	33556.26
455.07	34094.58
455.26	34398.85
455.44	35660.40
455.62	36261.92
455.81	36837.69
455.99	36346.18
456.17	35854.67
456.36	35819.56
456.54	36989.83
456.73	36971.10
456.91	37326.86
457.09	37572.62
457.28	38007.96
457.46	36863.44
457.64	36547.47
457.83	35838.28
458.01	34270.12
458.19	35784.45
458.38	35681.47
458.56	36971.10
458.74	36734.71
458.93	35957.65
459.11	36158.94
459.29	35817.22
459.48	36165.96
459.66	35592.53
459.84	36044.25
460.03	36980.46
460.21	36744.07
460.39	37504.74
460.57	37467.30
460.76	38043.07
460.94	37888.59
461.12	37317.50
461.31	37490.70
461.49	37624.11
461.67	37694.33
461.85	38911.41
462.04	38218.61
462.22	38955.88
462.40	38225.63
462.59	38405.85
462.77	38527.56
462.95	38274.78
463.13	38059.45
463.32	37752.84
463.50	37394.74
463.68	37507.08
463.86	37589.00
464.05	37067.06
464.23	36306.39
464.41	36135.53
464.59	35342.09
464.78	37373.67
464.96	36835.35
465.14	36510.02
465.32	37654.54
465.50	38550.96
465.69	38780.34
465.87	37904.98
466.05	37020.25
466.23	35248.47
466.41	34773.34
466.60	35491.88
466.78	35325.71
466.96	36521.72
467.14	36753.43
467.32	37130.26
467.51	37521.13
467.69	35959.99
467.87	36566.19
468.05	37432.19
468.23	37038.98
468.41	37069.40
468.60	37167.71
468.78	37811.35
468.96	36781.52
469.14	37773.91
469.32	37638.15
469.50	35922.54
469.69	36727.69
469.87	36175.32
470.05	35730.62
470.23	35669.76
470.41	36088.72
470.59	36282.98
470.77	36629.38
470.95	37699.01
471.14	37879.23
471.32	37591.34
471.50	40163.59
471.68	39924.86
471.86	39945.92
472.04	40416.37
472.22	40589.57
472.40	38787.36
472.58	38263.08
472.77	37816.04
472.95	38501.81
473.13	39405.26
473.31	38665.65
473.49	39063.54
473.67	39501.22
473.85	39894.43
474.03	40662.13
474.21	40624.68
474.39	41095.13
474.57	41310.46
474.75	41680.26
474.93	41397.06
475.12	39683.78
475.30	40112.10
475.48	40105.08
475.66	40617.66
475.84	40484.25
476.02	39807.83
476.20	39468.45
476.38	40069.97
476.56	41153.64
476.74	42026.66
476.92	42113.26
477.10	42962.87
477.28	43838.23
477.46	43875.68
477.64	44362.51
477.82	44259.53
478.00	44332.09
478.18	43922.49
478.36	43838.23
478.54	43456.73
478.72	43746.95
478.90	44905.52
479.08	46213.88
479.26	46621.13
479.44	46265.37
479.62	46321.54
479.80	46237.28
479.98	46239.62
480.16	46555.60
480.34	46036.00
480.52	46829.44
480.70	46768.58
480.88	46710.07
481.06	47552.66
481.24	47878.00
481.41	48928.90
481.59	49169.97
481.77	49434.45
481.95	48521.65
482.13	48315.68
482.31	48224.40
482.49	49027.20
482.67	48931.24
482.85	49219.13
483.03	49610.00
483.21	49993.84
483.39	49890.86
483.57	49223.81
483.74	49195.72
483.92	49263.60
484.10	49319.77
484.28	50272.37
484.46	50637.49
484.64	50986.23
484.82	50190.45
485.00	49731.70
485.18	49097.42
485.35	47955.24
485.53	44879.77
485.71	40954.69
485.89	40168.27
486.07	42803.72
486.25	45621.72
486.43	47964.60
486.61	48725.27
486.78	48949.96
486.96	48619.95
487.14	50344.92
487.32	51040.06
487.50	51976.28
487.68	53024.84
487.85	53432.09
488.03	53104.41
488.21	52933.56
488.39	52247.78
488.57	51819.46
488.75	51180.49
488.92	52119.05
489.10	54328.52
489.28	55552.62
489.46	56081.58
489.64	55707.09
489.81	56130.73
489.99	55664.96
490.17	55824.12
490.35	56048.81
490.53	55477.72
490.70	55269.41
490.88	55079.83
491.06	56004.34
491.24	56088.60
491.41	55323.24
491.59	53659.12
491.77	52917.17
491.95	53909.56
492.13	55051.74
492.30	56034.77
492.48	56633.94
492.66	57322.06
492.84	57275.25
493.01	56748.63
493.19	56655.01
493.37	56133.07
493.54	56034.77
493.72	56491.17
493.90	57539.73
494.08	58138.91
494.25	58445.52
494.43	58532.12
494.61	58815.32
494.79	58974.48
494.96	58920.65
495.14	58251.25
495.32	57481.22
495.49	56954.60
495.67	57801.87
495.85	58946.39
496.02	59510.46
496.20	59302.15
496.38	58773.19
496.55	58487.65
496.73	59112.57
496.91	59227.26
497.09	59889.63
497.26	59889.63
497.44	59281.09
497.62	58922.99
497.79	58101.46
497.97	56875.02
498.14	57293.97
498.32	58347.21
498.50	59079.80
498.67	59875.58
498.85	59327.90
499.03	59681.32
499.20	59927.08
499.38	59728.13
499.56	59714.09
499.73	59395.77
499.91	59011.93
500.08	58520.41
500.26	57923.58
500.44	58237.21
500.61	58710.00
500.79	58644.46
500.97	58293.38
501.14	58113.16
501.32	58066.35
501.49	58026.56
501.67	58225.51
501.84	58614.04
502.02	58913.62
502.20	59143.00
502.37	59559.61
502.55	59208.53
502.72	59854.52
502.90	60193.90
503.07	60086.23
503.25	59817.07
503.43	58941.71
503.60	58401.05
503.78	57682.50
503.95	58108.48
504.13	59386.41
504.30	60142.41
504.48	60107.30
504.65	59730.47
504.83	59732.81
505.01	60346.03
505.18	60474.76
505.36	60994.36
505.53	61106.71
505.71	61474.17
505.88	61343.10
506.06	60757.97
506.23	60479.44
506.41	60126.02
506.58	60392.84
506.76	60324.97
506.93	60282.84
507.11	60048.78
507.28	60133.04
507.46	59788.98
507.63	59238.96
507.81	59051.72
507.98	59423.86
508.16	59957.50
508.33	60217.30
508.50	60722.86
508.68	61106.71
508.85	61450.77
509.03	61315.01
509.20	61261.18
509.38	60610.51
509.55	59845.16
509.73	60016.02
509.90	60580.09
510.08	60860.95
510.25	60610.51
510.42	60514.55
510.60	60313.26
510.77	60444.33
510.95	61254.16
511.12	61340.76
511.30	61719.93
511.47	61764.40
511.64	61691.84
511.82	61607.58
511.99	60509.87
512.17	60280.50
512.34	59826.43
512.51	60133.04
512.69	60308.58
512.86	60500.51
513.04	60561.36
513.21	60732.22
513.38	60444.33
513.56	60013.68
513.73	59384.07
513.90	59671.96
514.08	59709.41
514.25	59824.09
514.43	60236.03
514.60	60285.18
514.77	60484.12
514.95	60502.85
515.12	60308.58
515.29	60622.22
515.47	61195.65
515.64	61106.71
515.81	60949.89
515.99	60390.50
516.16	58993.20
516.33	56809.48
516.51	55679.00
516.68	54974.50
516.85	54522.78
517.03	54658.53
517.20	57312.70
517.37	59587.70
517.54	60273.48
517.72	60055.81
517.89	57715.27
518.06	55278.77
518.24	55870.93
518.41	57752.72
518.58	59154.70
518.75	59292.79
518.93	59515.14
519.10	59164.06
519.27	59657.91
519.45	59891.97
519.62	60582.43
519.79	60945.21
519.96	60767.33
520.14	60257.09
520.31	59664.94
520.48	59458.97
520.65	60046.44
520.83	60832.86
521.00	61048.19
521.17	60800.10
521.34	60151.77
521.52	60659.66
521.69	61099.68
521.86	61565.45
522.03	61195.65
522.20	59955.16
522.38	59040.01
522.55	59260.02
522.72	59538.55
522.89	59868.56
523.07	60257.09
523.24	60264.11
523.41	61181.60
523.58	61359.48
523.75	61703.54
523.92	61661.41
524.10	61654.39
524.27	61544.39
524.44	61476.51
524.61	61296.29
524.78	61279.91
524.96	60835.20
525.13	61123.09
525.30	61141.81
525.47	61712.91
525.64	61460.13
525.81	60797.76
525.98	59653.23
526.16	58232.53
526.33	57317.38
526.50	57258.87
526.67	57195.67
526.84	57584.20
527.01	58649.14
527.18	59220.23
527.36	59962.18
527.53	60795.42
527.70	61057.56
527.87	60465.40
528.04	60172.83
528.21	60484.12
528.38	61176.92
528.55	61769.08
528.72	61755.03
528.89	62204.42
529.07	61790.14
529.24	61176.92
529.41	60516.89
529.58	60198.58
529.75	60130.70
529.92	60727.54
530.09	61048.19
530.26	61506.94
530.43	61635.67
530.60	61792.48
530.77	61956.32
530.94	62103.77
531.11	61572.47
531.28	61270.54
531.46	61130.11
531.63	61165.22
531.80	61134.79
531.97	60905.42
532.14	60048.78
532.31	59077.46
532.48	58326.15
532.65	58571.91
532.82	59302.15
532.99	60348.37
533.16	60662.00
533.33	61186.28
533.50	60917.12
533.67	60418.59
533.84	59931.76
534.01	60065.17
534.18	60395.18
534.35	60371.78
534.52	60161.13
534.69	60502.85
534.86	60891.38
535.03	61197.99
535.20	61336.08
535.37	62017.17
535.54	61984.41
535.71	61549.07
535.88	61275.22
536.05	60645.62
536.22	60329.65
536.38	59978.57
536.55	59739.83
536.72	59145.34
536.89	58990.86
537.06	59924.74
537.23	60680.73
537.40	61003.72
537.57	60975.64
537.74	60704.13
537.91	60596.47
538.08	60544.98
538.25	60512.21
538.42	60743.92
538.59	60760.31
538.75	60032.40
538.92	59847.50
539.09	59796.01
539.26	59487.06
539.43	59370.03
539.60	59451.95
539.77	59522.16
539.94	59576.00
540.11	58780.21
540.28	58265.30
540.44	58251.25
540.61	58248.91
540.78	58726.38
540.95	59245.98
541.12	59526.84
541.29	59749.20
541.46	60186.88
541.62	59901.33
541.79	60016.02
541.96	59402.80
542.13	59311.52
542.30	59426.20
542.47	59791.33
542.63	59543.23
542.80	59348.96
542.97	59547.91
543.14	59533.87
543.31	59435.56
543.48	59800.69
543.64	60554.34
543.81	61001.38
543.98	60676.05
544.15	60128.36
544.32	59393.43
544.48	59515.14
544.65	59875.58
544.82	60367.10
544.99	59896.65
545.16	59627.49
545.32	59440.24
545.49	60100.28
545.66	60463.06
545.83	60111.98
546.00	59880.27
546.16	59583.02
546.33	59583.02
546.50	59552.59
546.67	60062.83
546.83	59475.35
547.00	59576.00
547.17	58866.81
547.34	58354.24
547.50	58340.19
547.67	58866.81
547.84	58768.51
548.00	59444.93
548.17	59767.92
548.34	59641.53
548.51	59482.37
548.67	59496.42
548.84	59391.09
549.01	59597.06
549.18	59355.99
549.34	59381.73
549.51	59372.37
549.68	59522.16
549.84	59271.73
550.01	58974.48
550.18	59011.93
550.34	59082.14
550.51	59093.85
550.68	59187.47
550.84	58660.85
551.01	58775.53
551.18	58686.59
551.34	58754.47
551.51	59278.75
551.68	59456.63
551.84	59526.84
552.01	59348.96
552.18	59250.66
552.34	58494.67
552.51	58010.18
552.68	57939.96
552.84	58330.83
553.01	58805.96
553.18	58562.54
553.34	58908.94
553.51	58801.28
553.67	59028.31
553.84	59215.55
554.01	59386.41
554.17	58946.39
554.34	58859.79
554.51	58972.14
554.67	59498.76
554.84	59250.66
555.00	58796.60
555.17	58681.91
555.33	58738.08
555.50	58679.57
555.67	58592.97
555.83	58450.20
556.00	58035.92
556.16	58120.18
556.33	57696.55
556.50	57759.74
556.66	57949.32
556.83	57577.18
556.99	57579.52
557.16	57612.29
557.32	58003.16
557.49	58248.91
557.65	58056.99
557.82	58143.59
557.98	57942.30
558.15	57359.51
558.32	56631.60
558.48	55891.99
558.65	56121.37
558.81	56392.87
558.98	56779.06
559.14	57003.75
559.31	56853.95
559.47	56875.02
559.64	56655.01
559.80	56385.85
559.97	56512.23
560.13	56931.19
560.30	57689.52
560.46	58183.38
560.63	58342.53
560.79	58286.36
560.96	57965.71
561.12	56992.04
561.29	56217.33
561.45	56226.69
561.61	56776.72
561.78	57003.75
561.94	57099.71
562.11	56994.39
562.27	56882.04
562.44	56956.94
562.60	57258.87
562.77	57640.37
562.93	57219.08
563.10	57403.98
563.26	56753.31
563.42	56896.08
563.59	56427.98
563.75	56657.35
563.92	56535.64
564.08	56493.51
564.24	56701.82
564.41	56956.94
564.57	57034.17
564.74	56584.79
564.90	56713.52
565.07	56549.68
565.23	56119.02
565.39	55587.72
565.56	55299.84
565.72	55093.87
565.88	55494.10
566.05	55606.45
566.21	56025.40
566.38	55751.56
566.54	55884.97
566.70	56409.25
566.87	56718.20
567.03	56814.16
567.19	57006.09
567.36	56484.15
567.52	56212.65
567.68	55913.06
567.85	55468.36
568.01	55178.13
568.17	54597.68
568.34	54836.41
568.50	54915.99
568.66	54838.75
568.83	55112.59
568.99	55224.94
569.15	55679.00
569.32	55313.88
569.48	55004.93
569.64	55213.24
569.81	54658.53
569.97	54485.33
570.13	54464.27
570.30	53991.48
570.46	53698.91
570.62	52942.92
570.78	53193.36
570.95	53392.30
571.11	54092.12
571.27	54356.60
571.43	54482.99
571.60	54768.54
571.76	54876.20
571.92	55189.83
572.09	55077.49
572.25	55145.36
572.41	55412.18
572.57	54946.42
572.74	55178.13
572.90	54808.32
573.06	54805.98
573.22	54798.96
573.38	54703.00
573.55	54906.63
573.71	55035.36
573.87	54539.16
574.03	54288.73
574.20	54642.15
574.36	54401.07
574.52	54185.74
574.68	53787.85
574.84	53682.53
575.01	53247.19
575.17	52942.92
575.33	53476.56
575.49	53432.09
575.65	53586.57
575.82	53497.62
575.98	53333.79
576.14	53502.31
576.30	53804.24
576.46	53710.61
576.62	53600.61
576.79	53712.95
576.95	53411.02
577.11	53277.61
577.27	53209.74
577.43	53621.67
577.59	52959.30
577.75	52711.20
577.92	51934.15
578.08	52076.92
578.24	51908.40
578.40	52200.97
578.56	52509.92
578.72	52554.39
578.88	52942.92
579.04	52961.64
579.21	53139.52
579.37	53111.44
579.53	53326.77
579.69	53200.38
579.85	53008.45
580.01	53354.85
580.17	52512.26
580.33	52360.12
580.49	52418.64
580.65	53111.44
580.82	53085.69
580.98	52842.27
581.14	52949.94
581.30	52875.04
581.46	52961.64
581.62	53013.13
581.78	53258.89
581.94	53448.47
582.10	53125.48
582.26	53469.54
582.42	53034.20
582.58	52989.73
582.74	53268.25
582.90	53066.97
583.06	53097.39
583.22	52802.49
583.38	53078.67
583.54	52912.49
583.70	52828.23
583.86	52610.56
584.02	52598.86
584.18	52772.06
584.34	52580.13
584.50	52587.16
584.66	52437.36
584.82	52044.15
584.98	51908.40
585.14	51629.88
