SpectraSuite Data File
++++++++++++++++++++++++++++++++++++
Date: Mon Oct 07 14:55:00 GMT-05:00 2013
User: price-jones
Dark Spectrum Present: No
Reference Spectrum Present: No
Number of Sampled Component Spectra: 1
Spectrometers: USB2+H05261
Integration Time (usec): 10000 (USB2+H05261)
Spectra Averaged: 1 (USB2+H05261)
Boxcar Smoothing: 0 (USB2+H05261)
Correct for Electrical Dark: No (USB2+H05261)
Strobe/Lamp Enabled: No (USB2+H05261)
Correct for Detector Non-linearity: No (USB2+H05261)
Correct for Stray Light: No (USB2+H05261)
Number of Pixels in Processed Spectrum: 2048
>>>>>Begin Processed Spectral Data<<<<<
365.73	0.00
365.92	0.00
366.12	0.00
366.32	0.00
366.52	0.00
366.72	0.00
366.91	0.00
367.11	0.00
367.31	0.00
367.51	0.00
367.70	0.00
367.90	0.00
368.10	0.00
368.30	0.00
368.49	0.00
368.69	0.00
368.89	0.00
369.09	0.00
369.28	0.00
369.48	0.00
369.68	0.00
369.87	0.00
370.07	0.00
370.27	0.00
370.47	365.12
370.66	2335.85
370.86	2771.19
371.06	2925.67
371.25	2888.22
371.45	2532.46
371.65	2303.09
371.84	2230.53
372.04	2413.09
372.24	2810.98
372.44	2818.00
372.63	2722.04
372.83	2457.56
373.03	2136.91
373.22	2015.20
373.42	2249.25
373.62	2677.57
373.81	2761.83
374.01	2583.95
374.21	2352.24
374.40	2136.91
374.60	2389.69
374.79	2715.02
374.99	3276.75
375.19	3405.48
375.38	3328.24
375.58	3033.33
375.78	3152.70
375.97	3143.34
376.17	3110.57
376.37	3302.50
376.56	3428.88
376.76	3569.32
376.95	3871.25
377.15	4241.05
377.35	4161.47
377.54	4489.15
377.74	4638.94
377.93	4496.17
378.13	4262.12
378.33	4065.51
378.52	3833.80
378.72	3791.67
378.91	3527.19
379.11	3393.78
379.31	3389.10
379.50	3461.65
379.70	3667.62
379.89	4166.15
380.09	4381.48
380.28	4409.57
380.48	4493.83
380.68	4393.19
380.87	4189.56
381.07	3749.54
381.26	3431.23
381.46	3382.07
381.65	3159.72
381.85	3187.81
382.04	2904.60
382.24	2874.18
382.43	2607.36
382.63	2693.96
382.83	2700.98
383.02	2654.17
383.22	2504.37
383.41	2698.64
383.61	2958.44
383.80	3445.27
384.00	3875.93
384.19	4311.27
384.39	4386.16
384.58	4437.66
384.78	4341.69
384.97	4334.67
385.17	4175.52
385.36	3882.95
385.56	3653.58
385.75	4105.30
385.95	4456.38
386.14	4706.82
386.34	4601.49
386.53	4393.19
386.72	4205.94
386.92	4255.09
387.11	4217.65
387.31	4444.68
387.50	4510.21
387.70	4367.44
387.89	4325.31
388.09	4421.27
388.28	4332.33
388.48	4589.79
388.67	4833.21
388.86	5350.46
389.06	5877.09
389.25	6054.97
389.45	6160.29
389.64	5921.56
389.84	5987.09
390.03	5778.78
390.22	6010.50
390.42	6333.49
390.61	6717.34
390.81	7054.37
391.00	7052.03
391.19	6974.80
391.39	6703.29
391.58	6242.21
391.78	6061.99
391.97	5809.21
392.16	5313.02
392.36	4774.69
392.55	3630.17
392.75	2918.65
392.94	2516.08
393.13	2635.44
393.33	3206.53
393.52	4105.30
393.71	4821.50
393.91	5378.55
394.10	6052.63
394.29	6499.67
394.49	7281.41
394.68	7501.42
394.88	7452.27
395.07	7915.69
395.26	7686.32
395.46	7197.15
395.65	6799.26
395.84	5959.00
396.04	4983.00
396.23	4014.02
396.42	3389.10
396.62	3463.99
396.81	4224.67
397.00	5416.00
397.19	6593.29
397.39	8013.99
397.58	8690.41
397.77	9231.07
397.97	9647.69
398.16	9678.12
398.35	10090.05
398.55	10293.68
398.74	10810.93
398.93	11014.56
399.12	10726.68
399.32	10106.43
399.51	10726.68
399.70	11248.61
399.90	11290.74
400.09	11171.38
400.28	11073.07
400.47	11243.93
400.67	11480.33
400.86	11927.37
401.05	12030.35
401.24	11889.92
401.44	12245.68
401.63	12322.92
401.82	12615.49
402.01	12503.14
402.21	12411.86
402.40	12362.71
402.59	12154.40
402.78	11552.88
402.97	11351.60
403.17	11859.49
403.36	12795.71
403.55	13053.17
403.74	12842.52
403.93	12198.87
404.13	11323.51
404.32	11667.57
404.51	11983.54
404.70	13041.46
404.89	12903.37
405.09	12493.78
405.28	12131.00
405.47	12355.69
405.66	12503.14
405.85	11829.07
406.05	11712.04
406.24	11974.18
406.43	12334.62
406.62	12819.11
406.81	12875.29
407.00	12669.32
407.20	11829.07
407.39	12011.63
407.58	13153.81
407.77	13596.17
407.96	14054.92
408.15	13968.32
408.34	14319.40
408.54	14799.21
408.73	14356.85
408.92	14235.14
409.11	13743.63
409.30	13111.68
409.49	12341.64
409.68	11782.26
409.87	11644.17
410.07	12313.56
410.26	13137.43
410.45	13961.30
410.64	14506.64
410.83	14951.34
411.02	15587.97
411.21	15803.30
411.40	15220.50
411.59	15873.51
411.78	15630.10
411.98	15517.75
412.17	15639.46
412.36	15267.31
412.55	15232.21
412.74	14600.26
412.93	14885.81
413.12	15316.47
413.31	16678.66
413.50	16402.47
413.69	16453.97
413.88	15929.69
414.07	15709.68
414.26	16369.71
414.45	16290.13
414.64	16416.52
414.83	16411.84
415.02	15983.52
415.22	16194.17
415.41	16645.89
415.60	17366.78
415.79	17792.75
415.98	17926.16
416.17	18429.38
416.36	17331.67
416.55	17757.64
416.74	16823.77
416.93	16746.53
417.12	16287.79
417.31	16896.33
417.50	16985.27
417.69	17710.83
417.88	17420.61
418.07	17678.07
418.26	17137.40
418.45	17397.20
418.64	17909.78
418.83	18567.47
419.02	18164.90
419.21	17923.82
419.39	17273.15
419.58	16294.81
419.77	16856.54
419.96	17535.29
420.15	18750.03
420.34	18581.51
420.53	19103.45
420.72	19716.67
420.91	19351.55
421.10	19129.20
421.29	19414.74
421.48	19218.14
421.67	19580.92
421.86	18700.88
422.05	17184.21
422.24	15815.00
422.43	15857.13
422.61	17799.77
422.80	19096.43
422.99	18888.12
423.18	17954.25
423.37	17909.78
423.56	18232.77
423.75	18317.03
423.94	18806.20
424.13	17661.68
424.32	17642.96
424.50	18047.87
424.69	18059.57
424.88	17914.46
425.07	17930.84
425.26	18008.08
425.45	17408.90
425.64	17184.21
425.83	17207.62
426.01	18487.89
426.20	18822.59
426.39	18277.24
426.58	16884.62
426.77	15803.30
426.96	15550.52
427.15	16442.26
427.33	17729.56
427.52	18326.39
427.71	18221.07
427.90	18061.91
428.09	17539.97
428.28	17455.72
428.46	16762.92
428.65	16423.54
428.84	17081.23
429.03	16589.72
429.22	16060.76
429.40	14686.86
429.59	13392.55
429.78	12077.16
429.97	12718.47
430.16	12435.27
430.34	12582.72
430.53	12865.92
430.72	13619.58
430.91	14839.00
431.10	17781.05
431.28	20294.79
431.47	21612.51
431.66	21439.31
431.85	19311.76
432.03	17774.03
432.22	17767.01
432.41	19073.03
432.60	20753.53
432.79	21200.57
432.97	21270.79
433.16	21029.71
433.35	18883.44
433.54	16891.65
433.72	16051.39
433.91	17195.92
434.10	19201.76
434.28	20152.01
434.47	21153.76
434.66	20383.73
434.85	20446.92
435.03	20407.13
435.22	20556.93
435.41	21792.73
435.59	22202.32
435.78	22361.48
435.97	22747.67
436.16	22981.72
436.34	22644.68
436.53	21605.49
436.72	21858.26
436.90	20954.82
437.09	21088.23
437.28	20737.15
437.46	21408.88
437.65	20915.03
437.84	19321.12
438.02	18284.26
438.21	18499.59
438.40	19641.78
438.58	20439.90
438.77	21303.56
438.96	21820.81
439.14	22618.94
439.33	23302.37
439.52	23175.98
439.70	22698.52
439.89	22118.06
440.08	21736.56
440.26	22176.58
440.45	22427.01
440.63	24208.16
440.82	25429.92
441.01	24592.01
441.19	24299.44
441.38	25247.36
441.57	25923.77
441.75	26253.79
441.94	27173.62
442.12	26588.49
442.31	27250.86
442.50	26705.51
442.68	26368.48
442.87	25998.67
443.05	25865.26
443.24	26689.13
443.43	26703.17
443.61	26944.25
443.80	27283.62
443.98	26347.41
444.17	26333.37
444.35	27658.11
444.54	27920.25
444.73	27859.40
444.91	26508.91
445.10	25158.42
445.28	24510.09
445.47	24194.12
445.65	24805.00
445.84	24973.52
446.02	26085.27
446.21	26300.60
446.39	26389.54
446.58	26647.00
446.77	27463.85
446.95	27470.87
447.14	28720.71
447.32	29144.35
447.51	28173.03
447.69	27131.49
447.88	27075.32
448.06	28081.75
448.25	28128.56
448.43	27520.02
448.62	27180.64
448.80	27316.39
448.99	27248.52
449.17	27620.66
449.36	27845.35
449.54	28987.53
449.73	29237.97
449.91	29432.24
450.10	30218.66
450.28	30609.53
450.46	30323.98
450.65	30506.54
450.83	30235.04
451.02	29605.44
451.20	29394.79
451.39	29542.24
451.57	29448.62
451.76	29146.69
451.94	28711.35
452.13	28184.73
452.31	26324.01
452.49	25467.37
452.68	26593.17
452.86	26396.56
453.05	26047.82
453.23	28215.16
453.42	28694.97
453.60	28760.50
453.78	30017.37
453.97	28964.13
454.15	28496.02
454.34	28175.37
454.52	27995.15
454.70	27604.28
454.89	28072.39
455.07	28634.11
455.26	29184.14
455.44	30267.81
455.62	30700.81
455.81	30141.42
455.99	30010.35
456.17	29811.40
456.36	30721.87
456.54	30941.88
456.73	30635.27
456.91	30976.99
457.09	31613.62
457.28	32514.72
457.46	30927.84
457.64	30106.31
457.83	29259.04
458.01	29324.57
458.19	29907.37
458.38	30466.75
458.56	30347.39
458.74	30761.66
458.93	30422.28
459.11	30181.21
459.29	29713.10
459.48	29921.41
459.66	30204.61
459.84	30075.88
460.03	30820.17
460.21	30862.30
460.39	31737.66
460.57	31768.09
460.76	32245.56
460.94	31456.80
461.12	31613.62
461.31	31957.67
461.49	31651.06
461.67	31789.16
461.85	32680.90
462.04	32161.30
462.22	32615.37
462.40	32851.76
462.59	32315.78
462.77	32533.45
462.95	32580.26
463.13	32428.12
463.32	31964.70
463.50	32252.58
463.68	32196.41
463.86	32271.31
464.05	31417.01
464.23	30403.56
464.41	30600.16
464.59	30820.17
464.78	31880.44
464.96	31449.78
465.14	30874.01
465.32	32449.19
465.50	33057.73
465.69	33137.30
465.87	32329.82
466.05	31388.92
466.23	29916.73
466.41	29560.97
466.60	29979.92
466.78	30426.96
466.96	30466.75
467.14	31063.59
467.32	32011.51
467.51	32053.64
467.69	30352.07
467.87	31548.08
468.05	32149.60
468.23	31772.77
468.41	31681.49
468.60	31824.26
468.78	32322.80
468.96	31924.91
469.14	32680.90
469.32	32184.71
469.50	30946.56
469.69	31992.78
469.87	31058.91
470.05	30841.24
470.23	30820.17
470.41	31597.23
470.59	31782.13
470.77	31821.92
470.95	31964.70
471.14	32842.40
471.32	33039.00
471.50	34792.06
471.68	34033.73
471.86	34611.84
472.04	34700.78
472.22	34536.94
472.40	32891.55
472.58	32861.12
472.77	33053.05
472.95	33507.11
473.13	33984.58
473.31	33301.14
473.49	34415.24
473.67	34349.70
473.85	35367.84
474.03	35178.25
474.21	36119.15
474.39	35641.68
474.57	35938.93
474.75	35938.93
474.93	35400.60
475.12	34665.67
475.30	35503.59
475.48	35728.28
475.66	35889.77
475.84	35222.72
476.02	35194.64
476.20	34279.49
476.38	35770.41
476.56	36620.02
476.74	37057.70
476.92	37071.75
477.10	37244.94
477.28	38272.44
477.46	37982.21
477.64	39456.75
477.82	38651.61
478.00	38094.56
478.18	38054.77
478.36	37862.85
478.54	37839.44
478.72	38316.91
478.90	39398.24
479.08	40575.53
479.26	40222.11
479.44	41352.58
479.62	40732.34
479.80	41188.75
479.98	40879.80
480.16	41457.91
480.34	40488.93
480.52	41694.30
480.70	41804.31
480.88	41825.37
481.06	41467.27
481.24	41734.09
481.41	43086.92
481.59	44044.20
481.77	43107.99
481.95	42609.45
482.13	43297.57
482.31	42892.66
482.49	43922.49
482.67	43222.67
482.85	43491.83
483.03	43948.24
483.21	45083.40
483.39	45422.78
483.57	44376.56
483.74	43690.78
483.92	44491.24
484.10	44594.23
484.28	45209.79
484.46	45619.38
484.64	46050.04
484.82	44992.12
485.00	45240.21
485.18	43978.67
485.35	42272.42
485.53	38068.81
485.71	35328.05
485.89	35536.35
486.07	38150.73
486.25	40968.74
486.43	43470.77
486.61	44067.61
486.78	43737.59
486.96	44879.77
487.14	46218.56
487.32	46784.97
487.50	48182.27
487.68	48559.09
487.85	49017.84
488.03	48868.05
488.21	47957.58
488.39	47482.45
488.57	46377.72
488.75	46859.87
488.92	48507.60
489.10	50932.40
489.28	50646.85
489.46	51721.16
489.64	51749.24
489.81	52369.49
489.99	52357.78
490.17	52273.52
490.35	52105.01
490.53	52039.47
490.70	51536.26
490.88	52123.73
491.06	53235.48
491.24	52659.71
491.41	50941.76
491.59	49771.49
491.77	48935.92
491.95	50808.35
492.13	51889.68
492.30	52680.78
492.48	53738.70
492.66	54480.65
492.84	53305.70
493.01	53172.29
493.19	53191.01
493.37	52968.66
493.54	52814.19
493.72	53663.80
493.90	54461.93
494.08	55318.56
494.25	56046.47
494.43	55971.57
494.61	55877.95
494.79	55578.36
494.96	55770.28
495.14	55430.91
495.32	53794.87
495.49	53886.15
495.67	54829.39
495.85	55737.52
496.02	56516.92
496.20	56547.34
496.38	56435.00
496.55	55906.04
496.73	56481.81
496.91	56266.48
497.09	56432.66
497.26	57509.30
497.44	56886.72
497.62	55576.02
497.79	55260.05
497.97	54124.89
498.14	55079.83
498.32	56046.47
498.50	56135.41
498.67	56636.28
498.85	56530.96
499.03	56868.00
499.20	57434.41
499.38	56755.65
499.56	56282.86
499.73	56306.27
499.91	56114.34
500.08	55847.52
500.26	55969.23
500.44	56142.43
500.61	56107.32
500.79	55742.20
500.97	55700.07
501.14	55274.09
501.32	54756.83
501.49	55056.42
501.67	55664.96
501.84	55767.94
502.02	56058.17
502.20	56727.56
502.37	56514.58
502.55	57165.24
502.72	57701.23
502.90	58080.39
503.07	57153.54
503.25	56378.82
503.43	55360.69
503.60	55458.99
503.78	55309.20
503.95	55718.79
504.13	57312.70
504.30	57829.96
504.48	57333.76
504.65	57476.54
504.83	57607.61
505.01	57890.81
505.18	58106.14
505.36	58473.60
505.53	58571.91
505.71	58824.68
505.88	58906.60
506.06	58688.93
506.23	58021.88
506.41	57387.60
506.58	57485.90
506.76	57930.60
506.93	57729.31
507.11	57623.99
507.28	57490.58
507.46	56591.81
507.63	57153.54
507.81	57153.54
507.98	57247.16
508.16	57663.78
508.33	57783.15
508.50	58653.82
508.68	58883.20
508.85	59522.16
509.03	59484.72
509.20	59107.89
509.38	58351.90
509.55	57970.39
509.73	57879.11
509.90	58181.04
510.08	58794.26
510.25	58429.13
510.42	57478.88
510.60	57418.02
510.77	58045.29
510.95	59023.63
511.12	58829.37
511.30	59201.51
511.47	59704.73
511.64	59538.55
511.82	59529.19
511.99	58569.57
512.17	58227.85
512.34	57593.56
512.51	57970.39
512.69	58284.02
512.86	57631.01
513.04	58464.24
513.21	57876.77
513.38	57141.84
513.56	56427.98
513.73	56072.21
513.90	56736.93
514.08	57041.20
514.25	57427.38
514.43	57645.05
514.60	57687.18
514.77	58162.31
514.95	59021.29
515.12	58829.37
515.29	58831.71
515.47	59065.76
515.64	59405.14
515.81	58770.85
515.99	57797.19
516.16	55978.59
516.33	53506.99
516.51	53181.65
516.68	51774.99
516.85	50600.04
517.03	52360.12
517.20	55262.39
517.37	57710.59
517.54	58578.93
517.72	57544.41
517.89	54417.46
518.06	52846.96
518.24	54174.04
518.41	56423.29
518.58	57626.33
518.75	56545.00
518.93	56823.53
519.10	56655.01
519.27	57293.97
519.45	57574.84
519.62	58653.82
519.79	58695.95
519.96	58108.48
520.14	58225.51
520.31	57521.01
520.48	57607.61
520.65	57640.37
520.83	58291.04
521.00	57836.98
521.17	57654.42
521.34	58295.72
521.52	59112.57
521.69	59138.32
521.86	59861.54
522.03	59201.51
522.20	57282.27
522.38	56495.85
522.55	56676.07
522.72	57071.62
522.89	57595.90
523.07	57839.32
523.24	58323.81
523.41	58883.20
523.58	59639.19
523.75	59611.10
523.92	59723.45
524.10	59646.21
524.27	59517.48
524.44	59093.85
524.61	58749.79
524.78	59086.82
524.96	58934.69
525.13	59367.69
525.30	59891.97
525.47	60322.63
525.64	59992.61
525.81	58878.52
525.98	57441.43
526.16	55540.91
526.33	55571.34
526.50	54990.89
526.67	55213.24
526.84	56030.08
527.01	56655.01
527.18	57057.58
527.36	58089.76
527.53	58775.53
527.70	58766.17
527.87	58005.50
528.04	58155.29
528.21	58616.38
528.38	59253.00
528.55	60004.31
528.72	60346.03
528.89	60011.34
529.07	60004.31
529.24	59271.73
529.41	58569.57
529.58	58705.32
529.75	58810.64
529.92	59524.50
530.09	59501.10
530.26	59344.28
530.43	59517.48
530.60	60175.17
530.77	59803.03
530.94	59515.14
531.11	59215.55
531.28	58913.62
531.46	59421.52
531.63	59388.75
531.80	58920.65
531.97	58681.91
532.14	57666.12
532.31	56809.48
532.48	56217.33
532.65	56914.81
532.82	57439.09
532.99	59372.37
533.16	59461.31
533.33	59135.98
533.50	59620.47
533.67	58328.49
533.84	58286.36
534.01	58653.82
534.18	58693.61
534.35	58777.87
534.52	58202.10
534.69	58745.11
534.86	58885.54
535.03	59739.83
535.20	59580.68
535.37	60374.12
535.54	60825.84
535.71	59718.77
535.88	59442.59
536.05	58913.62
536.22	58127.20
536.38	58316.79
536.55	58176.36
536.72	57832.30
536.89	57755.06
537.06	58590.63
537.23	59152.36
537.40	58838.73
537.57	59725.79
537.74	59194.49
537.91	59194.49
538.08	58855.11
538.25	59395.77
538.42	59068.10
538.59	58747.45
538.75	58129.54
538.92	57565.48
539.09	57563.14
539.26	57804.21
539.43	58080.39
539.60	57572.50
539.77	58234.87
539.94	57422.70
540.11	56917.15
540.28	56423.29
540.44	57006.09
540.61	57492.92
540.78	57560.79
540.95	57792.51
541.12	56898.42
541.29	57977.41
541.46	58190.40
541.62	58834.05
541.79	57682.50
541.96	56924.17
542.13	57652.08
542.30	58162.31
542.47	58064.01
542.63	57804.21
542.80	57771.44
542.97	57478.88
543.14	57893.15
543.31	58087.42
543.48	58592.97
543.64	59182.79
543.81	59384.07
543.98	59288.11
544.15	58396.37
544.32	58181.04
544.48	58777.87
544.65	58457.22
544.82	58796.60
544.99	58064.01
545.16	58305.09
545.32	58052.31
545.49	58702.98
545.66	59365.35
545.83	58485.31
546.00	58805.96
546.16	58529.78
546.33	58347.21
546.50	57574.84
546.67	58447.86
546.83	58602.33
547.00	58443.18
547.17	56849.27
547.34	56566.07
547.50	56729.90
547.67	57298.65
547.84	57270.57
548.00	58539.14
548.17	58159.97
548.34	58454.88
548.51	58272.32
548.67	57865.06
548.84	58131.89
549.01	58035.92
549.18	57549.09
549.34	57387.60
549.51	57904.85
549.68	57652.08
549.84	57469.51
550.01	56561.39
550.18	56992.04
550.34	57165.24
550.51	57972.73
550.68	57361.85
550.84	57551.43
551.01	57958.69
551.18	57357.17
551.34	57806.55
551.51	58166.99
551.68	57748.04
551.84	58351.90
552.01	58042.95
552.18	57366.53
552.34	56596.49
552.51	56025.40
552.68	56587.13
552.84	56989.70
553.01	57518.67
553.18	56542.66
553.34	57326.74
553.51	57518.67
553.67	57151.20
553.84	57205.03
554.01	57932.94
554.17	57471.85
554.34	57235.46
554.51	57794.85
554.67	57263.55
554.84	57277.59
555.00	56898.42
555.17	57169.93
555.33	57368.87
555.50	57198.01
555.67	57879.11
555.83	57443.77
556.00	56666.71
556.16	56533.30
556.33	56645.65
556.50	56893.74
556.66	57022.47
556.83	56601.18
556.99	56786.08
557.16	56966.30
557.32	57034.17
557.49	57396.96
557.65	56729.90
557.82	57254.18
557.98	57183.97
558.15	56268.82
558.32	55405.16
558.48	54328.52
558.65	54419.80
558.81	54883.22
558.98	54911.31
559.14	54693.64
559.31	55320.90
559.47	55948.17
559.64	54908.97
559.80	54326.17
559.97	54480.65
560.13	55781.99
560.30	56591.81
560.46	57612.29
560.63	57584.20
560.79	58370.62
560.96	56643.30
561.12	56058.17
561.29	55896.67
561.45	55599.43
561.61	56811.82
561.78	56212.65
561.94	56065.19
562.11	54883.22
562.27	54871.52
562.44	55585.38
562.60	55796.03
562.77	56203.28
562.93	55936.46
563.10	56449.04
563.26	56142.43
563.42	56205.62
563.59	55810.07
563.75	55374.73
563.92	55681.34
564.08	56186.90
564.24	56804.80
564.41	54972.16
564.57	56217.33
564.74	55405.16
564.90	55634.53
565.07	54777.90
565.23	54307.45
565.39	53930.62
565.56	54251.28
565.72	54560.23
565.88	54220.85
566.05	55789.01
566.21	54674.91
566.38	55040.04
566.54	55660.28
566.70	55576.02
566.87	55674.32
567.03	56411.59
567.19	56261.80
567.36	55604.11
567.52	55140.68
567.68	55426.23
567.85	54593.00
568.01	54604.70
568.17	54349.58
568.34	54188.08
568.50	53935.30
568.66	53183.99
568.83	53235.48
568.99	53652.10
569.15	54260.64
569.32	54480.65
569.48	54085.10
569.64	54227.87
569.81	54358.94
569.97	54110.85
570.13	53123.14
570.30	52652.69
570.46	52631.63
570.62	52062.88
570.78	52851.64
570.95	52985.05
571.11	53057.60
571.27	52781.42
571.43	53900.20
571.60	54291.07
571.76	53942.33
571.92	54330.86
572.09	53975.09
572.25	53757.42
572.41	54092.12
572.57	54415.11
572.74	55047.06
572.90	53904.88
573.06	54925.35
573.22	55035.36
573.38	54749.81
573.55	54953.44
573.71	54651.51
573.87	54382.35
574.03	53947.01
574.20	53939.99
574.36	52779.08
574.52	53352.51
574.68	52947.60
574.84	52566.09
575.01	52353.10
575.17	53134.84
575.33	53137.18
575.49	53659.12
575.65	53743.38
575.82	52949.94
575.98	52790.78
576.14	53272.93
576.30	53670.82
576.46	53544.44
576.62	52790.78
576.79	52523.96
576.95	53544.44
577.11	52636.31
577.27	52671.42
577.43	52011.38
577.59	52636.31
577.75	53001.43
577.92	51913.08
578.08	51803.08
578.24	51456.68
578.40	51414.55
578.56	51124.32
578.72	52065.22
578.88	52465.45
579.04	52432.68
579.21	52030.11
579.37	51554.98
579.53	51601.79
579.69	51550.30
579.85	51803.08
580.01	51468.38
580.17	51419.23
580.33	52743.97
580.49	52570.77
580.65	52861.00
580.82	52914.83
580.98	52332.04
581.14	51547.96
581.30	51611.15
581.46	51414.55
581.62	51966.91
581.78	52411.62
581.94	52168.20
582.10	51997.34
582.26	51980.96
582.42	52350.76
582.58	52891.43
582.74	52191.61
582.90	51669.67
583.06	53581.88
583.22	52666.73
583.38	52701.84
583.54	52339.06
583.70	52116.71
583.86	51875.63
584.02	51412.21
584.18	51950.53
584.34	51824.14
584.50	51264.75
584.66	51267.09
584.82	50967.51
584.98	51234.33
585.14	50515.78
585.30	50129.59
