SpectraSuite Data File
++++++++++++++++++++++++++++++++++++
Date: Mon Oct 07 14:53:58 GMT-05:00 2013
User: price-jones
Dark Spectrum Present: No
Reference Spectrum Present: No
Number of Sampled Component Spectra: 1
Spectrometers: USB2+H05261
Integration Time (usec): 100000 (USB2+H05261)
Spectra Averaged: 1 (USB2+H05261)
Boxcar Smoothing: 0 (USB2+H05261)
Correct for Electrical Dark: No (USB2+H05261)
Strobe/Lamp Enabled: No (USB2+H05261)
Correct for Detector Non-linearity: No (USB2+H05261)
Correct for Stray Light: No (USB2+H05261)
Number of Pixels in Processed Spectrum: 2048
>>>>>Begin Processed Spectral Data<<<<<
365.73	0.00
365.92	0.00
366.12	0.00
366.32	0.00
366.52	0.00
366.72	0.00
366.91	0.00
367.11	0.00
367.31	0.00
367.51	0.00
367.70	0.00
367.90	0.00
368.10	0.00
368.30	0.00
368.49	0.00
368.69	0.00
368.89	0.00
369.09	0.00
369.28	0.00
369.48	0.00
369.68	0.00
369.87	0.00
370.07	0.00
370.27	0.00
370.47	858.98
370.66	3946.14
370.86	4650.64
371.06	5060.24
371.25	5081.30
371.45	4482.13
371.65	4238.71
371.84	3861.88
372.04	4002.32
372.24	4482.13
372.44	4727.88
372.63	4542.98
372.83	4198.92
373.03	3913.38
373.22	3616.13
373.42	3609.11
373.62	4222.33
373.81	4685.75
374.01	4461.06
374.21	4095.94
374.40	3791.67
374.60	3992.95
374.79	4503.19
374.99	5385.57
375.19	5701.54
375.38	5507.28
375.58	5329.40
375.78	5289.61
375.97	5341.10
376.17	5540.05
376.37	5511.96
376.56	5825.59
376.76	5921.56
376.95	6314.77
377.15	6848.41
377.35	7119.91
377.54	7330.56
377.74	7372.69
377.93	7438.22
378.13	7269.70
378.33	6967.77
378.52	6455.20
378.72	5977.73
378.91	6052.63
379.11	5757.72
379.31	5603.24
379.50	5600.90
379.70	6083.05
379.89	6691.59
380.09	7035.65
380.28	7353.96
380.48	7253.32
380.68	7169.06
380.87	7117.57
381.07	6366.26
381.26	5947.30
381.46	5621.97
381.65	5490.90
381.85	5235.78
382.04	4959.60
382.24	4648.30
382.43	4402.55
382.63	4344.03
382.83	4498.51
383.02	4409.57
383.22	4512.55
383.41	4379.14
383.61	4617.88
383.80	5404.30
384.00	6043.26
384.19	6864.79
384.39	7222.89
384.58	6911.60
384.78	6988.84
384.97	6958.41
385.17	6595.63
385.36	6375.62
385.56	5966.03
385.75	6228.17
385.95	6717.34
386.14	7421.84
386.34	7503.76
386.53	7019.27
386.72	6677.55
386.92	6661.16
387.11	7052.03
387.31	7595.04
387.50	7339.92
387.70	7042.67
387.89	6916.28
388.09	7009.90
388.28	6860.11
388.48	7094.16
388.67	7543.55
388.86	8383.80
389.06	9095.32
389.25	9341.08
389.45	9666.41
389.64	9474.49
389.84	9401.93
390.03	9191.28
390.22	9188.94
390.42	9511.94
390.61	10090.05
390.81	10766.46
391.00	10979.45
391.19	10827.32
391.39	10406.02
391.58	10036.22
391.78	9460.45
391.97	9118.73
392.16	8589.77
392.36	7576.31
392.55	6115.82
392.75	4919.81
392.94	4131.05
393.13	4011.68
393.33	4765.33
393.52	6085.39
393.71	7440.56
393.91	8411.89
394.10	8919.78
394.29	9841.95
394.49	10560.50
394.68	11426.50
394.88	11485.01
395.07	12020.99
395.26	11740.13
395.46	11386.71
395.65	10721.99
395.84	9219.37
396.04	7768.24
396.23	6621.38
396.42	5668.78
396.62	5210.03
396.81	6101.78
397.00	7768.24
397.19	9823.23
397.39	11382.03
397.58	13081.25
397.77	13610.22
397.97	14073.64
398.16	14569.83
398.35	15178.37
398.55	15192.42
398.74	15967.13
398.93	16589.72
399.12	16154.38
399.32	15508.39
399.51	15889.90
399.70	16716.11
399.90	16704.40
400.09	16545.25
400.28	16402.47
400.47	16606.10
400.67	17612.53
400.86	17972.97
401.05	17949.57
401.24	18202.35
401.44	18225.75
401.63	18237.45
401.82	18555.77
402.01	18300.65
402.21	18738.33
402.40	18885.78
402.59	18111.07
402.78	17467.42
402.97	16996.97
403.17	17469.76
403.36	18319.37
403.55	19143.24
403.74	19908.60
403.93	18558.11
404.13	17427.63
404.32	16872.92
404.51	17436.99
404.70	18988.77
404.89	18981.74
405.09	18728.97
405.28	17928.50
405.47	18127.45
405.66	18317.03
405.85	17781.05
406.05	17102.29
406.24	17549.34
406.43	17919.14
406.62	18946.64
406.81	18963.02
407.00	18099.36
407.20	17572.74
407.39	17715.51
407.58	18803.86
407.77	19590.28
407.96	19941.36
408.15	20311.17
408.34	20051.37
408.54	21366.75
408.73	21270.79
408.92	20989.92
409.11	20308.83
409.30	19454.53
409.49	18036.17
409.68	17102.29
409.87	16692.70
410.07	17837.22
410.26	18677.48
410.45	20311.17
410.64	20678.63
410.83	21514.20
411.02	21635.91
411.21	22752.35
411.40	22214.02
411.59	22679.79
411.78	22328.71
411.98	21933.16
412.17	22726.60
412.36	21715.49
412.55	21774.00
412.74	21553.99
412.93	20973.54
413.12	21270.79
413.31	23204.07
413.50	23410.04
413.69	23817.29
413.88	23065.98
414.07	22401.27
414.26	22703.20
414.45	23559.83
414.64	23297.69
414.83	23548.13
415.02	22981.72
415.22	23056.62
415.41	23393.65
415.60	24372.00
415.79	25322.26
415.98	25940.16
416.17	25993.99
416.36	25326.94
416.55	25106.93
416.74	24163.69
416.93	23117.47
417.12	23276.63
417.31	23644.09
417.50	24058.37
417.69	24823.72
417.88	24814.36
418.07	24545.20
418.26	23770.48
418.45	24189.44
418.64	24910.32
418.83	25881.64
419.02	25593.76
419.21	25685.04
419.39	24072.41
419.58	22824.90
419.77	23164.28
419.96	24259.65
420.15	25626.53
420.34	25883.98
420.53	27442.78
420.72	27529.38
420.91	27725.99
421.10	27077.66
421.29	26939.57
421.48	25696.74
421.67	27438.10
421.86	26808.50
422.05	24664.57
422.24	22106.36
422.43	21902.73
422.61	24231.57
422.80	26609.55
422.99	26644.66
423.18	25046.07
423.37	24809.68
423.56	24648.18
423.75	25500.14
423.94	25806.75
424.13	24224.54
424.32	24531.15
424.50	24973.52
424.69	24121.56
424.88	24428.17
425.07	24446.90
425.26	24465.62
425.45	24315.83
425.64	23482.59
425.83	23754.10
426.01	25326.94
426.20	25661.63
426.39	25312.89
426.58	23779.84
426.77	21568.04
426.96	21053.12
427.15	21614.85
427.33	23758.78
427.52	24500.73
427.71	24624.78
427.90	24215.18
428.09	24386.04
428.28	23576.22
428.46	22801.50
428.65	22651.70
428.84	23192.37
429.03	23367.91
429.22	22171.89
429.40	20989.92
429.59	19363.25
429.78	16615.46
429.97	16840.15
430.16	17207.62
430.34	17116.34
430.53	17074.21
430.72	17439.33
430.91	19103.45
431.10	22892.78
431.28	27035.53
431.47	28957.11
431.66	29289.46
431.85	26761.69
432.03	24568.60
432.22	23414.72
432.41	24655.20
432.60	27236.81
432.79	28388.36
432.97	28739.44
433.16	28063.02
433.35	25495.46
433.54	23108.11
433.72	21963.59
433.91	22459.78
434.10	24954.79
434.28	26691.47
434.47	28348.57
434.66	27821.95
434.85	27051.91
435.03	26937.23
435.22	27887.48
435.41	29179.46
435.59	29432.24
435.78	29596.07
435.97	30305.26
436.16	30656.34
436.34	30462.07
436.53	29497.77
436.72	29659.27
436.90	27995.15
437.09	28016.21
437.28	27386.61
437.46	28360.27
437.65	28180.05
437.84	26356.77
438.02	24049.00
438.21	24353.27
438.40	25986.97
438.58	27824.29
438.77	28498.36
438.96	28987.53
439.14	29577.35
439.33	30377.81
439.52	31035.50
439.70	30298.23
439.89	29710.76
440.08	28350.91
440.26	28556.88
440.45	29502.45
440.63	31744.69
440.82	33371.36
441.01	32849.42
441.19	32240.88
441.38	32723.03
441.57	33656.90
441.75	34574.39
441.94	34677.38
442.12	34153.10
442.31	35152.51
442.50	35367.84
442.68	34232.68
442.87	34043.09
443.05	33722.44
443.24	34225.65
443.43	34525.24
443.61	35454.44
443.80	35807.86
443.98	34078.20
444.17	33780.95
444.35	35711.89
444.54	36381.29
444.73	35995.10
444.91	34787.38
445.10	33563.28
445.28	31749.37
445.47	31473.18
445.65	31468.50
445.84	32315.78
446.02	33500.09
446.21	33722.44
446.39	33972.88
446.58	34143.74
446.77	34951.22
446.95	35119.74
447.14	36444.48
447.32	36804.92
447.51	36189.36
447.69	34637.59
447.88	33921.38
448.06	34759.30
448.25	35496.56
448.43	35826.58
448.62	34824.83
448.80	35049.52
448.99	35054.20
449.17	35709.55
449.36	35606.57
449.54	36978.12
449.73	37481.34
449.91	37886.25
450.10	38469.04
450.28	39412.28
450.46	38888.00
450.65	38941.83
450.83	39026.09
451.02	37975.19
451.20	37474.32
451.39	37797.31
451.57	37397.08
451.76	37525.81
451.94	37092.81
452.13	36624.70
452.31	34995.69
452.49	33233.27
452.68	34082.88
452.86	33858.19
453.05	34274.80
453.23	35157.19
453.42	36147.23
453.60	36910.25
453.78	37525.81
453.97	37090.47
454.15	36779.18
454.34	36334.48
454.52	36411.71
454.70	35365.49
454.89	36095.74
455.07	35903.82
455.26	36697.26
455.44	37806.67
455.62	38389.47
455.81	38976.94
455.99	38295.85
456.17	38337.98
456.36	38202.22
456.54	38806.08
456.73	38789.70
456.91	39917.84
457.09	39871.03
457.28	40823.62
457.46	39145.46
457.64	38876.30
457.83	37668.58
458.01	36699.60
458.19	37624.11
458.38	37876.89
458.56	39009.71
458.74	39119.71
458.93	38440.96
459.11	38115.62
459.29	38291.16
459.48	37853.48
459.66	38265.42
459.84	38436.28
460.03	38583.73
460.21	38834.17
460.39	39494.20
460.57	39627.61
460.76	40154.23
460.94	40605.95
461.12	39983.37
461.31	39627.61
461.49	39908.47
461.67	40020.82
461.85	40517.01
462.04	40980.44
462.22	40910.22
462.40	40912.56
462.59	40591.91
462.77	40847.03
462.95	40678.51
463.13	40222.11
463.32	39763.36
463.50	39473.13
463.68	39676.76
463.86	40053.59
464.05	39311.64
464.23	38436.28
464.41	38473.73
464.59	37493.04
464.78	39370.15
464.96	39234.40
465.14	39086.95
465.32	39962.31
465.50	40634.04
465.69	41116.19
465.87	40502.97
466.05	39470.79
466.23	37755.18
466.41	36919.61
466.60	37628.79
466.78	37656.88
466.96	38469.04
467.14	39154.82
467.32	39585.48
467.51	39997.41
467.69	37823.06
467.87	38490.11
468.05	39124.40
468.23	39363.13
468.41	39356.11
468.60	39564.42
468.78	39583.14
468.96	39405.26
469.14	40177.64
469.32	39948.26
469.50	38431.60
469.69	38862.26
469.87	38286.48
470.05	37958.81
470.23	38300.53
470.41	38181.16
470.59	38462.02
470.77	38815.44
470.95	39732.93
471.14	39929.54
471.32	40229.13
471.50	42136.66
471.68	42314.55
471.86	42433.91
472.04	43122.03
472.22	43028.41
472.40	40608.29
472.58	40533.40
472.77	40198.70
472.95	40730.00
473.13	42120.28
473.31	40800.22
473.49	40896.18
473.67	41792.61
473.85	42183.48
474.03	43236.72
474.21	43407.58
474.39	43618.22
474.57	43821.85
474.75	43667.37
474.93	43239.06
475.12	42663.28
475.30	42595.41
475.48	42572.00
475.66	43592.48
475.84	42738.18
476.02	42361.36
476.20	42148.37
476.38	42672.65
476.56	43796.10
476.74	44081.65
476.92	44486.56
477.10	45420.44
477.28	46007.91
477.46	46274.73
477.64	46930.08
477.82	47021.36
478.00	46941.78
478.18	46450.27
478.36	46169.41
478.54	46024.29
478.72	46412.82
478.90	47510.53
479.08	48828.26
479.26	49029.54
479.44	48701.87
479.62	48549.73
479.80	48523.99
479.98	48776.76
480.16	49123.16
480.34	48439.73
480.52	49151.25
480.70	49338.49
480.88	49581.91
481.06	50054.70
481.24	50178.75
481.41	50628.13
481.59	51412.21
481.77	51470.72
481.95	50611.74
482.13	50501.74
482.31	50562.59
482.49	51236.67
482.67	51077.51
482.85	51126.66
483.03	51877.97
483.21	52058.20
483.39	52170.54
483.57	50862.18
483.74	51519.87
483.92	51194.54
484.10	51489.45
484.28	52416.30
484.46	52577.79
484.64	52776.74
484.82	51840.53
485.00	51782.01
485.18	51187.52
485.35	50071.08
485.53	47196.90
485.71	43805.47
485.89	42787.33
486.07	44713.59
486.25	48121.41
486.43	50197.47
486.61	50894.95
486.78	50791.97
486.96	51004.95
487.14	52144.80
487.32	53172.29
487.50	53869.77
487.68	54581.29
487.85	54890.24
488.03	55035.36
488.21	54637.47
488.39	54218.51
488.57	53354.85
488.75	53366.55
488.92	54115.53
489.10	56058.17
489.28	57132.48
489.46	57619.31
489.64	57572.50
489.81	57780.81
489.99	57329.08
490.17	57563.14
490.35	57574.84
490.53	57296.31
490.70	56748.63
490.88	56795.44
491.06	57544.41
491.24	57811.23
491.41	56580.11
491.59	55463.67
491.77	54955.78
491.95	55564.32
492.13	56678.41
492.30	57712.93
492.48	58424.45
492.66	58965.12
492.84	58712.34
493.01	58637.44
493.19	58141.25
493.37	57808.89
493.54	57659.10
493.72	58323.81
493.90	59138.32
494.08	59517.48
494.25	59810.05
494.43	60151.77
494.61	60526.25
494.79	60547.32
494.96	60273.48
495.14	59849.84
495.32	59042.35
495.49	58375.30
495.67	59395.77
495.85	60449.02
496.02	60865.63
496.20	60633.92
496.38	60168.15
496.55	60315.61
496.73	60486.46
496.91	60809.46
497.09	61148.84
497.26	61303.31
497.44	60900.74
497.62	60526.25
497.79	59873.24
497.97	58831.71
498.14	58944.05
498.32	59655.57
498.50	60610.51
498.67	61286.93
498.85	61134.79
499.03	61209.69
499.20	61221.39
499.38	61319.70
499.56	61158.20
499.73	60938.19
499.91	60467.74
500.08	59976.23
500.26	59435.56
500.44	59681.32
500.61	60427.95
500.79	60168.15
500.97	59831.11
501.14	59765.58
501.32	59437.90
501.49	59501.10
501.67	59737.49
501.84	60266.45
502.02	60526.25
502.20	60772.01
502.37	60879.67
502.55	61001.38
502.72	61535.02
502.90	61949.30
503.07	61682.48
503.25	61315.01
503.43	60523.91
503.60	59901.33
503.78	59192.15
503.95	59522.16
504.13	60867.97
504.30	61825.25
504.48	61420.34
504.65	61024.79
504.83	61261.18
505.01	61719.93
505.18	62010.15
505.36	62459.54
505.53	62403.36
505.71	62934.66
505.88	62906.58
506.06	62190.37
506.23	61911.85
506.41	61626.31
506.58	61801.85
506.76	61621.62
506.93	61701.20
507.11	61518.64
507.28	61684.82
507.46	61434.38
507.63	60734.56
507.81	60458.38
507.98	60793.07
508.16	61242.46
508.33	61822.91
508.50	62054.62
508.68	62529.75
508.85	62887.85
509.03	62827.00
509.20	62824.66
509.38	62035.90
509.55	61506.94
509.73	61605.24
509.90	62026.54
510.08	62253.57
510.25	62220.80
510.42	61853.34
510.60	61621.62
510.77	62007.81
510.95	62665.50
511.12	62780.19
511.30	62883.17
511.47	63159.36
511.64	63236.59
511.82	62929.98
511.99	62059.30
512.17	61829.93
512.34	61228.41
512.51	61607.58
512.69	61675.46
512.86	61623.96
513.04	62255.91
513.21	62216.12
513.38	61872.06
513.56	61506.94
513.73	60741.58
513.90	61071.60
514.08	61443.74
514.25	61441.40
514.43	61691.84
514.60	61703.54
514.77	61855.68
514.95	61822.91
515.12	61687.16
515.29	61935.26
515.47	62335.49
515.64	62808.28
515.81	62188.03
515.99	61764.40
516.16	60521.57
516.33	58457.22
516.51	57263.55
516.68	56559.05
516.85	55978.59
517.03	56477.13
517.20	58717.02
517.37	61045.85
517.54	61858.02
517.72	61642.69
517.89	59323.22
518.06	57162.90
518.24	57492.92
518.41	59416.84
518.58	60484.12
518.75	60781.37
518.93	60945.21
519.10	60874.99
519.27	61354.80
519.45	61502.26
519.62	62021.86
519.79	62218.46
519.96	62218.46
520.14	61890.79
520.31	60949.89
520.48	60942.87
520.65	61151.18
520.83	62347.19
521.00	62759.12
521.17	62232.50
521.34	61820.57
521.52	62101.43
521.69	62735.72
521.86	62857.43
522.03	62515.71
522.20	61441.40
522.38	60687.75
522.55	60779.03
522.72	61209.69
522.89	61233.10
523.07	61614.60
523.24	61675.46
523.41	62436.13
523.58	62724.02
523.75	63374.69
523.92	63037.65
524.10	63196.80
524.27	63051.69
524.44	62876.15
524.61	62740.40
524.78	62405.70
524.96	62461.88
525.13	62506.35
525.30	62768.49
525.47	63091.48
525.64	62990.84
525.81	62398.68
525.98	61193.31
526.16	59746.86
526.33	59238.96
526.50	58784.90
526.67	58632.76
526.84	59147.68
527.01	59952.82
527.18	60690.09
527.36	61490.55
527.53	62298.04
527.70	62506.35
527.87	62138.88
528.04	61731.63
528.21	62096.75
528.38	62588.27
528.55	63297.45
528.72	63320.85
528.89	63725.77
529.07	63243.62
529.24	62562.52
529.41	62066.33
529.58	61701.20
529.75	61719.93
529.92	62197.40
530.09	62307.40
530.26	62887.85
530.43	63173.40
530.60	63117.23
530.77	63451.92
530.94	63334.90
531.11	63206.17
531.28	62646.78
531.46	62340.17
531.63	62670.18
531.80	62536.77
531.97	62134.20
532.14	61612.26
532.31	60580.09
532.48	60186.88
532.65	60013.68
532.82	60715.84
532.99	61724.61
533.16	62155.27
533.33	62602.31
533.50	62403.36
533.67	61944.62
533.84	61371.19
534.01	61680.14
534.18	61846.32
534.35	61942.28
534.52	61881.42
534.69	62007.81
534.86	62485.28
535.03	62560.18
535.20	63061.05
535.37	63175.74
535.54	63491.71
535.71	62939.35
535.88	62724.02
536.05	62335.49
536.22	61935.26
536.38	61715.25
536.55	61174.58
536.72	60582.43
536.89	60662.00
537.06	61410.98
537.23	62042.92
537.40	62281.66
537.57	62248.89
537.74	62101.43
537.91	61937.60
538.08	61977.39
538.25	61897.81
538.42	62253.57
538.59	61893.13
538.75	61490.55
538.92	61193.31
539.09	61127.77
539.26	61071.60
539.43	60828.18
539.60	60933.51
539.77	61057.56
539.94	60945.21
540.11	60346.03
540.28	60006.65
540.44	59908.35
540.61	59920.05
540.78	60294.54
540.95	60652.64
541.12	61139.47
541.29	61216.71
541.46	61506.94
541.62	61579.49
541.79	61230.75
541.96	60853.93
542.13	60678.39
542.30	61212.03
542.47	61249.48
542.63	61006.06
542.80	60814.14
542.97	60954.57
543.14	60727.54
543.31	60769.67
543.48	61347.78
543.64	62099.09
543.81	62291.02
543.98	62162.29
544.15	61635.67
544.32	60921.80
544.48	61155.86
544.65	61689.50
544.82	61862.70
544.99	61467.15
545.16	61146.50
545.32	60846.91
545.49	61666.09
545.66	61846.32
545.83	61666.09
546.00	61307.99
546.16	61134.79
546.33	61069.26
546.50	61013.08
546.67	61322.04
546.83	61127.77
547.00	60919.46
547.17	60626.90
547.34	60027.72
547.50	59931.76
547.67	60523.91
547.84	60568.38
548.00	60863.29
548.17	61254.16
548.34	61062.24
548.51	61127.77
548.67	61069.26
548.84	61069.26
549.01	60975.64
549.18	60994.36
549.34	60921.80
549.51	60933.51
549.68	60856.27
549.84	60559.02
550.01	60757.97
550.18	60427.95
550.34	60355.39
550.51	60633.92
550.68	60678.39
550.84	60177.51
551.01	60322.63
551.18	60058.15
551.34	60420.93
551.51	60676.05
551.68	61062.24
551.84	61006.06
552.01	60947.55
552.18	60575.40
552.34	59957.50
552.51	59873.24
552.68	59627.49
552.84	60109.64
553.01	60334.33
553.18	60280.50
553.34	60229.01
553.51	60519.23
553.67	60647.96
553.84	60786.05
554.01	60837.54
554.17	60308.58
554.34	60477.10
554.51	60652.64
554.67	60882.02
554.84	60750.94
555.00	60301.56
555.17	60289.86
555.33	60196.24
555.50	60324.97
555.67	60327.31
555.83	60090.91
556.00	59833.46
556.16	59798.35
556.33	59334.92
556.50	59271.73
556.66	59297.47
556.83	59047.04
556.99	59091.51
557.16	59365.35
557.32	59540.89
557.49	59749.20
557.65	59587.70
557.82	59536.21
557.98	59524.50
558.15	59018.95
558.32	58518.07
558.48	57640.37
558.65	58000.82
558.81	58237.21
558.98	58316.79
559.14	58693.61
559.31	58557.86
559.47	58850.43
559.64	58288.70
559.80	58192.74
559.97	58220.83
560.13	58431.47
560.30	59288.11
560.46	59660.26
560.63	60037.08
560.79	59772.60
560.96	59662.60
561.12	58623.40
561.29	57801.87
561.45	58120.18
561.61	58342.53
561.78	59000.22
561.94	58717.02
562.11	58454.88
562.27	58422.11
562.44	58721.70
562.60	59042.35
562.77	59171.08
562.93	59018.95
563.10	59028.31
563.26	58431.47
563.42	58426.79
563.59	58344.87
563.75	58267.64
563.92	58508.71
564.08	58471.26
564.24	58279.34
564.41	58590.63
564.57	58461.90
564.74	58307.43
564.90	58342.53
565.07	58136.57
565.23	57661.44
565.39	57221.42
565.56	57001.41
565.72	56804.80
565.88	57244.82
566.05	57293.97
566.21	57324.40
566.38	57710.59
566.54	57977.41
566.70	58033.58
566.87	58019.54
567.03	58286.36
567.19	58354.24
567.36	58169.33
567.52	57923.58
567.68	58000.82
567.85	57190.99
568.01	56647.99
568.17	56563.73
568.34	56491.17
568.50	56423.29
568.66	56458.40
568.83	57270.57
568.99	56917.15
569.15	57207.37
569.32	57116.09
569.48	56940.55
569.64	56601.18
569.81	56542.66
569.97	56149.45
570.13	56282.86
570.30	55789.01
570.46	55641.56
570.62	55178.13
570.78	54789.60
570.95	55180.47
571.11	55828.80
571.27	56203.28
571.43	56224.35
571.60	56360.10
571.76	56797.78
571.92	56907.79
572.09	57195.67
572.25	57102.05
572.41	56947.57
572.57	56921.83
572.74	56952.26
572.90	56456.06
573.06	56486.49
573.22	56439.68
573.38	56371.80
573.55	56601.18
573.71	56736.93
573.87	56456.06
574.03	56320.31
574.20	56254.78
574.36	56058.17
574.52	55969.23
574.68	55948.17
574.84	55538.57
575.01	55028.34
575.17	54920.67
575.33	55288.13
575.49	55021.31
575.65	55437.93
575.82	55096.21
575.98	55253.03
576.14	55344.31
576.30	55660.28
576.46	55807.73
576.62	55831.14
576.79	55508.14
576.95	54962.80
577.11	55337.29
577.27	55217.92
577.43	55463.67
577.59	55253.03
577.75	54756.83
577.92	53932.96
578.08	53694.23
578.24	53841.68
578.40	54372.99
578.56	54625.76
578.72	54361.28
578.88	54564.91
579.04	54997.91
579.21	54944.08
579.37	55168.77
579.53	55330.26
579.69	55358.35
579.85	55309.20
580.01	55072.81
580.17	54497.03
580.33	54773.22
580.49	54438.52
580.65	54866.84
580.82	55077.49
580.98	55054.08
581.14	54824.71
581.30	54787.26
581.46	54616.40
581.62	55056.42
581.78	54700.66
581.94	55299.84
582.10	54972.16
582.26	55199.19
582.42	55056.42
582.58	55187.49
582.74	55004.93
582.90	55021.31
583.06	54852.80
583.22	54621.08
583.38	54967.48
583.54	54660.87
583.70	54611.72
583.86	54843.43
584.02	54506.40
584.18	54890.24
584.34	54590.66
584.50	54578.95
584.66	54260.64
584.82	54136.59
584.98	53834.66
585.14	53558.48
