SpectraSuite Data File
++++++++++++++++++++++++++++++++++++
Date: Mon Oct 07 14:53:54 GMT-05:00 2013
User: price-jones
Dark Spectrum Present: No
Reference Spectrum Present: No
Number of Sampled Component Spectra: 1
Spectrometers: USB2+H05261
Integration Time (usec): 100000 (USB2+H05261)
Spectra Averaged: 1 (USB2+H05261)
Boxcar Smoothing: 0 (USB2+H05261)
Correct for Electrical Dark: No (USB2+H05261)
Strobe/Lamp Enabled: No (USB2+H05261)
Correct for Detector Non-linearity: No (USB2+H05261)
Correct for Stray Light: No (USB2+H05261)
Number of Pixels in Processed Spectrum: 2048
>>>>>Begin Processed Spectral Data<<<<<
365.73	0.00
365.92	0.00
366.12	0.00
366.32	0.00
366.52	0.00
366.72	0.00
366.91	0.00
367.11	0.00
367.31	0.00
367.51	0.00
367.70	0.00
367.90	0.00
368.10	0.00
368.30	0.00
368.49	0.00
368.69	0.00
368.89	0.00
369.09	0.00
369.28	0.00
369.48	0.00
369.68	0.00
369.87	0.00
370.07	0.00
370.27	0.00
370.47	533.64
370.66	3087.17
370.86	3421.86
371.06	3789.33
371.25	3918.06
371.45	3482.72
371.65	3183.13
371.84	2984.18
372.04	3129.30
372.24	3433.57
372.44	3618.47
372.63	3574.00
372.83	3400.80
373.03	3030.99
373.22	2663.53
373.42	2731.41
373.62	3070.78
373.81	3625.49
374.01	3630.17
374.21	3232.28
374.40	2832.05
374.60	3204.19
374.79	3445.27
374.99	4046.79
375.19	4505.53
375.38	4400.21
375.58	4138.07
375.78	4245.73
375.97	4074.87
376.17	4355.74
376.37	4306.59
376.56	4470.42
376.76	4664.69
376.95	4938.53
377.15	5245.14
377.35	5413.66
377.54	5638.35
377.74	6024.54
377.93	5865.38
378.13	5682.82
378.33	5448.77
378.52	5104.71
378.72	4851.93
378.91	4814.48
379.11	4622.56
379.31	4362.76
379.50	4486.81
379.70	4786.40
379.89	5404.30
380.09	5392.59
380.28	5659.42
380.48	5832.62
380.68	5727.29
380.87	5526.00
381.07	5132.79
381.26	4692.77
381.46	4383.82
381.65	4215.30
381.85	4072.53
382.04	3857.20
382.24	3831.46
382.43	3564.64
382.63	3368.03
382.83	3452.29
383.02	3487.40
383.22	3440.59
383.41	3417.18
383.61	3726.13
383.80	4276.16
384.00	4833.21
384.19	5329.40
384.39	5689.84
384.58	5738.99
384.78	5497.92
384.97	5591.54
385.17	5259.18
385.36	4835.55
385.56	4784.06
385.75	4896.40
385.95	5413.66
386.14	5921.56
386.34	5818.57
386.53	5526.00
386.72	5235.78
386.92	5287.27
387.11	5523.66
387.31	5905.17
387.50	5673.46
387.70	5537.71
387.89	5621.97
388.09	5476.85
388.28	5699.20
388.48	5631.33
388.67	6026.88
388.86	6794.58
389.06	7042.67
389.25	7665.25
389.45	7740.15
389.64	7609.08
389.84	7346.94
390.03	7604.40
390.22	7358.64
390.42	7517.80
390.61	8077.19
390.81	8802.75
391.00	8772.33
391.19	8676.37
391.39	8540.61
391.58	8011.65
391.78	7452.27
391.97	7346.94
392.16	6829.68
392.36	6270.30
392.55	5050.88
392.75	3999.98
392.94	3379.73
393.13	3213.56
393.33	3831.46
393.52	4807.46
393.71	6043.26
393.91	6822.66
394.10	7227.57
394.29	7887.61
394.49	8498.49
394.68	8968.93
394.88	9188.94
395.07	9607.90
395.26	9462.79
395.46	9139.79
395.65	8645.94
395.84	7688.66
396.04	6434.13
396.23	5308.34
396.42	4266.80
396.62	4196.58
396.81	4730.22
397.00	6228.17
397.19	7948.46
397.39	9406.61
397.58	10649.44
397.77	11026.26
397.97	11353.94
398.16	11562.25
398.35	12114.61
398.55	12327.60
398.74	12917.42
398.93	13254.45
399.12	12713.79
399.32	12425.90
399.51	12699.75
399.70	13565.74
399.90	13479.15
400.09	13790.44
400.28	13291.90
400.47	13516.59
400.67	14513.66
400.86	14684.52
401.05	14635.37
401.24	14527.71
401.44	14965.39
401.63	14750.06
401.82	15030.92
402.01	14743.03
402.21	14916.23
402.40	15290.72
402.59	14597.92
402.78	13827.88
402.97	13659.37
403.17	14132.15
403.36	15028.58
403.55	15318.81
403.74	15917.98
403.93	15051.99
404.13	13987.04
404.32	13511.91
404.51	14518.34
404.70	15337.53
404.89	15279.02
405.09	14967.73
405.28	14607.28
405.47	14579.20
405.66	14611.96
405.85	14370.89
406.05	13937.89
406.24	14174.28
406.43	14621.33
406.62	15342.21
406.81	15281.36
407.00	14630.69
407.20	14548.77
407.39	14431.74
407.58	15180.71
407.77	15887.56
407.96	16360.34
408.15	16435.24
408.34	16439.92
408.54	17277.83
408.73	17352.73
408.92	17083.57
409.11	16805.05
409.30	15789.25
409.49	14944.32
409.68	13666.39
409.87	13312.97
410.07	14190.67
410.26	15616.05
410.45	16224.59
410.64	16769.94
410.83	17373.80
411.02	17853.61
411.21	18541.72
411.40	18071.28
411.59	18251.50
411.78	17989.36
411.98	18017.44
412.17	18148.51
412.36	17731.90
412.55	18031.49
412.74	17570.40
412.93	17181.87
413.12	17284.86
413.31	19147.92
413.50	19082.39
413.69	19894.55
413.88	18565.13
414.07	18221.07
414.26	18464.49
414.45	19166.65
414.64	19131.54
414.83	19150.26
415.02	18822.59
415.22	18860.04
415.41	19206.44
415.60	19585.60
415.79	20577.99
415.98	21151.42
416.17	21200.57
416.36	20463.30
416.55	20189.46
416.74	19740.08
416.93	19112.81
417.12	19274.31
417.31	19255.59
417.50	19520.07
417.69	20088.82
417.88	20053.71
418.07	19880.51
418.26	19534.11
418.45	19882.85
418.64	20498.41
418.83	21205.25
419.02	20711.40
419.21	20978.22
419.39	19777.53
419.58	19030.90
419.77	19056.64
419.96	19653.48
420.15	20814.38
420.34	21453.35
420.53	22061.89
420.72	22750.01
420.91	22225.73
421.10	22218.71
421.29	21965.93
421.48	20978.22
421.67	22335.73
421.86	21923.80
422.05	20472.67
422.24	18211.71
422.43	17980.00
422.61	19667.52
422.80	21694.43
422.99	21518.89
423.18	20819.07
423.37	20262.02
423.56	20313.51
423.75	20992.26
423.94	20781.62
424.13	19824.34
424.32	20088.82
424.50	19941.36
424.69	20184.78
424.88	20049.03
425.07	20205.84
425.26	19934.34
425.45	19990.52
425.64	19309.42
425.83	19173.67
426.01	20709.06
426.20	21200.57
426.39	21212.28
426.58	19351.55
426.77	18080.64
426.96	17242.73
427.15	17975.31
427.33	19253.25
427.52	20009.24
427.71	20343.94
427.90	19939.02
428.09	19683.91
428.28	19536.45
428.46	18607.26
428.65	18558.11
428.84	18906.85
429.03	19325.80
429.22	18195.32
429.40	17387.84
429.59	15594.99
429.78	13699.16
429.97	13809.16
430.16	14029.17
430.34	14200.03
430.53	14171.94
430.72	14459.83
430.91	15859.47
431.10	18768.76
431.28	22221.05
431.47	23775.16
431.66	24208.16
431.85	22068.91
432.03	20395.43
432.22	19379.64
432.41	20079.46
432.60	22317.01
432.79	23021.51
432.97	23613.66
433.16	23089.38
433.35	21186.53
433.54	19103.45
433.72	17633.60
433.91	18141.49
434.10	20318.19
434.28	22068.91
434.47	23180.67
434.66	23150.24
434.85	22141.47
435.03	22354.46
435.22	22946.61
435.41	23913.25
435.59	24107.52
435.78	24615.41
435.97	24861.17
436.16	25261.40
436.34	24870.53
436.53	24240.93
436.72	24341.57
436.90	23054.28
437.09	22923.21
437.28	22382.54
437.46	23386.63
437.65	23271.95
437.84	21656.98
438.02	20123.93
438.21	19857.10
438.40	20943.11
438.58	22625.96
438.77	23199.39
438.96	23405.36
439.14	24339.23
439.33	25048.41
439.52	25717.81
439.70	25017.99
439.89	24238.59
440.08	23735.37
440.26	23723.67
440.45	24402.43
440.63	25797.38
440.82	27452.14
441.01	26775.73
441.19	26906.80
441.38	27147.87
441.57	28329.84
441.75	28240.90
441.94	28510.07
442.12	28629.43
442.31	29064.77
442.50	28957.11
442.68	28772.21
442.87	28147.28
443.05	27688.54
443.24	28402.40
443.43	29046.05
443.61	29090.52
443.80	29832.47
443.98	28212.82
444.17	28060.68
444.35	29699.06
444.54	30146.10
444.73	29970.56
444.91	28510.07
445.10	27370.22
445.28	26565.08
445.47	25682.70
445.65	25919.09
445.84	26377.84
446.02	27866.42
446.21	27835.99
446.39	28261.97
446.58	28278.35
446.77	29034.35
446.95	29443.94
447.14	30036.09
447.32	30574.42
447.51	30078.22
447.69	28561.56
447.88	28371.97
448.06	28524.11
448.25	29219.25
448.43	29806.72
448.62	29043.71
448.80	28662.20
448.99	29102.22
449.17	29373.72
449.36	29001.58
449.54	30455.05
449.73	31082.31
449.91	31218.07
450.10	32105.13
450.28	32540.47
450.46	32322.80
450.65	32144.92
450.83	31796.18
451.02	31552.76
451.20	31477.86
451.39	31262.54
451.57	30789.75
451.76	31253.17
451.94	30670.38
452.13	30291.21
452.31	28954.77
452.49	27379.59
452.68	27990.47
452.86	28149.62
453.05	28566.24
453.23	29158.39
453.42	29668.63
453.60	30616.55
453.78	30745.28
453.97	30494.84
454.15	30211.64
454.34	30064.18
454.52	30106.31
454.70	29195.84
454.89	29979.92
455.07	29979.92
455.26	30478.46
455.44	30754.64
455.62	32130.87
455.81	32236.20
455.99	32175.34
456.17	31445.10
456.36	31789.16
456.54	32554.51
456.73	32418.76
456.91	32893.89
457.09	33214.54
457.28	33727.12
457.46	32648.13
457.64	31934.27
457.83	31124.44
458.01	30396.54
458.19	31419.35
458.38	31627.66
458.56	32790.91
458.74	32563.87
458.93	31639.36
459.11	31906.18
459.29	31180.62
459.48	31747.03
459.66	31697.88
459.84	31894.48
460.03	32240.88
460.21	32470.25
460.39	32683.24
460.57	32975.81
460.76	33422.85
460.94	33635.84
461.12	32652.81
461.31	33106.88
461.49	33219.22
461.67	33127.94
461.85	34169.48
462.04	33787.97
462.22	34345.02
462.40	33909.68
462.59	33834.78
462.77	33820.74
462.95	34143.74
463.13	33380.72
463.32	33284.76
463.50	33020.28
463.68	33268.37
463.86	33029.64
464.05	32751.12
464.23	31842.99
464.41	31810.22
464.59	31330.41
464.78	32828.35
464.96	32968.79
465.14	32491.32
465.32	33434.55
465.50	33624.14
465.69	34167.14
465.87	33462.64
466.05	32788.56
466.23	31442.76
466.41	30464.41
466.60	31543.40
466.78	31440.42
466.96	32135.56
467.14	32144.92
467.32	33099.86
467.51	33254.33
467.69	31634.68
467.87	32238.54
468.05	32870.48
468.23	32573.24
468.41	32978.15
468.60	32900.91
468.78	33324.55
468.96	32582.60
469.14	33291.78
469.32	33446.26
469.50	32332.16
469.69	32121.51
469.87	31440.42
470.05	31742.35
470.23	31976.40
470.41	31681.49
470.59	31981.08
470.77	32091.09
470.95	33106.88
471.14	33717.76
471.32	33228.59
471.50	35323.36
471.68	35585.50
471.86	35679.13
472.04	36011.48
472.22	35585.50
472.40	34359.06
472.58	33886.28
472.77	33570.30
472.95	34338.00
473.13	35068.25
473.31	34316.93
473.49	34223.31
473.67	35112.72
473.85	35136.12
474.03	36098.08
474.21	36259.58
474.39	36505.34
474.57	36978.12
474.75	36863.44
474.93	36444.48
475.12	35335.07
475.30	35576.14
475.48	35756.36
475.66	36648.11
475.84	35957.65
476.02	35386.56
476.20	35014.41
476.38	35871.05
476.56	36732.37
476.74	37287.07
476.92	37460.27
477.10	37972.85
477.28	39206.31
477.46	38883.32
477.64	39725.91
477.82	39007.37
478.00	39732.93
478.18	38768.63
478.36	39068.22
478.54	39089.29
478.72	39232.06
478.90	40128.48
479.08	41518.76
479.26	42033.68
479.44	41294.07
479.62	41008.53
479.80	41280.03
479.98	41165.34
480.16	41603.02
480.34	41219.17
480.52	41879.21
480.70	41914.31
480.88	41874.52
481.06	42754.57
481.24	43363.11
481.41	43859.30
481.59	44404.64
481.77	44514.65
481.95	43405.23
482.13	43377.15
482.31	43428.64
482.49	44538.05
482.67	43910.79
482.85	44512.31
483.03	44797.85
483.21	45509.38
483.39	45162.98
483.57	44896.16
483.74	44149.53
483.92	44409.32
484.10	44718.28
484.28	45308.09
484.46	46007.91
484.64	46302.82
484.82	45743.43
485.00	45329.16
485.18	44186.97
485.35	42951.17
485.53	39861.66
485.71	36500.65
485.89	35667.42
486.07	37500.06
486.25	41312.80
486.43	43030.75
486.61	43880.36
486.78	43896.75
486.96	44479.54
487.14	45918.97
487.32	46522.83
487.50	47971.62
487.68	48842.30
487.85	49078.69
488.03	49244.87
488.21	48744.00
488.39	47700.12
488.57	47079.88
488.75	47089.24
488.92	47903.74
489.10	50300.45
489.28	51810.10
489.46	52259.48
489.64	52268.84
489.81	52638.65
489.99	51973.94
490.17	52067.56
490.35	52500.56
490.53	51868.61
490.70	51571.36
490.88	51503.49
491.06	52505.24
491.24	52678.44
491.41	51063.47
491.59	49633.40
491.77	48594.20
491.95	49993.84
492.13	51220.28
492.30	52472.47
492.48	53628.69
492.66	53954.03
492.84	53741.04
493.01	53499.97
493.19	53024.84
493.37	52346.08
493.54	52346.08
493.72	53282.30
493.90	54096.80
494.08	54607.04
494.25	55112.59
494.43	55271.75
494.61	55613.47
494.79	55903.70
494.96	55522.19
495.14	55194.51
495.32	54162.34
495.49	53640.40
495.67	54506.40
495.85	55803.05
496.02	56226.69
496.20	56083.92
496.38	55437.93
496.55	55402.82
496.73	55913.06
496.91	56175.20
497.09	56540.32
497.26	56865.66
497.44	56264.14
497.62	55896.67
497.79	55089.19
497.97	53719.98
498.14	53738.70
498.32	55178.13
498.50	55746.88
498.67	56626.92
498.85	56561.39
499.03	56722.88
499.20	56753.31
499.38	56821.19
499.56	56502.87
499.73	56112.00
499.91	55660.28
500.08	55463.67
500.26	54478.31
500.44	54913.65
500.61	55482.40
500.79	55496.44
500.97	55009.61
501.14	55065.78
501.32	54880.88
501.49	54693.64
501.67	54885.56
501.84	55597.09
502.02	55880.29
502.20	56392.87
502.37	56451.38
502.55	56360.10
502.72	56491.17
502.90	57050.56
503.07	56856.29
503.25	56570.75
503.43	55524.53
503.60	55203.88
503.78	54457.24
503.95	55037.70
504.13	56196.26
504.30	57183.97
504.48	56842.25
504.65	56638.62
504.83	56596.49
505.01	57109.07
505.18	57593.56
505.36	58054.65
505.53	58239.55
505.71	58347.21
505.88	58408.07
506.06	57984.43
506.23	57366.53
506.41	57303.34
506.58	57422.70
506.76	57375.89
506.93	57441.43
507.11	57284.61
507.28	57116.09
507.46	56746.29
507.63	56179.88
507.81	56107.32
507.98	56268.82
508.16	56999.07
508.33	57476.54
508.50	57851.02
508.68	58148.27
508.85	58571.91
509.03	58389.34
509.20	58379.98
509.38	57757.40
509.55	56975.66
509.73	56985.02
509.90	57757.40
510.08	57909.53
510.25	57567.82
510.42	57640.37
510.60	57443.77
510.77	57696.55
510.95	58232.53
511.12	58417.43
511.30	58684.25
511.47	58871.49
511.64	58644.46
511.82	58599.99
511.99	57755.06
512.17	57310.36
512.34	56868.00
512.51	57268.23
512.69	57249.50
512.86	57357.17
513.04	57733.99
513.21	57771.44
513.38	57291.63
513.56	56781.40
513.73	56191.58
513.90	56580.11
514.08	56676.07
514.25	57057.58
514.43	57139.50
514.60	57350.15
514.77	57340.78
514.95	57450.79
515.12	57535.05
515.29	57787.83
515.47	58082.73
515.64	58312.11
515.81	57855.70
515.99	57614.63
516.16	55789.01
516.33	53797.21
516.51	51941.17
516.68	51327.95
516.85	50686.64
517.03	51089.21
517.20	53797.21
517.37	56388.19
517.54	57581.86
517.72	57139.50
517.89	54574.27
518.06	52002.02
518.24	52320.34
518.41	54583.63
518.58	56027.74
518.75	56254.78
518.93	56390.53
519.10	56289.88
519.27	56743.95
519.45	56872.68
519.62	57525.69
519.79	57902.51
519.96	57661.44
520.14	57324.40
520.31	56310.95
520.48	56383.51
520.65	56896.08
520.83	57771.44
521.00	58174.02
521.17	57820.59
521.34	57209.71
521.52	57844.00
521.69	58197.42
521.86	58541.48
522.03	58351.90
522.20	57322.06
522.38	55927.10
522.55	56100.30
522.72	56706.50
522.89	56891.40
523.07	57078.64
523.24	57301.00
523.41	58178.70
523.58	58342.53
523.75	59084.48
523.92	58719.36
524.10	58735.74
524.27	58742.77
524.44	58522.76
524.61	58571.91
524.78	58096.78
524.96	58106.14
525.13	57876.77
525.30	58401.05
525.47	58812.98
525.64	58805.96
525.81	58295.72
525.98	56477.13
526.16	55161.75
526.33	54391.71
526.50	54206.81
526.67	53647.42
526.84	54281.70
527.01	55480.06
527.18	56168.18
527.36	56905.44
527.53	58010.18
527.70	58192.74
527.87	57719.95
528.04	57165.24
528.21	57689.52
528.38	58403.39
528.55	58719.36
528.72	59365.35
528.89	59023.63
529.07	59063.42
529.24	58440.84
529.41	57762.08
529.58	57293.97
529.75	57326.74
529.92	57792.51
530.09	58202.10
530.26	58670.21
530.43	58908.94
530.60	59044.69
530.77	59290.45
530.94	59358.33
531.11	58747.45
531.28	58347.21
531.46	58279.34
531.63	58302.74
531.80	58349.56
531.97	57918.90
532.14	57176.95
532.31	55884.97
532.48	55224.94
532.65	55545.59
532.82	56498.19
532.99	57331.42
533.16	57790.17
533.33	58094.44
533.50	57982.09
533.67	57448.45
533.84	56811.82
534.01	57375.89
534.18	57483.56
534.35	57743.36
534.52	57584.20
534.69	57689.52
534.86	57939.96
535.03	58230.19
535.20	58712.34
535.37	59100.87
535.54	59346.62
535.71	58892.56
535.88	58557.86
536.05	57893.15
536.22	57612.29
536.38	56989.70
536.55	56809.48
536.72	56193.92
536.89	55854.54
537.06	56992.04
537.23	57794.85
537.40	57961.03
537.57	58021.88
537.74	57813.57
537.91	57654.42
538.08	57670.80
538.25	57797.19
538.42	58124.86
538.59	57839.32
538.75	57052.90
538.92	56830.55
539.09	56741.61
539.26	56409.25
539.43	56222.01
539.60	56479.47
539.77	56617.56
539.94	56596.49
540.11	55725.81
540.28	55386.44
540.44	55201.53
540.61	55517.51
540.78	55955.19
540.95	56161.15
541.12	56652.67
541.29	56928.85
541.46	57155.88
541.62	57258.87
541.79	56933.53
541.96	56456.06
542.13	56430.32
542.30	56701.82
542.47	56905.44
542.63	56484.15
542.80	56250.09
542.97	56563.73
543.14	56533.30
543.31	56367.12
543.48	56910.13
543.64	57918.90
543.81	57790.17
543.98	57790.17
544.15	57095.03
544.32	56416.27
544.48	56472.45
544.65	57024.81
544.82	57460.15
544.99	57186.31
545.16	56889.06
545.32	56402.23
545.49	57265.89
545.66	57656.76
545.83	57130.14
546.00	56708.84
546.16	56484.15
546.33	56502.87
546.50	56547.34
546.67	57265.89
546.83	56655.01
547.00	56554.36
547.17	56044.13
547.34	55423.89
547.50	55655.60
547.67	56053.49
547.84	55875.61
548.00	56184.56
548.17	56657.35
548.34	56596.49
548.51	56772.03
548.67	56383.51
548.84	56753.31
549.01	56769.69
549.18	56540.32
549.34	56402.23
549.51	56453.72
549.68	56479.47
549.84	56329.67
550.01	56133.07
550.18	55852.20
550.34	56128.39
550.51	56203.28
550.68	56135.41
550.84	55711.77
551.01	55482.40
551.18	55711.77
551.34	55847.52
551.51	56308.61
551.68	56477.13
551.84	56411.59
552.01	56472.45
552.18	56264.14
552.34	55498.78
552.51	55040.04
552.68	54859.82
552.84	55327.92
553.01	55777.31
553.18	55758.58
553.34	55725.81
553.51	56041.79
553.67	56191.58
553.84	56151.79
554.01	56327.33
554.17	55929.44
554.34	56065.19
554.51	56214.99
554.67	56502.87
554.84	56095.62
555.00	56203.28
555.17	55639.22
555.33	55899.01
555.50	55695.39
555.67	55798.37
555.83	55547.93
556.00	55098.55
556.16	55145.36
556.33	54993.23
556.50	54756.83
556.66	54686.62
556.83	54419.80
556.99	54836.41
557.16	54403.41
557.32	55131.32
557.49	55257.71
557.65	55075.15
557.82	55199.19
557.98	54878.54
558.15	54424.48
558.32	53677.85
558.48	52580.13
558.65	52959.30
558.81	53312.72
558.98	53326.77
559.14	53876.79
559.31	53839.34
559.47	53872.11
559.64	53535.07
559.80	53244.85
559.97	53312.72
560.13	53729.34
560.30	54850.45
560.46	55182.81
560.63	55463.67
560.79	55255.37
560.96	54930.03
561.12	54174.04
561.29	53095.05
561.45	53118.46
561.61	53673.16
561.78	53829.98
561.94	53656.78
562.11	53766.79
562.27	53705.93
562.44	53876.79
562.60	54019.56
562.77	54693.64
562.93	54578.95
563.10	54234.89
563.26	53586.57
563.42	53900.20
563.59	53443.79
563.75	53352.51
563.92	53446.13
564.08	53298.68
564.24	53923.60
564.41	54054.67
564.57	53743.38
564.74	53289.32
564.90	53404.00
565.07	53017.82
565.23	52626.95
565.39	52154.16
565.56	52027.77
565.72	51470.72
565.88	52065.22
566.05	51868.61
566.21	52650.35
566.38	52765.04
566.54	52692.48
566.70	53375.92
566.87	53291.66
567.03	53425.07
567.19	53724.66
567.36	53134.84
567.52	53286.98
567.68	53017.82
567.85	52310.97
568.01	52257.14
568.17	51650.94
568.34	51433.27
568.50	51297.52
568.66	51480.08
568.83	51892.02
568.99	51812.44
569.15	52154.16
569.32	52046.49
569.48	52114.37
569.64	51576.04
569.81	51414.55
569.97	51241.35
570.13	51182.84
570.30	50630.47
570.46	49979.80
570.62	49588.93
570.78	49485.95
570.95	49675.53
571.11	50405.78
571.27	51147.73
571.43	50972.19
571.60	51414.55
571.76	51765.63
571.92	51646.26
572.09	52020.75
572.25	51840.53
572.41	51845.21
572.57	51835.84
572.74	51742.22
572.90	51419.23
573.06	51250.71
573.22	51297.52
573.38	51295.18
573.55	51398.16
573.71	51522.21
573.87	51398.16
574.03	51152.41
574.20	50974.53
574.36	50916.01
574.52	50759.20
574.68	50433.86
574.84	49918.95
575.01	49677.87
575.17	49656.81
575.33	49586.59
575.49	49956.39
575.65	50251.30
575.82	50127.25
575.98	49862.77
576.14	49869.79
576.30	50443.23
576.46	50810.69
576.62	50403.44
576.79	50251.30
576.95	49862.77
577.11	49897.88
577.27	49598.29
577.43	50192.79
577.59	49382.96
577.75	48786.13
577.92	48378.87
578.08	47943.53
578.24	47973.96
578.40	48863.36
578.56	48964.01
578.72	48587.18
578.88	49289.34
579.04	49233.17
579.21	49490.63
579.37	49338.49
579.53	49448.50
579.69	49366.58
579.85	49439.14
580.01	49401.69
580.17	48903.15
580.33	48954.64
580.49	48858.68
580.65	49272.96
580.82	49462.54
580.98	49514.03
581.14	49109.12
581.30	49354.88
581.46	48980.39
581.62	49537.44
581.78	49551.48
581.94	49570.21
582.10	49326.79
582.26	49741.06
582.42	49118.48
582.58	49497.65
582.74	49588.93
582.90	49577.23
583.06	49691.91
583.22	49228.49
583.38	49347.86
583.54	49251.89
583.70	49010.82
583.86	49275.30
584.02	49078.69
584.18	48980.39
584.34	48816.55
584.50	48793.15
584.66	48849.32
584.82	48303.98
584.98	48287.59
585.14	47995.03
585.30	46955.83
