SpectraSuite Data File
++++++++++++++++++++++++++++++++++++
Date: Mon Oct 07 14:53:24 GMT-05:00 2013
User: price-jones
Dark Spectrum Present: No
Reference Spectrum Present: No
Number of Sampled Component Spectra: 1
Spectrometers: USB2+H05261
Integration Time (usec): 100000 (USB2+H05261)
Spectra Averaged: 1 (USB2+H05261)
Boxcar Smoothing: 0 (USB2+H05261)
Correct for Electrical Dark: No (USB2+H05261)
Strobe/Lamp Enabled: No (USB2+H05261)
Correct for Detector Non-linearity: No (USB2+H05261)
Correct for Stray Light: No (USB2+H05261)
Number of Pixels in Processed Spectrum: 2048
>>>>>Begin Processed Spectral Data<<<<<
365.73	0.00
365.92	0.00
366.12	0.00
366.32	0.00
366.52	0.00
366.72	0.00
366.91	0.00
367.11	0.00
367.31	0.00
367.51	0.00
367.70	0.00
367.90	0.00
368.10	0.00
368.30	0.00
368.49	0.00
368.69	0.00
368.89	0.00
369.09	0.00
369.28	0.00
369.48	0.00
369.68	0.00
369.87	0.00
370.07	0.00
370.27	0.00
370.47	496.19
370.66	2920.99
370.86	3454.63
371.06	3922.74
371.25	3705.07
371.45	3520.17
371.65	3171.43
371.84	2949.08
372.04	2974.82
372.24	3426.54
372.44	3737.84
372.63	3592.72
372.83	3353.99
373.03	2930.35
373.22	2668.21
373.42	2890.56
373.62	3330.58
373.81	3684.00
374.01	3534.21
374.21	3239.30
374.40	3016.95
374.60	3098.87
374.79	3550.59
374.99	4060.83
375.19	4238.71
375.38	4273.82
375.58	4154.45
375.78	4009.34
375.97	4086.58
376.17	4386.16
376.37	4168.49
376.56	4468.08
376.76	4620.22
376.95	5004.07
377.15	5280.25
377.35	5607.92
377.54	5851.34
377.74	5970.71
377.93	5834.96
378.13	5846.66
378.33	5547.07
378.52	4947.89
378.72	4910.44
378.91	4880.02
379.11	4552.34
379.31	4545.32
379.50	4414.25
379.70	4716.18
379.89	5401.96
380.09	5425.36
380.28	5923.90
380.48	5729.63
380.68	5579.84
380.87	5633.67
381.07	5100.03
381.26	4629.58
381.46	4514.89
381.65	4306.59
381.85	4278.50
382.04	3992.95
382.24	3623.15
382.43	3688.68
382.63	3442.93
382.83	3499.10
383.02	3501.44
383.22	3410.16
383.41	3384.41
383.61	3669.96
383.80	4372.12
384.00	4725.54
384.19	5549.41
384.39	5774.10
384.58	5645.37
384.78	5582.18
384.97	5558.77
385.17	5303.65
385.36	4961.94
385.56	4800.44
385.75	4844.91
385.95	5310.68
386.14	5853.68
386.34	5902.83
386.53	5500.26
386.72	5125.77
386.92	5359.83
387.11	5521.32
387.31	5832.62
387.50	5640.69
387.70	5462.81
387.89	5425.36
388.09	5640.69
388.28	5619.63
388.48	5776.44
388.67	6076.03
388.86	6754.79
389.06	7187.79
389.25	7548.23
389.45	7651.21
389.64	7522.48
389.84	7442.90
390.03	7412.48
390.22	7527.16
390.42	7555.25
390.61	7999.95
390.81	8683.39
391.00	8861.27
391.19	8854.25
391.39	8461.04
391.58	7899.31
391.78	7449.93
391.97	7283.75
392.16	6757.13
392.36	6258.59
392.55	5034.49
392.75	3981.25
392.94	3215.90
393.13	3185.47
393.33	3843.16
393.52	4884.70
393.71	5905.17
393.91	6722.02
394.10	7307.15
394.29	8231.66
394.49	8552.32
394.68	9291.93
394.88	9174.90
395.07	9706.20
395.26	9612.58
395.46	9137.45
395.65	8657.64
395.84	7716.75
396.04	6452.86
396.23	5383.23
396.42	4409.57
396.62	4201.26
396.81	4901.08
397.00	6274.98
397.19	8013.99
397.39	9535.34
397.58	10609.65
397.77	11059.03
397.97	11688.64
398.16	11630.12
398.35	12140.36
398.55	12875.29
398.74	12926.78
398.93	13532.98
399.12	13303.60
399.32	12720.81
399.51	13074.23
399.70	13813.84
399.90	13619.58
400.09	13720.22
400.28	13448.72
400.47	13516.59
400.67	14387.27
400.86	14630.69
401.05	14712.61
401.24	14520.68
401.44	15115.18
401.63	14958.36
401.82	14918.57
402.01	14764.10
402.21	15379.66
402.40	15508.39
402.59	14796.87
402.78	14040.87
402.97	13542.34
403.17	14398.98
403.36	15051.99
403.55	15330.51
403.74	15992.88
403.93	15295.40
404.13	13973.00
404.32	13497.87
404.51	14263.22
404.70	15363.28
404.89	15272.00
405.09	15454.56
405.28	14867.08
405.47	14824.95
405.66	15012.20
405.85	14420.04
406.05	13921.51
406.24	14176.62
406.43	14743.03
406.62	15405.41
406.81	15707.34
407.00	14857.72
407.20	14532.39
407.39	14644.73
407.58	15697.97
407.77	16100.55
407.96	16432.90
408.15	16765.26
408.34	16870.58
408.54	17486.14
408.73	17743.60
408.92	17352.73
409.11	16999.31
409.30	16016.29
409.49	14958.36
409.68	14078.32
409.87	13657.03
410.07	14356.85
410.26	15620.74
410.45	16482.05
410.64	17144.42
410.83	17568.06
411.02	18141.49
411.21	18878.76
411.40	18225.75
411.59	18527.68
411.78	18040.85
411.98	18232.77
412.17	18448.10
412.36	18104.04
412.55	18609.60
412.74	17727.22
412.93	17591.47
413.12	17596.15
413.31	19103.45
413.50	19384.32
413.69	19737.74
413.88	19178.35
414.07	18398.95
414.26	18668.11
414.45	19513.05
414.64	19288.35
414.83	19562.20
415.02	19012.17
415.22	18916.21
415.41	19426.45
415.60	19880.51
415.79	20800.34
415.98	21326.96
416.17	21406.54
416.36	20938.43
416.55	20688.00
416.74	20039.67
416.93	19412.40
417.12	19218.14
417.31	19564.54
417.50	20023.28
417.69	20463.30
417.88	20287.76
418.07	20072.43
418.26	20004.56
418.45	20285.42
418.64	20727.78
418.83	21811.45
419.02	21280.15
419.21	21282.49
419.39	20212.87
419.58	19234.52
419.77	19250.91
419.96	20067.75
420.15	21163.12
420.34	21673.36
420.53	22359.14
420.72	23068.32
420.91	22857.67
421.10	22569.79
421.29	22246.79
421.48	21406.54
421.67	22487.87
421.86	21626.55
422.05	20538.20
422.24	18382.57
422.43	18270.22
422.61	20159.03
422.80	21645.27
422.99	21909.75
423.18	20968.86
423.37	20812.04
423.56	20533.52
423.75	21177.17
423.94	21425.26
424.13	20456.28
424.32	20395.43
424.50	20526.50
424.69	20505.43
424.88	20388.41
425.07	20191.80
425.26	19981.15
425.45	20091.16
425.64	19894.55
425.83	19550.49
426.01	21018.01
426.20	21233.34
426.39	21231.00
426.58	19690.93
426.77	18518.32
426.96	17830.20
427.15	18373.21
427.33	19679.22
427.52	20704.38
427.71	20678.63
427.90	20409.47
428.09	20147.33
428.28	19709.65
428.46	19171.33
428.65	18588.53
428.84	19358.57
429.03	19536.45
429.22	18359.16
429.40	17549.34
429.59	15815.00
429.78	13994.06
429.97	14197.69
430.16	14490.26
430.34	14347.48
430.53	14476.21
430.72	14642.39
430.91	16215.23
431.10	19330.48
431.28	22476.16
431.47	24276.04
431.66	24692.65
431.85	22415.31
432.03	20821.41
432.22	19754.12
432.41	20650.55
432.60	22822.56
432.79	23608.98
432.97	24390.72
433.16	23592.60
433.35	21261.43
433.54	19587.94
433.72	18384.91
433.91	18698.54
434.10	20908.01
434.28	22593.19
434.47	23922.62
434.66	23435.78
434.85	22412.97
435.03	22499.57
435.22	23042.57
435.41	24762.87
435.59	24730.10
435.78	25113.95
435.97	25799.73
436.16	25750.57
436.34	25474.39
436.53	24985.22
436.72	25102.25
436.90	23747.08
437.09	23592.60
437.28	23283.65
437.46	23840.70
437.65	24027.94
437.84	22391.91
438.02	20484.37
438.21	20137.97
438.40	21495.48
438.58	23073.00
438.77	23688.56
438.96	24018.58
439.14	25216.93
439.33	25507.16
439.52	26005.69
439.70	25453.33
439.89	25057.78
440.08	24116.88
440.26	24203.48
440.45	24678.61
440.63	27236.81
440.82	27971.74
441.01	27927.27
441.19	27449.80
441.38	27576.19
441.57	29263.72
441.75	29336.27
441.94	29167.76
442.12	29048.39
442.31	29729.48
442.50	29766.93
442.68	29586.71
442.87	28931.36
443.05	28793.27
443.24	28891.57
443.43	29689.70
443.61	30331.00
443.80	30431.65
443.98	29277.76
444.17	28669.22
444.35	30560.37
444.54	31049.55
444.73	30597.82
444.91	29315.21
445.10	27903.87
445.28	26932.54
445.47	26473.80
445.65	26441.03
445.84	27648.75
446.02	28613.05
446.21	28931.36
446.39	28865.83
446.58	29134.99
446.77	29855.87
446.95	29722.46
447.14	31215.72
447.32	31377.22
447.51	30518.25
447.69	29776.30
447.88	29331.59
448.06	29411.17
448.25	30380.15
448.43	30485.48
448.62	30171.85
448.80	29689.70
448.99	30094.61
449.17	30057.16
449.36	29968.22
449.54	31264.88
449.73	31632.34
449.91	32261.94
450.10	33158.37
450.28	33338.59
450.46	33106.88
450.65	33170.07
450.83	33179.43
451.02	32147.26
451.20	32144.92
451.39	32210.45
451.57	32037.25
451.76	31721.28
451.94	31606.59
452.13	31519.99
452.31	30106.31
452.49	28814.34
452.68	28823.70
452.86	29184.14
453.05	28961.79
453.23	30150.78
453.42	31143.17
453.60	31697.88
453.78	31957.67
453.97	31402.97
454.15	31417.01
454.34	30705.49
454.52	31491.91
454.70	30377.81
454.89	30661.02
455.07	30651.66
455.26	31489.57
455.44	32231.52
455.62	32926.66
455.81	33270.72
455.99	32851.76
456.17	32339.18
456.36	32411.74
456.54	33752.87
456.73	33542.22
456.91	34117.99
457.09	34022.03
457.28	34890.37
457.46	33235.61
457.64	33088.15
457.83	32500.68
458.01	31538.72
458.19	32507.70
458.38	32624.73
458.56	33916.70
458.74	33504.77
458.93	33008.58
459.11	32765.16
459.29	32711.33
459.48	32479.61
459.66	32629.41
459.84	33275.40
460.03	33481.36
460.21	33762.23
460.39	34319.28
460.57	33727.12
460.76	34508.86
460.94	34838.87
461.12	34251.40
461.31	34300.55
461.49	34520.56
461.67	34361.40
461.85	35468.48
462.04	35086.97
462.22	35363.15
462.40	35386.56
462.59	35089.31
462.77	35381.88
462.95	35281.24
463.13	35033.14
463.32	34415.24
463.50	33886.28
463.68	34373.11
463.86	34284.17
464.05	33874.57
464.23	33081.13
464.41	33097.52
464.59	32622.39
464.78	34258.42
464.96	34052.45
465.14	33404.13
465.32	34504.18
465.50	35126.76
465.69	35381.88
465.87	34895.05
466.05	33926.07
466.23	32643.45
466.41	31583.19
466.60	32706.65
466.78	32814.31
466.96	33521.15
467.14	33582.01
467.32	34286.51
467.51	34534.60
467.69	32800.27
467.87	33343.27
468.05	33977.56
468.23	33759.89
468.41	34347.36
468.60	34080.54
468.78	34195.23
468.96	33670.95
469.14	34553.33
469.32	34909.09
469.50	33319.87
469.69	33661.58
469.87	33055.39
470.05	32847.08
470.23	33113.90
470.41	33125.60
470.59	33535.20
470.77	33900.32
470.95	34480.77
471.14	34672.70
471.32	35108.04
471.50	36900.89
471.68	36783.86
471.86	36879.82
472.04	37200.47
472.22	37350.27
472.40	35433.37
472.58	35072.93
472.77	35061.22
472.95	35751.68
473.13	36486.61
473.31	35421.67
473.49	35438.05
473.67	36507.68
473.85	36655.13
474.03	37638.15
474.21	37930.72
474.39	38082.86
474.57	38384.79
474.75	37879.23
474.93	38073.49
475.12	36994.51
475.30	37223.88
475.48	37301.12
475.66	37804.33
475.84	37357.29
476.02	37146.64
476.20	36563.85
476.38	37301.12
476.56	38136.69
476.74	38897.36
476.92	39084.61
477.10	39746.98
477.28	40783.83
477.46	40687.87
477.64	41153.64
477.82	41368.97
478.00	41261.30
478.18	40568.51
478.36	40224.45
478.54	40837.67
478.72	40840.01
478.90	42305.18
479.08	43009.68
479.26	43833.55
479.44	43119.69
479.62	42981.60
479.80	42909.04
479.98	43250.76
480.16	43679.08
480.34	43365.45
480.52	43730.57
480.70	43761.00
480.88	43885.04
481.06	44671.46
481.24	45275.32
481.41	45698.96
481.59	46075.79
481.77	46005.57
481.95	45696.62
482.13	45043.61
482.31	45228.51
482.49	46293.46
482.67	45977.48
482.85	46256.01
483.03	46337.93
483.21	46871.57
483.39	46930.08
483.57	46440.91
483.74	45897.91
483.92	46251.33
484.10	46817.74
484.28	47522.24
484.46	47442.66
484.64	48261.85
484.82	47269.46
485.00	47096.26
485.18	45841.73
485.35	44818.92
485.53	41277.69
485.71	37727.10
485.89	37542.19
486.07	39262.49
486.25	42969.90
486.43	45024.89
486.61	46153.02
486.78	45563.21
486.96	46007.91
487.14	47753.95
487.32	48549.73
487.50	49397.01
487.68	50597.70
487.85	50986.23
488.03	50885.59
488.21	50468.97
488.39	49448.50
488.57	48891.45
488.75	48821.23
488.92	49794.90
489.10	52250.12
489.28	53352.51
489.46	53963.39
489.64	53776.15
489.81	54078.08
489.99	53553.80
490.17	53642.74
490.35	54021.90
490.53	53703.59
490.70	53286.98
490.88	53111.44
491.06	53727.00
491.24	53893.18
491.41	52928.87
491.59	51215.60
491.77	50405.78
491.95	51835.84
492.13	52863.34
492.30	54021.90
492.48	54983.86
492.66	55330.26
492.84	55557.30
493.01	55182.81
493.19	54632.78
493.37	54150.63
493.54	53874.45
493.72	54756.83
493.90	55805.39
494.08	56261.80
494.25	56481.81
494.43	57013.11
494.61	57078.64
494.79	57144.18
494.96	57022.47
495.14	56612.88
495.32	55730.50
495.49	54948.76
495.67	55838.16
495.85	57329.08
496.02	57691.86
496.20	57593.56
496.38	56921.83
496.55	56882.04
496.73	57619.31
496.91	57343.12
497.09	58040.60
497.26	58206.78
497.44	57724.63
497.62	57464.83
497.79	56446.70
497.97	55250.69
498.14	55538.57
498.32	56640.96
498.50	57219.08
498.67	57998.48
498.85	57633.35
499.03	57914.22
499.20	57914.22
499.38	58155.29
499.56	58101.46
499.73	57532.71
499.91	57212.06
500.08	56713.52
500.26	56004.34
500.44	56495.85
500.61	57190.99
500.79	57118.43
500.97	56615.22
501.14	56568.41
501.32	56200.94
501.49	56303.93
501.67	56566.07
501.84	57111.41
502.02	57205.03
502.20	57551.43
502.37	57965.71
502.55	57757.40
502.72	58251.25
502.90	58658.51
503.07	58377.64
503.25	57958.69
503.43	57275.25
503.60	56800.12
503.78	56151.79
503.95	56430.32
504.13	57883.79
504.30	58812.98
504.48	58534.46
504.65	58068.69
504.83	58127.20
505.01	58759.15
505.18	59025.97
505.36	59599.40
505.53	59641.53
505.71	59793.67
505.88	59718.77
506.06	59552.59
506.23	59063.42
506.41	58534.46
506.58	58756.81
506.76	58820.00
506.93	58892.56
507.11	58497.01
507.28	58576.59
507.46	58302.74
507.63	57822.93
507.81	57293.97
507.98	57829.96
508.16	58389.34
508.33	58948.73
508.50	59372.37
508.68	59505.78
508.85	59976.23
509.03	59957.50
509.20	59751.54
509.38	59250.66
509.55	58492.33
509.73	58387.00
509.90	59126.61
510.08	59236.62
510.25	59290.45
510.42	58948.73
510.60	58869.15
510.77	59248.32
510.95	59625.15
511.12	59976.23
511.30	59976.23
511.47	60289.86
511.64	60390.50
511.82	59786.64
511.99	59185.13
512.17	58693.61
512.34	58461.90
512.51	58560.20
512.69	58803.62
512.86	58997.88
513.04	59302.15
513.21	59391.09
513.38	58859.79
513.56	58609.35
513.73	58080.39
513.90	58183.38
514.08	58251.25
514.25	58471.26
514.43	58899.58
514.60	58705.32
514.77	59009.59
514.95	59185.13
515.12	58922.99
515.29	59009.59
515.47	59583.02
515.64	59810.05
515.81	59447.27
515.99	58974.48
516.16	57483.56
516.33	55309.20
516.51	53888.49
516.68	53081.01
516.85	52886.74
517.03	53251.87
517.20	55711.77
517.37	58042.95
517.54	59068.10
517.72	58607.01
517.89	55999.66
518.06	53942.33
518.24	54452.56
518.41	56343.72
518.58	57652.08
518.75	57799.53
518.93	58159.97
519.10	57790.17
519.27	58445.52
519.45	58571.91
519.62	59281.09
519.79	59629.83
519.96	59393.43
520.14	58908.94
520.31	58103.80
520.48	58099.12
520.65	58307.43
520.83	59388.75
521.00	59590.04
521.17	59365.35
521.34	59110.23
521.52	59264.70
521.69	59952.82
521.86	60285.18
522.03	59999.63
522.20	58724.04
522.38	57811.23
522.55	57872.09
522.72	58340.19
522.89	58525.10
523.07	58550.84
523.24	59089.16
523.41	59901.33
523.58	60058.15
523.75	60437.31
523.92	60271.14
524.10	60362.42
524.27	60526.25
524.44	60310.92
524.61	60055.81
524.78	59655.57
524.96	59554.93
525.13	59723.45
525.30	59917.71
525.47	60488.80
525.64	60526.25
525.81	59564.29
525.98	58293.38
526.16	56889.06
526.33	56346.06
526.50	56020.72
526.67	55828.80
526.84	56257.12
527.01	57329.08
527.18	58099.12
527.36	58656.17
527.53	59716.43
527.70	59863.88
527.87	59231.94
528.04	58864.47
528.21	59494.08
528.38	60046.44
528.55	60591.79
528.72	60748.60
528.89	60867.97
529.07	60699.45
529.24	60060.49
529.41	59449.61
529.58	58965.12
529.75	59018.95
529.92	59276.41
530.09	59774.94
530.26	60221.98
530.43	60467.74
530.60	60575.40
530.77	60727.54
530.94	60917.12
531.11	60530.93
531.28	60353.05
531.46	59732.81
531.63	60250.07
531.80	60088.57
531.97	59365.35
532.14	58646.80
532.31	57827.62
532.48	57513.98
532.65	57265.89
532.82	58129.54
532.99	59035.33
533.16	59260.02
533.33	60086.23
533.50	60009.00
533.67	59089.16
533.84	58852.77
534.01	59128.95
534.18	59068.10
534.35	59538.55
534.52	59119.59
534.69	59643.87
534.86	59873.24
535.03	60023.04
535.20	60549.66
535.37	60905.42
535.54	60772.01
535.71	60657.32
535.88	60210.28
536.05	59536.21
536.22	59318.54
536.38	58897.24
536.55	58475.94
536.72	57954.00
536.89	58099.12
537.06	58754.47
537.23	59618.13
537.40	59777.28
537.57	59786.64
537.74	59405.14
537.91	59531.53
538.08	59461.31
538.25	59414.50
538.42	59655.57
538.59	59449.61
538.75	58841.07
538.92	58475.94
539.09	58485.31
539.26	58162.31
539.43	58206.78
539.60	58101.46
539.77	58478.28
539.94	58316.79
540.11	57607.61
540.28	57205.03
540.44	57254.18
540.61	57368.87
540.78	57605.26
540.95	58209.12
541.12	58539.14
541.29	58581.27
541.46	59152.36
541.62	59143.00
541.79	58866.81
541.96	58267.64
542.13	58230.19
542.30	58571.91
542.47	58838.73
542.63	58454.88
542.80	58300.40
542.97	58475.94
543.14	58307.43
543.31	58150.61
543.48	58798.94
543.64	59573.66
543.81	59683.66
543.98	59576.00
544.15	58897.24
544.32	58412.75
544.48	58344.87
544.65	59011.93
544.82	59189.81
544.99	58951.07
545.16	58543.82
545.32	58223.17
545.49	59164.06
545.66	59384.07
545.83	59140.66
546.00	58824.68
546.16	58478.28
546.33	58489.99
546.50	58660.85
546.67	59030.65
546.83	58583.61
547.00	58494.67
547.17	58129.54
547.34	57595.90
547.50	57345.47
547.67	57844.00
547.84	57886.13
548.00	58204.44
548.17	58665.53
548.34	58602.33
548.51	58557.86
548.67	58518.07
548.84	58506.37
549.01	58705.32
549.18	58637.44
549.34	58403.39
549.51	58489.99
549.68	58342.53
549.84	57998.48
550.01	58092.10
550.18	58003.16
550.34	58092.10
550.51	57961.03
550.68	58361.26
550.84	57682.50
551.01	57778.46
551.18	57769.10
551.34	58136.57
551.51	58300.40
551.68	58590.63
551.84	58651.48
552.01	58375.30
552.18	58227.85
552.34	57485.90
552.51	57123.11
552.68	56968.64
552.84	57668.46
553.01	57663.78
553.18	57584.20
553.34	58007.84
553.51	57815.91
553.67	58099.12
553.84	58445.52
554.01	58216.14
554.17	57977.41
554.34	57975.07
554.51	58309.77
554.67	58429.13
554.84	58312.11
555.00	58122.52
555.17	57675.48
555.33	57935.28
555.50	57860.38
555.67	57925.92
555.83	57521.01
556.00	57312.70
556.16	57324.40
556.33	56889.06
556.50	56844.59
556.66	56860.97
556.83	56629.26
556.99	56802.46
557.16	56837.57
557.32	57209.71
557.49	57291.63
557.65	57331.42
557.82	57228.44
557.98	56928.85
558.15	56741.61
558.32	55985.61
558.48	55222.60
558.65	55178.13
558.81	55707.09
558.98	55948.17
559.14	56254.78
559.31	56357.76
559.47	55772.63
559.64	55854.54
559.80	55578.36
559.97	55475.38
560.13	56006.68
560.30	56811.82
560.46	57399.30
560.63	57579.52
560.79	57607.61
560.96	57118.43
561.12	56175.20
561.29	55016.63
561.45	55180.47
561.61	56037.11
561.78	56275.84
561.94	56175.20
562.11	56065.19
562.27	55770.28
562.44	56229.03
562.60	56552.02
562.77	56711.18
562.93	56594.15
563.10	56467.76
563.26	56039.45
563.42	56177.54
563.59	55842.84
563.75	56002.00
563.92	55866.25
564.08	55803.05
564.24	56264.14
564.41	56032.42
564.57	55980.93
564.74	55805.39
564.90	55774.97
565.07	55604.11
565.23	55276.43
565.39	54710.02
565.56	54536.82
565.72	54356.60
565.88	54841.09
566.05	54838.75
566.21	54878.54
566.38	55117.28
566.54	55421.55
566.70	55716.45
566.87	55870.93
567.03	55884.97
567.19	55987.95
567.36	55674.32
567.52	55819.44
567.68	55447.29
567.85	54677.25
568.01	54497.03
568.17	53939.99
568.34	53963.39
568.50	54028.93
568.66	54007.86
568.83	54550.87
568.99	54459.58
569.15	54695.98
569.32	54515.76
569.48	54590.66
569.64	54398.73
569.81	54213.83
569.97	53675.51
570.13	53907.22
570.30	53404.00
570.46	53361.87
570.62	52701.84
570.78	52210.33
570.95	52865.68
571.11	53401.66
571.27	53708.27
571.43	53827.64
571.60	54082.76
571.76	54129.57
571.92	54237.23
572.09	54480.65
572.25	54621.08
572.41	54588.31
572.57	54141.27
572.74	54087.44
572.90	54073.40
573.06	54017.22
573.22	54087.44
573.38	53928.28
573.55	54007.86
573.71	54302.77
573.87	54010.20
574.03	53689.55
574.20	53710.61
574.36	53244.85
574.52	53389.96
574.68	53195.70
574.84	52772.06
575.01	52409.28
575.17	52231.40
575.33	52528.64
575.49	52865.68
575.65	52853.98
575.82	53024.84
575.98	52715.89
576.14	52919.51
576.30	53041.22
576.46	52765.04
576.62	52900.79
576.79	53158.25
576.95	52736.95
577.11	52868.02
577.27	52619.92
577.43	52589.50
577.59	52294.59
577.75	51980.96
577.92	51531.57
578.08	50913.67
578.24	50869.20
578.40	51697.75
578.56	51702.43
578.72	51906.06
578.88	52280.55
579.04	52287.57
579.21	52285.23
579.37	52257.14
579.53	52601.20
579.69	52563.75
579.85	52697.16
580.01	52172.88
580.17	52165.86
580.33	51751.59
580.49	51995.00
580.65	52350.76
580.82	52411.62
580.98	52439.70
581.14	52420.98
581.30	52369.49
581.46	52032.45
581.62	52346.08
581.78	52409.28
581.94	52530.98
582.10	52533.32
582.26	52697.16
582.42	52790.78
582.58	52442.04
582.74	52575.45
582.90	52435.02
583.06	52807.17
583.22	52236.08
583.38	51969.26
583.54	52128.41
583.70	52128.41
583.86	52069.90
584.02	51819.46
584.18	52156.50
584.34	52193.95
584.50	51983.30
584.66	51716.48
584.82	51327.95
584.98	51419.23
585.14	50728.77
585.30	50454.93
