SpectraSuite Data File
++++++++++++++++++++++++++++++++++++
Date: Mon Oct 07 14:54:55 GMT-05:00 2013
User: price-jones
Dark Spectrum Present: No
Reference Spectrum Present: No
Number of Sampled Component Spectra: 1
Spectrometers: USB2+H05261
Integration Time (usec): 10000 (USB2+H05261)
Spectra Averaged: 1 (USB2+H05261)
Boxcar Smoothing: 0 (USB2+H05261)
Correct for Electrical Dark: No (USB2+H05261)
Strobe/Lamp Enabled: No (USB2+H05261)
Correct for Detector Non-linearity: No (USB2+H05261)
Correct for Stray Light: No (USB2+H05261)
Number of Pixels in Processed Spectrum: 2048
>>>>>Begin Processed Spectral Data<<<<<
365.73	0.00
365.92	0.00
366.12	0.00
366.32	0.00
366.52	0.00
366.72	0.00
366.91	0.00
367.11	0.00
367.31	0.00
367.51	0.00
367.70	0.00
367.90	0.00
368.10	0.00
368.30	0.00
368.49	0.00
368.69	0.00
368.89	0.00
369.09	0.00
369.28	0.00
369.48	0.00
369.68	0.00
369.87	0.00
370.07	0.00
370.27	0.00
370.47	0.00
370.66	0.00
370.86	0.00
371.06	0.00
371.25	0.00
371.45	42.13
371.65	0.00
371.84	51.49
372.04	0.00
372.24	51.49
372.44	63.19
372.63	0.00
372.83	0.00
373.03	39.79
373.22	0.00
373.42	65.54
373.62	42.13
373.81	67.88
374.01	0.00
374.21	0.00
374.40	0.00
374.60	18.72
374.79	16.38
374.99	46.81
375.19	53.83
375.38	16.38
375.58	88.94
375.78	131.07
375.97	110.01
376.17	32.77
376.37	110.01
376.56	77.24
376.76	98.30
376.95	138.09
377.15	135.75
377.35	140.43
377.54	152.13
377.74	166.18
377.93	252.78
378.13	212.99
378.33	145.11
378.52	149.79
378.72	102.98
378.91	110.01
379.11	72.56
379.31	140.43
379.50	84.26
379.70	133.41
379.89	98.30
380.09	138.09
380.28	184.90
380.48	205.97
380.68	201.29
380.87	67.88
381.07	79.58
381.26	133.41
381.46	124.05
381.65	0.00
381.85	25.75
382.04	86.60
382.24	30.43
382.43	0.00
382.63	25.75
382.83	42.13
383.02	32.77
383.22	0.00
383.41	0.00
383.61	0.00
383.80	67.88
384.00	65.54
384.19	98.30
384.39	177.88
384.58	208.31
384.78	121.71
384.97	163.84
385.17	159.16
385.36	133.41
385.56	135.75
385.75	149.79
385.95	173.20
386.14	220.01
386.34	210.65
386.53	135.75
386.72	170.86
386.92	95.96
387.11	180.22
387.31	203.63
387.50	168.52
387.70	161.50
387.89	212.99
388.09	184.90
388.28	152.13
388.48	140.43
388.67	156.82
388.86	217.67
389.06	255.12
389.25	285.55
389.45	313.63
389.64	271.50
389.84	299.59
390.03	318.31
390.22	297.25
390.42	292.57
390.61	414.27
390.81	334.70
391.00	454.06
391.19	400.23
391.39	402.57
391.58	311.29
391.78	341.72
391.97	264.48
392.16	257.46
392.36	184.90
392.55	114.69
392.75	95.96
392.94	37.45
393.13	4.68
393.33	58.51
393.52	128.73
393.71	210.65
393.91	315.97
394.10	339.38
394.29	327.68
394.49	433.00
394.68	454.06
394.88	381.51
395.07	428.32
395.26	458.74
395.46	486.83
395.65	395.55
395.84	315.97
396.04	161.50
396.23	131.07
396.42	112.35
396.62	25.75
396.81	117.03
397.00	255.12
397.19	271.50
397.39	360.44
397.58	465.77
397.77	648.33
397.97	603.86
398.16	535.98
398.35	552.37
398.55	645.99
398.74	643.65
398.93	690.46
399.12	653.01
399.32	596.84
399.51	587.47
399.70	709.18
399.90	727.91
400.09	755.99
400.28	713.86
400.47	723.23
400.67	753.65
400.86	844.93
401.05	849.61
401.24	828.55
401.44	896.43
401.63	755.99
401.82	936.21
402.01	835.57
402.21	858.98
402.40	812.17
402.59	828.55
402.78	779.40
402.97	683.44
403.17	760.67
403.36	866.00
403.55	912.81
403.74	870.68
403.93	919.83
404.13	730.25
404.32	716.20
404.51	784.08
404.70	912.81
404.89	966.64
405.09	802.80
405.28	763.01
405.47	877.70
405.66	828.55
405.85	788.76
406.05	676.41
406.24	669.39
406.43	880.04
406.62	730.25
406.81	830.89
407.00	835.57
407.20	770.04
407.39	807.48
407.58	847.27
407.77	847.27
407.96	966.64
408.15	924.51
408.34	929.19
408.54	1036.86
408.73	999.41
408.92	943.24
409.11	968.98
409.30	830.89
409.49	744.29
409.68	777.06
409.87	748.97
410.07	821.53
410.26	840.25
410.45	999.41
410.64	992.39
410.83	905.79
411.02	994.73
411.21	1090.69
411.40	1027.50
411.59	1062.60
411.78	1102.39
411.98	1074.31
412.17	1043.88
412.36	1029.84
412.55	961.96
412.74	1048.56
412.93	947.92
413.12	1018.13
413.31	1095.37
413.50	1121.12
413.69	1196.01
413.88	1090.69
414.07	1004.09
414.26	1111.75
414.45	1144.52
414.64	1076.65
414.83	1067.28
415.02	1053.24
415.22	1081.33
415.41	1025.15
415.60	1095.37
415.79	1156.22
415.98	1245.16
416.17	1172.61
416.36	1296.66
416.55	1188.99
416.74	1179.63
416.93	1184.31
417.12	1132.82
417.31	1123.46
417.50	1109.41
417.69	1123.46
417.88	1256.87
418.07	1165.59
418.26	1151.54
418.45	1081.33
418.64	1212.40
418.83	1270.91
419.02	1249.85
419.21	1261.55
419.39	1158.57
419.58	1130.48
419.77	1041.54
419.96	1067.28
420.15	1214.74
420.34	1200.69
420.53	1242.82
420.72	1280.27
420.91	1371.55
421.10	1214.74
421.29	1303.68
421.48	1280.27
421.67	1329.42
421.86	1270.91
422.05	1212.40
422.24	1139.84
422.43	954.94
422.61	1163.25
422.80	1193.67
422.99	1294.32
423.18	1116.44
423.37	1151.54
423.56	1191.33
423.75	1179.63
423.94	1252.19
424.13	1123.46
424.32	1100.05
424.50	1228.78
424.69	1020.47
424.88	1078.99
425.07	1142.18
425.26	1196.01
425.45	1212.40
425.64	1088.35
425.83	1029.84
426.01	1130.48
426.20	1221.76
426.39	1280.27
426.58	1001.75
426.77	1060.26
426.96	901.11
427.15	992.39
427.33	1160.91
427.52	1177.29
427.71	1226.44
427.90	1158.57
428.09	1109.41
428.28	1114.10
428.46	1053.24
428.65	1034.52
428.84	1081.33
429.03	1078.99
429.22	1050.90
429.40	1022.81
429.59	840.25
429.78	685.78
429.97	674.07
430.16	779.40
430.34	856.64
430.53	739.61
430.72	807.48
430.91	851.96
431.10	1025.15
431.28	1284.95
431.47	1425.39
431.66	1434.75
431.85	1284.95
432.03	1086.01
432.22	1125.80
432.41	1174.95
432.60	1299.00
432.79	1336.45
432.97	1416.02
433.16	1238.14
433.35	1263.89
433.54	1139.84
433.72	973.66
433.91	964.30
434.10	1259.21
434.28	1320.06
434.47	1310.70
434.66	1245.16
434.85	1296.66
435.03	1221.76
435.22	1460.49
435.41	1242.82
435.59	1469.86
435.78	1418.36
435.97	1359.85
436.16	1453.47
436.34	1446.45
436.53	1329.42
436.72	1526.03
436.90	1324.74
437.09	1261.55
437.28	1308.36
437.46	1399.64
437.65	1409.00
437.84	1231.12
438.02	1095.37
438.21	1020.47
438.40	1160.91
438.58	1254.53
438.77	1385.60
438.96	1317.72
439.14	1369.21
439.33	1364.53
439.52	1448.79
439.70	1418.36
439.89	1418.36
440.08	1411.34
440.26	1413.68
440.45	1430.07
440.63	1500.28
440.82	1643.06
441.01	1556.46
441.19	1584.54
441.38	1549.43
441.57	1673.48
441.75	1732.00
441.94	1638.38
442.12	1753.06
442.31	1645.40
442.50	1645.40
442.68	1739.02
442.87	1640.72
443.05	1650.08
443.24	1549.43
443.43	1710.93
443.61	1746.04
443.80	1834.98
443.98	1605.61
444.17	1535.39
444.35	1804.55
444.54	1771.79
444.73	1755.40
444.91	1619.65
445.10	1666.46
445.28	1497.94
445.47	1621.99
445.65	1479.22
445.84	1607.95
446.02	1619.65
446.21	1668.80
446.39	1732.00
446.58	1687.53
446.77	1626.67
446.95	1694.55
447.14	1724.97
447.32	1909.88
447.51	1830.30
447.69	1689.87
447.88	1657.10
448.06	1701.57
448.25	1762.42
448.43	1743.70
448.62	1724.97
448.80	1652.42
448.99	1685.19
449.17	1703.91
449.36	1703.91
449.54	1680.50
449.73	1631.35
449.91	1849.02
450.10	1860.73
450.28	1886.47
450.46	1818.60
450.65	1898.17
450.83	1888.81
451.02	1825.62
451.20	1776.47
451.39	1900.52
451.57	1870.09
451.76	1788.17
451.94	1757.74
452.13	1664.12
452.31	1741.36
452.49	1561.14
452.68	1586.88
452.86	1591.56
453.05	1526.03
453.23	1701.57
453.42	1760.08
453.60	1746.04
453.78	1795.19
453.97	1680.50
454.15	1762.42
454.34	1694.55
454.52	1771.79
454.70	1624.33
454.89	1778.81
455.07	1764.76
455.26	1811.57
455.44	1788.17
455.62	1952.01
455.81	1888.81
455.99	1886.47
456.17	1879.45
456.36	1846.68
456.54	1858.39
456.73	1961.37
456.91	1975.41
457.09	1926.26
457.28	1933.28
457.46	1905.20
457.64	1872.43
457.83	1872.43
458.01	1867.75
458.19	1778.81
458.38	1760.08
458.56	1884.13
458.74	1935.62
458.93	1764.76
459.11	1863.07
459.29	1788.17
459.48	1783.49
459.66	1851.36
459.84	1834.98
460.03	1968.39
460.21	1813.92
460.39	1930.94
460.57	1851.36
460.76	1968.39
460.94	1942.64
461.12	1935.62
461.31	2001.16
461.49	1881.79
461.67	1851.36
461.85	1970.73
462.04	1902.86
462.22	1933.28
462.40	2045.63
462.59	2017.54
462.77	1984.77
462.95	1973.07
463.13	1947.33
463.32	1982.43
463.50	1933.28
463.68	1895.83
463.86	1926.26
464.05	1926.26
464.23	1895.83
464.41	1806.89
464.59	1811.57
464.78	1870.09
464.96	1858.39
465.14	1813.92
465.32	1856.04
465.50	1968.39
465.69	1909.88
465.87	1973.07
466.05	1956.69
466.23	1692.21
466.41	1788.17
466.60	1792.85
466.78	1757.74
466.96	1811.57
467.14	1926.26
467.32	1790.51
467.51	1891.15
467.69	1788.17
467.87	1769.44
468.05	1930.94
468.23	1849.02
468.41	1923.92
468.60	1802.21
468.78	1832.64
468.96	1872.43
469.14	1940.30
469.32	1919.24
469.50	1834.98
469.69	1809.23
469.87	1884.13
470.05	1778.81
470.23	1715.61
470.41	1870.09
470.59	1926.26
470.77	1886.47
470.95	1886.47
471.14	1891.15
471.32	1874.77
471.50	1837.32
471.68	1989.46
471.86	2033.93
472.04	2097.12
472.22	2122.87
472.40	1952.01
472.58	1921.58
472.77	1921.58
472.95	1893.49
473.13	2024.56
473.31	1956.69
473.49	1919.24
473.67	2015.20
473.85	2015.20
474.03	2057.33
474.21	2078.40
474.39	2076.06
474.57	2099.46
474.75	2069.03
474.93	2179.04
475.12	1937.96
475.30	2043.29
475.48	2029.24
475.66	2038.61
475.84	2115.84
476.02	1884.13
476.20	2064.35
476.38	1994.14
476.56	2141.59
476.74	2092.44
476.92	2174.36
477.10	2246.91
477.28	2293.72
477.46	2195.42
477.64	2305.43
477.82	2188.40
478.00	2181.38
478.18	2286.70
478.36	2214.15
478.54	2340.54
478.72	2249.25
478.90	2284.36
479.08	2291.38
479.26	2342.88
479.44	2359.26
479.62	2373.30
479.80	2282.02
479.98	2443.52
480.16	2431.82
480.34	2366.28
480.52	2368.62
480.70	2366.28
480.88	2452.88
481.06	2429.48
481.24	2466.92
481.41	2565.23
481.59	2609.70
481.77	2553.52
481.95	2518.42
482.13	2525.44
482.31	2413.09
482.49	2654.17
482.67	2548.84
482.85	2516.08
483.03	2612.04
483.21	2572.25
483.39	2588.63
483.57	2607.36
483.74	2473.95
483.92	2558.21
484.10	2567.57
484.28	2651.83
484.46	2775.88
484.64	2773.53
484.82	2693.96
485.00	2686.94
485.18	2602.68
485.35	2349.90
485.53	2305.43
485.71	2010.52
485.89	2045.63
486.07	2071.37
486.25	2267.98
486.43	2504.37
486.61	2518.42
486.78	2600.34
486.96	2630.76
487.14	2539.48
487.32	2682.25
487.50	2923.33
487.68	2850.77
487.85	2825.03
488.03	2930.35
488.21	2937.37
488.39	2796.94
488.57	2864.82
488.75	2729.06
488.92	2895.24
489.10	3183.13
489.28	3150.36
489.46	3164.40
489.64	3346.97
489.81	3255.69
489.99	3265.05
490.17	3162.06
490.35	3232.28
490.53	3234.62
490.70	3281.43
490.88	3159.72
491.06	3288.45
491.24	3243.98
491.41	3002.91
491.59	2986.52
491.77	2848.43
491.95	3082.49
492.13	3183.13
492.30	3300.16
492.48	3379.73
492.66	3281.43
492.84	3412.50
493.01	3318.88
493.19	3325.90
493.37	3283.77
493.54	3255.69
493.72	3405.48
493.90	3447.61
494.08	3595.06
494.25	3536.55
494.43	3578.68
494.61	3595.06
494.79	3686.34
494.96	3637.19
495.14	3602.08
495.32	3342.28
495.49	3323.56
495.67	3456.97
495.85	3679.32
496.02	3606.77
496.20	3559.95
496.38	3386.76
496.55	3531.87
496.73	3588.04
496.91	3667.62
497.09	3674.64
497.26	3702.73
497.44	3761.24
497.62	3735.50
497.79	3424.20
497.97	3358.67
498.14	3246.32
498.32	3574.00
498.50	3564.64
498.67	3751.88
498.85	3721.45
499.03	3637.19
499.20	3714.43
499.38	3705.07
499.56	3676.98
499.73	3599.74
499.91	3583.36
500.08	3510.80
500.26	3426.54
500.44	3494.42
500.61	3637.19
500.79	3517.83
500.97	3520.17
501.14	3520.17
501.32	3424.20
501.49	3520.17
501.67	3552.93
501.84	3566.98
502.02	3609.11
502.20	3688.68
502.37	3559.95
502.55	3637.19
502.72	3794.01
502.90	3763.58
503.07	3789.33
503.25	3653.58
503.43	3545.91
503.60	3524.85
503.78	3447.61
503.95	3513.14
504.13	3503.78
504.30	3894.65
504.48	3786.99
504.65	3609.11
504.83	3817.41
505.01	3866.56
505.18	3775.28
505.36	3873.59
505.53	3922.74
505.71	3976.57
505.88	4053.81
506.06	3845.50
506.23	3836.14
506.41	3789.33
506.58	3868.91
506.76	3843.16
506.93	3868.91
507.11	3719.11
507.28	3782.31
507.46	3817.41
507.63	3461.65
507.81	3522.51
507.98	3566.98
508.16	3779.97
508.33	3833.80
508.50	3777.62
508.68	3908.69
508.85	4016.36
509.03	3854.86
509.20	4095.94
509.38	3847.84
509.55	3730.81
509.73	3765.92
509.90	3953.16
510.08	3847.84
510.25	3859.54
510.42	3808.05
510.60	3786.99
510.77	3667.62
510.95	3779.97
511.12	3939.12
511.30	4135.73
511.47	4051.47
511.64	4039.76
511.82	4114.66
511.99	3852.52
512.17	3740.18
512.34	3735.50
512.51	3918.06
512.69	3665.28
512.86	3840.82
513.04	3779.97
513.21	3733.15
513.38	3721.45
513.56	3648.90
513.73	3604.42
513.90	3740.18
514.08	3669.96
514.25	3775.28
514.43	3768.26
514.60	3775.28
514.77	3751.88
514.95	3822.09
515.12	3756.56
515.29	3765.92
515.47	3852.52
515.64	3969.55
515.81	3758.90
515.99	3765.92
516.16	3552.93
516.33	3405.48
516.51	3185.47
516.68	3002.91
516.85	2988.86
517.03	2939.71
517.20	3342.28
517.37	3595.06
517.54	3843.16
517.72	3737.84
517.89	3335.26
518.06	3080.14
518.24	3136.32
518.41	3543.57
518.58	3433.57
518.75	3487.40
518.93	3548.25
519.10	3686.34
519.27	3728.47
519.45	3810.39
519.62	3953.16
519.79	3964.87
519.96	3824.44
520.14	3801.03
520.31	3695.71
520.48	3665.28
520.65	3637.19
520.83	3669.96
521.00	3829.12
521.17	3850.18
521.34	3772.94
521.52	3761.24
521.69	3852.52
521.86	3824.44
522.03	3913.38
522.20	3648.90
522.38	3630.17
522.55	3627.83
522.72	3616.13
522.89	3503.78
523.07	3653.58
523.24	3726.13
523.41	3803.37
523.58	4067.85
523.75	3817.41
523.92	3978.91
524.10	3969.55
524.27	3889.97
524.44	3929.76
524.61	3829.12
524.78	3843.16
524.96	3824.44
525.13	3875.93
525.30	3889.97
525.47	3887.63
525.64	3896.99
525.81	3712.09
525.98	3681.66
526.16	3468.67
526.33	3286.11
526.50	3382.07
526.67	3316.54
526.84	3363.35
527.01	3492.08
527.18	3576.34
527.36	3770.60
527.53	3859.54
527.70	3826.78
527.87	3754.22
528.04	3758.90
528.21	3754.22
528.38	3878.27
528.55	4032.74
528.72	3906.35
528.89	4065.51
529.07	3875.93
529.24	3955.51
529.41	3843.16
529.58	3632.51
529.75	3679.32
529.92	3789.33
530.09	3817.41
530.26	4044.45
530.43	3957.85
530.60	3875.93
530.77	4009.34
530.94	4056.15
531.11	3887.63
531.28	3964.87
531.46	3801.03
531.63	3801.03
531.80	3974.23
531.97	3775.28
532.14	3630.17
532.31	3585.70
532.48	3543.57
532.65	3456.97
532.82	3461.65
532.99	3726.13
533.16	3644.21
533.33	3831.46
533.50	3805.71
533.67	3618.47
533.84	3583.36
534.01	3669.96
534.18	3637.19
534.35	3801.03
534.52	3618.47
534.69	3730.81
534.86	3726.13
535.03	4009.34
535.20	3822.09
535.37	3976.57
535.54	4009.34
535.71	3929.76
535.88	3838.48
536.05	3768.26
536.22	3576.34
536.38	3700.39
536.55	3463.99
536.72	3510.80
536.89	3592.72
537.06	3632.51
537.23	3709.75
537.40	3882.95
537.57	3784.65
537.74	3803.37
537.91	3765.92
538.08	3730.81
538.25	3721.45
538.42	3705.07
538.59	3751.88
538.75	3707.41
538.92	3644.21
539.09	3693.37
539.26	3613.79
539.43	3534.21
539.60	3520.17
539.77	3627.83
539.94	3578.68
540.11	3459.31
540.28	3520.17
540.44	3426.54
540.61	3478.04
540.78	3325.90
540.95	3424.20
541.12	3552.93
541.29	3590.38
541.46	3625.49
541.62	3695.71
541.79	3590.38
541.96	3524.85
542.13	3672.30
542.30	3445.27
542.47	3648.90
542.63	3536.55
542.80	3637.19
542.97	3487.40
543.14	3592.72
543.31	3435.91
543.48	3695.71
543.64	3700.39
543.81	3728.47
543.98	3782.31
544.15	3653.58
544.32	3456.97
544.48	3597.40
544.65	3541.23
544.82	3747.20
544.99	3503.78
545.16	3569.32
545.32	3665.28
545.49	3712.09
545.66	3768.26
545.83	3836.14
546.00	3632.51
546.16	3599.74
546.33	3627.83
546.50	3492.08
546.67	3623.15
546.83	3599.74
547.00	3482.72
547.17	3473.36
547.34	3260.37
547.50	3550.59
547.67	3461.65
547.84	3463.99
548.00	3515.48
548.17	3566.98
548.34	3506.12
548.51	3562.30
548.67	3562.30
548.84	3618.47
549.01	3613.79
549.18	3513.14
549.34	3440.59
549.51	3496.76
549.68	3541.23
549.84	3503.78
550.01	3463.99
550.18	3438.25
550.34	3499.10
550.51	3382.07
550.68	3492.08
550.84	3456.97
551.01	3396.12
551.18	3356.33
551.34	3414.84
551.51	3639.53
551.68	3613.79
551.84	3496.76
552.01	3473.36
552.18	3419.52
552.34	3452.29
552.51	3428.88
552.68	3300.16
552.84	3566.98
553.01	3471.01
553.18	3463.99
553.34	3531.87
553.51	3494.42
553.67	3421.86
553.84	3452.29
554.01	3529.53
554.17	3494.42
554.34	3428.88
554.51	3379.73
554.67	3461.65
554.84	3510.80
555.00	3386.76
555.17	3485.06
555.33	3471.01
555.50	3421.86
555.67	3358.67
555.83	3356.33
556.00	3185.47
556.16	3330.58
556.33	3248.66
556.50	3215.90
556.66	3314.20
556.83	3297.81
556.99	3222.92
557.16	3150.36
557.32	3218.24
557.49	3171.43
557.65	3283.77
557.82	3248.66
557.98	3286.11
558.15	3108.23
558.32	3201.85
558.48	3028.65
558.65	2935.03
558.81	3204.19
558.98	3101.21
559.14	3082.49
559.31	3112.91
559.47	3248.66
559.64	3117.59
559.80	3030.99
559.97	3122.27
560.13	3218.24
560.30	3267.39
560.46	3447.61
560.63	3370.37
560.79	3393.78
560.96	3295.47
561.12	3248.66
561.29	3005.25
561.45	3124.62
561.61	3061.42
561.78	3232.28
561.94	3063.76
562.11	3133.98
562.27	3190.15
562.44	3145.68
562.60	3138.66
562.77	3183.13
562.93	3178.45
563.10	3356.33
563.26	3164.40
563.42	3084.83
563.59	3012.27
563.75	3248.66
563.92	3164.40
564.08	3199.51
564.24	3241.64
564.41	3185.47
564.57	3265.05
564.74	3136.32
564.90	3110.57
565.07	3054.40
565.23	3084.83
565.39	3112.91
565.56	2806.30
565.72	2906.95
565.88	2979.50
566.05	2984.18
566.21	3026.31
566.38	2970.14
566.54	3066.10
566.70	3122.27
566.87	3077.80
567.03	3222.92
567.19	3080.14
567.36	3117.59
567.52	2925.67
567.68	3005.25
567.85	3061.42
568.01	2895.24
568.17	2789.92
568.34	3103.55
568.50	2771.19
568.66	2911.63
568.83	3014.61
568.99	2937.37
569.15	3075.46
569.32	2991.20
569.48	2974.82
569.64	2981.84
569.81	2953.76
569.97	2909.29
570.13	2855.45
570.30	2724.38
570.46	2705.66
570.62	2729.06
570.78	2640.12
570.95	2679.91
571.11	2853.11
571.27	2853.11
571.43	2855.45
571.60	2895.24
571.76	3028.65
571.92	2949.08
572.09	2892.90
572.25	2874.18
572.41	3007.59
572.57	2839.07
572.74	2843.75
572.90	2871.84
573.06	2944.39
573.22	2780.56
573.38	2881.20
573.55	2815.66
573.71	2862.48
573.87	2871.84
574.03	2939.71
574.20	2916.31
574.36	2731.41
574.52	2768.85
574.68	2801.62
574.84	2771.19
575.01	2619.06
575.17	2647.15
575.33	2780.56
575.49	2682.25
575.65	2733.75
575.82	2700.98
575.98	2860.13
576.14	2719.70
576.30	2822.69
576.46	2708.00
576.62	2909.29
576.79	2773.53
576.95	2843.75
577.11	2773.53
577.27	2757.15
577.43	2813.32
577.59	2733.75
577.75	2675.23
577.92	2677.57
578.08	2616.72
578.24	2602.68
578.40	2633.10
578.56	2647.15
578.72	2677.57
578.88	2717.36
579.04	2773.53
579.21	2672.89
579.37	2740.77
579.53	2829.71
579.69	2780.56
579.85	2736.09
580.01	2820.35
580.17	2640.12
580.33	2736.09
580.49	2595.65
580.65	2724.38
580.82	2832.05
580.98	2640.12
581.14	2576.93
581.30	2590.97
581.46	2750.13
581.62	2829.71
581.78	2750.13
581.94	2780.56
582.10	2724.38
582.26	2768.85
582.42	2686.94
582.58	2745.45
582.74	2787.58
582.90	2619.06
583.06	2853.11
583.22	2661.19
583.38	2626.08
583.54	2661.19
583.70	2623.74
583.86	2551.18
584.02	2605.02
584.18	2700.98
584.34	2525.44
584.50	2663.53
584.66	2553.52
584.82	2490.33
584.98	2551.18
585.14	2583.95
585.30	2546.50
585.46	2555.86
585.62	2562.89
585.78	2399.05
585.94	2523.10
586.10	2532.46
586.26	2502.03
586.42	2567.57
586.58	2635.44
586.74	2640.12
586.90	2668.21
587.06	2555.86
587.22	2670.55
587.38	2436.50
587.54	2356.92
587.70	2434.16
587.86	2502.03
588.02	2462.24
588.18	2499.69
588.34	2347.56
588.49	2174.36
588.65	2040.95
588.81	1956.69
588.97	2047.97
589.13	2050.31
589.29	2024.56
589.45	2012.86
589.61	2193.08
589.77	2335.85
589.93	2242.23
590.08	2328.83
590.24	2298.41
590.40	2380.32
590.56	2349.90
590.72	2438.84
590.88	2342.88
591.04	2410.75
591.20	2296.07
591.35	2396.71
591.51	2303.09
591.67	2436.50
591.83	2380.32
591.99	2296.07
592.15	2361.60
592.31	2403.73
592.46	2424.80
592.62	2380.32
592.78	2265.64
592.94	2310.11
593.10	2396.71
593.26	2314.79
593.41	2408.41
593.57	2363.94
593.73	2363.94
593.89	2363.94
594.05	2321.81
594.20	2291.38
594.36	2179.04
594.52	2207.13
594.68	2176.70
594.84	2221.17
594.99	2272.66
595.15	2300.75
595.31	2317.13
595.47	2340.54
595.62	2267.98
595.78	2307.77
595.94	2272.66
596.10	2307.77
596.25	2305.43
596.41	2111.16
596.57	2190.74
596.73	2291.38
596.88	2303.09
597.04	2188.40
597.20	2244.57
597.36	2202.44
597.51	2249.25
597.67	2246.91
597.83	2389.69
597.99	2246.91
598.14	2256.28
598.30	2193.08
598.46	2207.13
598.61	2293.72
598.77	2338.20
598.93	2230.53
599.09	2179.04
599.24	2300.75
599.40	2272.66
599.56	2303.09
