SpectraSuite Data File
++++++++++++++++++++++++++++++++++++
Date: Mon Oct 07 14:53:22 GMT-05:00 2013
User: price-jones
Dark Spectrum Present: No
Reference Spectrum Present: No
Number of Sampled Component Spectra: 1
Spectrometers: USB2+H05261
Integration Time (usec): 100000 (USB2+H05261)
Spectra Averaged: 1 (USB2+H05261)
Boxcar Smoothing: 0 (USB2+H05261)
Correct for Electrical Dark: No (USB2+H05261)
Strobe/Lamp Enabled: No (USB2+H05261)
Correct for Detector Non-linearity: No (USB2+H05261)
Correct for Stray Light: No (USB2+H05261)
Number of Pixels in Processed Spectrum: 2048
>>>>>Begin Processed Spectral Data<<<<<
365.73	0.00
365.92	0.00
366.12	0.00
366.32	0.00
366.52	0.00
366.72	0.00
366.91	0.00
367.11	0.00
367.31	0.00
367.51	0.00
367.70	0.00
367.90	0.00
368.10	0.00
368.30	0.00
368.49	0.00
368.69	0.00
368.89	0.00
369.09	0.00
369.28	0.00
369.48	0.00
369.68	0.00
369.87	0.00
370.07	0.00
370.27	0.00
370.47	552.37
370.66	2881.20
370.86	3419.52
371.06	3714.43
371.25	3735.50
371.45	3339.94
371.65	3068.44
371.84	2862.48
372.04	3185.47
372.24	3243.98
372.44	3566.98
372.63	3452.29
372.83	3363.35
373.03	2883.54
373.22	2532.46
373.42	2768.85
373.62	3187.81
373.81	3426.54
374.01	3461.65
374.21	3119.93
374.40	2909.29
374.60	3021.63
374.79	3356.33
374.99	3843.16
375.19	4135.73
375.38	4264.46
375.58	3983.59
375.78	3948.48
375.97	3985.93
376.17	4142.75
376.37	4175.52
376.56	4269.14
376.76	4575.75
376.95	4718.52
377.15	5093.01
377.35	5249.82
377.54	5631.33
377.74	5647.71
377.93	5586.86
378.13	5518.98
378.33	5313.02
378.52	4786.40
378.72	4809.80
378.91	4657.67
379.11	4428.29
379.31	4444.68
379.50	4337.01
379.70	4531.28
379.89	5064.92
380.09	5547.07
380.28	5565.79
380.48	5631.33
380.68	5516.64
380.87	5345.78
381.07	4868.31
381.26	4596.81
381.46	4341.69
381.65	4074.87
381.85	4147.43
382.04	3953.16
382.24	3644.21
382.43	3438.25
382.63	3431.23
382.83	3384.41
383.02	3288.45
383.22	3442.93
383.41	3351.65
383.61	3684.00
383.80	4229.35
384.00	4650.64
384.19	5256.84
384.39	5523.66
384.58	5376.21
384.78	5425.36
384.97	5298.97
385.17	5006.41
385.36	4868.31
385.56	4610.86
385.75	4793.42
385.95	5167.90
386.14	5738.99
386.34	5631.33
386.53	5533.03
386.72	5179.61
386.92	5273.23
387.11	5465.15
387.31	5556.43
387.50	5495.58
387.70	5462.81
387.89	5554.09
388.09	5392.59
388.28	5378.55
388.48	5593.88
388.67	6033.90
388.86	6455.20
389.06	6972.46
389.25	7344.60
389.45	7548.23
389.64	7215.87
389.84	7435.88
390.03	7183.10
390.22	7201.83
390.42	7265.02
390.61	7889.95
390.81	8133.36
391.00	8720.84
391.19	8484.44
391.39	8203.58
391.58	7873.56
391.78	7187.79
391.97	7122.25
392.16	6593.29
392.36	5937.94
392.55	4739.58
392.75	3922.74
392.94	3243.98
393.13	3052.06
393.33	3653.58
393.52	4702.14
393.71	5809.21
393.91	6413.07
394.10	6935.01
394.29	7588.02
394.49	8294.86
394.68	9085.96
394.88	9053.19
395.07	9310.65
395.26	9373.85
395.46	8847.22
395.65	8510.19
395.84	7393.75
396.04	6429.45
396.23	5123.43
396.42	4329.99
396.62	4067.85
396.81	4788.74
397.00	6040.92
397.19	7765.90
397.39	8842.54
397.58	10251.55
397.77	10829.66
397.97	11218.19
398.16	11211.17
398.35	11506.07
398.55	11906.31
398.74	12678.68
398.93	12879.97
399.12	12538.25
399.32	12194.19
399.51	12446.97
399.70	13170.19
399.90	13170.19
400.09	13448.72
400.28	13116.36
400.47	13303.60
400.67	13689.79
400.86	14258.54
401.05	14235.14
401.24	14317.06
401.44	14420.04
401.63	14572.18
401.82	14941.98
402.01	14726.65
402.21	14853.04
402.40	14817.93
402.59	14190.67
402.78	13776.39
402.97	13191.26
403.17	13963.64
403.36	14649.41
403.55	15468.60
403.74	15672.23
403.93	14618.99
404.13	13738.94
404.32	13511.91
404.51	14005.77
404.70	15220.50
404.89	14829.63
405.09	14457.49
405.28	14295.99
405.47	14590.90
405.66	14511.32
405.85	14043.21
406.05	13528.30
406.24	13858.31
406.43	14443.45
406.62	14775.80
406.81	14984.11
407.00	14295.99
407.20	13991.72
407.39	14228.12
407.58	14841.34
407.77	15484.98
407.96	15920.32
408.15	16278.43
408.34	16079.48
408.54	16898.67
408.73	17083.57
408.92	16971.22
409.11	16407.16
409.30	15510.73
409.49	14668.14
409.68	13584.47
409.87	13139.77
410.07	14148.54
410.26	14995.81
410.45	16098.20
410.64	16449.28
410.83	16882.28
411.02	17371.46
411.21	18218.73
411.40	18185.96
411.59	17891.06
411.78	17937.87
411.98	17539.97
412.17	18090.00
412.36	17549.34
412.55	17593.81
412.74	17202.94
412.93	16968.88
413.12	17240.39
413.31	18366.18
413.50	18913.87
413.69	19112.81
413.88	18424.70
414.07	17610.19
414.26	18190.64
414.45	18672.79
414.64	18974.72
414.83	18878.76
415.02	18499.59
415.22	18471.51
415.41	18857.70
415.60	19342.19
415.79	20304.15
415.98	20659.91
416.17	20475.01
416.36	19889.87
416.55	19885.19
416.74	19297.72
416.93	18771.10
417.12	18817.91
417.31	19042.60
417.50	19234.52
417.69	19887.53
417.88	19887.53
418.07	19585.60
418.26	19201.76
418.45	19623.05
418.64	20034.99
418.83	20950.14
419.02	20624.80
419.21	20411.81
419.39	19442.83
419.58	18609.60
419.77	18635.35
419.96	19487.30
420.15	20802.68
420.34	21631.23
420.53	22026.78
420.72	22263.18
420.91	21921.46
421.10	21982.31
421.29	21579.74
421.48	20809.70
421.67	22099.34
421.86	21343.35
422.05	19690.93
422.24	18111.07
422.43	17823.18
422.61	19131.54
422.80	20945.45
422.99	21172.49
423.18	20620.12
423.37	19777.53
423.56	20023.28
423.75	20306.49
423.94	20809.70
424.13	19583.26
424.32	19751.78
424.50	19868.81
424.69	19770.51
424.88	19831.36
425.07	19845.40
425.26	19882.85
425.45	19557.52
425.64	18988.77
425.83	19009.83
426.01	20397.77
426.20	20545.22
426.39	20638.84
426.58	19564.54
426.77	17483.80
426.96	17224.00
427.15	17479.12
427.33	19250.91
427.52	19971.79
427.71	19967.11
427.90	19917.96
428.09	19576.24
428.28	19037.92
428.46	18602.58
428.65	18134.47
428.84	18780.46
429.03	18810.89
429.22	18146.17
429.40	17181.87
429.59	15328.17
429.78	13582.13
429.97	13614.90
430.16	13973.00
430.34	13834.91
430.53	14125.13
430.72	14178.97
430.91	15967.13
431.10	18532.36
431.28	21963.59
431.47	23363.23
431.66	23985.81
431.85	21926.14
432.03	19859.45
432.22	18920.89
432.41	19798.59
432.60	22054.87
432.79	22869.37
432.97	23264.92
433.16	23112.79
433.35	20980.56
433.54	18801.52
433.72	17811.48
433.91	18405.97
434.10	20491.39
434.28	21802.09
434.47	23005.13
434.66	22742.99
434.85	22319.35
435.03	21851.24
435.22	22537.02
435.41	24011.56
435.59	23803.25
435.78	24416.47
435.97	24971.18
436.16	25242.68
436.34	25120.97
436.53	24425.83
436.72	24259.65
436.90	22930.23
437.09	23112.79
437.28	22415.31
437.46	23365.57
437.65	23157.26
437.84	21689.74
438.02	19559.86
438.21	19681.56
438.40	20975.88
438.58	22485.53
438.77	23318.76
438.96	23314.08
439.14	24395.40
439.33	24783.93
439.52	25261.40
439.70	25177.14
439.89	24018.58
440.08	23552.81
440.26	23337.48
440.45	24713.72
440.63	26178.89
440.82	27545.76
441.01	27232.13
441.19	26499.55
441.38	27080.00
441.57	28240.90
441.75	28531.13
441.94	28772.21
442.12	28484.32
442.31	28870.51
442.50	28891.57
442.68	28276.01
442.87	28058.34
443.05	27826.63
443.24	28315.80
443.43	28985.19
443.61	29268.40
443.80	30031.41
443.98	27901.53
444.17	28091.11
444.35	29603.10
444.54	29818.42
444.73	29273.08
444.91	28758.16
445.10	27239.15
445.28	25982.29
445.47	25921.43
445.65	26012.71
445.84	26689.13
446.02	27669.81
446.21	28456.23
446.39	28168.35
446.58	28346.23
446.77	28821.36
446.95	29385.43
447.14	30431.65
447.32	30749.96
447.51	30291.21
447.69	28573.26
447.88	28308.78
448.06	28531.13
448.25	29783.32
448.43	29724.80
448.62	29378.40
448.80	29062.43
448.99	28975.83
449.17	29633.52
449.36	29525.86
449.54	30616.55
449.73	30691.44
449.91	31332.75
450.10	31945.97
450.28	32786.22
450.46	32409.40
450.65	32311.10
450.83	32002.14
451.02	31288.28
451.20	31634.68
451.39	31248.49
451.57	31056.57
451.76	31285.94
451.94	31435.74
452.13	29923.75
452.31	29308.19
452.49	27821.95
452.68	28247.93
452.86	27709.60
453.05	28683.27
453.23	29127.97
453.42	29942.47
453.60	30740.60
453.78	31335.09
453.97	30419.94
454.15	30663.36
454.34	30272.49
454.52	29947.15
454.70	29518.84
454.89	29820.77
455.07	29972.90
455.26	30209.29
455.44	31379.56
455.62	31871.07
455.81	32217.47
455.99	32165.98
456.17	31742.35
456.36	31625.32
456.54	32615.37
456.73	32608.34
456.91	32823.67
457.09	33329.23
457.28	33376.04
457.46	32725.37
457.64	32769.84
457.83	31714.26
458.01	30637.61
458.19	31428.71
458.38	32067.68
458.56	33090.49
458.74	32856.44
458.93	32203.43
459.11	31878.10
459.29	31957.67
459.48	31997.46
459.66	31751.71
459.84	31931.93
460.03	32503.02
460.21	32428.12
460.39	33558.60
460.57	33479.02
460.76	33736.48
460.94	33921.38
461.12	33284.76
461.31	33776.27
461.49	33247.31
461.67	33364.34
461.85	34873.98
462.04	34089.90
462.22	34787.38
462.40	34195.23
462.59	34471.41
462.77	34492.47
462.95	34057.14
463.13	33242.63
463.32	33823.08
463.50	33544.56
463.68	33268.37
463.86	33450.94
464.05	33041.34
464.23	32421.10
464.41	32369.61
464.59	31758.73
464.78	33312.84
464.96	32620.05
465.14	32598.98
465.32	33584.35
465.50	34668.02
465.69	34651.63
465.87	33949.47
466.05	33699.03
466.23	31892.14
466.41	30988.69
466.60	31899.16
466.78	31501.27
466.96	32320.46
467.14	32631.75
467.32	33464.98
467.51	33406.47
467.69	31981.08
467.87	32231.52
468.05	33448.60
468.23	32631.75
468.41	33331.57
468.60	32690.26
468.78	33596.05
468.96	33060.07
469.14	34122.67
469.32	33914.36
469.50	32439.82
469.69	32781.54
469.87	32198.75
470.05	31906.18
470.23	32030.23
470.41	32257.26
470.59	32762.82
470.77	32720.69
470.95	33488.38
471.14	33883.94
471.32	34244.38
471.50	35992.76
471.68	36032.55
471.86	36254.90
472.04	36556.83
472.22	36238.51
472.40	34462.05
472.58	34410.56
472.77	33956.49
472.95	34391.83
473.13	35321.02
473.31	34593.12
473.49	34675.04
473.67	35730.62
473.85	35672.10
474.03	36751.09
474.21	36683.22
474.39	37048.34
474.57	37006.21
474.75	36924.29
474.93	36793.22
475.12	36470.23
475.30	36343.84
475.48	35861.69
475.66	36818.97
475.84	36294.69
476.02	36273.62
476.20	35641.68
476.38	36364.90
476.56	37310.48
476.74	37694.33
476.92	38209.25
477.10	38515.86
477.28	39662.72
477.46	39643.99
477.64	40088.70
477.82	40215.08
478.00	40093.38
478.18	39913.16
478.36	39899.11
478.54	39323.34
478.72	39934.22
478.90	40905.54
479.08	41940.06
479.26	42263.05
479.44	42246.67
479.62	41537.49
479.80	41443.87
479.98	42050.06
480.16	42546.26
480.34	41991.55
480.52	42742.86
480.70	42438.59
480.88	42431.57
481.06	43695.46
481.24	43894.41
481.41	44992.12
481.59	44996.80
481.77	45116.17
481.95	44205.70
482.13	43873.34
482.31	44399.96
482.49	45078.72
482.67	44994.46
482.85	45052.97
483.03	45546.82
483.21	46342.61
483.39	45820.67
483.57	45373.63
483.74	44938.29
483.92	45382.99
484.10	45530.44
484.28	46497.08
484.46	46789.65
484.64	47124.35
484.82	46637.51
485.00	46052.38
485.18	45392.35
485.35	43749.29
485.53	40818.94
485.71	37081.11
485.89	36212.77
486.07	38106.26
486.25	41684.94
486.43	44013.77
486.61	44673.81
486.78	44744.02
486.96	45212.13
487.14	46253.67
487.32	47447.34
487.50	48605.91
487.68	49598.29
487.85	49886.18
488.03	49748.09
488.21	49411.05
488.39	48540.37
488.57	48090.99
488.75	47540.96
488.92	48971.03
489.10	51061.13
489.28	52329.70
489.46	53291.66
489.64	52877.38
489.81	53043.56
489.99	52673.76
490.17	53008.45
490.35	53303.36
490.53	52776.74
490.70	52420.98
490.88	52378.85
491.06	53191.01
491.24	53354.85
491.41	51873.29
491.59	50232.58
491.77	49380.62
491.95	50897.29
492.13	51877.97
492.30	53144.20
492.48	54127.23
492.66	54707.68
492.84	54630.44
493.01	54447.88
493.19	53855.73
493.37	53631.04
493.54	53235.48
493.72	53893.18
493.90	54958.12
494.08	55618.15
494.25	55941.14
494.43	56261.80
494.61	56566.07
494.79	56568.41
494.96	56294.56
495.14	55758.58
495.32	54562.57
495.49	54323.83
495.67	55213.24
495.85	56598.83
496.02	56980.34
496.20	56715.86
496.38	56360.10
496.55	56086.26
496.73	56818.84
496.91	56786.08
497.09	57499.94
497.26	57675.48
497.44	56870.34
497.62	56699.48
497.79	55784.33
497.97	54593.00
498.14	54639.81
498.32	55655.60
498.50	56638.62
498.67	57279.93
498.85	57233.12
499.03	57193.33
499.20	57523.35
499.38	57406.32
499.56	57179.29
499.73	57062.26
499.91	56643.30
500.08	56053.49
500.26	55384.10
500.44	55870.93
500.61	56357.76
500.79	56479.47
500.97	55800.71
501.14	55906.04
501.32	55770.28
501.49	55772.63
501.67	55746.88
501.84	56378.82
502.02	56603.52
502.20	57104.39
502.37	57106.73
502.55	57193.33
502.72	57670.80
502.90	58195.08
503.07	57757.40
503.25	57633.35
503.43	56563.73
503.60	55889.65
503.78	55360.69
503.95	55873.27
504.13	57233.12
504.30	57937.62
504.48	57879.11
504.65	57450.79
504.83	57389.94
505.01	57951.66
505.18	58319.13
505.36	59114.91
505.53	58873.84
505.71	59157.04
505.88	59128.95
506.06	58710.00
506.23	58295.72
506.41	57794.85
506.58	58244.23
506.76	58246.57
506.93	58274.66
507.11	58014.86
507.28	57991.45
507.46	57619.31
507.63	56966.30
507.81	57024.81
507.98	57125.46
508.16	57872.09
508.33	58232.53
508.50	58717.02
508.68	59049.38
508.85	59377.05
509.03	59330.24
509.20	59189.81
509.38	58548.50
509.55	57895.49
509.73	57930.60
509.90	58602.33
510.08	58611.70
510.25	58583.61
510.42	58234.87
510.60	58080.39
510.77	58632.76
510.95	58990.86
511.12	59416.84
511.30	59451.95
511.47	59788.98
511.64	59655.57
511.82	59344.28
511.99	58588.29
512.17	58391.68
512.34	57633.35
512.51	58003.16
512.69	58094.44
512.86	58138.91
513.04	58869.15
513.21	58789.58
513.38	58251.25
513.56	57918.90
513.73	57183.97
513.90	57640.37
514.08	57612.29
514.25	57869.75
514.43	57982.09
514.60	58169.33
514.77	58356.58
514.95	58482.97
515.12	58251.25
515.29	58478.28
515.47	58843.41
515.64	59150.02
515.81	58885.54
515.99	58253.59
516.16	57123.11
516.33	54667.89
516.51	52992.07
516.68	52364.81
516.85	52016.07
517.03	52381.19
517.20	55114.94
517.37	57661.44
517.54	58520.41
517.72	57949.32
517.89	55554.96
518.06	53212.08
518.24	53511.67
518.41	55676.66
518.58	57052.90
518.75	57120.77
518.93	57537.39
519.10	57176.95
519.27	57612.29
519.45	58087.42
519.62	58702.98
519.79	59143.00
519.96	58499.35
520.14	58302.74
520.31	57675.48
520.48	57530.37
520.65	57939.96
520.83	58763.83
521.00	59049.38
521.17	58677.23
521.34	58316.79
521.52	58777.87
521.69	59395.77
521.86	59700.04
522.03	59309.18
522.20	58141.25
522.38	56989.70
522.55	57251.84
522.72	57869.75
522.89	57954.00
523.07	58127.20
523.24	58485.31
523.41	59241.30
523.58	59503.44
523.75	59910.69
523.92	59913.03
524.10	59929.42
524.27	59819.41
524.44	59302.15
524.61	59400.46
524.78	59138.32
524.96	59168.74
525.13	59159.38
525.30	59487.06
525.47	59882.61
525.64	59608.76
525.81	59114.91
525.98	57766.76
526.16	56088.60
526.33	55561.98
526.50	55257.71
526.67	54932.37
526.84	55449.63
527.01	56776.72
527.18	57174.61
527.36	58548.50
527.53	59267.05
527.70	59262.36
527.87	58763.83
528.04	58223.17
528.21	58710.00
528.38	59538.55
528.55	59812.39
528.72	60214.96
528.89	60434.97
529.07	59927.08
529.24	59414.50
529.41	58946.39
529.58	58227.85
529.75	58403.39
529.92	58932.35
530.09	59302.15
530.26	59788.98
530.43	60088.57
530.60	59927.08
530.77	60170.49
530.94	60413.91
531.11	59646.21
531.28	59484.72
531.46	59377.05
531.63	59557.27
531.80	59477.69
531.97	58815.32
532.14	58094.44
532.31	57212.06
532.48	56573.09
532.65	56516.92
532.82	57612.29
532.99	58438.50
533.16	58763.83
533.33	59355.99
533.50	59269.39
533.67	58457.22
533.84	58094.44
534.01	58358.92
534.18	58688.93
534.35	58932.35
534.52	58501.69
534.69	58892.56
534.86	59168.74
535.03	59470.67
535.20	59903.67
535.37	60282.84
535.54	60186.88
535.71	59898.99
535.88	59391.09
536.05	58887.88
536.22	58489.99
536.38	58328.49
536.55	57993.79
536.72	57247.16
536.89	57432.07
537.06	58354.24
537.23	58979.16
537.40	59126.61
537.57	59295.13
537.74	59065.76
537.91	59032.99
538.08	58967.46
538.25	58934.69
538.42	59131.29
538.59	58944.05
538.75	58206.78
538.92	58131.89
539.09	58010.18
539.26	57743.36
539.43	57483.56
539.60	57813.57
539.77	57860.38
539.94	57792.51
540.11	57083.33
540.28	56647.99
540.44	56420.95
540.61	56453.72
540.78	57080.98
540.95	57380.57
541.12	57741.02
541.29	58164.65
541.46	58492.33
541.62	58354.24
541.79	58218.49
541.96	57408.66
542.13	57677.82
542.30	58213.80
542.47	58150.61
542.63	57979.75
542.80	57771.44
542.97	57797.19
543.14	57918.90
543.31	57600.58
543.48	58377.64
543.64	59112.57
543.81	59112.57
543.98	59056.40
544.15	58417.43
544.32	57701.23
544.48	57888.47
544.65	58241.89
544.82	58501.69
544.99	58253.59
545.16	58145.93
545.32	57691.86
545.49	58614.04
545.66	59049.38
545.83	58642.12
546.00	58108.48
546.16	57834.64
546.33	57874.43
546.50	58108.48
546.67	58309.77
546.83	57841.66
547.00	58223.17
547.17	57359.51
547.34	56694.80
547.50	56589.47
547.67	57364.19
547.84	57432.07
548.00	57659.10
548.17	58047.63
548.34	58026.56
548.51	57979.75
548.67	57984.43
548.84	58106.14
549.01	57984.43
549.18	57865.06
549.34	57518.67
549.51	57970.39
549.68	58099.12
549.84	57471.85
550.01	57434.41
550.18	57523.35
550.34	57371.21
550.51	57453.13
550.68	57485.90
550.84	57010.77
551.01	57125.46
551.18	57181.63
551.34	57338.44
551.51	57645.05
551.68	58108.48
551.84	57939.96
552.01	57649.74
552.18	57581.86
552.34	56882.04
552.51	56498.19
552.68	56573.09
552.84	56795.44
553.01	57176.95
553.18	57130.14
553.34	57301.00
553.51	57230.78
553.67	57425.04
553.84	57663.78
554.01	57411.00
554.17	57570.16
554.34	57422.70
554.51	57581.86
554.67	57907.19
554.84	57820.59
555.00	57282.27
555.17	57200.35
555.33	57270.57
555.50	57202.69
555.67	57069.28
555.83	56992.04
556.00	56772.03
556.16	56828.21
556.33	56442.02
556.50	56069.87
556.66	56238.39
556.83	55758.58
556.99	55978.59
557.16	56116.68
557.32	56327.33
557.49	56835.23
557.65	56561.39
557.82	56619.90
557.98	56451.38
558.15	55955.19
558.32	55047.06
558.48	54457.24
558.65	54602.36
558.81	55044.72
558.98	55253.03
559.14	55412.18
559.31	55559.64
559.47	55664.96
559.64	55201.53
559.80	54855.14
559.97	55089.19
560.13	55178.13
560.30	56119.02
560.46	56659.69
560.63	56811.82
560.79	56893.74
560.96	56605.86
561.12	55433.25
561.29	54593.00
561.45	54688.96
561.61	55255.37
561.78	55578.36
561.94	55650.92
562.11	55426.23
562.27	55257.71
562.44	55772.63
562.60	55971.57
562.77	56123.71
562.93	56097.96
563.10	55891.99
563.26	55253.03
563.42	55569.00
563.59	55206.22
563.75	55323.24
563.92	55571.34
564.08	55213.24
564.24	55531.55
564.41	55676.66
564.57	55583.04
564.74	55065.78
564.90	55243.66
565.07	54848.11
565.23	54719.38
565.39	54052.33
565.56	53762.11
565.72	53469.54
565.88	53918.92
566.05	54057.01
566.21	54394.05
566.38	54660.87
566.54	54635.13
566.70	55044.72
566.87	55082.17
567.03	55458.99
567.19	55386.44
567.36	55150.04
567.52	54939.39
567.68	54717.04
567.85	54117.87
568.01	53998.50
568.17	53389.96
568.34	53230.80
568.50	53193.36
568.66	53572.52
568.83	54155.32
568.99	53904.88
569.15	53881.47
569.32	54281.70
569.48	53902.54
569.64	53448.47
569.81	53558.48
569.97	53294.00
570.13	53240.17
570.30	52053.51
570.46	52158.84
570.62	51697.75
570.78	51454.34
570.95	51765.63
571.11	52580.13
571.27	52767.38
571.43	52966.32
571.60	53532.73
571.76	53261.23
571.92	53869.77
572.09	54038.29
572.25	53776.15
572.41	54131.91
572.57	53633.38
572.74	53874.45
572.90	53350.17
573.06	53368.90
573.22	53329.11
573.38	53113.78
573.55	53336.13
573.71	53469.54
573.87	53041.22
574.03	53076.33
574.20	53389.96
574.36	52783.76
574.52	52762.70
574.68	52420.98
574.84	51920.10
575.01	51650.94
575.17	51510.51
575.33	51924.78
575.49	52074.58
575.65	52261.82
575.82	51821.80
575.98	51686.05
576.14	52294.59
576.30	52526.30
576.46	52659.71
576.62	52437.36
576.79	52533.32
576.95	51943.51
577.11	51856.91
577.27	52247.78
577.43	52142.45
577.59	51559.66
577.75	51159.43
577.92	50401.10
578.08	50555.57
578.24	50499.40
578.40	50646.85
578.56	51157.09
578.72	51405.19
578.88	51332.63
579.04	51318.59
579.21	51501.15
579.37	51480.08
579.53	51728.18
579.69	51477.74
579.85	51859.25
580.01	51620.52
580.17	51201.56
580.33	51114.96
580.49	51243.69
580.65	51557.32
580.82	51629.88
580.98	51824.14
581.14	51491.79
581.30	51353.69
581.46	51370.08
581.62	51894.36
581.78	51503.49
581.94	51714.14
582.10	51650.94
582.26	51501.15
582.42	51887.34
582.58	51718.82
582.74	51880.31
582.90	51782.01
583.06	51674.35
583.22	51379.44
583.38	51283.48
583.54	51444.98
583.70	51515.19
583.86	51353.69
584.02	50993.25
584.18	51150.07
584.34	51409.87
584.50	51065.81
584.66	50913.67
584.82	50515.78
584.98	50616.43
585.14	50178.75
585.30	49659.15
