SpectraSuite Data File
++++++++++++++++++++++++++++++++++++
Date: Mon Oct 07 14:54:54 GMT-05:00 2013
User: price-jones
Dark Spectrum Present: No
Reference Spectrum Present: No
Number of Sampled Component Spectra: 1
Spectrometers: USB2+H05261
Integration Time (usec): 10000 (USB2+H05261)
Spectra Averaged: 1 (USB2+H05261)
Boxcar Smoothing: 0 (USB2+H05261)
Correct for Electrical Dark: No (USB2+H05261)
Strobe/Lamp Enabled: No (USB2+H05261)
Correct for Detector Non-linearity: No (USB2+H05261)
Correct for Stray Light: No (USB2+H05261)
Number of Pixels in Processed Spectrum: 2048
>>>>>Begin Processed Spectral Data<<<<<
365.73	0.00
365.92	0.00
366.12	0.00
366.32	0.00
366.52	0.00
366.72	0.00
366.91	0.00
367.11	0.00
367.31	0.00
367.51	0.00
367.70	0.00
367.90	0.00
368.10	0.00
368.30	0.00
368.49	0.00
368.69	0.00
368.89	0.00
369.09	0.00
369.28	0.00
369.48	0.00
369.68	0.00
369.87	0.00
370.07	0.00
370.27	0.00
370.47	0.00
370.66	0.00
370.86	0.00
371.06	0.00
371.25	0.00
371.45	25.75
371.65	0.00
371.84	0.00
372.04	4.68
372.24	7.02
372.44	46.81
372.63	25.75
372.83	42.13
373.03	0.00
373.22	0.00
373.42	0.00
373.62	0.00
373.81	25.75
374.01	9.36
374.21	9.36
374.40	23.41
374.60	0.00
374.79	32.77
374.99	7.02
375.19	53.83
375.38	70.22
375.58	72.56
375.78	110.01
375.97	77.24
376.17	49.15
376.37	117.03
376.56	140.43
376.76	67.88
376.95	100.64
377.15	212.99
377.35	196.60
377.54	145.11
377.74	187.24
377.93	245.76
378.13	191.92
378.33	217.67
378.52	147.45
378.72	156.82
378.91	100.64
379.11	42.13
379.31	107.66
379.50	0.00
379.70	147.45
379.89	84.26
380.09	131.07
380.28	189.58
380.48	168.52
380.68	145.11
380.87	142.77
381.07	110.01
381.26	152.13
381.46	119.37
381.65	65.54
381.85	51.49
382.04	51.49
382.24	70.22
382.43	65.54
382.63	7.02
382.83	0.00
383.02	9.36
383.22	84.26
383.41	11.70
383.61	14.04
383.80	98.30
384.00	102.98
384.19	168.52
384.39	140.43
384.58	203.63
384.78	187.24
384.97	180.22
385.17	215.33
385.36	100.64
385.56	86.60
385.75	79.58
385.95	98.30
386.14	177.88
386.34	170.86
386.53	140.43
386.72	149.79
386.92	86.60
387.11	110.01
387.31	147.45
387.50	173.20
387.70	140.43
387.89	182.56
388.09	168.52
388.28	236.39
388.48	215.33
388.67	177.88
388.86	278.52
389.06	287.89
389.25	283.20
389.45	299.59
389.64	325.33
389.84	287.89
390.03	276.18
390.22	238.73
390.42	332.36
390.61	315.97
390.81	320.65
391.00	428.32
391.19	458.74
391.39	388.53
391.58	390.87
391.78	341.72
391.97	266.82
392.16	182.56
392.36	210.65
392.55	95.96
392.75	86.60
392.94	0.00
393.13	51.49
393.33	0.00
393.52	35.11
393.71	156.82
393.91	292.57
394.10	294.91
394.29	365.12
394.49	416.62
394.68	472.79
394.88	367.46
395.07	407.25
395.26	341.72
395.46	388.53
395.65	327.68
395.84	344.06
396.04	215.33
396.23	140.43
396.42	93.62
396.62	32.77
396.81	121.71
397.00	166.18
397.19	388.53
397.39	376.83
397.58	339.38
397.77	582.79
397.97	585.13
398.16	617.90
398.35	634.29
398.55	624.92
398.74	685.78
398.93	674.07
399.12	753.65
399.32	671.73
399.51	589.82
399.70	683.44
399.90	819.19
400.09	774.72
400.28	774.72
400.47	786.42
400.67	713.86
400.86	706.84
401.05	706.84
401.24	823.87
401.44	840.25
401.63	898.77
401.82	793.44
402.01	830.89
402.21	903.45
402.40	814.51
402.59	896.43
402.78	807.48
402.97	748.97
403.17	763.01
403.36	791.10
403.55	758.33
403.74	896.43
403.93	763.01
404.13	739.61
404.32	695.14
404.51	774.72
404.70	814.51
404.89	868.34
405.09	805.14
405.28	805.14
405.47	791.10
405.66	763.01
405.85	791.10
406.05	631.94
406.24	802.80
406.43	795.78
406.62	770.04
406.81	819.19
407.00	828.55
407.20	760.67
407.39	699.82
407.58	830.89
407.77	891.74
407.96	945.58
408.15	954.94
408.34	784.08
408.54	957.28
408.73	980.68
408.92	908.13
409.11	856.64
409.30	898.77
409.49	791.10
409.68	798.12
409.87	688.12
410.07	734.93
410.26	821.53
410.45	924.51
410.64	887.06
410.83	901.11
411.02	1020.47
411.21	1006.43
411.40	1090.69
411.59	976.00
411.78	1043.88
411.98	999.41
412.17	1071.97
412.36	990.05
412.55	1081.33
412.74	994.73
412.93	894.08
413.12	990.05
413.31	1057.92
413.50	1095.37
413.69	1093.03
413.88	1118.78
414.07	1050.90
414.26	1034.52
414.45	1158.57
414.64	1125.80
414.83	1090.69
415.02	1111.75
415.22	1071.97
415.41	1156.22
415.60	1064.94
415.79	1200.69
415.98	1188.99
416.17	1263.89
416.36	1111.75
416.55	1151.54
416.74	1116.44
416.93	1064.94
417.12	1118.78
417.31	1071.97
417.50	1074.31
417.69	1167.93
417.88	1200.69
418.07	1064.94
418.26	1093.03
418.45	1139.84
418.64	1137.50
418.83	1228.78
419.02	1172.61
419.21	1081.33
419.39	1086.01
419.58	1118.78
419.77	1041.54
419.96	1160.91
420.15	1181.97
420.34	1196.01
420.53	1291.98
420.72	1224.10
420.91	1352.83
421.10	1341.13
421.29	1228.78
421.48	1263.89
421.67	1263.89
421.86	1256.87
422.05	1116.44
422.24	1043.88
422.43	905.79
422.61	1062.60
422.80	1174.95
422.99	1231.12
423.18	1167.93
423.37	1114.10
423.56	1179.63
423.75	1097.71
423.94	1083.67
424.13	1142.18
424.32	1130.48
424.50	1039.20
424.69	1022.81
424.88	1203.04
425.07	1121.12
425.26	1064.94
425.45	1064.94
425.64	1067.28
425.83	1111.75
426.01	1109.41
426.20	1254.53
426.39	1198.35
426.58	1022.81
426.77	1036.86
426.96	966.64
427.15	943.24
427.33	1151.54
427.52	1130.48
427.71	1118.78
427.90	1123.46
428.09	1029.84
428.28	1067.28
428.46	1032.18
428.65	987.71
428.84	1015.79
429.03	1020.47
429.22	987.71
429.40	950.26
429.59	786.42
429.78	699.82
429.97	770.04
430.16	737.27
430.34	688.12
430.53	692.80
430.72	748.97
430.91	847.27
431.10	1029.84
431.28	1238.14
431.47	1270.91
431.66	1324.74
431.85	1266.23
432.03	1158.57
432.22	1062.60
432.41	1102.39
432.60	1240.48
432.79	1378.58
432.97	1345.81
433.16	1320.06
433.35	1174.95
433.54	966.64
433.72	961.96
433.91	1008.77
434.10	1004.09
434.28	1163.25
434.47	1327.08
434.66	1238.14
434.85	1240.48
435.03	1210.06
435.22	1306.02
435.41	1357.51
435.59	1345.81
435.78	1373.89
435.97	1376.24
436.16	1423.05
436.34	1455.81
436.53	1399.64
436.72	1359.85
436.90	1238.14
437.09	1256.87
437.28	1203.04
437.46	1219.42
437.65	1303.68
437.84	1118.78
438.02	1076.65
438.21	1064.94
438.40	1137.50
438.58	1303.68
438.77	1256.87
438.96	1359.85
439.14	1394.96
439.33	1479.22
439.52	1451.13
439.70	1387.94
439.89	1378.58
440.08	1416.02
440.26	1296.66
440.45	1338.79
440.63	1437.09
440.82	1481.56
441.01	1500.28
441.19	1540.07
441.38	1612.63
441.57	1621.99
441.75	1591.56
441.94	1701.57
442.12	1535.39
442.31	1652.42
442.50	1523.69
442.68	1589.22
442.87	1528.37
443.05	1460.49
443.24	1551.78
443.43	1610.29
443.61	1748.38
443.80	1633.69
443.98	1638.38
444.17	1565.82
444.35	1678.16
444.54	1776.47
444.73	1715.61
444.91	1561.14
445.10	1523.69
445.28	1385.60
445.47	1493.26
445.65	1420.71
445.84	1584.54
446.02	1565.82
446.21	1633.69
446.39	1558.80
446.58	1647.74
446.77	1645.40
446.95	1654.76
447.14	1755.40
447.32	1638.38
447.51	1666.46
447.69	1638.38
447.88	1626.67
448.06	1680.50
448.25	1760.08
448.43	1741.36
448.62	1753.06
448.80	1572.84
448.99	1528.37
449.17	1577.52
449.36	1659.44
449.54	1732.00
449.73	1614.97
449.91	1692.21
450.10	1818.60
450.28	1912.22
450.46	1961.37
450.65	1863.07
450.83	1792.85
451.02	1713.27
451.20	1657.10
451.39	1802.21
451.57	1741.36
451.76	1785.83
451.94	1748.38
452.13	1720.29
452.31	1598.59
452.49	1479.22
452.68	1577.52
452.86	1509.65
453.05	1624.33
453.23	1619.65
453.42	1687.53
453.60	1760.08
453.78	1797.53
453.97	1727.32
454.15	1706.25
454.34	1617.31
454.52	1750.72
454.70	1605.61
454.89	1708.59
455.07	1519.01
455.26	1722.63
455.44	1792.85
455.62	1753.06
455.81	1912.22
455.99	1870.09
456.17	1736.68
456.36	1837.32
456.54	1849.02
456.73	1856.04
456.91	1788.17
457.09	1893.49
457.28	1905.20
457.46	1774.13
457.64	1825.62
457.83	1753.06
458.01	1661.78
458.19	1753.06
458.38	1762.42
458.56	1863.07
458.74	1802.21
458.93	1708.59
459.11	1699.23
459.29	1788.17
459.48	1781.15
459.66	1762.42
459.84	1722.63
460.03	1736.68
460.21	1839.66
460.39	1771.79
460.57	1820.94
460.76	1853.70
460.94	1914.56
461.12	1741.36
461.31	1930.94
461.49	1797.53
461.67	1790.51
461.85	1820.94
462.04	1921.58
462.22	2026.90
462.40	1975.41
462.59	1853.70
462.77	1879.45
462.95	1895.83
463.13	1949.67
463.32	1865.41
463.50	1891.15
463.68	1914.56
463.86	1746.04
464.05	1844.34
464.23	1769.44
464.41	1678.16
464.59	1678.16
464.78	1888.81
464.96	1893.49
465.14	1788.17
465.32	1842.00
465.50	1909.88
465.69	1947.33
465.87	1891.15
466.05	1863.07
466.23	1605.61
466.41	1722.63
466.60	1790.51
466.78	1734.34
466.96	1881.79
467.14	1860.73
467.32	1802.21
467.51	1949.67
467.69	1685.19
467.87	1757.74
468.05	1816.26
468.23	1757.74
468.41	1856.04
468.60	1867.75
468.78	1802.21
468.96	1811.57
469.14	1872.43
469.32	1825.62
469.50	1900.52
469.69	1750.72
469.87	1739.02
470.05	1755.40
470.23	1692.21
470.41	1746.04
470.59	1830.30
470.77	1837.32
470.95	1827.96
471.14	1963.71
471.32	1722.63
471.50	1863.07
471.68	1860.73
471.86	1994.14
472.04	2029.24
472.22	2017.54
472.40	1905.20
472.58	1874.77
472.77	1755.40
472.95	1849.02
473.13	1963.71
473.31	1926.26
473.49	1839.66
473.67	2033.93
473.85	1966.05
474.03	1994.14
474.21	1942.64
474.39	1923.92
474.57	2066.69
474.75	2059.67
474.93	2076.06
475.12	2076.06
475.30	1977.75
475.48	1994.14
475.66	1909.88
475.84	1973.07
476.02	1973.07
476.20	1863.07
476.38	1933.28
476.56	1944.99
476.74	2165.00
476.92	2094.78
477.10	2155.63
477.28	2120.53
477.46	2211.81
477.64	2195.42
477.82	2242.23
478.00	2204.78
478.18	2150.95
478.36	2218.83
478.54	2181.38
478.72	2176.70
478.90	2207.13
479.08	2307.77
479.26	2356.92
479.44	2317.13
479.62	2237.55
479.80	2349.90
479.98	2347.56
480.16	2314.79
480.34	2272.66
480.52	2289.04
480.70	2345.22
480.88	2443.52
481.06	2420.11
481.24	2457.56
481.41	2504.37
481.59	2377.98
481.77	2590.97
481.95	2434.16
482.13	2436.50
482.31	2457.56
482.49	2443.52
482.67	2445.86
482.85	2558.21
483.03	2567.57
483.21	2377.98
483.39	2640.12
483.57	2436.50
483.74	2377.98
483.92	2534.80
484.10	2523.10
484.28	2633.10
484.46	2616.72
484.64	2555.86
484.82	2518.42
485.00	2485.65
485.18	2588.63
485.35	2317.13
485.53	2160.31
485.71	2005.84
485.89	1991.80
486.07	2083.08
486.25	2326.49
486.43	2413.09
486.61	2497.35
486.78	2373.30
486.96	2375.64
487.14	2597.99
487.32	2574.59
487.50	2752.47
487.68	2698.64
487.85	2850.77
488.03	2853.11
488.21	2729.06
488.39	2808.64
488.57	2717.36
488.75	2663.53
488.92	2813.32
489.10	2857.79
489.28	2967.80
489.46	3061.42
489.64	3049.72
489.81	2979.50
489.99	3087.17
490.17	3075.46
490.35	3124.62
490.53	2958.44
490.70	3016.95
490.88	3070.78
491.06	3201.85
491.24	3047.38
491.41	2956.10
491.59	2782.90
491.77	2700.98
491.95	3002.91
492.13	3052.06
492.30	3005.25
492.48	3173.77
492.66	3234.62
492.84	3375.05
493.01	3253.34
493.19	3096.53
493.37	3204.19
493.54	3173.77
493.72	3070.78
493.90	3330.58
494.08	3279.09
494.25	3527.19
494.43	3384.41
494.61	3531.87
494.79	3590.38
494.96	3438.25
495.14	3300.16
495.32	3325.90
495.49	3290.79
495.67	3412.50
495.85	3487.40
496.02	3684.00
496.20	3480.38
496.38	3475.70
496.55	3463.99
496.73	3480.38
496.91	3442.93
497.09	3655.92
497.26	3585.70
497.44	3609.11
497.62	3391.44
497.79	3251.00
497.97	3379.73
498.14	3251.00
498.32	3314.20
498.50	3541.23
498.67	3531.87
498.85	3361.01
499.03	3559.95
499.20	3545.91
499.38	3676.98
499.56	3749.54
499.73	3431.23
499.91	3361.01
500.08	3445.27
500.26	3358.67
500.44	3286.11
500.61	3454.63
500.79	3461.65
500.97	3393.78
501.14	3330.58
501.32	3276.75
501.49	3314.20
501.67	3363.35
501.84	3396.12
502.02	3454.63
502.20	3478.04
502.37	3489.74
502.55	3555.27
502.72	3576.34
502.90	3679.32
503.07	3695.71
503.25	3510.80
503.43	3513.14
503.60	3407.82
503.78	3384.41
503.95	3363.35
504.13	3597.40
504.30	3545.91
504.48	3679.32
504.65	3538.89
504.83	3618.47
505.01	3592.72
505.18	3815.07
505.36	3723.79
505.53	3730.81
505.71	3866.56
505.88	3782.31
506.06	3679.32
506.23	3599.74
506.41	3674.64
506.58	3599.74
506.76	3618.47
506.93	3691.02
507.11	3798.69
507.28	3705.07
507.46	3480.38
507.63	3426.54
507.81	3258.03
507.98	3541.23
508.16	3555.27
508.33	3648.90
508.50	3684.00
508.68	3714.43
508.85	3798.69
509.03	3843.16
509.20	3882.95
509.38	3653.58
509.55	3658.26
509.73	3524.85
509.90	3522.51
510.08	3653.58
510.25	3779.97
510.42	3686.34
510.60	3606.77
510.77	3829.12
510.95	3765.92
511.12	3815.07
511.30	3801.03
511.47	3852.52
511.64	3761.24
511.82	3744.86
511.99	3679.32
512.17	3639.53
512.34	3478.04
512.51	3627.83
512.69	3728.47
512.86	3686.34
513.04	3700.39
513.21	3627.83
513.38	3604.42
513.56	3644.21
513.73	3468.67
513.90	3478.04
514.08	3524.85
514.25	3440.59
514.43	3602.08
514.60	3531.87
514.77	3604.42
514.95	3639.53
515.12	3574.00
515.29	3674.64
515.47	3742.52
515.64	3742.52
515.81	3695.71
515.99	3602.08
516.16	3274.41
516.33	3108.23
516.51	2979.50
516.68	2937.37
516.85	2874.18
517.03	2897.58
517.20	3073.12
517.37	3475.70
517.54	3632.51
517.72	3630.17
517.89	3126.96
518.06	2937.37
518.24	2918.65
518.41	3159.72
518.58	3426.54
518.75	3449.95
518.93	3468.67
519.10	3382.07
519.27	3351.65
519.45	3466.33
519.62	3562.30
519.79	3648.90
519.96	3536.55
520.14	3531.87
520.31	3550.59
520.48	3482.72
520.65	3487.40
520.83	3599.74
521.00	3655.92
521.17	3625.49
521.34	3480.38
521.52	3588.04
521.69	3707.41
521.86	3747.20
522.03	3719.11
522.20	3576.34
522.38	3368.03
522.55	3370.37
522.72	3414.84
522.89	3454.63
523.07	3660.60
523.24	3609.11
523.41	3735.50
523.58	3662.94
523.75	3770.60
523.92	3918.06
524.10	3859.54
524.27	3838.48
524.44	3534.21
524.61	3864.22
524.78	3522.51
524.96	3707.41
525.13	3740.18
525.30	3679.32
525.47	3723.79
525.64	3770.60
525.81	3543.57
525.98	3400.80
526.16	3255.69
526.33	3206.53
526.50	2993.55
526.67	3052.06
526.84	3304.84
527.01	3304.84
527.18	3328.24
527.36	3522.51
527.53	3524.85
527.70	3707.41
527.87	3595.06
528.04	3571.66
528.21	3468.67
528.38	3723.79
528.55	3758.90
528.72	3852.52
528.89	3899.33
529.07	3772.94
529.24	3826.78
529.41	3651.24
529.58	3515.48
529.75	3550.59
529.92	3552.93
530.09	3611.45
530.26	3798.69
530.43	3812.73
530.60	3700.39
530.77	3749.54
530.94	3772.94
531.11	3651.24
531.28	3829.12
531.46	3749.54
531.63	3735.50
531.80	3634.85
531.97	3623.15
532.14	3557.61
532.31	3398.46
532.48	3353.99
532.65	3414.84
532.82	3524.85
532.99	3609.11
533.16	3609.11
533.33	3721.45
533.50	3536.55
533.67	3576.34
533.84	3442.93
534.01	3487.40
534.18	3471.01
534.35	3679.32
534.52	3653.58
534.69	3616.13
534.86	3698.05
535.03	3693.37
535.20	3686.34
535.37	3810.39
535.54	3770.60
535.71	3819.75
535.88	3742.52
536.05	3651.24
536.22	3566.98
536.38	3625.49
536.55	3375.05
536.72	3330.58
536.89	3258.03
537.06	3529.53
537.23	3669.96
537.40	3616.13
537.57	3756.56
537.74	3627.83
537.91	3667.62
538.08	3529.53
538.25	3604.42
538.42	3529.53
538.59	3552.93
538.75	3562.30
538.92	3506.12
539.09	3461.65
539.26	3480.38
539.43	3389.10
539.60	3475.70
539.77	3496.76
539.94	3361.01
540.11	3253.34
540.28	3302.50
540.44	3173.77
540.61	3269.73
540.78	3297.81
540.95	3391.44
541.12	3344.63
541.29	3452.29
541.46	3513.14
541.62	3492.08
541.79	3393.78
541.96	3410.16
542.13	3499.10
542.30	3323.56
542.47	3269.73
542.63	3421.86
542.80	3356.33
542.97	3414.84
543.14	3440.59
543.31	3475.70
543.48	3527.19
543.64	3559.95
543.81	3592.72
543.98	3454.63
544.15	3578.68
544.32	3243.98
544.48	3433.57
544.65	3396.12
544.82	3576.34
544.99	3639.53
545.16	3459.31
545.32	3389.10
545.49	3393.78
545.66	3548.25
545.83	3475.70
546.00	3475.70
546.16	3316.54
546.33	3335.26
546.50	3302.50
546.67	3501.44
546.83	3335.26
547.00	3295.47
547.17	3286.11
547.34	3382.07
547.50	3220.58
547.67	3262.71
547.84	3302.50
548.00	3253.34
548.17	3414.84
548.34	3361.01
548.51	3419.52
548.67	3318.88
548.84	3445.27
549.01	3396.12
549.18	3370.37
549.34	3314.20
549.51	3384.41
549.68	3281.43
549.84	3358.67
550.01	3421.86
550.18	3211.22
550.34	3239.30
550.51	3330.58
550.68	3262.71
550.84	3370.37
551.01	3246.32
551.18	3199.51
551.34	3178.45
551.51	3260.37
551.68	3351.65
551.84	3377.39
552.01	3248.66
552.18	3391.44
552.34	3185.47
552.51	3190.15
552.68	3096.53
552.84	3075.46
553.01	3325.90
553.18	3215.90
553.34	3346.97
553.51	3323.56
553.67	3403.14
553.84	3368.03
554.01	3400.80
554.17	3414.84
554.34	3239.30
554.51	3325.90
554.67	3300.16
554.84	3148.02
555.00	3201.85
555.17	3222.92
555.33	3229.94
555.50	3281.43
555.67	3248.66
555.83	3197.17
556.00	3045.04
556.16	3194.83
556.33	3243.98
556.50	3066.10
556.66	3005.25
556.83	2995.89
556.99	3222.92
557.16	3033.33
557.32	3005.25
557.49	3164.40
557.65	3190.15
557.82	3080.14
557.98	3227.60
558.15	3047.38
558.32	3049.72
558.48	2963.12
558.65	2871.84
558.81	2988.86
558.98	2949.08
559.14	2977.16
559.31	3110.57
559.47	2944.39
559.64	2981.84
559.80	2862.48
559.97	2963.12
560.13	3056.74
560.30	3110.57
560.46	3199.51
560.63	3211.22
560.79	3204.19
560.96	3052.06
561.12	3035.67
561.29	2906.95
561.45	2848.43
561.61	3077.80
561.78	3131.64
561.94	3014.61
562.11	3009.93
562.27	3138.66
562.44	2981.84
562.60	2970.14
562.77	3098.87
562.93	3066.10
563.10	3115.25
563.26	3030.99
563.42	2899.92
563.59	3047.38
563.75	2899.92
563.92	2899.92
564.08	3063.76
564.24	2963.12
564.41	3047.38
564.57	3108.23
564.74	2843.75
564.90	2974.82
565.07	2862.48
565.23	2902.26
565.39	2937.37
565.56	2923.33
565.72	2785.24
565.88	2892.90
566.05	2860.13
566.21	2935.03
566.38	2794.60
566.54	2939.71
566.70	2834.39
566.87	2881.20
567.03	2937.37
567.19	2862.48
567.36	2883.54
567.52	3009.93
567.68	2881.20
567.85	2895.24
568.01	2909.29
568.17	2752.47
568.34	2764.17
568.50	2656.51
568.66	2717.36
568.83	2766.51
568.99	2913.97
569.15	2825.03
569.32	2878.86
569.48	2820.35
569.64	2890.56
569.81	2710.34
569.97	2665.87
570.13	2750.13
570.30	2686.94
570.46	2626.08
570.62	2609.70
570.78	2663.53
570.95	2572.25
571.11	2640.12
571.27	2715.02
571.43	2768.85
571.60	2656.51
571.76	2792.26
571.92	2810.98
572.09	2682.25
572.25	2832.05
572.41	2759.49
572.57	2794.60
572.74	2775.88
572.90	2677.57
573.06	2754.81
573.22	2738.43
573.38	2883.54
573.55	2726.72
573.71	2752.47
573.87	2637.78
574.03	2782.90
574.20	2649.49
574.36	2738.43
574.52	2670.55
574.68	2530.12
574.84	2626.08
575.01	2658.85
575.17	2630.76
575.33	2621.40
575.49	2567.57
575.65	2855.45
575.82	2623.74
575.98	2630.76
576.14	2579.27
576.30	2623.74
576.46	2656.51
576.62	2644.81
576.79	2719.70
576.95	2616.72
577.11	2537.14
577.27	2567.57
577.43	2612.04
577.59	2661.19
577.75	2586.29
577.92	2537.14
578.08	2544.16
578.24	2492.67
578.40	2438.84
578.56	2553.52
578.72	2518.42
578.88	2612.04
579.04	2506.71
579.21	2455.22
579.37	2579.27
579.53	2583.95
579.69	2551.18
579.85	2640.12
580.01	2560.55
580.17	2452.88
580.33	2579.27
580.49	2478.63
580.65	2492.67
580.82	2539.48
580.98	2696.30
581.14	2576.93
581.30	2455.22
581.46	2621.40
581.62	2541.82
581.78	2560.55
581.94	2516.08
582.10	2523.10
582.26	2614.38
582.42	2595.65
582.58	2555.86
582.74	2621.40
582.90	2576.93
583.06	2593.31
583.22	2558.21
583.38	2548.84
583.54	2516.08
583.70	2459.90
583.86	2464.58
584.02	2649.49
584.18	2527.78
584.34	2417.77
584.50	2619.06
584.66	2651.83
584.82	2464.58
584.98	2361.60
585.14	2352.24
585.30	2450.54
585.46	2429.48
585.62	2436.50
585.78	2443.52
585.94	2408.41
586.10	2368.62
586.26	2370.96
586.42	2399.05
586.58	2534.80
586.74	2431.82
586.90	2445.86
587.06	2363.94
587.22	2466.92
587.38	2485.65
587.54	2434.16
587.70	2415.43
587.86	2377.98
588.02	2272.66
588.18	2275.00
588.34	2223.51
588.49	2129.89
588.65	1886.47
588.81	1914.56
588.97	2066.69
589.13	2010.52
589.29	1966.05
589.45	1968.39
589.61	2155.63
589.77	2221.17
589.93	2127.55
590.08	2293.72
590.24	2349.90
590.40	2370.96
590.56	2370.96
590.72	2242.23
590.88	2246.91
591.04	2232.87
591.20	2305.43
591.35	2200.10
591.51	2076.06
591.67	2235.21
591.83	2214.15
591.99	2239.89
592.15	2228.19
592.31	2289.04
592.46	2328.83
592.62	2293.72
592.78	2181.38
592.94	2251.60
593.10	2230.53
593.26	2263.30
593.41	2314.79
593.57	2207.13
593.73	2244.57
593.89	2132.23
594.05	2073.71
594.20	2064.35
594.36	2228.19
594.52	2202.44
594.68	2043.29
594.84	2069.03
594.99	2228.19
595.15	2162.66
595.31	2249.25
595.47	2125.21
595.62	2148.61
595.78	2141.59
595.94	2228.19
596.10	2293.72
596.25	2193.08
596.41	2162.66
596.57	2148.61
596.73	2235.21
596.88	2204.78
597.04	2242.23
597.20	2132.23
597.36	2078.40
597.51	2155.63
597.67	2122.87
597.83	2165.00
597.99	2097.12
598.14	2031.58
598.30	2108.82
598.46	2050.31
598.61	2101.80
598.77	2054.99
598.93	2127.55
599.09	2122.87
599.24	2169.68
599.40	2181.38
599.56	2062.01
599.71	2071.37
