SpectraSuite Data File
++++++++++++++++++++++++++++++++++++
Date: Mon Oct 07 14:55:02 GMT-05:00 2013
User: price-jones
Dark Spectrum Present: No
Reference Spectrum Present: No
Number of Sampled Component Spectra: 1
Spectrometers: USB2+H05261
Integration Time (usec): 10000 (USB2+H05261)
Spectra Averaged: 1 (USB2+H05261)
Boxcar Smoothing: 0 (USB2+H05261)
Correct for Electrical Dark: No (USB2+H05261)
Strobe/Lamp Enabled: No (USB2+H05261)
Correct for Detector Non-linearity: No (USB2+H05261)
Correct for Stray Light: No (USB2+H05261)
Number of Pixels in Processed Spectrum: 2048
>>>>>Begin Processed Spectral Data<<<<<
365.73	0.00
365.92	0.00
366.12	0.00
366.32	0.00
366.52	0.00
366.72	0.00
366.91	0.00
367.11	0.00
367.31	0.00
367.51	0.00
367.70	0.00
367.90	0.00
368.10	0.00
368.30	0.00
368.49	0.00
368.69	0.00
368.89	0.00
369.09	0.00
369.28	0.00
369.48	0.00
369.68	0.00
369.87	0.00
370.07	0.00
370.27	0.00
370.47	526.62
370.66	2942.05
370.86	3309.52
371.06	3517.83
371.25	3368.03
371.45	3126.96
371.65	2843.75
371.84	2710.34
372.04	3012.27
372.24	3325.90
372.44	3346.97
372.63	3283.77
372.83	2766.51
373.03	2647.15
373.22	2633.10
373.42	2803.96
373.62	3080.14
373.81	3295.47
374.01	3234.62
374.21	2871.84
374.40	2810.98
374.60	2864.82
374.79	3398.46
374.99	3999.98
375.19	4184.88
375.38	3896.99
375.58	3777.62
375.78	3854.86
375.97	3904.01
376.17	3859.54
376.37	4004.66
376.56	4021.04
376.76	4320.63
376.95	4695.11
377.15	4966.62
377.35	5067.26
377.54	5263.86
377.74	5528.35
377.93	5486.22
378.13	5123.43
378.33	4887.04
378.52	4622.56
378.72	4360.42
378.91	4372.12
379.11	4128.70
379.31	4159.13
379.50	4208.28
379.70	4547.66
379.89	5102.37
380.09	5263.86
380.28	5226.42
380.48	5394.93
380.68	5315.36
380.87	4945.55
381.07	4652.98
381.26	4440.00
381.46	4098.28
381.65	3829.12
381.85	3840.82
382.04	3733.15
382.24	3445.27
382.43	3403.14
382.63	3279.09
382.83	3148.02
383.02	3225.26
383.22	3220.58
383.41	3243.98
383.61	3566.98
383.80	4250.41
384.00	4697.46
384.19	5226.42
384.39	5434.72
384.58	5327.06
384.78	5217.05
384.97	5050.88
385.17	4809.80
385.36	4571.07
385.56	4461.06
385.75	4887.04
385.95	5245.14
386.14	5598.56
386.34	5600.90
386.53	5291.95
386.72	5076.62
386.92	5034.49
387.11	5366.85
387.31	5411.32
387.50	5427.70
387.70	5228.76
387.89	5210.03
388.09	5235.78
388.28	5254.50
388.48	5584.52
388.67	5774.10
388.86	6684.57
389.06	6904.58
389.25	7227.57
389.45	7506.10
389.64	7295.45
389.84	7068.42
390.03	7012.24
390.22	7136.29
390.42	7541.21
390.61	7833.77
390.81	8383.80
391.00	8365.07
391.19	8329.97
391.39	8290.18
391.58	7431.20
391.78	7164.38
391.97	6939.69
392.16	6555.84
392.36	5636.01
392.55	4517.23
392.75	3571.66
392.94	3012.27
393.13	3370.37
393.33	3950.82
393.52	4987.68
393.71	5802.19
393.91	6569.88
394.10	7115.23
394.29	7981.23
394.49	8521.89
394.68	9034.47
394.88	8898.72
395.07	9394.91
395.26	9221.71
395.46	8744.24
395.65	8128.68
395.84	7152.68
396.04	5926.24
396.23	4706.82
396.42	3990.61
396.62	4126.36
396.81	5111.73
397.00	6555.84
397.19	8114.64
397.39	9507.26
397.58	10333.47
397.77	11192.44
397.97	11662.89
398.16	11595.01
398.35	12163.76
398.55	12152.06
398.74	12851.88
398.93	12894.01
399.12	12793.37
399.32	12360.37
399.51	12837.84
399.70	13568.09
399.90	12952.52
400.09	13226.37
400.28	13364.46
400.47	13507.23
400.67	13991.72
400.86	14277.27
401.05	14539.41
401.24	14230.46
401.44	14803.89
401.63	14579.20
401.82	14745.38
402.01	14490.26
402.21	15033.26
402.40	14801.55
402.59	14513.66
402.78	13755.33
402.97	13554.04
403.17	14455.15
403.36	15169.01
403.55	15321.15
403.74	15573.92
403.93	14705.59
404.13	13846.61
404.32	13949.59
404.51	14391.95
404.70	15461.58
404.89	15300.08
405.09	14726.65
405.28	14721.97
405.47	14586.22
405.66	14766.44
405.85	14171.94
406.05	13638.30
406.24	14326.42
406.43	15096.46
406.62	15431.15
406.81	15279.02
407.00	14944.32
407.20	14583.88
407.39	14705.59
407.58	15480.30
407.77	15999.90
407.96	16753.55
408.15	16702.06
408.34	16802.71
408.54	17790.41
408.73	17317.62
408.92	16931.44
409.11	16585.04
409.30	15484.98
409.49	14455.15
409.68	13710.86
409.87	14024.49
410.07	15002.83
410.26	15786.91
410.45	16615.46
410.64	17212.30
410.83	17642.96
411.02	18253.84
411.21	18867.06
411.40	18164.90
411.59	18691.52
411.78	18710.24
411.98	18405.97
412.17	18387.25
412.36	18120.43
412.55	18345.12
412.74	17591.47
412.93	17469.76
413.12	17996.38
413.31	19793.91
413.50	19716.67
413.69	20023.28
413.88	18642.37
414.07	18813.23
414.26	19159.63
414.45	19807.95
414.64	19302.40
414.83	19297.72
415.02	19213.46
415.22	19559.86
415.41	19882.85
415.60	20318.19
415.79	21195.89
415.98	21296.53
416.17	21525.91
416.36	21153.76
416.55	20812.04
416.74	19859.45
416.93	19758.80
417.12	19681.56
417.31	19583.26
417.50	20388.41
417.69	21254.40
417.88	20851.83
418.07	20285.42
418.26	20119.24
418.45	20753.53
418.64	21806.77
418.83	22534.68
419.02	21420.58
419.21	20805.02
419.39	20173.08
419.58	19932.00
419.77	20032.65
419.96	21586.76
420.15	21933.16
420.34	23014.49
420.53	23569.19
420.72	23831.33
420.91	23297.69
421.10	22899.80
421.29	22600.21
421.48	22216.36
421.67	23316.42
421.86	21802.09
422.05	20023.28
422.24	18630.66
422.43	19730.72
422.61	22026.78
422.80	22375.52
422.99	21998.70
423.18	21436.97
423.37	21315.26
423.56	21706.13
423.75	22192.96
423.94	22647.02
424.13	20947.79
424.32	21296.53
424.50	21453.35
424.69	21329.30
424.88	21156.10
425.07	21376.11
425.26	21568.04
425.45	20938.43
425.64	20437.56
425.83	20704.38
426.01	21881.67
426.20	22471.48
426.39	21865.28
426.58	20112.22
426.77	19096.43
426.96	18740.67
427.15	19470.92
427.33	21233.34
427.52	21465.05
427.71	21577.40
427.90	21317.60
428.09	21062.48
428.28	20566.29
428.46	19503.68
428.65	19510.71
428.84	20203.50
429.03	20374.36
429.22	19377.30
429.40	17675.73
429.59	16084.16
429.78	14338.12
429.97	14867.08
430.16	14593.24
430.34	15014.54
430.53	15466.26
430.72	16229.27
430.91	18022.12
431.10	21071.84
431.28	24304.12
431.47	26272.51
431.66	25029.69
431.85	22459.78
432.03	21188.87
432.22	21092.91
432.41	22869.37
432.60	24236.25
432.79	25319.92
432.97	25692.06
433.16	24484.34
433.35	21820.81
433.54	19822.00
433.72	19353.89
433.91	20798.00
434.10	22937.25
434.28	24566.26
434.47	25167.78
434.66	24390.72
434.85	23754.10
435.03	24507.75
435.22	25067.14
435.41	25694.40
435.59	26284.22
435.78	26520.61
435.97	27180.64
436.16	26969.99
436.34	26518.27
436.53	26300.60
436.72	26127.40
436.90	25195.87
437.09	24933.73
437.28	24694.99
437.46	25764.62
437.65	24683.29
437.84	22642.34
438.02	21465.05
438.21	22059.55
438.40	22555.74
438.58	24624.78
438.77	25745.89
438.96	25940.16
439.14	27206.39
439.33	27276.60
439.52	27690.88
439.70	26501.89
439.89	26108.68
440.08	25766.96
440.26	26150.81
440.45	27393.63
440.63	29137.33
440.82	29797.36
441.01	28840.08
441.19	28922.00
441.38	30195.25
441.57	31112.74
441.75	30623.57
441.94	31260.20
442.12	30995.71
442.31	32266.63
442.50	31473.18
442.68	30871.67
442.87	31084.65
443.05	30480.80
443.24	31330.41
443.43	31784.48
443.61	32444.51
443.80	32507.70
443.98	31372.54
444.17	31054.23
444.35	32671.54
444.54	32973.47
444.73	32498.34
444.91	30958.27
445.10	29996.31
445.28	29172.44
445.47	28423.47
445.65	28472.62
445.84	30010.35
446.02	30450.37
446.21	31342.11
446.39	31402.97
446.58	31185.30
446.77	32531.11
446.95	32554.51
447.14	33507.11
447.32	34024.37
447.51	33263.69
447.69	31573.83
447.88	31630.00
448.06	31985.76
448.25	32519.40
448.43	32449.19
448.62	32063.00
448.80	31669.79
448.99	32456.21
449.17	32905.59
449.36	33186.46
449.54	34094.58
449.73	34272.46
449.91	35065.91
450.10	36322.77
450.28	35971.69
450.46	36112.13
450.65	36154.26
450.83	35562.10
451.02	35185.27
451.20	35051.86
451.39	35047.18
451.57	34845.90
451.76	34663.33
451.94	34066.50
452.13	32966.45
452.31	31625.32
452.49	30328.66
452.68	31409.99
452.86	31494.25
453.05	31985.76
453.23	33193.48
453.42	33663.93
453.60	34253.74
453.78	34375.45
453.97	34235.02
454.15	33968.19
454.34	32535.79
454.52	32737.07
454.70	32671.54
454.89	33413.49
455.07	33530.51
455.26	34422.26
455.44	35129.10
455.62	35562.10
455.81	35857.01
455.99	35847.64
456.17	35639.34
456.36	36456.18
456.54	36638.75
456.73	36191.70
456.91	36875.14
457.09	36685.56
457.28	37813.70
457.46	35807.86
457.64	35496.56
457.83	34522.90
458.01	34639.93
458.19	35842.96
458.38	36669.17
458.56	36861.10
458.74	36570.87
458.93	35810.20
459.11	35292.94
459.29	35662.74
459.48	36320.43
459.66	35435.71
459.84	35328.05
460.03	36088.72
460.21	36783.86
460.39	37839.44
460.57	37067.06
460.76	37181.75
460.94	37792.63
461.12	37401.76
461.31	37879.23
461.49	37839.44
461.67	37486.02
461.85	38817.78
462.04	38494.79
462.22	38239.67
462.40	38363.72
462.59	37930.72
462.77	38284.14
462.95	38061.79
463.13	37691.99
463.32	36861.10
463.50	37036.64
463.68	37247.29
463.86	37371.33
464.05	36510.02
464.23	35976.37
464.41	35936.59
464.59	35629.98
464.78	37205.16
464.96	36538.10
465.14	35679.13
465.32	37713.05
465.50	38583.73
465.69	39203.97
465.87	37759.86
466.05	36666.83
466.23	35576.14
466.41	34616.52
466.60	36243.20
466.78	35585.50
466.96	35887.43
467.14	37067.06
467.32	37439.21
467.51	36961.74
467.69	35468.48
467.87	36751.09
468.05	37003.87
468.23	36795.56
468.41	37076.43
468.60	37415.80
468.78	38167.12
468.96	37212.18
469.14	38153.07
469.32	38014.98
469.50	35943.61
469.69	36603.64
469.87	36219.79
470.05	35789.13
470.23	36287.67
470.41	36371.92
470.59	36652.79
470.77	36720.66
470.95	37380.70
471.14	38036.05
471.32	38583.73
471.50	40842.35
471.68	40622.34
471.86	40573.19
472.04	40509.99
472.22	40435.10
472.40	39070.56
472.58	38983.96
472.77	38337.98
472.95	39433.35
473.13	40388.28
473.31	38880.98
473.49	39030.77
473.67	40278.28
473.85	40517.01
474.03	41839.42
474.21	42504.13
474.39	42225.60
474.57	42522.85
474.75	42246.67
474.93	41645.15
475.12	40584.89
475.30	41223.86
475.48	40297.00
475.66	41081.08
475.84	40486.59
476.02	41029.59
476.20	40608.29
476.38	41263.64
476.56	42515.83
476.74	43000.32
476.92	43105.65
477.10	42979.26
477.28	44608.27
477.46	44776.79
477.64	45361.92
477.82	45511.72
478.00	45193.40
478.18	44545.08
478.36	43985.69
478.54	44355.49
478.72	45354.90
478.90	46855.18
479.08	48086.31
479.26	47419.25
479.44	48156.52
479.62	47299.89
479.80	47906.08
479.98	47636.92
480.16	48231.42
480.34	47051.79
480.52	48746.34
480.70	48547.39
480.88	48247.80
481.06	48442.07
481.24	49214.44
481.41	50073.42
481.59	50614.08
481.77	49408.71
481.95	49509.35
482.13	49443.82
482.31	49764.47
482.49	50752.18
482.67	50106.19
482.85	49932.99
483.03	50227.90
483.21	51150.07
483.39	51049.42
483.57	50707.71
483.74	50597.70
483.92	50726.43
484.10	50520.46
484.28	50616.43
484.46	51079.85
484.64	52664.39
484.82	51402.85
485.00	51070.49
485.18	50454.93
485.35	48128.44
485.53	42955.85
485.71	40657.45
485.89	42068.79
486.07	44886.79
486.25	47232.01
486.43	49631.06
486.61	50050.02
486.78	48973.37
486.96	50607.06
487.14	51597.11
487.32	52217.35
487.50	53347.83
487.68	54078.08
487.85	54848.11
488.03	54108.50
488.21	53396.98
488.39	53382.94
488.57	51889.68
488.75	52088.62
488.92	53399.32
489.10	55295.16
489.28	55934.12
489.46	56900.76
489.64	56807.14
489.81	57132.48
489.99	56486.49
490.17	56587.13
490.35	56978.00
490.53	56591.81
490.70	56200.94
490.88	56067.53
491.06	57244.82
491.24	57403.98
491.41	56500.53
491.59	55021.31
491.77	54805.98
491.95	55707.09
492.13	57176.95
492.30	57478.88
492.48	58321.47
492.66	58532.12
492.84	58024.22
493.01	57949.32
493.19	57712.93
493.37	57319.72
493.54	57343.12
493.72	58614.04
493.90	59018.95
494.08	59306.83
494.25	59430.88
494.43	59910.69
494.61	60151.77
494.79	59976.23
494.96	60303.90
495.14	59978.57
495.32	58567.23
495.49	58878.52
495.67	59997.29
495.85	60479.44
496.02	61137.13
496.20	60243.05
496.38	59873.24
496.55	60032.40
496.73	60795.42
496.91	60917.12
497.09	60879.67
497.26	61481.19
497.44	60933.51
497.62	60177.51
497.79	59407.48
497.97	58408.07
498.14	59267.05
498.32	60355.39
498.50	60451.36
498.67	60273.48
498.85	60427.95
499.03	60938.19
499.20	61226.07
499.38	60790.73
499.56	60016.02
499.73	59913.03
499.91	60243.05
500.08	59260.02
500.26	59054.06
500.44	59571.32
500.61	60313.26
500.79	59840.48
500.97	59997.29
501.14	59306.83
501.32	58567.23
501.49	59112.57
501.67	59847.50
501.84	59798.35
502.02	60472.42
502.20	60910.10
502.37	60886.70
502.55	61017.77
502.72	61633.33
502.90	62148.24
503.07	61722.27
503.25	60802.44
503.43	59887.29
503.60	59559.61
503.78	59402.80
503.95	60025.38
504.13	61057.56
504.30	61366.51
504.48	60994.36
504.65	61146.50
504.83	61104.37
505.01	62047.60
505.18	62066.33
505.36	62445.49
505.53	62564.86
505.71	62412.73
505.88	62761.47
506.06	62258.25
506.23	62059.30
506.41	61654.39
506.58	61865.04
506.76	61769.08
506.93	61261.18
507.11	61432.04
507.28	61324.38
507.46	60748.60
507.63	61027.13
507.81	60486.46
507.98	61095.00
508.16	61916.53
508.33	62061.64
508.50	62101.43
508.68	62798.91
508.85	62967.43
509.03	63267.02
509.20	62457.20
509.38	61836.95
509.55	61972.70
509.73	61961.00
509.90	62000.79
510.08	62005.47
510.25	61668.44
510.42	61647.37
510.60	62026.54
510.77	62185.69
510.95	62351.87
511.12	62937.01
511.30	63491.71
511.47	63772.58
511.64	63505.76
511.82	63367.66
511.99	62309.74
512.17	62358.89
512.34	61750.35
512.51	62049.94
512.69	62471.24
512.86	61902.49
513.04	62216.12
513.21	61668.44
513.38	61190.97
513.56	60671.37
513.73	60617.53
513.90	61635.67
514.08	61502.26
514.25	61499.92
514.43	61799.50
514.60	61785.46
514.77	62251.23
514.95	62356.55
515.12	62164.63
515.29	62482.94
515.47	63077.44
515.64	63058.71
515.81	62658.48
515.99	61586.52
516.16	60046.44
516.33	57954.00
516.51	57787.83
516.68	56694.80
516.85	55856.88
517.03	57350.15
517.20	59583.02
517.37	61645.03
517.54	62134.20
517.72	61106.71
517.89	58358.92
518.06	56839.91
518.24	57996.13
518.41	59901.33
518.58	61167.56
518.75	61392.25
518.93	61055.21
519.10	60530.93
519.27	61666.09
519.45	62003.13
519.62	62621.03
519.79	62819.98
519.96	62031.22
520.14	61970.36
520.31	60858.61
520.48	60863.29
520.65	61855.68
520.83	62932.32
521.00	62691.25
521.17	62195.06
521.34	62333.15
521.52	62747.42
521.69	62911.26
521.86	63112.55
522.03	62979.14
522.20	61422.68
522.38	61169.90
522.55	61343.10
522.72	61771.42
522.89	61242.46
523.07	62124.84
523.24	62644.44
523.41	63267.02
523.58	63648.53
523.75	63554.91
523.92	63547.89
524.10	63288.09
524.27	62960.41
524.44	62801.25
524.61	62155.27
524.78	62632.74
524.96	62766.15
525.13	62529.75
525.30	63288.09
525.47	63538.52
525.64	63489.37
525.81	62564.86
525.98	61120.75
526.16	59648.55
526.33	59920.05
526.50	59398.12
526.67	59465.99
526.84	60217.30
527.01	60982.66
527.18	61387.57
527.36	62096.75
527.53	63121.91
527.70	62492.30
527.87	61244.80
528.04	62038.24
528.21	62695.93
528.38	63182.76
528.55	63971.52
528.72	63791.30
528.89	63400.43
529.07	63501.07
529.24	62195.06
529.41	62164.63
529.58	62110.80
529.75	62763.81
529.92	62862.11
530.09	63037.65
530.26	63669.59
530.43	64163.45
530.60	63243.62
530.77	63901.31
530.94	64186.85
531.11	63070.42
531.28	63117.23
531.46	63227.23
531.63	63021.26
531.80	63032.97
531.97	62564.86
532.14	62436.13
532.31	60968.61
532.48	60214.96
532.65	60580.09
532.82	61200.33
532.99	62904.24
533.16	63119.57
533.33	63023.61
533.50	63175.74
533.67	62775.51
533.84	62377.62
534.01	62714.65
534.18	62639.76
534.35	62255.91
534.52	61851.00
534.69	62499.33
534.86	62887.85
535.03	63515.12
535.20	63285.75
535.37	63945.78
535.54	64121.32
535.71	63714.06
535.88	63884.92
536.05	62520.39
536.22	61965.68
536.38	62031.22
536.55	61434.38
536.72	61336.08
536.89	61813.55
537.06	61733.97
537.23	62171.65
537.40	61932.92
537.57	61984.41
537.74	62473.58
537.91	62609.33
538.08	62473.58
538.25	62665.50
538.42	63456.60
538.59	62845.72
538.75	62178.67
538.92	61102.03
539.09	61738.65
539.26	61595.88
539.43	61481.19
539.60	61167.56
539.77	62047.60
539.94	61731.63
540.11	61193.31
540.28	60664.35
540.44	60683.07
540.61	60617.53
540.78	61097.34
540.95	61607.58
541.12	61773.76
541.29	61989.09
541.46	62049.94
541.62	62475.92
541.79	61750.35
541.96	61270.54
542.13	61656.73
542.30	61415.66
542.47	61645.03
542.63	61759.72
542.80	61743.33
542.97	61064.58
543.14	61307.99
543.31	61675.46
543.48	62316.76
543.64	62541.45
543.81	63222.55
543.98	63194.46
544.15	61986.75
544.32	62361.23
544.48	61858.02
544.65	61731.63
544.82	62265.27
544.99	61422.68
545.16	61043.51
545.32	61099.68
545.49	61907.17
545.66	61897.81
545.83	61963.34
546.00	62181.01
546.16	61879.08
546.33	61396.93
546.50	61722.27
546.67	62251.23
546.83	61750.35
547.00	61961.00
547.17	60863.29
547.34	60062.83
547.50	60233.69
547.67	61006.06
547.84	61825.25
548.00	62166.97
548.17	61663.75
548.34	62181.01
548.51	62117.82
548.67	61851.00
548.84	61825.25
549.01	62021.86
549.18	61635.67
549.34	61710.56
549.51	62218.46
549.68	62438.47
549.84	61748.01
550.01	60757.97
550.18	60842.23
550.34	61179.26
550.51	61134.79
550.68	61785.46
550.84	61783.12
551.01	61013.08
551.18	60989.68
551.34	60753.29
551.51	61792.48
551.68	61942.28
551.84	62241.87
552.01	61640.35
552.18	61270.54
552.34	60657.32
552.51	60430.29
552.68	60217.30
552.84	60645.62
553.01	60928.83
553.18	61076.28
553.34	61001.38
553.51	61375.87
553.67	61282.25
553.84	61483.53
554.01	61815.89
554.17	61176.92
554.34	61162.88
554.51	61146.50
554.67	60715.84
554.84	60793.07
555.00	60226.66
555.17	60507.53
555.33	60584.77
555.50	60067.51
555.67	60853.93
555.83	60903.08
556.00	60523.91
556.16	60245.39
556.33	60067.51
556.50	60151.77
556.66	60266.45
556.83	59711.75
556.99	59604.08
557.16	60130.70
557.32	59749.20
557.49	60420.93
557.65	60119.00
557.82	60601.15
557.98	60664.35
558.15	59662.60
558.32	59124.27
558.48	58864.47
558.65	58546.16
558.81	59061.08
558.98	59896.65
559.14	59777.28
559.31	59746.86
559.47	59367.69
559.64	59224.92
559.80	58700.64
559.97	59536.21
560.13	60051.12
560.30	60947.55
560.46	61371.19
560.63	61298.63
560.79	61141.81
560.96	60390.50
561.12	59388.75
561.29	59257.68
561.45	59199.17
561.61	60252.41
561.78	59547.91
561.94	59531.53
562.11	59676.64
562.27	59028.31
562.44	60126.02
562.60	60226.66
562.77	60446.68
562.93	59695.36
563.10	59688.34
563.26	59821.75
563.42	60072.19
563.59	59753.88
563.75	59409.82
563.92	59058.74
564.08	59084.48
564.24	59826.43
564.41	59161.72
564.57	60184.54
564.74	59620.47
564.90	59238.96
565.07	59011.93
565.23	58014.86
565.39	57797.19
565.56	58007.84
565.72	58424.45
565.88	57621.65
566.05	59299.81
566.21	59391.09
566.38	58981.50
566.54	59442.59
566.70	60163.47
566.87	59465.99
567.03	59257.68
567.19	60039.42
567.36	60577.75
567.52	59381.73
567.68	58440.84
567.85	58120.18
568.01	58408.07
568.17	58330.83
568.34	58614.04
568.50	58220.83
568.66	57961.03
568.83	57607.61
568.99	57663.78
569.15	57937.62
569.32	57813.57
569.48	57832.30
569.64	58000.82
569.81	57696.55
569.97	57415.68
570.13	56886.72
570.30	56481.81
570.46	56123.71
570.62	55569.00
570.78	56011.36
570.95	56502.87
571.11	57111.41
571.27	56631.60
571.43	57017.79
571.60	56690.12
571.76	57790.17
571.92	58075.71
572.09	58368.28
572.25	57977.41
572.41	57930.60
572.57	57853.36
572.74	58300.40
572.90	59206.19
573.06	58581.27
573.22	58707.66
573.38	58677.23
573.55	59458.97
573.71	58134.23
573.87	58131.89
574.03	58005.50
574.20	57642.71
574.36	57434.41
574.52	57059.92
574.68	56924.17
574.84	56425.64
575.01	56385.85
575.17	56449.04
575.33	57080.98
575.49	57003.75
575.65	55777.31
575.82	56329.67
575.98	56655.01
576.14	57490.58
576.30	58108.48
576.46	56748.63
576.62	56666.71
576.79	56987.36
576.95	57223.76
577.11	57277.59
577.27	56722.88
577.43	57319.72
577.59	56577.77
577.75	55868.59
577.92	55643.90
578.08	56039.45
578.24	56420.95
578.40	56360.10
578.56	55407.50
578.72	55870.93
578.88	55561.98
579.04	56226.69
579.21	55793.69
579.37	55964.55
579.53	56467.76
579.69	55758.58
579.85	55779.65
580.01	55824.12
580.17	55606.45
580.33	56107.32
580.49	56540.32
580.65	55363.03
580.82	56154.13
580.98	56360.10
581.14	56374.14
581.30	55973.91
581.46	55655.60
581.62	56044.13
581.78	56729.90
581.94	56645.65
582.10	56842.25
582.26	56711.18
582.42	56790.76
582.58	55786.67
582.74	55983.27
582.90	56065.19
583.06	56306.27
583.22	56217.33
583.38	56292.22
583.54	56640.96
583.70	56786.08
583.86	56750.97
584.02	55660.28
584.18	55915.40
584.34	55189.83
584.50	55255.37
584.66	55473.04
584.82	55391.12
584.98	55608.79
585.14	54841.09
585.30	55035.36
