SpectraSuite Data File
++++++++++++++++++++++++++++++++++++
Date: Mon Oct 07 14:54:55 GMT-05:00 2013
User: price-jones
Dark Spectrum Present: No
Reference Spectrum Present: No
Number of Sampled Component Spectra: 1
Spectrometers: USB2+H05261
Integration Time (usec): 10000 (USB2+H05261)
Spectra Averaged: 1 (USB2+H05261)
Boxcar Smoothing: 0 (USB2+H05261)
Correct for Electrical Dark: No (USB2+H05261)
Strobe/Lamp Enabled: No (USB2+H05261)
Correct for Detector Non-linearity: No (USB2+H05261)
Correct for Stray Light: No (USB2+H05261)
Number of Pixels in Processed Spectrum: 2048
>>>>>Begin Processed Spectral Data<<<<<
365.73	0.00
365.92	0.00
366.12	0.00
366.32	0.00
366.52	0.00
366.72	0.00
366.91	0.00
367.11	0.00
367.31	0.00
367.51	0.00
367.70	0.00
367.90	0.00
368.10	0.00
368.30	0.00
368.49	0.00
368.69	0.00
368.89	0.00
369.09	0.00
369.28	0.00
369.48	0.00
369.68	0.00
369.87	0.00
370.07	0.00
370.27	0.00
370.47	0.00
370.66	0.00
370.86	0.00
371.06	23.41
371.25	79.58
371.45	37.45
371.65	0.00
371.84	0.00
372.04	65.54
372.24	98.30
372.44	67.88
372.63	102.98
372.83	37.45
373.03	14.04
373.22	63.19
373.42	60.85
373.62	77.24
373.81	177.88
374.01	131.07
374.21	128.73
374.40	102.98
374.60	147.45
374.79	105.32
374.99	238.73
375.19	229.37
375.38	297.25
375.58	187.24
375.78	220.01
375.97	142.77
376.17	330.02
376.37	173.20
376.56	285.55
376.76	203.63
376.95	290.23
377.15	346.40
377.35	334.70
377.54	437.68
377.74	414.27
377.93	404.91
378.13	315.97
378.33	280.86
378.52	341.72
378.72	252.78
378.91	266.82
379.11	264.48
379.31	208.31
379.50	252.78
379.70	269.16
379.89	372.15
380.09	407.25
380.28	313.63
380.48	266.82
380.68	397.89
380.87	388.53
381.07	222.35
381.26	222.35
381.46	152.13
381.65	208.31
381.85	201.29
382.04	196.60
382.24	107.66
382.43	170.86
382.63	77.24
382.83	105.32
383.02	152.13
383.22	138.09
383.41	63.19
383.61	86.60
383.80	175.54
384.00	280.86
384.19	411.93
384.39	365.12
384.58	339.38
384.78	292.57
384.97	241.08
385.17	372.15
385.36	322.99
385.56	271.50
385.75	259.80
385.95	397.89
386.14	308.95
386.34	313.63
386.53	351.08
386.72	348.74
386.92	346.40
387.11	334.70
387.31	374.49
387.50	365.12
387.70	271.50
387.89	315.97
388.09	376.83
388.28	315.97
388.48	292.57
388.67	437.68
388.86	430.66
389.06	454.06
389.25	547.69
389.45	521.94
389.64	587.47
389.84	524.28
390.03	510.24
390.22	543.00
390.42	554.71
390.61	617.90
390.81	685.78
391.00	683.44
391.19	702.16
391.39	617.90
391.58	599.18
391.78	613.22
391.97	519.60
392.16	503.22
392.36	360.44
392.55	257.46
392.75	271.50
392.94	112.35
393.13	30.43
393.33	187.24
393.52	299.59
393.71	397.89
393.91	404.91
394.10	423.64
394.29	559.39
394.49	688.12
394.68	734.93
394.88	620.24
395.07	755.99
395.26	641.31
395.46	688.12
395.65	606.20
395.84	566.41
396.04	318.31
396.23	283.20
396.42	208.31
396.62	182.56
396.81	236.39
397.00	402.57
397.19	601.52
397.39	645.99
397.58	844.93
397.77	812.17
397.97	957.28
398.16	884.72
398.35	905.79
398.55	943.24
398.74	1100.05
398.93	1090.69
399.12	1071.97
399.32	1013.45
399.51	968.98
399.70	1088.35
399.90	1060.26
400.09	1097.71
400.28	1090.69
400.47	1111.75
400.67	1158.57
400.86	1139.84
401.05	1235.80
401.24	1210.06
401.44	1287.29
401.63	1212.40
401.82	1301.34
402.01	1188.99
402.21	1263.89
402.40	1249.85
402.59	1188.99
402.78	1139.84
402.97	1064.94
403.17	1158.57
403.36	1226.44
403.55	1231.12
403.74	1366.87
403.93	1249.85
404.13	1156.22
404.32	1060.26
404.51	1118.78
404.70	1299.00
404.89	1350.49
405.09	1210.06
405.28	1181.97
405.47	1238.14
405.66	1146.86
405.85	1165.59
406.05	1191.33
406.24	1114.10
406.43	1107.07
406.62	1221.76
406.81	1284.95
407.00	1151.54
407.20	1109.41
407.39	1266.23
407.58	1275.59
407.77	1306.02
407.96	1383.26
408.15	1334.11
408.34	1338.79
408.54	1467.52
408.73	1511.99
408.92	1432.41
409.11	1369.21
409.30	1336.45
409.49	1228.78
409.68	1200.69
409.87	992.39
410.07	1188.99
410.26	1226.44
410.45	1387.94
410.64	1437.09
410.83	1385.60
411.02	1453.47
411.21	1523.69
411.40	1516.67
411.59	1521.35
411.78	1521.35
411.98	1575.18
412.17	1474.54
412.36	1549.43
412.55	1469.86
412.74	1448.79
412.93	1425.39
413.12	1490.92
413.31	1645.40
413.50	1631.35
413.69	1640.72
413.88	1600.93
414.07	1547.09
414.26	1418.36
414.45	1568.16
414.64	1619.65
414.83	1530.71
415.02	1614.97
415.22	1572.84
415.41	1633.69
415.60	1647.74
415.79	1839.66
415.98	1839.66
416.17	1755.40
416.36	1701.57
416.55	1703.91
416.74	1664.12
416.93	1542.41
417.12	1636.03
417.31	1647.74
417.50	1619.65
417.69	1626.67
417.88	1736.68
418.07	1736.68
418.26	1647.74
418.45	1624.33
418.64	1811.57
418.83	1706.25
419.02	1778.81
419.21	1701.57
419.39	1685.19
419.58	1645.40
419.77	1582.20
419.96	1633.69
420.15	1652.42
420.34	1837.32
420.53	2024.56
420.72	1886.47
420.91	1994.14
421.10	1856.04
421.29	1923.92
421.48	1858.39
421.67	1858.39
421.86	1802.21
422.05	1727.32
422.24	1446.45
422.43	1483.90
422.61	1614.97
422.80	1863.07
422.99	1818.60
423.18	1689.87
423.37	1776.47
423.56	1671.14
423.75	1720.29
423.94	1797.53
424.13	1671.14
424.32	1675.82
424.50	1699.23
424.69	1650.08
424.88	1666.46
425.07	1593.90
425.26	1600.93
425.45	1589.22
425.64	1647.74
425.83	1673.48
426.01	1816.26
426.20	1776.47
426.39	1781.15
426.58	1607.95
426.77	1530.71
426.96	1460.49
427.15	1509.65
427.33	1626.67
427.52	1694.55
427.71	1734.34
427.90	1582.20
428.09	1591.56
428.28	1577.52
428.46	1516.67
428.65	1537.73
428.84	1600.93
429.03	1657.10
429.22	1399.64
429.40	1383.26
429.59	1284.95
429.78	1123.46
429.97	1174.95
430.16	1177.29
430.34	1102.39
430.53	1125.80
430.72	1224.10
430.91	1392.62
431.10	1504.96
431.28	1769.44
431.47	1900.52
431.66	2066.69
431.85	1856.04
432.03	1713.27
432.22	1535.39
432.41	1687.53
432.60	1921.58
432.79	2005.84
432.97	2059.67
433.16	1930.94
433.35	1732.00
433.54	1563.48
433.72	1537.73
433.91	1549.43
434.10	1692.21
434.28	1830.30
434.47	1916.90
434.66	1839.66
434.85	1799.87
435.03	1703.91
435.22	1954.35
435.41	2003.50
435.59	2099.46
435.78	2036.27
435.97	2202.44
436.16	2155.63
436.34	2090.10
436.53	2015.20
436.72	2047.97
436.90	2019.88
437.09	1827.96
437.28	1874.77
437.46	1989.46
437.65	1919.24
437.84	1788.17
438.02	1682.85
438.21	1657.10
438.40	1659.44
438.58	1898.17
438.77	1916.90
438.96	1851.36
439.14	2090.10
439.33	2073.71
439.52	2148.61
439.70	2132.23
439.89	1987.11
440.08	1930.94
440.26	1865.41
440.45	1954.35
440.63	2279.68
440.82	2307.77
441.01	2284.36
441.19	2155.63
441.38	2401.39
441.57	2478.63
441.75	2324.15
441.94	2385.01
442.12	2370.96
442.31	2480.97
442.50	2434.16
442.68	2392.03
442.87	2424.80
443.05	2335.85
443.24	2331.17
443.43	2413.09
443.61	2462.24
443.80	2466.92
443.98	2389.69
444.17	2455.22
444.35	2541.82
444.54	2593.31
444.73	2520.76
444.91	2422.45
445.10	2228.19
445.28	2296.07
445.47	2129.89
445.65	2214.15
445.84	2282.02
446.02	2204.78
446.21	2286.70
446.39	2377.98
446.58	2464.58
446.77	2399.05
446.95	2392.03
447.14	2579.27
447.32	2579.27
447.51	2436.50
447.69	2328.83
447.88	2377.98
448.06	2445.86
448.25	2394.37
448.43	2485.65
448.62	2406.07
448.80	2483.31
448.99	2342.88
449.17	2333.51
449.36	2399.05
449.54	2670.55
449.73	2738.43
449.91	2537.14
450.10	2558.21
450.28	2715.02
450.46	2743.11
450.65	2789.92
450.83	2705.66
451.02	2635.44
451.20	2642.46
451.39	2560.55
451.57	2616.72
451.76	2583.95
451.94	2553.52
452.13	2623.74
452.31	2305.43
452.49	2305.43
452.68	2347.56
452.86	2338.20
453.05	2370.96
453.23	2335.85
453.42	2438.84
453.60	2511.39
453.78	2626.08
453.97	2693.96
454.15	2403.73
454.34	2534.80
454.52	2532.46
454.70	2476.29
454.89	2406.07
455.07	2572.25
455.26	2541.82
455.44	2597.99
455.62	2754.81
455.81	2726.72
455.99	2628.42
456.17	2616.72
456.36	2609.70
456.54	2686.94
456.73	2712.68
456.91	2731.41
457.09	2785.24
457.28	2867.16
457.46	2757.15
457.64	2644.81
457.83	2628.42
458.01	2370.96
458.19	2729.06
458.38	2572.25
458.56	2663.53
458.74	2712.68
458.93	2703.32
459.11	2605.02
459.29	2715.02
459.48	2719.70
459.66	2548.84
459.84	2705.66
460.03	2766.51
460.21	2637.78
460.39	2766.51
460.57	2715.02
460.76	2693.96
460.94	2761.83
461.12	2803.96
461.31	2731.41
461.49	2871.84
461.67	2799.28
461.85	2918.65
462.04	2722.04
462.22	2869.50
462.40	2841.41
462.59	2839.07
462.77	2794.60
462.95	2757.15
463.13	2768.85
463.32	2874.18
463.50	2616.72
463.68	2740.77
463.86	2736.09
464.05	2679.91
464.23	2633.10
464.41	2689.28
464.59	2600.34
464.78	2719.70
464.96	2668.21
465.14	2850.77
465.32	2654.17
465.50	2967.80
465.69	2801.62
465.87	2764.17
466.05	2736.09
466.23	2658.85
466.41	2466.92
466.60	2569.91
466.78	2612.04
466.96	2621.40
467.14	2677.57
467.32	2693.96
467.51	2759.49
467.69	2525.44
467.87	2576.93
468.05	2705.66
468.23	2703.32
468.41	2658.85
468.60	2661.19
468.78	2782.90
468.96	2600.34
469.14	2691.62
469.32	2827.37
469.50	2597.99
469.69	2595.65
469.87	2698.64
470.05	2665.87
470.23	2569.91
470.41	2562.89
470.59	2619.06
470.77	2745.45
470.95	2818.00
471.14	2799.28
471.32	2708.00
471.50	2965.46
471.68	2846.09
471.86	2970.14
472.04	2918.65
472.22	2895.24
472.40	2780.56
472.58	2792.26
472.77	2733.75
472.95	2761.83
473.13	2918.65
473.31	2883.54
473.49	2773.53
473.67	2871.84
473.85	2970.14
474.03	2988.86
474.21	2988.86
474.39	2902.26
474.57	3080.14
474.75	3070.78
474.93	3035.67
475.12	2881.20
475.30	2972.48
475.48	2993.55
475.66	3052.06
475.84	2806.30
476.02	2925.67
476.20	2923.33
476.38	2944.39
476.56	3082.49
476.74	3040.36
476.92	3183.13
477.10	3129.30
477.28	3211.22
477.46	3143.34
477.64	3236.96
477.82	3351.65
478.00	3321.22
478.18	3066.10
478.36	3133.98
478.54	3218.24
478.72	3227.60
478.90	3346.97
479.08	3480.38
479.26	3403.14
479.44	3466.33
479.62	3363.35
479.80	3419.52
479.98	3330.58
480.16	3424.20
480.34	3459.31
480.52	3358.67
480.70	3442.93
480.88	3478.04
481.06	3557.61
481.24	3508.46
481.41	3730.81
481.59	3716.77
481.77	3585.70
481.95	3590.38
482.13	3595.06
482.31	3583.36
482.49	3623.15
482.67	3679.32
482.85	3604.42
483.03	3892.31
483.21	3992.95
483.39	3847.84
483.57	3599.74
483.74	3679.32
483.92	3765.92
484.10	3794.01
484.28	3754.22
484.46	3906.35
484.64	3953.16
484.82	3775.28
485.00	3616.13
485.18	3838.48
485.35	3487.40
485.53	3283.77
485.71	3098.87
485.89	2876.52
486.07	3068.44
486.25	3358.67
486.43	3655.92
486.61	3492.08
486.78	3646.55
486.96	3639.53
487.14	3777.62
487.32	3838.48
487.50	4086.58
487.68	4051.47
487.85	4074.87
488.03	4166.15
488.21	4119.34
488.39	4086.58
488.57	3948.48
488.75	3822.09
488.92	4046.79
489.10	4369.78
489.28	4624.90
489.46	4608.51
489.64	4561.70
489.81	4606.17
489.99	4472.76
490.17	4615.54
490.35	4655.33
490.53	4393.19
490.70	4519.57
490.88	4418.93
491.06	4578.09
491.24	4793.42
491.41	4379.14
491.59	4308.93
491.77	4077.21
491.95	4311.27
492.13	4528.94
492.30	4592.13
492.48	4734.90
492.66	4875.34
492.84	4837.89
493.01	4781.71
493.19	4709.16
493.37	4617.88
493.54	4496.17
493.72	4709.16
493.90	4884.70
494.08	5151.52
494.25	5085.98
494.43	5121.09
494.61	5104.71
494.79	5186.63
494.96	5207.69
495.14	5043.85
495.32	4931.51
495.49	4741.93
495.67	4725.54
495.85	5006.41
496.02	5275.57
496.20	5205.35
496.38	5191.31
496.55	5118.75
496.73	5301.31
496.91	5296.63
497.09	5270.89
497.26	5455.79
497.44	5254.50
497.62	4992.36
497.79	5015.77
497.97	4770.01
498.14	4830.87
498.32	5116.41
498.50	5053.22
498.67	5174.92
498.85	5240.46
499.03	5245.14
499.20	5411.32
499.38	5303.65
499.56	5284.93
499.73	5249.82
499.91	5184.29
500.08	5018.11
500.26	5039.17
500.44	4973.64
500.61	5226.42
500.79	5041.51
500.97	4987.68
501.14	4952.57
501.32	4978.32
501.49	4990.02
501.67	4938.53
501.84	5160.88
502.02	5107.05
502.20	5294.29
502.37	5210.03
502.55	5280.25
502.72	5338.76
502.90	5420.68
503.07	5315.36
503.25	5203.01
503.43	5048.54
503.60	5013.43
503.78	4830.87
503.95	4999.38
504.13	5242.80
504.30	5434.72
504.48	5441.75
504.65	5327.06
504.83	5151.52
505.01	5423.02
505.18	5383.23
505.36	5572.82
505.53	5561.11
505.71	5788.14
505.88	5673.46
506.06	5465.15
506.23	5359.83
506.41	5364.51
506.58	5245.14
506.76	5488.56
506.93	5357.49
507.11	5301.31
507.28	5369.19
507.46	5305.99
507.63	5207.69
507.81	5107.05
507.98	5156.20
508.16	5186.63
508.33	5437.06
508.50	5558.77
508.68	5568.13
508.85	5755.38
509.03	5692.18
509.20	5652.39
509.38	5430.04
509.55	5336.42
509.73	5336.42
509.90	5420.68
510.08	5453.45
510.25	5467.49
510.42	5301.31
510.60	5385.57
510.77	5397.28
510.95	5668.78
511.12	5724.95
511.30	5647.71
511.47	5727.29
511.64	5706.23
511.82	5544.73
511.99	5444.09
512.17	5362.17
512.34	5336.42
512.51	5270.89
512.69	5343.44
512.86	5469.83
513.04	5509.62
513.21	5401.96
513.38	5331.74
513.56	5296.63
513.73	5128.11
513.90	5149.18
514.08	5205.35
514.25	5203.01
514.43	5406.64
514.60	5397.28
514.77	5366.85
514.95	5366.85
515.12	5401.96
515.29	5420.68
515.47	5612.60
515.64	5350.46
515.81	5570.48
515.99	5310.68
516.16	5104.71
516.33	4704.48
516.51	4430.63
516.68	4374.46
516.85	4135.73
517.03	4245.73
517.20	4699.80
517.37	5156.20
517.54	5242.80
517.72	5282.59
517.89	4690.43
518.06	4322.97
518.24	4573.41
518.41	4933.85
518.58	4945.55
518.75	5170.24
518.93	5118.75
519.10	5032.15
519.27	5156.20
519.45	5179.61
519.62	5378.55
519.79	5362.17
519.96	5373.87
520.14	5273.23
520.31	5170.24
520.48	5160.88
520.65	5210.03
520.83	5425.36
521.00	5345.78
521.17	5549.41
521.34	5373.87
521.52	5600.90
521.69	5425.36
521.86	5376.21
522.03	5617.29
522.20	5104.71
522.38	5097.69
522.55	5144.50
522.72	5231.10
522.89	5184.29
523.07	5298.97
523.24	5399.62
523.41	5387.91
523.58	5465.15
523.75	5694.52
523.92	5673.46
524.10	5589.20
524.27	5832.62
524.44	5643.03
524.61	5619.63
524.78	5540.05
524.96	5331.74
525.13	5469.83
525.30	5476.85
525.47	5579.84
525.64	5551.75
525.81	5341.10
525.98	5085.98
526.16	4723.20
526.33	4741.93
526.50	4741.93
526.67	4730.22
526.84	4753.63
527.01	4973.64
527.18	5128.11
527.36	5301.31
527.53	5451.11
527.70	5540.05
527.87	5397.28
528.04	5392.59
528.21	5284.93
528.38	5621.97
528.55	5518.98
528.72	5769.42
528.89	5673.46
529.07	5792.83
529.24	5542.39
529.41	5493.24
529.58	5151.52
529.75	5282.59
529.92	5490.90
530.09	5633.67
530.26	5624.31
530.43	5591.54
530.60	5516.64
530.77	5778.78
530.94	5734.31
531.11	5551.75
531.28	5526.00
531.46	5509.62
531.63	5392.59
531.80	5434.72
531.97	5305.99
532.14	5198.33
532.31	4936.19
532.48	4835.55
532.65	4985.34
532.82	5039.17
532.99	5256.84
533.16	5252.16
533.33	5540.05
533.50	5462.81
533.67	5460.47
533.84	5125.77
534.01	5104.71
534.18	5228.76
534.35	5334.08
534.52	5301.31
534.69	5266.21
534.86	5294.29
535.03	5469.83
535.20	5537.71
535.37	5509.62
535.54	5591.54
535.71	5577.50
535.88	5455.79
536.05	5317.70
536.22	5263.86
536.38	5153.86
536.55	5195.99
536.72	5011.09
536.89	5188.97
537.06	5327.06
537.23	5458.13
537.40	5460.47
537.57	5380.89
537.74	5315.36
537.91	5387.91
538.08	5476.85
538.25	5357.49
538.42	5385.57
538.59	5355.15
538.75	5268.55
538.92	5181.95
539.09	5008.75
539.26	5076.62
539.43	4997.04
539.60	5095.35
539.77	5097.69
539.94	5167.90
540.11	4901.08
540.28	4786.40
540.44	4875.34
540.61	4896.40
540.78	4828.53
540.95	5170.24
541.12	5015.77
541.29	5195.99
541.46	5289.61
541.62	5184.29
541.79	5163.22
541.96	5329.40
542.13	5151.52
542.30	5179.61
542.47	5296.63
542.63	5036.83
542.80	5118.75
542.97	5071.94
543.14	4990.02
543.31	5249.82
543.48	5125.77
543.64	5298.97
543.81	5284.93
543.98	5418.34
544.15	5135.14
544.32	4994.70
544.48	5090.67
544.65	5191.31
544.82	5343.44
544.99	5132.79
545.16	5057.90
545.32	5048.54
545.49	5268.55
545.66	5291.95
545.83	5181.95
546.00	5102.37
546.16	5121.09
546.33	5174.92
546.50	5001.72
546.67	5064.92
546.83	5090.67
547.00	5050.88
547.17	4926.83
547.34	4786.40
547.50	4812.14
547.67	4999.38
547.84	5071.94
548.00	5153.86
548.17	4980.66
548.34	5212.37
548.51	4929.17
548.67	5186.63
548.84	5193.65
549.01	5015.77
549.18	5210.03
549.34	5144.50
549.51	5055.56
549.68	5245.14
549.84	4997.04
550.01	5036.83
550.18	4945.55
550.34	4891.72
550.51	4968.96
550.68	4952.57
550.84	4978.32
551.01	4975.98
551.18	4929.17
551.34	5011.09
551.51	5167.90
551.68	5111.73
551.84	5219.39
552.01	4947.89
552.18	4762.99
552.34	4737.24
552.51	4784.06
552.68	4713.84
552.84	4812.14
553.01	4938.53
553.18	5041.51
553.34	5043.85
553.51	4971.30
553.67	4933.85
553.84	5039.17
554.01	4851.93
554.17	5048.54
554.34	4936.19
554.51	4997.04
554.67	5188.97
554.84	5004.07
555.00	4830.87
555.17	5029.81
555.33	4950.23
555.50	4851.93
555.67	4905.76
555.83	4828.53
556.00	4762.99
556.16	4849.59
556.33	4798.10
556.50	4720.86
556.66	4753.63
556.83	4615.54
556.99	4660.01
557.16	4636.60
557.32	4805.12
557.49	4868.31
557.65	4676.39
557.82	4741.93
557.98	4699.80
558.15	4664.69
558.32	4564.04
558.48	4379.14
558.65	4355.74
558.81	4547.66
558.98	4503.19
559.14	4629.58
559.31	4603.83
559.47	4610.86
559.64	4505.53
559.80	4395.53
559.97	4444.68
560.13	4503.19
560.30	4812.14
560.46	4851.93
560.63	4760.65
560.79	4908.10
560.96	4725.54
561.12	4599.15
561.29	4535.96
561.45	4456.38
561.61	4472.76
561.78	4526.60
561.94	4606.17
562.11	4444.68
562.27	4580.43
562.44	4456.38
562.60	4620.22
562.77	4765.33
562.93	4608.51
563.10	4568.73
563.26	4571.07
563.42	4367.44
563.59	4393.19
563.75	4535.96
563.92	4533.62
564.08	4430.63
564.24	4337.01
564.41	4428.29
564.57	4521.92
564.74	4559.36
564.90	4400.21
565.07	4435.32
565.23	4425.95
565.39	4276.16
565.56	4355.74
565.72	4315.95
565.88	4182.54
566.05	4184.88
566.21	4451.70
566.38	4264.46
566.54	4358.08
566.70	4477.44
566.87	4397.87
567.03	4472.76
567.19	4372.12
567.36	4421.27
567.52	4304.25
567.68	4435.32
567.85	4198.92
568.01	4177.86
568.17	4198.92
568.34	4175.52
568.50	4112.32
568.66	4231.69
568.83	4287.86
568.99	4208.28
569.15	4376.80
569.32	4332.33
569.48	4245.73
569.64	4210.62
569.81	4166.15
569.97	4102.96
570.13	4114.66
570.30	4023.38
570.46	4072.53
570.62	3868.91
570.78	3943.80
570.95	3939.12
571.11	3988.27
571.27	4248.07
571.43	4002.32
571.60	4205.94
571.76	4294.88
571.92	4177.86
572.09	4231.69
572.25	4271.48
572.41	4234.03
572.57	4208.28
572.74	4327.65
572.90	4184.88
573.06	4262.12
573.22	3939.12
573.38	4173.18
573.55	4074.87
573.71	4250.41
573.87	4205.94
574.03	4124.02
574.20	4077.21
574.36	3999.98
574.52	4021.04
574.68	4166.15
574.84	4042.11
575.01	3871.25
575.17	3929.76
575.33	3904.01
575.49	3974.23
575.65	3936.78
575.82	4028.06
575.98	3997.64
576.14	3854.86
576.30	3904.01
576.46	4102.96
576.62	3922.74
576.79	3995.29
576.95	4021.04
577.11	3913.38
577.27	4072.53
577.43	3995.29
577.59	3948.48
577.75	3819.75
577.92	3763.58
578.08	3707.41
578.24	3709.75
578.40	3882.95
578.56	3810.39
578.72	3857.20
578.88	3908.69
579.04	4016.36
579.21	4011.68
579.37	3936.78
579.53	3889.97
579.69	3894.65
579.85	3868.91
580.01	4063.17
580.17	3871.25
580.33	3775.28
580.49	3857.20
580.65	4032.74
580.82	3854.86
580.98	3838.48
581.14	3796.35
581.30	3861.88
581.46	3845.50
581.62	3922.74
581.78	3904.01
581.94	3929.76
582.10	3960.19
582.26	3971.89
582.42	3932.10
582.58	3833.80
582.74	3976.57
582.90	3974.23
583.06	4004.66
583.22	3861.88
583.38	3925.08
583.54	3836.14
583.70	3812.73
583.86	3744.86
584.02	3754.22
584.18	3866.56
584.34	3744.86
584.50	3824.44
584.66	3728.47
584.82	3761.24
584.98	3857.20
585.14	3723.79
585.30	3583.36
585.46	3616.13
585.62	3667.62
585.78	3627.83
585.94	3506.12
586.10	3672.30
586.26	3646.55
586.42	3742.52
586.58	3733.15
586.74	3812.73
586.90	3744.86
587.06	3688.68
587.22	3737.84
587.38	3716.77
587.54	3552.93
587.70	3648.90
587.86	3658.26
588.02	3730.81
588.18	3639.53
588.34	3375.05
588.49	3232.28
588.65	3075.46
588.81	2949.08
588.97	3028.65
589.13	3077.80
589.29	2991.20
589.45	3077.80
589.61	3272.07
589.77	3265.05
589.93	3520.17
590.08	3517.83
590.24	3466.33
590.40	3611.45
590.56	3356.33
590.72	3433.57
590.88	3452.29
591.04	3335.26
591.20	3400.80
591.35	3318.88
591.51	3300.16
591.67	3368.03
591.83	3480.38
591.99	3330.58
592.15	3410.16
592.31	3421.86
592.46	3358.67
592.62	3382.07
592.78	3452.29
592.94	3499.10
593.10	3421.86
593.26	3480.38
593.41	3442.93
593.57	3356.33
593.73	3342.28
593.89	3417.18
594.05	3335.26
594.20	3227.60
594.36	3349.31
594.52	3176.11
594.68	3398.46
594.84	3239.30
594.99	3321.22
595.15	3370.37
595.31	3293.13
595.47	3318.88
595.62	3248.66
595.78	3283.77
595.94	3510.80
596.10	3438.25
596.25	3365.69
596.41	3421.86
596.57	3396.12
596.73	3297.81
596.88	3288.45
597.04	3260.37
597.20	3234.62
597.36	3297.81
597.51	3206.53
597.67	3337.60
597.83	3222.92
597.99	3311.86
598.14	3300.16
598.30	3248.66
