SpectraSuite Data File
++++++++++++++++++++++++++++++++++++
Date: Mon Oct 07 14:54:58 GMT-05:00 2013
User: price-jones
Dark Spectrum Present: No
Reference Spectrum Present: No
Number of Sampled Component Spectra: 1
Spectrometers: USB2+H05261
Integration Time (usec): 10000 (USB2+H05261)
Spectra Averaged: 1 (USB2+H05261)
Boxcar Smoothing: 0 (USB2+H05261)
Correct for Electrical Dark: No (USB2+H05261)
Strobe/Lamp Enabled: No (USB2+H05261)
Correct for Detector Non-linearity: No (USB2+H05261)
Correct for Stray Light: No (USB2+H05261)
Number of Pixels in Processed Spectrum: 2048
>>>>>Begin Processed Spectral Data<<<<<
365.73	0.00
365.92	0.00
366.12	0.00
366.32	0.00
366.52	0.00
366.72	0.00
366.91	0.00
367.11	0.00
367.31	0.00
367.51	0.00
367.70	0.00
367.90	0.00
368.10	0.00
368.30	0.00
368.49	0.00
368.69	0.00
368.89	0.00
369.09	0.00
369.28	0.00
369.48	0.00
369.68	0.00
369.87	0.00
370.07	0.00
370.27	0.00
370.47	0.00
370.66	341.72
370.86	447.04
371.06	503.22
371.25	477.47
371.45	423.64
371.65	369.80
371.84	318.31
372.04	482.15
372.24	505.56
372.44	486.83
372.63	449.38
372.83	482.15
373.03	379.17
373.22	334.70
373.42	337.04
373.62	437.68
373.81	430.66
374.01	493.85
374.21	376.83
374.40	388.53
374.60	313.63
374.79	507.90
374.99	608.54
375.19	653.01
375.38	669.39
375.58	543.00
375.78	613.22
375.97	557.05
376.17	585.13
376.37	655.35
376.56	645.99
376.76	664.71
376.95	765.36
377.15	837.91
377.35	847.27
377.54	866.00
377.74	784.08
377.93	837.91
378.13	873.02
378.33	788.76
378.52	669.39
378.72	674.07
378.91	610.88
379.11	676.41
379.31	526.62
379.50	554.71
379.70	674.07
379.89	779.40
380.09	889.40
380.28	760.67
380.48	863.66
380.68	812.17
380.87	734.93
381.07	718.54
381.26	657.69
381.46	634.29
381.65	545.34
381.85	440.02
382.04	491.51
382.24	440.02
382.43	447.04
382.63	383.85
382.83	390.87
383.02	379.17
383.22	297.25
383.41	423.64
383.61	454.06
383.80	521.94
384.00	641.31
384.19	772.38
384.39	702.16
384.58	753.65
384.78	727.91
384.97	716.20
385.17	674.07
385.36	645.99
385.56	657.69
385.75	704.50
385.95	683.44
386.14	805.14
386.34	802.80
386.53	802.80
386.72	676.41
386.92	716.20
387.11	727.91
387.31	746.63
387.50	767.70
387.70	746.63
387.89	772.38
388.09	772.38
388.28	706.84
388.48	814.51
388.67	877.70
388.86	903.45
389.06	964.30
389.25	1043.88
389.45	1064.94
389.64	1132.82
389.84	997.07
390.03	966.64
390.22	1086.01
390.42	961.96
390.61	1219.42
390.81	1306.02
391.00	1268.57
391.19	1203.04
391.39	1146.86
391.58	1076.65
391.78	1062.60
391.97	945.58
392.16	793.44
392.36	777.06
392.55	629.60
392.75	430.66
392.94	280.86
393.13	294.91
393.33	365.12
393.52	631.94
393.71	692.80
393.91	854.30
394.10	936.21
394.29	1196.01
394.49	1245.16
394.68	1249.85
394.88	1273.25
395.07	1240.48
395.26	1263.89
395.46	1214.74
395.65	1287.29
395.84	950.26
396.04	791.10
396.23	606.20
396.42	489.17
396.62	507.90
396.81	594.50
397.00	821.53
397.19	1102.39
397.39	1277.93
397.58	1357.51
397.77	1537.73
397.97	1675.82
398.16	1582.20
398.35	1755.40
398.55	1739.02
398.74	1844.34
398.93	1914.56
399.12	1757.74
399.32	1668.80
399.51	1832.64
399.70	1933.28
399.90	1816.26
400.09	1806.89
400.28	1839.66
400.47	1858.39
400.67	1844.34
400.86	1963.71
401.05	2073.71
401.24	2062.01
401.44	2076.06
401.63	2050.31
401.82	2076.06
402.01	2078.40
402.21	2083.08
402.40	2066.69
402.59	2047.97
402.78	1907.54
402.97	1959.03
403.17	1895.83
403.36	1982.43
403.55	2083.08
403.74	2083.08
403.93	2087.76
404.13	1914.56
404.32	1776.47
404.51	1975.41
404.70	2122.87
404.89	1991.80
405.09	2024.56
405.28	1942.64
405.47	1942.64
405.66	1987.11
405.85	1877.11
406.05	1792.85
406.24	1933.28
406.43	1928.60
406.62	1909.88
406.81	1853.70
407.00	1914.56
407.20	1912.22
407.39	1811.57
407.58	2040.95
407.77	2050.31
407.96	2169.68
408.15	2113.50
408.34	2188.40
408.54	2223.51
408.73	2221.17
408.92	2160.31
409.11	2162.66
409.30	2083.08
409.49	1806.89
409.68	1778.81
409.87	1717.95
410.07	1865.41
410.26	2127.55
410.45	2118.18
410.64	2148.61
410.83	2303.09
411.02	2289.04
411.21	2312.45
411.40	2368.62
411.59	2331.17
411.78	2368.62
411.98	2368.62
412.17	2359.26
412.36	2267.98
412.55	2253.94
412.74	2260.96
412.93	2265.64
413.12	2249.25
413.31	2394.37
413.50	2396.71
413.69	2473.95
413.88	2438.84
414.07	2267.98
414.26	2469.27
414.45	2356.92
414.64	2450.54
414.83	2513.74
415.02	2366.28
415.22	2408.41
415.41	2562.89
415.60	2452.88
415.79	2712.68
415.98	2628.42
416.17	2675.23
416.36	2579.27
416.55	2413.09
416.74	2368.62
416.93	2291.38
417.12	2352.24
417.31	2455.22
417.50	2408.41
417.69	2504.37
417.88	2597.99
418.07	2392.03
418.26	2513.74
418.45	2509.05
418.64	2595.65
418.83	2651.83
419.02	2485.65
419.21	2560.55
419.39	2403.73
419.58	2335.85
419.77	2441.18
419.96	2471.61
420.15	2511.39
420.34	2722.04
420.53	2743.11
420.72	2857.79
420.91	2771.19
421.10	2743.11
421.29	2724.38
421.48	2745.45
421.67	2703.32
421.86	2670.55
422.05	2443.52
422.24	2132.23
422.43	2214.15
422.61	2424.80
422.80	2792.26
422.99	2523.10
423.18	2452.88
423.37	2471.61
423.56	2633.10
423.75	2541.82
423.94	2658.85
424.13	2307.77
424.32	2452.88
424.50	2495.01
424.69	2347.56
424.88	2523.10
425.07	2413.09
425.26	2394.37
425.45	2434.16
425.64	2349.90
425.83	2326.49
426.01	2431.82
426.20	2492.67
426.39	2417.77
426.58	2286.70
426.77	2207.13
426.96	2083.08
427.15	2132.23
427.33	2340.54
427.52	2441.18
427.71	2424.80
427.90	2277.34
428.09	2403.73
428.28	2305.43
428.46	2136.91
428.65	2186.06
428.84	2270.32
429.03	2239.89
429.22	2017.54
429.40	2050.31
429.59	1790.51
429.78	1561.14
429.97	1591.56
430.16	1657.10
430.34	1558.80
430.53	1589.22
430.72	1603.27
430.91	1834.98
431.10	2085.42
431.28	2499.69
431.47	2820.35
431.66	2857.79
431.85	2485.65
432.03	2480.97
432.22	2258.62
432.41	2244.57
432.60	2534.80
432.79	2605.02
432.97	2839.07
433.16	2626.08
433.35	2544.16
433.54	2167.34
433.72	2136.91
433.91	2183.72
434.10	2356.92
434.28	2623.74
434.47	2579.27
434.66	2539.48
434.85	2495.01
435.03	2506.71
435.22	2579.27
435.41	2911.63
435.59	2703.32
435.78	2810.98
435.97	2897.58
436.16	2846.09
436.34	2806.30
436.53	2782.90
436.72	2775.88
436.90	2628.42
437.09	2633.10
437.28	2661.19
437.46	2537.14
437.65	2607.36
437.84	2359.26
438.02	2258.62
438.21	2249.25
438.40	2492.67
438.58	2506.71
438.77	2661.19
438.96	2768.85
439.14	2736.09
439.33	2860.13
439.52	2881.20
439.70	2843.75
439.89	2803.96
440.08	2708.00
440.26	2782.90
440.45	2747.79
440.63	2946.73
440.82	3101.21
441.01	3023.97
441.19	3021.63
441.38	3084.83
441.57	3229.94
441.75	3246.32
441.94	3382.07
442.12	3171.43
442.31	3339.94
442.50	3325.90
442.68	3166.74
442.87	3183.13
443.05	3126.96
443.24	3162.06
443.43	3129.30
443.61	3281.43
443.80	3218.24
443.98	3038.02
444.17	3199.51
444.35	3190.15
444.54	3307.18
444.73	3309.52
444.91	3243.98
445.10	2988.86
445.28	3014.61
445.47	2743.11
445.65	2871.84
445.84	2876.52
446.02	3082.49
446.21	3145.68
446.39	3009.93
446.58	3171.43
446.77	3227.60
446.95	3131.64
447.14	3272.07
447.32	3342.28
447.51	3328.24
447.69	3183.13
447.88	3157.38
448.06	3213.56
448.25	3222.92
448.43	3173.77
448.62	3234.62
448.80	3094.19
448.99	3124.62
449.17	3183.13
449.36	3215.90
449.54	3365.69
449.73	3482.72
449.91	3400.80
450.10	3571.66
450.28	3510.80
450.46	3503.78
450.65	3578.68
450.83	3487.40
451.02	3421.86
451.20	3382.07
451.39	3377.39
451.57	3384.41
451.76	3363.35
451.94	3370.37
452.13	3213.56
452.31	3229.94
452.49	3005.25
452.68	2988.86
452.86	3026.31
453.05	2991.20
453.23	3122.27
453.42	3265.05
453.60	3417.18
453.78	3281.43
453.97	3255.69
454.15	3176.11
454.34	3211.22
454.52	3171.43
454.70	3302.50
454.89	3162.06
455.07	3213.56
455.26	3206.53
455.44	3368.03
455.62	3433.57
455.81	3494.42
455.99	3400.80
456.17	3377.39
456.36	3396.12
456.54	3419.52
456.73	3431.23
456.91	3524.85
457.09	3581.02
457.28	3503.78
457.46	3414.84
457.64	3391.44
457.83	3372.71
458.01	3342.28
458.19	3386.76
458.38	3293.13
458.56	3463.99
458.74	3471.01
458.93	3396.12
459.11	3302.50
459.29	3318.88
459.48	3375.05
459.66	3342.28
459.84	3353.99
460.03	3421.86
460.21	3239.30
460.39	3527.19
460.57	3646.55
460.76	3536.55
460.94	3536.55
461.12	3435.91
461.31	3393.78
461.49	3431.23
461.67	3487.40
461.85	3534.21
462.04	3473.36
462.22	3655.92
462.40	3651.24
462.59	3578.68
462.77	3557.61
462.95	3602.08
463.13	3503.78
463.32	3496.76
463.50	3410.16
463.68	3501.44
463.86	3471.01
464.05	3412.50
464.23	3276.75
464.41	3290.79
464.59	3323.56
464.78	3501.44
464.96	3382.07
465.14	3328.24
465.32	3487.40
465.50	3599.74
465.69	3620.81
465.87	3400.80
466.05	3393.78
466.23	3157.38
466.41	3220.58
466.60	3346.97
466.78	3234.62
466.96	3063.76
467.14	3332.92
467.32	3419.52
467.51	3302.50
467.69	3314.20
467.87	3276.75
468.05	3283.77
468.23	3363.35
468.41	3442.93
468.60	3487.40
468.78	3349.31
468.96	3330.58
469.14	3515.48
469.32	3508.46
469.50	3194.83
469.69	3344.63
469.87	3407.82
470.05	3274.41
470.23	3110.57
470.41	3272.07
470.59	3403.14
470.77	3300.16
470.95	3442.93
471.14	3435.91
471.32	3239.30
471.50	3506.12
471.68	3627.83
471.86	3632.51
472.04	3634.85
472.22	3602.08
472.40	3435.91
472.58	3332.92
472.77	3417.18
472.95	3494.42
473.13	3578.68
473.31	3396.12
473.49	3318.88
473.67	3564.64
473.85	3506.12
474.03	3662.94
474.21	3618.47
474.39	3665.28
474.57	3644.21
474.75	3763.58
474.93	3723.79
475.12	3637.19
475.30	3674.64
475.48	3604.42
475.66	3639.53
475.84	3667.62
476.02	3648.90
476.20	3581.02
476.38	3665.28
476.56	3768.26
476.74	3726.13
476.92	3859.54
477.10	3719.11
477.28	3896.99
477.46	4009.34
477.64	4011.68
477.82	4007.00
478.00	4049.13
478.18	3988.27
478.36	3808.05
478.54	3868.91
478.72	3880.61
478.90	4004.66
479.08	4203.60
479.26	4238.71
479.44	4128.70
479.62	4168.49
479.80	4077.21
479.98	4248.07
480.16	4135.73
480.34	4161.47
480.52	4292.54
480.70	4163.81
480.88	4250.41
481.06	4290.20
481.24	4348.72
481.41	4428.29
481.59	4432.97
481.77	4496.17
481.95	4306.59
482.13	4395.53
482.31	4456.38
482.49	4390.84
482.67	4322.97
482.85	4486.81
483.03	4629.58
483.21	4554.68
483.39	4514.89
483.57	4454.04
483.74	4367.44
483.92	4627.24
484.10	4571.07
484.28	4470.42
484.46	4669.37
484.64	4772.35
484.82	4463.40
485.00	4489.15
485.18	4561.70
485.35	4273.82
485.53	3873.59
485.71	3515.48
485.89	3478.04
486.07	3721.45
486.25	4011.68
486.43	4327.65
486.61	4329.99
486.78	4320.63
486.96	4379.14
487.14	4641.28
487.32	4746.61
487.50	4938.53
487.68	4994.70
487.85	5011.09
488.03	5130.45
488.21	4922.15
488.39	5032.15
488.57	4798.10
488.75	4706.82
488.92	4929.17
489.10	5240.46
489.28	5320.04
489.46	5668.78
489.64	5511.96
489.81	5586.86
489.99	5406.64
490.17	5362.17
490.35	5488.56
490.53	5467.49
490.70	5643.03
490.88	5233.44
491.06	5425.36
491.24	5495.58
491.41	5289.61
491.59	5034.49
491.77	4959.60
491.95	4997.04
492.13	5338.76
492.30	5488.56
492.48	5647.71
492.66	5891.13
492.84	5916.87
493.01	5795.17
493.19	5680.48
493.37	5565.79
493.54	5425.36
493.72	5509.62
493.90	5799.85
494.08	5996.45
494.25	6015.18
494.43	6022.20
494.61	6176.67
494.79	6244.55
494.96	6113.48
495.14	6052.63
495.32	5895.81
495.49	5696.86
495.67	5975.39
495.85	6190.72
496.02	6118.16
496.20	6232.85
496.38	5963.68
496.55	6092.41
496.73	6092.41
496.91	6237.53
497.09	6455.20
497.26	6352.21
497.44	6232.85
497.62	6132.20
497.79	5937.94
497.97	5666.44
498.14	5607.92
498.32	5921.56
498.50	6057.31
498.67	6214.12
498.85	6162.63
499.03	6356.90
499.20	6300.72
499.38	6410.73
499.56	6300.72
499.73	6092.41
499.91	6001.13
500.08	6057.31
500.26	5916.87
500.44	5966.03
500.61	5984.75
500.79	5874.74
500.97	5860.70
501.14	5860.70
501.32	5919.21
501.49	5935.60
501.67	5753.04
501.84	5935.60
502.02	6122.84
502.20	5963.68
502.37	6169.65
502.55	6246.89
502.72	6282.00
502.90	6342.85
503.07	6267.95
503.25	6279.66
503.43	6160.29
503.60	5870.06
503.78	5729.63
503.95	5811.55
504.13	6186.04
504.30	6359.24
504.48	6335.83
504.65	6223.48
504.83	6239.87
505.01	6513.71
505.18	6436.47
505.36	6656.48
505.53	6647.12
505.71	6654.14
505.88	6705.63
506.06	6628.40
506.23	6307.74
506.41	6359.24
506.58	6174.33
506.76	6249.23
506.93	6380.30
507.11	6420.09
507.28	6204.76
507.46	6045.60
507.63	5900.49
507.81	5949.64
507.98	5959.00
508.16	6258.59
508.33	6469.24
508.50	6707.98
508.68	6401.37
508.85	6649.46
509.03	6726.70
509.20	6541.80
509.38	6401.37
509.55	5996.45
509.73	6078.37
509.90	6483.28
510.08	6293.70
510.25	6410.73
510.42	6289.02
510.60	6377.96
510.77	6394.34
510.95	6480.94
511.12	6555.84
511.30	6612.01
511.47	6761.81
511.64	6532.44
511.82	6621.38
511.99	6331.15
512.17	6232.85
512.34	6132.20
512.51	6279.66
512.69	6319.45
512.86	6284.34
513.04	6394.34
513.21	6513.71
513.38	6218.80
513.56	6296.04
513.73	6054.97
513.90	5959.00
514.08	6186.04
514.25	6300.72
514.43	6071.35
514.60	6171.99
514.77	6256.25
514.95	6242.21
515.12	6225.82
515.29	6424.77
515.47	6312.42
515.64	6368.60
515.81	6347.53
515.99	6293.70
516.16	5947.30
516.33	5476.85
516.51	5214.71
516.68	5060.24
516.85	5029.81
517.03	4943.21
517.20	5439.40
517.37	5942.62
517.54	6228.17
517.72	6200.08
517.89	5645.37
518.06	5247.48
518.24	5331.74
518.41	5596.22
518.58	5781.12
518.75	6001.13
518.93	5933.26
519.10	6104.12
519.27	6111.14
519.45	6106.46
519.62	6382.64
519.79	6513.71
519.96	6296.04
520.14	6190.72
520.31	6113.48
520.48	5825.59
520.65	6071.35
520.83	6291.36
521.00	6450.52
521.17	6359.24
521.34	6101.78
521.52	6326.47
521.69	6359.24
521.86	6633.08
522.03	6340.51
522.20	6251.57
522.38	6005.81
522.55	5968.37
522.72	6031.56
522.89	6106.46
523.07	6146.25
523.24	6150.93
523.41	6328.81
523.58	6473.92
523.75	6422.43
523.92	6595.63
524.10	6593.29
524.27	6637.76
524.44	6502.01
524.61	6317.11
524.78	6511.37
524.96	6413.07
525.13	6291.36
525.30	6502.01
525.47	6560.52
525.64	6614.35
525.81	6396.68
525.98	5921.56
526.16	5650.05
526.33	5561.11
526.50	5392.59
526.67	5385.57
526.84	5469.83
527.01	5841.98
527.18	5853.68
527.36	6001.13
527.53	6307.74
527.70	6349.87
527.87	6209.44
528.04	6176.67
528.21	6148.59
528.38	6436.47
528.55	6562.86
528.72	6548.82
528.89	6658.82
529.07	6532.44
529.24	6368.60
529.41	6200.08
529.58	5970.71
529.75	6183.70
529.92	6345.19
530.09	6296.04
530.26	6410.73
530.43	6464.56
530.60	6420.09
530.77	6700.95
530.94	6682.23
531.11	6595.63
531.28	6314.77
531.46	6471.58
531.63	6265.61
531.80	6321.79
531.97	6279.66
532.14	5973.05
532.31	5753.04
532.48	5675.80
532.65	5659.42
532.82	5874.74
532.99	6195.40
533.16	6277.32
533.33	6466.90
533.50	6370.94
533.67	6129.86
533.84	5928.58
534.01	6031.56
534.18	6136.88
534.35	6111.14
534.52	6080.71
534.69	6218.80
534.86	6333.49
535.03	6450.52
535.20	6506.69
535.37	6544.14
535.54	6579.25
535.71	6413.07
535.88	6296.04
536.05	6127.52
536.22	6197.74
536.38	6054.97
536.55	5959.00
536.72	5947.30
536.89	5802.19
537.06	5942.62
537.23	6106.46
537.40	6200.08
537.57	6223.48
537.74	6073.69
537.91	6221.14
538.08	6150.93
538.25	6026.88
538.42	6204.76
538.59	5991.77
538.75	6090.07
538.92	5827.93
539.09	5902.83
539.26	5874.74
539.43	5706.23
539.60	5802.19
539.77	5928.58
539.94	5841.98
540.11	5748.36
540.28	5610.26
540.44	5689.84
540.61	5589.20
540.78	5741.33
540.95	5900.49
541.12	5968.37
541.29	5858.36
541.46	5989.43
541.62	6195.40
541.79	5949.64
541.96	5912.19
542.13	5755.38
542.30	5776.44
542.47	5881.77
542.63	5940.28
542.80	5790.49
542.97	6040.92
543.14	5937.94
543.31	5764.74
543.48	5966.03
543.64	6125.18
543.81	6223.48
543.98	6200.08
544.15	5907.51
544.32	5874.74
544.48	5888.79
544.65	5874.74
544.82	5919.21
544.99	5966.03
545.16	5916.87
545.32	5895.81
545.49	5921.56
545.66	6087.73
545.83	6054.97
546.00	5937.94
546.16	5949.64
546.33	5937.94
546.50	5966.03
546.67	6008.16
546.83	5760.06
547.00	5795.17
547.17	5928.58
547.34	5624.31
547.50	5680.48
547.67	5694.52
547.84	5628.99
548.00	5675.80
548.17	5816.23
548.34	5881.77
548.51	5973.05
548.67	6019.86
548.84	5921.56
549.01	5872.40
549.18	5844.32
549.34	5820.91
549.51	5738.99
549.68	5778.78
549.84	5785.80
550.01	5713.25
550.18	5533.03
550.34	5628.99
550.51	5666.44
550.68	5795.17
550.84	5666.44
551.01	5645.37
551.18	5549.41
551.34	5582.18
551.51	5893.47
551.68	5802.19
551.84	5738.99
552.01	5858.36
552.18	5657.07
552.34	5404.30
552.51	5385.57
552.68	5467.49
552.84	5806.87
553.01	5668.78
553.18	5643.03
553.34	5626.65
553.51	5624.31
553.67	5619.63
553.84	5720.27
554.01	5633.67
554.17	5849.00
554.34	5736.65
554.51	5584.52
554.67	5736.65
554.84	5734.31
555.00	5582.18
555.17	5701.54
555.33	5659.42
555.50	5551.75
555.67	5507.28
555.83	5556.43
556.00	5486.22
556.16	5359.83
556.33	5486.22
556.50	5509.62
556.66	5514.30
556.83	5277.91
556.99	5303.65
557.16	5448.77
557.32	5577.50
557.49	5287.27
557.65	5572.82
557.82	5518.98
557.98	5453.45
558.15	5212.37
558.32	5060.24
558.48	4912.78
558.65	4931.51
558.81	5139.82
558.98	5137.48
559.14	5130.45
559.31	5315.36
559.47	5123.43
559.64	5242.80
559.80	5102.37
559.97	5067.26
560.13	5348.12
560.30	5231.10
560.46	5544.73
560.63	5425.36
560.79	5495.58
560.96	5476.85
561.12	5383.23
561.29	5104.71
561.45	5186.63
561.61	5219.39
561.78	5188.97
561.94	5287.27
562.11	5064.92
562.27	5188.97
562.44	5238.12
562.60	5364.51
562.77	5366.85
562.93	5404.30
563.10	5294.29
563.26	5146.84
563.42	5097.69
563.59	5111.73
563.75	5210.03
563.92	5144.50
564.08	5125.77
564.24	5170.24
564.41	5146.84
564.57	5085.98
564.74	4992.36
564.90	5221.74
565.07	4983.00
565.23	5093.01
565.39	4968.96
565.56	4966.62
565.72	4809.80
565.88	4922.15
566.05	4950.23
566.21	4891.72
566.38	4961.94
566.54	5078.96
566.70	5088.32
566.87	5144.50
567.03	5004.07
567.19	5142.16
567.36	5179.61
567.52	5186.63
567.68	4950.23
567.85	4940.87
568.01	4873.00
568.17	4739.58
568.34	4711.50
568.50	4823.84
568.66	4835.55
568.83	4865.97
568.99	4943.21
569.15	4943.21
569.32	4870.65
569.48	4795.76
569.64	4758.31
569.81	4657.67
569.97	4723.20
570.13	4863.63
570.30	4723.20
570.46	4648.30
570.62	4498.51
570.78	4458.72
570.95	4486.81
571.11	4610.86
571.27	4601.49
571.43	4755.97
571.60	4648.30
571.76	4627.24
571.92	4926.83
572.09	4777.03
572.25	4709.16
572.41	4697.46
572.57	4805.12
572.74	4730.22
572.90	4847.25
573.06	4765.33
573.22	4868.31
573.38	4809.80
573.55	4779.37
573.71	4723.20
573.87	4746.61
574.03	4601.49
574.20	4765.33
574.36	4603.83
574.52	4538.30
574.68	4636.60
574.84	4477.44
575.01	4428.29
575.17	4451.70
575.33	4458.72
575.49	4589.79
575.65	4594.47
575.82	4458.72
575.98	4374.46
576.14	4451.70
576.30	4573.41
576.46	4664.69
576.62	4554.68
576.79	4587.45
576.95	4486.81
577.11	4566.39
577.27	4517.23
577.43	4512.55
577.59	4379.14
577.75	4341.69
577.92	4294.88
578.08	4313.61
578.24	4306.59
578.40	4320.63
578.56	4416.59
578.72	4365.10
578.88	4358.08
579.04	4318.29
579.21	4461.06
579.37	4496.17
579.53	4360.42
579.69	4482.13
579.85	4322.97
580.01	4507.87
580.17	4437.66
580.33	4468.08
580.49	4423.61
580.65	4449.36
580.82	4400.21
580.98	4447.02
581.14	4496.17
581.30	4517.23
581.46	4388.50
581.62	4496.17
581.78	4505.53
581.94	4585.11
582.10	4517.23
582.26	4374.46
582.42	4458.72
582.58	4451.70
582.74	4505.53
582.90	4344.03
583.06	4503.19
583.22	4540.64
583.38	4327.65
583.54	4503.19
583.70	4379.14
583.86	4393.19
584.02	4461.06
584.18	4521.92
584.34	4383.82
584.50	4386.16
584.66	4262.12
584.82	4278.50
584.98	4308.93
585.14	4147.43
585.30	4114.66
585.46	4100.62
585.62	4091.26
585.78	4222.33
585.94	4051.47
586.10	4126.36
586.26	4259.78
586.42	4180.20
586.58	4369.78
586.74	4161.47
586.90	4138.07
587.06	4337.01
587.22	4306.59
587.38	4107.64
587.54	4184.88
587.70	4142.75
587.86	4023.38
588.02	4121.68
588.18	4009.34
588.34	3901.67
588.49	3716.77
588.65	3559.95
588.81	3393.78
588.97	3517.83
589.13	3438.25
589.29	3356.33
589.45	3548.25
589.61	3662.94
589.77	3719.11
589.93	3749.54
590.08	3873.59
590.24	4135.73
590.40	3955.51
590.56	3911.04
590.72	3901.67
590.88	3978.91
591.04	3915.72
591.20	3953.16
591.35	3721.45
591.51	3843.16
591.67	3885.29
591.83	3798.69
591.99	3826.78
592.15	3676.98
592.31	3936.78
592.46	3995.29
592.62	3836.14
592.78	3894.65
592.94	3871.25
593.10	3779.97
593.26	3948.48
593.41	3911.04
593.57	3854.86
593.73	3733.15
593.89	3688.68
594.05	3716.77
594.20	3798.69
594.36	3653.58
594.52	3779.97
594.68	3665.28
594.84	3686.34
594.99	3868.91
595.15	3831.46
595.31	3728.47
595.47	3798.69
595.62	3681.66
595.78	3761.24
595.94	3941.46
596.10	3808.05
596.25	3730.81
596.41	3754.22
596.57	3815.07
596.73	3779.97
596.88	3789.33
597.04	3801.03
597.20	3768.26
597.36	3639.53
597.51	3719.11
597.67	3714.43
