SpectraSuite Data File
++++++++++++++++++++++++++++++++++++
Date: Mon Oct 07 14:53:00 GMT-05:00 2013
User: price-jones
Dark Spectrum Present: No
Reference Spectrum Present: No
Number of Sampled Component Spectra: 1
Spectrometers: USB2+H05261
Integration Time (usec): 100000 (USB2+H05261)
Spectra Averaged: 1 (USB2+H05261)
Boxcar Smoothing: 0 (USB2+H05261)
Correct for Electrical Dark: No (USB2+H05261)
Strobe/Lamp Enabled: No (USB2+H05261)
Correct for Detector Non-linearity: No (USB2+H05261)
Correct for Stray Light: No (USB2+H05261)
Number of Pixels in Processed Spectrum: 2048
>>>>>Begin Processed Spectral Data<<<<<
365.73	0.00
365.92	0.00
366.12	0.00
366.32	0.00
366.52	0.00
366.72	0.00
366.91	0.00
367.11	0.00
367.31	0.00
367.51	0.00
367.70	0.00
367.90	0.00
368.10	0.00
368.30	0.00
368.49	0.00
368.69	0.00
368.89	0.00
369.09	0.00
369.28	0.00
369.48	0.00
369.68	0.00
369.87	0.00
370.07	0.00
370.27	0.00
370.47	552.37
370.66	2810.98
370.86	3344.63
371.06	3627.83
371.25	3709.75
371.45	3157.38
371.65	2878.86
371.84	2731.41
372.04	2916.31
372.24	3297.81
372.44	3377.39
372.63	3318.88
372.83	3066.10
373.03	2794.60
373.22	2609.70
373.42	2661.19
373.62	3117.59
373.81	3461.65
374.01	3342.28
374.21	3070.78
374.40	2684.59
374.60	2892.90
374.79	3201.85
374.99	4023.38
375.19	4170.83
375.38	4177.86
375.58	3854.86
375.78	3873.59
375.97	3875.93
376.17	4086.58
376.37	4102.96
376.56	4044.45
376.76	4449.36
376.95	4744.27
377.15	5055.56
377.35	5322.38
377.54	5579.84
377.74	5607.92
377.93	5647.71
378.13	5432.38
378.33	5329.40
378.52	4830.87
378.72	4447.02
378.91	4505.53
379.11	4280.84
379.31	4205.94
379.50	4241.05
379.70	4470.42
379.89	4990.02
380.09	5179.61
380.28	5404.30
380.48	5214.71
380.68	5357.49
380.87	5139.82
381.07	4739.58
381.26	4465.74
381.46	4107.64
381.65	4163.81
381.85	3894.65
382.04	3709.75
382.24	3653.58
382.43	3351.65
382.63	3283.77
382.83	3323.56
383.02	3356.33
383.22	3368.03
383.41	3342.28
383.61	3578.68
383.80	4053.81
384.00	4503.19
384.19	5043.85
384.39	5371.53
384.58	5423.02
384.78	5376.21
384.97	5273.23
385.17	4814.48
385.36	4748.95
385.56	4472.76
385.75	4671.71
385.95	5167.90
386.14	5460.47
386.34	5619.63
386.53	5123.43
386.72	5006.41
386.92	5144.50
387.11	5476.85
387.31	5439.40
387.50	5366.85
387.70	5212.37
387.89	5317.70
388.09	5266.21
388.28	5221.74
388.48	5378.55
388.67	5860.70
388.86	6314.77
389.06	6710.32
389.25	7171.40
389.45	7183.10
389.64	7145.66
389.84	7143.32
390.03	7077.78
390.22	6895.22
390.42	7087.14
390.61	7695.68
390.81	8332.31
391.00	8608.49
391.19	8418.91
391.39	8011.65
391.58	7400.77
391.78	7059.06
391.97	6679.89
392.16	6497.33
392.36	5825.59
392.55	4578.09
392.75	3669.96
392.94	3026.31
393.13	3115.25
393.33	3557.61
393.52	4718.52
393.71	5795.17
393.91	6312.42
394.10	7028.63
394.29	7543.55
394.49	8173.15
394.68	8765.31
394.88	8631.90
395.07	9067.24
395.26	9067.24
395.46	8865.95
395.65	8126.34
395.84	7150.34
396.04	6094.76
396.23	4880.02
396.42	4077.21
396.62	4072.53
396.81	4578.09
397.00	5994.11
397.19	7529.50
397.39	9011.06
397.58	10134.52
397.77	10609.65
397.97	11176.06
398.16	11229.89
398.35	11398.41
398.55	11700.34
398.74	12294.83
398.93	12578.04
399.12	12187.17
399.32	11964.82
399.51	12138.02
399.70	13188.92
399.90	13022.74
400.09	12865.92
400.28	12816.77
400.47	12882.31
400.67	13462.76
400.86	13722.56
401.05	13785.76
401.24	13884.06
401.44	13998.74
401.63	13895.76
401.82	14132.15
402.01	14391.95
402.21	14204.71
402.40	14380.25
402.59	13991.72
402.78	13429.99
402.97	12870.61
403.17	13633.62
403.36	14211.73
403.55	14728.99
403.74	15332.85
403.93	14295.99
404.13	13006.36
404.32	13018.06
404.51	13762.35
404.70	14677.50
404.89	14712.61
405.09	14438.76
405.28	14057.26
405.47	14050.24
405.66	13895.76
405.85	13420.63
406.05	13394.89
406.24	13561.06
406.43	13968.32
406.62	14675.16
406.81	14611.96
407.00	14104.07
407.20	13888.74
407.39	13951.93
407.58	14459.83
407.77	14956.02
407.96	15690.95
408.15	15651.16
408.34	15847.77
408.54	16716.11
408.73	16510.14
408.92	16095.86
409.11	16074.80
409.30	15115.18
409.49	14209.39
409.68	13429.99
409.87	13076.57
410.07	13666.39
410.26	14906.87
410.45	15803.30
410.64	16252.68
410.83	16716.11
411.02	17221.66
411.21	17851.27
411.40	17153.79
411.59	17413.59
411.78	17303.58
411.98	17422.95
412.17	17666.36
412.36	17448.69
412.55	17593.81
412.74	16964.20
412.93	16695.04
413.12	16528.86
413.31	18279.58
413.50	18817.91
413.69	18597.90
413.88	17947.23
414.07	17383.16
414.26	17902.76
414.45	18265.54
414.64	18569.81
414.83	18829.61
415.02	18185.96
415.22	18118.09
415.41	18679.82
415.60	19119.84
415.79	19875.83
415.98	20285.42
416.17	20449.26
416.36	19955.41
416.55	19410.06
416.74	19044.94
416.93	18258.52
417.12	18302.99
417.31	18731.31
417.50	19019.19
417.69	19506.02
417.88	19590.28
418.07	19143.24
418.26	18733.65
418.45	19000.47
418.64	19924.98
418.83	20460.96
419.02	20517.14
419.21	20271.38
419.39	19019.19
419.58	18153.20
419.77	18382.57
419.96	19066.00
420.15	19983.49
420.34	20788.64
420.53	21591.44
420.72	22057.21
420.91	22010.40
421.10	21488.46
421.29	21490.80
421.48	20762.89
421.67	21916.78
421.86	20987.58
422.05	19499.00
422.24	17628.92
422.43	17345.71
422.61	19566.88
422.80	20669.27
422.99	20964.18
423.18	20046.69
423.37	19796.25
423.56	20173.08
423.75	20477.35
423.94	20549.90
424.13	19475.60
424.32	19569.22
424.50	19686.25
424.69	19316.44
424.88	19513.05
425.07	19466.24
425.26	19534.11
425.45	19229.84
425.64	18869.40
425.83	19094.09
426.01	20229.25
426.20	20409.47
426.39	20182.44
426.58	18855.36
426.77	17249.75
426.96	17032.08
427.15	17502.53
427.33	19110.47
427.52	19449.85
427.71	19653.48
427.90	19672.20
428.09	19321.12
428.28	19124.52
428.46	18314.69
428.65	17994.04
428.84	18625.98
429.03	18899.83
429.22	17752.96
429.40	16793.34
429.59	15246.25
429.78	13317.65
429.97	13605.53
430.16	13717.88
430.34	13935.55
430.53	13823.20
430.72	14188.33
430.91	15627.76
431.10	18466.83
431.28	21329.30
431.47	23307.05
431.66	23578.56
431.85	21631.23
432.03	19501.34
432.22	18768.76
432.41	19873.49
432.60	22003.38
432.79	22815.54
432.97	23255.56
433.16	22368.50
433.35	20673.95
433.54	18616.62
433.72	17542.32
433.91	18139.15
434.10	20697.36
434.28	21759.96
434.47	22677.45
434.66	22441.06
434.85	21699.11
435.03	21862.94
435.22	22380.20
435.41	23679.20
435.59	23496.64
435.78	24116.88
435.97	24727.76
436.16	24800.32
436.34	24301.78
436.53	23828.99
436.72	23775.16
436.90	22881.08
437.09	22689.15
437.28	22127.42
437.46	22979.38
437.65	22829.59
437.84	21123.33
438.02	19932.00
438.21	19786.89
438.40	20748.85
438.58	22546.38
438.77	23122.15
438.96	23016.83
439.14	24369.66
439.33	24758.19
439.52	24938.41
439.70	24526.47
439.89	23999.85
440.08	23278.97
440.26	23414.72
440.45	24257.31
440.63	25596.10
440.82	27386.61
441.01	26576.78
441.19	26466.78
441.38	26984.04
441.57	27955.36
441.75	28039.62
441.94	28634.11
442.12	28088.77
442.31	28900.94
442.50	28563.90
442.68	28046.64
442.87	27946.00
443.05	27459.16
443.24	28261.97
443.43	28704.33
443.61	29301.17
443.80	29469.69
443.98	28086.43
444.17	27683.86
444.35	29844.17
444.54	30129.72
444.73	29652.25
444.91	28341.55
445.10	27157.24
445.28	25888.67
445.47	25757.60
445.65	25773.98
445.84	26469.12
446.02	27786.84
446.21	28027.92
446.39	27845.35
446.58	28355.59
446.77	28912.64
446.95	29097.54
447.14	30277.17
447.32	30305.26
447.51	29549.26
447.69	28519.43
447.88	28439.85
448.06	28919.66
448.25	29174.78
448.43	29252.02
448.62	28999.24
448.80	28992.22
448.99	29125.63
449.17	29076.48
449.36	29411.17
449.54	30581.44
449.73	30824.86
449.91	31194.66
450.10	32151.94
450.28	32470.25
450.46	32505.36
450.65	32072.36
450.83	32048.96
451.02	31426.37
451.20	31330.41
451.39	31496.59
451.57	31173.60
451.76	30899.75
451.94	30794.43
452.13	30047.80
452.31	29064.77
452.49	27480.23
452.68	28067.70
452.86	28208.14
453.05	28582.62
453.23	28849.44
453.42	29874.60
453.60	30632.93
453.78	30712.51
453.97	30712.51
454.15	30534.63
454.34	29942.47
454.52	30211.64
454.70	29546.92
454.89	29769.27
455.07	29642.88
455.26	30752.30
455.44	31681.49
455.62	32170.66
455.81	32470.25
455.99	31725.96
456.17	31955.33
456.36	31463.82
456.54	32811.97
456.73	32786.22
456.91	33401.79
457.09	33214.54
457.28	33844.15
457.46	32797.93
457.64	32137.90
457.83	31393.61
458.01	30593.14
458.19	31318.71
458.38	31807.88
458.56	32687.92
458.74	32563.87
458.93	31924.91
459.11	31924.91
459.29	31992.78
459.48	31941.29
459.66	32030.23
459.84	31929.59
460.03	32664.52
460.21	32418.76
460.39	33081.13
460.57	33310.50
460.76	33865.21
460.94	33909.68
461.12	33476.68
461.31	33179.43
461.49	33390.08
461.67	33530.51
461.85	34452.69
462.04	34497.16
462.22	34918.45
462.40	34345.02
462.59	34239.70
462.77	34375.45
462.95	34277.15
463.13	33546.90
463.32	33322.21
463.50	33462.64
463.68	33525.83
463.86	33610.09
464.05	32921.98
464.23	32577.92
464.41	32016.19
464.59	31482.55
464.78	33818.40
464.96	33296.46
465.14	32615.37
465.32	33909.68
465.50	34354.38
465.69	34497.16
465.87	33792.65
466.05	32861.12
466.23	31398.29
466.41	30988.69
466.60	32137.90
466.78	32070.02
466.96	32292.37
467.14	33113.90
467.32	33542.22
467.51	33483.70
467.69	31915.54
467.87	32552.17
468.05	33371.36
468.23	33270.72
468.41	33113.90
468.60	33132.62
468.78	33427.53
468.96	33462.64
469.14	33890.96
469.32	33759.89
469.50	32685.58
469.69	32741.75
469.87	32123.85
470.05	32180.03
470.23	32198.75
470.41	32402.38
470.59	32788.56
470.77	33127.94
470.95	33462.64
471.14	34389.49
471.32	33998.62
471.50	36247.88
471.68	36046.59
471.86	36151.91
472.04	36336.82
472.22	36058.29
472.40	34703.12
472.58	34162.46
472.77	34349.70
472.95	34972.28
473.13	35793.81
473.31	34965.26
473.49	34918.45
473.67	35852.33
473.85	35761.05
474.03	36732.37
474.21	37174.73
474.39	37001.53
474.57	37539.85
474.75	37163.03
474.93	37277.71
475.12	36268.94
475.30	36758.11
475.48	36435.12
475.66	36985.15
475.84	36474.91
476.02	36498.31
476.20	35608.91
476.38	36538.10
476.56	37937.74
476.74	38087.54
476.92	38281.80
477.10	38756.93
477.28	39845.28
477.46	40051.25
477.64	40533.40
477.82	40432.75
478.00	40453.82
478.18	39856.98
478.36	39651.02
478.54	39833.58
478.72	40402.33
478.90	41490.68
479.08	42195.18
479.26	42728.82
479.44	42693.71
479.62	42300.50
479.80	42286.46
479.98	42686.69
480.16	42520.51
480.34	42141.35
480.52	42618.81
480.70	43058.84
480.88	43147.78
481.06	44079.31
481.24	44353.15
481.41	44858.71
481.59	45502.35
481.77	45408.73
481.95	44634.02
482.13	44643.38
482.31	44751.04
482.49	45352.56
482.67	45457.88
482.85	45514.06
483.03	46054.72
483.21	46499.42
483.39	46342.61
483.57	45790.24
483.74	45125.53
483.92	45958.76
484.10	46038.34
484.28	46513.47
484.46	46988.60
484.64	47660.33
484.82	46644.54
485.00	46501.76
485.18	45167.66
485.35	44126.12
485.53	40971.08
485.71	37326.86
485.89	37392.40
486.07	39133.76
486.25	42525.19
486.43	44414.01
486.61	44935.95
486.78	45579.59
486.96	45380.65
487.14	47456.70
487.32	47789.06
487.50	49177.00
487.68	49900.22
487.85	50464.29
488.03	50148.32
488.21	49858.09
488.39	49240.19
488.57	48528.67
488.75	47999.71
488.92	49478.92
489.10	51831.16
489.28	52727.59
489.46	53605.29
489.64	53345.49
489.81	53380.60
489.99	53031.86
490.17	53130.16
490.35	53560.82
490.53	53315.06
490.70	52868.02
490.88	52484.17
491.06	53839.34
491.24	53701.25
491.41	52498.22
491.59	50967.51
491.77	50148.32
491.95	51239.01
492.13	52671.42
492.30	53869.77
492.48	54681.94
492.66	55213.24
492.84	54761.51
493.01	54667.89
493.19	54291.07
493.37	53928.28
493.54	53825.30
493.72	54375.33
493.90	55536.23
494.08	55884.97
494.25	56493.51
494.43	56622.24
494.61	56865.66
494.79	57031.83
494.96	56736.93
495.14	55910.72
495.32	55288.13
495.49	54621.08
495.67	55702.41
495.85	57097.37
496.02	57336.10
496.20	57073.96
496.38	56704.16
496.55	56549.68
496.73	57198.01
496.91	57160.56
497.09	57535.05
497.26	58045.29
497.44	57474.20
497.62	56987.36
497.79	56123.71
497.97	55201.53
498.14	55159.41
498.32	56287.54
498.50	57183.97
498.67	57703.57
498.85	57492.92
499.03	57801.87
499.20	57846.34
499.38	57869.75
499.56	57963.37
499.73	57247.16
499.91	56921.83
500.08	56474.79
500.26	55950.51
500.44	56404.57
500.61	57013.11
500.79	56750.97
500.97	56399.89
501.14	56273.50
501.32	56177.54
501.49	56498.19
501.67	56582.45
501.84	56985.02
502.02	56973.32
502.20	57443.77
502.37	57565.48
502.55	57492.92
502.72	58183.38
502.90	58721.70
503.07	58157.63
503.25	57794.85
503.43	56970.98
503.60	56390.53
503.78	55697.73
503.95	56306.27
504.13	57829.96
504.30	58192.74
504.48	58145.93
504.65	57979.75
504.83	58071.03
505.01	58688.93
505.18	58934.69
505.36	59423.86
505.53	59213.21
505.71	59669.62
505.88	59657.91
506.06	59058.74
506.23	58775.53
506.41	58784.90
506.58	58740.42
506.76	58784.90
506.93	58663.19
507.11	58396.37
507.28	58415.09
507.46	58028.90
507.63	57614.63
507.81	57403.98
507.98	57605.26
508.16	58164.65
508.33	58864.47
508.50	59157.04
508.68	59482.37
508.85	59805.37
509.03	59896.65
509.20	59618.13
509.38	58915.96
509.55	58354.24
509.73	58267.64
509.90	58855.11
510.08	59185.13
510.25	59159.38
510.42	58791.92
510.60	58899.58
510.77	59236.62
510.95	59578.34
511.12	59760.90
511.30	60090.91
511.47	60177.51
511.64	60191.56
511.82	59922.40
511.99	58890.22
512.17	58754.47
512.34	58321.47
512.51	58688.93
512.69	58791.92
512.86	58759.15
513.04	59194.49
513.21	59121.93
513.38	58740.42
513.56	58358.92
513.73	57750.38
513.90	58258.27
514.08	58164.65
514.25	58468.92
514.43	58616.38
514.60	58801.28
514.77	58974.48
514.95	58972.14
515.12	58815.32
515.29	59037.67
515.47	59447.27
515.64	59587.70
515.81	59367.69
515.99	58686.59
516.16	57425.04
516.33	55255.37
516.51	53923.60
516.68	53024.84
516.85	52839.93
517.03	53308.04
517.20	55884.97
517.37	58188.06
517.54	58915.96
517.72	58286.36
517.89	56004.34
518.06	53902.54
518.24	54719.38
518.41	56343.72
518.58	57633.35
518.75	57825.28
518.93	57930.60
519.10	57949.32
519.27	58267.64
519.45	58651.48
519.62	59353.65
519.79	59690.68
519.96	59318.54
520.14	58815.32
520.31	58085.07
520.48	57858.04
520.65	58438.50
520.83	59561.95
521.00	59601.74
521.17	59311.52
521.34	58901.92
521.52	59285.77
521.69	59784.30
521.86	60161.13
522.03	59868.56
522.20	58747.45
522.38	57736.34
522.55	57797.19
522.72	58372.96
522.89	58450.20
523.07	58993.20
523.24	59150.02
523.41	59868.56
523.58	60219.64
523.75	60530.93
523.92	60238.37
524.10	60327.31
524.27	60493.49
524.44	60193.90
524.61	59770.26
524.78	59828.77
524.96	59704.73
525.13	59941.12
525.30	60111.98
525.47	60430.29
525.64	60346.03
525.81	59749.20
525.98	58342.53
526.16	56837.57
526.33	56481.81
526.50	56175.20
526.67	55561.98
526.84	56320.31
527.01	57111.41
527.18	57909.53
527.36	58920.65
527.53	59688.34
527.70	60011.34
527.87	59531.53
528.04	58990.86
528.21	59594.72
528.38	60196.24
528.55	60757.97
528.72	61111.39
528.89	60989.68
529.07	60809.46
529.24	59959.84
529.41	59271.73
529.58	59220.23
529.75	59166.40
529.92	59231.94
530.09	59908.35
530.26	60420.93
530.43	60622.22
530.60	60772.01
530.77	60975.64
530.94	60912.44
531.11	60584.77
531.28	59861.54
531.46	59891.97
531.63	60203.26
531.80	60065.17
531.97	59573.66
532.14	58955.75
532.31	57696.55
532.48	57371.21
532.65	57354.83
532.82	58464.24
532.99	59124.27
533.16	59620.47
533.33	60315.61
533.50	59990.27
533.67	59372.37
533.84	58885.54
534.01	59138.32
534.18	59412.16
534.35	59517.48
534.52	59454.29
534.69	59632.17
534.86	60083.89
535.03	60285.18
535.20	60479.44
535.37	60776.69
535.54	60954.57
535.71	60671.37
535.88	60233.69
536.05	59664.94
536.22	59421.52
536.38	58997.88
536.55	58450.20
536.72	58143.59
536.89	58129.54
537.06	58892.56
537.23	59980.91
537.40	60027.72
537.57	59887.29
537.74	59676.64
537.91	59632.17
538.08	59896.65
538.25	59730.47
538.42	59835.80
538.59	59346.62
538.75	59056.40
538.92	58972.14
539.09	58862.13
539.26	58653.82
539.43	58333.17
539.60	58398.71
539.77	58834.05
539.94	58337.85
540.11	57748.04
540.28	57399.30
540.44	57408.66
540.61	57822.93
540.78	57841.66
540.95	58377.64
541.12	58536.80
541.29	58759.15
541.46	59063.42
541.62	59332.58
541.79	58913.62
541.96	58609.35
542.13	58583.61
542.30	58920.65
542.47	58649.14
542.63	58787.24
542.80	58543.82
542.97	58628.08
543.14	58665.53
543.31	58513.39
543.48	59072.78
543.64	59901.33
543.81	60032.40
543.98	59774.94
544.15	59203.85
544.32	58658.51
544.48	58932.35
544.65	59196.83
544.82	59491.74
544.99	58986.18
545.16	58738.08
545.32	58714.68
545.49	59437.90
545.66	59697.70
545.83	59278.75
546.00	59100.87
546.16	58726.38
546.33	58880.86
546.50	58796.60
546.67	59250.66
546.83	59061.08
547.00	58721.70
547.17	58127.20
547.34	57806.55
547.50	57712.93
547.67	58253.59
547.84	58042.95
548.00	58784.90
548.17	58862.13
548.34	58979.16
548.51	58735.74
548.67	58883.20
548.84	58981.50
549.01	58887.88
549.18	58625.74
549.34	58644.46
549.51	58710.00
549.68	58745.11
549.84	58443.18
550.01	58239.55
550.18	58092.10
550.34	58379.98
550.51	58387.00
550.68	58607.01
550.84	57993.79
551.01	58099.12
551.18	57998.48
551.34	58136.57
551.51	58630.42
551.68	58630.42
551.84	58747.45
552.01	58719.36
552.18	58527.44
552.34	57806.55
552.51	57495.26
552.68	57469.51
552.84	57916.56
553.01	58178.70
553.18	57993.79
553.34	58040.60
553.51	58108.48
553.67	58623.40
553.84	58403.39
554.01	58576.59
554.17	58349.56
554.34	58473.60
554.51	58555.52
554.67	58721.70
554.84	58824.68
555.00	58438.50
555.17	58162.31
555.33	58164.65
555.50	57748.04
555.67	57993.79
555.83	57972.73
556.00	57675.48
556.16	57694.21
556.33	57272.91
556.50	57207.37
556.66	57198.01
556.83	57036.51
556.99	57284.61
557.16	57310.36
557.32	57450.79
557.49	57867.40
557.65	57623.99
557.82	57818.25
557.98	57689.52
558.15	57200.35
558.32	56399.89
558.48	55550.27
558.65	55831.14
558.81	55950.51
558.98	56425.64
559.14	56577.77
559.31	56310.95
559.47	56512.23
559.64	56317.97
559.80	55945.83
559.97	56009.02
560.13	56631.60
560.30	57293.97
560.46	57895.49
560.63	57923.58
560.79	58042.95
560.96	57598.24
561.12	56699.48
561.29	55625.17
561.45	56030.08
561.61	56292.22
561.78	57158.22
561.94	56636.28
562.11	56605.86
562.27	56580.11
562.44	56818.84
562.60	57031.83
562.77	57139.50
562.93	57027.15
563.10	56858.63
563.26	56715.86
563.42	56280.52
563.59	56479.47
563.75	56081.58
563.92	56580.11
564.08	56243.07
564.24	56753.31
564.41	56664.37
564.57	56491.17
564.74	56533.30
564.90	56179.88
565.07	56135.41
565.23	55695.39
565.39	55187.49
565.56	55040.04
565.72	54946.42
565.88	55262.39
566.05	55491.76
566.21	55578.36
566.38	55611.13
566.54	55938.80
566.70	56156.47
566.87	56310.95
567.03	56357.76
567.19	56568.41
567.36	56086.26
567.52	56060.51
567.68	55849.86
567.85	55199.19
568.01	55231.96
568.17	54534.48
568.34	54550.87
568.50	54438.52
568.66	54878.54
568.83	55257.71
568.99	54915.99
569.15	55271.75
569.32	55246.00
569.48	55009.61
569.64	54707.68
569.81	54457.24
569.97	54326.17
570.13	54354.26
570.30	53862.75
570.46	53460.18
570.62	52732.27
570.78	52851.64
570.95	53464.86
571.11	53794.87
571.27	54000.84
571.43	54199.79
571.60	54693.64
571.76	54983.86
571.92	55416.86
572.09	55182.81
572.25	55302.18
572.41	55182.81
572.57	54908.97
572.74	54988.55
572.90	54630.44
573.06	54663.21
573.22	54705.34
573.38	54740.45
573.55	54529.80
573.71	54901.95
573.87	54791.94
574.03	54471.29
574.20	54621.08
574.36	54106.16
574.52	54401.07
574.68	53848.71
574.84	53413.37
575.01	53043.56
575.17	53001.43
575.33	53502.31
575.49	53558.48
575.65	54033.61
575.82	53408.68
575.98	53235.48
576.14	53703.59
576.30	53708.27
576.46	53727.00
576.62	53626.35
576.79	53567.84
576.95	53535.07
577.11	53244.85
577.27	53560.82
577.43	53525.71
577.59	53212.08
577.75	52615.24
577.92	52004.36
578.08	52018.41
578.24	52018.41
578.40	52172.88
578.56	52790.78
578.72	52566.09
578.88	52821.21
579.04	52945.26
579.21	53230.80
579.37	52804.83
579.53	53013.13
579.69	53219.10
579.85	53296.34
580.01	53258.89
580.17	52732.27
580.33	52683.12
580.49	52781.42
580.65	53137.18
580.82	53062.29
580.98	53160.59
581.14	53081.01
581.30	53153.57
581.46	53048.24
581.62	53385.28
581.78	53455.50
581.94	53371.24
582.10	53642.74
582.26	53415.71
582.42	53483.58
582.58	53268.25
582.74	53209.74
582.90	53347.83
583.06	53160.59
583.22	53214.42
583.38	53045.90
583.54	53057.60
583.70	52846.96
583.86	53303.36
584.02	52680.78
584.18	53127.82
584.34	52781.42
584.50	52633.97
584.66	52659.71
584.82	52383.53
584.98	52362.46
585.14	51667.33
585.30	51269.43
