SpectraSuite Data File
++++++++++++++++++++++++++++++++++++
Date: Mon Oct 07 14:53:54 GMT-05:00 2013
User: price-jones
Dark Spectrum Present: No
Reference Spectrum Present: No
Number of Sampled Component Spectra: 1
Spectrometers: USB2+H05261
Integration Time (usec): 100000 (USB2+H05261)
Spectra Averaged: 1 (USB2+H05261)
Boxcar Smoothing: 0 (USB2+H05261)
Correct for Electrical Dark: No (USB2+H05261)
Strobe/Lamp Enabled: No (USB2+H05261)
Correct for Detector Non-linearity: No (USB2+H05261)
Correct for Stray Light: No (USB2+H05261)
Number of Pixels in Processed Spectrum: 2048
>>>>>Begin Processed Spectral Data<<<<<
365.73	0.00
365.92	0.00
366.12	0.00
366.32	0.00
366.52	0.00
366.72	0.00
366.91	0.00
367.11	0.00
367.31	0.00
367.51	0.00
367.70	0.00
367.90	0.00
368.10	0.00
368.30	0.00
368.49	0.00
368.69	0.00
368.89	0.00
369.09	0.00
369.28	0.00
369.48	0.00
369.68	0.00
369.87	0.00
370.07	0.00
370.27	0.00
370.47	547.69
370.66	3014.61
370.86	3541.23
371.06	4091.26
371.25	4098.28
371.45	3562.30
371.65	3279.09
371.84	2977.16
372.04	3192.49
372.24	3602.08
372.44	3754.22
372.63	3691.02
372.83	3480.38
373.03	3178.45
373.22	2923.33
373.42	2867.16
373.62	3433.57
373.81	3714.43
374.01	3742.52
374.21	3197.17
374.40	3056.74
374.60	3211.22
374.79	3836.14
374.99	4297.22
375.19	4596.81
375.38	4554.68
375.58	4482.13
375.78	4138.07
375.97	4245.73
376.17	4477.44
376.37	4451.70
376.56	4566.39
376.76	4730.22
376.95	5263.86
377.15	5490.90
377.35	5612.60
377.54	5874.74
377.74	5968.37
377.93	6005.81
378.13	5877.09
378.33	5680.48
378.52	5277.91
378.72	5090.67
378.91	4788.74
379.11	4669.37
379.31	4503.19
379.50	4550.00
379.70	4744.27
379.89	5313.02
380.09	5893.47
380.28	6101.78
380.48	5961.34
380.68	5930.92
380.87	5673.46
381.07	5291.95
381.26	4915.12
381.46	4767.67
381.65	4367.44
381.85	4198.92
382.04	4257.43
382.24	3939.12
382.43	3527.19
382.63	3564.64
382.83	3618.47
383.02	3719.11
383.22	3651.24
383.41	3566.98
383.61	3925.08
383.80	4507.87
384.00	4929.17
384.19	5582.18
384.39	5813.89
384.58	5846.66
384.78	5755.38
384.97	5802.19
385.17	5418.34
385.36	5170.24
385.56	4896.40
385.75	5156.20
385.95	5699.20
386.14	6179.01
386.34	6012.84
386.53	5872.40
386.72	5462.81
386.92	5554.09
387.11	5806.87
387.31	6083.05
387.50	6031.56
387.70	5802.19
387.89	5729.63
388.09	5921.56
388.28	5813.89
388.48	5867.72
388.67	6314.77
388.86	6958.41
389.06	6995.86
389.25	7662.91
389.45	7854.84
389.64	7999.95
389.84	7749.51
390.03	7749.51
390.22	7595.04
390.42	7896.97
390.61	8217.62
390.81	9034.47
391.00	8898.72
391.19	8952.55
391.39	8505.51
391.58	8313.58
391.78	7662.91
391.97	7576.31
392.16	7119.91
392.36	6431.79
392.55	5203.01
392.75	4135.73
392.94	3382.07
393.13	3110.57
393.33	3822.09
393.52	4844.91
393.71	6174.33
393.91	7012.24
394.10	7243.96
394.29	8138.04
394.49	8915.10
394.68	9591.52
394.88	9701.52
395.07	9921.53
395.26	9881.74
395.46	9591.52
395.65	9034.47
395.84	7754.19
396.04	6775.85
396.23	5364.51
396.42	4552.34
396.62	4248.07
396.81	5032.15
397.00	6513.71
397.19	8039.74
397.39	9298.95
397.58	10813.28
397.77	11506.07
397.97	11871.20
398.16	11985.88
398.35	12362.71
398.55	12526.55
398.74	13341.05
398.93	13664.05
399.12	13490.85
399.32	12748.90
399.51	13287.22
399.70	13968.32
399.90	13813.84
400.09	13980.02
400.28	13799.80
400.47	13809.16
400.67	14731.33
400.86	15021.56
401.05	14913.89
401.24	14860.06
401.44	15211.14
401.63	15389.02
401.82	15393.70
402.01	15276.68
402.21	15730.74
402.40	15644.14
402.59	15246.25
402.78	14534.73
402.97	13951.93
403.17	14340.46
403.36	15489.67
403.55	16079.48
403.74	16423.54
403.93	15665.21
404.13	14347.48
404.32	13951.93
404.51	14541.75
404.70	15786.91
404.89	15880.53
405.09	15634.78
405.28	15068.37
405.47	15194.76
405.66	15049.64
405.85	14780.48
406.05	14455.15
406.24	14305.35
406.43	15037.94
406.62	15796.28
406.81	15592.65
407.00	15318.81
407.20	14862.40
407.39	15183.06
407.58	15646.48
407.77	16156.72
407.96	16968.88
408.15	16779.30
408.34	17020.38
408.54	17832.54
408.73	18057.23
408.92	17638.28
409.11	17432.31
409.30	16315.87
409.49	15339.87
409.68	14331.10
409.87	14010.45
410.07	14817.93
410.26	15798.62
410.45	17039.10
410.64	17348.05
410.83	17832.54
411.02	18188.30
411.21	18986.43
411.40	18862.38
411.59	18920.89
411.78	18600.24
411.98	18747.69
412.17	18792.16
412.36	18384.91
412.55	18717.26
412.74	18501.93
412.93	17741.26
413.12	18061.91
413.31	19590.28
413.50	19915.62
413.69	20388.41
413.88	19307.08
414.07	18508.96
414.26	19213.46
414.45	19524.75
414.64	19777.53
414.83	19974.13
415.02	19824.34
415.22	19613.69
415.41	20046.69
415.60	20678.63
415.79	21408.88
415.98	21785.71
416.17	22169.55
416.36	21394.84
416.55	21294.19
416.74	20072.43
416.93	19674.54
417.12	19480.28
417.31	19852.42
417.50	20182.44
417.69	20809.70
417.88	20718.42
418.07	20528.84
418.26	20325.21
418.45	20159.03
418.64	21308.24
418.83	21661.66
419.02	21884.01
419.21	21584.42
419.39	20648.21
419.58	19407.72
419.77	19765.82
419.96	20549.90
420.15	21621.87
420.34	22185.94
420.53	22874.06
420.72	23344.50
420.91	23318.76
421.10	22787.46
421.29	22618.94
421.48	21703.79
421.67	22843.63
421.86	22309.99
422.05	20915.03
422.24	18532.36
422.43	18345.12
422.61	20673.95
422.80	22082.95
422.99	22274.88
423.18	21345.69
423.37	20823.75
423.56	21212.28
423.75	21289.51
423.94	21708.47
424.13	20690.34
424.32	20819.07
424.50	20788.64
424.69	20725.44
424.88	20870.56
425.07	20744.17
425.26	20453.94
425.45	20404.79
425.64	19810.29
425.83	20020.94
426.01	21020.35
426.20	21525.91
426.39	21458.03
426.58	20042.01
426.77	18560.45
426.96	17841.90
427.15	18546.40
427.33	19826.68
427.52	20968.86
427.71	20908.01
427.90	20802.68
428.09	20463.30
428.28	19969.45
428.46	19494.32
428.65	19136.22
428.84	19377.30
429.03	20030.30
429.22	18789.82
429.40	18136.81
429.59	16411.84
429.78	14382.59
429.97	14132.15
430.16	14607.28
430.34	14370.89
430.53	14602.60
430.72	14853.04
430.91	16372.05
431.10	19302.40
431.28	22455.10
431.47	24863.51
431.66	24966.49
431.85	22537.02
432.03	20851.83
432.22	19957.75
432.41	20737.15
432.60	22782.77
432.79	23620.69
432.97	24563.92
433.16	23819.63
433.35	22059.55
433.54	19660.50
433.72	18518.32
433.91	18700.88
434.10	21235.68
434.28	22771.07
434.47	23639.41
434.66	23447.49
434.85	22925.55
435.03	22862.35
435.22	23339.82
435.41	24648.18
435.59	24884.58
435.78	25095.22
435.97	25649.93
436.16	26111.02
436.34	25654.61
436.53	25165.44
436.72	24929.05
436.90	23639.41
437.09	23737.71
437.28	23218.11
437.46	24252.63
437.65	24261.99
437.84	22412.97
438.02	20786.30
438.21	20430.54
438.40	21439.31
438.58	23466.21
438.77	24142.63
438.96	24133.26
439.14	25469.71
439.33	25500.14
439.52	26040.80
439.70	25781.00
439.89	25205.23
440.08	24294.76
440.26	24105.18
440.45	25191.19
440.63	26679.77
440.82	28355.59
441.01	27786.84
441.19	27775.14
441.38	28137.92
441.57	28914.98
441.75	29184.14
441.94	29472.03
442.12	29202.86
442.31	30000.99
442.50	29668.63
442.68	29507.13
442.87	29340.96
443.05	28570.92
443.24	29099.88
443.43	29858.21
443.61	30548.67
443.80	30728.89
443.98	29003.92
444.17	28664.54
444.35	30267.81
444.54	31110.40
444.73	31030.82
444.91	29518.84
445.10	28381.34
445.28	27274.26
445.47	26494.86
445.65	27012.12
445.84	27733.01
446.02	28783.91
446.21	28709.01
446.39	29057.75
446.58	29219.25
446.77	29907.37
446.95	29816.08
447.14	31129.12
447.32	31583.19
447.51	30906.77
447.69	29694.38
447.88	29266.06
448.06	29652.25
448.25	30768.68
448.43	30506.54
448.62	29811.40
448.80	29860.55
448.99	29869.92
449.17	30462.07
449.36	29876.94
449.54	31438.08
449.73	32044.27
449.91	32224.50
450.10	33219.22
450.28	33500.09
450.46	33390.08
450.65	33593.71
450.83	33120.92
451.02	32102.79
451.20	32006.83
451.39	32294.71
451.57	31728.30
451.76	32266.63
451.94	31632.34
452.13	31515.31
452.31	29905.02
452.49	28128.56
452.68	28849.44
452.86	28601.35
453.05	29212.23
453.23	29890.98
453.42	30787.41
453.60	31541.06
453.78	31599.57
453.97	31454.46
454.15	31496.59
454.34	30834.22
454.52	30932.52
454.70	30356.75
454.89	30728.89
455.07	30768.68
455.26	31482.55
455.44	32772.18
455.62	33387.74
455.81	33050.70
455.99	33167.73
456.17	32531.11
456.36	32652.81
456.54	33497.75
456.73	33701.37
456.91	34333.32
457.09	34321.62
457.28	34700.78
457.46	33766.91
457.64	33287.10
457.83	32278.33
458.01	31559.78
458.19	32374.29
458.38	32687.92
458.56	33509.45
458.74	33090.49
458.93	32875.16
459.11	32547.49
459.29	32053.64
459.48	32926.66
459.66	32713.67
459.84	32795.59
460.03	33118.58
460.21	33605.41
460.39	34244.38
460.57	34085.22
460.76	34462.05
460.94	34827.17
461.12	34115.65
461.31	34394.17
461.49	34115.65
461.67	34059.48
461.85	34897.39
462.04	34857.60
462.22	35718.92
462.40	35297.62
462.59	34754.61
462.77	34810.79
462.95	34836.53
463.13	34525.24
463.32	34197.57
463.50	33577.33
463.68	34284.17
463.86	33977.56
464.05	33727.12
464.23	33109.22
464.41	32566.21
464.59	32306.41
464.78	33741.16
464.96	33567.96
465.14	33441.57
465.32	34235.02
465.50	35164.21
465.69	34803.77
465.87	34548.65
466.05	33415.83
466.23	31915.54
466.41	31866.39
466.60	32393.01
466.78	32577.92
466.96	33146.67
467.14	33905.00
467.32	33708.40
467.51	34160.12
467.69	31974.06
467.87	32870.48
468.05	33839.47
468.23	33890.96
468.41	34029.05
468.60	33986.92
468.78	33853.51
468.96	33806.70
469.14	34347.36
469.32	34436.30
469.50	32732.39
469.69	33397.10
469.87	33024.96
470.05	32395.35
470.23	32638.77
470.41	33057.73
470.59	33687.33
470.77	33551.58
470.95	33947.13
471.14	34244.38
471.32	34239.70
471.50	36472.57
471.68	36437.46
471.86	36613.00
472.04	37095.15
472.22	37127.92
472.40	35213.36
472.58	35079.95
472.77	34698.44
472.95	35281.24
473.13	36030.21
473.31	35086.97
473.49	35658.06
473.67	36172.98
473.85	36175.32
474.03	37146.64
474.21	37111.53
474.39	37741.14
474.57	38019.66
474.75	37916.68
474.93	37432.19
475.12	36723.01
475.30	36678.54
475.48	36683.22
475.66	37581.98
475.84	37404.10
476.02	36414.05
476.20	36364.90
476.38	36664.49
476.56	37724.75
476.74	38312.23
476.92	38712.46
477.10	39688.46
477.28	40353.18
477.46	39917.84
477.64	40680.85
477.82	41146.62
478.00	41242.58
478.18	40233.81
478.36	40247.85
478.54	40201.04
478.72	40238.49
478.90	40893.84
479.08	42541.58
479.26	42923.08
479.44	42997.98
479.62	42756.91
479.80	42206.88
479.98	42883.30
480.16	43026.07
480.34	42305.18
480.52	43112.67
480.70	43253.10
480.88	43206.29
481.06	44105.06
481.24	44189.31
481.41	45076.38
481.59	45783.22
481.77	45457.88
481.95	44839.98
482.13	44772.11
482.31	44687.85
482.49	45539.80
482.67	45205.11
482.85	45921.31
483.03	46024.29
483.21	46749.86
483.39	46593.04
483.57	45633.42
483.74	45745.77
483.92	45600.66
484.10	45605.34
484.28	46789.65
484.46	47246.05
484.64	47604.16
484.82	46717.09
485.00	46387.08
485.18	45464.91
485.35	44236.12
485.53	41174.70
485.71	37502.40
485.89	37043.66
486.07	38607.14
486.25	42131.98
486.43	44435.07
486.61	45261.28
486.78	45085.74
486.96	45687.26
487.14	47054.13
487.32	47683.73
487.50	48790.81
487.68	49911.92
487.85	50267.69
488.03	50319.18
488.21	49883.84
488.39	49036.56
488.57	48563.78
488.75	48114.39
488.92	49015.50
489.10	51674.35
489.28	53078.67
489.46	53450.81
489.64	53085.69
489.81	53378.26
489.99	52774.40
490.17	53111.44
490.35	53612.31
490.53	53010.79
490.70	52790.78
490.88	52458.43
491.06	53361.87
491.24	53783.17
491.41	52465.45
491.59	50815.37
491.77	50017.25
491.95	51255.39
492.13	52453.75
492.30	53577.20
492.48	54321.49
492.66	54941.74
492.84	54894.92
493.01	54529.80
493.19	54085.10
493.37	53769.13
493.54	53647.42
493.72	54087.44
493.90	55274.09
494.08	55917.74
494.25	56011.36
494.43	56287.54
494.61	56741.61
494.79	56727.56
494.96	56542.66
495.14	55859.23
495.32	55175.79
495.49	54344.90
495.67	55423.89
495.85	56804.80
496.02	57205.03
496.20	56942.89
496.38	56678.41
496.55	56458.40
496.73	56683.09
496.91	57134.82
497.09	57359.51
497.26	57886.13
497.44	57137.16
497.62	56451.38
497.79	56013.70
497.97	54637.47
498.14	54726.41
498.32	55791.35
498.50	56781.40
498.67	57443.77
498.85	57064.60
499.03	57380.57
499.20	57577.18
499.38	57755.06
499.56	57270.57
499.73	56945.23
499.91	56507.55
500.08	56102.64
500.26	55522.19
500.44	55870.93
500.61	56580.11
500.79	56519.26
500.97	56006.68
501.14	55686.03
501.32	55739.86
501.49	55564.32
501.67	56009.02
501.84	56385.85
502.02	56755.65
502.20	57144.18
502.37	57141.84
502.55	57359.51
502.72	57631.01
502.90	58094.44
503.07	57687.18
503.25	57623.99
503.43	56886.72
503.60	56271.16
503.78	55400.48
503.95	55695.39
504.13	57378.23
504.30	58092.10
504.48	57921.24
504.65	57626.33
504.83	57439.09
505.01	58183.38
505.18	58314.45
505.36	59021.29
505.53	58920.65
505.71	59138.32
505.88	59344.28
506.06	58712.34
506.23	58288.70
506.41	57914.22
506.58	58162.31
506.76	58164.65
506.93	58234.87
507.11	58066.35
507.28	57923.58
507.46	57623.99
507.63	57092.69
507.81	56985.02
507.98	57181.63
508.16	57635.69
508.33	58333.17
508.50	58766.17
508.68	59089.16
508.85	59208.53
509.03	59224.92
509.20	59409.82
509.38	58344.87
509.55	57741.02
509.73	58026.56
509.90	58169.33
510.08	58588.29
510.25	58436.16
510.42	58333.17
510.60	58326.15
510.77	58595.31
510.95	59058.74
511.12	59121.93
511.30	59442.59
511.47	59618.13
511.64	59686.00
511.82	59351.30
511.99	58515.73
512.17	58085.07
512.34	57839.32
512.51	58042.95
512.69	58174.02
512.86	58316.79
513.04	58670.21
513.21	58574.25
513.38	58354.24
513.56	57682.50
513.73	57289.29
513.90	57528.03
514.08	57490.58
514.25	57659.10
514.43	58122.52
514.60	58237.21
514.77	58307.43
514.95	58391.68
515.12	58504.03
515.29	58361.26
515.47	58831.71
515.64	59065.76
515.81	58614.04
515.99	58169.33
516.16	56767.35
516.33	54763.85
516.51	53116.12
516.68	52149.48
516.85	51550.30
517.03	52289.91
517.20	54962.80
517.37	57293.97
517.54	58382.32
517.72	57855.70
517.89	55533.89
518.06	52821.21
518.24	53169.95
518.41	55370.05
518.58	57022.47
518.75	56938.21
518.93	57265.89
519.10	57029.49
519.27	57513.98
519.45	57722.29
519.62	58473.60
519.79	59082.14
519.96	58684.25
520.14	58246.57
520.31	57389.94
520.48	57319.72
520.65	57631.01
520.83	58546.16
521.00	59018.95
521.17	58674.89
521.34	58159.97
521.52	58408.07
521.69	59135.98
521.86	59524.50
522.03	59152.36
522.20	58019.54
522.38	57006.09
522.55	56884.38
522.72	57612.29
522.89	57944.64
523.07	58010.18
523.24	58255.93
523.41	58822.34
523.58	59428.54
523.75	59765.58
523.92	59484.72
524.10	59625.15
524.27	59730.47
524.44	59262.36
524.61	59164.06
524.78	58960.44
524.96	58951.07
525.13	58990.86
525.30	59274.07
525.47	59709.41
525.64	59468.33
525.81	58859.79
525.98	57144.18
526.16	55814.76
526.33	55140.68
526.50	54988.55
526.67	54693.64
526.84	55323.24
527.01	56189.24
527.18	57235.46
527.36	58120.18
527.53	58546.16
527.70	59119.59
527.87	58721.70
528.04	58019.54
528.21	58578.93
528.38	59238.96
528.55	59702.38
528.72	59742.17
528.89	60107.30
529.07	60100.28
529.24	59245.98
529.41	58632.76
529.58	58232.53
529.75	58157.63
529.92	58630.42
530.09	59107.89
530.26	59423.86
530.43	59767.92
530.60	59728.13
530.77	60023.04
530.94	59889.63
531.11	59583.02
531.28	59311.52
531.46	59112.57
531.63	59313.86
531.80	59107.89
531.97	58611.70
532.14	57972.73
532.31	57069.28
532.48	56039.45
532.65	56278.18
532.82	57228.44
532.99	58274.66
533.16	58599.99
533.33	59128.95
533.50	58965.12
533.67	58548.50
533.84	57752.72
534.01	58323.81
534.18	58351.90
534.35	58705.32
534.52	58305.09
534.69	58649.14
534.86	59035.33
535.03	59070.44
535.20	59465.99
535.37	59845.16
535.54	59978.57
535.71	59756.22
535.88	59084.48
536.05	58597.65
536.22	58454.88
536.38	58106.14
536.55	57535.05
536.72	57057.58
536.89	56968.64
537.06	57893.15
537.23	58592.97
537.40	58583.61
537.57	58784.90
537.74	58492.33
537.91	58628.08
538.08	58529.78
538.25	58700.64
538.42	58660.85
538.59	58536.80
538.75	57893.15
538.92	57846.34
539.09	57668.46
539.26	57467.17
539.43	57249.50
539.60	57312.70
539.77	57511.64
539.94	57256.53
540.11	56596.49
540.28	56102.64
540.44	56294.56
540.61	56296.91
540.78	56701.82
540.95	56966.30
541.12	57364.19
541.29	57682.50
541.46	57977.41
541.62	58295.72
541.79	58061.67
541.96	57366.53
542.13	57057.58
542.30	57469.51
542.47	57687.18
542.63	57659.10
542.80	57158.22
542.97	57411.00
543.14	57303.34
543.31	57221.42
543.48	57797.19
543.64	58597.65
543.81	58838.73
543.98	58707.66
544.15	57921.24
544.32	57371.21
544.48	57504.62
544.65	57925.92
544.82	58188.06
544.99	57972.73
545.16	57600.58
545.32	57092.69
545.49	58241.89
545.66	58344.87
545.83	58188.06
546.00	57757.40
546.16	57560.79
546.33	57420.36
546.50	57469.51
546.67	57867.40
546.83	57460.15
547.00	57633.35
547.17	56825.87
547.34	56435.00
547.50	56444.36
547.67	57031.83
547.84	56692.46
548.00	57062.26
548.17	57668.46
548.34	57570.16
548.51	57354.83
548.67	57364.19
548.84	57572.50
549.01	57556.11
549.18	57415.68
549.34	57453.13
549.51	57389.94
549.68	57214.40
549.84	57059.92
550.01	56893.74
550.18	56769.69
550.34	56954.60
550.51	56781.40
550.68	57279.93
550.84	56561.39
551.01	56678.41
551.18	56610.54
551.34	56868.00
551.51	57254.18
551.68	57572.50
551.84	57556.11
552.01	57275.25
552.18	57127.80
552.34	56289.88
552.51	56133.07
552.68	56058.17
552.84	56247.75
553.01	56748.63
553.18	56456.06
553.34	56839.91
553.51	56725.22
553.67	56954.60
553.84	57008.43
554.01	56996.73
554.17	56889.06
554.34	56879.70
554.51	57111.41
554.67	57104.39
554.84	57092.69
555.00	56896.08
555.17	56683.09
555.33	56530.96
555.50	56666.71
555.67	56748.63
555.83	56350.74
556.00	56196.26
556.16	56025.40
556.33	55601.77
556.50	55585.38
556.66	55655.60
556.83	55168.77
556.99	55510.49
557.16	55777.31
557.32	55856.88
557.49	56147.11
557.65	56133.07
557.82	56039.45
557.98	56048.81
558.15	55325.58
558.32	54335.54
558.48	53755.08
558.65	53815.94
558.81	54415.11
558.98	54333.20
559.14	54752.15
559.31	54871.52
559.47	54986.21
559.64	54674.91
559.80	54260.64
559.97	54337.88
560.13	54571.93
560.30	55564.32
560.46	56112.00
560.63	56395.21
560.79	56662.03
560.96	55901.36
561.12	54873.86
561.29	53937.65
561.45	54017.22
561.61	54759.17
561.78	54944.08
561.94	54878.54
562.11	54553.21
562.27	54813.01
562.44	54911.31
562.60	55217.92
562.77	55646.24
562.93	55365.37
563.10	55110.25
563.26	54644.49
563.42	54585.97
563.59	54354.26
563.75	54443.20
563.92	54637.47
564.08	54665.55
564.24	54918.33
564.41	54829.39
564.57	54557.89
564.74	54501.71
564.90	54492.35
565.07	54358.94
565.23	53855.73
565.39	53221.44
565.56	52921.85
565.72	52868.02
565.88	53333.79
566.05	53329.11
566.21	53563.16
566.38	53560.82
566.54	53815.94
566.70	54157.66
566.87	54518.10
567.03	54429.16
567.19	54653.85
567.36	54321.49
567.52	54131.91
567.68	54021.90
567.85	53057.60
568.01	52762.70
568.17	52252.46
568.34	52449.06
568.50	52322.68
568.66	52308.63
568.83	53064.63
568.99	53179.31
569.15	53294.00
569.32	53347.83
569.48	53382.94
569.64	52645.67
569.81	52662.05
569.97	52266.50
570.13	52371.83
570.30	51786.69
570.46	51173.47
570.62	50862.18
570.78	50408.12
570.95	50810.69
571.11	51938.83
571.27	51725.84
571.43	52292.25
571.60	52423.32
571.76	52956.96
571.92	52870.36
572.09	53034.20
572.25	53083.35
572.41	52809.51
572.57	52985.05
572.74	52942.92
572.90	52102.67
573.06	52488.85
573.22	52690.14
573.38	52575.45
573.55	52282.89
573.71	52591.84
573.87	52718.23
574.03	52320.34
574.20	52219.69
574.36	52121.39
574.52	51758.61
574.68	51564.34
574.84	51587.75
575.01	50796.65
575.17	50639.83
575.33	50684.30
575.49	51112.62
575.65	51496.47
575.82	50817.71
575.98	50780.26
576.14	50834.10
576.30	51482.42
576.46	51695.41
576.62	51489.45
576.79	51323.27
576.95	50958.14
577.11	50923.04
577.27	51063.47
577.43	51168.79
577.59	50511.10
577.75	50377.69
577.92	49642.76
578.08	49050.61
578.24	49832.35
578.40	49867.45
578.56	50061.72
578.72	50216.19
578.88	50213.85
579.04	50747.50
579.21	50628.13
579.37	50616.43
579.53	50691.32
579.69	50534.51
579.85	50731.11
580.01	50766.22
580.17	50050.02
580.33	50003.20
580.49	50014.91
580.65	50171.72
580.82	50857.50
580.98	50644.51
581.14	50588.34
581.30	50754.52
581.46	50347.26
581.62	50630.47
581.78	50515.78
581.94	50944.10
582.10	50777.92
582.26	50890.27
582.42	50457.27
582.58	50775.58
582.74	50717.07
582.90	50686.64
583.06	50665.58
583.22	50267.69
583.38	50380.03
583.54	50305.13
583.70	50230.24
583.86	50515.78
584.02	50267.69
584.18	50408.12
584.34	50127.25
584.50	50181.09
584.66	49633.40
584.82	49434.45
584.98	49687.23
585.14	48935.92
585.30	48329.72
