SpectraSuite Data File
++++++++++++++++++++++++++++++++++++
Date: Mon Oct 07 14:53:11 GMT-05:00 2013
User: price-jones
Dark Spectrum Present: No
Reference Spectrum Present: No
Number of Sampled Component Spectra: 1
Spectrometers: USB2+H05261
Integration Time (usec): 100000 (USB2+H05261)
Spectra Averaged: 1 (USB2+H05261)
Boxcar Smoothing: 0 (USB2+H05261)
Correct for Electrical Dark: No (USB2+H05261)
Strobe/Lamp Enabled: No (USB2+H05261)
Correct for Detector Non-linearity: No (USB2+H05261)
Correct for Stray Light: No (USB2+H05261)
Number of Pixels in Processed Spectrum: 2048
>>>>>Begin Processed Spectral Data<<<<<
365.73	0.00
365.92	0.00
366.12	0.00
366.32	0.00
366.52	0.00
366.72	0.00
366.91	0.00
367.11	0.00
367.31	0.00
367.51	0.00
367.70	0.00
367.90	0.00
368.10	0.00
368.30	0.00
368.49	0.00
368.69	0.00
368.89	0.00
369.09	0.00
369.28	0.00
369.48	0.00
369.68	0.00
369.87	0.00
370.07	0.00
370.27	0.00
370.47	1062.60
370.66	5004.07
370.86	5668.78
371.06	6193.06
371.25	5991.77
371.45	5575.16
371.65	4931.51
371.84	4660.01
372.04	5043.85
372.24	5612.60
372.44	5771.76
372.63	5659.42
372.83	5231.10
373.03	4571.07
373.22	4400.21
373.42	4578.09
373.62	5205.35
373.81	5589.20
374.01	5680.48
374.21	5064.92
374.40	4648.30
374.60	4985.34
374.79	5720.27
374.99	6539.46
375.19	6937.35
375.38	6707.98
375.58	6497.33
375.78	6335.83
375.97	6368.60
376.17	6705.63
376.37	6787.55
376.56	6960.75
376.76	7321.20
376.95	7756.54
377.15	8273.79
377.35	8489.12
377.54	8786.37
377.74	9210.01
377.93	9034.47
378.13	8704.45
378.33	8344.01
378.52	7810.37
378.72	7501.42
378.91	7311.83
379.11	7014.59
379.31	6913.94
379.50	6920.96
379.70	7552.91
379.89	8283.16
380.09	8669.34
380.28	8982.98
380.48	8957.23
380.68	8617.85
380.87	8674.03
381.07	7714.41
381.26	7234.60
381.46	6656.48
381.65	6630.74
381.85	6525.41
382.04	6108.80
382.24	5624.31
382.43	5437.06
382.63	5270.89
382.83	5371.53
383.02	5345.78
383.22	5507.28
383.41	5420.68
383.61	5729.63
383.80	6696.27
384.00	7513.12
384.19	8362.73
384.39	8828.50
384.58	8538.27
384.78	8456.36
384.97	8594.45
385.17	7948.46
385.36	7562.27
385.56	7176.08
385.75	7566.95
385.95	8531.25
386.14	8926.80
386.34	8905.74
386.53	8510.19
386.72	7929.74
386.92	8224.64
387.11	8564.02
387.31	8730.20
387.50	8861.27
387.70	8365.07
387.89	8486.78
388.09	8549.98
388.28	8482.10
388.48	8744.24
388.67	9289.59
388.86	10197.71
389.06	10927.96
389.25	11517.78
389.45	11529.48
389.64	11529.48
389.84	11297.77
390.03	11124.57
390.22	11257.98
390.42	11728.42
390.61	12390.80
390.81	13488.51
391.00	13451.06
391.19	13046.15
391.39	12760.60
391.58	12006.95
391.78	11321.17
391.97	10939.66
392.16	10260.91
392.36	9179.58
392.55	7272.04
392.75	5956.66
392.94	4826.18
393.13	4929.17
393.33	5898.15
393.52	7522.48
393.71	9104.68
393.91	10228.14
394.10	11159.67
394.29	12065.46
394.49	13193.60
394.68	14134.50
394.88	14286.63
395.07	14656.43
395.26	14225.78
395.46	13657.03
395.65	12980.61
395.84	11061.37
396.04	9666.41
396.23	7791.64
396.42	6497.33
396.62	6408.39
396.81	7765.90
397.00	9605.56
397.19	12126.32
397.39	14249.18
397.58	16137.99
397.77	16926.75
397.97	17455.72
398.16	17549.34
398.35	18501.93
398.55	18890.46
398.74	19522.41
398.93	20238.61
399.12	19545.81
399.32	18670.45
399.51	19337.51
399.70	20372.02
399.90	20154.35
400.09	20170.74
400.28	19871.15
400.47	20463.30
400.67	21195.89
400.86	21984.65
401.05	21872.31
401.24	21837.20
401.44	22188.28
401.63	22197.64
401.82	22305.31
402.01	22342.75
402.21	22408.29
402.40	23122.15
402.59	22038.48
402.78	21102.27
402.97	20582.67
403.17	21310.58
403.36	22471.48
403.55	23480.25
403.74	24049.00
403.93	22122.74
404.13	21273.13
404.32	20842.47
404.51	21640.59
404.70	23346.84
404.89	22984.06
405.09	22581.49
405.28	22228.07
405.47	22331.05
405.66	21972.95
405.85	21635.91
406.05	20798.00
406.24	21497.82
406.43	22094.66
406.62	23077.68
406.81	23414.72
407.00	22008.06
407.20	21549.31
407.39	22155.51
407.58	23119.81
407.77	23655.79
407.96	24964.15
408.15	24680.95
408.34	24797.98
408.54	26272.51
408.73	26223.36
408.92	25603.12
409.11	24753.51
409.30	23620.69
409.49	22345.09
409.68	20776.94
409.87	20390.75
410.07	21766.98
410.26	23697.92
410.45	25029.69
410.64	25642.91
410.83	26101.65
411.02	27117.45
411.21	27803.22
411.40	26897.44
411.59	27138.51
411.78	27096.38
411.98	27126.81
412.17	27520.02
412.36	26841.26
412.55	26796.79
412.74	26441.03
412.93	25769.30
413.12	26462.10
413.31	28554.54
413.50	28720.71
413.69	29113.92
413.88	28306.44
414.07	26920.84
414.26	28299.42
414.45	28840.08
414.64	29081.16
414.83	29331.59
415.02	28393.04
415.22	28608.37
415.41	29116.26
415.60	29759.91
415.79	31255.51
415.98	31412.33
416.17	31564.46
416.36	30911.46
416.55	30576.76
416.74	29546.92
416.93	28498.36
417.12	28425.81
417.31	28833.06
417.50	29516.50
417.69	30356.75
417.88	30412.92
418.07	30010.35
418.26	29415.85
418.45	29436.92
418.64	31072.95
418.83	32322.80
419.02	31543.40
419.21	31307.01
419.39	29256.70
419.58	28283.03
419.77	28994.56
419.96	30338.02
420.15	31817.24
420.34	32217.47
420.53	33343.27
420.72	33879.25
420.91	33750.52
421.10	33177.09
421.29	32994.53
421.48	32037.25
421.67	33343.27
421.86	32395.35
422.05	29603.10
422.24	27103.40
422.43	27283.62
422.61	30129.72
422.80	32238.54
422.99	32404.72
423.18	31220.41
423.37	30960.61
423.56	30452.71
423.75	31578.51
423.94	32119.17
424.13	30293.55
424.32	30192.91
424.50	30590.80
424.69	30340.36
424.88	30232.70
425.07	30113.33
425.26	30085.25
425.45	29895.66
425.64	29523.52
425.83	29357.34
426.01	31178.28
426.20	31835.97
426.39	31548.08
426.58	29209.89
426.77	27033.19
426.96	25984.63
427.15	27267.24
427.33	29525.86
427.52	30562.72
427.71	30321.64
427.90	30347.39
428.09	29621.82
428.28	29432.24
428.46	28245.58
428.65	27786.84
428.84	28919.66
429.03	28882.21
429.22	27524.70
429.40	25661.63
429.59	23374.93
429.78	20973.54
429.97	21481.44
430.16	21383.13
430.34	21682.72
430.53	21326.96
430.72	22403.61
430.91	24713.72
431.10	28879.87
431.28	33820.74
431.47	35969.35
431.66	36257.24
431.85	33053.05
432.03	30345.05
432.22	29488.41
432.41	30714.85
432.60	33993.94
432.79	35077.61
432.97	35821.90
433.16	34932.50
433.35	32023.21
433.54	28870.51
433.72	27662.79
433.91	28273.67
434.10	31529.36
434.28	33797.34
434.47	35260.17
434.66	34747.59
434.85	33799.68
435.03	34089.90
435.22	34375.45
435.41	36605.98
435.59	36046.59
435.78	36957.06
435.97	38068.81
436.16	37872.21
436.34	37446.23
436.53	36641.09
436.72	36950.04
436.90	35042.50
437.09	34651.63
437.28	34132.03
437.46	35592.53
437.65	35061.22
437.84	32676.22
438.02	30244.40
438.21	30689.10
438.40	32105.13
438.58	34871.64
438.77	35651.04
438.96	35735.30
439.14	37254.31
439.33	38298.19
439.52	38515.86
439.70	37694.33
439.89	36498.31
440.08	35534.01
440.26	36648.11
440.45	37399.42
440.63	39564.42
440.82	40825.96
441.01	40851.71
441.19	40474.88
441.38	41085.76
441.57	42642.22
441.75	42934.79
441.94	43257.78
442.12	43168.84
442.31	43604.18
442.50	43482.47
442.68	43435.66
442.87	42408.17
443.05	42295.82
443.24	42979.26
443.43	43571.41
443.61	44311.02
443.80	44699.55
443.98	42377.74
444.17	42454.98
444.35	44751.04
444.54	45310.43
444.73	44818.92
444.91	42618.81
445.10	41326.84
445.28	40006.78
445.47	39185.25
445.65	39625.27
445.84	40505.31
446.02	41659.20
446.21	43000.32
446.39	42717.12
446.58	43735.25
446.77	43798.44
446.95	44332.09
447.14	45294.05
447.32	45680.24
447.51	44835.30
447.69	42883.30
447.88	42904.36
448.06	43494.18
448.25	44823.60
448.43	45062.33
448.62	43604.18
448.80	43470.77
448.99	44079.31
449.17	44701.89
449.36	44336.77
449.54	45832.37
449.73	46438.57
449.91	46777.95
450.10	48254.82
450.28	48533.35
450.46	48208.01
450.65	48168.22
450.83	47803.10
451.02	47222.65
451.20	46618.79
451.39	47117.32
451.57	46787.31
451.76	46672.62
451.94	46075.79
452.13	45254.26
452.31	43452.05
452.49	42251.35
452.68	41989.21
452.86	43002.66
453.05	43047.13
453.23	44622.31
453.42	45041.27
453.60	46171.75
453.78	46522.83
453.97	45633.42
454.15	46628.15
454.34	45102.12
454.52	45794.92
454.70	44615.29
454.89	44954.67
455.07	45617.04
455.26	45691.94
455.44	47576.07
455.62	48208.01
455.81	48236.10
455.99	47978.64
456.17	47435.64
456.36	47580.75
456.54	48774.42
456.73	48598.88
456.91	49265.94
457.09	49631.06
457.28	50052.36
457.46	47901.40
457.64	47988.00
457.83	47049.45
458.01	46234.94
458.19	47697.78
458.38	47491.81
458.56	48706.55
458.74	48552.07
458.93	47854.59
459.11	47969.28
459.29	47407.55
459.48	47964.60
459.66	47283.50
459.84	47842.89
460.03	48538.03
460.21	48229.08
460.39	49549.14
460.57	49308.07
460.76	49801.92
460.94	49530.42
461.12	49338.49
461.31	49626.38
461.49	49446.16
461.67	49677.87
461.85	50508.76
462.04	49820.64
462.22	50525.14
462.40	50197.47
462.59	49916.61
462.77	50539.19
462.95	50356.63
463.13	49701.28
463.32	49401.69
463.50	49415.73
463.68	49191.04
463.86	49464.88
464.05	48854.00
464.23	48409.30
464.41	48154.18
464.59	47248.39
464.78	49495.31
464.96	49062.31
465.14	48186.95
465.32	49483.61
465.50	50656.21
465.69	50724.09
465.87	50106.19
466.05	48973.37
466.23	47435.64
466.41	46319.20
466.60	47718.84
466.78	47611.18
466.96	48451.43
467.14	49230.83
467.32	49031.88
467.51	49490.63
467.69	47517.56
467.87	48369.51
468.05	48788.47
468.23	49146.57
468.41	48870.39
468.60	49066.99
468.78	49549.14
468.96	48774.42
469.14	49904.90
469.32	49797.24
469.50	47936.51
469.69	48708.89
469.87	47690.76
470.05	47700.12
470.23	48224.40
470.41	48051.20
470.59	48673.78
470.77	48603.56
470.95	49574.89
471.14	50183.43
471.32	49928.31
471.50	51664.99
471.68	52055.85
471.86	52009.04
472.04	52315.65
472.22	52594.18
472.40	50646.85
472.58	50265.34
472.77	49993.84
472.95	50803.67
473.13	51936.49
473.31	50993.25
473.49	51082.19
473.67	51760.95
473.85	51962.23
474.03	52699.50
474.21	52758.02
474.39	53141.86
474.57	53240.17
474.75	53329.11
474.93	52889.09
475.12	52189.27
475.30	52186.92
475.48	52416.30
475.66	52680.78
475.84	52301.61
476.02	52165.86
476.20	51524.55
476.38	52217.35
476.56	53223.78
476.74	53893.18
476.92	53565.50
477.10	54298.09
477.28	55093.87
477.46	55011.95
477.64	55145.36
477.82	55554.96
478.00	55468.36
478.18	55047.06
478.36	55131.32
478.54	54927.69
478.72	55096.21
478.90	56119.02
479.08	56619.90
479.26	56956.94
479.44	57059.92
479.62	56486.49
479.80	56886.72
479.98	56879.70
480.16	57130.14
480.34	56509.89
480.52	57022.47
480.70	57303.34
480.88	57080.98
481.06	57766.76
481.24	57815.91
481.41	58356.58
481.59	58904.26
481.77	58693.61
481.95	58192.74
482.13	58218.49
482.31	58319.13
482.49	58695.95
482.67	58798.94
482.85	58775.53
483.03	59306.83
483.21	59618.13
483.39	59360.67
483.57	58630.42
483.74	58782.55
483.92	58848.09
484.10	58953.41
484.28	59573.66
484.46	60004.31
484.64	60327.31
484.82	59515.14
485.00	59091.51
485.18	58733.40
485.35	57923.58
485.53	55470.70
485.71	53057.60
485.89	53038.88
486.07	54714.70
486.25	57020.13
486.43	58321.47
486.61	58478.28
486.78	58665.53
486.96	58761.49
487.14	59875.58
487.32	60441.99
487.50	61111.39
487.68	61502.26
487.85	61949.30
488.03	61918.87
488.21	61666.09
488.39	61085.64
488.57	60685.41
488.75	60680.73
488.92	61291.61
489.10	62983.82
489.28	63678.96
489.46	64224.30
489.64	63917.69
489.81	64055.78
489.99	63800.66
490.17	64060.46
490.35	64306.22
490.53	63824.07
490.70	63639.17
490.88	63664.91
491.06	64327.28
491.24	64364.73
491.41	63306.81
491.59	62267.61
491.77	61883.76
491.95	62808.28
492.13	63398.09
492.30	64238.34
492.48	65020.08
492.66	65467.12
492.84	65183.92
493.01	65214.35
493.19	64640.92
493.37	64652.62
493.54	64413.88
493.72	64961.57
493.90	65535.00
494.08	65535.00
494.25	65535.00
494.43	65535.00
494.61	65535.00
494.79	65535.00
494.96	65535.00
495.14	65535.00
495.32	65535.00
495.49	65176.90
495.67	65535.00
495.85	65535.00
496.02	65535.00
496.20	65535.00
496.38	65535.00
496.55	65535.00
496.73	65535.00
496.91	65535.00
497.09	65535.00
497.26	65535.00
497.44	65535.00
497.62	65535.00
497.79	65535.00
497.97	65535.00
498.14	65535.00
498.32	65535.00
498.50	65535.00
498.67	65535.00
498.85	65535.00
499.03	65535.00
499.20	65535.00
499.38	65535.00
499.56	65535.00
499.73	65535.00
499.91	65535.00
500.08	65535.00
500.26	65535.00
500.44	65535.00
500.61	65535.00
500.79	65535.00
500.97	65535.00
501.14	65535.00
501.32	65535.00
501.49	65535.00
501.67	65535.00
501.84	65535.00
502.02	65535.00
502.20	65535.00
502.37	65535.00
502.55	65535.00
502.72	65535.00
502.90	65535.00
503.07	65535.00
503.25	65535.00
503.43	65535.00
503.60	65535.00
503.78	65535.00
503.95	65535.00
504.13	65535.00
504.30	65535.00
504.48	65535.00
504.65	65535.00
504.83	65535.00
505.01	65535.00
505.18	65535.00
505.36	65535.00
505.53	65535.00
505.71	65535.00
505.88	65535.00
506.06	65535.00
506.23	65535.00
506.41	65535.00
506.58	65535.00
506.76	65535.00
506.93	65535.00
507.11	65535.00
507.28	65535.00
507.46	65535.00
507.63	65535.00
507.81	65535.00
507.98	65535.00
508.16	65535.00
508.33	65535.00
508.50	65535.00
508.68	65535.00
508.85	65535.00
509.03	65535.00
509.20	65535.00
509.38	65535.00
509.55	65535.00
509.73	65535.00
509.90	65535.00
510.08	65535.00
510.25	65535.00
510.42	65535.00
510.60	65535.00
510.77	65535.00
510.95	65535.00
511.12	65535.00
511.30	65535.00
511.47	65535.00
511.64	65535.00
511.82	65535.00
511.99	65535.00
512.17	65535.00
512.34	65535.00
512.51	65535.00
512.69	65535.00
512.86	65535.00
513.04	65535.00
513.21	65535.00
513.38	65535.00
513.56	65535.00
513.73	65535.00
513.90	65535.00
514.08	65535.00
514.25	65535.00
514.43	65535.00
514.60	65535.00
514.77	65535.00
514.95	65535.00
515.12	65535.00
515.29	65535.00
515.47	65535.00
515.64	65535.00
515.81	65535.00
515.99	65535.00
516.16	65535.00
516.33	65535.00
516.51	65324.35
516.68	63749.17
516.85	63412.13
517.03	63959.82
517.20	65535.00
517.37	65535.00
517.54	65535.00
517.72	65535.00
517.89	65535.00
518.06	65535.00
518.24	64940.50
518.41	65535.00
518.58	65535.00
518.75	65535.00
518.93	65535.00
519.10	65535.00
519.27	65535.00
519.45	65535.00
519.62	65535.00
519.79	65535.00
519.96	65535.00
520.14	65535.00
520.31	65535.00
520.48	65535.00
520.65	65535.00
520.83	65535.00
521.00	65535.00
521.17	65535.00
521.34	65535.00
521.52	65535.00
521.69	65535.00
521.86	65535.00
522.03	65535.00
522.20	65535.00
522.38	65535.00
522.55	65535.00
522.72	65535.00
522.89	65535.00
523.07	65535.00
523.24	65535.00
523.41	65535.00
523.58	65535.00
523.75	65535.00
523.92	65535.00
524.10	65535.00
524.27	65535.00
524.44	65535.00
524.61	65535.00
524.78	65535.00
524.96	65535.00
525.13	65535.00
525.30	65535.00
525.47	65535.00
525.64	65535.00
525.81	65535.00
525.98	65535.00
526.16	65535.00
526.33	65535.00
526.50	65535.00
526.67	65535.00
526.84	65535.00
527.01	65535.00
527.18	65535.00
527.36	65535.00
527.53	65535.00
527.70	65535.00
527.87	65535.00
528.04	65535.00
528.21	65535.00
528.38	65535.00
528.55	65535.00
528.72	65535.00
528.89	65535.00
529.07	65535.00
529.24	65535.00
529.41	65535.00
529.58	65535.00
529.75	65535.00
529.92	65535.00
530.09	65535.00
530.26	65535.00
530.43	65535.00
530.60	65535.00
530.77	65535.00
530.94	65535.00
531.11	65535.00
531.28	65535.00
531.46	65535.00
531.63	65535.00
531.80	65535.00
531.97	65535.00
532.14	65535.00
532.31	65535.00
532.48	65535.00
532.65	65535.00
532.82	65535.00
532.99	65535.00
533.16	65535.00
533.33	65535.00
533.50	65535.00
533.67	65535.00
533.84	65535.00
534.01	65535.00
534.18	65535.00
534.35	65535.00
534.52	65535.00
534.69	65535.00
534.86	65535.00
535.03	65535.00
535.20	65535.00
535.37	65535.00
535.54	65535.00
535.71	65535.00
535.88	65535.00
536.05	65535.00
536.22	65535.00
536.38	65535.00
536.55	65535.00
536.72	65535.00
536.89	65535.00
537.06	65535.00
537.23	65535.00
537.40	65535.00
537.57	65535.00
537.74	65535.00
537.91	65535.00
538.08	65535.00
538.25	65535.00
538.42	65535.00
538.59	65535.00
538.75	65535.00
538.92	65535.00
539.09	65535.00
539.26	65535.00
539.43	65535.00
539.60	65535.00
539.77	65535.00
539.94	65535.00
540.11	65535.00
540.28	65535.00
540.44	65535.00
540.61	65535.00
540.78	65535.00
540.95	65535.00
541.12	65535.00
541.29	65535.00
541.46	65535.00
541.62	65535.00
541.79	65535.00
541.96	65535.00
542.13	65535.00
542.30	65535.00
542.47	65535.00
542.63	65535.00
542.80	65535.00
542.97	65535.00
543.14	65535.00
543.31	65535.00
543.48	65535.00
543.64	65535.00
543.81	65535.00
543.98	65535.00
544.15	65535.00
544.32	65535.00
544.48	65535.00
544.65	65535.00
544.82	65535.00
544.99	65535.00
545.16	65535.00
545.32	65535.00
545.49	65535.00
545.66	65535.00
545.83	65535.00
546.00	65535.00
546.16	65535.00
546.33	65535.00
546.50	65535.00
546.67	65535.00
546.83	65535.00
547.00	65535.00
547.17	65535.00
547.34	65535.00
547.50	65535.00
547.67	65535.00
547.84	65535.00
548.00	65535.00
548.17	65535.00
548.34	65535.00
548.51	65535.00
548.67	65535.00
548.84	65535.00
549.01	65535.00
549.18	65535.00
549.34	65535.00
549.51	65535.00
549.68	65535.00
549.84	65535.00
550.01	65535.00
550.18	65535.00
550.34	65535.00
550.51	65535.00
550.68	65535.00
550.84	65535.00
551.01	65535.00
551.18	65535.00
551.34	65535.00
551.51	65535.00
551.68	65535.00
551.84	65535.00
552.01	65535.00
552.18	65535.00
552.34	65535.00
552.51	65535.00
552.68	65535.00
552.84	65535.00
553.01	65535.00
553.18	65535.00
553.34	65535.00
553.51	65535.00
553.67	65535.00
553.84	65535.00
554.01	65535.00
554.17	65535.00
554.34	65535.00
554.51	65535.00
554.67	65535.00
554.84	65535.00
555.00	65535.00
555.17	65535.00
555.33	65535.00
555.50	65535.00
555.67	65535.00
555.83	65535.00
556.00	65535.00
556.16	65535.00
556.33	65535.00
556.50	65535.00
556.66	65535.00
556.83	65535.00
556.99	65535.00
557.16	65535.00
557.32	65535.00
557.49	65535.00
557.65	65535.00
557.82	65535.00
557.98	65535.00
558.15	65535.00
558.32	65535.00
558.48	65535.00
558.65	65535.00
558.81	65535.00
558.98	65535.00
559.14	65535.00
559.31	65535.00
559.47	65535.00
559.64	65535.00
559.80	65535.00
559.97	65535.00
560.13	65535.00
560.30	65535.00
560.46	65535.00
560.63	65535.00
560.79	65535.00
560.96	65535.00
561.12	65535.00
561.29	65535.00
561.45	65535.00
561.61	65535.00
561.78	65535.00
561.94	65535.00
562.11	65535.00
562.27	65535.00
562.44	65535.00
562.60	65535.00
562.77	65535.00
562.93	65535.00
563.10	65535.00
563.26	65535.00
563.42	65535.00
563.59	65535.00
563.75	65535.00
563.92	65535.00
564.08	65535.00
564.24	65535.00
564.41	65535.00
564.57	65535.00
564.74	65535.00
564.90	65535.00
565.07	65535.00
565.23	65535.00
565.39	65525.64
565.56	65441.38
565.72	65027.10
565.88	65532.66
566.05	65488.19
566.21	65535.00
566.38	65535.00
566.54	65535.00
566.70	65535.00
566.87	65535.00
567.03	65535.00
567.19	65535.00
567.36	65535.00
567.52	65535.00
567.68	65535.00
567.85	65535.00
568.01	65200.30
568.17	64970.93
568.34	65066.89
568.50	65027.10
568.66	64970.93
568.83	65261.16
568.99	65221.37
569.15	65495.21
569.32	65535.00
569.48	65535.00
569.64	65446.06
569.81	64954.55
569.97	64949.87
570.13	64945.18
570.30	64451.33
570.46	64053.44
570.62	63510.44
570.78	63863.86
570.95	64034.72
571.11	64533.25
571.27	64582.40
571.43	64931.14
571.60	65237.75
571.76	65326.69
571.92	65275.20
572.09	65535.00
572.25	65247.11
572.41	65385.21
572.57	65102.00
572.74	65158.17
572.90	65022.42
573.06	64865.61
573.22	65094.98
573.38	65078.60
573.55	64917.10
573.71	64919.44
573.87	65041.15
574.03	64683.04
574.20	64781.35
574.36	64753.26
574.52	64748.58
574.68	64444.31
574.84	64118.98
575.01	63618.10
575.17	63807.68
575.33	64163.45
575.49	64210.26
575.65	64369.41
575.82	64196.21
575.98	63707.04
576.14	64006.63
576.30	64390.48
576.46	64507.50
576.62	64392.82
576.79	64329.62
576.95	64182.17
577.11	64076.85
577.27	64182.17
577.43	64128.34
577.59	63700.02
577.75	63304.47
577.92	62911.26
578.08	62726.36
578.24	62681.89
578.40	63178.08
578.56	63168.72
578.72	63173.40
578.88	63501.07
579.04	63662.57
579.21	63795.98
579.37	63582.99
579.53	63753.85
579.69	63648.53
579.85	63824.07
580.01	63877.90
580.17	63379.37
580.33	63234.25
580.49	63568.95
580.65	63793.64
580.82	63859.18
580.98	63856.84
581.14	63669.59
581.30	63662.57
581.46	63529.16
581.62	63952.80
581.78	64060.46
581.94	64006.63
582.10	64128.34
582.26	63962.16
582.42	64032.38
582.58	64086.21
582.74	63959.82
582.90	64109.61
583.06	63814.71
583.22	63711.72
583.38	63828.75
583.54	63854.50
583.70	63732.79
583.86	63622.78
584.02	63449.58
584.18	63714.06
584.34	63529.16
584.50	63444.90
584.66	63463.63
584.82	63126.59
584.98	62981.48
