SpectraSuite Data File
++++++++++++++++++++++++++++++++++++
Date: Mon Oct 07 14:53:40 GMT-05:00 2013
User: price-jones
Dark Spectrum Present: No
Reference Spectrum Present: No
Number of Sampled Component Spectra: 1
Spectrometers: USB2+H05261
Integration Time (usec): 100000 (USB2+H05261)
Spectra Averaged: 1 (USB2+H05261)
Boxcar Smoothing: 0 (USB2+H05261)
Correct for Electrical Dark: No (USB2+H05261)
Strobe/Lamp Enabled: No (USB2+H05261)
Correct for Detector Non-linearity: No (USB2+H05261)
Correct for Stray Light: No (USB2+H05261)
Number of Pixels in Processed Spectrum: 2048
>>>>>Begin Processed Spectral Data<<<<<
365.73	0.00
365.92	0.00
366.12	0.00
366.32	0.00
366.52	0.00
366.72	0.00
366.91	0.00
367.11	0.00
367.31	0.00
367.51	0.00
367.70	0.00
367.90	0.00
368.10	0.00
368.30	0.00
368.49	0.00
368.69	0.00
368.89	0.00
369.09	0.00
369.28	0.00
369.48	0.00
369.68	0.00
369.87	0.00
370.07	0.00
370.27	0.00
370.47	585.13
370.66	2871.84
370.86	3375.05
371.06	3735.50
371.25	3812.73
371.45	3438.25
371.65	3068.44
371.84	2789.92
372.04	3075.46
372.24	3260.37
372.44	3517.83
372.63	3438.25
372.83	3332.92
373.03	2883.54
373.22	2644.81
373.42	2691.62
373.62	3087.17
373.81	3557.61
374.01	3468.67
374.21	2998.23
374.40	2792.26
374.60	3075.46
374.79	3421.86
374.99	3988.27
375.19	4259.78
375.38	4287.86
375.58	3934.44
375.78	4021.04
375.97	4095.94
376.17	4105.30
376.37	4152.11
376.56	4353.40
376.76	4465.74
376.95	4840.23
377.15	5305.99
377.35	5437.06
377.54	5593.88
377.74	5673.46
377.93	5746.02
378.13	5607.92
378.33	5273.23
378.52	4837.89
378.72	4645.96
378.91	4655.33
379.11	4456.38
379.31	4372.12
379.50	4250.41
379.70	4559.36
379.89	5151.52
380.09	5343.44
380.28	5547.07
380.48	5500.26
380.68	5434.72
380.87	5261.52
381.07	5001.72
381.26	4585.11
381.46	4299.56
381.65	4168.49
381.85	4217.65
382.04	3941.46
382.24	3627.83
382.43	3513.14
382.63	3309.52
382.83	3346.97
383.02	3419.52
383.22	3471.01
383.41	3485.06
383.61	3665.28
383.80	4205.94
384.00	4568.73
384.19	5282.59
384.39	5568.13
384.58	5582.18
384.78	5439.40
384.97	5350.46
385.17	5130.45
385.36	4873.00
385.56	4697.46
385.75	4631.92
385.95	5298.97
386.14	5699.20
386.34	5621.97
386.53	5493.24
386.72	5125.77
386.92	5172.58
387.11	5439.40
387.31	5757.72
387.50	5804.53
387.70	5320.04
387.89	5420.68
388.09	5385.57
388.28	5504.94
388.48	5535.37
388.67	5963.68
388.86	6597.97
389.06	6892.88
389.25	7356.30
389.45	7655.89
389.64	7473.33
389.84	7286.09
390.03	7136.29
390.22	7344.60
390.42	7433.54
390.61	7960.16
390.81	8564.02
391.00	8727.86
391.19	8442.31
391.39	8475.08
391.58	7850.16
391.78	7527.16
391.97	7005.22
392.16	6562.86
392.36	6157.95
392.55	4880.02
392.75	3953.16
392.94	3201.85
393.13	3152.70
393.33	3667.62
393.52	4830.87
393.71	5818.57
393.91	6572.22
394.10	7070.76
394.29	7962.50
394.49	8510.19
394.68	8997.02
394.88	8978.30
395.07	9481.51
395.26	9078.94
395.46	9125.75
395.65	8461.04
395.84	7576.31
396.04	6167.31
396.23	5088.32
396.42	4294.88
396.62	4126.36
396.81	4788.74
397.00	6080.71
397.19	7576.31
397.39	8973.61
397.58	10384.96
397.77	10895.19
397.97	11485.01
398.16	11351.60
398.35	12030.35
398.55	12189.51
398.74	12776.98
398.93	13095.30
399.12	12734.85
399.32	12140.36
399.51	12465.69
399.70	13467.44
399.90	13324.67
400.09	13266.16
400.28	13352.76
400.47	13458.08
400.67	14183.65
400.86	14295.99
401.05	14303.01
401.24	14295.99
401.44	14558.13
401.63	14492.60
401.82	14616.65
402.01	14626.01
402.21	14834.32
402.40	15021.56
402.59	14520.68
402.78	13905.12
402.97	13528.30
403.17	14017.47
403.36	14693.88
403.55	15169.01
403.74	15908.62
403.93	14946.66
404.13	14012.79
404.32	13666.39
404.51	14181.31
404.70	15641.80
404.89	15262.63
405.09	15112.84
405.28	14492.60
405.47	14303.01
405.66	14382.59
405.85	14129.81
406.05	13661.71
406.24	13855.97
406.43	14572.18
406.62	15250.93
406.81	15536.48
407.00	14501.96
407.20	14307.69
407.39	14560.47
407.58	15353.91
407.77	15641.80
407.96	16233.96
408.15	16142.67
408.34	16578.01
408.54	17348.05
408.73	17305.92
408.92	17029.74
409.11	16783.98
409.30	15747.12
409.49	14963.04
409.68	13724.90
409.87	13504.89
410.07	14094.71
410.26	15330.51
410.45	16402.47
410.64	16912.71
410.83	17298.90
411.02	17900.42
411.21	18384.91
411.40	18148.51
411.59	18244.48
411.78	17912.12
411.98	17839.56
412.17	18036.17
412.36	17729.56
412.55	18036.17
412.74	17544.66
412.93	17394.86
413.12	17186.55
413.31	18794.50
413.50	19077.71
413.69	19290.70
413.88	18923.23
414.07	18317.03
414.26	18508.96
414.45	19129.20
414.64	19267.29
414.83	19225.16
415.02	18970.04
415.22	18944.30
415.41	19428.79
415.60	19859.45
415.79	20486.71
415.98	21355.05
416.17	21174.83
416.36	20833.11
416.55	20386.07
416.74	19597.31
416.93	19033.24
417.12	19267.29
417.31	19297.72
417.50	19704.97
417.69	20500.75
417.88	20091.16
418.07	19960.09
418.26	19679.22
418.45	19852.42
418.64	20383.73
418.83	21144.40
419.02	21252.06
419.21	20938.43
419.39	20126.27
419.58	19152.60
419.77	19222.82
419.96	19758.80
420.15	21139.72
420.34	21600.80
420.53	22302.96
420.72	22867.03
420.91	22553.40
421.10	22333.39
421.29	22164.87
421.48	21275.47
421.67	22256.15
421.86	21680.38
422.05	20615.44
422.24	18101.70
422.43	17848.93
422.61	19744.76
422.80	21738.90
422.99	21575.06
423.18	20847.15
423.37	20386.07
423.56	20819.07
423.75	20617.78
423.94	21523.57
424.13	20102.86
424.32	20449.26
424.50	20451.60
424.69	20215.21
424.88	20156.69
425.07	20175.42
425.26	20173.08
425.45	19784.55
425.64	19634.75
425.83	19744.76
426.01	20638.84
426.20	21099.93
426.39	20971.20
426.58	19534.11
426.77	18052.55
426.96	17261.45
427.15	18087.66
427.33	19700.29
427.52	20449.26
427.71	20610.76
427.90	20365.00
428.09	20233.93
428.28	19646.46
428.46	19054.30
428.65	18677.48
428.84	19168.99
429.03	19527.09
429.22	18422.36
429.40	17877.01
429.59	16027.99
429.78	13783.41
429.97	13853.63
430.16	14677.50
430.34	14373.23
430.53	14291.31
430.72	14567.49
430.91	16049.05
431.10	18813.23
431.28	22415.31
431.47	24339.23
431.66	24748.82
431.85	22541.70
432.03	20636.50
432.22	19480.28
432.41	20402.45
432.60	22539.36
432.79	23477.91
432.97	24594.35
433.16	23381.95
433.35	21656.98
433.54	19576.24
433.72	18029.15
433.91	18562.79
434.10	20800.34
434.28	22410.63
434.47	23660.48
434.66	23091.73
434.85	22761.71
435.03	22525.32
435.22	22918.53
435.41	24716.06
435.59	24779.25
435.78	24907.98
435.97	25303.53
436.16	25621.84
436.34	25015.65
436.53	24968.84
436.72	24793.29
436.90	23611.32
437.09	23367.91
437.28	22810.86
437.46	23758.78
437.65	23889.85
437.84	22291.26
438.02	20491.39
438.21	20002.22
438.40	21441.65
438.58	23335.14
438.77	23922.62
438.96	24266.67
439.14	25053.09
439.33	25422.90
439.52	26010.37
439.70	25680.36
439.89	24847.13
440.08	24067.73
440.26	24292.42
440.45	25088.20
440.63	26377.84
440.82	28107.49
441.01	27803.22
441.19	27281.28
441.38	27868.76
441.57	28922.00
441.75	29188.82
441.94	29137.33
442.12	29034.35
442.31	29961.20
442.50	29886.30
442.68	29268.40
442.87	29228.61
443.05	28301.76
443.24	29074.13
443.43	29167.76
443.61	30492.50
443.80	30644.63
443.98	28472.62
444.17	28610.71
444.35	30103.97
444.54	31227.43
444.73	30649.32
444.91	29312.87
445.10	27835.99
445.28	27063.61
445.47	26539.33
445.65	27180.64
445.84	27246.18
446.02	28435.17
446.21	28767.52
446.39	28926.68
446.58	29429.90
446.77	29628.84
446.95	30061.84
447.14	30864.64
447.32	31667.45
447.51	30562.72
447.69	29706.08
447.88	29212.23
448.06	29305.85
448.25	30387.18
448.43	30253.76
448.62	29816.08
448.80	29617.14
448.99	29841.83
449.17	30424.62
449.36	30321.64
449.54	31253.17
449.73	31887.46
449.91	32119.17
450.10	33336.25
450.28	33614.77
450.46	33544.56
450.65	33315.19
450.83	33254.33
451.02	32336.84
451.20	32456.21
451.39	32027.89
451.57	32025.55
451.76	32381.31
451.94	32058.32
452.13	31112.74
452.31	30202.27
452.49	28201.11
452.68	29055.41
452.86	28854.12
453.05	29078.82
453.23	30059.50
453.42	31285.94
453.60	31716.60
453.78	31672.13
453.97	31487.23
454.15	31524.68
454.34	30307.60
454.52	30934.86
454.70	30164.82
454.89	30792.09
455.07	31058.91
455.26	31597.23
455.44	32547.49
455.62	32814.31
455.81	33408.81
455.99	32828.35
456.17	32790.91
456.36	32840.06
456.54	33720.10
456.73	33582.01
456.91	34291.19
457.09	34169.48
457.28	34904.41
457.46	33357.32
457.64	33275.40
457.83	32367.27
458.01	31274.24
458.19	32608.34
458.38	32739.41
458.56	33963.51
458.74	33823.08
458.93	33125.60
459.11	32886.87
459.29	32673.88
459.48	33146.67
459.66	32634.09
459.84	33184.12
460.03	33694.35
460.21	33200.50
460.39	34274.80
460.57	34607.16
460.76	34403.53
460.94	34930.16
461.12	34597.80
461.31	34646.95
461.49	34749.93
461.67	34302.89
461.85	35798.49
462.04	34902.07
462.22	35189.95
462.40	35276.55
462.59	35101.01
462.77	35328.05
462.95	35438.05
463.13	34934.84
463.32	34593.12
463.50	34242.04
463.68	34136.71
463.86	34520.56
464.05	33441.57
464.23	33493.07
464.41	32947.72
464.59	32533.45
464.78	34368.43
464.96	34286.51
465.14	33809.04
465.32	34366.09
465.50	35182.93
465.69	35688.49
465.87	34948.88
466.05	34518.22
466.23	32488.98
466.41	31901.50
466.60	32877.51
466.78	32589.62
466.96	33369.02
467.14	34286.51
467.32	34143.74
467.51	34759.30
467.69	32615.37
467.87	33530.51
468.05	33902.66
468.23	34330.98
468.41	33963.51
468.60	34398.85
468.78	34691.42
468.96	33975.22
469.14	34918.45
469.32	34916.11
469.50	33851.17
469.69	34089.90
469.87	33132.62
470.05	33167.73
470.23	32987.51
470.41	33207.52
470.59	33832.44
470.77	33675.63
470.95	34384.81
471.14	35335.07
471.32	35058.88
471.50	36898.55
471.68	37186.43
471.86	37619.43
472.04	37881.57
472.22	37647.52
472.40	36121.49
472.58	35398.26
472.77	35054.20
472.95	35674.45
473.13	36552.15
473.31	35999.78
473.49	35901.48
473.67	37008.55
473.85	37062.38
474.03	37933.06
474.21	37930.72
474.39	38490.11
474.57	38405.85
474.75	38742.89
474.93	38469.04
475.12	37462.61
475.30	37535.17
475.48	37682.62
475.66	37731.78
475.84	37462.61
476.02	37371.33
476.20	36624.70
476.38	37408.78
476.56	38312.23
476.74	39175.89
476.92	39379.51
477.10	39817.19
477.28	40954.69
477.46	40924.27
477.64	41418.12
477.82	41654.51
478.00	41926.02
478.18	41153.64
478.36	40985.12
478.54	40914.90
478.72	41340.88
478.90	42183.48
479.08	43096.28
479.26	43810.15
479.44	44037.18
479.62	42974.58
479.80	43180.54
479.98	43910.79
480.16	44182.29
480.34	43222.67
480.52	43632.27
480.70	43693.12
480.88	44203.36
481.06	44978.07
481.24	44999.14
481.41	46314.52
481.59	46824.76
481.77	46122.60
481.95	46113.23
482.13	45560.87
482.31	46078.13
482.49	46160.05
482.67	46064.08
482.85	46630.49
483.03	47311.59
483.21	47370.10
483.39	47505.85
483.57	46564.96
483.74	46550.91
483.92	46916.04
484.10	46738.16
484.28	48231.42
484.46	48603.56
484.64	48685.48
484.82	47826.51
485.00	47456.70
485.18	46707.73
485.35	44992.12
485.53	42473.70
485.71	38586.07
485.89	38115.62
486.07	39608.89
486.25	42850.53
486.43	45642.79
486.61	46504.10
486.78	46003.23
486.96	46251.33
487.14	48233.76
487.32	48928.90
487.50	49712.98
487.68	50611.74
487.85	51306.88
488.03	51402.85
488.21	50916.01
488.39	50375.35
488.57	49525.74
488.75	49247.21
488.92	50075.76
489.10	52692.48
489.28	53495.28
489.46	54293.41
489.64	54162.34
489.81	54391.71
489.99	53937.65
490.17	53900.20
490.35	54333.20
490.53	53975.09
490.70	53420.39
490.88	53329.11
491.06	54206.81
491.24	54248.94
491.41	53382.94
491.59	51751.59
491.77	50590.68
491.95	52203.31
492.13	53123.14
492.30	54190.42
492.48	55196.85
492.66	55826.46
492.84	55629.85
493.01	55536.23
493.19	54995.57
493.37	54663.21
493.54	54326.17
493.72	54986.21
493.90	55922.42
494.08	56713.52
494.25	56956.94
494.43	57322.06
494.61	57256.53
494.79	57684.84
494.96	57284.61
495.14	56750.97
495.32	55877.95
495.49	55491.76
495.67	56226.69
495.85	57668.46
496.02	57860.38
496.20	57841.66
496.38	57165.24
496.55	57326.74
496.73	57733.99
496.91	57675.48
497.09	58333.17
497.26	58548.50
497.44	58272.32
497.62	57638.03
497.79	56788.42
497.97	55767.94
498.14	55789.01
498.32	56952.26
498.50	57595.90
498.67	58513.39
498.85	57956.35
499.03	58246.57
499.20	58447.86
499.38	58515.73
499.56	58555.52
499.73	57937.62
499.91	57586.54
500.08	57139.50
500.26	56303.93
500.44	56886.72
500.61	57324.40
500.79	57462.49
500.97	57092.69
501.14	56849.27
501.32	56591.81
501.49	56844.59
501.67	56961.62
501.84	57523.35
502.02	57506.96
502.20	58171.67
502.37	58211.46
502.55	58178.70
502.72	58672.55
502.90	59196.83
503.07	58885.54
503.25	58504.03
503.43	57715.27
503.60	57120.77
503.78	56427.98
503.95	56797.78
504.13	58171.67
504.30	58901.92
504.48	58810.64
504.65	58492.33
504.83	58571.91
505.01	59051.72
505.18	59302.15
505.36	59997.29
505.53	59765.58
505.71	60212.62
505.88	60126.02
506.06	59690.68
506.23	59255.34
506.41	58747.45
506.58	59325.56
506.76	59178.10
506.93	59140.66
507.11	58908.94
507.28	59114.91
507.46	58686.59
507.63	58178.70
507.81	57851.02
507.98	57961.03
508.16	58717.02
508.33	59428.54
508.50	59702.38
508.68	60020.70
508.85	60151.77
509.03	60217.30
509.20	60058.15
509.38	59627.49
509.55	58571.91
509.73	58798.94
509.90	59234.28
510.08	59749.20
510.25	59463.65
510.42	59400.46
510.60	59309.18
510.77	59725.79
510.95	60254.75
511.12	60126.02
511.30	60404.55
511.47	60762.65
511.64	60610.51
511.82	60449.02
511.99	59636.85
512.17	59388.75
512.34	58899.58
512.51	58951.07
512.69	59042.35
512.86	59355.99
513.04	59564.29
513.21	59718.77
513.38	59430.88
513.56	58983.84
513.73	58148.27
513.90	58590.63
514.08	58590.63
514.25	59018.95
514.43	59119.59
514.60	59374.71
514.77	59143.00
514.95	59297.47
515.12	59400.46
515.29	59477.69
515.47	59943.46
515.64	60268.79
515.81	59880.27
515.99	59299.81
516.16	58028.90
516.33	55866.25
516.51	54178.72
516.68	53874.45
516.85	53389.96
517.03	53525.71
517.20	56172.86
517.37	58576.59
517.54	59437.90
517.72	59178.10
517.89	56872.68
518.06	54478.31
518.24	54372.99
518.41	56594.15
518.58	58040.60
518.75	58372.96
518.93	58468.92
519.10	58269.98
519.27	58742.77
519.45	58932.35
519.62	59571.32
519.79	60081.55
519.96	59859.20
520.14	59323.22
520.31	58424.45
520.48	58625.74
520.65	58850.43
520.83	59819.41
521.00	60392.84
521.17	59920.05
521.34	59456.63
521.52	59730.47
521.69	60324.97
521.86	60608.17
522.03	60451.36
522.20	59363.01
522.38	58429.13
522.55	58143.59
522.72	58951.07
522.89	59044.69
523.07	59157.04
523.24	59444.93
523.41	60261.77
523.58	60488.80
523.75	61071.60
523.92	60945.21
524.10	60612.85
524.27	60905.42
524.44	60633.92
524.61	60409.23
524.78	60121.34
524.96	60271.14
525.13	60135.38
525.30	60458.38
525.47	61013.08
525.64	60680.73
525.81	60133.04
525.98	58735.74
526.16	57394.62
526.33	56818.84
526.50	56559.05
526.67	56013.70
526.84	56865.66
527.01	57733.99
527.18	58260.62
527.36	59231.94
527.53	60034.74
527.70	60416.25
527.87	59812.39
528.04	59386.41
528.21	59901.33
528.38	60441.99
528.55	61052.87
528.72	61244.80
528.89	61221.39
529.07	61083.30
529.24	60488.80
529.41	60074.53
529.58	59384.07
529.75	59447.27
529.92	59934.10
530.09	60292.20
530.26	60870.31
530.43	61062.24
530.60	61085.64
530.77	61350.12
530.94	61387.57
531.11	60870.31
531.28	60711.16
531.46	60505.19
531.63	60502.85
531.80	60491.15
531.97	60097.94
532.14	59229.60
532.31	58567.23
532.48	57729.31
532.65	57783.15
532.82	58541.48
532.99	59522.16
533.16	60119.00
533.33	60423.27
533.50	60402.21
533.67	59709.41
533.84	59522.16
534.01	59643.87
534.18	59756.22
534.35	60130.70
534.52	59973.89
534.69	59994.95
534.86	60287.52
535.03	60535.62
535.20	60938.19
535.37	61420.34
535.54	61310.33
535.71	61043.51
535.88	60846.91
536.05	60032.40
536.22	59793.67
536.38	59454.29
536.55	59231.94
536.72	58562.54
536.89	58522.76
537.06	59159.38
537.23	60130.70
537.40	60292.20
537.57	60135.38
537.74	60088.57
537.91	60058.15
538.08	59910.69
538.25	60018.36
538.42	60233.69
538.59	60037.08
538.75	59444.93
538.92	59215.55
539.09	59100.87
539.26	58791.92
539.43	58784.90
539.60	58836.39
539.77	58836.39
539.94	58880.86
540.11	58246.57
540.28	57715.27
540.44	58005.50
540.61	58073.37
540.78	58328.49
540.95	58410.41
541.12	59199.17
541.29	59231.94
541.46	59686.00
541.62	59690.68
541.79	59487.06
541.96	58759.15
542.13	58838.73
542.30	59110.23
542.47	59437.90
542.63	59229.60
542.80	58747.45
542.97	59091.51
543.14	58841.07
543.31	58773.19
543.48	59229.60
543.64	60268.79
543.81	60315.61
543.98	60172.83
544.15	59657.91
544.32	58967.46
544.48	58958.09
544.65	59592.38
544.82	59955.16
544.99	59601.74
545.16	59440.24
545.32	58784.90
545.49	59597.06
545.66	60013.68
545.83	59873.24
546.00	59288.11
546.16	59077.46
546.33	58993.20
546.50	59152.36
546.67	59587.70
546.83	59021.29
547.00	59159.38
547.17	58614.04
547.34	58094.44
547.50	57965.71
547.67	58323.81
547.84	58700.64
548.00	58845.75
548.17	59337.26
548.34	59058.74
548.51	59070.44
548.67	59386.41
548.84	59229.60
549.01	59110.23
549.18	59147.68
549.34	59112.57
549.51	58981.50
549.68	59143.00
549.84	58721.70
550.01	58721.70
550.18	58670.21
550.34	58724.04
550.51	58670.21
550.68	58768.51
550.84	58408.07
551.01	58578.93
551.18	58349.56
551.34	58585.95
551.51	58827.02
551.68	59351.30
551.84	59150.02
552.01	58946.39
552.18	59030.65
552.34	58323.81
552.51	57729.31
552.68	57736.34
552.84	58010.18
553.01	58649.14
553.18	58398.71
553.34	58424.45
553.51	58630.42
553.67	58812.98
553.84	59002.56
554.01	58607.01
554.17	58649.14
554.34	58869.15
554.51	58852.77
554.67	59133.63
554.84	59100.87
555.00	58628.08
555.17	58286.36
555.33	58492.33
555.50	58419.77
555.67	58518.07
555.83	58309.77
556.00	58127.20
556.16	57963.37
556.33	57759.74
556.50	57532.71
556.66	57471.85
556.83	57137.16
556.99	57453.13
557.16	57474.20
557.32	57808.89
557.49	57904.85
557.65	58085.07
557.82	57785.49
557.98	57963.37
558.15	57450.79
558.32	56554.36
558.48	55789.01
558.65	55971.57
558.81	56322.65
558.98	56575.43
559.14	56685.43
559.31	56814.16
559.47	57118.43
559.64	56589.47
559.80	56186.90
559.97	56210.31
560.13	56678.41
560.30	57595.90
560.46	58340.19
560.63	58323.81
560.79	58260.62
560.96	58010.18
561.12	56863.32
561.29	55971.57
561.45	55927.10
561.61	56587.13
561.78	56814.16
561.94	56949.92
562.11	56790.76
562.27	56830.55
562.44	56907.79
562.60	57242.48
562.77	57513.98
562.93	57525.69
563.10	57244.82
563.26	56811.82
563.42	56823.53
563.59	56493.51
563.75	56460.74
563.92	56556.70
564.08	56357.76
564.24	56940.55
564.41	56753.31
564.57	56863.32
564.74	56545.00
564.90	56563.73
565.07	56182.22
565.23	55861.57
565.39	55496.44
565.56	55281.11
565.72	54993.23
565.88	55550.27
566.05	55557.30
566.21	55632.19
566.38	55863.91
566.54	55840.50
566.70	56395.21
566.87	56575.43
567.03	56383.51
567.19	56905.44
567.36	56369.46
567.52	56343.72
567.68	56198.60
567.85	55379.42
568.01	55323.24
568.17	54810.67
568.34	54981.52
568.50	54864.50
568.66	54908.97
568.83	55454.31
568.99	55421.55
569.15	55831.14
569.32	55615.81
569.48	55351.33
569.64	55297.50
569.81	54791.94
569.97	54719.38
570.13	54695.98
570.30	54150.63
570.46	54017.22
570.62	53336.13
570.78	52987.39
570.95	53766.79
571.11	54286.39
571.27	54291.07
571.43	54550.87
571.60	54721.72
571.76	54817.69
571.92	55348.99
572.09	55601.77
572.25	55550.27
572.41	55405.16
572.57	55138.34
572.74	55395.80
572.90	54581.29
573.06	54908.97
573.22	54845.77
573.38	54787.26
573.55	54892.58
573.71	54967.48
573.87	54820.03
574.03	54429.16
574.20	54710.02
574.36	54305.11
574.52	54211.49
574.68	54195.10
574.84	53776.15
575.01	53216.76
575.17	53137.18
575.33	53284.64
575.49	53879.13
575.65	53944.67
575.82	53855.73
575.98	53633.38
576.14	53963.39
576.30	53935.30
576.46	54026.59
576.62	54059.35
576.79	54300.43
576.95	53839.34
577.11	53769.13
577.27	53635.72
577.43	53778.49
577.59	53279.96
577.75	52980.37
577.92	52741.63
578.08	52158.84
578.24	52058.20
578.40	52500.56
578.56	52692.48
578.72	52994.41
578.88	53139.52
579.04	53111.44
579.21	53006.11
579.37	53081.01
579.53	53212.08
579.69	53373.58
579.85	53591.25
580.01	53151.23
580.17	53041.22
580.33	52669.08
580.49	53034.20
580.65	53172.29
580.82	53453.15
580.98	53088.03
581.14	53378.26
581.30	53111.44
581.46	52949.94
581.62	53357.19
581.78	53516.35
581.94	53645.08
582.10	53506.99
582.26	53586.57
582.42	53488.26
582.58	53628.69
582.74	53570.18
582.90	53546.78
583.06	53249.53
583.22	53347.83
583.38	53436.77
583.54	53017.82
583.70	52912.49
583.86	53261.23
584.02	52825.89
584.18	53073.99
584.34	52823.55
584.50	52903.13
584.66	52968.66
584.82	52662.05
584.98	52493.54
585.14	52519.28
585.30	51297.52
