SpectraSuite Data File
++++++++++++++++++++++++++++++++++++
Date: Mon Oct 07 14:53:58 GMT-05:00 2013
User: price-jones
Dark Spectrum Present: No
Reference Spectrum Present: No
Number of Sampled Component Spectra: 1
Spectrometers: USB2+H05261
Integration Time (usec): 100000 (USB2+H05261)
Spectra Averaged: 1 (USB2+H05261)
Boxcar Smoothing: 0 (USB2+H05261)
Correct for Electrical Dark: No (USB2+H05261)
Strobe/Lamp Enabled: No (USB2+H05261)
Correct for Detector Non-linearity: No (USB2+H05261)
Correct for Stray Light: No (USB2+H05261)
Number of Pixels in Processed Spectrum: 2048
>>>>>Begin Processed Spectral Data<<<<<
365.73	0.00
365.92	0.00
366.12	0.00
366.32	0.00
366.52	0.00
366.72	0.00
366.91	0.00
367.11	0.00
367.31	0.00
367.51	0.00
367.70	0.00
367.90	0.00
368.10	0.00
368.30	0.00
368.49	0.00
368.69	0.00
368.89	0.00
369.09	0.00
369.28	0.00
369.48	0.00
369.68	0.00
369.87	0.00
370.07	0.00
370.27	0.00
370.47	641.31
370.66	3489.74
370.86	4009.34
371.06	4425.95
371.25	4376.80
371.45	3969.55
371.65	3709.75
371.84	3459.31
372.04	3548.25
372.24	3904.01
372.44	4070.19
372.63	4100.62
372.83	3803.37
373.03	3396.12
373.22	3084.83
373.42	3227.60
373.62	3796.35
373.81	4156.79
374.01	3995.29
374.21	3637.19
374.40	3534.21
374.60	3583.36
374.79	3857.20
374.99	4660.01
375.19	5057.90
375.38	4973.64
375.58	4706.82
375.78	4650.64
375.97	4699.80
376.17	4746.61
376.37	4905.76
376.56	4910.44
376.76	5247.48
376.95	5614.95
377.15	5982.41
377.35	6347.53
377.54	6546.48
377.74	6590.95
377.93	6558.18
378.13	6469.24
378.33	6218.80
378.52	5645.37
378.72	5455.79
378.91	5469.83
379.11	5172.58
379.31	5118.75
379.50	5069.60
379.70	5465.15
379.89	6162.63
380.09	6347.53
380.28	6565.20
380.48	6558.18
380.68	6523.07
380.87	6392.00
381.07	5825.59
381.26	5336.42
381.46	5043.85
381.65	4739.58
381.85	4961.94
382.04	4496.17
382.24	4112.32
382.43	4140.41
382.63	3892.31
382.83	3904.01
383.02	3974.23
383.22	4004.66
383.41	3913.38
383.61	4344.03
383.80	4727.88
384.00	5523.66
384.19	5984.75
384.39	6377.96
384.58	6399.02
384.78	6296.04
384.97	6197.74
385.17	5921.56
385.36	5680.48
385.56	5371.53
385.75	5689.84
385.95	6101.78
386.14	6700.95
386.34	6518.39
386.53	6370.94
386.72	5961.34
386.92	6010.50
387.11	6319.45
387.31	6525.41
387.50	6413.07
387.70	6326.47
387.89	6061.99
388.09	6242.21
388.28	6286.68
388.48	6562.86
388.67	6843.73
388.86	7566.95
389.06	7985.91
389.25	8482.10
389.45	8526.57
389.64	8416.57
389.84	8400.18
390.03	8276.13
390.22	8248.05
390.42	8493.80
390.61	9116.39
390.81	9963.66
391.00	10015.15
391.19	9816.21
391.39	9481.51
391.58	9078.94
391.78	8421.25
391.97	8304.22
392.16	7660.57
392.36	7101.19
392.55	5652.39
392.75	4465.74
392.94	3578.68
393.13	3557.61
393.33	4222.33
393.52	5554.09
393.71	6619.04
393.91	7372.69
394.10	8011.65
394.29	8992.34
394.49	9486.19
394.68	10403.68
394.88	10537.09
395.07	10651.78
395.26	10846.04
395.46	10228.14
395.65	9750.67
395.84	8631.90
396.04	7213.53
396.23	5771.76
396.42	4723.20
396.62	4730.22
396.81	5600.90
397.00	6970.12
397.19	8835.52
397.39	10668.16
397.58	11669.91
397.77	12493.78
397.97	12994.65
398.16	13228.71
398.35	13628.94
398.55	13617.24
398.74	14345.14
398.93	14848.36
399.12	14541.75
399.32	13940.23
399.51	14305.35
399.70	15229.87
399.90	15108.16
400.09	15061.35
400.28	14806.23
400.47	14974.75
400.67	16044.37
400.86	16175.44
401.05	16175.44
401.24	16091.18
401.44	16795.68
401.63	16549.93
401.82	16709.08
402.01	16840.15
402.21	16819.09
402.40	16847.18
402.59	16449.28
402.78	15529.45
402.97	15274.34
403.17	15611.37
403.36	16809.73
403.55	17390.18
403.74	17727.22
403.93	16734.83
404.13	15646.48
404.32	15302.42
404.51	16119.27
404.70	17069.53
404.89	17018.04
405.09	16985.27
405.28	16093.52
405.47	16393.11
405.66	16479.71
405.85	15946.07
406.05	15449.88
406.24	15779.89
406.43	16442.26
406.62	16996.97
406.81	17160.81
407.00	16390.77
407.20	16086.50
407.39	16229.27
407.58	17378.48
407.77	17621.89
407.96	18284.26
408.15	18581.51
408.34	18450.44
408.54	19435.81
408.73	19435.81
408.92	19253.25
409.11	18520.66
409.30	17818.50
409.49	16678.66
409.68	15466.26
409.87	15101.14
410.07	15920.32
410.26	17214.64
410.45	18389.59
410.64	19087.07
410.83	19283.67
411.02	19681.56
411.21	20524.16
411.40	20407.13
411.59	20458.62
411.78	20325.21
411.98	20051.37
412.17	20308.83
412.36	19917.96
412.55	20098.18
412.74	19527.09
412.93	19063.66
413.12	19342.19
413.31	21165.46
413.50	21364.41
413.69	21858.26
413.88	20868.22
414.07	20350.96
414.26	20620.12
414.45	21294.19
414.64	21729.53
414.83	21406.54
415.02	20912.69
415.22	21289.51
415.41	21591.44
415.60	22167.21
415.79	22965.34
415.98	23295.35
416.17	23599.62
416.36	23000.44
416.55	22637.66
416.74	21881.67
416.93	21132.70
417.12	21460.37
417.31	21785.71
417.50	21776.34
417.69	22600.21
417.88	22153.17
418.07	22302.96
418.26	21640.59
418.45	22101.68
418.64	23000.44
418.83	23353.87
419.02	23365.57
419.21	23009.81
419.39	22108.70
419.58	21106.95
419.77	21273.13
419.96	22230.41
420.15	23262.58
420.34	23868.78
420.53	24716.06
420.72	25406.52
420.91	25394.81
421.10	24716.06
421.29	24762.87
421.48	23714.31
421.67	24678.61
421.86	24425.83
422.05	22644.68
422.24	20470.33
422.43	19829.02
422.61	22288.92
422.80	23845.38
422.99	24067.73
423.18	23234.50
423.37	22616.60
423.56	22747.67
423.75	22857.67
423.94	23316.42
424.13	22080.61
424.32	22651.70
424.50	22925.55
424.69	22235.09
424.88	22300.62
425.07	22270.20
425.26	22136.79
425.45	21884.01
425.64	21488.46
425.83	21783.37
426.01	23094.07
426.20	23639.41
426.39	23002.78
426.58	21422.92
426.77	19749.44
426.96	19286.01
427.15	20154.35
427.33	21736.56
427.52	22345.09
427.71	22607.23
427.90	22178.92
428.09	22389.56
428.28	21415.90
428.46	21069.50
428.65	20397.77
428.84	21205.25
429.03	21387.82
429.22	20517.14
429.40	19213.46
429.59	17717.86
429.78	15524.77
429.97	15536.48
430.16	15482.64
430.34	15693.29
430.53	15852.45
430.72	15932.03
430.91	17720.20
431.10	20919.71
431.28	24486.68
431.47	26265.49
431.66	26913.82
431.85	24416.47
432.03	22377.86
432.22	21504.84
432.41	22534.68
432.60	24592.01
432.79	25944.84
432.97	26672.74
433.16	25944.84
433.35	23328.12
433.54	21350.37
433.72	19735.40
433.91	20786.30
434.10	22742.99
434.28	24627.12
434.47	25755.26
434.66	25425.24
434.85	24947.77
435.03	24797.98
435.22	25591.42
435.41	26782.75
435.59	26586.15
435.78	27089.36
435.97	27938.97
436.16	27936.63
436.34	27531.72
436.53	26728.92
436.72	27246.18
436.90	25748.23
437.09	25472.05
437.28	25209.91
437.46	26284.22
437.65	26209.32
437.84	24369.66
438.02	22487.87
438.21	21710.81
438.40	23391.31
438.58	25268.42
438.77	25862.92
438.96	25989.31
439.14	27094.04
439.33	27920.25
439.52	28273.67
439.70	27555.13
439.89	27166.60
440.08	26270.17
440.26	26185.91
440.45	26960.63
440.63	28802.63
440.82	30590.80
441.01	30078.22
441.19	29837.15
441.38	29570.33
441.57	31634.68
441.75	31573.83
441.94	31674.47
442.12	31541.06
442.31	32187.05
442.50	32538.13
442.68	31323.39
442.87	31126.78
443.05	30803.79
443.24	31171.25
443.43	31931.93
443.61	32627.07
443.80	32858.78
443.98	31166.57
444.17	31606.59
444.35	32914.95
444.54	33308.16
444.73	32875.16
444.91	31597.23
445.10	30621.23
445.28	29493.09
445.47	28809.65
445.65	29244.99
445.84	30073.54
446.02	30536.97
446.21	31508.29
446.39	31398.29
446.58	31641.70
446.77	32280.67
446.95	32498.34
447.14	33095.18
447.32	33848.83
447.51	33179.43
447.69	31641.70
447.88	31597.23
448.06	31934.27
448.25	32914.95
448.43	32961.76
448.62	32505.36
448.80	32081.72
448.99	32355.57
449.17	32676.22
449.36	32510.04
449.54	33741.16
449.73	34204.59
449.91	34209.27
450.10	35292.94
450.28	35796.15
450.46	35959.99
450.65	35454.44
450.83	35611.25
451.02	34824.83
451.20	34712.49
451.39	34206.93
451.57	34129.69
451.76	34345.02
451.94	34075.86
452.13	33446.26
452.31	32297.05
452.49	30398.88
452.68	31026.14
452.86	31229.77
453.05	31482.55
453.23	31969.38
453.42	32854.10
453.60	33968.19
453.78	34206.93
453.97	33773.93
454.15	33902.66
454.34	32964.10
454.52	32989.85
454.70	32425.78
454.89	32961.76
455.07	33134.96
455.26	33645.20
455.44	34932.50
455.62	35164.21
455.81	35545.72
455.99	35501.25
456.17	34646.95
456.36	34845.90
456.54	35679.13
456.73	36140.21
456.91	36765.14
457.09	36928.97
457.28	37343.25
457.46	35854.67
457.64	35611.25
457.83	34838.87
458.01	34012.66
458.19	34817.81
458.38	34714.83
458.56	35929.56
458.74	35910.84
458.93	34789.72
459.11	35569.12
459.29	35091.65
459.48	34976.97
459.66	34366.09
459.84	35508.27
460.03	35337.41
460.21	35962.33
460.39	36629.38
460.57	36975.78
460.76	36816.63
460.94	37310.48
461.12	36397.67
461.31	36634.06
461.49	36437.46
461.67	36154.26
461.85	37706.03
462.04	37668.58
462.22	37914.34
462.40	37563.26
462.59	37500.06
462.77	37453.25
462.95	37907.32
463.13	36720.66
463.32	36315.75
463.50	36507.68
463.68	36016.16
463.86	36535.76
464.05	35817.22
464.23	35213.36
464.41	35178.25
464.59	34328.64
464.78	36348.52
464.96	36360.22
465.14	35702.53
465.32	36613.00
465.50	37226.22
465.69	38239.67
465.87	37500.06
466.05	36011.48
466.23	34890.37
466.41	33839.47
466.60	34925.47
466.78	34665.67
466.96	35349.11
467.14	35859.35
467.32	36552.15
467.51	36524.06
467.69	34665.67
467.87	35676.79
468.05	36327.45
468.23	36034.89
468.41	36320.43
468.60	36341.50
468.78	36917.27
468.96	35768.07
469.14	36762.79
469.32	37385.38
469.50	35412.31
469.69	35349.11
469.87	35014.41
470.05	34859.94
470.23	35276.55
470.41	35133.78
470.59	35618.27
470.77	35997.44
470.95	36282.98
471.14	36910.25
471.32	37237.92
471.50	38714.80
471.68	38913.75
471.86	39552.71
472.04	39800.81
472.22	39962.31
472.40	38010.30
472.58	37404.10
472.77	37237.92
472.95	37383.04
473.13	38810.76
473.31	37656.88
473.49	38501.81
473.67	38242.01
473.85	38700.76
474.03	39756.34
474.21	39377.17
474.39	40385.94
474.57	40870.43
474.75	40407.01
474.93	39945.92
475.12	39185.25
475.30	39232.06
475.48	39658.04
475.66	39981.03
475.84	39695.49
476.02	39358.45
476.20	38429.26
476.38	39449.73
476.56	40381.26
476.74	40711.28
476.92	41464.93
477.10	41656.85
477.28	42731.16
477.46	42651.58
477.64	43503.54
477.82	43264.80
478.00	43585.46
478.18	42508.81
478.36	42183.48
478.54	42766.27
478.72	43140.75
478.90	44128.46
479.08	45170.00
479.26	45825.35
479.44	45614.70
479.62	44753.38
479.80	45153.62
479.98	45188.72
480.16	45813.65
480.34	45354.90
480.52	45713.00
480.70	46279.41
480.88	46047.70
481.06	46670.28
481.24	46838.80
481.41	47653.31
481.59	48287.59
481.77	48076.94
481.95	47199.24
482.13	47559.69
482.31	47379.46
482.49	47894.38
482.67	47791.40
482.85	48151.84
483.03	48788.47
483.21	49333.81
483.39	49308.07
483.57	48566.12
483.74	48027.79
483.92	48364.83
484.10	48500.58
484.28	49546.80
484.46	49848.73
484.64	50319.18
484.82	49301.04
485.00	48531.01
485.18	48332.06
485.35	46370.69
485.53	43985.69
485.71	40198.70
485.89	39351.43
486.07	41500.04
486.25	45322.13
486.43	47253.08
486.61	47980.98
486.78	47590.11
486.96	48308.66
487.14	49668.51
487.32	50396.42
487.50	51435.61
487.68	52158.84
487.85	52449.06
488.03	52275.87
488.21	52116.71
488.39	51515.19
488.57	50974.53
488.75	50555.57
488.92	51765.63
489.10	53670.82
489.28	54667.89
489.46	55173.45
489.64	55220.26
489.81	55501.12
489.99	55423.89
490.17	55227.28
490.35	55348.99
490.53	55164.09
490.70	54515.76
490.88	54555.55
491.06	55632.19
491.24	55386.44
491.41	54468.95
491.59	53052.92
491.77	52273.52
491.95	53088.03
492.13	54501.71
492.30	55524.53
492.48	56451.38
492.66	56629.26
492.84	56540.32
493.01	56289.88
493.19	55798.37
493.37	55894.33
493.54	55281.11
493.72	55894.33
493.90	56828.21
494.08	57495.26
494.25	57956.35
494.43	58099.12
494.61	58478.28
494.79	58307.43
494.96	58075.71
495.14	57593.56
495.32	56987.36
495.49	56346.06
495.67	57106.73
495.85	58574.25
496.02	58937.03
496.20	58728.72
496.38	58157.63
496.55	58150.61
496.73	58511.05
496.91	58791.92
497.09	59250.66
497.26	59295.13
497.44	58941.71
497.62	58452.54
497.79	57848.68
497.97	56535.64
498.14	56570.75
498.32	57549.09
498.50	58583.61
498.67	58962.78
498.85	58857.45
499.03	59025.97
499.20	59323.22
499.38	59421.52
499.56	59253.00
499.73	58665.53
499.91	58497.01
500.08	57911.88
500.26	57240.14
500.44	57546.75
500.61	58417.43
500.79	58171.67
500.97	57806.55
501.14	57645.05
501.32	57499.94
501.49	57670.80
501.67	57759.74
501.84	58487.65
502.02	58520.41
502.20	58649.14
502.37	58862.13
502.55	58717.02
502.72	59344.28
502.90	59798.35
503.07	59650.89
503.25	59131.29
503.43	58621.06
503.60	57790.17
503.78	57104.39
503.95	57668.46
504.13	58899.58
504.30	59580.68
504.48	59437.90
504.65	59215.55
504.83	59082.14
505.01	59716.43
505.18	60020.70
505.36	60573.06
505.53	60664.35
505.71	60905.42
505.88	60811.80
506.06	60310.92
506.23	60030.06
506.41	59721.11
506.58	59608.76
506.76	60027.72
506.93	59681.32
507.11	59695.36
507.28	59756.22
507.46	59199.17
507.63	58628.08
507.81	58536.80
507.98	58759.15
508.16	59264.70
508.33	59863.88
508.50	60282.84
508.68	60678.39
508.85	60788.39
509.03	60910.10
509.20	60893.72
509.38	60044.10
509.55	59304.49
509.73	59657.91
509.90	60149.43
510.08	60348.37
510.25	60123.68
510.42	59859.20
510.60	59777.28
510.77	60039.42
510.95	60463.06
511.12	60762.65
511.30	61080.96
511.47	61380.55
511.64	61148.84
511.82	61017.77
511.99	60280.50
512.17	59934.10
512.34	59386.41
512.51	59512.80
512.69	59678.98
512.86	59971.55
513.04	60303.90
513.21	60236.03
513.38	59770.26
513.56	59536.21
513.73	58745.11
513.90	59173.42
514.08	59065.76
514.25	59716.43
514.43	59545.57
514.60	59772.60
514.77	59812.39
514.95	59863.88
515.12	59681.32
515.29	59908.35
515.47	60322.63
515.64	60779.03
515.81	60346.03
515.99	59873.24
516.16	58616.38
516.33	56198.60
516.51	54876.20
516.68	54080.42
516.85	53951.69
517.03	54071.06
517.20	56982.68
517.37	58904.26
517.54	59910.69
517.72	59367.69
517.89	57006.09
518.06	54768.54
518.24	55018.97
518.41	57399.30
518.58	58396.37
518.75	58724.04
518.93	59075.12
519.10	58597.65
519.27	59398.12
519.45	59245.98
519.62	60144.75
519.79	60320.29
519.96	60254.75
520.14	59788.98
520.31	59002.56
520.48	59140.66
520.65	59201.51
520.83	60193.90
521.00	60486.46
521.17	60123.68
521.34	59915.37
521.52	60154.11
521.69	60472.42
521.86	61024.79
522.03	60809.46
522.20	59735.15
522.38	58574.25
522.55	58520.41
522.72	59150.02
522.89	59353.65
523.07	59536.21
523.24	59976.23
523.41	60542.64
523.58	60919.46
523.75	61394.59
523.92	61235.44
524.10	61029.47
524.27	61336.08
524.44	60961.59
524.61	60694.77
524.78	60299.22
524.96	60441.99
525.13	60519.23
525.30	60692.43
525.47	61027.13
525.64	61132.45
525.81	60404.55
525.98	58969.80
526.16	57736.34
526.33	57202.69
526.50	56837.57
526.67	56427.98
526.84	56973.32
527.01	58026.56
527.18	58543.82
527.36	59416.84
527.53	60329.65
527.70	60542.64
527.87	60168.15
528.04	59643.87
528.21	60161.13
528.38	60608.17
528.55	61076.28
528.72	61609.92
528.89	61528.00
529.07	61432.04
529.24	60898.40
529.41	60074.53
529.58	59671.96
529.75	59639.19
529.92	60334.33
530.09	60404.55
530.26	61144.16
530.43	61132.45
530.60	61254.16
530.77	61427.36
530.94	61413.32
531.11	60959.25
531.28	60711.16
531.46	60654.98
531.63	60828.18
531.80	60528.59
531.97	60144.75
532.14	59597.06
532.31	58621.06
532.48	57928.26
532.65	57769.10
532.82	58871.49
532.99	59838.14
533.16	60219.64
533.33	60537.96
533.50	60341.35
533.67	59716.43
533.84	59372.37
534.01	59824.09
534.18	59882.61
534.35	60006.65
534.52	59906.01
534.69	60219.64
534.86	60523.91
535.03	60570.72
535.20	61113.73
535.37	61467.15
535.54	61300.97
535.71	60973.30
535.88	60748.60
536.05	60287.52
536.22	59828.77
536.38	59737.49
536.55	59135.98
536.72	58569.57
536.89	58417.43
537.06	59388.75
537.23	60191.56
537.40	60163.47
537.57	60413.91
537.74	60200.92
537.91	60100.28
538.08	60048.78
538.25	60156.45
538.42	60142.41
538.59	60296.88
538.75	59423.86
538.92	59257.68
539.09	59510.46
539.26	58803.62
539.43	58848.09
539.60	58911.28
539.77	59070.44
539.94	59000.22
540.11	58234.87
540.28	57635.69
540.44	57703.57
540.61	57769.10
540.78	58223.17
540.95	58571.91
541.12	59084.48
541.29	59245.98
541.46	59671.96
541.62	59611.10
541.79	59496.42
541.96	58812.98
542.13	58672.55
542.30	59269.39
542.47	59241.30
542.63	59054.06
542.80	58770.85
542.97	58707.66
543.14	58794.26
543.31	59084.48
543.48	59344.28
543.64	60088.57
543.81	60388.16
543.98	60247.73
544.15	59573.66
544.32	59189.81
544.48	58841.07
544.65	59306.83
544.82	59831.11
544.99	59297.47
545.16	59025.97
545.32	58958.09
545.49	59749.20
545.66	60020.70
545.83	59465.99
546.00	59344.28
546.16	58878.52
546.33	58993.20
546.50	58969.80
546.67	59423.86
546.83	59084.48
547.00	59089.16
547.17	58356.58
547.34	57733.99
547.50	58066.35
547.67	58389.34
547.84	58370.62
548.00	58651.48
548.17	59110.23
548.34	58913.62
548.51	58969.80
548.67	58937.03
548.84	59042.35
549.01	59119.59
549.18	59028.31
549.34	58965.12
549.51	58773.19
549.68	58759.15
549.84	58651.48
550.01	58492.33
550.18	58475.94
550.34	58475.94
550.51	58576.59
550.68	58698.30
550.84	58024.22
551.01	58162.31
551.18	58096.78
551.34	58321.47
551.51	58848.09
551.68	58843.41
551.84	59243.64
552.01	58728.72
552.18	58607.01
552.34	57907.19
552.51	57485.90
552.68	57284.61
552.84	57827.62
553.01	58150.61
553.18	57890.81
553.34	58372.96
553.51	58223.17
553.67	58560.20
553.84	58841.07
554.01	58520.41
554.17	58316.79
554.34	58557.86
554.51	58693.61
554.67	58981.50
554.84	58597.65
555.00	58422.11
555.17	58190.40
555.33	58103.80
555.50	58258.27
555.67	58220.83
555.83	57738.68
556.00	57673.14
556.16	57757.40
556.33	57043.54
556.50	57279.93
556.66	57214.40
556.83	56987.36
556.99	57090.35
557.16	57165.24
557.32	57645.05
557.49	57715.27
557.65	57560.79
557.82	57450.79
557.98	57490.58
558.15	57013.11
558.32	56322.65
558.48	55519.85
558.65	55688.37
558.81	55859.23
558.98	56193.92
559.14	56559.05
559.31	56652.67
559.47	56577.77
559.64	56484.15
559.80	55831.14
559.97	55934.12
560.13	56271.16
560.30	57364.19
560.46	57656.76
560.63	57963.37
560.79	57715.27
560.96	57490.58
561.12	56397.55
561.29	55526.87
561.45	55817.10
561.61	56027.74
561.78	56755.65
561.94	56535.64
562.11	56336.69
562.27	56069.87
562.44	56383.51
562.60	56853.95
562.77	57160.56
562.93	56853.95
563.10	56830.55
563.26	56322.65
563.42	56519.26
563.59	56090.94
563.75	56278.18
563.92	56030.08
564.08	56135.41
564.24	56493.51
564.41	56535.64
564.57	56301.59
564.74	56217.33
564.90	56081.58
565.07	56104.98
565.23	55437.93
565.39	55348.99
565.56	54740.45
565.72	54490.01
565.88	54831.73
566.05	54880.88
566.21	55208.56
566.38	55419.20
566.54	55377.08
566.70	55943.48
566.87	55985.61
567.03	55945.83
567.19	56090.94
567.36	55913.06
567.52	55917.74
567.68	55473.04
567.85	54988.55
568.01	54405.75
568.17	54394.05
568.34	54099.14
568.50	54270.00
568.66	54396.39
568.83	54834.07
568.99	54677.25
569.15	54810.67
569.32	54796.62
569.48	54520.44
569.64	54387.03
569.81	54202.13
569.97	54106.16
570.13	54096.80
570.30	53757.42
570.46	53151.23
570.62	52458.43
570.78	52378.85
570.95	52959.30
571.11	53727.00
571.27	53612.31
571.43	54087.44
571.60	54265.32
571.76	54288.73
571.92	54576.61
572.09	54733.43
572.25	54866.84
572.41	54426.82
572.57	54527.46
572.74	54752.15
572.90	54270.00
573.06	54120.21
573.22	53991.48
573.38	54209.15
573.55	54286.39
573.71	54251.28
573.87	54234.89
574.03	54248.94
574.20	54129.57
574.36	53418.05
574.52	53375.92
574.68	53389.96
574.84	53109.10
575.01	52633.97
575.17	52746.31
575.33	52790.78
575.49	53099.73
575.65	53265.91
575.82	52877.38
575.98	52617.58
576.14	52973.34
576.30	53378.26
576.46	53308.04
576.62	53209.74
576.79	53048.24
576.95	52882.06
577.11	52601.20
577.27	52999.09
577.43	52903.13
577.59	52556.73
577.75	52250.12
577.92	51784.35
578.08	51292.84
578.24	51276.46
578.40	51786.69
578.56	52172.88
578.72	51966.91
578.88	52402.25
579.04	52451.41
579.21	52512.26
579.37	52446.72
579.53	52570.77
579.69	52526.30
579.85	52708.86
580.01	52484.17
580.17	52229.05
580.33	51931.81
580.49	51903.72
580.65	52383.53
580.82	52760.36
580.98	52591.84
581.14	52535.66
581.30	52491.19
581.46	52205.65
581.62	52622.26
581.78	52577.79
581.94	52657.37
582.10	52582.48
582.26	52226.71
582.42	52549.71
582.58	52566.09
582.74	52430.34
582.90	52528.64
583.06	52474.81
583.22	52477.15
583.38	52259.48
583.54	52179.90
583.70	52114.37
583.86	51997.34
584.02	52456.09
584.18	52168.20
584.34	52336.72
584.50	51807.76
584.66	51999.68
584.82	51189.86
584.98	51367.74
585.14	50822.39
