SpectraSuite Data File
++++++++++++++++++++++++++++++++++++
Date: Mon Oct 07 14:53:46 GMT-05:00 2013
User: price-jones
Dark Spectrum Present: No
Reference Spectrum Present: No
Number of Sampled Component Spectra: 1
Spectrometers: USB2+H05261
Integration Time (usec): 100000 (USB2+H05261)
Spectra Averaged: 1 (USB2+H05261)
Boxcar Smoothing: 0 (USB2+H05261)
Correct for Electrical Dark: No (USB2+H05261)
Strobe/Lamp Enabled: No (USB2+H05261)
Correct for Detector Non-linearity: No (USB2+H05261)
Correct for Stray Light: No (USB2+H05261)
Number of Pixels in Processed Spectrum: 2048
>>>>>Begin Processed Spectral Data<<<<<
365.73	0.00
365.92	0.00
366.12	0.00
366.32	0.00
366.52	0.00
366.72	0.00
366.91	0.00
367.11	0.00
367.31	0.00
367.51	0.00
367.70	0.00
367.90	0.00
368.10	0.00
368.30	0.00
368.49	0.00
368.69	0.00
368.89	0.00
369.09	0.00
369.28	0.00
369.48	0.00
369.68	0.00
369.87	0.00
370.07	0.00
370.27	0.00
370.47	557.05
370.66	2712.68
370.86	3290.79
371.06	3588.04
371.25	3667.62
371.45	3325.90
371.65	2946.73
371.84	2792.26
372.04	2932.69
372.24	3382.07
372.44	3538.89
372.63	3520.17
372.83	3251.00
373.03	2759.49
373.22	2548.84
373.42	2637.78
373.62	3194.83
373.81	3382.07
374.01	3403.14
374.21	3063.76
374.40	2869.50
374.60	3091.85
374.79	3382.07
374.99	3953.16
375.19	4102.96
375.38	4121.68
375.58	3911.04
375.78	3812.73
375.97	3927.42
376.17	4107.64
376.37	4095.94
376.56	4264.46
376.76	4533.62
376.95	4758.31
377.15	4992.36
377.35	5570.48
377.54	5530.69
377.74	5771.76
377.93	5631.33
378.13	5650.05
378.33	5233.44
378.52	4844.91
378.72	4730.22
378.91	4601.49
379.11	4294.88
379.31	4334.67
379.50	4376.80
379.70	4599.15
379.89	5011.09
380.09	5252.16
380.28	5479.19
380.48	5687.50
380.68	5486.22
380.87	5420.68
381.07	4924.49
381.26	4503.19
381.46	4182.54
381.65	4065.51
381.85	4042.11
382.04	3782.31
382.24	3630.17
382.43	3349.31
382.63	3297.81
382.83	3393.78
383.02	3393.78
383.22	3258.03
383.41	3417.18
383.61	3611.45
383.80	4180.20
384.00	4601.49
384.19	5266.21
384.39	5668.78
384.58	5514.30
384.78	5605.58
384.97	5418.34
385.17	5027.47
385.36	4821.50
385.56	4564.04
385.75	4781.71
385.95	5167.90
386.14	5750.70
386.34	5767.08
386.53	5495.58
386.72	5097.69
386.92	5177.26
387.11	5434.72
387.31	5603.24
387.50	5666.44
387.70	5446.43
387.89	5320.04
388.09	5364.51
388.28	5526.00
388.48	5504.94
388.67	5797.51
388.86	6527.75
389.06	6902.24
389.25	7262.68
389.45	7358.64
389.64	7449.93
389.84	7478.01
390.03	7248.64
390.22	7115.23
390.42	7459.29
390.61	7864.20
390.81	8388.48
391.00	8723.18
391.19	8542.96
391.39	8091.23
391.58	7801.01
391.78	7372.69
391.97	7150.34
392.16	6750.10
392.36	6008.16
392.55	4751.29
392.75	3836.14
392.94	3222.92
393.13	3162.06
393.33	3564.64
393.52	4753.63
393.71	5783.46
393.91	6600.31
394.10	7105.87
394.29	7634.83
394.49	8365.07
394.68	9053.19
394.88	9149.15
395.07	9350.44
395.26	9076.60
395.46	9132.77
395.65	8423.59
395.84	7314.17
396.04	6406.05
396.23	5128.11
396.42	4355.74
396.62	4077.21
396.81	4812.14
397.00	6078.37
397.19	7674.62
397.39	9165.54
397.58	10188.35
397.77	10824.98
397.97	11056.69
398.16	11431.18
398.35	11695.66
398.55	12049.08
398.74	12650.60
398.93	13029.76
399.12	12566.34
399.32	12084.19
399.51	12554.63
399.70	13495.53
399.90	13207.64
400.09	13139.77
400.28	13137.43
400.47	13273.18
400.67	13769.37
400.86	14230.46
401.05	14101.73
401.24	14314.72
401.44	14429.40
401.63	14593.24
401.82	14616.65
402.01	14485.58
402.21	14766.44
402.40	14843.68
402.59	14600.26
402.78	13731.92
402.97	13331.69
403.17	13743.63
403.36	14635.37
403.55	15201.78
403.74	15524.77
403.93	15021.56
404.13	13813.84
404.32	13104.66
404.51	13713.20
404.70	15267.31
404.89	15154.97
405.09	14820.27
405.28	14270.25
405.47	14263.22
405.66	14370.89
405.85	14160.24
406.05	13589.15
406.24	13778.73
406.43	14431.74
406.62	14822.61
406.81	15122.20
407.00	14492.60
407.20	13916.83
407.39	14375.57
407.58	14848.36
407.77	15529.45
407.96	16063.10
408.15	16175.44
408.34	16423.54
408.54	17142.08
408.73	17137.40
408.92	16840.15
409.11	16404.81
409.30	15550.52
409.49	14831.97
409.68	13811.50
409.87	13348.08
410.07	13937.89
410.26	15445.20
410.45	16397.79
410.64	16877.60
410.83	17064.85
411.02	17626.57
411.21	18146.17
411.40	17790.41
411.59	18237.45
411.78	17972.97
411.98	17809.14
412.17	18192.98
412.36	17783.39
412.55	17748.28
412.74	17661.68
412.93	17055.48
413.12	17319.96
413.31	18764.07
413.50	18899.83
413.69	19407.72
413.88	18841.31
414.07	17923.82
414.26	18333.42
414.45	18738.33
414.64	18878.76
414.83	19239.20
415.02	18611.94
415.22	18597.90
415.41	19019.19
415.60	19445.17
415.79	20404.79
415.98	20704.38
416.17	21057.80
416.36	20643.52
416.55	20046.69
416.74	19377.30
416.93	18871.74
417.12	18944.30
417.31	18890.46
417.50	19410.06
417.69	20121.59
417.88	19953.07
418.07	19660.50
418.26	19632.41
418.45	19702.63
418.64	20187.12
418.83	21263.77
419.02	20837.79
419.21	20643.52
419.39	19496.66
419.58	18675.13
419.77	18808.54
419.96	19594.96
420.15	20620.12
420.34	21273.13
420.53	22080.61
420.72	22398.93
420.91	22354.46
421.10	21855.92
421.29	21954.22
421.48	21149.08
421.67	22188.28
421.86	21689.74
422.05	20327.55
422.24	18045.53
422.43	17902.76
422.61	19676.88
422.80	21301.22
422.99	21577.40
423.18	20683.31
423.37	20374.36
423.56	19967.11
423.75	20439.90
423.94	20835.45
424.13	19674.54
424.32	20154.35
424.50	20294.79
424.69	19948.39
424.88	19807.95
425.07	19798.59
425.26	20023.28
425.45	19690.93
425.64	19328.14
425.83	19166.65
426.01	20610.76
426.20	20805.02
426.39	21062.48
426.58	19349.21
426.77	17811.48
426.96	17184.21
427.15	17607.85
427.33	19456.87
427.52	20306.49
427.71	20510.11
427.90	19936.68
428.09	19908.60
428.28	19765.82
428.46	19101.11
428.65	18424.70
428.84	19049.62
429.03	19208.78
429.22	18235.11
429.40	17572.74
429.59	15681.59
429.78	13914.48
429.97	13781.07
430.16	14061.94
430.34	14270.25
430.53	13862.99
430.72	14200.03
430.91	15899.26
431.10	18628.32
431.28	22094.66
431.47	23798.57
431.66	24552.22
431.85	21848.90
432.03	20079.46
432.22	19302.40
432.41	20173.08
432.60	22300.62
432.79	23014.49
432.97	24018.58
433.16	23314.08
433.35	21348.03
433.54	19302.40
433.72	18178.94
433.91	18415.34
434.10	20545.22
434.28	22092.32
434.47	23400.68
434.66	23208.75
434.85	22614.26
435.03	22253.81
435.22	22979.38
435.41	23997.51
435.59	24386.04
435.78	24367.32
435.97	24994.58
436.16	25542.27
436.34	24650.52
436.53	24320.51
436.72	24603.71
436.90	23297.69
437.09	22939.59
437.28	22789.80
437.46	23293.01
437.65	23585.58
437.84	21951.88
438.02	20060.73
438.21	19442.83
438.40	21013.33
438.58	22586.17
438.77	23686.22
438.96	23740.05
439.14	24369.66
439.33	25315.23
439.52	25832.49
439.70	25195.87
439.89	24376.68
440.08	23903.89
440.26	24060.71
440.45	24819.04
440.63	26047.82
440.82	27875.78
441.01	26953.61
441.19	27187.66
441.38	26967.65
441.57	28027.92
441.75	28669.22
441.94	29298.83
442.12	28184.73
442.31	29399.47
442.50	29043.71
442.68	29111.58
442.87	28514.75
443.05	27758.75
443.24	28463.25
443.43	29024.98
443.61	29582.03
443.80	30209.29
443.98	28411.76
444.17	28418.78
444.35	29694.38
444.54	30118.01
444.73	29888.64
444.91	28952.43
445.10	28039.62
445.28	26810.84
445.47	25977.61
445.65	26483.16
445.84	27281.28
446.02	28051.32
446.21	28034.94
446.39	28285.37
446.58	28678.58
446.77	29397.13
446.95	29713.10
447.14	30323.98
447.32	30761.66
447.51	30295.89
447.69	28971.15
447.88	28477.30
448.06	28914.98
448.25	29565.65
448.43	30244.40
448.62	29441.60
448.80	29270.74
448.99	29394.79
449.17	29511.81
449.36	29518.84
449.54	31035.50
449.73	31349.14
449.91	31693.19
450.10	32795.59
450.28	32999.21
450.46	32652.81
450.65	32905.59
450.83	32467.91
451.02	31721.28
451.20	31557.44
451.39	31484.89
451.57	31445.10
451.76	31461.48
451.94	30998.06
452.13	30684.42
452.31	29649.91
452.49	28170.69
452.68	28025.57
452.86	28360.27
453.05	28980.51
453.23	29764.59
453.42	30038.44
453.60	30754.64
453.78	30944.22
453.97	30852.94
454.15	31077.63
454.34	30235.04
454.52	30286.53
454.70	29619.48
454.89	29961.20
455.07	30246.74
455.26	30644.63
455.44	31686.17
455.62	32098.11
455.81	32655.15
455.99	32444.51
456.17	31955.33
456.36	32449.19
456.54	33149.01
456.73	32835.38
456.91	33504.77
457.09	33399.44
457.28	34139.05
457.46	33146.67
457.64	32919.63
457.83	31880.44
458.01	30998.06
458.19	32133.21
458.38	32212.79
458.56	33357.32
458.74	32943.04
458.93	32460.89
459.11	32381.31
459.29	31978.74
459.48	32236.20
459.66	32088.74
459.84	32793.25
460.03	32980.49
460.21	32718.35
460.39	33816.06
460.57	33706.05
460.76	34122.67
460.94	34094.58
461.12	33401.79
461.31	33567.96
461.49	33649.88
461.67	33839.47
461.85	34974.63
462.04	34630.57
462.22	34911.43
462.40	34651.63
462.59	34136.71
462.77	34113.31
462.95	34567.37
463.13	34064.16
463.32	34005.64
463.50	33312.84
463.68	33483.70
463.86	34010.32
464.05	33537.54
464.23	32465.57
464.41	32978.15
464.59	32400.04
464.78	33633.50
464.96	33457.96
465.14	32828.35
465.32	33968.19
465.50	34316.93
465.69	34986.33
465.87	34632.91
466.05	33394.76
466.23	31775.11
466.41	30892.73
466.60	32077.04
466.78	32264.28
466.96	32837.72
467.14	32840.06
467.32	34094.58
467.51	33528.17
467.69	32180.03
467.87	32919.63
468.05	33319.87
468.23	33359.66
468.41	33411.15
468.60	33626.48
468.78	34134.37
468.96	33113.90
469.14	33921.38
469.32	34183.52
469.50	32648.13
469.69	32999.21
469.87	32594.30
470.05	32236.20
470.23	32261.94
470.41	32994.53
470.59	33249.65
470.77	33064.75
470.95	33783.29
471.14	34066.50
471.32	34204.59
471.50	36154.26
471.68	36297.03
471.86	36414.05
472.04	36486.61
472.22	36699.60
472.40	34974.63
472.58	34464.39
472.77	34396.51
472.95	34934.84
473.13	36135.53
473.31	34932.50
473.49	35285.92
473.67	35999.78
473.85	36559.17
474.03	36952.38
474.21	36870.46
474.39	37649.86
474.57	37691.99
474.75	37427.51
474.93	37275.37
475.12	36495.97
475.30	36849.39
475.48	37088.13
475.66	37851.14
475.84	36957.06
476.02	36257.24
476.20	36247.88
476.38	36699.60
476.56	37684.97
476.74	38003.28
476.92	38368.40
477.10	39154.82
477.28	39756.34
477.46	40009.12
477.64	40477.22
477.82	40842.35
478.00	40992.14
478.18	40076.99
478.36	39894.43
478.54	39765.70
478.72	40140.19
478.90	41511.74
479.08	42410.51
479.26	42906.70
479.44	42452.64
479.62	42267.73
479.80	42323.91
479.98	42614.13
480.16	43051.81
480.34	42590.73
480.52	43075.22
480.70	42815.42
480.88	43185.22
481.06	44067.61
481.24	43983.35
481.41	45361.92
481.59	45811.31
481.77	45469.59
481.95	45233.19
482.13	44830.62
482.31	44364.85
482.49	45673.21
482.67	45336.18
482.85	45682.58
483.03	46286.43
483.21	46387.08
483.39	46361.33
483.57	45544.48
483.74	45930.67
483.92	45457.88
484.10	45876.84
484.28	46745.18
484.46	47093.92
484.64	47908.43
484.82	47002.64
485.00	46082.81
485.18	45483.63
485.35	44477.20
485.53	41034.27
485.71	37710.71
485.89	37048.34
486.07	38960.56
486.25	42115.60
486.43	44116.76
486.61	45492.99
486.78	45120.85
486.96	45570.23
487.14	47093.92
487.32	48083.97
487.50	48952.30
487.68	49572.55
487.85	50373.01
488.03	50234.92
488.21	49808.94
488.39	49235.51
488.57	48837.62
488.75	48339.08
488.92	48914.86
489.10	51688.39
489.28	52896.11
489.46	53741.04
489.64	53226.12
489.81	53764.45
489.99	53078.67
490.17	53102.07
490.35	53591.25
490.53	53155.91
490.70	52594.18
490.88	52612.90
491.06	53467.20
491.24	53551.46
491.41	52542.69
491.59	51028.36
491.77	49984.48
491.95	51194.54
492.13	52196.29
492.30	53511.67
492.48	54349.58
492.66	54831.73
492.84	54948.76
493.01	54728.75
493.19	54223.19
493.37	54071.06
493.54	53422.73
493.72	54199.79
493.90	55253.03
494.08	55690.71
494.25	56261.80
494.43	56409.25
494.61	56875.02
494.79	56914.81
494.96	56755.65
495.14	55812.41
495.32	55255.37
495.49	54581.29
495.67	55597.09
495.85	56975.66
496.02	57345.47
496.20	57158.22
496.38	56666.71
496.55	56463.08
496.73	57020.13
496.91	57050.56
497.09	57666.12
497.26	57909.53
497.44	57593.56
497.62	56975.66
497.79	56278.18
497.97	55016.63
498.14	55159.41
498.32	56170.52
498.50	56912.47
498.67	57532.71
498.85	57495.26
499.03	57518.67
499.20	57890.81
499.38	57787.83
499.56	57588.88
499.73	57073.96
499.91	57008.43
500.08	56406.91
500.26	55861.57
500.44	56294.56
500.61	56612.88
500.79	56493.51
500.97	56097.96
501.14	56294.56
501.32	55964.55
501.49	55929.44
501.67	56247.75
501.84	56818.84
502.02	56942.89
502.20	57420.36
502.37	57661.44
502.55	57469.51
502.72	58068.69
502.90	58492.33
503.07	57918.90
503.25	57574.84
503.43	57017.79
503.60	56271.16
503.78	55903.70
503.95	56177.54
504.13	57144.18
504.30	58295.72
504.48	58073.37
504.65	57755.06
504.83	57738.68
505.01	58319.13
505.18	58768.51
505.36	59276.41
505.53	59379.39
505.71	59515.14
505.88	59325.56
506.06	58953.41
506.23	58569.57
506.41	58113.16
506.58	58499.35
506.76	58398.71
506.93	58408.07
507.11	58391.68
507.28	58183.38
507.46	57829.96
507.63	57441.43
507.81	57151.20
507.98	57394.62
508.16	57998.48
508.33	58658.51
508.50	58768.51
508.68	59192.15
508.85	59707.07
509.03	59533.87
509.20	59498.76
509.38	58803.62
509.55	58166.99
509.73	58248.91
509.90	58784.90
510.08	59056.40
510.25	58988.52
510.42	58684.25
510.60	58571.91
510.77	59032.99
510.95	59449.61
511.12	59297.47
511.30	59828.77
511.47	59929.42
511.64	60006.65
511.82	59810.05
511.99	58983.84
512.17	58560.20
512.34	58176.36
512.51	58443.18
512.69	58356.58
512.86	58705.32
513.04	58988.52
513.21	58925.33
513.38	58569.57
513.56	58267.64
513.73	57570.16
513.90	57827.62
514.08	57949.32
514.25	57996.13
514.43	58333.17
514.60	58489.99
514.77	58710.00
514.95	58927.67
515.12	58574.25
515.29	59023.63
515.47	59543.23
515.64	59718.77
515.81	59192.15
515.99	58653.82
516.16	57481.22
516.33	55035.36
516.51	53413.37
516.68	52846.96
516.85	52512.26
517.03	52580.13
517.20	55292.82
517.37	57645.05
517.54	58820.00
517.72	58485.31
517.89	56133.07
518.06	53441.45
518.24	53546.78
518.41	55789.01
518.58	57233.12
518.75	57521.01
518.93	57726.97
519.10	57446.11
519.27	58108.48
519.45	58223.17
519.62	58939.37
519.79	59206.19
519.96	58951.07
520.14	58805.96
520.31	57893.15
520.48	57867.40
520.65	58152.95
520.83	59159.38
521.00	59295.13
521.17	58979.16
521.34	58599.99
521.52	59128.95
521.69	59576.00
521.86	59800.69
522.03	59536.21
522.20	58684.25
522.38	57406.32
522.55	57612.29
522.72	58279.34
522.89	58277.00
523.07	58445.52
523.24	58749.79
523.41	59456.63
523.58	59814.73
523.75	60226.66
523.92	59908.35
524.10	59992.61
524.27	60044.10
524.44	59817.07
524.61	59568.97
524.78	59374.71
524.96	59274.07
525.13	59433.22
525.30	59924.74
525.47	59948.14
525.64	60053.47
525.81	59398.12
525.98	58059.33
526.16	56493.51
526.33	55943.48
526.50	55597.09
526.67	55236.64
526.84	55908.38
527.01	56746.29
527.18	57715.27
527.36	58344.87
527.53	59355.99
527.70	59615.79
527.87	58986.18
528.04	58590.63
528.21	59260.02
528.38	59681.32
528.55	60322.63
528.72	60467.74
528.89	60708.82
529.07	60423.27
529.24	59973.89
529.41	59007.25
529.58	58543.82
529.75	58688.93
529.92	59112.57
530.09	59344.28
530.26	59962.18
530.43	60137.72
530.60	60184.54
530.77	60416.25
530.94	60619.88
531.11	60048.78
531.28	59831.11
531.46	59533.87
531.63	59772.60
531.80	59714.09
531.97	59182.79
532.14	58623.40
532.31	57621.65
532.48	57235.46
532.65	56816.50
532.82	57930.60
532.99	58878.52
533.16	59201.51
533.33	59824.09
533.50	59709.41
533.67	58983.84
533.84	58527.44
534.01	58803.62
534.18	59110.23
534.35	59248.32
534.52	59121.93
534.69	59262.36
534.86	59388.75
535.03	59756.22
535.20	60247.73
535.37	60561.36
535.54	60528.59
535.71	60123.68
535.88	59934.10
536.05	59304.49
536.22	58824.68
536.38	58780.21
536.55	58262.96
536.72	57607.61
536.89	57762.08
537.06	58487.65
537.23	59423.86
537.40	59496.42
537.57	59599.40
537.74	59079.80
537.91	59386.41
538.08	59093.85
538.25	59274.07
538.42	59461.31
538.59	59210.87
538.75	58494.67
538.92	58314.45
539.09	58326.15
539.26	58087.42
539.43	57895.49
539.60	58096.78
539.77	58300.40
539.94	57865.06
540.11	57350.15
540.28	56776.72
540.44	56975.66
540.61	57242.48
540.78	57237.80
540.95	57827.62
541.12	57991.45
541.29	58473.60
541.46	58546.16
541.62	58745.11
541.79	58754.47
541.96	57979.75
542.13	57783.15
542.30	58412.75
542.47	58534.46
542.63	58024.22
542.80	58019.54
542.97	58183.38
543.14	58026.56
543.31	58110.82
543.48	58560.20
543.64	59299.81
543.81	59601.74
543.98	59365.35
544.15	58702.98
544.32	58307.43
544.48	58134.23
544.65	58532.12
544.82	58969.80
544.99	58670.21
545.16	58445.52
545.32	58073.37
545.49	58784.90
545.66	59241.30
545.83	58864.47
546.00	58611.70
546.16	58136.57
546.33	58379.98
546.50	58159.97
546.67	58567.23
546.83	58326.15
547.00	58457.22
547.17	57989.11
547.34	57041.20
547.50	57097.37
547.67	57670.80
547.84	57638.03
548.00	57972.73
548.17	58305.09
548.34	58206.78
548.51	58358.92
548.67	58445.52
548.84	58277.00
549.01	58438.50
549.18	58110.82
549.34	58127.20
549.51	58431.47
549.68	58169.33
549.84	58007.84
550.01	58040.60
550.18	57600.58
550.34	57752.72
550.51	57834.64
550.68	57846.34
550.84	57244.82
551.01	57427.38
551.18	57457.81
551.34	57785.49
551.51	57827.62
551.68	58342.53
551.84	58265.30
552.01	58005.50
552.18	57930.60
552.34	57214.40
552.51	56875.02
552.68	56837.57
552.84	57127.80
553.01	57656.76
553.18	57607.61
553.34	57588.88
553.51	57928.26
553.67	57914.22
553.84	58089.76
554.01	57972.73
554.17	57663.78
554.34	58010.18
554.51	57769.10
554.67	58061.67
554.84	58033.58
555.00	57712.93
555.17	57312.70
555.33	57528.03
555.50	57347.81
555.67	57535.05
555.83	57315.04
556.00	57198.01
556.16	56968.64
556.33	56633.94
556.50	56636.28
556.66	56472.45
556.83	56252.44
556.99	56383.51
557.16	56364.78
557.32	56851.61
557.49	56788.42
557.65	56980.34
557.82	57013.11
557.98	56671.39
558.15	56224.35
558.32	55442.61
558.48	54710.02
558.65	55002.59
558.81	55246.00
558.98	55613.47
559.14	56011.36
559.31	55980.93
559.47	55994.98
559.64	55620.49
559.80	55173.45
559.97	55437.93
560.13	55758.58
560.30	56540.32
560.46	57146.52
560.63	57368.87
560.79	57312.70
560.96	56970.98
561.12	55819.44
561.29	54873.86
561.45	54915.99
561.61	55627.51
561.78	55941.14
561.94	55901.36
562.11	55707.09
562.27	55487.08
562.44	55854.54
562.60	56065.19
562.77	56437.34
562.93	56444.36
563.10	56217.33
563.26	55683.69
563.42	55529.21
563.59	55625.17
563.75	55601.77
563.92	55477.72
564.08	55566.66
564.24	55894.33
564.41	55826.46
564.57	55831.14
564.74	55533.89
564.90	55561.98
565.07	55309.20
565.23	54841.09
565.39	54742.79
565.56	54068.72
565.72	53862.75
565.88	54520.44
566.05	54525.12
566.21	54738.11
566.38	54815.35
566.54	54810.67
566.70	55414.52
566.87	55496.44
567.03	55386.44
567.19	55674.32
567.36	55114.94
567.52	55356.01
567.68	55363.03
567.85	54330.86
568.01	54080.42
568.17	53799.55
568.34	53771.47
568.50	53734.02
568.66	53883.81
568.83	54454.90
568.99	53949.35
569.15	54232.55
569.32	54405.75
569.48	54234.89
569.64	53766.79
569.81	53642.74
569.97	53600.61
570.13	53687.21
570.30	53148.88
570.46	52587.16
570.62	52060.54
570.78	52009.04
570.95	52264.16
571.11	53043.56
571.27	53352.51
571.43	53392.30
571.60	53773.81
571.76	53649.76
571.92	54143.61
572.09	54213.83
572.25	54251.28
572.41	54255.96
572.57	54075.74
572.74	54110.85
572.90	53925.94
573.06	53687.21
573.22	53724.66
573.38	53432.09
573.55	53757.42
573.71	54010.20
573.87	53820.62
574.03	53640.40
574.20	53474.22
574.36	53305.70
574.52	52963.98
574.68	52985.05
574.84	52746.31
575.01	52116.71
575.17	51978.62
575.33	52360.12
575.49	52605.88
575.65	52828.23
575.82	52383.53
575.98	51957.55
576.14	52570.77
576.30	53237.83
576.46	52940.58
576.62	52886.74
576.79	52734.61
576.95	52175.22
577.11	52451.41
577.27	52622.26
577.43	52545.03
577.59	52463.11
577.75	51657.96
577.92	51178.15
578.08	51051.76
578.24	50939.42
578.40	51217.94
578.56	51552.64
578.72	51770.31
578.88	52226.71
579.04	52072.24
579.21	51894.36
579.37	51955.21
579.53	52011.38
579.69	52133.09
579.85	52657.37
580.01	52257.14
580.17	51774.99
580.33	51583.07
580.49	51779.67
580.65	52177.56
580.82	52151.82
580.98	52126.07
581.14	51873.29
581.30	52102.67
581.46	52013.73
581.62	51896.70
581.78	52114.37
581.94	52271.18
582.10	52374.17
582.26	52350.76
582.42	51997.34
582.58	51999.68
582.74	52079.26
582.90	52186.92
583.06	52203.31
583.22	51941.17
583.38	51688.39
583.54	52039.47
583.70	51892.02
583.86	51760.95
584.02	51618.17
584.18	51915.42
584.34	52105.01
584.50	51627.54
584.66	51456.68
584.82	50953.46
584.98	51159.43
585.14	50948.78
585.30	50251.30
