SpectraSuite Data File
++++++++++++++++++++++++++++++++++++
Date: Mon Oct 07 14:55:02 GMT-05:00 2013
User: price-jones
Dark Spectrum Present: No
Reference Spectrum Present: No
Number of Sampled Component Spectra: 1
Spectrometers: USB2+H05261
Integration Time (usec): 10000 (USB2+H05261)
Spectra Averaged: 1 (USB2+H05261)
Boxcar Smoothing: 0 (USB2+H05261)
Correct for Electrical Dark: No (USB2+H05261)
Strobe/Lamp Enabled: No (USB2+H05261)
Correct for Detector Non-linearity: No (USB2+H05261)
Correct for Stray Light: No (USB2+H05261)
Number of Pixels in Processed Spectrum: 2048
>>>>>Begin Processed Spectral Data<<<<<
365.73	0.00
365.92	0.00
366.12	0.00
366.32	0.00
366.52	0.00
366.72	0.00
366.91	0.00
367.11	0.00
367.31	0.00
367.51	0.00
367.70	0.00
367.90	0.00
368.10	0.00
368.30	0.00
368.49	0.00
368.69	0.00
368.89	0.00
369.09	0.00
369.28	0.00
369.48	0.00
369.68	0.00
369.87	0.00
370.07	0.00
370.27	0.00
370.47	512.58
370.66	2785.24
370.86	3178.45
371.06	3379.73
371.25	3471.01
371.45	3080.14
371.65	2689.28
371.84	2686.94
372.04	2958.44
372.24	3253.34
372.44	3386.76
372.63	3089.51
372.83	2846.09
373.03	2665.87
373.22	2417.77
373.42	2665.87
373.62	2939.71
373.81	3370.37
374.01	3089.51
374.21	2785.24
374.40	2668.21
374.60	2857.79
374.79	3185.47
374.99	3831.46
375.19	3822.09
375.38	3836.14
375.58	3719.11
375.78	3686.34
375.97	3644.21
376.17	3648.90
376.37	3838.48
376.56	3990.61
376.76	4355.74
376.95	4545.32
377.15	4882.36
377.35	4968.96
377.54	5226.42
377.74	5331.74
377.93	5289.61
378.13	4938.53
378.33	4805.12
378.52	4463.40
378.72	4255.09
378.91	4243.39
379.11	4098.28
379.31	3999.98
379.50	4046.79
379.70	4315.95
379.89	4812.14
380.09	4983.00
380.28	5235.78
380.48	5331.74
380.68	5156.20
380.87	4882.36
381.07	4545.32
381.26	4091.26
381.46	3925.08
381.65	3815.07
381.85	3775.28
382.04	3604.42
382.24	3321.22
382.43	3234.62
382.63	3117.59
382.83	3164.40
383.02	3112.91
383.22	3056.74
383.41	3197.17
383.61	3372.71
383.80	3983.59
384.00	4601.49
384.19	5123.43
384.39	5207.69
384.58	5275.57
384.78	5011.09
384.97	4964.28
385.17	4674.05
385.36	4456.38
385.56	4294.88
385.75	4795.76
385.95	5198.33
386.14	5469.83
386.34	5341.10
386.53	5116.41
386.72	4830.87
386.92	4954.91
387.11	5144.50
387.31	5411.32
387.50	5331.74
387.70	5093.01
387.89	5104.71
388.09	5132.79
388.28	5200.67
388.48	5270.89
388.67	5738.99
388.86	6527.75
389.06	6792.23
389.25	6977.14
389.45	7005.22
389.64	6871.81
389.84	6736.06
390.03	6785.21
390.22	6993.52
390.42	7281.41
390.61	7686.32
390.81	8177.83
391.00	8154.43
391.19	8189.53
391.39	7768.24
391.58	7391.41
391.78	6775.85
391.97	6733.72
392.16	6073.69
392.36	5413.66
392.55	4332.33
392.75	3454.63
392.94	2717.36
393.13	2981.84
393.33	4011.68
393.52	4919.81
393.71	5799.85
393.91	6305.40
394.10	6995.86
394.29	8023.36
394.49	8276.13
394.68	8844.88
394.88	8968.93
395.07	9097.66
395.26	8957.23
395.46	8575.72
395.65	7957.82
395.84	6916.28
396.04	5575.16
396.23	4568.73
396.42	3826.78
396.62	4182.54
396.81	4954.91
397.00	6216.46
397.19	7918.03
397.39	9338.74
397.58	10251.55
397.77	10487.94
397.97	11080.10
398.16	11276.70
398.35	11524.80
398.55	11875.88
398.74	12217.60
398.93	12538.25
399.12	12376.75
399.32	12063.12
399.51	12351.01
399.70	13029.76
399.90	12627.19
400.09	12683.36
400.28	12697.41
400.47	13123.38
400.67	13432.33
400.86	13816.18
401.05	13951.93
401.24	13846.61
401.44	14092.37
401.63	14171.94
401.82	14319.40
402.01	14270.25
402.21	14803.89
402.40	14569.83
402.59	13881.72
402.78	13256.79
402.97	13135.09
403.17	13820.86
403.36	14717.29
403.55	14768.78
403.74	15122.20
403.93	14445.79
404.13	12945.50
404.32	13348.08
404.51	13923.85
404.70	14736.01
404.89	14794.53
405.09	14789.85
405.28	14090.02
405.47	14193.01
405.66	14157.90
405.85	13944.91
406.05	13547.02
406.24	13703.84
406.43	14288.97
406.62	14766.44
406.81	14890.49
407.00	14649.41
407.20	14193.01
407.39	14190.67
407.58	14979.43
407.77	15492.01
407.96	16210.55
408.15	16496.10
408.34	16692.70
408.54	17048.46
408.73	17001.65
408.92	16608.44
409.11	16180.12
409.30	15393.70
409.49	14008.11
409.68	13315.31
409.87	13362.12
410.07	14455.15
410.26	15513.07
410.45	16222.25
410.64	16704.40
410.83	17399.54
411.02	17647.64
411.21	18274.90
411.40	17652.32
411.59	18260.86
411.78	18022.12
411.98	17984.68
412.17	18188.30
412.36	17628.92
412.55	17539.97
412.74	17221.66
412.93	16987.61
413.12	17729.56
413.31	19131.54
413.50	19138.56
413.69	19108.13
413.88	18345.12
414.07	18097.02
414.26	18640.03
414.45	19063.66
414.64	18979.40
414.83	18761.73
415.02	18670.45
415.22	18654.07
415.41	19264.95
415.60	19932.00
415.79	20423.51
415.98	20779.28
416.17	20650.55
416.36	20252.66
416.55	20168.40
416.74	19176.01
416.93	18988.77
417.12	19267.29
417.31	19466.24
417.50	19494.32
417.69	20266.70
417.88	20226.91
418.07	19983.49
418.26	19630.07
418.45	20215.21
418.64	20861.19
418.83	21813.79
419.02	20982.90
419.21	20524.16
419.39	19976.47
419.58	19000.47
419.77	19293.04
419.96	20713.74
420.15	21778.68
420.34	22129.77
420.53	22593.19
420.72	23040.23
420.91	22359.14
421.10	22169.55
421.29	21865.28
421.48	21521.23
421.67	22906.82
421.86	21376.11
422.05	19372.61
422.24	17996.38
422.43	18916.21
422.61	21172.49
422.80	22237.43
422.99	21240.36
423.18	20472.67
423.37	20650.55
423.56	20816.72
423.75	21483.78
423.94	21659.32
424.13	20769.91
424.32	20475.01
424.50	20166.06
424.69	20996.95
424.88	21039.08
425.07	20753.53
425.26	20503.09
425.45	20093.50
425.64	19594.96
425.83	20365.00
426.01	21242.70
426.20	21404.20
426.39	21223.98
426.58	19632.41
426.77	18143.83
426.96	18572.15
427.15	19023.87
427.33	20559.27
427.52	21062.48
427.71	21294.19
427.90	20549.90
428.09	20652.89
428.28	19992.86
428.46	18787.48
428.65	19098.77
428.84	19880.51
429.03	19601.99
429.22	18752.37
429.40	17249.75
429.59	15784.57
429.78	14024.49
429.97	14583.88
430.16	14359.19
430.34	14373.23
430.53	15014.54
430.72	15749.46
430.91	17116.34
431.10	20439.90
431.28	23498.98
431.47	25450.99
431.66	24393.06
431.85	22001.04
432.03	20421.17
432.22	20475.01
432.41	22176.58
432.60	23618.35
432.79	24285.40
432.97	24250.29
433.16	23510.68
433.35	20989.92
433.54	19110.47
433.72	18745.35
433.91	19948.39
434.10	22504.25
434.28	23496.64
434.47	24744.14
434.66	23632.39
434.85	23084.70
435.03	23821.97
435.22	23714.31
435.41	25296.51
435.59	25689.72
435.78	25661.63
435.97	26347.41
436.16	26185.91
436.34	25809.09
436.53	25404.17
436.72	25834.83
436.90	24526.47
437.09	23960.06
437.28	24013.90
437.46	24889.26
437.65	23807.93
437.84	22160.19
438.02	21118.65
438.21	21642.93
438.40	22253.81
438.58	23934.32
438.77	24847.13
438.96	25097.56
439.14	26492.52
439.33	26546.36
439.52	27026.17
439.70	26015.05
439.89	24849.47
440.08	24985.22
440.26	25642.91
440.45	26335.71
440.63	28219.84
440.82	28673.90
441.01	28212.82
441.19	28013.87
441.38	29401.81
441.57	29898.00
441.75	30031.41
441.94	29907.37
442.12	29675.65
442.31	31276.58
442.50	30195.25
442.68	30305.26
442.87	30120.35
443.05	29621.82
443.24	30630.59
443.43	30998.06
443.61	31297.64
443.80	31622.98
443.98	30342.70
444.17	30008.01
444.35	31641.70
444.54	32163.64
444.73	31061.25
444.91	30174.19
445.10	28793.27
445.28	27747.05
445.47	27896.85
445.65	27871.10
445.84	28914.98
446.02	29252.02
446.21	29799.70
446.39	30232.70
446.58	30764.00
446.77	31527.02
446.95	31847.67
447.14	32524.08
447.32	32570.90
447.51	32067.68
447.69	30962.95
447.88	30904.43
448.06	31227.43
448.25	31805.54
448.43	31562.12
448.62	31063.59
448.80	30806.13
448.99	31091.68
449.17	31810.22
449.36	32322.80
449.54	33441.57
449.73	33216.88
449.91	33785.63
450.10	34738.23
450.28	35189.95
450.46	35138.46
450.65	34923.13
450.83	34785.04
451.02	34209.27
451.20	33567.96
451.39	33900.32
451.57	34029.05
451.76	33914.36
451.94	33156.03
452.13	31917.89
452.31	30188.23
452.49	29113.92
452.68	30108.65
452.86	30607.19
453.05	31178.28
453.23	32488.98
453.42	32952.40
453.60	33666.27
453.78	33507.11
453.97	33369.02
454.15	33181.77
454.34	31620.64
454.52	32259.60
454.70	31459.14
454.89	32212.79
455.07	32400.04
455.26	33263.69
455.44	34071.18
455.62	34749.93
455.81	34735.89
455.99	34394.17
456.17	34347.36
456.36	35391.24
456.54	35157.19
456.73	35538.69
456.91	35159.53
457.09	35875.73
457.28	36704.28
457.46	34859.94
457.64	34714.83
457.83	33816.06
458.01	33724.78
458.19	34829.51
458.38	35491.88
458.56	35817.22
458.74	35131.44
458.93	34670.36
459.11	34284.17
459.29	34005.64
459.48	34976.97
459.66	34611.84
459.84	34689.08
460.03	35093.99
460.21	35936.59
460.39	36374.27
460.57	36287.67
460.76	35887.43
460.94	36407.03
461.12	36919.61
461.31	35981.06
461.49	36421.08
461.67	37083.45
461.85	37544.53
462.04	37312.82
462.22	37359.63
462.40	36701.94
462.59	36556.83
462.77	37127.92
462.95	36402.35
463.13	36662.15
463.32	35496.56
463.50	35770.41
463.68	36004.46
463.86	36631.72
464.05	35470.82
464.23	34717.17
464.41	35227.40
464.59	34448.00
464.78	36243.20
464.96	35557.42
465.14	34586.10
465.32	36748.75
465.50	37961.15
465.69	38518.20
465.87	37111.53
466.05	36158.94
466.23	34431.62
466.41	33523.49
466.60	34698.44
466.78	34431.62
466.96	34951.22
467.14	35971.69
467.32	35992.76
467.51	35976.37
467.69	34728.87
467.87	35236.77
468.05	35974.03
468.23	35789.13
468.41	35840.62
468.60	36449.16
468.78	36737.05
468.96	36357.88
469.14	37046.00
469.32	37120.90
469.50	34705.46
469.69	35269.53
469.87	35047.18
470.05	34782.70
470.23	35416.99
470.41	35435.71
470.59	35772.75
470.77	35899.14
470.95	36322.77
471.14	37186.43
471.32	37207.50
471.50	39129.08
471.68	39103.33
471.86	39414.62
472.04	39323.34
472.22	39330.36
472.40	37827.74
472.58	37727.10
472.77	37565.60
472.95	38094.56
473.13	39543.35
473.31	37741.14
473.49	38192.86
473.67	39199.29
473.85	39278.87
474.03	40629.36
474.21	41015.55
474.39	41434.50
474.57	40940.65
474.75	41280.03
474.93	40573.19
475.12	39285.89
475.30	40095.72
475.48	39000.35
475.66	40280.62
475.84	39255.46
476.02	39999.76
476.20	38841.19
476.38	39920.18
476.56	41221.52
476.74	41546.85
476.92	42054.75
477.10	41584.30
477.28	43370.13
477.46	43194.59
477.64	44601.25
477.82	44177.61
478.00	44105.06
478.18	43316.29
478.36	42588.39
478.54	43569.07
478.72	44086.33
478.90	45605.34
479.08	46962.85
479.26	46110.89
479.44	46993.28
479.62	45904.93
479.80	46976.89
479.98	46344.95
480.16	46967.53
480.34	45649.81
480.52	47557.35
480.70	47021.36
480.88	47056.47
481.06	47196.90
481.24	48004.39
481.41	48849.32
481.59	49331.47
481.77	48142.48
481.95	48390.58
482.13	48367.17
482.31	49074.01
482.49	49790.22
482.67	48900.81
482.85	48844.64
483.03	49441.48
483.21	50326.20
483.39	49703.62
483.57	49556.16
483.74	49659.15
483.92	49546.80
484.10	49705.96
484.28	49668.51
484.46	50003.20
484.64	51016.66
484.82	50604.72
485.00	49822.98
485.18	49099.76
485.35	47122.01
485.53	41483.66
485.71	39405.26
485.89	40425.73
486.07	43973.98
486.25	46066.42
486.43	48151.84
486.61	48739.32
486.78	48123.75
486.96	49659.15
487.14	50607.06
487.32	51288.16
487.50	52395.23
487.68	53254.21
487.85	53844.02
488.03	53010.79
488.21	52746.31
488.39	52505.24
488.57	51250.71
488.75	50981.55
488.92	52664.39
489.10	54365.96
489.28	54988.55
489.46	56177.54
489.64	55945.83
489.81	56364.78
489.99	55466.02
490.17	55522.19
490.35	55917.74
490.53	55770.28
490.70	55554.96
490.88	55187.49
491.06	56322.65
491.24	56523.94
491.41	55590.06
491.59	54101.48
491.77	53989.14
491.95	54698.32
492.13	56205.62
492.30	56350.74
492.48	57301.00
492.66	57586.54
492.84	57057.58
493.01	56910.13
493.19	56797.78
493.37	56484.15
493.54	56552.02
493.72	57766.76
493.90	58061.67
494.08	58454.88
494.25	58599.99
494.43	59185.13
494.61	59529.19
494.79	59405.14
494.96	59657.91
495.14	59128.95
495.32	57876.77
495.49	58026.56
495.67	58915.96
495.85	59700.04
496.02	60416.25
496.20	59533.87
496.38	59143.00
496.55	59414.50
496.73	59983.25
496.91	60294.54
497.09	60205.60
497.26	60732.22
497.44	59908.35
497.62	59395.77
497.79	58447.86
497.97	57631.01
498.14	58520.41
498.32	59760.90
498.50	59620.47
498.67	59653.23
498.85	59756.22
499.03	60266.45
499.20	60481.78
499.38	59969.21
499.56	59187.47
499.73	59241.30
499.91	59299.81
500.08	58443.18
500.26	58279.34
500.44	59002.56
500.61	59323.22
500.79	59135.98
500.97	59278.75
501.14	58426.79
501.32	57951.66
501.49	58253.59
501.67	58892.56
501.84	58990.86
502.02	59653.23
502.20	60041.76
502.37	60069.85
502.55	60285.18
502.72	60853.93
502.90	61181.60
503.07	60830.52
503.25	60069.85
503.43	59117.25
503.60	58794.26
503.78	58700.64
503.95	59276.41
504.13	60210.28
504.30	60690.09
504.48	59767.92
504.65	60360.08
504.83	60151.77
505.01	61043.51
505.18	61317.35
505.36	62003.13
505.53	61731.63
505.71	61577.15
505.88	62045.26
506.06	61490.55
506.23	61336.08
506.41	61045.85
506.58	61130.11
506.76	61099.68
506.93	60437.31
507.11	60488.80
507.28	60802.44
507.46	59978.57
507.63	60437.31
507.81	59620.47
507.98	59868.56
508.16	61226.07
508.33	61228.41
508.50	61265.86
508.68	61825.25
508.85	62075.69
509.03	62499.33
509.20	61731.63
509.38	61008.40
509.55	61120.75
509.73	61275.22
509.90	61254.16
510.08	61434.38
510.25	61083.30
510.42	60954.57
510.60	61214.37
510.77	61673.12
510.95	61635.67
511.12	61979.73
511.30	62677.21
511.47	62918.28
511.64	62731.04
511.82	62649.12
511.99	61626.31
512.17	61520.98
512.34	60898.40
512.51	61329.06
512.69	61722.27
512.86	61078.62
513.04	61565.45
513.21	61015.43
513.38	60488.80
513.56	60006.65
513.73	59702.38
513.90	60657.32
514.08	60683.07
514.25	60493.49
514.43	61097.34
514.60	61116.07
514.77	61422.68
514.95	61532.68
515.12	61357.14
515.29	61729.29
515.47	62309.74
515.64	62225.48
515.81	61914.19
515.99	60900.74
516.16	59112.57
516.33	57141.84
516.51	57006.09
516.68	55580.70
516.85	55009.61
517.03	56786.08
517.20	58714.68
517.37	60809.46
517.54	61537.36
517.72	60308.58
517.89	57525.69
518.06	56163.50
518.24	57219.08
518.41	59096.19
518.58	60268.79
518.75	60451.36
518.93	60327.31
519.10	60114.32
519.27	60860.95
519.45	61392.25
519.62	61986.75
519.79	62089.73
519.96	61432.04
520.14	61083.30
520.31	60009.00
520.48	60093.25
520.65	61254.16
520.83	62239.53
521.00	62005.47
521.17	61446.08
521.34	61563.11
521.52	62063.99
521.69	62274.63
521.86	62562.52
522.03	61965.68
522.20	60725.20
522.38	60011.34
522.55	60580.09
522.72	61123.09
522.89	60512.21
523.07	61333.74
523.24	61853.34
523.41	62443.15
523.58	62731.04
523.75	62880.83
523.92	62646.78
524.10	62583.58
524.27	62103.77
524.44	61822.91
524.61	61251.82
524.78	61797.16
524.96	62003.13
525.13	61902.49
525.30	62649.12
525.47	62803.59
525.64	62775.51
525.81	61909.51
525.98	60266.45
526.16	58869.15
526.33	59154.70
526.50	58731.06
526.67	58635.10
526.84	59348.96
527.01	60210.28
527.18	60715.84
527.36	61347.78
527.53	62122.50
527.70	61865.04
527.87	60692.43
528.04	61506.94
528.21	62092.07
528.38	62501.67
528.55	63372.34
528.72	62962.75
528.89	62653.80
529.07	62560.18
529.24	61499.92
529.41	61200.33
529.58	61406.30
529.75	62211.44
529.92	62295.70
530.09	62159.95
530.26	62981.48
530.43	63575.97
530.60	62478.26
530.77	63309.15
530.94	63332.56
531.11	62307.40
531.28	62333.15
531.46	62358.89
531.63	62466.56
531.80	62101.43
531.97	61813.55
532.14	61558.43
532.31	60196.24
532.48	59496.42
532.65	60128.36
532.82	60615.19
532.99	62049.94
533.16	62232.50
533.33	62496.98
533.50	62340.17
533.67	62031.22
533.84	61680.14
534.01	61923.55
534.18	61902.49
534.35	61666.09
534.52	61087.98
534.69	61944.62
534.86	62389.32
535.03	62527.41
535.20	62557.84
535.37	63175.74
535.54	63208.51
535.71	62782.53
535.88	63229.57
536.05	61829.93
536.22	61394.59
536.38	61375.87
536.55	60898.40
536.72	60273.48
536.89	61118.41
537.06	60952.23
537.23	61598.22
537.40	61364.17
537.57	61092.66
537.74	61820.57
537.91	61825.25
538.08	61696.52
538.25	61930.58
538.42	62653.80
538.59	62176.33
538.75	61446.08
538.92	60851.59
539.09	61207.35
539.26	60870.31
539.43	60610.51
539.60	60528.59
539.77	61291.61
539.94	60933.51
540.11	60254.75
540.28	59866.22
540.44	59735.15
540.61	59840.48
540.78	60395.18
540.95	60783.71
541.12	61048.19
541.29	61240.12
541.46	61317.35
541.62	61673.12
541.79	60975.64
541.96	60336.67
542.13	60725.20
542.30	60552.00
542.47	61022.45
542.63	61092.66
542.80	60781.37
542.97	60364.76
543.14	60280.50
543.31	60793.07
543.48	61497.58
543.64	61729.29
543.81	62536.77
543.98	62468.90
544.15	61071.60
544.32	61520.98
544.48	61162.88
544.65	60903.08
544.82	61478.85
544.99	60275.82
545.16	60214.96
545.32	60540.30
545.49	61062.24
545.66	60853.93
545.83	60985.00
546.00	61303.31
546.16	61059.90
546.33	60835.20
546.50	61052.87
546.67	61602.90
546.83	60963.93
547.00	61329.06
547.17	60051.12
547.34	59185.13
547.50	59447.27
547.67	60294.54
547.84	61006.06
548.00	61228.41
548.17	60821.16
548.34	61233.10
548.51	61132.45
548.67	60931.17
548.84	61090.32
549.01	61343.10
549.18	60872.65
549.34	60870.31
549.51	61296.29
549.68	61471.83
549.84	60687.75
550.01	60083.89
550.18	60104.96
550.34	60273.48
550.51	60432.63
550.68	60863.29
550.84	61113.73
551.01	60039.42
551.18	60130.70
551.34	59898.99
551.51	61071.60
551.68	60905.42
551.84	61509.28
552.01	60830.52
552.18	60416.25
552.34	59700.04
552.51	59311.52
552.68	59487.06
552.84	59959.84
553.01	59786.64
553.18	60186.88
553.34	60233.69
553.51	60584.77
553.67	60519.23
553.84	60432.63
554.01	61043.51
554.17	60285.18
554.34	60495.83
554.51	60355.39
554.67	59517.48
554.84	59955.16
555.00	59484.72
555.17	59728.13
555.33	59552.59
555.50	59175.76
555.67	59903.67
555.83	59950.48
556.00	59643.87
556.16	59388.75
556.33	59234.28
556.50	59374.71
556.66	59484.72
556.83	59004.91
556.99	58838.73
557.16	59529.19
557.32	58951.07
557.49	59484.72
557.65	59203.85
557.82	59547.91
557.98	59831.11
558.15	58768.51
558.32	58412.75
558.48	57956.35
558.65	57862.72
558.81	58047.63
558.98	59061.08
559.14	59093.85
559.31	58679.57
559.47	58401.05
559.64	58543.82
559.80	57829.96
559.97	58616.38
560.13	59100.87
560.30	60039.42
560.46	60430.29
560.63	60591.79
560.79	60388.16
560.96	59632.17
561.12	58557.86
561.29	58520.41
561.45	58389.34
561.61	59309.18
561.78	58555.52
561.94	58960.44
562.11	58995.54
562.27	58171.67
562.44	59295.13
562.60	59508.12
562.77	59709.41
562.93	58951.07
563.10	58920.65
563.26	58906.60
563.42	59292.79
563.59	59032.99
563.75	58473.60
563.92	58433.81
564.08	58115.50
564.24	58934.69
564.41	58431.47
564.57	59182.79
564.74	58878.52
564.90	58358.92
565.07	58056.99
565.23	57275.25
565.39	56753.31
565.56	57312.70
565.72	57689.52
565.88	56750.97
566.05	58644.46
566.21	58482.97
566.38	58166.99
566.54	58649.14
566.70	59227.26
566.87	58857.45
567.03	58403.39
567.19	59480.03
567.36	59559.61
567.52	58066.35
567.68	57757.40
567.85	57256.53
568.01	57588.88
568.17	57663.78
568.34	57726.97
568.50	57251.84
568.66	57207.37
568.83	56804.80
568.99	57015.45
569.15	57251.84
569.32	56982.68
569.48	57155.88
569.64	57368.87
569.81	56989.70
569.97	56790.76
570.13	55952.85
570.30	55491.76
570.46	54965.14
570.62	54354.26
570.78	55049.40
570.95	55709.43
571.11	56041.79
571.27	55725.81
571.43	55969.23
571.60	55962.21
571.76	56891.40
571.92	57043.54
572.09	57558.45
572.25	56870.34
572.41	57118.43
572.57	57006.09
572.74	57422.70
572.90	58408.07
573.06	57752.72
573.22	57579.52
573.38	57518.67
573.55	58635.10
573.71	57272.91
573.87	57144.18
574.03	57357.17
574.20	56933.53
574.36	56774.37
574.52	56156.47
574.68	56027.74
574.84	55306.86
575.01	55475.38
575.17	55524.53
575.33	56060.51
575.49	56037.11
575.65	54979.18
575.82	55250.69
575.98	55695.39
576.14	56554.36
576.30	57027.15
576.46	55405.16
576.62	55973.91
576.79	56191.58
576.95	56362.44
577.11	56409.25
577.27	56126.05
577.43	56303.93
577.59	55634.53
577.75	54990.89
577.92	54953.44
578.08	55037.70
578.24	55304.52
578.40	55208.56
578.56	54351.92
578.72	54920.67
578.88	54733.43
579.04	55107.91
579.21	54703.00
579.37	55028.34
579.53	55346.65
579.69	54894.92
579.85	54660.87
580.01	54824.71
580.17	54307.45
580.33	55398.14
580.49	55423.89
580.65	54232.55
580.82	55077.49
580.98	55466.02
581.14	55662.62
581.30	55250.69
581.46	54614.06
581.62	55217.92
581.78	55690.71
581.94	55910.72
582.10	55744.54
582.26	55838.16
582.42	55826.46
582.58	54937.05
582.74	55084.51
582.90	55084.51
583.06	55540.91
583.22	55456.65
583.38	55262.39
583.54	55611.13
583.70	55896.67
583.86	55655.60
584.02	54721.72
584.18	54719.38
584.34	54190.42
584.50	54433.84
584.66	54384.69
584.82	54557.89
584.98	54667.89
585.14	54012.54
585.30	54176.38
