SpectraSuite Data File
++++++++++++++++++++++++++++++++++++
Date: Mon Oct 07 14:53:10 GMT-05:00 2013
User: price-jones
Dark Spectrum Present: No
Reference Spectrum Present: No
Number of Sampled Component Spectra: 1
Spectrometers: USB2+H05261
Integration Time (usec): 100000 (USB2+H05261)
Spectra Averaged: 1 (USB2+H05261)
Boxcar Smoothing: 0 (USB2+H05261)
Correct for Electrical Dark: No (USB2+H05261)
Strobe/Lamp Enabled: No (USB2+H05261)
Correct for Detector Non-linearity: No (USB2+H05261)
Correct for Stray Light: No (USB2+H05261)
Number of Pixels in Processed Spectrum: 2048
>>>>>Begin Processed Spectral Data<<<<<
365.73	0.00
365.92	0.00
366.12	0.00
366.32	0.00
366.52	0.00
366.72	0.00
366.91	0.00
367.11	0.00
367.31	0.00
367.51	0.00
367.70	0.00
367.90	0.00
368.10	0.00
368.30	0.00
368.49	0.00
368.69	0.00
368.89	0.00
369.09	0.00
369.28	0.00
369.48	0.00
369.68	0.00
369.87	0.00
370.07	0.00
370.27	0.00
370.47	791.10
370.66	3585.70
370.86	4161.47
371.06	4243.39
371.25	4400.21
371.45	3908.69
371.65	3581.02
371.84	3463.99
372.04	3597.40
372.24	3946.14
372.44	4234.03
372.63	3981.25
372.83	3864.22
373.03	3492.08
373.22	3119.93
373.42	3211.22
373.62	3632.51
373.81	4018.70
374.01	4023.38
374.21	3618.47
374.40	3351.65
374.60	3637.19
374.79	4044.45
374.99	4678.73
375.19	4910.44
375.38	4945.55
375.58	4851.93
375.78	4674.05
375.97	4657.67
376.17	4856.61
376.37	4854.27
376.56	5083.64
376.76	5235.78
376.95	5724.95
377.15	5872.40
377.35	6230.51
377.54	6399.02
377.74	6782.87
377.93	6665.85
378.13	6513.71
378.33	6143.91
378.52	5666.44
378.72	5483.88
378.91	5315.36
379.11	5320.04
379.31	4954.91
379.50	5078.96
379.70	5458.13
379.89	6097.10
380.09	6164.97
380.28	6581.59
380.48	6445.84
380.68	6284.34
380.87	6284.34
381.07	5666.44
381.26	5317.70
381.46	4973.64
381.65	4816.82
381.85	4762.99
382.04	4465.74
382.24	4203.60
382.43	3992.95
382.63	3859.54
382.83	3887.63
383.02	3901.67
383.22	4014.02
383.41	3831.46
383.61	4168.49
383.80	4781.71
384.00	5432.38
384.19	6052.63
384.39	6361.58
384.58	6387.32
384.78	6431.79
384.97	6139.23
385.17	5951.98
385.36	5535.37
385.56	5275.57
385.75	5619.63
385.95	6223.48
386.14	6509.03
386.34	6523.07
386.53	6314.77
386.72	5872.40
386.92	6022.20
387.11	6298.38
387.31	6757.13
387.50	6513.71
387.70	6209.44
387.89	6148.59
388.09	6349.87
388.28	6483.28
388.48	6244.55
388.67	6630.74
388.86	7602.06
389.06	8189.53
389.25	8454.02
389.45	8442.31
389.64	8489.12
389.84	8332.31
390.03	8297.20
390.22	8320.60
390.42	8805.10
390.61	9245.12
390.81	9767.06
391.00	9863.02
391.19	9760.03
391.39	9500.23
391.58	8924.46
391.78	8262.09
391.97	8131.02
392.16	7569.29
392.36	7040.33
392.55	5528.35
392.75	4437.66
392.94	3843.16
393.13	3623.15
393.33	4217.65
393.52	5591.54
393.71	6820.32
393.91	7637.17
394.10	8163.79
394.29	8924.46
394.49	9535.34
394.68	10361.55
394.88	10478.58
395.07	10775.83
395.26	10572.20
395.46	10289.00
395.65	9745.99
395.84	8681.05
396.04	7199.49
396.23	5727.29
396.42	4882.36
396.62	4608.51
396.81	5568.13
397.00	7187.79
397.19	8809.78
397.39	10394.32
397.58	12039.72
397.77	12629.53
397.97	13163.17
398.16	13149.13
398.35	13638.30
398.55	13937.89
398.74	14455.15
398.93	14981.77
399.12	14668.14
399.32	13975.34
399.51	14478.55
399.70	15606.69
399.90	15353.91
400.09	15066.03
400.28	15159.65
400.47	15145.61
400.67	15882.88
400.86	16587.38
401.05	16262.04
401.24	16669.30
401.44	16702.06
401.63	16996.97
401.82	16795.68
402.01	16596.74
402.21	16863.56
402.40	17088.25
402.59	16741.85
402.78	15913.30
402.97	15571.58
403.17	15992.88
403.36	16809.73
403.55	17577.42
403.74	17809.14
403.93	17036.76
404.13	15693.29
404.32	15494.35
404.51	16154.38
404.70	17493.16
404.89	17446.35
405.09	17039.10
405.28	16624.83
405.47	16641.21
405.66	16456.31
405.85	16334.60
406.05	15793.94
406.24	16009.26
406.43	16776.96
406.62	17252.09
406.81	17284.86
407.00	16608.44
407.20	16395.45
407.39	16456.31
407.58	17224.00
407.77	17855.95
407.96	18576.83
408.15	18750.03
408.34	18897.49
408.54	19417.08
408.73	20121.59
408.92	19470.92
409.11	18916.21
409.30	18141.49
409.49	17003.99
409.68	16182.46
409.87	15487.32
410.07	16421.20
410.26	17523.59
410.45	18604.92
410.64	19115.16
410.83	19604.33
411.02	20175.42
411.21	20987.58
411.40	20842.47
411.59	20929.07
411.78	20982.90
411.98	20638.84
412.17	20760.55
412.36	20112.22
412.55	20568.63
412.74	19950.73
412.93	19419.42
413.12	19791.57
413.31	21563.36
413.50	21741.24
413.69	22359.14
413.88	21055.46
414.07	20746.51
414.26	21153.76
414.45	21694.43
414.64	21706.13
414.83	21905.07
415.02	21624.21
415.22	21649.96
415.41	21806.77
415.60	22387.22
415.79	23880.49
415.98	23627.71
416.17	23693.24
416.36	23391.31
416.55	22714.90
416.74	22143.81
416.93	21717.83
417.12	21593.78
417.31	22153.17
417.50	22001.04
417.69	23218.11
417.88	23000.44
418.07	22644.68
418.26	22284.24
418.45	22448.08
418.64	23337.48
418.83	24327.53
419.02	23826.65
419.21	23754.10
419.39	22719.58
419.58	21713.15
419.77	21713.15
419.96	22640.00
420.15	24013.90
420.34	24936.07
420.53	25249.70
420.72	25809.09
420.91	25530.56
421.10	25441.62
421.29	24865.85
421.48	24135.60
421.67	25624.18
421.86	24870.53
422.05	22815.54
422.24	20592.03
422.43	20388.41
422.61	22787.46
422.80	24725.42
422.99	24451.58
423.18	23761.12
423.37	23154.92
423.56	23136.20
423.75	23627.71
423.94	24472.64
424.13	23321.10
424.32	23084.70
424.50	23332.80
424.69	22625.96
424.88	22906.82
425.07	22909.16
425.26	22937.25
425.45	22834.27
425.64	22342.75
425.83	22223.39
426.01	23283.65
426.20	24254.97
426.39	23955.38
426.58	22118.06
426.77	20463.30
426.96	19946.05
427.15	20554.58
427.33	22387.22
427.52	23091.73
427.71	23332.80
427.90	22792.14
428.09	22625.96
428.28	22644.68
428.46	21326.96
428.65	21132.70
428.84	21874.65
429.03	22244.45
429.22	20821.41
429.40	19548.15
429.59	17951.91
429.78	15967.13
429.97	15913.30
430.16	16409.50
430.34	16402.47
430.53	16027.99
430.72	16875.26
430.91	18670.45
431.10	21750.60
431.28	25322.26
431.47	27180.64
431.66	27955.36
431.85	25085.86
432.03	22867.03
432.22	22232.75
432.41	23330.46
432.60	25453.33
432.79	27040.21
432.97	26934.88
433.16	26354.43
433.35	24388.38
433.54	21759.96
433.72	20388.41
433.91	21266.11
434.10	23953.04
434.28	25614.82
434.47	26742.96
434.66	26593.17
434.85	25603.12
435.03	25170.12
435.22	26050.16
435.41	27910.89
435.59	27817.27
435.78	28425.81
435.97	28697.31
436.16	29046.05
436.34	28634.11
436.53	28037.28
436.72	28177.71
436.90	26434.01
437.09	26850.63
437.28	25937.82
437.46	27009.78
437.65	26829.56
437.84	25090.54
438.02	23351.52
438.21	23138.54
438.40	24226.89
438.58	26291.24
438.77	26946.59
438.96	27218.09
439.14	28336.87
439.33	28762.84
439.52	29607.78
439.70	28606.03
439.89	28116.86
440.08	27498.95
440.26	27274.26
440.45	28390.70
440.63	30080.56
440.82	31765.75
441.01	31367.86
441.19	31023.80
441.38	31922.57
441.57	32692.60
441.75	32992.19
441.94	33549.24
442.12	33223.90
442.31	33755.21
442.50	33102.20
442.68	33212.20
442.87	32861.12
443.05	32147.26
443.24	32854.10
443.43	33612.43
443.61	33787.97
443.80	34548.65
443.98	32566.21
444.17	32343.86
444.35	34338.00
444.54	35161.87
444.73	34691.42
444.91	33017.94
445.10	31983.42
445.28	30986.35
445.47	29825.45
445.65	30642.29
445.84	30986.35
446.02	32133.21
446.21	32826.01
446.39	32673.88
446.58	33333.91
446.77	33603.07
446.95	34059.48
447.14	35285.92
447.32	35707.21
447.51	35002.71
447.69	33748.18
447.88	33088.15
448.06	33399.44
448.25	34134.37
448.43	34499.50
448.62	33514.13
448.80	33787.97
448.99	33652.22
449.17	34443.32
449.36	34174.16
449.54	35796.15
449.73	35866.37
449.91	36421.08
450.10	37497.72
450.28	38096.90
450.46	37656.88
450.65	37745.82
450.83	37188.77
451.02	36280.64
451.20	36891.52
451.39	36320.43
451.57	36201.07
451.76	36577.89
451.94	35934.24
452.13	35517.63
452.31	33652.22
452.49	32184.71
452.68	32851.76
452.86	32697.28
453.05	33345.61
453.23	33827.76
453.42	34855.26
453.60	35695.51
453.78	36025.53
453.97	35875.73
454.15	35803.17
454.34	34719.51
454.52	35335.07
454.70	34457.37
454.89	34768.66
455.07	34995.69
455.26	35901.48
455.44	37006.21
455.62	37579.64
455.81	37940.08
455.99	37205.16
456.17	37392.40
456.36	37008.55
456.54	38253.72
456.73	38092.22
456.91	38349.68
457.09	38941.83
457.28	39433.35
457.46	37778.59
457.64	37521.13
457.83	36723.01
458.01	35676.79
458.19	36645.77
458.38	36975.78
458.56	38419.89
458.74	37902.64
458.93	37160.69
459.11	37612.41
459.29	36900.89
459.48	37354.95
459.66	37322.18
459.84	37450.91
460.03	38031.36
460.21	37785.61
460.39	38930.13
460.57	38733.53
460.76	39419.30
460.94	39323.34
461.12	38656.29
461.31	39412.28
461.49	38803.74
461.67	38700.76
461.85	39971.67
462.04	40055.93
462.22	40566.16
462.40	39812.51
462.59	39398.24
462.77	39819.53
462.95	40060.61
463.13	39440.37
463.32	39124.40
463.50	38899.70
463.68	39365.47
463.86	38962.90
464.05	38162.43
464.23	37549.21
464.41	37584.32
464.59	36699.60
464.78	39023.75
464.96	38541.60
465.14	37816.04
465.32	39213.34
465.50	40201.04
465.69	40465.52
465.87	39346.75
466.05	38742.89
466.23	36734.71
466.41	35999.78
466.60	37263.67
466.78	36982.80
466.96	37654.54
467.14	38632.88
467.32	39339.72
467.51	38822.47
467.69	37305.80
467.87	37926.04
468.05	38974.60
468.23	38958.22
468.41	38518.20
468.60	38382.45
468.78	39358.45
468.96	38508.83
469.14	39576.12
469.32	39601.86
469.50	38089.88
469.69	38178.82
469.87	37502.40
470.05	37680.28
470.23	37902.64
470.41	38033.71
470.59	38628.20
470.77	38679.69
470.95	39529.31
471.14	39786.77
471.32	39695.49
471.50	42021.98
471.68	41785.58
471.86	42316.89
472.04	42707.76
472.22	42162.41
472.40	40844.69
472.58	40364.88
472.77	40020.82
472.95	40938.31
473.13	41706.01
473.31	40409.35
473.49	41123.21
473.67	41734.09
473.85	41745.80
474.03	42726.48
474.21	42855.21
474.39	43255.44
474.57	43470.77
474.75	43625.25
474.93	43033.09
475.12	42052.41
475.30	42286.46
475.48	42955.85
475.66	42988.62
475.84	42277.10
476.02	42029.00
476.20	41961.12
476.38	42674.99
476.56	43913.13
476.74	44072.29
476.92	44498.26
477.10	45544.48
477.28	46185.79
477.46	46113.23
477.64	46588.36
477.82	46843.48
478.00	46752.20
478.18	46195.15
478.36	46239.62
478.54	46181.11
478.72	46653.90
478.90	47271.80
479.08	48641.01
479.26	48793.15
479.44	48605.91
479.62	48633.99
479.80	48582.50
479.98	48636.33
480.16	48964.01
480.34	48755.70
480.52	48680.80
480.70	49088.06
480.88	49099.76
481.06	50073.42
481.24	50246.62
481.41	51136.02
481.59	51173.47
481.77	51026.02
481.95	50438.54
482.13	50684.30
482.31	50667.92
482.49	51194.54
482.67	51091.55
482.85	51112.62
483.03	51955.21
483.21	52165.86
483.39	51931.81
483.57	51545.62
483.74	51117.30
483.92	51559.66
484.10	51849.89
484.28	52582.48
484.46	52741.63
484.64	52849.30
484.82	52126.07
485.00	52229.05
485.18	50974.53
485.35	50293.43
485.53	47217.97
485.71	43192.25
485.89	42923.08
486.07	45539.80
486.25	48521.65
486.43	50724.09
486.61	51248.37
486.78	50834.10
486.96	51353.69
487.14	52844.62
487.32	53492.94
487.50	54246.60
487.68	55030.68
487.85	55203.88
488.03	54988.55
488.21	54869.18
488.39	54262.98
488.57	53914.24
488.75	53621.67
488.92	54791.94
489.10	56224.35
489.28	57102.05
489.46	57890.81
489.64	57539.73
489.81	57867.40
489.99	57567.82
490.17	57521.01
490.35	57893.15
490.53	57621.65
490.70	57141.84
490.88	57027.15
491.06	58096.78
491.24	57942.30
491.41	56931.19
491.59	55742.20
491.77	55110.25
491.95	55854.54
492.13	56893.74
492.30	58005.50
492.48	58915.96
492.66	59381.73
492.84	59110.23
493.01	58894.90
493.19	58607.01
493.37	58293.38
493.54	58085.07
493.72	58595.31
493.90	59484.72
494.08	60067.51
494.25	60495.83
494.43	60570.72
494.61	60760.31
494.79	60907.76
494.96	60669.03
495.14	60172.83
495.32	59388.75
495.49	58873.84
495.67	59859.20
495.85	60898.40
496.02	61188.63
496.20	61153.52
496.38	60776.69
496.55	60640.94
496.73	61155.86
496.91	61080.96
497.09	61787.80
497.26	62005.47
497.44	61240.12
497.62	60692.43
497.79	60278.16
497.97	59187.47
498.14	59161.72
498.32	60458.38
498.50	61003.72
498.67	61565.45
498.85	61425.02
499.03	61638.01
499.20	62059.30
499.38	61869.72
499.56	61673.12
499.73	61401.61
499.91	60846.91
500.08	60507.53
500.26	59955.16
500.44	60294.54
500.61	60949.89
500.79	60750.94
500.97	60353.05
501.14	60259.43
501.32	60161.13
501.49	60409.23
501.67	60416.25
501.84	60853.93
502.02	61099.68
502.20	61420.34
502.37	61361.82
502.55	61488.21
502.72	62162.29
502.90	62466.56
503.07	61984.41
503.25	61736.31
503.43	61078.62
503.60	60399.86
503.78	59730.47
503.95	60491.15
504.13	61652.05
504.30	62370.60
504.48	62014.83
504.65	61778.44
504.83	61701.20
505.01	62515.71
505.18	62628.05
505.36	63295.11
505.53	63126.59
505.71	63330.22
505.88	63498.73
506.06	62986.16
506.23	62649.12
506.41	62426.77
506.58	62567.20
506.76	62473.58
506.93	62529.75
507.11	62260.59
507.28	62473.58
507.46	62087.39
507.63	61410.98
507.81	61347.78
507.98	61450.77
508.16	62288.68
508.33	62557.84
508.50	62965.09
508.68	63173.40
508.85	63554.91
509.03	63660.23
509.20	63353.62
509.38	62742.74
509.55	62063.99
509.73	62293.36
509.90	62829.34
510.08	63011.90
510.25	62906.58
510.42	62740.40
510.60	62597.63
510.77	62965.09
510.95	63484.69
511.12	63320.85
511.30	63730.45
511.47	64069.82
511.64	63870.88
511.82	63470.65
511.99	63018.92
512.17	62525.07
512.34	62188.03
512.51	62375.28
512.69	62637.42
512.86	62527.41
513.04	63135.95
513.21	63009.56
513.38	62670.18
513.56	62159.95
513.73	61701.20
513.90	62155.27
514.08	62148.24
514.25	62131.86
514.43	62571.88
514.60	62738.06
514.77	62660.82
514.95	62808.28
515.12	62808.28
515.29	63142.97
515.47	63421.50
515.64	63536.18
515.81	63110.20
515.99	62686.57
516.16	61415.66
516.33	59241.30
516.51	58045.29
516.68	57598.24
516.85	57071.62
517.03	57432.07
517.20	59971.55
517.37	62024.20
517.54	62927.64
517.72	62272.29
517.89	60037.08
518.06	58089.76
518.24	58726.38
518.41	60603.49
518.58	61504.60
518.75	61645.03
518.93	61982.07
519.10	61822.91
519.27	62028.88
519.45	62515.71
519.62	63133.61
519.79	63362.98
519.96	63171.06
520.14	62756.78
520.31	62068.67
520.48	62094.41
520.65	62459.54
520.83	63283.40
521.00	63377.03
521.17	63084.46
521.34	62880.83
521.52	63187.44
521.69	63529.16
521.86	64107.27
522.03	63613.42
522.20	62578.90
522.38	61740.99
522.55	61937.60
522.72	62181.01
522.89	62379.96
523.07	62637.42
523.24	62958.07
523.41	63681.30
523.58	63894.28
523.75	64250.05
523.92	64271.11
524.10	64233.66
524.27	64247.71
524.44	63955.14
524.61	63697.68
524.78	63714.06
524.96	63496.39
525.13	63730.45
525.30	63784.28
525.47	64205.58
525.64	64090.89
525.81	63582.99
525.98	62262.93
526.16	61085.64
526.33	60303.90
526.50	60191.56
526.67	59863.88
526.84	60509.87
527.01	61354.80
527.18	61982.07
527.36	62775.51
527.53	63501.07
527.70	63758.53
527.87	63304.47
528.04	62628.05
528.21	63348.94
528.38	63978.54
528.55	64287.49
528.72	64498.14
528.89	64680.70
529.07	64559.00
529.24	63803.00
529.41	63313.83
529.58	62817.64
529.75	62892.54
529.92	63444.90
530.09	63758.53
530.26	64301.54
530.43	64446.65
530.60	64566.02
530.77	64680.70
530.94	64729.86
531.11	64268.77
531.28	64114.29
531.46	63803.00
531.63	64179.83
531.80	63852.15
531.97	63505.76
532.14	62908.92
532.31	61930.58
532.48	61345.44
532.65	61427.36
532.82	62314.42
532.99	63203.83
533.16	63484.69
533.33	63898.97
533.50	63641.51
533.67	63173.40
533.84	62876.15
534.01	63166.38
534.18	63288.09
534.35	63370.00
534.52	63231.91
534.69	63496.39
534.86	63765.56
535.03	64065.14
535.20	64418.56
535.37	64690.07
535.54	64547.29
535.71	64427.93
535.88	64044.08
536.05	63346.60
536.22	63271.70
536.38	62951.05
536.55	62464.22
536.72	62033.56
536.89	62099.09
537.06	62972.11
537.23	63456.60
537.40	63756.19
537.57	63868.54
537.74	63510.44
537.91	63440.22
538.08	63367.66
538.25	63409.79
538.42	63693.00
538.59	63400.43
538.75	62927.64
538.92	62728.70
539.09	62642.10
539.26	62443.15
539.43	62363.57
539.60	62347.19
539.77	62482.94
539.94	62482.94
540.11	61736.31
540.28	61434.38
540.44	61490.55
540.61	61757.38
540.78	61944.62
540.95	62314.42
541.12	62417.41
541.29	62724.02
541.46	62997.86
541.62	63264.68
541.79	62967.43
541.96	62398.68
542.13	62454.86
542.30	62780.19
542.47	62791.89
542.63	62614.01
542.80	62733.38
542.97	62651.46
543.14	62461.88
543.31	62482.94
543.48	63000.20
543.64	63538.52
543.81	63770.24
543.98	63641.51
544.15	62988.50
544.32	62567.20
544.48	62819.98
544.65	63070.42
544.82	63299.79
544.99	63072.76
545.16	62667.84
545.32	62361.23
545.49	63355.96
545.66	63433.20
545.83	63224.89
546.00	62805.94
546.16	62714.65
546.33	62625.71
546.50	62829.34
546.67	63138.29
546.83	62709.97
547.00	62798.91
547.17	62312.08
547.34	61694.18
547.50	61729.29
547.67	62211.44
547.84	62145.90
548.00	62684.23
548.17	62958.07
548.34	62719.34
548.51	62653.80
548.67	62819.98
548.84	62829.34
549.01	62798.91
549.18	62597.63
549.34	62693.59
549.51	62674.87
549.68	62422.09
549.84	62246.55
550.01	62316.76
550.18	62092.07
550.34	62148.24
550.51	62391.66
550.68	62543.80
550.84	62028.88
551.01	61998.45
551.18	62063.99
551.34	62225.48
551.51	62574.22
551.68	62763.81
551.84	62803.59
552.01	62742.74
552.18	62417.41
552.34	61799.50
552.51	61474.17
552.68	61492.89
552.84	61862.70
553.01	62007.81
553.18	62204.42
553.34	62042.92
553.51	62328.47
553.67	62386.98
553.84	62639.76
554.01	62520.39
554.17	62284.00
554.34	62276.97
554.51	62368.26
554.67	62796.57
554.84	62457.20
555.00	62239.53
555.17	62099.09
555.33	62138.88
555.50	62230.16
555.67	62019.52
555.83	61939.94
556.00	61546.73
556.16	61762.06
556.33	61373.53
556.50	61193.31
556.66	61462.47
556.83	60973.30
556.99	61073.94
557.16	61151.18
557.32	61621.62
557.49	61811.21
557.65	61649.71
557.82	61546.73
557.98	61446.08
558.15	60935.85
558.32	60374.12
558.48	59735.15
558.65	59887.29
558.81	60390.50
558.98	60556.68
559.14	60608.17
559.31	60699.45
559.47	60865.63
559.64	60346.03
559.80	60076.87
559.97	60123.68
560.13	60516.89
560.30	61553.75
560.46	61776.10
560.63	61951.64
560.79	62101.43
560.96	61729.29
561.12	60676.05
561.29	59760.90
561.45	60030.06
561.61	60654.98
561.78	60942.87
561.94	60706.47
562.11	60743.92
562.27	60542.64
562.44	60921.80
562.60	61261.18
562.77	61169.90
562.93	61209.69
563.10	61167.56
563.26	60474.76
563.42	60800.10
563.59	60416.25
563.75	60664.35
563.92	60561.36
564.08	60495.83
564.24	60907.76
564.41	60938.19
564.57	60645.62
564.74	60519.23
564.90	60343.69
565.07	60301.56
565.23	60037.08
565.39	59505.78
565.56	59337.26
565.72	58920.65
565.88	59601.74
566.05	59480.03
566.21	59784.30
566.38	59805.37
566.54	59980.91
566.70	60308.58
566.87	60514.55
567.03	60577.75
567.19	60832.86
567.36	60294.54
567.52	60163.47
567.68	59877.93
567.85	59599.40
568.01	59147.68
568.17	58983.84
568.34	58946.39
568.50	58812.98
568.66	59051.72
568.83	59316.20
568.99	59077.46
569.15	59503.44
569.32	59730.47
569.48	59288.11
569.64	59133.63
569.81	58777.87
569.97	59058.74
570.13	58789.58
570.30	58391.68
570.46	58136.57
570.62	57570.16
570.78	57612.29
570.95	57879.11
571.11	58363.60
571.27	58532.12
571.43	58946.39
571.60	59049.38
571.76	59189.81
571.92	59344.28
572.09	59526.84
572.25	59271.73
572.41	59393.43
572.57	59348.96
572.74	59311.52
572.90	58796.60
573.06	58946.39
573.22	58925.33
573.38	59253.00
573.55	58953.41
573.71	59068.10
573.87	58918.31
574.03	58897.24
574.20	58754.47
574.36	58487.65
574.52	58494.67
574.68	58216.14
574.84	57958.69
575.01	57521.01
575.17	57663.78
575.33	57942.30
575.49	58178.70
575.65	58410.41
575.82	57989.11
575.98	57689.52
576.14	58101.46
576.30	58377.64
576.46	58309.77
576.62	58234.87
576.79	58190.40
576.95	58178.70
577.11	57792.51
577.27	58141.25
577.43	58218.49
577.59	57499.94
577.75	57205.03
577.92	56933.53
578.08	56633.94
578.24	56868.00
578.40	57080.98
578.56	57148.86
578.72	57174.61
578.88	57392.28
579.04	57521.01
579.21	57741.02
579.37	57609.95
579.53	57839.32
579.69	57638.03
579.85	57928.26
580.01	57733.99
580.17	57270.57
580.33	57202.69
580.49	57312.70
580.65	57471.85
580.82	57771.44
580.98	57715.27
581.14	57511.64
581.30	57551.43
581.46	57652.08
581.62	57647.39
581.78	57614.63
581.94	57996.13
582.10	57989.11
582.26	57925.92
582.42	57951.66
582.58	57790.17
582.74	57783.15
582.90	58159.97
583.06	57998.48
583.22	57581.86
583.38	57691.86
583.54	57539.73
583.70	57422.70
583.86	57581.86
584.02	57392.28
584.18	57577.18
584.34	57312.70
584.50	57401.64
584.66	57036.51
584.82	57038.86
584.98	56837.57
585.14	56472.45
