SpectraSuite Data File
++++++++++++++++++++++++++++++++++++
Date: Mon Oct 07 14:53:19 GMT-05:00 2013
User: price-jones
Dark Spectrum Present: No
Reference Spectrum Present: No
Number of Sampled Component Spectra: 1
Spectrometers: USB2+H05261
Integration Time (usec): 100000 (USB2+H05261)
Spectra Averaged: 1 (USB2+H05261)
Boxcar Smoothing: 0 (USB2+H05261)
Correct for Electrical Dark: No (USB2+H05261)
Strobe/Lamp Enabled: No (USB2+H05261)
Correct for Detector Non-linearity: No (USB2+H05261)
Correct for Stray Light: No (USB2+H05261)
Number of Pixels in Processed Spectrum: 2048
>>>>>Begin Processed Spectral Data<<<<<
365.73	0.00
365.92	0.00
366.12	0.00
366.32	0.00
366.52	0.00
366.72	0.00
366.91	0.00
367.11	0.00
367.31	0.00
367.51	0.00
367.70	0.00
367.90	0.00
368.10	0.00
368.30	0.00
368.49	0.00
368.69	0.00
368.89	0.00
369.09	0.00
369.28	0.00
369.48	0.00
369.68	0.00
369.87	0.00
370.07	0.00
370.27	0.00
370.47	1584.54
370.66	6853.09
370.86	7709.72
371.06	8496.14
371.25	8290.18
371.45	7625.47
371.65	6633.08
371.84	6649.46
372.04	6733.72
372.24	7566.95
372.44	7709.72
372.63	7454.61
372.83	7073.10
373.03	6197.74
373.22	5844.32
373.42	6298.38
373.62	7157.36
373.81	7473.33
374.01	7314.17
374.21	6724.36
374.40	6293.70
374.60	6684.57
374.79	7536.52
374.99	8706.79
375.19	9296.61
375.38	9179.58
375.58	8779.35
375.78	8652.96
375.97	8578.06
376.17	8559.34
376.37	9048.51
376.56	9514.28
376.76	9811.53
376.95	10319.42
377.15	11108.18
377.35	11302.45
377.54	12023.33
377.74	12287.81
377.93	12044.40
378.13	11630.12
378.33	11286.06
378.52	10221.12
378.72	9675.77
378.91	9734.29
379.11	9441.72
379.31	9001.70
379.50	9516.62
379.70	10125.16
379.89	10860.09
380.09	11529.48
380.28	11927.37
380.48	11943.75
380.68	11674.59
380.87	11293.08
381.07	10363.89
381.26	9664.07
381.46	9139.79
381.65	8636.58
381.85	8528.91
382.04	7857.18
382.24	7473.33
382.43	7258.00
382.63	7016.93
382.83	7066.08
383.02	7084.80
383.22	7124.59
383.41	7194.81
383.61	7674.62
383.80	9008.72
384.00	9937.91
384.19	11087.12
384.39	11566.93
384.58	11730.76
384.78	11314.15
384.97	11297.77
385.17	10647.10
385.36	10148.56
385.56	9626.62
385.75	10120.48
385.95	11080.10
386.14	11723.74
386.34	11751.83
386.53	11068.39
386.72	10586.24
386.92	10895.19
387.11	11229.89
387.31	11791.62
387.50	11562.25
387.70	11133.93
387.89	10946.69
388.09	11227.55
388.28	11325.85
388.48	11489.69
388.67	12564.00
388.86	13755.33
389.06	14295.99
389.25	15344.55
389.45	15330.51
389.64	15290.72
389.84	14806.23
390.03	14785.16
390.22	14609.62
390.42	15279.02
390.61	16573.33
390.81	17481.46
391.00	17596.15
391.19	17790.41
391.39	16737.17
391.58	15737.76
391.78	14677.50
391.97	14487.92
392.16	13099.98
392.36	11705.02
392.55	9530.66
392.75	7581.00
392.94	6438.81
393.13	6679.89
393.33	7894.63
393.52	9886.42
393.71	11988.22
393.91	13437.02
394.10	14768.78
394.29	16109.91
394.49	17219.32
394.68	18478.53
394.88	18565.13
395.07	19070.68
395.26	18656.41
395.46	18209.37
395.65	16861.22
395.84	14759.42
396.04	12205.89
396.23	9919.19
396.42	8582.74
396.62	8189.53
396.81	9991.75
397.00	12982.95
397.19	15838.41
397.39	18733.65
397.58	20702.04
397.77	22216.36
397.97	22567.45
398.16	23068.32
398.35	23976.45
398.55	24889.26
398.74	25408.86
398.93	25834.83
399.12	25385.45
399.32	24666.91
399.51	25427.58
399.70	26686.79
399.90	26611.89
400.09	26611.89
400.28	26108.68
400.47	26354.43
400.67	27747.05
400.86	28346.23
401.05	28238.56
401.24	28458.57
401.44	28826.04
401.63	28975.83
401.82	29092.86
402.01	29385.43
402.21	29567.99
402.40	29635.86
402.59	28615.39
402.78	27786.84
402.97	26974.67
403.17	27927.27
403.36	29429.90
403.55	30485.48
403.74	31157.21
403.93	29340.96
404.13	26923.18
404.32	27103.40
404.51	28247.93
404.70	30256.11
404.89	29879.28
405.09	29495.43
405.28	28613.05
405.47	28535.81
405.66	28224.52
405.85	27735.35
406.05	26920.84
406.24	27435.76
406.43	28947.75
406.62	29832.47
406.81	29790.34
407.00	29015.62
407.20	28245.58
407.39	28418.78
407.58	29628.84
407.77	30895.07
407.96	31672.13
408.15	31896.82
408.34	32631.75
408.54	33699.03
408.73	33610.09
408.92	33242.63
409.11	32037.25
409.30	30857.62
409.49	28704.33
409.68	27042.55
409.87	26335.71
410.07	28119.20
410.26	30118.01
410.45	32126.19
410.64	32891.55
410.83	33528.17
411.02	34359.06
411.21	35578.48
411.40	35082.29
411.59	35440.39
411.78	35250.81
411.98	34979.31
412.17	35358.47
412.36	34464.39
412.55	34801.43
412.74	34108.63
412.93	33429.87
413.12	33830.10
413.31	36891.52
413.50	37090.47
413.69	37443.89
413.88	35749.34
414.07	35014.41
414.26	35665.08
414.45	37205.16
414.64	37329.20
414.83	37394.74
415.02	36788.54
415.22	36458.52
415.41	37455.59
415.60	38323.93
415.79	39683.78
415.98	40877.46
416.17	40521.69
416.36	39199.29
416.55	38916.09
416.74	37752.84
416.93	36685.56
417.12	37130.26
417.31	37315.16
417.50	37469.64
417.69	38333.29
417.88	38698.42
418.07	37991.58
418.26	37544.53
418.45	38286.48
418.64	39573.78
418.83	40767.45
419.02	40217.43
419.21	39271.85
419.39	38188.18
419.58	36652.79
419.77	36795.56
419.96	38927.79
420.15	40196.36
420.34	41352.58
420.53	42223.26
420.72	42885.64
420.91	43365.45
421.10	42122.62
421.29	42036.02
421.48	40374.24
421.67	41378.33
421.86	40835.33
422.05	38279.46
422.24	34511.20
422.43	34583.76
422.61	38651.61
422.80	40975.76
422.99	40835.33
423.18	39461.43
423.37	38899.70
423.56	39386.54
423.75	39880.39
423.94	40662.13
424.13	37862.85
424.32	38703.10
424.50	38455.00
424.69	38424.57
424.88	38604.80
425.07	38380.10
425.26	38253.72
425.45	38047.75
425.64	37139.62
425.83	37226.22
426.01	39480.16
426.20	40502.97
426.39	40175.30
426.58	37280.05
426.77	34354.38
426.96	33741.16
427.15	34993.35
427.33	37102.17
427.52	38375.42
427.71	38588.41
427.90	37923.70
428.09	37965.83
428.28	37160.69
428.46	35812.54
428.65	35409.96
428.84	36507.68
429.03	36371.92
429.22	34653.97
429.40	32535.79
429.59	29986.94
429.78	26845.94
429.97	27080.00
430.16	27447.46
430.34	27541.08
430.53	27627.68
430.72	28655.18
430.91	31323.39
431.10	36973.44
431.28	42766.27
431.47	45375.97
431.66	45029.57
431.85	41518.76
432.03	38361.38
432.22	37366.65
432.41	38988.64
432.60	42272.42
432.79	43934.20
432.97	45141.91
433.16	43510.56
433.35	39737.62
433.54	36442.14
433.72	35204.00
433.91	36130.85
434.10	39981.03
434.28	42115.60
434.47	43768.02
434.66	43409.92
434.85	42515.83
435.03	42237.31
435.22	43641.63
435.41	45464.91
435.59	45425.12
435.78	46010.25
435.97	47004.98
436.16	46995.62
436.34	46438.57
436.53	45844.07
436.72	45734.07
436.90	44069.95
437.09	43569.07
437.28	42965.21
437.46	44311.02
437.65	43679.08
437.84	40664.47
438.02	38457.34
438.21	38302.87
438.40	40374.24
438.58	43791.42
438.77	44065.27
438.96	44259.53
439.14	46443.25
439.33	47442.66
439.52	47613.52
439.70	46719.43
439.89	45844.07
440.08	44603.59
440.26	45076.38
440.45	46550.91
440.63	48598.88
440.82	50075.76
441.01	50288.75
441.19	49886.18
441.38	50698.34
441.57	51231.99
441.75	51384.12
441.94	51473.06
442.12	51536.26
442.31	52470.13
442.50	52348.42
442.68	52140.11
442.87	51203.90
443.05	50712.39
443.24	51821.80
443.43	52327.36
443.61	52790.78
443.80	53113.78
443.98	51456.68
444.17	50983.89
444.35	52987.39
444.54	53291.66
444.73	53139.52
444.91	51243.69
445.10	50515.78
445.28	49443.82
445.47	48428.02
445.65	48809.53
445.84	49837.03
446.02	51112.62
446.21	51313.90
446.39	51405.19
446.58	51845.21
446.77	52287.57
446.95	52594.18
447.14	53467.20
447.32	53886.15
447.51	53139.52
447.69	51943.51
447.88	51770.31
448.06	52083.94
448.25	52662.05
448.43	53207.40
448.62	52023.09
448.80	52177.56
448.99	52762.70
449.17	52942.92
449.36	52879.72
449.54	53815.94
449.73	54230.21
449.91	54712.36
450.10	55435.59
450.28	55594.74
450.46	55449.63
450.65	55723.47
450.83	55405.16
451.02	54492.35
451.20	54508.74
451.39	54614.06
451.57	54616.40
451.76	54396.39
451.94	54134.25
452.13	53336.13
452.31	51739.88
452.49	50389.39
452.68	51192.20
452.86	51398.16
453.05	51995.00
453.23	52594.18
453.42	53352.51
453.60	53841.68
453.78	54225.53
453.97	53984.46
454.15	53848.71
454.34	53361.87
454.52	53485.92
454.70	52786.10
454.89	52919.51
455.07	53104.41
455.26	53680.19
455.44	54803.64
455.62	55105.57
455.81	55367.71
455.99	55234.30
456.17	54953.44
456.36	54869.18
456.54	55817.10
456.73	56186.90
456.91	55994.98
457.09	55980.93
457.28	56699.48
457.46	55634.53
457.64	55515.17
457.83	54637.47
458.01	53855.73
458.19	54850.45
458.38	54894.92
458.56	55676.66
458.74	55697.73
458.93	55262.39
459.11	55208.56
459.29	54913.65
459.48	54869.18
459.66	55091.53
459.84	55655.60
460.03	55852.20
460.21	55655.60
460.39	56275.84
460.57	56116.68
460.76	56458.40
460.94	56835.23
461.12	56343.72
461.31	56662.03
461.49	56381.16
461.67	56346.06
461.85	56825.87
462.04	56818.84
462.22	57207.37
462.40	56800.12
462.59	57050.56
462.77	57099.71
462.95	56907.79
463.13	56456.06
463.32	56233.71
463.50	56058.17
463.68	56072.21
463.86	56182.22
464.05	55608.79
464.23	55175.79
464.41	55007.27
464.59	55201.53
464.78	56182.22
464.96	56123.71
465.14	55561.98
465.32	56481.81
465.50	57289.29
465.69	57411.00
465.87	56460.74
466.05	55728.16
466.23	54478.31
466.41	53916.58
466.60	54976.84
466.78	54632.78
466.96	55529.21
467.14	55943.48
467.32	56161.15
467.51	56203.28
467.69	54663.21
467.87	55255.37
468.05	55774.97
468.23	55997.32
468.41	55772.63
468.60	55819.44
468.78	56140.09
468.96	55735.18
469.14	56563.73
469.32	56439.68
469.50	55278.77
469.69	55381.76
469.87	55222.60
470.05	54948.76
470.23	54960.46
470.41	55150.04
470.59	55208.56
470.77	55573.68
470.95	56193.92
471.14	56367.12
471.32	56395.21
471.50	58110.82
471.68	58073.37
471.86	57970.39
472.04	58269.98
472.22	58143.59
472.40	56797.78
472.58	56683.09
472.77	56493.51
472.95	57237.80
473.13	57736.34
473.31	57148.86
473.49	57347.81
473.67	57591.22
473.85	58042.95
474.03	58471.26
474.21	58646.80
474.39	58632.76
474.57	58686.59
474.75	58761.49
474.93	58562.54
475.12	58028.90
475.30	58019.54
475.48	58351.90
475.66	58419.77
475.84	58382.32
476.02	58080.39
476.20	57663.78
476.38	58398.71
476.56	59011.93
476.74	59400.46
476.92	59599.40
477.10	59870.90
477.28	60502.85
477.46	60591.79
477.64	60858.61
477.82	60629.24
478.00	60753.29
478.18	60500.51
478.36	60427.95
478.54	60374.12
478.72	60764.99
478.90	61305.65
479.08	61841.63
479.26	62028.88
479.44	61907.17
479.62	61808.87
479.80	61790.14
479.98	61858.02
480.16	61862.70
480.34	61825.25
480.52	62241.87
480.70	62375.28
480.88	62281.66
481.06	62679.55
481.24	62801.25
481.41	63384.05
481.59	63784.28
481.77	63522.14
481.95	63047.01
482.13	63103.18
482.31	63159.36
482.49	63505.76
482.67	63667.25
482.85	63711.72
483.03	64074.51
483.21	64231.32
483.39	64259.41
483.57	63751.51
483.74	63676.61
483.92	64058.12
484.10	63800.66
484.28	64645.60
484.46	64577.72
484.64	64856.24
484.82	64198.55
485.00	64097.91
485.18	63620.44
485.35	62754.44
485.53	60851.59
485.71	58658.51
485.89	58628.08
486.07	60217.30
486.25	61860.36
486.43	63035.31
486.61	63252.98
486.78	63304.47
486.96	63519.80
487.14	64413.88
487.32	65024.76
487.50	65535.00
487.68	65535.00
487.85	65535.00
488.03	65535.00
488.21	65535.00
488.39	65535.00
488.57	65097.32
488.75	65130.09
488.92	65535.00
489.10	65535.00
489.28	65535.00
489.46	65535.00
489.64	65535.00
489.81	65535.00
489.99	65535.00
490.17	65535.00
490.35	65535.00
490.53	65535.00
490.70	65535.00
490.88	65535.00
491.06	65535.00
491.24	65535.00
491.41	65535.00
491.59	65535.00
491.77	65535.00
491.95	65535.00
492.13	65535.00
492.30	65535.00
492.48	65535.00
492.66	65535.00
492.84	65535.00
493.01	65535.00
493.19	65535.00
493.37	65535.00
493.54	65535.00
493.72	65535.00
493.90	65535.00
494.08	65535.00
494.25	65535.00
494.43	65535.00
494.61	65535.00
494.79	65535.00
494.96	65535.00
495.14	65535.00
495.32	65535.00
495.49	65535.00
495.67	65535.00
495.85	65535.00
496.02	65535.00
496.20	65535.00
496.38	65535.00
496.55	65535.00
496.73	65535.00
496.91	65535.00
497.09	65535.00
497.26	65535.00
497.44	65535.00
497.62	65535.00
497.79	65535.00
497.97	65535.00
498.14	65535.00
498.32	65535.00
498.50	65535.00
498.67	65535.00
498.85	65535.00
499.03	65535.00
499.20	65535.00
499.38	65535.00
499.56	65535.00
499.73	65535.00
499.91	65535.00
500.08	65535.00
500.26	65535.00
500.44	65535.00
500.61	65535.00
500.79	65535.00
500.97	65535.00
501.14	65535.00
501.32	65535.00
501.49	65535.00
501.67	65535.00
501.84	65535.00
502.02	65535.00
502.20	65535.00
502.37	65535.00
502.55	65535.00
502.72	65535.00
502.90	65535.00
503.07	65535.00
503.25	65535.00
503.43	65535.00
503.60	65535.00
503.78	65535.00
503.95	65535.00
504.13	65535.00
504.30	65535.00
504.48	65535.00
504.65	65535.00
504.83	65535.00
505.01	65535.00
505.18	65535.00
505.36	65535.00
505.53	65535.00
505.71	65535.00
505.88	65535.00
506.06	65535.00
506.23	65535.00
506.41	65535.00
506.58	65535.00
506.76	65535.00
506.93	65535.00
507.11	65535.00
507.28	65535.00
507.46	65535.00
507.63	65535.00
507.81	65535.00
507.98	65535.00
508.16	65535.00
508.33	65535.00
508.50	65535.00
508.68	65535.00
508.85	65535.00
509.03	65535.00
509.20	65535.00
509.38	65535.00
509.55	65535.00
509.73	65535.00
509.90	65535.00
510.08	65535.00
510.25	65535.00
510.42	65535.00
510.60	65535.00
510.77	65535.00
510.95	65535.00
511.12	65535.00
511.30	65535.00
511.47	65535.00
511.64	65535.00
511.82	65535.00
511.99	65535.00
512.17	65535.00
512.34	65535.00
512.51	65535.00
512.69	65535.00
512.86	65535.00
513.04	65535.00
513.21	65535.00
513.38	65535.00
513.56	65535.00
513.73	65535.00
513.90	65535.00
514.08	65535.00
514.25	65535.00
514.43	65535.00
514.60	65535.00
514.77	65535.00
514.95	65535.00
515.12	65535.00
515.29	65535.00
515.47	65535.00
515.64	65535.00
515.81	65535.00
515.99	65535.00
516.16	65535.00
516.33	65535.00
516.51	65535.00
516.68	65535.00
516.85	65535.00
517.03	65535.00
517.20	65535.00
517.37	65535.00
517.54	65535.00
517.72	65535.00
517.89	65535.00
518.06	65535.00
518.24	65535.00
518.41	65535.00
518.58	65535.00
518.75	65535.00
518.93	65535.00
519.10	65535.00
519.27	65535.00
519.45	65535.00
519.62	65535.00
519.79	65535.00
519.96	65535.00
520.14	65535.00
520.31	65535.00
520.48	65535.00
520.65	65535.00
520.83	65535.00
521.00	65535.00
521.17	65535.00
521.34	65535.00
521.52	65535.00
521.69	65535.00
521.86	65535.00
522.03	65535.00
522.20	65535.00
522.38	65535.00
522.55	65535.00
522.72	65535.00
522.89	65535.00
523.07	65535.00
523.24	65535.00
523.41	65535.00
523.58	65535.00
523.75	65535.00
523.92	65535.00
524.10	65535.00
524.27	65535.00
524.44	65535.00
524.61	65535.00
524.78	65535.00
524.96	65535.00
525.13	65535.00
525.30	65535.00
525.47	65535.00
525.64	65535.00
525.81	65535.00
525.98	65535.00
526.16	65535.00
526.33	65535.00
526.50	65535.00
526.67	65535.00
526.84	65535.00
527.01	65535.00
527.18	65535.00
527.36	65535.00
527.53	65535.00
527.70	65535.00
527.87	65535.00
528.04	65535.00
528.21	65535.00
528.38	65535.00
528.55	65535.00
528.72	65535.00
528.89	65535.00
529.07	65535.00
529.24	65535.00
529.41	65535.00
529.58	65535.00
529.75	65535.00
529.92	65535.00
530.09	65535.00
530.26	65535.00
530.43	65535.00
530.60	65535.00
530.77	65535.00
530.94	65535.00
531.11	65535.00
531.28	65535.00
531.46	65535.00
531.63	65535.00
531.80	65535.00
531.97	65535.00
532.14	65535.00
532.31	65535.00
532.48	65535.00
532.65	65535.00
532.82	65535.00
532.99	65535.00
533.16	65535.00
533.33	65535.00
533.50	65535.00
533.67	65535.00
533.84	65535.00
534.01	65535.00
534.18	65535.00
534.35	65535.00
534.52	65535.00
534.69	65535.00
534.86	65535.00
535.03	65535.00
535.20	65535.00
535.37	65535.00
535.54	65535.00
535.71	65535.00
535.88	65535.00
536.05	65535.00
536.22	65535.00
536.38	65535.00
536.55	65535.00
536.72	65535.00
536.89	65535.00
537.06	65535.00
537.23	65535.00
537.40	65535.00
537.57	65535.00
537.74	65535.00
537.91	65535.00
538.08	65535.00
538.25	65535.00
538.42	65535.00
538.59	65535.00
538.75	65535.00
538.92	65535.00
539.09	65535.00
539.26	65535.00
539.43	65535.00
539.60	65535.00
539.77	65535.00
539.94	65535.00
540.11	65535.00
540.28	65535.00
540.44	65535.00
540.61	65535.00
540.78	65535.00
540.95	65535.00
541.12	65535.00
541.29	65535.00
541.46	65535.00
541.62	65535.00
541.79	65535.00
541.96	65535.00
542.13	65535.00
542.30	65535.00
542.47	65535.00
542.63	65535.00
542.80	65535.00
542.97	65535.00
543.14	65535.00
543.31	65535.00
543.48	65535.00
543.64	65535.00
543.81	65535.00
543.98	65535.00
544.15	65535.00
544.32	65535.00
544.48	65535.00
544.65	65535.00
544.82	65535.00
544.99	65535.00
545.16	65535.00
545.32	65535.00
545.49	65535.00
545.66	65535.00
545.83	65535.00
546.00	65535.00
546.16	65535.00
546.33	65535.00
546.50	65535.00
546.67	65535.00
546.83	65535.00
547.00	65535.00
547.17	65535.00
547.34	65535.00
547.50	65535.00
547.67	65535.00
547.84	65535.00
548.00	65535.00
548.17	65535.00
548.34	65535.00
548.51	65535.00
548.67	65535.00
548.84	65535.00
549.01	65535.00
549.18	65535.00
549.34	65535.00
549.51	65535.00
549.68	65535.00
549.84	65535.00
550.01	65535.00
550.18	65535.00
550.34	65535.00
550.51	65535.00
550.68	65535.00
550.84	65535.00
551.01	65535.00
551.18	65535.00
551.34	65535.00
551.51	65535.00
551.68	65535.00
551.84	65535.00
552.01	65535.00
552.18	65535.00
552.34	65535.00
552.51	65535.00
552.68	65535.00
552.84	65535.00
553.01	65535.00
553.18	65535.00
553.34	65535.00
553.51	65535.00
553.67	65535.00
553.84	65535.00
554.01	65535.00
554.17	65535.00
554.34	65535.00
554.51	65535.00
554.67	65535.00
554.84	65535.00
555.00	65535.00
555.17	65535.00
555.33	65535.00
555.50	65535.00
555.67	65535.00
555.83	65535.00
556.00	65535.00
556.16	65535.00
556.33	65535.00
556.50	65535.00
556.66	65535.00
556.83	65535.00
556.99	65535.00
557.16	65535.00
557.32	65535.00
557.49	65535.00
557.65	65535.00
557.82	65535.00
557.98	65535.00
558.15	65535.00
558.32	65535.00
558.48	65535.00
558.65	65535.00
558.81	65535.00
558.98	65535.00
559.14	65535.00
559.31	65535.00
559.47	65535.00
559.64	65535.00
559.80	65535.00
559.97	65535.00
560.13	65535.00
560.30	65535.00
560.46	65535.00
560.63	65535.00
560.79	65535.00
560.96	65535.00
561.12	65535.00
561.29	65535.00
561.45	65535.00
561.61	65535.00
561.78	65535.00
561.94	65535.00
562.11	65535.00
562.27	65535.00
562.44	65535.00
562.60	65535.00
562.77	65535.00
562.93	65535.00
563.10	65535.00
563.26	65535.00
563.42	65535.00
563.59	65535.00
563.75	65535.00
563.92	65535.00
564.08	65535.00
564.24	65535.00
564.41	65535.00
564.57	65535.00
564.74	65535.00
564.90	65535.00
565.07	65535.00
565.23	65535.00
565.39	65535.00
565.56	65535.00
565.72	65535.00
565.88	65535.00
566.05	65535.00
566.21	65535.00
566.38	65535.00
566.54	65535.00
566.70	65535.00
566.87	65535.00
567.03	65535.00
567.19	65535.00
567.36	65535.00
567.52	65535.00
567.68	65535.00
567.85	65535.00
568.01	65535.00
568.17	65535.00
568.34	65535.00
568.50	65535.00
568.66	65535.00
568.83	65535.00
568.99	65535.00
569.15	65535.00
569.32	65535.00
569.48	65535.00
569.64	65535.00
569.81	65535.00
569.97	65535.00
570.13	65535.00
570.30	65535.00
570.46	65535.00
570.62	65535.00
570.78	65535.00
570.95	65535.00
571.11	65535.00
571.27	65535.00
571.43	65535.00
571.60	65535.00
571.76	65535.00
571.92	65535.00
572.09	65535.00
572.25	65535.00
572.41	65535.00
572.57	65535.00
572.74	65535.00
572.90	65535.00
573.06	65535.00
573.22	65535.00
573.38	65535.00
573.55	65535.00
573.71	65535.00
573.87	65535.00
574.03	65535.00
574.20	65535.00
574.36	65535.00
574.52	65535.00
574.68	65535.00
574.84	65535.00
575.01	65535.00
575.17	65535.00
575.33	65535.00
575.49	65535.00
575.65	65535.00
575.82	65535.00
575.98	65535.00
576.14	65535.00
576.30	65535.00
576.46	65535.00
576.62	65535.00
576.79	65535.00
576.95	65535.00
577.11	65535.00
577.27	65535.00
577.43	65535.00
577.59	65535.00
577.75	65535.00
577.92	65535.00
578.08	65535.00
578.24	65535.00
578.40	65535.00
578.56	65535.00
578.72	65535.00
578.88	65535.00
579.04	65535.00
579.21	65535.00
579.37	65535.00
579.53	65535.00
579.69	65535.00
579.85	65535.00
580.01	65535.00
580.17	65535.00
580.33	65535.00
580.49	65535.00
580.65	65535.00
580.82	65535.00
580.98	65535.00
581.14	65535.00
581.30	65535.00
581.46	65535.00
581.62	65535.00
581.78	65535.00
581.94	65535.00
582.10	65535.00
582.26	65535.00
582.42	65535.00
582.58	65535.00
582.74	65535.00
582.90	65535.00
583.06	65535.00
583.22	65535.00
583.38	65535.00
583.54	65535.00
583.70	65535.00
583.86	65535.00
584.02	65535.00
584.18	65535.00
584.34	65535.00
584.50	65535.00
