SpectraSuite Data File
++++++++++++++++++++++++++++++++++++
Date: Mon Oct 07 14:54:57 GMT-05:00 2013
User: price-jones
Dark Spectrum Present: No
Reference Spectrum Present: No
Number of Sampled Component Spectra: 1
Spectrometers: USB2+H05261
Integration Time (usec): 10000 (USB2+H05261)
Spectra Averaged: 1 (USB2+H05261)
Boxcar Smoothing: 0 (USB2+H05261)
Correct for Electrical Dark: No (USB2+H05261)
Strobe/Lamp Enabled: No (USB2+H05261)
Correct for Detector Non-linearity: No (USB2+H05261)
Correct for Stray Light: No (USB2+H05261)
Number of Pixels in Processed Spectrum: 2048
>>>>>Begin Processed Spectral Data<<<<<
365.73	0.00
365.92	0.00
366.12	0.00
366.32	0.00
366.52	0.00
366.72	0.00
366.91	0.00
367.11	0.00
367.31	0.00
367.51	0.00
367.70	0.00
367.90	0.00
368.10	0.00
368.30	0.00
368.49	0.00
368.69	0.00
368.89	0.00
369.09	0.00
369.28	0.00
369.48	0.00
369.68	0.00
369.87	0.00
370.07	0.00
370.27	0.00
370.47	1172.61
370.66	4997.04
370.86	5696.86
371.06	6106.46
371.25	6139.23
371.45	5565.79
371.65	5074.28
371.84	4816.82
372.04	5041.51
372.24	5755.38
372.44	5916.87
372.63	5633.67
372.83	5315.36
373.03	4587.45
373.22	4229.35
373.42	4648.30
373.62	5294.29
373.81	5886.45
374.01	5542.39
374.21	5034.49
374.40	4854.27
374.60	5006.41
374.79	5736.65
374.99	6909.26
375.19	7246.30
375.38	7220.55
375.58	6478.60
375.78	6693.93
375.97	6806.28
376.17	6995.86
376.37	6984.16
376.56	7185.44
376.76	7662.91
376.95	8060.80
377.15	8477.42
377.35	8961.91
377.54	9280.22
377.74	9661.73
377.93	9418.32
378.13	8966.59
378.33	8648.28
378.52	8058.46
378.72	7648.87
378.91	7658.23
379.11	7529.50
379.31	7250.98
379.50	7398.43
379.70	7995.27
379.89	8725.52
380.09	9202.99
380.28	9537.68
380.48	9490.87
380.68	9247.46
380.87	9053.19
381.07	8341.67
381.26	7606.74
381.46	7342.26
381.65	6871.81
381.85	6764.15
382.04	6326.47
382.24	6069.01
382.43	5603.24
382.63	5746.02
382.83	5785.80
383.02	5736.65
383.22	5928.58
383.41	5909.85
383.61	6211.78
383.80	7199.49
384.00	8241.03
384.19	9212.35
384.39	9572.79
384.58	9533.00
384.78	9179.58
384.97	9357.46
385.17	8716.16
385.36	8280.82
385.56	8035.06
385.75	8800.41
385.95	9338.74
386.14	9827.91
386.34	9895.78
386.53	9186.60
386.72	8994.68
386.92	9064.89
387.11	9528.32
387.31	9848.97
387.50	9769.40
387.70	9385.55
387.89	9242.78
388.09	9191.28
388.28	9577.47
388.48	9628.96
388.67	10614.33
388.86	11686.29
389.06	12182.49
389.25	12800.39
389.45	13043.81
389.64	12767.62
389.84	12615.49
390.03	12479.74
390.22	12767.62
390.42	13287.22
390.61	14150.88
390.81	15023.90
391.00	15122.20
391.19	14864.74
391.39	14714.95
391.58	13343.39
391.78	12854.22
391.97	12472.71
392.16	11506.07
392.36	10029.20
392.55	8016.33
392.75	6520.73
392.94	5448.77
393.13	5673.46
393.33	6782.87
393.52	8865.95
393.71	10504.32
393.91	11852.47
394.10	12861.24
394.29	13893.42
394.49	15089.43
394.68	16002.24
394.88	16301.83
395.07	16531.20
395.26	16645.89
395.46	16238.64
395.65	14803.89
395.84	12704.43
396.04	10707.95
396.23	8669.34
396.42	7405.46
396.62	7386.73
396.81	8985.32
397.00	11506.07
397.19	14237.48
397.39	16599.08
397.58	18820.25
397.77	19391.34
397.97	20404.79
398.16	20823.75
398.35	21612.51
398.55	21956.57
398.74	23096.41
398.93	23028.53
399.12	22829.59
399.32	22010.40
399.51	22843.63
399.70	24510.09
399.90	24016.24
400.09	23852.40
400.28	23805.59
400.47	24252.63
400.67	25418.22
400.86	26082.93
401.05	25579.71
401.24	26190.59
401.44	26766.37
401.63	26801.47
401.82	26691.47
402.01	26405.92
402.21	26768.71
402.40	26862.33
402.59	26068.89
402.78	24709.04
402.97	23962.40
403.17	25343.32
403.36	27325.75
403.55	28257.29
403.74	28371.97
403.93	26712.53
404.13	24954.79
404.32	24723.08
404.51	26204.64
404.70	28018.55
404.89	27693.22
405.09	27524.70
405.28	26375.50
405.47	26504.23
405.66	26916.16
405.85	25596.10
406.05	25116.29
406.24	26017.40
406.43	27030.85
406.62	27805.56
406.81	27988.13
407.00	26965.31
407.20	26370.82
407.39	26511.25
407.58	28116.86
407.77	29422.87
407.96	29336.27
408.15	30066.52
408.34	30445.69
408.54	31676.81
408.73	31604.25
408.92	31281.26
409.11	29996.31
409.30	28985.19
409.49	26988.72
409.68	25579.71
409.87	24769.89
410.07	27187.66
410.26	29118.60
410.45	30700.81
410.64	31363.18
410.83	32102.79
411.02	33322.21
411.21	34618.86
411.40	33160.71
411.59	33867.55
411.78	33883.94
411.98	33298.80
412.17	34178.84
412.36	33607.75
412.55	33263.69
412.74	32217.47
412.93	32151.94
413.12	32711.33
413.31	35182.93
413.50	35634.66
413.69	36135.53
413.88	34368.43
414.07	34010.32
414.26	35122.08
414.45	35505.93
414.64	35056.54
414.83	36006.80
415.02	35299.96
415.22	35346.77
415.41	36170.64
415.60	37205.16
415.79	39393.56
415.98	39426.32
416.17	39386.54
416.36	37858.17
416.55	37825.40
416.74	36765.14
416.93	35594.87
417.12	35775.09
417.31	36327.45
417.50	37078.77
417.69	38352.02
417.88	37834.76
418.07	37919.02
418.26	37230.90
418.45	37736.46
418.64	38766.29
418.83	40198.70
419.02	39522.29
419.21	39332.70
419.39	37649.86
419.58	35597.21
419.77	36378.95
419.96	37916.68
420.15	40538.08
420.34	41289.39
420.53	42068.79
420.72	42007.94
420.91	42260.71
421.10	42082.83
421.29	41652.17
421.48	40570.85
421.67	42263.05
421.86	40741.71
422.05	37490.70
422.24	34298.21
422.43	35000.37
422.61	38888.00
422.80	41088.10
422.99	40575.53
423.18	39505.90
423.37	38890.34
423.56	39543.35
423.75	39746.98
423.94	41186.41
424.13	39166.52
424.32	38614.16
424.50	39012.05
424.69	38670.33
424.88	39068.22
425.07	38742.89
425.26	38733.53
425.45	38190.52
425.64	37717.73
425.83	38031.36
426.01	41137.26
426.20	41827.71
426.39	40460.84
426.58	37514.11
426.77	34649.29
426.96	34043.09
427.15	35512.95
427.33	38913.75
427.52	39112.69
427.71	40297.00
427.90	39133.76
428.09	38766.29
428.28	38059.45
428.46	36919.61
428.65	36374.27
428.84	38094.56
429.03	37717.73
429.22	35566.78
429.40	33340.93
429.59	30501.86
429.78	27005.10
429.97	27307.03
430.16	27580.87
430.34	27543.42
430.53	27782.16
430.72	29139.67
430.91	32938.36
431.10	38993.32
431.28	44872.75
431.47	46927.74
431.66	46389.42
431.85	43115.01
432.03	39461.43
432.22	38857.57
432.41	40781.49
432.60	43910.79
432.79	46080.47
432.97	46522.83
433.16	45591.30
433.35	40935.97
433.54	37467.30
433.72	35990.42
433.91	38265.42
434.10	42478.38
434.28	44538.05
434.47	45897.91
434.66	45205.11
434.85	44273.57
435.03	43761.00
435.22	45453.20
435.41	46986.25
435.59	47639.26
435.78	48779.10
435.97	49284.66
436.16	49528.08
436.34	49069.33
436.53	48226.74
436.72	48378.87
436.90	46351.97
437.09	45862.80
437.28	45429.80
437.46	47281.16
437.65	46326.22
437.84	42897.34
438.02	39896.77
438.21	40854.05
438.40	42747.54
438.58	46190.47
438.77	47014.34
438.96	47075.19
439.14	48877.41
439.33	49432.11
439.52	50033.63
439.70	49148.91
439.89	47784.38
440.08	47646.29
440.26	48067.58
440.45	49287.00
440.63	50862.18
440.82	52547.37
441.01	52133.09
441.19	51927.13
441.38	52748.65
441.57	54033.61
441.75	53998.50
441.94	53734.02
442.12	53776.15
442.31	54710.02
442.50	54614.06
442.68	54232.55
442.87	53792.53
443.05	52912.49
443.24	53621.67
443.43	54660.87
443.61	54848.11
443.80	55147.70
443.98	53787.85
444.17	53616.99
444.35	55337.29
444.54	55714.11
444.73	55838.16
444.91	54279.36
445.10	52530.98
445.28	51870.95
445.47	51243.69
445.65	51519.87
445.84	52037.13
446.02	53446.13
446.21	54199.79
446.39	54356.60
446.58	54803.64
446.77	54791.94
446.95	55480.06
447.14	56058.17
447.32	56346.06
447.51	55433.25
447.69	54656.19
447.88	54740.45
448.06	54988.55
448.25	55297.50
448.43	55419.20
448.62	54857.48
448.80	54628.10
448.99	55283.45
449.17	55636.87
449.36	55749.22
449.54	56671.39
449.73	57003.75
449.91	57270.57
450.10	58319.13
450.28	58597.65
450.46	58363.60
450.65	57874.43
450.83	57937.62
451.02	57207.37
451.20	57113.75
451.39	57256.53
451.57	57193.33
451.76	57247.16
451.94	57090.35
452.13	56392.87
452.31	54951.10
452.49	53750.40
452.68	54637.47
452.86	54454.90
453.05	55246.00
453.23	56053.49
453.42	56598.83
453.60	56966.30
453.78	57542.07
453.97	56900.76
454.15	56851.61
454.34	56390.53
454.52	56451.38
454.70	55828.80
454.89	56584.79
455.07	56479.47
455.26	57249.50
455.44	58094.44
455.62	58445.52
455.81	58452.54
455.99	58178.70
456.17	57804.21
456.36	58295.72
456.54	58569.57
456.73	58700.64
456.91	59400.46
457.09	59260.02
457.28	59608.76
457.46	58499.35
457.64	58012.52
457.83	57733.99
458.01	57214.40
458.19	58422.11
458.38	58080.39
458.56	59274.07
458.74	59222.58
458.93	58312.11
459.11	58583.61
459.29	58113.16
459.48	58382.32
459.66	58452.54
459.84	58798.94
460.03	58728.72
460.21	59117.25
460.39	59777.28
460.57	59037.67
460.76	60296.88
460.94	60144.75
461.12	59561.95
461.31	59693.02
461.49	59334.92
461.67	59419.18
461.85	60086.23
462.04	59564.29
462.22	59906.01
462.40	59957.50
462.59	60020.70
462.77	60434.97
462.95	59990.27
463.13	60144.75
463.32	59760.90
463.50	59674.30
463.68	59793.67
463.86	59852.18
464.05	59269.39
464.23	59096.19
464.41	58913.62
464.59	58894.90
464.78	60229.01
464.96	59898.99
465.14	59299.81
465.32	60409.23
465.50	60814.14
465.69	60566.04
465.87	60004.31
466.05	59227.26
466.23	57717.61
466.41	57382.91
466.60	59238.96
466.78	58993.20
466.96	59423.86
467.14	60025.38
467.32	59840.48
467.51	60149.43
467.69	59018.95
467.87	59192.15
468.05	59716.43
468.23	59870.90
468.41	60097.94
468.60	60149.43
468.78	60250.07
468.96	59763.24
469.14	60226.66
469.32	60395.18
469.50	59147.68
469.69	59451.95
469.87	58775.53
470.05	59210.87
470.23	59217.89
470.41	59386.41
470.59	59732.81
470.77	59854.52
470.95	60252.41
471.14	60856.27
471.32	60959.25
471.50	61930.58
471.68	61513.96
471.86	62131.86
472.04	62305.06
472.22	62220.80
472.40	60903.08
472.58	60797.76
472.77	60718.18
472.95	61296.29
473.13	61717.59
473.31	61013.08
473.49	61647.37
473.67	61675.46
473.85	62356.55
474.03	62522.73
474.21	62520.39
474.39	62857.43
474.57	63192.12
474.75	63084.46
474.93	63037.65
475.12	62178.67
475.30	62485.28
475.48	62284.00
475.66	62817.64
475.84	62621.03
476.02	62349.53
476.20	61921.21
476.38	62506.35
476.56	63047.01
476.74	63814.71
476.92	63723.43
477.10	63723.43
477.28	64439.63
477.46	64065.14
477.64	65073.91
477.82	65181.58
478.00	64835.18
478.18	64802.41
478.36	64514.53
478.54	64584.74
478.72	64299.20
478.90	65427.34
479.08	65535.00
479.26	65535.00
479.44	65535.00
479.62	65535.00
479.80	65535.00
479.98	65535.00
480.16	65535.00
480.34	65535.00
480.52	65535.00
480.70	65535.00
480.88	65535.00
481.06	65535.00
481.24	65535.00
481.41	65535.00
481.59	65535.00
481.77	65535.00
481.95	65535.00
482.13	65535.00
482.31	65535.00
482.49	65535.00
482.67	65535.00
482.85	65535.00
483.03	65535.00
483.21	65535.00
483.39	65535.00
483.57	65535.00
483.74	65535.00
483.92	65535.00
484.10	65535.00
484.28	65535.00
484.46	65535.00
484.64	65535.00
484.82	65535.00
485.00	65535.00
485.18	65535.00
485.35	65535.00
485.53	65535.00
485.71	62754.44
485.89	63135.95
486.07	64704.11
486.25	65535.00
486.43	65535.00
486.61	65535.00
486.78	65535.00
486.96	65535.00
487.14	65535.00
487.32	65535.00
487.50	65535.00
487.68	65535.00
487.85	65535.00
488.03	65535.00
488.21	65535.00
488.39	65535.00
488.57	65535.00
488.75	65535.00
488.92	65535.00
489.10	65535.00
489.28	65535.00
489.46	65535.00
489.64	65535.00
489.81	65535.00
489.99	65535.00
490.17	65535.00
490.35	65535.00
490.53	65535.00
490.70	65535.00
490.88	65535.00
491.06	65535.00
491.24	65535.00
491.41	65535.00
491.59	65535.00
491.77	65535.00
491.95	65535.00
492.13	65535.00
492.30	65535.00
492.48	65535.00
492.66	65535.00
492.84	65535.00
493.01	65535.00
493.19	65535.00
493.37	65535.00
493.54	65535.00
493.72	65535.00
493.90	65535.00
494.08	65535.00
494.25	65535.00
494.43	65535.00
494.61	65535.00
494.79	65535.00
494.96	65535.00
495.14	65535.00
495.32	65535.00
495.49	65535.00
495.67	65535.00
495.85	65535.00
496.02	65535.00
496.20	65535.00
496.38	65535.00
496.55	65535.00
496.73	65535.00
496.91	65535.00
497.09	65535.00
497.26	65535.00
497.44	65535.00
497.62	65535.00
497.79	65535.00
497.97	65535.00
498.14	65535.00
498.32	65535.00
498.50	65535.00
498.67	65535.00
498.85	65535.00
499.03	65535.00
499.20	65535.00
499.38	65535.00
499.56	65535.00
499.73	65535.00
499.91	65535.00
500.08	65535.00
500.26	65535.00
500.44	65535.00
500.61	65535.00
500.79	65535.00
500.97	65535.00
501.14	65535.00
501.32	65535.00
501.49	65535.00
501.67	65535.00
501.84	65535.00
502.02	65535.00
502.20	65535.00
502.37	65535.00
502.55	65535.00
502.72	65535.00
502.90	65535.00
503.07	65535.00
503.25	65535.00
503.43	65535.00
503.60	65535.00
503.78	65535.00
503.95	65535.00
504.13	65535.00
504.30	65535.00
504.48	65535.00
504.65	65535.00
504.83	65535.00
505.01	65535.00
505.18	65535.00
505.36	65535.00
505.53	65535.00
505.71	65535.00
505.88	65535.00
506.06	65535.00
506.23	65535.00
506.41	65535.00
506.58	65535.00
506.76	65535.00
506.93	65535.00
507.11	65535.00
507.28	65535.00
507.46	65535.00
507.63	65535.00
507.81	65535.00
507.98	65535.00
508.16	65535.00
508.33	65535.00
508.50	65535.00
508.68	65535.00
508.85	65535.00
509.03	65535.00
509.20	65535.00
509.38	65535.00
509.55	65535.00
509.73	65535.00
509.90	65535.00
510.08	65535.00
510.25	65535.00
510.42	65535.00
510.60	65535.00
510.77	65535.00
510.95	65535.00
511.12	65535.00
511.30	65535.00
511.47	65535.00
511.64	65535.00
511.82	65535.00
511.99	65535.00
512.17	65535.00
512.34	65535.00
512.51	65535.00
512.69	65535.00
512.86	65535.00
513.04	65535.00
513.21	65535.00
513.38	65535.00
513.56	65535.00
513.73	65535.00
513.90	65535.00
514.08	65535.00
514.25	65535.00
514.43	65535.00
514.60	65535.00
514.77	65535.00
514.95	65535.00
515.12	65535.00
515.29	65535.00
515.47	65535.00
515.64	65535.00
515.81	65535.00
515.99	65535.00
516.16	65535.00
516.33	65535.00
516.51	65535.00
516.68	65535.00
516.85	65535.00
517.03	65535.00
517.20	65535.00
517.37	65535.00
517.54	65535.00
517.72	65535.00
517.89	65535.00
518.06	65535.00
518.24	65535.00
518.41	65535.00
518.58	65535.00
518.75	65535.00
518.93	65535.00
519.10	65535.00
519.27	65535.00
519.45	65535.00
519.62	65535.00
519.79	65535.00
519.96	65535.00
520.14	65535.00
520.31	65535.00
520.48	65535.00
520.65	65535.00
520.83	65535.00
521.00	65535.00
521.17	65535.00
521.34	65535.00
521.52	65535.00
521.69	65535.00
521.86	65535.00
522.03	65535.00
522.20	65535.00
522.38	65535.00
522.55	65535.00
522.72	65535.00
522.89	65535.00
523.07	65535.00
523.24	65535.00
523.41	65535.00
523.58	65535.00
523.75	65535.00
523.92	65535.00
524.10	65535.00
524.27	65535.00
524.44	65535.00
524.61	65535.00
524.78	65535.00
524.96	65535.00
525.13	65535.00
525.30	65535.00
525.47	65535.00
525.64	65535.00
525.81	65535.00
525.98	65535.00
526.16	65535.00
526.33	65535.00
526.50	65535.00
526.67	65535.00
526.84	65535.00
527.01	65535.00
527.18	65535.00
527.36	65535.00
527.53	65535.00
527.70	65535.00
527.87	65535.00
528.04	65535.00
528.21	65535.00
528.38	65535.00
528.55	65535.00
528.72	65535.00
528.89	65535.00
529.07	65535.00
529.24	65535.00
529.41	65535.00
529.58	65535.00
529.75	65535.00
529.92	65535.00
530.09	65535.00
530.26	65535.00
530.43	65535.00
530.60	65535.00
530.77	65535.00
530.94	65535.00
531.11	65535.00
531.28	65535.00
531.46	65535.00
531.63	65535.00
531.80	65535.00
531.97	65535.00
532.14	65535.00
532.31	65535.00
532.48	65535.00
532.65	65535.00
532.82	65535.00
532.99	65535.00
533.16	65535.00
533.33	65535.00
533.50	65535.00
533.67	65535.00
533.84	65535.00
534.01	65535.00
534.18	65535.00
534.35	65535.00
534.52	65535.00
534.69	65535.00
534.86	65535.00
535.03	65535.00
535.20	65535.00
535.37	65535.00
535.54	65535.00
535.71	65535.00
535.88	65535.00
536.05	65535.00
536.22	65535.00
536.38	65535.00
536.55	65535.00
536.72	65535.00
536.89	65535.00
537.06	65535.00
537.23	65535.00
537.40	65535.00
537.57	65535.00
537.74	65535.00
537.91	65535.00
538.08	65535.00
538.25	65535.00
538.42	65535.00
538.59	65535.00
538.75	65535.00
538.92	65535.00
539.09	65535.00
539.26	65535.00
539.43	65535.00
539.60	65535.00
539.77	65535.00
539.94	65535.00
540.11	65535.00
540.28	65535.00
540.44	65535.00
540.61	65535.00
540.78	65535.00
540.95	65535.00
541.12	65535.00
541.29	65535.00
541.46	65535.00
541.62	65535.00
541.79	65535.00
541.96	65535.00
542.13	65535.00
542.30	65535.00
542.47	65535.00
542.63	65535.00
542.80	65535.00
542.97	65535.00
543.14	65535.00
543.31	65535.00
543.48	65535.00
543.64	65535.00
543.81	65535.00
543.98	65535.00
544.15	65535.00
544.32	65535.00
544.48	65535.00
544.65	65535.00
544.82	65535.00
544.99	65535.00
545.16	65535.00
545.32	65535.00
545.49	65535.00
545.66	65535.00
545.83	65535.00
546.00	65535.00
546.16	65535.00
546.33	65535.00
546.50	65535.00
546.67	65535.00
546.83	65535.00
547.00	65535.00
547.17	65535.00
547.34	65535.00
547.50	65535.00
547.67	65535.00
547.84	65535.00
548.00	65535.00
548.17	65535.00
548.34	65535.00
548.51	65535.00
548.67	65535.00
548.84	65535.00
549.01	65535.00
549.18	65535.00
549.34	65535.00
549.51	65535.00
549.68	65535.00
549.84	65535.00
550.01	65535.00
550.18	65535.00
550.34	65535.00
550.51	65535.00
550.68	65535.00
550.84	65535.00
551.01	65535.00
551.18	65535.00
551.34	65535.00
551.51	65535.00
551.68	65535.00
551.84	65535.00
552.01	65535.00
552.18	65535.00
552.34	65535.00
552.51	65535.00
552.68	65535.00
552.84	65535.00
553.01	65535.00
553.18	65535.00
553.34	65535.00
553.51	65535.00
553.67	65535.00
553.84	65535.00
554.01	65535.00
554.17	65535.00
554.34	65535.00
554.51	65535.00
554.67	65535.00
554.84	65535.00
555.00	65535.00
555.17	65535.00
555.33	65535.00
555.50	65535.00
555.67	65535.00
555.83	65535.00
556.00	65535.00
556.16	65535.00
556.33	65535.00
556.50	65535.00
556.66	65535.00
556.83	65535.00
556.99	65535.00
557.16	65535.00
557.32	65535.00
557.49	65535.00
557.65	65535.00
557.82	65535.00
557.98	65535.00
558.15	65535.00
558.32	65535.00
558.48	65535.00
558.65	65535.00
558.81	65535.00
558.98	65535.00
559.14	65535.00
559.31	65535.00
559.47	65535.00
559.64	65535.00
559.80	65535.00
559.97	65535.00
560.13	65535.00
560.30	65535.00
560.46	65535.00
560.63	65535.00
560.79	65535.00
560.96	65535.00
561.12	65535.00
561.29	65535.00
561.45	65535.00
561.61	65535.00
561.78	65535.00
561.94	65535.00
562.11	65535.00
562.27	65535.00
562.44	65535.00
562.60	65535.00
562.77	65535.00
562.93	65535.00
563.10	65535.00
563.26	65535.00
563.42	65535.00
563.59	65535.00
563.75	65535.00
563.92	65535.00
564.08	65535.00
564.24	65535.00
564.41	65535.00
564.57	65535.00
564.74	65535.00
564.90	65535.00
565.07	65535.00
565.23	65535.00
565.39	65535.00
565.56	65535.00
565.72	65535.00
565.88	65535.00
566.05	65535.00
566.21	65535.00
566.38	65535.00
566.54	65535.00
566.70	65535.00
566.87	65535.00
567.03	65535.00
567.19	65535.00
567.36	65535.00
567.52	65535.00
567.68	65535.00
567.85	65535.00
568.01	65535.00
568.17	65535.00
568.34	65535.00
568.50	65535.00
568.66	65535.00
568.83	65535.00
568.99	65535.00
569.15	65535.00
569.32	65535.00
569.48	65535.00
569.64	65535.00
569.81	65535.00
569.97	65535.00
570.13	65535.00
570.30	65535.00
570.46	65535.00
570.62	65535.00
570.78	65535.00
570.95	65535.00
571.11	65535.00
571.27	65535.00
571.43	65535.00
571.60	65535.00
571.76	65535.00
571.92	65535.00
572.09	65535.00
572.25	65535.00
572.41	65535.00
572.57	65535.00
572.74	65535.00
572.90	65535.00
573.06	65535.00
573.22	65535.00
573.38	65535.00
573.55	65535.00
573.71	65535.00
573.87	65535.00
574.03	65535.00
574.20	65535.00
574.36	65535.00
574.52	65535.00
574.68	65535.00
574.84	65535.00
575.01	65535.00
575.17	65535.00
575.33	65535.00
575.49	65535.00
575.65	65535.00
575.82	65535.00
575.98	65535.00
576.14	65535.00
576.30	65535.00
576.46	65535.00
576.62	65535.00
576.79	65535.00
576.95	65535.00
577.11	65535.00
577.27	65535.00
577.43	65535.00
577.59	65535.00
577.75	65535.00
577.92	65535.00
578.08	65535.00
578.24	65535.00
578.40	65535.00
578.56	65535.00
578.72	65535.00
578.88	65535.00
579.04	65535.00
579.21	65535.00
579.37	65535.00
579.53	65535.00
579.69	65535.00
579.85	65535.00
580.01	65535.00
580.17	65535.00
580.33	65535.00
580.49	65535.00
580.65	65535.00
580.82	65535.00
580.98	65535.00
581.14	65535.00
581.30	65535.00
581.46	65535.00
581.62	65535.00
581.78	65535.00
581.94	65535.00
582.10	65535.00
582.26	65535.00
582.42	65535.00
582.58	65535.00
582.74	65535.00
582.90	65535.00
583.06	65535.00
583.22	65535.00
583.38	65535.00
583.54	65535.00
583.70	65535.00
583.86	65535.00
584.02	65535.00
584.18	65535.00
584.34	65535.00
584.50	65535.00
584.66	65535.00
584.82	65535.00
