SpectraSuite Data File
++++++++++++++++++++++++++++++++++++
Date: Mon Oct 07 14:53:45 GMT-05:00 2013
User: price-jones
Dark Spectrum Present: No
Reference Spectrum Present: No
Number of Sampled Component Spectra: 1
Spectrometers: USB2+H05261
Integration Time (usec): 100000 (USB2+H05261)
Spectra Averaged: 1 (USB2+H05261)
Boxcar Smoothing: 0 (USB2+H05261)
Correct for Electrical Dark: No (USB2+H05261)
Strobe/Lamp Enabled: No (USB2+H05261)
Correct for Detector Non-linearity: No (USB2+H05261)
Correct for Stray Light: No (USB2+H05261)
Number of Pixels in Processed Spectrum: 2048
>>>>>Begin Processed Spectral Data<<<<<
365.73	0.00
365.92	0.00
366.12	0.00
366.32	0.00
366.52	0.00
366.72	0.00
366.91	0.00
367.11	0.00
367.31	0.00
367.51	0.00
367.70	0.00
367.90	0.00
368.10	0.00
368.30	0.00
368.49	0.00
368.69	0.00
368.89	0.00
369.09	0.00
369.28	0.00
369.48	0.00
369.68	0.00
369.87	0.00
370.07	0.00
370.27	0.00
370.47	554.71
370.66	3110.57
370.86	3906.35
371.06	4114.66
371.25	4154.45
371.45	3873.59
371.65	3384.41
371.84	3080.14
372.04	3384.41
372.24	3679.32
372.44	3936.78
372.63	3812.73
372.83	3651.24
373.03	3169.09
373.22	2974.82
373.42	3012.27
373.62	3538.89
373.81	3852.52
374.01	3768.26
374.21	3513.14
374.40	3148.02
374.60	3386.76
374.79	3845.50
374.99	4582.77
375.19	4772.35
375.38	4798.10
375.58	4372.12
375.78	4381.48
375.97	4423.61
376.17	4706.82
376.37	4674.05
376.56	4760.65
376.76	4966.62
376.95	5254.50
377.15	5769.42
377.35	5881.77
377.54	6207.10
377.74	6157.95
377.93	6214.12
378.13	6272.64
378.33	5954.32
378.52	5329.40
378.72	5167.90
378.91	5153.86
379.11	4908.10
379.31	4821.50
379.50	4809.80
379.70	5191.31
379.89	5650.05
380.09	6022.20
380.28	6200.08
380.48	6207.10
380.68	6073.69
380.87	6015.18
381.07	5481.53
381.26	5001.72
381.46	4678.73
381.65	4662.35
381.85	4477.44
382.04	4329.99
382.24	4065.51
382.43	3709.75
382.63	3637.19
382.83	3714.43
383.02	3747.20
383.22	3779.97
383.41	3712.09
383.61	4016.36
383.80	4739.58
384.00	5245.14
384.19	5933.26
384.39	6207.10
384.58	6204.76
384.78	5951.98
384.97	5982.41
385.17	5551.75
385.36	5507.28
385.56	5142.16
385.75	5341.10
385.95	5731.97
386.14	6347.53
386.34	6389.66
386.53	5891.13
386.72	5699.20
386.92	5753.04
387.11	5942.62
387.31	6324.13
387.50	6345.19
387.70	6057.31
387.89	5963.68
388.09	6001.13
388.28	5973.05
388.48	6134.54
388.67	6600.31
388.86	7304.81
389.06	7765.90
389.25	8224.64
389.45	8262.09
389.64	8271.45
389.84	8315.92
390.03	7988.25
390.22	7857.18
390.42	7995.27
390.61	8734.88
390.81	9235.75
391.00	9458.10
391.19	9502.58
391.39	9121.07
391.58	8784.03
391.78	8086.55
391.97	7779.94
392.16	7297.79
392.36	6829.68
392.55	5277.91
392.75	4458.72
392.94	3566.98
393.13	3391.44
393.33	4112.32
393.52	5055.56
393.71	6480.94
393.91	7122.25
394.10	7789.30
394.29	8507.85
394.49	9034.47
394.68	9907.49
394.88	9738.97
395.07	10406.02
395.26	10176.65
395.46	10382.62
395.65	9423.00
395.84	8224.64
396.04	6986.50
396.23	5755.38
396.42	4809.80
396.62	4596.81
396.81	5275.57
397.00	6806.28
397.19	8596.79
397.39	10078.35
397.58	11466.28
397.77	12271.43
397.97	12791.03
398.16	12989.97
398.35	13095.30
398.55	13621.92
398.74	13984.70
398.93	14441.11
399.12	14303.01
399.32	13535.32
399.51	13900.44
399.70	14815.59
399.90	14553.45
400.09	14890.49
400.28	14672.82
400.47	14642.39
400.67	15672.23
400.86	15934.37
401.05	15878.19
401.24	15887.56
401.44	16121.61
401.63	16135.65
401.82	16374.39
402.01	16271.40
402.21	16650.57
402.40	16758.24
402.59	16039.69
402.78	15566.90
402.97	14937.30
403.17	15335.19
403.36	16271.40
403.55	16938.46
403.74	17500.19
403.93	16273.74
404.13	15147.95
404.32	15023.90
404.51	15669.89
404.70	16837.81
404.89	16692.70
405.09	16627.17
405.28	16203.53
405.47	16140.33
405.66	16072.46
405.85	15433.49
406.05	15225.18
406.24	15208.80
406.43	16100.55
406.62	16713.77
406.81	16947.82
407.00	16123.95
407.20	15822.02
407.39	15712.02
407.58	16587.38
407.77	17514.23
407.96	17947.23
408.15	18115.75
408.34	18345.12
408.54	19091.75
408.73	19220.48
408.92	18665.77
409.11	18317.03
409.30	17268.47
409.49	16594.40
409.68	15229.87
409.87	14649.41
410.07	15723.72
410.26	16968.88
410.45	17949.57
410.64	18412.99
410.83	19115.16
411.02	19342.19
411.21	20650.55
411.40	19702.63
411.59	19833.70
411.78	19924.98
411.98	19697.95
412.17	20278.40
412.36	19929.66
412.55	19995.20
412.74	19594.96
412.93	18785.14
413.12	19066.00
413.31	20840.13
413.50	21099.93
413.69	21692.08
413.88	20381.38
414.07	20046.69
414.26	20423.51
414.45	20973.54
414.64	20978.22
414.83	21528.25
415.02	21018.01
415.22	20769.91
415.41	21214.62
415.60	22024.44
415.79	23023.85
415.98	23566.85
416.17	23625.37
416.36	22855.33
416.55	22595.53
416.74	21806.77
416.93	20973.54
417.12	20875.24
417.31	21436.97
417.50	21762.30
417.69	21949.54
417.88	22221.05
418.07	21963.59
418.26	21694.43
418.45	21757.62
418.64	22534.68
418.83	23520.04
419.02	23007.47
419.21	22930.23
419.39	21811.45
419.58	20886.94
419.77	20779.28
419.96	21783.37
420.15	23344.50
420.34	24093.47
420.53	24805.00
420.72	25226.29
420.91	24652.86
421.10	24687.97
421.29	24418.81
421.48	23510.68
421.67	24896.28
421.86	24219.86
422.05	22553.40
422.24	20355.64
422.43	19688.59
422.61	21600.80
422.80	23845.38
422.99	23913.25
423.18	23136.20
423.37	22377.86
423.56	22932.57
423.75	23190.03
423.94	23454.51
424.13	22183.60
424.32	22508.93
424.50	22567.45
424.69	22127.42
424.88	22164.87
425.07	22221.05
425.26	22387.22
425.45	21923.80
425.64	21453.35
425.83	21577.40
426.01	22747.67
426.20	23073.00
426.39	23201.73
426.58	21575.06
426.77	19953.07
426.96	19363.25
427.15	19733.06
427.33	21392.50
427.52	22607.23
427.71	22422.33
427.90	22497.23
428.09	22267.86
428.28	21549.31
428.46	20709.06
428.65	20816.72
428.84	21561.02
429.03	21362.07
429.22	19894.55
429.40	19508.37
429.59	17738.92
429.78	15178.37
429.97	15559.88
430.16	15838.41
430.34	16060.76
430.53	15805.64
430.72	16077.14
430.91	18024.47
431.10	21034.39
431.28	24273.70
431.47	26387.20
431.66	26995.74
431.85	24535.84
432.03	22298.28
432.22	21406.54
432.41	22553.40
432.60	24933.73
432.79	25919.09
432.97	26644.66
433.16	25748.23
433.35	23894.53
433.54	21308.24
433.72	19978.81
433.91	20255.00
434.10	22899.80
434.28	24844.79
434.47	26080.59
434.66	25333.96
434.85	25020.33
435.03	24683.29
435.22	25593.76
435.41	27054.25
435.59	27150.21
435.78	27321.07
435.97	28123.88
436.16	28259.63
436.34	28030.26
436.53	27351.50
436.72	27342.14
436.90	25916.75
437.09	25750.57
437.28	25289.49
437.46	26277.19
437.65	26316.98
437.84	24496.05
438.02	22410.63
438.21	21972.95
438.40	23351.52
438.58	25736.53
438.77	26185.91
438.96	26335.71
439.14	27686.20
439.33	27969.40
439.52	28648.16
439.70	28060.68
439.89	27438.10
440.08	26462.10
440.26	26558.06
440.45	27190.00
440.63	29076.48
440.82	31002.74
441.01	30719.53
441.19	30270.15
441.38	30735.92
441.57	31108.06
441.75	32430.46
441.94	32243.22
442.12	32025.55
442.31	32989.85
442.50	32233.86
442.68	32044.27
442.87	31779.79
443.05	31461.48
443.24	31723.62
443.43	32165.98
443.61	33050.70
443.80	33420.51
443.98	31672.13
444.17	31431.05
444.35	33146.67
444.54	34431.62
444.73	33383.06
444.91	32233.86
445.10	30976.99
445.28	29626.50
445.47	29530.54
445.65	29074.13
445.84	30061.84
446.02	31288.28
446.21	31704.90
446.39	31395.95
446.58	31861.71
446.77	32301.73
446.95	33123.26
447.14	33809.04
447.32	34281.83
447.51	33521.15
447.69	32357.91
447.88	31941.29
448.06	32453.87
448.25	33357.32
448.43	33443.91
448.62	32744.09
448.80	32765.16
448.99	32753.46
449.17	32830.69
449.36	33160.71
449.54	34249.06
449.73	34822.49
449.91	35344.43
450.10	36191.70
450.28	36353.20
450.46	36645.77
450.65	36388.31
450.83	36126.17
451.02	35594.87
451.20	34930.16
451.39	35536.35
451.57	35075.27
451.76	35220.38
451.94	34810.79
452.13	34349.70
452.31	32800.27
452.49	30941.88
452.68	31557.44
452.86	31604.25
453.05	31971.72
453.23	33127.94
453.42	33797.34
453.60	34773.34
453.78	34691.42
453.97	34422.26
454.15	34579.07
454.34	33809.04
454.52	34309.91
454.70	33127.94
454.89	33745.84
455.07	33387.74
455.26	34698.44
455.44	35091.65
455.62	36474.91
455.81	36353.20
455.99	36329.80
456.17	35751.68
456.36	35676.79
456.54	36704.28
456.73	36851.73
456.91	37394.74
457.09	37333.89
457.28	37930.72
457.46	36849.39
457.64	36725.35
457.83	35381.88
458.01	34962.92
458.19	35573.80
458.38	35849.99
458.56	36987.49
458.74	36769.82
458.93	36238.51
459.11	36081.70
459.29	35470.82
459.48	35697.85
459.66	35625.29
459.84	35936.59
460.03	36512.36
460.21	36439.80
460.39	37535.17
460.57	37579.64
460.76	38220.95
460.94	37773.91
461.12	37462.61
461.31	38038.39
461.49	37591.34
461.67	37607.73
461.85	38965.24
462.04	38588.41
462.22	38590.75
462.40	38464.36
462.59	38230.31
462.77	38667.99
462.95	38429.26
463.13	38155.41
463.32	37537.51
463.50	37668.58
463.68	37331.54
463.86	37951.79
464.05	37095.15
464.23	36151.91
464.41	36481.93
464.59	35803.17
464.78	37518.79
464.96	37064.72
465.14	36605.98
465.32	37710.71
465.50	38864.60
465.69	39213.34
465.87	38045.41
466.05	37305.80
466.23	36023.19
466.41	35021.44
466.60	35620.61
466.78	35522.31
466.96	36336.82
467.14	37193.45
467.32	37338.57
467.51	37563.26
467.69	35761.05
467.87	36552.15
468.05	37748.16
468.23	37345.59
468.41	37085.79
468.60	37479.00
468.78	37656.88
468.96	37214.52
469.14	38122.65
469.32	38000.94
469.50	36769.82
469.69	36762.79
469.87	36217.45
470.05	36266.60
470.23	36299.37
470.41	36339.16
470.59	36973.44
470.77	37221.54
470.95	37652.20
471.14	38012.64
471.32	38391.81
471.50	40161.25
471.68	40088.70
471.86	40561.48
472.04	40697.24
472.22	40844.69
472.40	39086.95
472.58	38642.24
472.77	38071.15
472.95	38747.57
473.13	39835.92
473.31	38630.54
473.49	39260.15
473.67	40046.57
473.85	39896.77
474.03	41235.56
474.21	41390.03
474.39	41242.58
474.57	42014.96
474.75	42101.56
474.93	41600.68
475.12	40744.05
475.30	40954.69
475.48	40849.37
475.66	41631.11
475.84	41163.00
476.02	40725.32
476.20	39927.20
476.38	41303.43
476.56	42148.37
476.74	42476.04
476.92	42880.95
477.10	43110.33
477.28	44594.23
477.46	44406.98
477.64	44837.64
477.82	45141.91
478.00	45031.91
478.18	44739.34
478.36	44608.27
478.54	44308.68
478.72	44952.33
478.90	45242.56
479.08	46557.94
479.26	47452.02
479.44	46880.93
479.62	46693.69
479.80	47173.50
479.98	47187.54
480.16	47643.94
480.34	46759.22
480.52	47723.52
480.70	47585.43
480.88	47573.73
481.06	48626.97
481.24	48582.50
481.41	49565.52
481.59	49797.24
481.77	49584.25
481.95	49125.50
482.13	49055.29
482.31	48919.54
482.49	49483.61
482.67	49235.51
482.85	49439.14
483.03	50412.80
483.21	50312.16
483.39	50499.40
483.57	49841.71
483.74	49251.89
483.92	50183.43
484.10	50319.18
484.28	51047.08
484.46	51522.21
484.64	51491.79
484.82	50838.78
485.00	50454.93
485.18	49907.24
485.35	48481.86
485.53	45989.19
485.71	41418.12
485.89	40889.16
486.07	43082.24
486.25	46052.38
486.43	48982.73
486.61	49385.30
486.78	49284.66
486.96	49628.72
487.14	51068.15
487.32	51774.99
487.50	52832.91
487.68	53656.78
487.85	53886.15
488.03	53979.78
488.21	53422.73
488.39	52898.45
488.57	52308.63
488.75	52128.41
488.92	52818.87
489.10	54894.92
489.28	56226.69
489.46	56603.52
489.64	56631.60
489.81	56736.93
489.99	56348.40
490.17	56296.91
490.35	56835.23
490.53	56306.27
490.70	55943.48
490.88	55868.59
491.06	56846.93
491.24	56760.33
491.41	55786.67
491.59	54515.76
491.77	53659.12
491.95	54485.33
492.13	55650.92
492.30	56718.20
492.48	57506.96
492.66	57946.98
492.84	57717.61
493.01	57631.01
493.19	57256.53
493.37	57073.96
493.54	56692.46
493.72	57333.76
493.90	58131.89
494.08	58714.68
494.25	59309.18
494.43	59208.53
494.61	59709.41
494.79	59597.06
494.96	59391.09
495.14	59025.97
495.32	58099.12
495.49	57553.77
495.67	58536.80
495.85	59767.92
496.02	60172.83
496.20	60039.42
496.38	59671.96
496.55	59325.56
496.73	59800.69
496.91	59931.76
497.09	60434.97
497.26	60617.53
497.44	60172.83
497.62	59704.73
497.79	59054.06
497.97	58045.29
498.14	57836.98
498.32	59016.61
498.50	59777.28
498.67	60170.49
498.85	60313.26
499.03	60381.14
499.20	60465.40
499.38	60643.28
499.56	60465.40
499.73	60119.00
499.91	59721.11
500.08	59269.39
500.26	58595.31
500.44	58894.90
500.61	59653.23
500.79	59669.62
500.97	59114.91
501.14	59173.42
501.32	58930.01
501.49	59065.76
501.67	59054.06
501.84	59505.78
502.02	59695.36
502.20	59849.84
502.37	60275.82
502.55	60210.28
502.72	60680.73
502.90	61015.43
503.07	60879.67
503.25	60374.12
503.43	59587.70
503.60	59128.95
503.78	58644.46
503.95	58824.68
504.13	60360.08
504.30	60844.57
504.48	60870.31
504.65	60530.93
504.83	60505.19
505.01	61237.78
505.18	61343.10
505.36	61993.77
505.53	62026.54
505.71	62162.29
505.88	62164.63
506.06	61640.35
506.23	61181.60
506.41	61038.83
506.58	61275.22
506.76	61230.75
506.93	61169.90
507.11	60755.63
507.28	61116.07
507.46	60643.28
507.63	60315.61
507.81	59840.48
507.98	60280.50
508.16	60795.42
508.33	61263.52
508.50	61794.82
508.68	61832.27
508.85	62417.41
509.03	62202.08
509.20	62152.93
509.38	61556.09
509.55	60863.29
509.73	60956.91
509.90	61366.51
510.08	61663.75
510.25	61574.81
510.42	61476.51
510.60	61492.89
510.77	61717.59
510.95	62120.16
511.12	62134.20
511.30	62309.74
511.47	62829.34
511.64	62527.41
511.82	62351.87
511.99	61645.03
512.17	61336.08
512.34	60846.91
512.51	61116.07
512.69	61214.37
512.86	61345.44
513.04	61820.57
513.21	61853.34
513.38	61371.19
513.56	60893.72
513.73	60292.20
513.90	60617.53
514.08	60652.64
514.25	61062.24
514.43	61268.20
514.60	61132.45
514.77	61434.38
514.95	61499.92
515.12	61425.02
515.29	61434.38
515.47	61944.62
515.64	62162.29
515.81	61759.72
515.99	61340.76
516.16	60020.70
516.33	58239.55
516.51	56690.12
516.68	56027.74
516.85	55447.29
517.03	55899.01
517.20	58127.20
517.37	60556.68
517.54	61551.41
517.72	60989.68
517.89	58852.77
518.06	56676.07
518.24	56942.89
518.41	58862.13
518.58	60055.81
518.75	60451.36
518.93	60488.80
519.10	60334.33
519.27	60802.44
519.45	60839.89
519.62	61537.36
519.79	61923.55
519.96	61827.59
520.14	61518.64
520.31	60676.05
520.48	60591.79
520.65	61071.60
520.83	61780.78
521.00	62096.75
521.17	61914.19
521.34	61483.53
521.52	61694.18
521.69	62295.70
521.86	62705.29
522.03	62468.90
522.20	61441.40
522.38	60329.65
522.55	60292.20
522.72	60989.68
522.89	60912.44
523.07	61202.67
523.24	61462.47
523.41	62176.33
523.58	62461.88
523.75	63021.26
523.92	62698.27
524.10	62864.45
524.27	62850.41
524.44	62604.65
524.61	62286.34
524.78	62326.13
524.96	62056.96
525.13	62309.74
525.30	62454.86
525.47	62983.82
525.64	62794.23
525.81	62078.03
525.98	60828.18
526.16	59365.35
526.33	59049.38
526.50	58705.32
526.67	58227.85
526.84	58475.94
527.01	59592.38
527.18	60388.16
527.36	61090.32
527.53	61993.77
527.70	62185.69
527.87	61907.17
528.04	61333.74
528.21	61748.01
528.38	62211.44
528.55	62911.26
528.72	63210.85
528.89	63377.03
529.07	63178.08
529.24	62604.65
529.41	61722.27
529.58	61375.87
529.75	61478.85
529.92	61652.05
530.09	62276.97
530.26	62602.31
530.43	63056.37
530.60	62880.83
530.77	63166.38
530.94	63248.30
531.11	62908.92
531.28	62536.77
531.46	62148.24
531.63	62422.09
531.80	62424.43
531.97	61989.09
532.14	61336.08
532.31	60254.75
532.48	59559.61
532.65	59744.51
532.82	60629.24
532.99	61649.71
533.16	61813.55
533.33	62431.45
533.50	62330.81
533.67	61551.41
533.84	61357.14
534.01	61387.57
534.18	61567.79
534.35	61986.75
534.52	61668.44
534.69	61961.00
534.86	62202.08
535.03	62557.84
535.20	62841.04
535.37	63180.42
535.54	63208.51
535.71	63011.90
535.88	62588.27
536.05	62117.82
536.22	61705.88
536.38	61511.62
536.55	60926.49
536.72	60434.97
536.89	60322.63
537.06	61223.73
537.23	61876.74
537.40	62162.29
537.57	62199.74
537.74	62003.13
537.91	62017.17
538.08	62028.88
538.25	61965.68
538.42	62024.20
538.59	61965.68
538.75	61268.20
538.92	61223.73
539.09	61031.81
539.26	60891.38
539.43	60767.33
539.60	60788.39
539.77	60954.57
539.94	60935.85
540.11	60257.09
540.28	59707.07
540.44	59648.55
540.61	60018.36
540.78	60362.42
540.95	60563.70
541.12	60921.80
541.29	61155.86
541.46	61413.32
541.62	61567.79
541.79	61403.95
541.96	60928.83
542.13	60750.94
542.30	61059.90
542.47	61181.60
542.63	60970.96
542.80	60851.59
542.97	60844.57
543.14	60832.86
543.31	60928.83
543.48	61127.77
543.64	61937.60
543.81	62279.31
543.98	62080.37
544.15	61446.08
544.32	60891.38
544.48	61006.06
544.65	61474.17
544.82	61787.80
544.99	61343.10
545.16	61080.96
545.32	60867.97
545.49	61623.96
545.66	62014.83
545.83	61703.54
546.00	61275.22
546.16	60968.61
546.33	60917.12
546.50	60992.02
546.67	61286.93
546.83	61064.58
547.00	61197.99
547.17	60500.51
547.34	60076.87
547.50	59980.91
547.67	60472.42
547.84	60385.82
548.00	60612.85
548.17	61087.98
548.34	61055.21
548.51	60949.89
548.67	61109.05
548.84	61207.35
549.01	61073.94
549.18	61125.43
549.34	61015.43
549.51	60828.18
549.68	60851.59
549.84	60570.72
550.01	60654.98
550.18	60463.06
550.34	60507.53
550.51	60591.79
550.68	60872.65
550.84	60196.24
551.01	60364.76
551.18	60390.50
551.34	60364.76
551.51	60589.45
551.68	61013.08
551.84	61209.69
552.01	60935.85
552.18	60769.67
552.34	60186.88
552.51	59924.74
552.68	59487.06
552.84	60032.40
553.01	60486.46
553.18	60172.83
553.34	60397.52
553.51	60554.34
553.67	60734.56
553.84	60704.13
554.01	60743.92
554.17	60535.62
554.34	60507.53
554.51	60750.94
554.67	61020.11
554.84	60945.21
555.00	60484.12
555.17	60360.08
555.33	60561.36
555.50	60250.07
555.67	60458.38
555.83	60189.22
556.00	59898.99
556.16	59938.78
556.33	59702.38
556.50	59332.58
556.66	59447.27
556.83	59290.45
556.99	59353.65
557.16	59456.63
557.32	59688.34
557.49	60039.42
557.65	59868.56
557.82	59987.93
557.98	59674.30
558.15	59175.76
558.32	58480.63
558.48	57883.79
558.65	57862.72
558.81	58295.72
558.98	58553.18
559.14	58930.01
559.31	58901.92
559.47	58901.92
559.64	58377.64
559.80	58204.44
559.97	58314.45
560.13	58578.93
560.30	59732.81
560.46	60128.36
560.63	60189.22
560.79	60147.09
560.96	59742.17
561.12	58857.45
561.29	58080.39
561.45	58056.99
561.61	58534.46
561.78	58749.79
561.94	58993.20
562.11	58827.02
562.27	58482.97
562.44	59145.34
562.60	59288.11
562.77	59533.87
562.93	59297.47
563.10	59077.46
563.26	58639.78
563.42	58728.72
563.59	58482.97
563.75	58796.60
563.92	58583.61
564.08	58553.18
564.24	58899.58
564.41	58728.72
564.57	58712.34
564.74	58700.64
564.90	58333.17
565.07	58394.03
565.23	58047.63
565.39	57521.01
565.56	57230.78
565.72	57153.54
565.88	57565.48
566.05	57497.60
566.21	57684.84
566.38	57897.83
566.54	57925.92
566.70	58396.37
566.87	58700.64
567.03	58438.50
567.19	58794.26
567.36	58382.32
567.52	58401.05
567.68	58227.85
567.85	57542.07
568.01	57497.60
568.17	56917.15
568.34	56910.13
568.50	56938.21
568.66	56954.60
568.83	57612.29
568.99	57230.78
569.15	57616.97
569.32	57403.98
569.48	57352.49
569.64	57176.95
569.81	56924.17
569.97	56657.35
570.13	56652.67
570.30	56420.95
570.46	55901.36
570.62	55515.17
570.78	55189.83
570.95	55524.53
571.11	56301.59
571.27	56390.53
571.43	56509.89
571.60	57041.20
571.76	57064.60
571.92	57305.68
572.09	57425.04
572.25	57607.61
572.41	57343.12
572.57	57291.63
572.74	57394.62
572.90	56678.41
573.06	56757.99
573.22	56870.34
573.38	57127.80
573.55	57048.22
573.71	57329.08
573.87	57064.60
574.03	56645.65
574.20	56779.06
574.36	56427.98
574.52	56409.25
574.68	56095.62
574.84	55749.22
575.01	55370.05
575.17	55416.86
575.33	55538.57
575.49	55814.76
575.65	55941.14
575.82	55999.66
575.98	55683.69
576.14	55798.37
576.30	56137.75
576.46	56144.77
576.62	56144.77
576.79	56060.51
576.95	55866.25
577.11	55700.07
577.27	56212.65
577.43	55723.47
577.59	55690.71
577.75	55126.64
577.92	54431.50
578.08	54560.23
578.24	54466.61
578.40	54941.74
578.56	55112.59
578.72	55341.97
578.88	55194.51
579.04	55458.99
579.21	55381.76
579.37	55428.57
579.53	55669.64
579.69	55428.57
579.85	55739.86
580.01	55585.38
580.17	55044.72
580.33	55262.39
580.49	54997.91
580.65	55402.82
580.82	55529.21
580.98	55531.55
581.14	55210.90
581.30	55578.36
581.46	55285.79
581.62	55700.07
581.78	55473.04
581.94	55636.87
582.10	55622.83
582.26	55891.99
582.42	55543.25
582.58	55742.20
582.74	55625.17
582.90	55695.39
583.06	55723.47
583.22	55402.82
583.38	55325.58
583.54	55309.20
583.70	55210.90
583.86	55159.41
584.02	55152.38
584.18	55295.16
584.34	55136.00
584.50	55070.46
584.66	55128.98
584.82	54801.30
584.98	54541.50
585.14	54188.08
