SpectraSuite Data File
++++++++++++++++++++++++++++++++++++
Date: Mon Oct 07 14:54:56 GMT-05:00 2013
User: price-jones
Dark Spectrum Present: No
Reference Spectrum Present: No
Number of Sampled Component Spectra: 1
Spectrometers: USB2+H05261
Integration Time (usec): 10000 (USB2+H05261)
Spectra Averaged: 1 (USB2+H05261)
Boxcar Smoothing: 0 (USB2+H05261)
Correct for Electrical Dark: No (USB2+H05261)
Strobe/Lamp Enabled: No (USB2+H05261)
Correct for Detector Non-linearity: No (USB2+H05261)
Correct for Stray Light: No (USB2+H05261)
Number of Pixels in Processed Spectrum: 2048
>>>>>Begin Processed Spectral Data<<<<<
365.73	0.00
365.92	0.00
366.12	0.00
366.32	0.00
366.52	0.00
366.72	0.00
366.91	0.00
367.11	0.00
367.31	0.00
367.51	0.00
367.70	0.00
367.90	0.00
368.10	0.00
368.30	0.00
368.49	0.00
368.69	0.00
368.89	0.00
369.09	0.00
369.28	0.00
369.48	0.00
369.68	0.00
369.87	0.00
370.07	0.00
370.27	0.00
370.47	482.15
370.66	2890.56
370.86	3632.51
371.06	3669.96
371.25	3700.39
371.45	3105.89
371.65	2963.12
371.84	2825.03
372.04	3040.36
372.24	3445.27
372.44	3482.72
372.63	3166.74
372.83	3049.72
373.03	2787.58
373.22	2457.56
373.42	2822.69
373.62	3300.16
373.81	3454.63
374.01	3344.63
374.21	2923.33
374.40	2843.75
374.60	3150.36
374.79	3508.46
374.99	4166.15
375.19	4304.25
375.38	4262.12
375.58	3934.44
375.78	3943.80
375.97	4051.47
376.17	4234.03
376.37	4119.34
376.56	4292.54
376.76	4458.72
376.95	4716.18
377.15	5341.10
377.35	5287.27
377.54	5509.62
377.74	5668.78
377.93	5818.57
378.13	5441.75
378.33	5195.99
378.52	4774.69
378.72	4671.71
378.91	4521.92
379.11	4493.83
379.31	4318.29
379.50	4418.93
379.70	4779.37
379.89	5296.63
380.09	5516.64
380.28	5781.12
380.48	5628.99
380.68	5535.37
380.87	5308.34
381.07	4622.56
381.26	4379.14
381.46	4280.84
381.65	4114.66
381.85	3918.06
382.04	3754.22
382.24	3557.61
382.43	3384.41
382.63	3405.48
382.83	3377.39
383.02	3353.99
383.22	3286.11
383.41	3386.76
383.61	3637.19
383.80	4339.35
384.00	4777.03
384.19	5444.09
384.39	5729.63
384.58	5488.56
384.78	5516.64
384.97	5528.35
385.17	5029.81
385.36	4933.85
385.56	4788.74
385.75	4959.60
385.95	5458.13
386.14	5748.36
386.34	5781.12
386.53	5530.69
386.72	5212.37
386.92	5327.06
387.11	5643.03
387.31	5769.42
387.50	5666.44
387.70	5474.51
387.89	5451.11
388.09	5645.37
388.28	5448.77
388.48	5586.86
388.67	6197.74
388.86	6712.66
389.06	7178.42
389.25	7447.58
389.45	7480.35
389.64	7356.30
389.84	7384.39
390.03	7286.09
390.22	7323.54
390.42	7709.72
390.61	8119.32
390.81	8835.52
391.00	8552.32
391.19	8657.64
391.39	8451.67
391.58	7763.56
391.78	7253.32
391.97	7131.61
392.16	6558.18
392.36	5694.52
392.55	4645.96
392.75	3592.72
392.94	3033.33
393.13	3262.71
393.33	3906.35
393.52	5245.14
393.71	5841.98
393.91	6923.30
394.10	7489.71
394.29	8217.62
394.49	8823.82
394.68	9568.11
394.88	9408.95
395.07	9647.69
395.26	9497.89
395.46	9170.22
395.65	8348.69
395.84	7368.01
396.04	5893.47
396.23	4936.19
396.42	4201.26
396.62	4386.16
396.81	5266.21
397.00	6614.35
397.19	8418.91
397.39	9701.52
397.58	10836.68
397.77	11082.44
397.97	11719.06
398.16	12042.06
398.35	12339.30
398.55	12727.83
398.74	13083.59
398.93	13291.90
399.12	12980.61
399.32	12863.58
399.51	13352.76
399.70	14129.81
399.90	13673.41
400.09	13855.97
400.28	13898.10
400.47	13682.77
400.67	14630.69
400.86	14843.68
401.05	15002.83
401.24	14827.29
401.44	15201.78
401.63	14803.89
401.82	15295.40
402.01	15492.01
402.21	15555.20
402.40	15473.28
402.59	14796.87
402.78	14242.16
402.97	14193.01
403.17	14764.10
403.36	15522.43
403.55	15999.90
403.74	16109.91
403.93	15082.41
404.13	14155.56
404.32	14335.78
404.51	14986.45
404.70	16042.03
404.89	15695.63
405.09	15421.79
405.28	15300.08
405.47	15033.26
405.66	15126.88
405.85	14429.40
406.05	14342.80
406.24	15063.69
406.43	15506.05
406.62	15576.27
406.81	15779.89
407.00	15428.81
407.20	14728.99
407.39	15049.64
407.58	16203.53
407.77	16620.14
407.96	16947.82
408.15	17245.07
408.34	17504.87
408.54	18284.26
408.73	17895.74
408.92	17933.18
409.11	17174.85
409.30	16559.29
409.49	15276.68
409.68	14162.58
409.87	14534.73
410.07	15807.98
410.26	16603.76
410.45	17198.26
410.64	17785.73
410.83	18157.88
411.02	18735.99
411.21	19330.48
411.40	19012.17
411.59	19119.84
411.78	19246.23
411.98	19262.61
412.17	19241.54
412.36	18703.22
412.55	19040.26
412.74	18541.72
412.93	18618.96
413.12	18951.32
413.31	20301.81
413.50	19999.88
413.69	20299.47
413.88	19103.45
414.07	19047.28
414.26	19660.50
414.45	20264.36
414.64	20034.99
414.83	19964.77
415.02	20046.69
415.22	20400.11
415.41	20786.30
415.60	21247.38
415.79	22171.89
415.98	22553.40
416.17	22207.00
416.36	21764.64
416.55	21631.23
416.74	20510.11
416.93	20016.26
417.12	19896.89
417.31	20311.17
417.50	20528.84
417.69	21202.91
417.88	21479.10
418.07	21223.98
418.26	20664.59
418.45	21146.74
418.64	22225.73
418.83	22747.67
419.02	22136.79
419.21	21902.73
419.39	20854.17
419.58	20196.48
419.77	20423.51
419.96	21516.54
420.15	22260.84
420.34	23468.55
420.53	23826.65
420.72	23889.85
420.91	23850.06
421.10	23496.64
421.29	23733.03
421.48	22984.06
421.67	24210.50
421.86	23000.44
422.05	21188.87
422.24	19047.28
422.43	19920.30
422.61	22284.24
422.80	23138.54
422.99	22588.51
423.18	21944.86
423.37	22111.04
423.56	22195.30
423.75	22635.32
423.94	23119.81
424.13	22029.12
424.32	21668.68
424.50	21675.70
424.69	21886.35
424.88	21818.47
425.07	21928.48
425.26	21984.65
425.45	21259.09
425.64	20896.30
425.83	21191.21
426.01	22403.61
426.20	23157.26
426.39	22202.32
426.58	20219.89
426.77	19185.37
426.96	18948.98
427.15	20135.63
427.33	21322.28
427.52	22167.21
427.71	22345.09
427.90	21944.86
428.09	21399.52
428.28	21118.65
428.46	19969.45
428.65	20194.14
428.84	20514.80
429.03	21137.38
429.22	19946.05
429.40	18450.44
429.59	16931.44
429.78	15199.44
429.97	15655.84
430.16	15005.17
430.34	15161.99
430.53	15499.03
430.72	16395.45
430.91	18059.57
431.10	21556.33
431.28	25165.44
431.47	26389.54
431.66	25729.51
431.85	23330.46
432.03	21678.04
432.22	21488.46
432.41	22850.65
432.60	25127.99
432.79	25638.23
432.97	26267.83
433.16	25172.46
433.35	22455.10
433.54	20173.08
433.72	19660.50
433.91	20912.69
434.10	23470.89
434.28	24980.54
434.47	26082.93
434.66	24687.97
434.85	24730.10
435.03	24416.47
435.22	25759.94
435.41	26361.45
435.59	27229.79
435.78	27096.38
435.97	28051.32
436.16	27573.85
436.34	26792.11
436.53	26984.04
436.72	27311.71
436.90	25476.73
437.09	25551.63
437.28	25420.56
437.46	26316.98
437.65	25954.20
437.84	23548.13
438.02	22230.41
438.21	22740.64
438.40	23695.58
438.58	25418.22
438.77	25963.56
438.96	26630.62
439.14	28058.34
439.33	28318.14
439.52	28484.32
439.70	27489.59
439.89	27152.55
440.08	26422.31
440.26	26621.25
440.45	27999.83
440.63	29457.98
440.82	30586.12
441.01	29935.45
441.19	29647.57
441.38	30579.10
441.57	31267.22
441.75	31288.28
441.94	31838.31
442.12	31545.74
442.31	32437.48
442.50	32760.48
442.68	31917.89
442.87	30995.71
443.05	30654.00
443.24	32137.90
443.43	32657.49
443.61	32844.74
443.80	32821.33
443.98	31604.25
444.17	31002.74
444.35	33177.09
444.54	34071.18
444.73	33024.96
444.91	31674.47
445.10	30260.79
445.28	29207.55
445.47	29495.43
445.65	29132.65
445.84	30387.18
446.02	31564.46
446.21	32002.14
446.39	32240.88
446.58	32596.64
446.77	33043.68
446.95	33406.47
447.14	34183.52
447.32	34515.88
447.51	33261.35
447.69	32173.00
447.88	32360.25
448.06	32790.91
448.25	33905.00
448.43	33130.28
448.62	32854.10
448.80	32411.74
448.99	32711.33
449.17	33481.36
449.36	33617.11
449.54	34939.52
449.73	35641.68
449.91	36105.10
450.10	36669.17
450.28	37237.92
450.46	37015.57
450.65	36575.55
450.83	36301.71
451.02	36212.77
451.20	35473.16
451.39	35445.07
451.57	35838.28
451.76	35800.83
451.94	35129.10
452.13	33897.98
452.31	32472.59
452.49	31262.54
452.68	32402.38
452.86	32018.53
453.05	32456.21
453.23	33205.18
453.42	35065.91
453.60	35274.21
453.78	36175.32
453.97	35220.38
454.15	34983.99
454.34	34022.03
454.52	34059.48
454.70	34080.54
454.89	34417.58
455.07	34440.98
455.26	35150.17
455.44	36051.27
455.62	37251.97
455.81	37251.97
455.99	36849.39
456.17	36336.82
456.36	36591.94
456.54	37233.24
456.73	36552.15
456.91	38232.65
457.09	38251.38
457.28	38148.39
457.46	36727.69
457.64	36657.47
457.83	35424.01
458.01	35051.86
458.19	36879.82
458.38	37584.32
458.56	37301.12
458.74	36514.70
458.93	36414.05
459.11	36463.21
459.29	36290.01
459.48	36514.70
459.66	36306.39
459.84	36996.85
460.03	37462.61
460.21	37495.38
460.39	37762.20
460.57	37450.91
460.76	38232.65
460.94	38476.07
461.12	37839.44
461.31	37832.42
461.49	37654.54
461.67	37991.58
461.85	39840.60
462.04	40084.01
462.22	39679.10
462.40	39510.58
462.59	39196.95
462.77	39433.35
462.95	39157.16
463.13	38803.74
463.32	38501.81
463.50	37954.13
463.68	38117.96
463.86	38314.57
464.05	37745.82
464.23	37113.87
464.41	36783.86
464.59	36495.97
464.78	38888.00
464.96	38251.38
465.14	37731.78
465.32	38834.17
465.50	38763.95
465.69	38843.53
465.87	38792.04
466.05	37378.36
466.23	35501.25
466.41	35906.16
466.60	37490.70
466.78	36851.73
466.96	37432.19
467.14	38305.21
467.32	38256.06
467.51	37853.48
467.69	36790.88
467.87	37579.64
468.05	38300.53
468.23	38686.71
468.41	38462.02
468.60	37846.46
468.78	38710.12
468.96	37352.61
469.14	38761.61
469.32	38810.76
469.50	37511.77
469.69	37397.08
469.87	36671.51
470.05	37273.03
470.23	37230.90
470.41	37532.83
470.59	38206.90
470.77	37734.12
470.95	38590.75
471.14	39866.34
471.32	39676.76
471.50	40987.46
471.68	40884.48
471.86	42183.48
472.04	41902.61
472.22	42026.66
472.40	39423.98
472.58	39487.18
472.77	39571.44
472.95	40603.61
473.13	41027.25
473.31	40182.32
473.49	40659.79
473.67	40652.76
473.85	41827.71
474.03	42323.91
474.21	42380.08
474.39	43164.16
474.57	43559.71
474.75	42576.69
474.93	42342.63
475.12	41174.70
475.30	41790.27
475.48	42270.08
475.66	43147.78
475.84	42089.85
476.02	41717.71
476.20	41404.08
476.38	42309.86
476.56	43597.16
476.74	44002.07
476.92	43531.62
477.10	45797.26
477.28	45188.72
477.46	45731.73
477.64	45902.59
477.82	46141.32
478.00	45900.25
478.18	45963.44
478.36	45144.25
478.54	46174.09
478.72	46504.10
478.90	47971.62
479.08	48563.78
479.26	48320.36
479.44	47889.70
479.62	48336.74
479.80	48086.31
479.98	47964.60
480.16	49205.08
480.34	47707.14
480.52	48196.31
480.70	48193.97
480.88	48861.02
481.06	49495.31
481.24	49085.72
481.41	49570.21
481.59	50363.65
481.77	49687.23
481.95	50019.59
482.13	49888.52
482.31	50150.66
482.49	50408.12
482.67	50384.71
482.85	51327.95
483.03	51466.04
483.21	50983.89
483.39	51084.53
483.57	50260.66
483.74	50939.42
483.92	50955.80
484.10	51035.38
484.28	52420.98
484.46	52671.42
484.64	52739.29
484.82	51782.01
485.00	51381.78
485.18	49972.78
485.35	49003.80
485.53	45242.56
485.71	42195.18
485.89	43627.59
486.07	45837.05
486.25	48362.49
486.43	50124.91
486.61	49668.51
486.78	50401.10
486.96	50810.69
487.14	52507.58
487.32	52753.33
487.50	53296.34
487.68	54227.87
487.85	54539.16
488.03	54333.20
488.21	54571.93
488.39	53762.11
488.57	53694.23
488.75	54010.20
488.92	54550.87
489.10	56327.33
489.28	57298.65
489.46	57663.78
489.64	57116.09
489.81	57993.79
489.99	57263.55
490.17	57439.09
490.35	57851.02
490.53	57092.69
490.70	57146.52
490.88	56931.19
491.06	57846.34
491.24	57712.93
491.41	56231.37
491.59	55643.90
491.77	55145.36
491.95	55917.74
492.13	56800.12
492.30	57623.99
492.48	58602.33
492.66	59009.59
492.84	58649.14
493.01	58340.19
493.19	58103.80
493.37	57462.49
493.54	58056.99
493.72	59068.10
493.90	59517.48
494.08	59997.29
494.25	59845.16
494.43	59753.88
494.61	60750.94
494.79	60837.54
494.96	60573.06
495.14	59756.22
495.32	59117.25
495.49	59494.08
495.67	60135.38
495.85	60811.80
496.02	61017.77
496.20	60900.74
496.38	60523.91
496.55	60554.34
496.73	60629.24
496.91	61174.58
497.09	61654.39
497.26	61324.38
497.44	60914.78
497.62	60587.11
497.79	59866.22
497.97	58522.76
498.14	59114.91
498.32	60509.87
498.50	60809.46
498.67	61446.08
498.85	61169.90
499.03	61453.11
499.20	61785.46
499.38	61205.01
499.56	61148.84
499.73	60910.10
499.91	61303.31
500.08	59934.10
500.26	59847.50
500.44	60264.11
500.61	61071.60
500.79	60395.18
500.97	60130.70
501.14	59781.96
501.32	59999.63
501.49	60224.32
501.67	60432.63
501.84	60870.31
502.02	60980.32
502.20	60818.82
502.37	60776.69
502.55	61396.93
502.72	61804.19
502.90	62199.74
503.07	61904.83
503.25	61595.88
503.43	60926.49
503.60	60093.25
503.78	60100.28
503.95	60310.92
504.13	61946.96
504.30	62143.56
504.48	61619.28
504.65	60994.36
504.83	61202.67
505.01	62766.15
505.18	62368.26
505.36	63166.38
505.53	63339.58
505.71	63264.68
505.88	62415.07
506.06	61865.04
506.23	61979.73
506.41	61792.48
506.58	62354.21
506.76	62389.32
506.93	62241.87
507.11	62021.86
507.28	62513.37
507.46	61855.68
507.63	61935.26
507.81	61439.06
507.98	61317.35
508.16	62028.88
508.33	62660.82
508.50	63533.84
508.68	63655.55
508.85	64013.65
509.03	63690.66
509.20	63276.38
509.38	62583.58
509.55	62005.47
509.73	62033.56
509.90	62918.28
510.08	62632.74
510.25	62436.13
510.42	62408.04
510.60	62110.80
510.77	62611.67
510.95	62953.39
511.12	62929.98
511.30	63061.05
511.47	63398.09
511.64	63685.98
511.82	63365.32
511.99	62532.09
512.17	62314.42
512.34	61895.47
512.51	62239.53
512.69	62747.42
512.86	62384.64
513.04	62454.86
513.21	62340.17
513.38	61792.48
513.56	62209.10
513.73	61956.32
513.90	61738.65
514.08	62232.50
514.25	61918.87
514.43	61909.51
514.60	61942.28
514.77	62337.83
514.95	62658.48
515.12	62499.33
515.29	63412.13
515.47	63620.44
515.64	63515.12
515.81	62415.07
515.99	61928.23
516.16	60580.09
516.33	58578.93
516.51	58333.17
516.68	56535.64
516.85	57045.88
517.03	59061.08
517.20	60828.18
517.37	61740.99
517.54	62990.84
517.72	61190.97
517.89	58995.54
518.06	58656.17
518.24	58581.27
518.41	60598.81
518.58	61724.61
518.75	61726.95
518.93	61818.23
519.10	61769.08
519.27	62279.31
519.45	62330.81
519.62	62532.09
519.79	63016.58
519.96	62850.41
520.14	62475.92
520.31	61836.95
520.48	62042.92
520.65	62365.91
520.83	63348.94
521.00	63262.34
521.17	62927.64
521.34	62843.38
521.52	63458.94
521.69	63985.57
521.86	64102.59
522.03	63545.54
522.20	62719.34
522.38	62204.42
522.55	61712.91
522.72	62291.02
522.89	61834.61
523.07	61792.48
523.24	62670.18
523.41	63264.68
523.58	63065.73
523.75	63522.14
523.92	63889.60
524.10	63442.56
524.27	63777.26
524.44	63852.15
524.61	63803.00
524.78	63470.65
524.96	63196.80
525.13	63604.06
525.30	63985.57
525.47	63746.83
525.64	63405.11
525.81	62827.00
525.98	61626.31
526.16	60100.28
526.33	59358.33
526.50	59365.35
526.67	59501.10
526.84	60383.48
527.01	61881.42
527.18	62548.48
527.36	63288.09
527.53	63131.27
527.70	62876.15
527.87	63215.53
528.04	63632.14
528.21	63494.05
528.38	64348.35
528.55	64729.86
528.72	64963.91
528.89	65331.37
529.07	64203.24
529.24	62873.81
529.41	63025.95
529.58	63302.13
529.75	64034.72
529.92	64013.65
530.09	64296.86
530.26	63585.33
530.43	64484.10
530.60	64566.02
530.77	64364.73
530.94	64935.82
531.11	63943.44
531.28	64065.14
531.46	63749.17
531.63	63807.68
531.80	63636.83
531.97	62969.77
532.14	62302.72
532.31	61329.06
532.48	61118.41
532.65	61516.30
532.82	61724.61
532.99	62742.74
533.16	64083.87
533.33	64161.11
533.50	63611.08
533.67	63393.41
533.84	62550.82
534.01	63065.73
534.18	63386.39
534.35	63414.47
534.52	62688.91
534.69	62995.52
534.86	63463.63
535.03	63440.22
535.20	63618.10
535.37	63505.76
535.54	64170.47
535.71	64814.12
535.88	64584.74
536.05	63159.36
536.22	63267.02
536.38	62707.63
536.55	62562.52
536.72	62693.59
536.89	62312.08
537.06	62808.28
537.23	63044.67
537.40	63227.23
537.57	63536.18
537.74	63149.99
537.91	63753.85
538.08	63056.37
538.25	63224.89
538.42	63016.58
538.59	63014.24
538.75	62382.30
538.92	62948.71
539.09	62618.69
539.26	61989.09
539.43	62162.29
539.60	62014.83
539.77	61471.83
539.94	61785.46
540.11	61434.38
540.28	61045.85
540.44	61312.67
540.61	61336.08
540.78	62042.92
540.95	61946.96
541.12	62063.99
541.29	62433.79
541.46	62482.94
541.62	62349.53
541.79	62035.90
541.96	61193.31
542.13	61544.39
542.30	62433.79
542.47	61783.12
542.63	62211.44
542.80	62494.64
542.97	61696.52
543.14	61731.63
543.31	62075.69
543.48	62403.36
543.64	63187.44
543.81	64013.65
543.98	63805.34
544.15	62003.13
544.32	62230.16
544.48	62873.81
544.65	62665.50
544.82	63971.52
544.99	63632.14
545.16	63063.39
545.32	62838.70
545.49	62869.13
545.66	63742.15
545.83	63119.57
546.00	62630.40
546.16	62754.44
546.33	62244.21
546.50	61659.07
546.67	61764.40
546.83	61811.21
547.00	61244.80
547.17	61446.08
547.34	61113.73
547.50	61834.61
547.67	61324.38
547.84	61762.06
548.00	62092.07
548.17	62113.14
548.34	61956.32
548.51	62702.95
548.67	62185.69
548.84	62127.18
549.01	62110.80
549.18	61970.36
549.34	62162.29
549.51	61675.46
549.68	61556.09
549.84	61413.32
550.01	61942.28
550.18	61694.18
550.34	61785.46
550.51	61656.73
550.68	61434.38
550.84	60910.10
551.01	61797.16
551.18	61495.24
551.34	61801.85
551.51	62255.91
551.68	62124.84
551.84	62899.56
552.01	62319.10
552.18	61694.18
552.34	61141.81
552.51	61010.74
552.68	61354.80
552.84	61930.58
553.01	62239.53
553.18	62667.84
553.34	62021.86
553.51	62496.98
553.67	62782.53
553.84	61846.32
554.01	61736.31
554.17	62129.52
554.34	62660.82
554.51	62237.19
554.67	62646.78
554.84	62525.07
555.00	62049.94
555.17	62054.62
555.33	62176.33
555.50	62045.26
555.67	62082.71
555.83	61607.58
556.00	60427.95
556.16	60472.42
556.33	61160.54
556.50	60683.07
556.66	59833.46
556.83	60149.43
556.99	61778.44
557.16	61530.34
557.32	61195.65
557.49	60874.99
557.65	61235.44
557.82	61350.12
557.98	61403.95
558.15	60968.61
558.32	59267.05
558.48	59763.24
558.65	59678.98
558.81	59725.79
558.98	59643.87
559.14	59959.84
559.31	59952.82
559.47	60507.53
559.64	59875.58
559.80	59938.78
559.97	60460.72
560.13	60645.62
560.30	61958.66
560.46	62234.84
560.63	62024.20
560.79	61783.12
560.96	59793.67
561.12	58810.64
561.29	59152.36
561.45	59983.25
561.61	60418.59
561.78	60470.08
561.94	59990.27
562.11	60130.70
562.27	60683.07
562.44	60292.20
562.60	61317.35
562.77	60669.03
562.93	60701.79
563.10	60502.85
563.26	59763.24
563.42	59948.14
563.59	59182.79
563.75	59561.95
563.92	60104.96
564.08	60481.78
564.24	60229.01
564.41	60179.85
564.57	59852.18
564.74	59061.08
564.90	59171.08
565.07	59185.13
565.23	58997.88
565.39	59444.93
565.56	60121.34
565.72	59318.54
565.88	59608.76
566.05	59941.12
566.21	60271.14
566.38	59578.34
566.54	60467.74
566.70	60718.18
566.87	60198.58
567.03	59838.14
567.19	60378.80
567.36	59728.13
567.52	59337.26
567.68	59014.27
567.85	58885.54
568.01	58136.57
568.17	57483.56
568.34	58323.81
568.50	58387.00
568.66	58134.23
568.83	59384.07
568.99	58277.00
569.15	58087.42
569.32	58377.64
569.48	57181.63
569.64	57722.29
569.81	58244.23
569.97	58099.12
570.13	58085.07
570.30	58225.51
570.46	57900.17
570.62	57153.54
570.78	57415.68
570.95	57881.45
571.11	58555.52
571.27	59121.93
571.43	59311.52
571.60	58766.17
571.76	57675.48
571.92	58501.69
572.09	59171.08
572.25	59248.32
572.41	58946.39
572.57	58635.10
572.74	58665.53
572.90	58445.52
573.06	59498.76
573.22	58841.07
573.38	58578.93
573.55	58850.43
573.71	59360.67
573.87	59196.83
574.03	59737.49
574.20	58499.35
574.36	57743.36
574.52	57595.90
574.68	56966.30
574.84	56474.79
575.01	56505.21
575.17	56870.34
575.33	57146.52
575.49	57418.02
575.65	57289.29
575.82	57324.40
575.98	56940.55
576.14	57392.28
576.30	57373.55
576.46	56362.44
576.62	56612.88
576.79	57563.14
576.95	58468.92
577.11	58433.81
577.27	58426.79
577.43	57230.78
577.59	56683.09
577.75	56580.11
577.92	56963.96
578.08	57549.09
578.24	57378.23
578.40	56968.64
578.56	56444.36
578.72	57478.88
578.88	56652.67
579.04	57050.56
579.21	57801.87
579.37	58071.03
579.53	57160.56
579.69	57638.03
579.85	57310.36
580.01	56865.66
580.17	56694.80
580.33	57078.64
580.49	55770.28
580.65	56793.10
580.82	56591.81
580.98	57022.47
581.14	56825.87
581.30	57141.84
581.46	57324.40
581.62	57212.06
581.78	57134.82
581.94	57595.90
582.10	56776.72
582.26	57698.89
582.42	57654.42
582.58	58108.48
582.74	57832.30
582.90	57804.21
583.06	57755.06
583.22	57455.47
583.38	57764.42
583.54	57148.86
583.70	55767.94
583.86	56027.74
584.02	56341.38
584.18	56502.87
584.34	57277.59
584.50	57616.97
584.66	56264.14
584.82	55948.17
584.98	56058.17
585.14	56484.15
585.30	55040.04
