SpectraSuite Data File
++++++++++++++++++++++++++++++++++++
Date: Mon Oct 07 14:54:54 GMT-05:00 2013
User: price-jones
Dark Spectrum Present: No
Reference Spectrum Present: No
Number of Sampled Component Spectra: 1
Spectrometers: USB2+H05261
Integration Time (usec): 10000 (USB2+H05261)
Spectra Averaged: 1 (USB2+H05261)
Boxcar Smoothing: 0 (USB2+H05261)
Correct for Electrical Dark: No (USB2+H05261)
Strobe/Lamp Enabled: No (USB2+H05261)
Correct for Detector Non-linearity: No (USB2+H05261)
Correct for Stray Light: No (USB2+H05261)
Number of Pixels in Processed Spectrum: 2048
>>>>>Begin Processed Spectral Data<<<<<
365.73	0.00
365.92	0.00
366.12	0.00
366.32	0.00
366.52	0.00
366.72	0.00
366.91	0.00
367.11	0.00
367.31	0.00
367.51	0.00
367.70	0.00
367.90	0.00
368.10	0.00
368.30	0.00
368.49	0.00
368.69	0.00
368.89	0.00
369.09	0.00
369.28	0.00
369.48	0.00
369.68	0.00
369.87	0.00
370.07	0.00
370.27	0.00
370.47	0.00
370.66	0.00
370.86	0.00
371.06	16.38
371.25	0.00
371.45	0.00
371.65	23.41
371.84	0.00
372.04	0.00
372.24	84.26
372.44	0.00
372.63	58.51
372.83	21.06
373.03	46.81
373.22	0.00
373.42	7.02
373.62	30.43
373.81	0.00
374.01	0.00
374.21	0.00
374.40	21.06
374.60	16.38
374.79	4.68
374.99	121.71
375.19	156.82
375.38	156.82
375.58	102.98
375.78	163.84
375.97	72.56
376.17	44.47
376.37	35.11
376.56	117.03
376.76	58.51
376.95	110.01
377.15	215.33
377.35	248.10
377.54	189.58
377.74	149.79
377.93	163.84
378.13	259.80
378.33	102.98
378.52	114.69
378.72	112.35
378.91	11.70
379.11	74.90
379.31	32.77
379.50	117.03
379.70	110.01
379.89	138.09
380.09	215.33
380.28	161.50
380.48	173.20
380.68	222.35
380.87	215.33
381.07	138.09
381.26	124.05
381.46	100.64
381.65	46.81
381.85	37.45
382.04	30.43
382.24	4.68
382.43	0.00
382.63	7.02
382.83	32.77
383.02	0.00
383.22	0.00
383.41	16.38
383.61	35.11
383.80	67.88
384.00	100.64
384.19	224.69
384.39	234.05
384.58	241.08
384.78	86.60
384.97	227.03
385.17	70.22
385.36	126.39
385.56	126.39
385.75	53.83
385.95	65.54
386.14	189.58
386.34	287.89
386.53	189.58
386.72	107.66
386.92	161.50
387.11	156.82
387.31	173.20
387.50	234.05
387.70	154.48
387.89	227.03
388.09	159.16
388.28	107.66
388.48	269.16
388.67	250.44
388.86	339.38
389.06	299.59
389.25	313.63
389.45	330.02
389.64	278.52
389.84	266.82
390.03	299.59
390.22	313.63
390.42	330.02
390.61	304.27
390.81	400.23
391.00	458.74
391.19	416.62
391.39	304.27
391.58	351.08
391.78	262.14
391.97	339.38
392.16	229.37
392.36	280.86
392.55	124.05
392.75	0.00
392.94	0.00
393.13	56.17
393.33	65.54
393.52	140.43
393.71	238.73
393.91	271.50
394.10	287.89
394.29	409.59
394.49	435.34
394.68	463.43
394.88	379.17
395.07	386.19
395.26	531.30
395.46	390.87
395.65	444.70
395.84	351.08
396.04	224.69
396.23	182.56
396.42	184.90
396.62	63.19
396.81	81.92
397.00	191.92
397.19	360.44
397.39	463.43
397.58	594.50
397.77	599.18
397.97	629.60
398.16	552.37
398.35	755.99
398.55	692.80
398.74	613.22
398.93	744.29
399.12	667.05
399.32	589.82
399.51	671.73
399.70	720.88
399.90	816.85
400.09	755.99
400.28	751.31
400.47	739.61
400.67	800.46
400.86	884.72
401.05	837.91
401.24	784.08
401.44	828.55
401.63	866.00
401.82	908.13
402.01	812.17
402.21	858.98
402.40	866.00
402.59	821.53
402.78	770.04
402.97	758.33
403.17	830.89
403.36	915.15
403.55	814.51
403.74	896.43
403.93	856.64
404.13	723.23
404.32	692.80
404.51	770.04
404.70	847.27
404.89	868.34
405.09	800.46
405.28	851.96
405.47	837.91
405.66	809.83
405.85	807.48
406.05	837.91
406.24	781.74
406.43	781.74
406.62	873.02
406.81	875.36
407.00	856.64
407.20	788.76
407.39	737.27
407.58	823.87
407.77	997.07
407.96	826.21
408.15	999.41
408.34	1057.92
408.54	1071.97
408.73	1015.79
408.92	933.87
409.11	882.38
409.30	877.70
409.49	908.13
409.68	720.88
409.87	770.04
410.07	786.42
410.26	823.87
410.45	901.11
410.64	1004.09
410.83	1036.86
411.02	1029.84
411.21	1074.31
411.40	1132.82
411.59	1142.18
411.78	1043.88
411.98	1083.67
412.17	931.53
412.36	1018.13
412.55	1029.84
412.74	940.90
412.93	917.49
413.12	968.98
413.31	1205.38
413.50	1139.84
413.69	1221.76
413.88	1123.46
414.07	1071.97
414.26	1001.75
414.45	1100.05
414.64	1174.95
414.83	1132.82
415.02	1013.45
415.22	1090.69
415.41	1088.35
415.60	1196.01
415.79	1149.20
415.98	1219.42
416.17	1181.97
416.36	1224.10
416.55	1139.84
416.74	1203.04
416.93	1151.54
417.12	1027.50
417.31	1123.46
417.50	1184.31
417.69	1149.20
417.88	1200.69
418.07	1177.29
418.26	1074.31
418.45	1144.52
418.64	1086.01
418.83	1221.76
419.02	1196.01
419.21	1238.14
419.39	1277.93
419.58	1006.43
419.77	1221.76
419.96	1160.91
420.15	1233.46
420.34	1240.48
420.53	1301.34
420.72	1324.74
420.91	1254.53
421.10	1331.76
421.29	1341.13
421.48	1322.40
421.67	1165.59
421.86	1341.13
422.05	1238.14
422.24	1060.26
422.43	978.34
422.61	1203.04
422.80	1240.48
422.99	1275.59
423.18	1200.69
423.37	1167.93
423.56	1160.91
423.75	1275.59
423.94	1299.00
424.13	1160.91
424.32	1153.88
424.50	1109.41
424.69	1186.65
424.88	1217.08
425.07	1125.80
425.26	1142.18
425.45	1109.41
425.64	1053.24
425.83	1053.24
426.01	1132.82
426.20	1252.19
426.39	1238.14
426.58	1158.57
426.77	976.00
426.96	985.37
427.15	1001.75
427.33	1107.07
427.52	1184.31
427.71	1151.54
427.90	1186.65
428.09	1107.07
428.28	1039.20
428.46	1081.33
428.65	1078.99
428.84	999.41
429.03	1160.91
429.22	978.34
429.40	1006.43
429.59	908.13
429.78	791.10
429.97	657.69
430.16	755.99
430.34	795.78
430.53	648.33
430.72	863.66
430.91	905.79
431.10	1006.43
431.28	1193.67
431.47	1394.96
431.66	1306.02
431.85	1277.93
432.03	1158.57
432.22	1109.41
432.41	1128.14
432.60	1373.89
432.79	1327.08
432.97	1378.58
433.16	1336.45
433.35	1280.27
433.54	1067.28
433.72	1043.88
433.91	1046.22
434.10	1210.06
434.28	1406.66
434.47	1401.98
434.66	1329.42
434.85	1348.15
435.03	1306.02
435.22	1270.91
435.41	1521.35
435.59	1427.73
435.78	1479.22
435.97	1481.56
436.16	1511.99
436.34	1486.24
436.53	1282.61
436.72	1462.83
436.90	1280.27
437.09	1299.00
437.28	1268.57
437.46	1420.71
437.65	1310.70
437.84	1282.61
438.02	1160.91
438.21	1111.75
438.40	1240.48
438.58	1294.32
438.77	1270.91
438.96	1359.85
439.14	1465.18
439.33	1441.77
439.52	1605.61
439.70	1423.05
439.89	1446.45
440.08	1357.51
440.26	1432.41
440.45	1455.81
440.63	1579.86
440.82	1563.48
441.01	1619.65
441.19	1619.65
441.38	1619.65
441.57	1605.61
441.75	1762.42
441.94	1671.14
442.12	1729.66
442.31	1689.87
442.50	1664.12
442.68	1584.54
442.87	1643.06
443.05	1577.52
443.24	1673.48
443.43	1673.48
443.61	1629.01
443.80	1647.74
443.98	1774.13
444.17	1633.69
444.35	1696.89
444.54	1755.40
444.73	1710.93
444.91	1603.27
445.10	1614.97
445.28	1605.61
445.47	1502.62
445.65	1596.25
445.84	1530.71
446.02	1554.12
446.21	1575.18
446.39	1722.63
446.58	1657.10
446.77	1633.69
446.95	1661.78
447.14	1764.76
447.32	1867.75
447.51	1764.76
447.69	1722.63
447.88	1701.57
448.06	1692.21
448.25	1701.57
448.43	1657.10
448.62	1643.06
448.80	1727.32
448.99	1647.74
449.17	1746.04
449.36	1781.15
449.54	1870.09
449.73	1797.53
449.91	1856.04
450.10	1891.15
450.28	1884.13
450.46	1870.09
450.65	1870.09
450.83	1830.30
451.02	1863.07
451.20	1774.13
451.39	1905.20
451.57	1858.39
451.76	1762.42
451.94	1846.68
452.13	1668.80
452.31	1722.63
452.49	1500.28
452.68	1671.14
452.86	1643.06
453.05	1743.70
453.23	1626.67
453.42	1757.74
453.60	1769.44
453.78	1783.49
453.97	1802.21
454.15	1746.04
454.34	1732.00
454.52	1647.74
454.70	1682.85
454.89	1753.06
455.07	1617.31
455.26	1724.97
455.44	1895.83
455.62	1921.58
455.81	1839.66
455.99	1914.56
456.17	1877.11
456.36	1806.89
456.54	1900.52
456.73	1900.52
456.91	1907.54
457.09	1919.24
457.28	2036.27
457.46	1952.01
457.64	1820.94
457.83	1806.89
458.01	1598.59
458.19	1746.04
458.38	1802.21
458.56	1856.04
458.74	1834.98
458.93	1867.75
459.11	1874.77
459.29	1879.45
459.48	1891.15
459.66	1776.47
459.84	1830.30
460.03	1888.81
460.21	1842.00
460.39	1923.92
460.57	1987.11
460.76	2038.61
460.94	1872.43
461.12	1954.35
461.31	1966.05
461.49	1956.69
461.67	1926.26
461.85	1949.67
462.04	1977.75
462.22	1977.75
462.40	1902.86
462.59	1933.28
462.77	1984.77
462.95	1975.41
463.13	1994.14
463.32	2010.52
463.50	1921.58
463.68	2047.97
463.86	1902.86
464.05	1912.22
464.23	1830.30
464.41	1806.89
464.59	1846.68
464.78	1940.30
464.96	1863.07
465.14	1902.86
465.32	1853.70
465.50	1961.37
465.69	2062.01
465.87	1963.71
466.05	1930.94
466.23	1795.19
466.41	1816.26
466.60	1870.09
466.78	1706.25
466.96	1776.47
467.14	1956.69
467.32	1933.28
467.51	1928.60
467.69	1832.64
467.87	1975.41
468.05	1961.37
468.23	1825.62
468.41	1935.62
468.60	1984.77
468.78	1942.64
468.96	1937.96
469.14	1802.21
469.32	1902.86
469.50	1806.89
469.69	1888.81
469.87	1839.66
470.05	1760.08
470.23	1853.70
470.41	1804.55
470.59	1832.64
470.77	1898.17
470.95	1867.75
471.14	1820.94
471.32	1914.56
471.50	2043.29
471.68	2090.10
471.86	2087.76
472.04	2127.55
472.22	2003.50
472.40	1984.77
472.58	1956.69
472.77	1832.64
472.95	1937.96
473.13	2017.54
473.31	1895.83
473.49	1956.69
473.67	1968.39
473.85	1966.05
474.03	2125.21
474.21	2113.50
474.39	2101.80
474.57	2069.03
474.75	2092.44
474.93	2038.61
475.12	1980.09
475.30	1952.01
475.48	2019.88
475.66	2036.27
475.84	1961.37
476.02	2076.06
476.20	1954.35
476.38	2038.61
476.56	2204.78
476.74	2146.27
476.92	2246.91
477.10	2174.36
477.28	2214.15
477.46	2282.02
477.64	2296.07
477.82	2251.60
478.00	2359.26
478.18	2134.57
478.36	2174.36
478.54	2202.44
478.72	2204.78
478.90	2253.94
479.08	2366.28
479.26	2401.39
479.44	2415.43
479.62	2279.68
479.80	2459.90
479.98	2483.31
480.16	2434.16
480.34	2429.48
480.52	2544.16
480.70	2431.82
480.88	2387.35
481.06	2476.29
481.24	2551.18
481.41	2490.33
481.59	2658.85
481.77	2553.52
481.95	2595.65
482.13	2612.04
482.31	2450.54
482.49	2682.25
482.67	2684.59
482.85	2593.31
483.03	2581.61
483.21	2623.74
483.39	2626.08
483.57	2609.70
483.74	2562.89
483.92	2726.72
484.10	2672.89
484.28	2677.57
484.46	2576.93
484.64	2722.04
484.82	2708.00
485.00	2689.28
485.18	2715.02
485.35	2375.64
485.53	2319.47
485.71	2092.44
485.89	2097.12
486.07	2366.28
486.25	2314.79
486.43	2537.14
486.61	2656.51
486.78	2415.43
486.96	2656.51
487.14	2710.34
487.32	2771.19
487.50	2843.75
487.68	2913.97
487.85	3016.95
488.03	2937.37
488.21	2813.32
488.39	2902.26
488.57	2717.36
488.75	2710.34
488.92	2883.54
489.10	3012.27
489.28	3136.32
489.46	3199.51
489.64	3302.50
489.81	3208.87
489.99	3187.81
490.17	3176.11
490.35	3234.62
490.53	3180.79
490.70	3251.00
490.88	3211.22
491.06	3337.60
491.24	3379.73
491.41	3035.67
491.59	2939.71
491.77	2843.75
491.95	2878.86
492.13	3105.89
492.30	3068.44
492.48	3389.10
492.66	3382.07
492.84	3358.67
493.01	3414.84
493.19	3361.01
493.37	3255.69
493.54	3136.32
493.72	3302.50
493.90	3410.16
494.08	3543.57
494.25	3571.66
494.43	3550.59
494.61	3552.93
494.79	3646.55
494.96	3602.08
495.14	3531.87
495.32	3454.63
495.49	3262.71
495.67	3520.17
495.85	3684.00
496.02	3779.97
496.20	3597.40
496.38	3566.98
496.55	3599.74
496.73	3684.00
496.91	3686.34
497.09	3770.60
497.26	3693.37
497.44	3562.30
497.62	3667.62
497.79	3496.76
497.97	3435.91
498.14	3288.45
498.32	3531.87
498.50	3667.62
498.67	3798.69
498.85	3625.49
499.03	3798.69
499.20	3756.56
499.38	3716.77
499.56	3744.86
499.73	3501.44
499.91	3709.75
500.08	3538.89
500.26	3363.35
500.44	3424.20
500.61	3646.55
500.79	3468.67
500.97	3482.72
501.14	3503.78
501.32	3370.37
501.49	3517.83
501.67	3489.74
501.84	3557.61
502.02	3669.96
502.20	3712.09
502.37	3693.37
502.55	3747.20
502.72	3721.45
502.90	3871.25
503.07	3662.94
503.25	3836.14
503.43	3588.04
503.60	3571.66
503.78	3417.18
503.95	3407.82
504.13	3775.28
504.30	3847.84
504.48	3761.24
504.65	3737.84
504.83	3737.84
505.01	3714.43
505.18	3847.84
505.36	3838.48
505.53	3925.08
505.71	4095.94
505.88	4037.42
506.06	3960.19
506.23	3892.31
506.41	3742.52
506.58	3770.60
506.76	3777.62
506.93	3878.27
507.11	3712.09
507.28	3763.58
507.46	3756.56
507.63	3653.58
507.81	3620.81
507.98	3534.21
508.16	3698.05
508.33	3791.67
508.50	3889.97
508.68	3864.22
508.85	4039.76
509.03	3981.25
509.20	3978.91
509.38	3798.69
509.55	3880.61
509.73	3623.15
509.90	3791.67
510.08	3698.05
510.25	3838.48
510.42	3829.12
510.60	3747.20
510.77	3829.12
510.95	3943.80
511.12	4009.34
511.30	3971.89
511.47	4159.13
511.64	4049.13
511.82	3964.87
511.99	3927.42
512.17	3784.65
512.34	3705.07
512.51	3737.84
512.69	3684.00
512.86	3920.40
513.04	3831.46
513.21	3922.74
513.38	3810.39
513.56	3698.05
513.73	3805.71
513.90	3662.94
514.08	3691.02
514.25	3667.62
514.43	3772.94
514.60	3908.69
514.77	3812.73
514.95	3765.92
515.12	3896.99
515.29	3868.91
515.47	3913.38
515.64	3950.82
515.81	3796.35
515.99	3751.88
516.16	3618.47
516.33	3328.24
516.51	3145.68
516.68	2995.89
516.85	2834.39
517.03	3016.95
517.20	3253.34
517.37	3714.43
517.54	3854.86
517.72	3698.05
517.89	3346.97
518.06	3183.13
518.24	3066.10
518.41	3391.44
518.58	3609.11
518.75	3510.80
518.93	3712.09
519.10	3609.11
519.27	3630.17
519.45	3723.79
519.62	3901.67
519.79	3929.76
519.96	3836.14
520.14	3829.12
520.31	3742.52
520.48	3531.87
520.65	3686.34
520.83	3817.41
521.00	3927.42
521.17	3901.67
521.34	3829.12
521.52	3829.12
521.69	3964.87
521.86	3845.50
522.03	3943.80
522.20	3698.05
522.38	3541.23
522.55	3428.88
522.72	3681.66
522.89	3737.84
523.07	3761.24
523.24	3868.91
523.41	3885.29
523.58	3962.53
523.75	3974.23
523.92	3894.65
524.10	4011.68
524.27	3896.99
524.44	3988.27
524.61	3843.16
524.78	3765.92
524.96	3845.50
525.13	3826.78
525.30	3946.14
525.47	4004.66
525.64	3953.16
525.81	3822.09
525.98	3630.17
526.16	3396.12
526.33	3344.63
526.50	3243.98
526.67	3330.58
526.84	3265.05
527.01	3255.69
527.18	3630.17
527.36	3794.01
527.53	3880.61
527.70	3868.91
527.87	3791.67
528.04	3662.94
528.21	3861.88
528.38	3857.20
528.55	3943.80
528.72	3960.19
528.89	4147.43
529.07	3906.35
529.24	4032.74
529.41	3913.38
529.58	3758.90
529.75	3702.73
529.92	3796.35
530.09	3742.52
530.26	3971.89
530.43	3983.59
530.60	3838.48
530.77	4095.94
530.94	4058.49
531.11	3964.87
531.28	3978.91
531.46	3859.54
531.63	3955.51
531.80	3950.82
531.97	3765.92
532.14	3712.09
532.31	3576.34
532.48	3517.83
532.65	3377.39
532.82	3597.40
532.99	3665.28
533.16	3810.39
533.33	4004.66
533.50	3770.60
533.67	3756.56
533.84	3595.06
534.01	3691.02
534.18	3852.52
534.35	3824.44
534.52	3794.01
534.69	3808.05
534.86	3782.31
535.03	3726.13
535.20	3896.99
535.37	3988.27
535.54	3969.55
535.71	3999.98
535.88	3948.48
536.05	3803.37
536.22	3817.41
536.38	3625.49
536.55	3583.36
536.72	3475.70
536.89	3564.64
537.06	3667.62
537.23	3695.71
537.40	3833.80
537.57	3810.39
537.74	3735.50
537.91	3815.07
538.08	3749.54
538.25	3754.22
538.42	3784.65
538.59	3754.22
538.75	3641.87
538.92	3667.62
539.09	3545.91
539.26	3501.44
539.43	3541.23
539.60	3517.83
539.77	3688.68
539.94	3557.61
540.11	3417.18
540.28	3456.97
540.44	3419.52
540.61	3499.10
540.78	3520.17
540.95	3492.08
541.12	3644.21
541.29	3665.28
541.46	3571.66
541.62	3730.81
541.79	3655.92
541.96	3543.57
542.13	3655.92
542.30	3789.33
542.47	3707.41
542.63	3517.83
542.80	3555.27
542.97	3599.74
543.14	3634.85
543.31	3543.57
543.48	3599.74
543.64	3695.71
543.81	3768.26
543.98	3630.17
544.15	3646.55
544.32	3630.17
544.48	3665.28
544.65	3597.40
544.82	3613.79
544.99	3529.53
545.16	3632.51
545.32	3524.85
545.49	3737.84
545.66	3679.32
545.83	3721.45
546.00	3557.61
546.16	3548.25
546.33	3616.13
546.50	3538.89
546.67	3669.96
546.83	3574.00
547.00	3583.36
547.17	3508.46
547.34	3494.42
547.50	3309.52
547.67	3452.29
547.84	3489.74
548.00	3471.01
548.17	3581.02
548.34	3585.70
548.51	3648.90
548.67	3571.66
548.84	3534.21
549.01	3611.45
549.18	3440.59
549.34	3559.95
549.51	3538.89
549.68	3569.32
549.84	3414.84
550.01	3487.40
550.18	3435.91
550.34	3548.25
550.51	3527.19
550.68	3606.77
550.84	3372.71
551.01	3431.23
551.18	3508.46
551.34	3583.36
551.51	3578.68
551.68	3508.46
551.84	3508.46
552.01	3442.93
552.18	3510.80
552.34	3412.50
552.51	3459.31
552.68	3344.63
552.84	3407.82
553.01	3421.86
553.18	3417.18
553.34	3438.25
553.51	3473.36
553.67	3454.63
553.84	3548.25
554.01	3335.26
554.17	3445.27
554.34	3487.40
554.51	3492.08
554.67	3384.41
554.84	3485.06
555.00	3445.27
555.17	3438.25
555.33	3466.33
555.50	3613.79
555.67	3489.74
555.83	3412.50
556.00	3307.18
556.16	3295.47
556.33	3272.07
556.50	3300.16
556.66	3318.88
556.83	3239.30
556.99	3438.25
557.16	3246.32
557.32	3279.09
557.49	3208.87
557.65	3208.87
557.82	3309.52
557.98	3318.88
558.15	3302.50
558.32	3208.87
558.48	3098.87
558.65	3068.44
558.81	3126.96
558.98	3206.53
559.14	3169.09
559.31	3222.92
559.47	3262.71
559.64	3126.96
559.80	3126.96
559.97	3075.46
560.13	3155.04
560.30	3346.97
560.46	3321.22
560.63	3375.05
560.79	3276.75
560.96	3269.73
561.12	3148.02
561.29	3110.57
561.45	3150.36
561.61	3150.36
561.78	3187.81
561.94	3164.40
562.11	3148.02
562.27	3087.17
562.44	3169.09
562.60	3166.74
562.77	3197.17
562.93	3117.59
563.10	3201.85
563.26	3091.85
563.42	3246.32
563.59	3166.74
563.75	3117.59
563.92	3075.46
564.08	3225.26
564.24	3253.34
564.41	3286.11
564.57	3129.30
564.74	3089.51
564.90	3166.74
565.07	3169.09
565.23	2942.05
565.39	3007.59
565.56	2853.11
565.72	3056.74
565.88	2928.01
566.05	3077.80
566.21	3063.76
566.38	3110.57
566.54	2984.18
566.70	3052.06
566.87	3052.06
567.03	3122.27
567.19	3194.83
567.36	3204.19
567.52	3201.85
567.68	2998.23
567.85	3115.25
568.01	2958.44
568.17	2768.85
568.34	2951.42
568.50	2869.50
568.66	2895.24
568.83	3023.97
568.99	2850.77
569.15	2916.31
569.32	2981.84
569.48	2850.77
569.64	2935.03
569.81	2883.54
569.97	2897.58
570.13	2857.79
570.30	2888.22
570.46	2892.90
570.62	2813.32
570.78	2822.69
570.95	2614.38
571.11	2843.75
571.27	2911.63
571.43	2939.71
571.60	2986.52
571.76	2909.29
571.92	2960.78
572.09	2988.86
572.25	2937.37
572.41	2956.10
572.57	2825.03
572.74	2913.97
572.90	2869.50
573.06	2764.17
573.22	2862.48
573.38	2942.05
573.55	2881.20
573.71	2878.86
573.87	2946.73
574.03	2832.05
574.20	2918.65
574.36	2801.62
574.52	2794.60
574.68	2822.69
574.84	2771.19
575.01	2693.96
575.17	2642.46
575.33	2782.90
575.49	2928.01
575.65	2813.32
575.82	2759.49
575.98	2810.98
576.14	2738.43
576.30	2787.58
576.46	2897.58
576.62	2794.60
576.79	2661.19
576.95	2759.49
577.11	2754.81
577.27	2757.15
577.43	2846.09
577.59	2740.77
577.75	2640.12
577.92	2595.65
578.08	2635.44
578.24	2593.31
578.40	2693.96
578.56	2888.22
578.72	2750.13
578.88	2691.62
579.04	2693.96
579.21	2761.83
579.37	2785.24
579.53	2822.69
579.69	2745.45
579.85	2719.70
580.01	2834.39
580.17	2708.00
580.33	2633.10
580.49	2768.85
580.65	2754.81
580.82	2738.43
580.98	2583.95
581.14	2651.83
581.30	2654.17
581.46	2675.23
581.62	2750.13
581.78	2642.46
581.94	2764.17
582.10	2740.77
582.26	2691.62
582.42	2722.04
582.58	2621.40
582.74	2672.89
582.90	2619.06
583.06	2827.37
583.22	2649.49
583.38	2724.38
583.54	2736.09
583.70	2562.89
583.86	2693.96
584.02	2766.51
584.18	2670.55
584.34	2612.04
584.50	2738.43
584.66	2677.57
584.82	2677.57
584.98	2651.83
585.14	2551.18
585.30	2551.18
585.46	2370.96
585.62	2518.42
585.78	2544.16
585.94	2525.44
586.10	2691.62
586.26	2511.39
586.42	2616.72
586.58	2544.16
586.74	2600.34
586.90	2558.21
587.06	2672.89
587.22	2750.13
587.38	2473.95
587.54	2600.34
587.70	2558.21
587.86	2473.95
588.02	2413.09
588.18	2429.48
588.34	2370.96
588.49	2181.38
588.65	2155.63
588.81	1989.46
588.97	1940.30
589.13	2031.58
589.29	2099.46
589.45	2099.46
589.61	2321.81
589.77	2270.32
589.93	2392.03
590.08	2342.88
590.24	2478.63
590.40	2333.51
590.56	2331.17
590.72	2312.45
590.88	2359.26
591.04	2345.22
591.20	2328.83
591.35	2382.67
591.51	2401.39
591.67	2298.41
591.83	2356.92
591.99	2359.26
592.15	2314.79
592.31	2452.88
592.46	2363.94
592.62	2361.60
592.78	2216.49
592.94	2298.41
593.10	2406.07
593.26	2385.01
593.41	2237.55
593.57	2272.66
593.73	2349.90
593.89	2300.75
594.05	2303.09
594.20	2286.70
594.36	2209.47
594.52	2183.72
594.68	2225.85
594.84	2246.91
594.99	2260.96
595.15	2462.24
595.31	2228.19
595.47	2298.41
595.62	2310.11
595.78	2319.47
595.94	2331.17
596.10	2438.84
596.25	2436.50
596.41	2312.45
596.57	2267.98
596.73	2300.75
596.88	2242.23
597.04	2377.98
597.20	2272.66
597.36	2303.09
597.51	2275.00
597.67	2342.88
597.83	2221.17
597.99	2298.41
598.14	2181.38
598.30	2249.25
598.46	2211.81
598.61	2263.30
598.77	2263.30
598.93	2312.45
599.09	2347.56
599.24	2307.77
599.40	2291.38
599.56	2296.07
