SpectraSuite Data File
++++++++++++++++++++++++++++++++++++
Date: Mon Oct 07 14:52:56 GMT-05:00 2013
User: price-jones
Dark Spectrum Present: No
Reference Spectrum Present: No
Number of Sampled Component Spectra: 1
Spectrometers: USB2+H05261
Integration Time (usec): 100000 (USB2+H05261)
Spectra Averaged: 1 (USB2+H05261)
Boxcar Smoothing: 0 (USB2+H05261)
Correct for Electrical Dark: No (USB2+H05261)
Strobe/Lamp Enabled: No (USB2+H05261)
Correct for Detector Non-linearity: No (USB2+H05261)
Correct for Stray Light: No (USB2+H05261)
Number of Pixels in Processed Spectrum: 2048
>>>>>Begin Processed Spectral Data<<<<<
365.73	0.00
365.92	0.00
366.12	0.00
366.32	0.00
366.52	0.00
366.72	0.00
366.91	0.00
367.11	0.00
367.31	0.00
367.51	0.00
367.70	0.00
367.90	0.00
368.10	0.00
368.30	0.00
368.49	0.00
368.69	0.00
368.89	0.00
369.09	0.00
369.28	0.00
369.48	0.00
369.68	0.00
369.87	0.00
370.07	0.00
370.27	0.00
370.47	461.09
370.66	2546.50
370.86	2878.86
371.06	3133.98
371.25	3141.00
371.45	2820.35
371.65	2612.04
371.84	2333.51
372.04	2473.95
372.24	2635.44
372.44	2885.88
372.63	2825.03
372.83	2623.74
373.03	2345.22
373.22	2127.55
373.42	2427.14
373.62	2731.41
373.81	2841.41
374.01	2862.48
374.21	2628.42
374.40	2408.41
374.60	2487.99
374.79	2867.16
374.99	3314.20
375.19	3623.15
375.38	3566.98
375.58	3314.20
375.78	3286.11
375.97	3396.12
376.17	3468.67
376.37	3405.48
376.56	3599.74
376.76	3730.81
376.95	3978.91
377.15	4322.97
377.35	4503.19
377.54	4774.69
377.74	4880.02
377.93	4851.93
378.13	4732.56
378.33	4393.19
378.52	4081.89
378.72	4053.81
378.91	3854.86
379.11	3796.35
379.31	3548.25
379.50	3475.70
379.70	3742.52
379.89	4278.50
380.09	4440.00
380.28	4610.86
380.48	4571.07
380.68	4535.96
380.87	4409.57
381.07	4114.66
381.26	3789.33
381.46	3611.45
381.65	3517.83
381.85	3417.18
382.04	3187.81
382.24	3000.57
382.43	2717.36
382.63	2803.96
382.83	2768.85
383.02	2888.22
383.22	2658.85
383.41	2885.88
383.61	3023.97
383.80	3503.78
384.00	3889.97
384.19	4568.73
384.39	4641.28
384.58	4678.73
384.78	4582.77
384.97	4538.30
385.17	4229.35
385.36	4140.41
385.56	3791.67
385.75	4131.05
385.95	4374.46
386.14	4793.42
386.34	4690.43
386.53	4524.26
386.72	4315.95
386.92	4381.48
387.11	4540.64
387.31	4816.82
387.50	4683.41
387.70	4606.17
387.89	4491.49
388.09	4449.36
388.28	4423.61
388.48	4613.20
388.67	5041.51
388.86	5406.64
389.06	5891.13
389.25	6200.08
389.45	6363.92
389.64	6118.16
389.84	6080.71
390.03	5888.79
390.22	6043.26
390.42	6239.87
390.61	6733.72
390.81	7012.24
391.00	7269.70
391.19	7143.32
391.39	6970.12
391.58	6394.34
391.78	6090.07
391.97	5900.49
392.16	5551.75
392.36	4990.02
392.55	4063.17
392.75	3220.58
392.94	2619.06
393.13	2590.97
393.33	3103.55
393.52	4030.40
393.71	4924.49
393.91	5619.63
394.10	6118.16
394.29	6623.72
394.49	6974.80
394.68	7630.15
394.88	7550.57
395.07	7798.66
395.26	7911.01
395.46	7578.65
395.65	7162.04
395.84	6338.17
396.04	5263.86
396.23	4229.35
396.42	3620.81
396.62	3452.29
396.81	4154.45
397.00	5364.51
397.19	6431.79
397.39	7707.38
397.58	8573.38
397.77	9116.39
397.97	9523.64
398.16	9848.97
398.35	9926.21
398.55	10298.36
398.74	10913.92
398.93	10836.68
399.12	10534.75
399.32	10214.10
399.51	10588.58
399.70	11379.68
399.90	11075.42
400.09	11122.23
400.28	10927.96
400.47	11232.23
400.67	11658.21
400.86	11953.12
401.05	12020.99
401.24	12208.23
401.44	12252.70
401.63	12451.65
401.82	12191.85
402.01	12273.77
402.21	12528.89
402.40	12641.23
402.59	12109.93
402.78	11758.85
402.97	11206.48
403.17	11676.93
403.36	12428.24
403.55	12872.95
403.74	13050.83
403.93	12549.95
404.13	11426.50
404.32	11080.10
404.51	11974.18
404.70	12755.92
404.89	12702.09
405.09	12477.40
405.28	11929.71
405.47	12067.80
405.66	12259.73
405.85	11793.96
406.05	11735.45
406.24	11637.14
406.43	12334.62
406.62	12739.54
406.81	12662.30
407.00	12257.39
407.20	12219.94
407.39	12018.65
407.58	12732.51
407.77	13348.08
407.96	13720.22
408.15	13650.00
408.34	13757.67
408.54	14611.96
408.73	14611.96
408.92	14534.73
409.11	13830.23
409.30	13069.55
409.49	12444.63
409.68	11686.29
409.87	11492.03
410.07	12011.63
410.26	12975.93
410.45	13713.20
410.64	13970.66
410.83	14794.53
411.02	14747.72
411.21	15283.70
411.40	15342.21
411.59	15351.57
411.78	15061.35
411.98	15080.07
412.17	15323.49
412.36	15021.56
412.55	15133.90
412.74	14707.93
412.93	14537.07
413.12	14670.48
413.31	16116.93
413.50	16035.01
413.69	16044.37
413.88	15878.19
414.07	15140.93
414.26	15358.60
414.45	15859.47
414.64	16257.36
414.83	16168.42
415.02	15807.98
415.22	16009.26
415.41	16418.86
415.60	16755.90
415.79	17652.32
415.98	17692.11
416.17	17565.72
416.36	17432.31
416.55	17043.78
416.74	16582.70
416.93	15749.46
417.12	16013.95
417.31	16201.19
417.50	16470.35
417.69	17088.25
417.88	16992.29
418.07	16636.53
418.26	16568.65
418.45	16549.93
418.64	17710.83
418.83	17804.46
419.02	17607.85
419.21	17507.21
419.39	16805.05
419.58	16114.59
419.77	16217.57
419.96	16727.81
420.15	17631.26
420.34	18354.48
420.53	18740.67
420.72	19386.66
420.91	19066.00
421.10	18731.31
421.29	18647.05
421.48	17614.87
421.67	18909.19
421.86	18225.75
422.05	16877.60
422.24	15293.06
422.43	15103.48
422.61	17163.15
422.80	18115.75
422.99	18178.94
423.18	17455.72
423.37	17474.44
423.56	17174.85
423.75	17544.66
423.94	17825.52
424.13	16826.11
424.32	17055.48
424.50	17188.89
424.69	16891.65
424.88	17034.42
425.07	17135.06
425.26	17226.34
425.45	16603.76
425.64	16460.99
425.83	16561.63
426.01	17266.13
426.20	17710.83
426.39	17523.59
426.58	16350.98
426.77	15279.02
426.96	14902.19
427.15	15190.08
427.33	16615.46
427.52	17289.54
427.71	17179.53
427.90	17034.42
428.09	16699.72
428.28	16468.01
428.46	16102.89
428.65	15681.59
428.84	16175.44
429.03	16643.55
429.22	14934.96
429.40	14572.18
429.59	13322.33
429.78	11908.65
429.97	11908.65
430.16	11920.35
430.34	11929.71
430.53	12032.69
430.72	12397.82
430.91	13813.84
431.10	16173.10
431.28	19145.58
431.47	20465.64
431.66	20683.31
431.85	18703.22
432.03	17174.85
432.22	16872.92
432.41	17383.16
432.60	19386.66
432.79	19796.25
432.97	20425.86
433.16	19576.24
433.35	18054.89
433.54	16203.53
433.72	15257.95
433.91	15896.92
434.10	17640.62
434.28	18829.61
434.47	19714.33
434.66	19714.33
434.85	19047.28
435.03	18979.40
435.22	19754.12
435.41	20982.90
435.59	20872.90
435.78	21104.61
435.97	21544.63
436.16	21612.51
436.34	21057.80
436.53	20720.76
436.72	21212.28
436.90	19817.32
437.09	19550.49
437.28	19330.48
437.46	19754.12
437.65	19829.02
437.84	18843.65
438.02	17263.79
438.21	17432.31
438.40	17970.63
438.58	19854.76
438.77	20128.61
438.96	20411.81
439.14	21088.23
439.33	21659.32
439.52	21645.27
439.70	21659.32
439.89	21146.74
440.08	20449.26
440.26	20587.35
440.45	21401.86
440.63	22501.91
440.82	23929.64
441.01	23002.78
441.19	23122.15
441.38	23250.88
441.57	24425.83
441.75	24500.73
441.94	24943.09
442.12	24615.41
442.31	25422.90
442.50	25090.54
442.68	24893.94
442.87	24758.19
443.05	23836.02
443.24	24669.25
443.43	24690.31
443.61	25242.68
443.80	26008.03
443.98	24505.41
444.17	24379.02
444.35	25448.64
444.54	26178.89
444.73	25752.91
444.91	24596.69
445.10	23833.68
445.28	22792.14
445.47	22658.73
445.65	22611.92
445.84	23431.10
446.02	24088.79
446.21	24411.79
446.39	24566.26
446.58	24734.78
446.77	24996.92
446.95	25516.52
447.14	26256.13
447.32	26682.11
447.51	25860.58
447.69	25106.93
447.88	24840.11
448.06	25198.21
448.25	26043.14
448.43	25741.21
448.62	25144.38
448.80	25092.88
448.99	25560.99
449.17	25397.15
449.36	25621.84
449.54	27021.48
449.73	27166.60
449.91	27527.04
450.10	27974.08
450.28	28250.27
450.46	28091.11
450.65	28379.00
450.83	27850.03
451.02	27477.89
451.20	27241.50
451.39	27365.54
451.57	27496.61
451.76	27030.85
451.94	27255.54
452.13	26066.55
452.31	25296.51
452.49	24264.33
452.68	24432.85
452.86	24519.45
453.05	24816.70
453.23	25706.10
453.42	26122.72
453.60	26902.12
453.78	26937.23
453.97	26759.34
454.15	26581.46
454.34	26295.92
454.52	26457.42
454.70	25909.73
454.89	26141.44
455.07	26810.84
455.26	26897.44
455.44	27793.86
455.62	27718.96
455.81	28505.38
455.99	27704.92
456.17	27824.29
456.36	28168.35
456.54	28924.34
456.73	28652.84
456.91	29015.62
457.09	29476.71
457.28	30005.67
457.46	28748.80
457.64	28589.64
457.83	27314.05
458.01	26785.09
458.19	27796.20
458.38	27941.32
458.56	28769.86
458.74	28683.27
458.93	28128.56
459.11	27749.39
459.29	28058.34
459.48	28086.43
459.66	28119.20
459.84	28271.33
460.03	28704.33
460.21	28627.09
460.39	29060.09
460.57	29352.66
460.76	29537.56
460.94	29862.90
461.12	28891.57
461.31	29345.64
461.49	29507.13
461.67	29355.00
461.85	30064.18
462.04	30015.03
462.22	30724.21
462.40	30221.00
462.59	30122.69
462.77	30134.40
462.95	30036.09
463.13	29523.52
463.32	29235.63
463.50	29441.60
463.68	29345.64
463.86	29383.09
464.05	29102.22
464.23	28449.21
464.41	28514.75
464.59	28060.68
464.78	29427.56
464.96	28992.22
465.14	28643.48
465.32	29357.34
465.50	30185.89
465.69	30452.71
465.87	29935.45
466.05	29296.49
466.23	27768.12
466.41	27016.80
466.60	28058.34
466.78	27927.27
466.96	28339.21
467.14	28987.53
467.32	29221.59
467.51	29413.51
467.69	28203.46
467.87	28931.36
468.05	29050.73
468.23	29289.46
468.41	29198.18
468.60	29518.84
468.78	29411.17
468.96	29319.89
469.14	29879.28
469.32	29881.62
469.50	28678.58
469.69	28863.49
469.87	28198.77
470.05	28034.94
470.23	28301.76
470.41	28746.46
470.59	29193.50
470.77	29085.84
470.95	29399.47
471.14	29717.78
471.32	30284.19
471.50	31412.33
471.68	31538.72
471.86	32077.04
472.04	32355.57
472.22	31913.20
472.40	30527.61
472.58	30256.11
472.77	29858.21
472.95	30583.78
473.13	31641.70
473.31	30581.44
473.49	30705.49
473.67	31468.50
473.85	31861.71
474.03	32151.94
474.21	32683.24
474.39	32893.89
474.57	32882.19
474.75	32575.58
474.93	32704.31
475.12	31749.37
475.30	32060.66
475.48	31967.04
475.66	32706.65
475.84	32400.04
476.02	31831.29
476.20	31847.67
476.38	32313.44
476.56	33242.63
476.74	33696.69
476.92	33787.97
477.10	34235.02
477.28	34771.00
477.46	35145.48
477.64	35606.57
477.82	35854.67
478.00	36044.25
478.18	35391.24
478.36	35061.22
478.54	35337.41
478.72	35512.95
478.90	36425.76
479.08	37469.64
479.26	37537.51
479.44	37586.66
479.62	37195.79
479.80	37525.81
479.98	37418.14
480.16	37846.46
480.34	37661.56
480.52	38234.99
480.70	37708.37
480.88	38204.56
481.06	38607.14
481.24	39400.58
481.41	40205.72
481.59	40566.16
481.77	40479.57
481.95	39690.80
482.13	39426.32
482.31	39604.20
482.49	40320.41
482.67	40114.44
482.85	40542.76
483.03	41212.15
483.21	41581.96
483.39	41481.31
483.57	40765.11
483.74	40416.37
483.92	40493.61
484.10	40842.35
484.28	41462.59
484.46	41949.42
484.64	42438.59
484.82	41207.47
485.00	41237.90
485.18	40577.87
485.35	39049.50
485.53	36334.48
485.71	32994.53
485.89	32488.98
486.07	34583.76
486.25	37783.27
486.43	39730.59
486.61	40371.90
486.78	39894.43
486.96	40804.90
487.14	42106.24
487.32	42752.23
487.50	44079.31
487.68	45214.47
487.85	45535.12
488.03	45137.23
488.21	45139.57
488.39	44381.24
488.57	43267.14
488.75	43269.48
488.92	44814.24
489.10	47311.59
489.28	48495.90
489.46	49296.36
489.64	49036.56
489.81	49514.03
489.99	48875.07
490.17	49071.67
490.35	49347.86
490.53	48458.45
490.70	48456.11
490.88	48428.02
491.06	49345.51
491.24	49219.13
491.41	47739.91
491.59	46218.56
491.77	44903.18
491.95	46532.19
492.13	48065.24
492.30	49446.16
492.48	50642.17
492.66	51143.05
492.84	51255.39
493.01	50721.75
493.19	50131.93
493.37	49837.03
493.54	49698.94
493.72	50248.96
493.90	51482.42
494.08	52568.43
494.25	52877.38
494.43	52809.51
494.61	53488.26
494.79	53088.03
494.96	52938.24
495.14	52364.81
495.32	51192.20
495.49	50836.44
495.67	51868.61
495.85	53563.16
496.02	53989.14
496.20	53790.19
496.38	52942.92
496.55	52879.72
496.73	53633.38
496.91	53560.82
497.09	54363.62
497.26	54412.77
497.44	53586.57
497.62	53155.91
497.79	52584.82
497.97	51334.97
498.14	51243.69
498.32	52491.19
498.50	53488.26
498.67	53909.56
498.85	53827.64
499.03	54319.15
499.20	54447.88
499.38	54450.22
499.56	54356.60
499.73	53338.47
499.91	53237.83
500.08	52786.10
500.26	51908.40
500.44	52638.65
500.61	53144.20
500.79	53127.82
500.97	52861.00
501.14	52568.43
501.32	52161.18
501.49	52556.73
501.67	52439.70
501.84	53261.23
502.02	53663.80
502.20	53673.16
502.37	54211.49
502.55	53979.78
502.72	54536.82
502.90	55323.24
503.07	54600.02
503.25	54248.94
503.43	53361.87
503.60	52493.54
503.78	52076.92
503.95	52718.23
504.13	54293.41
504.30	55103.23
504.48	54742.79
504.65	54564.91
504.83	54595.34
505.01	55084.51
505.18	55517.51
505.36	56348.40
505.53	56004.34
505.71	56360.10
505.88	56463.08
506.06	55777.31
506.23	55398.14
506.41	54906.63
506.58	55269.41
506.76	55253.03
506.93	55079.83
507.11	54824.71
507.28	55126.64
507.46	54436.18
507.63	53942.33
507.81	53602.95
507.98	54134.25
508.16	54873.86
508.33	55451.97
508.50	55810.07
508.68	55842.84
508.85	56427.98
509.03	56514.58
509.20	56275.84
509.38	55590.06
509.55	54817.69
509.73	54766.20
509.90	55501.12
510.08	55770.28
510.25	55634.53
510.42	55510.49
510.60	55157.06
510.77	55590.06
510.95	56315.63
511.12	56530.96
511.30	56591.81
511.47	57041.20
511.64	56879.70
511.82	56413.93
511.99	55580.70
512.17	55243.66
512.34	55091.53
512.51	55112.59
512.69	55522.19
512.86	55414.52
513.04	56016.04
513.21	55901.36
513.38	55533.89
513.56	54944.08
513.73	54438.52
513.90	54532.14
514.08	54525.12
514.25	55056.42
514.43	55077.49
514.60	55217.92
514.77	55398.14
514.95	55423.89
515.12	55414.52
515.29	55742.20
515.47	56254.78
515.64	56474.79
515.81	55852.20
515.99	55363.03
516.16	53558.48
516.33	51332.63
516.51	49544.46
516.68	48587.18
516.85	47882.68
517.03	48872.73
517.20	51950.53
517.37	54747.47
517.54	55494.10
517.72	54899.61
517.89	51985.64
518.06	50035.97
518.24	50461.95
518.41	52722.91
518.58	54005.52
518.75	54138.93
518.93	54672.57
519.10	54344.90
519.27	54981.52
519.45	55224.94
519.62	56128.39
519.79	56065.19
519.96	55917.74
520.14	55407.50
520.31	54670.23
520.48	54541.50
520.65	55360.69
520.83	56147.11
521.00	56439.68
521.17	56002.00
521.34	55664.96
521.52	56193.92
521.69	56420.95
521.86	56900.76
522.03	56575.43
522.20	55377.08
522.38	54216.17
522.55	54368.30
522.72	54951.10
522.89	55234.30
523.07	55480.06
523.24	55849.86
523.41	56537.98
523.58	56886.72
523.75	57190.99
523.92	57233.12
524.10	57045.88
524.27	57066.94
524.44	56935.87
524.61	56617.56
524.78	56416.27
524.96	56657.35
525.13	56463.08
525.30	56821.19
525.47	57146.52
525.64	57151.20
525.81	56317.97
525.98	54766.20
526.16	52919.51
526.33	52402.25
526.50	51875.63
526.67	52046.49
526.84	52554.39
527.01	53595.93
527.18	54681.94
527.36	55473.04
527.53	56505.21
527.70	56619.90
527.87	55929.44
528.04	55653.26
528.21	56179.88
528.38	56818.84
528.55	57322.06
528.72	57724.63
528.89	57846.34
529.07	57329.08
529.24	56652.67
529.41	56018.38
529.58	55569.00
529.75	55760.92
529.92	56168.18
530.09	56615.22
530.26	57073.96
530.43	57399.30
530.60	57378.23
530.77	57523.35
530.94	57687.18
531.11	57336.10
531.28	56910.13
531.46	56530.96
531.63	56973.32
531.80	56781.40
531.97	56147.11
532.14	55442.61
532.31	54120.21
532.48	53691.89
532.65	53748.06
532.82	54820.03
532.99	55999.66
533.16	56175.20
533.33	56821.19
533.50	56409.25
533.67	55997.32
533.84	55540.91
534.01	55908.38
534.18	56315.63
534.35	56285.20
534.52	55980.93
534.69	56144.77
534.86	56430.32
535.03	56994.39
535.20	57413.34
535.37	57755.06
535.54	57743.36
535.71	57476.54
535.88	56914.81
536.05	56303.93
536.22	55952.85
536.38	55360.69
536.55	55143.02
536.72	54693.64
536.89	54829.39
537.06	55653.26
537.23	56582.45
537.40	56664.37
537.57	56760.33
537.74	56432.66
537.91	56313.29
538.08	56233.71
538.25	56488.83
538.42	56640.96
538.59	56332.01
538.75	55482.40
538.92	55377.08
539.09	55358.35
539.26	55206.22
539.43	54845.77
539.60	54887.90
539.77	55192.17
539.94	55000.25
540.11	54164.68
540.28	53879.13
540.44	53684.87
540.61	54391.71
540.78	54368.30
540.95	54976.84
541.12	55288.13
541.29	55576.02
541.46	55756.24
541.62	55838.16
541.79	55592.40
541.96	54653.85
542.13	55051.74
542.30	55419.20
542.47	55704.75
542.63	55337.29
542.80	55276.43
542.97	55145.36
543.14	55065.78
543.31	54955.78
543.48	55688.37
543.64	56292.22
543.81	56809.48
543.98	56577.77
544.15	55856.88
544.32	55332.60
544.48	55477.72
544.65	55936.46
544.82	56362.44
544.99	55793.69
545.16	55489.42
545.32	55098.55
545.49	56245.41
545.66	56299.25
545.83	55833.48
546.00	55817.10
546.16	55192.17
546.33	55264.73
546.50	55426.23
546.67	55861.57
546.83	55281.11
547.00	55210.90
547.17	54618.74
547.34	54134.25
547.50	54258.30
547.67	54712.36
547.84	54857.48
548.00	55456.65
548.17	55592.40
548.34	55545.59
548.51	55292.82
548.67	55304.52
548.84	55686.03
549.01	55461.33
549.18	55339.63
549.34	55269.41
549.51	55299.84
549.68	55255.37
549.84	54850.45
550.01	54824.71
550.18	55021.31
550.34	54733.43
550.51	55063.44
550.68	54955.78
550.84	54253.62
551.01	54609.38
551.18	54625.76
551.34	54754.49
551.51	55128.98
551.68	55437.93
551.84	55391.12
552.01	55201.53
552.18	55100.89
552.34	54237.23
552.51	54171.70
552.68	53904.88
552.84	54255.96
553.01	54501.71
553.18	54499.37
553.34	54831.73
553.51	54930.03
553.67	54890.24
553.84	55215.58
554.01	54993.23
554.17	55224.94
554.34	54923.01
554.51	55065.78
554.67	55529.21
554.84	55227.28
555.00	54773.22
555.17	54394.05
555.33	54614.06
555.50	54461.93
555.67	54588.31
555.83	54335.54
556.00	54225.53
556.16	54197.44
556.33	53586.57
556.50	53605.29
556.66	53530.39
556.83	53188.67
556.99	53345.49
557.16	53380.60
557.32	53705.93
557.49	54160.00
557.65	54127.23
557.82	53874.45
557.98	53790.19
558.15	53172.29
558.32	52252.46
558.48	51672.01
558.65	51959.89
558.81	52112.03
558.98	52289.91
559.14	52804.83
559.31	52786.10
559.47	52624.60
559.64	52294.59
559.80	52200.97
559.97	52346.08
560.13	52687.80
560.30	53825.30
560.46	53914.24
560.63	54560.23
560.79	54333.20
560.96	54185.74
561.12	52935.90
561.29	51957.55
561.45	52072.24
561.61	52587.16
561.78	53240.17
561.94	53062.29
562.11	52758.02
562.27	52652.69
562.44	52980.37
562.60	53347.83
562.77	53343.15
562.93	53338.47
563.10	53272.93
563.26	52502.90
563.42	52629.29
563.59	52535.66
563.75	52430.34
563.92	52706.52
564.08	52587.16
564.24	53027.18
564.41	53127.82
564.57	52332.04
564.74	52577.79
564.90	52219.69
565.07	52339.06
565.23	51730.52
565.39	51299.86
565.56	51061.13
565.72	50773.24
565.88	51398.16
566.05	51110.28
566.21	51482.42
566.38	51861.59
566.54	51828.82
566.70	51831.16
566.87	52470.13
567.03	52516.94
567.19	52736.95
567.36	52428.00
567.52	52186.92
567.68	51770.31
567.85	51093.89
568.01	50827.07
568.17	50160.02
568.34	50560.25
568.50	50459.61
568.66	50380.03
568.83	51210.92
568.99	50873.88
569.15	51501.15
569.32	51201.56
569.48	50632.81
569.64	50681.96
569.81	50478.33
569.97	50263.00
570.13	50122.57
570.30	49343.17
570.46	49116.14
570.62	48172.91
570.78	48502.92
570.95	48575.48
571.11	49336.15
571.27	49598.29
571.43	50059.38
571.60	50508.76
571.76	50918.35
571.92	51075.17
572.09	51381.78
572.25	50986.23
572.41	50876.22
572.57	50848.14
572.74	50733.45
572.90	50637.49
573.06	50232.58
573.22	50424.50
573.38	50555.57
573.55	50389.39
573.71	50906.65
573.87	50763.88
574.03	50209.17
574.20	50239.60
574.36	49724.68
574.52	49860.43
574.68	49591.27
574.84	49113.80
575.01	48650.38
575.17	48751.02
575.33	49172.31
575.49	49228.49
575.65	49366.58
575.82	48994.43
575.98	49144.23
576.14	49085.72
576.30	49450.84
576.46	49949.37
576.62	49446.16
576.79	49387.64
576.95	49223.81
577.11	48912.52
577.27	49125.50
577.43	48896.13
577.59	48638.67
577.75	48472.49
577.92	47454.36
578.08	47157.11
578.24	47550.32
578.40	47454.36
578.56	48151.84
578.72	48058.22
578.88	48378.87
579.04	48507.60
579.21	48575.48
579.37	48224.40
579.53	49146.57
579.69	48626.97
579.85	48767.40
580.01	48751.02
580.17	48446.75
580.33	48020.77
580.49	48233.76
580.65	48964.01
580.82	48708.89
580.98	48671.44
581.14	48402.28
581.30	48865.70
581.46	48416.32
581.62	48528.67
581.78	48495.90
581.94	48872.73
582.10	48954.64
582.26	49200.40
582.42	48797.83
582.58	48708.89
582.74	48863.36
582.90	48474.84
583.06	48877.41
583.22	48514.62
583.38	48088.65
583.54	48158.86
583.70	48523.99
583.86	48266.53
584.02	48275.89
584.18	48439.73
584.34	48371.85
584.50	47978.64
584.66	48172.91
584.82	47887.36
584.98	47278.82
585.14	47311.59
585.30	46160.05
