SpectraSuite Data File
++++++++++++++++++++++++++++++++++++
Date: Mon Oct 07 14:53:39 GMT-05:00 2013
User: price-jones
Dark Spectrum Present: No
Reference Spectrum Present: No
Number of Sampled Component Spectra: 1
Spectrometers: USB2+H05261
Integration Time (usec): 100000 (USB2+H05261)
Spectra Averaged: 1 (USB2+H05261)
Boxcar Smoothing: 0 (USB2+H05261)
Correct for Electrical Dark: No (USB2+H05261)
Strobe/Lamp Enabled: No (USB2+H05261)
Correct for Detector Non-linearity: No (USB2+H05261)
Correct for Stray Light: No (USB2+H05261)
Number of Pixels in Processed Spectrum: 2048
>>>>>Begin Processed Spectral Data<<<<<
365.73	0.00
365.92	0.00
366.12	0.00
366.32	0.00
366.52	0.00
366.72	0.00
366.91	0.00
367.11	0.00
367.31	0.00
367.51	0.00
367.70	0.00
367.90	0.00
368.10	0.00
368.30	0.00
368.49	0.00
368.69	0.00
368.89	0.00
369.09	0.00
369.28	0.00
369.48	0.00
369.68	0.00
369.87	0.00
370.07	0.00
370.27	0.00
370.47	276.18
370.66	1839.66
370.86	2094.78
371.06	2345.22
371.25	2324.15
371.45	2277.34
371.65	2010.52
371.84	1849.02
372.04	1895.83
372.24	2125.21
372.44	2272.66
372.63	2218.83
372.83	2134.57
373.03	1715.61
373.22	1727.32
373.42	1727.32
373.62	1961.37
373.81	2307.77
374.01	2237.55
374.21	1926.26
374.40	1909.88
374.60	1905.20
374.79	2230.53
374.99	2609.70
375.19	2864.82
375.38	2637.78
375.58	2651.83
375.78	2534.80
375.97	2555.86
376.17	2726.72
376.37	2647.15
376.56	2789.92
376.76	2909.29
376.95	3028.65
377.15	3330.58
377.35	3370.37
377.54	3569.32
377.74	3478.04
377.93	3634.85
378.13	3644.21
378.33	3487.40
378.52	3063.76
378.72	2925.67
378.91	3000.57
379.11	2794.60
379.31	2778.22
379.50	2771.19
379.70	3138.66
379.89	3283.77
380.09	3428.88
380.28	3632.51
380.48	3611.45
380.68	3485.06
380.87	3438.25
381.07	3293.13
381.26	2981.84
381.46	2747.79
381.65	2794.60
381.85	2616.72
382.04	2553.52
382.24	2394.37
382.43	2195.42
382.63	2190.74
382.83	2345.22
383.02	2207.13
383.22	2193.08
383.41	2300.75
383.61	2455.22
383.80	2771.19
384.00	3059.08
384.19	3384.41
384.39	3513.14
384.58	3606.77
384.78	3524.85
384.97	3454.63
385.17	3344.63
385.36	3171.43
385.56	3101.21
385.75	3169.09
385.95	3398.46
386.14	3742.52
386.34	3702.73
386.53	3543.57
386.72	3220.58
386.92	3290.79
387.11	3578.68
387.31	3730.81
387.50	3695.71
387.70	3417.18
387.89	3541.23
388.09	3391.44
388.28	3520.17
388.48	3510.80
388.67	3843.16
388.86	4299.56
389.06	4505.53
389.25	4734.90
389.45	4971.30
389.64	4812.14
389.84	4709.16
390.03	4643.62
390.22	4734.90
390.42	4772.35
390.61	5273.23
390.81	5518.98
391.00	5544.73
391.19	5687.50
391.39	5390.25
391.58	5102.37
391.78	4713.84
391.97	4580.43
392.16	4381.48
392.36	4100.62
392.55	3248.66
392.75	2534.80
392.94	1935.62
393.13	1956.69
393.33	2445.86
393.52	3005.25
393.71	3808.05
393.91	4348.72
394.10	4521.92
394.29	4980.66
394.49	5453.45
394.68	5818.57
394.88	6076.03
395.07	6310.08
395.26	6134.54
395.46	6017.52
395.65	5699.20
395.84	4863.63
396.04	4051.47
396.23	3384.41
396.42	2743.11
396.62	2644.81
396.81	3009.93
397.00	3997.64
397.19	4905.76
397.39	6017.52
397.58	6607.33
397.77	7356.30
397.97	7424.18
398.16	7492.05
398.35	7857.18
398.55	7908.67
398.74	8360.39
398.93	8451.67
399.12	8542.96
399.32	8002.29
399.51	8269.11
399.70	8791.05
399.90	8578.06
400.09	8844.88
400.28	8531.25
400.47	8734.88
400.67	8968.93
400.86	9336.40
401.05	9406.61
401.24	9495.55
401.44	9533.00
401.63	9540.02
401.82	9848.97
402.01	9600.88
402.21	9682.80
402.40	9858.34
402.59	9359.80
402.78	8966.59
402.97	8791.05
403.17	9114.05
403.36	9703.86
403.55	10015.15
403.74	10448.15
403.93	9877.06
404.13	9011.06
404.32	8877.65
404.51	9205.33
404.70	10139.20
404.89	10043.24
405.09	10097.07
405.28	9415.98
405.47	9334.06
405.66	9502.58
405.85	9434.70
406.05	9137.45
406.24	8952.55
406.43	9710.88
406.62	10087.71
406.81	10012.81
407.00	9521.30
407.20	9322.35
407.39	9577.47
407.58	10008.13
407.77	10293.68
407.96	10700.93
408.15	10841.36
408.34	11101.16
408.54	11297.77
408.73	11470.97
408.92	11269.68
409.11	11002.86
409.30	10565.18
409.49	9610.24
409.68	9139.79
409.87	8901.06
410.07	9738.97
410.26	10047.92
410.45	10679.86
410.64	11016.90
410.83	11342.24
411.02	11660.55
411.21	12418.88
411.40	12060.78
411.59	11990.56
411.78	11997.59
411.98	11910.99
412.17	12065.46
412.36	11712.04
412.55	11943.75
412.74	11625.44
412.93	11279.04
413.12	11487.35
413.31	12685.70
413.50	12704.43
413.69	12945.50
413.88	12439.95
414.07	12107.59
414.26	12224.62
414.45	12575.70
414.64	12353.35
414.83	12580.38
415.02	12222.28
415.22	12369.73
415.41	12582.72
415.60	13156.15
415.79	13832.57
415.98	13769.37
416.17	13921.51
416.36	13497.87
416.55	13481.49
416.74	12952.52
416.93	12386.12
417.12	12287.81
417.31	12706.77
417.50	13043.81
417.69	13364.46
417.88	13277.86
418.07	13074.23
418.26	13034.44
418.45	12716.13
418.64	13631.28
418.83	14207.05
419.02	14143.86
419.21	13467.44
419.39	12961.89
419.58	12428.24
419.77	12697.41
419.96	13195.94
420.15	13862.99
420.34	14270.25
420.53	14595.58
420.72	15232.21
420.91	15147.95
421.10	14813.25
421.29	14448.13
421.48	13961.30
421.67	15218.16
421.86	14721.97
422.05	13523.62
422.24	11939.07
422.43	11892.26
422.61	12952.52
422.80	14146.20
422.99	14244.50
423.18	13736.60
423.37	13516.59
423.56	13673.41
423.75	13610.22
423.94	14012.79
424.13	13345.73
424.32	13458.08
424.50	13521.27
424.69	13275.52
424.88	13415.95
425.07	13476.80
425.26	13259.13
425.45	13184.24
425.64	12643.57
425.83	12709.11
426.01	13434.68
426.20	13987.04
426.39	13914.48
426.58	12760.60
426.77	11815.02
426.96	11644.17
427.15	11999.93
427.33	12819.11
427.52	13472.12
427.71	13476.80
427.90	13352.76
428.09	13081.25
428.28	13057.85
428.46	12610.81
428.65	12498.46
428.84	12755.92
429.03	13025.08
429.22	12173.13
429.40	11683.95
429.59	10532.41
429.78	9221.71
429.97	9343.42
430.16	9252.14
430.34	9713.22
430.53	9516.62
430.72	9703.86
430.91	10616.67
431.10	12475.06
431.28	14740.69
431.47	15784.57
431.66	16119.27
431.85	14560.47
432.03	13582.13
432.22	12994.65
432.41	13476.80
432.60	14679.84
432.79	15627.76
432.97	16030.33
433.16	15702.65
433.35	14059.60
433.54	12741.88
433.72	12053.76
433.91	12266.75
434.10	13778.73
434.28	14864.74
434.47	15702.65
434.66	15421.79
434.85	14883.47
435.03	14902.19
435.22	15131.56
435.41	16465.67
435.59	16606.10
435.78	16395.45
435.97	16994.63
436.16	16893.99
436.34	16868.24
436.53	16442.26
436.72	16287.79
436.90	15400.72
437.09	15325.83
437.28	14970.07
437.46	15571.58
437.65	15999.90
437.84	14829.63
438.02	13600.85
438.21	13516.59
438.40	14122.79
438.58	15445.20
438.77	15569.24
438.96	15976.50
439.14	16606.10
439.33	17118.68
439.52	17116.34
439.70	16671.64
439.89	16507.80
440.08	15927.35
440.26	15875.85
440.45	16671.64
440.63	17362.09
440.82	18548.75
441.01	18221.07
441.19	18265.54
441.38	18611.94
441.57	19108.13
441.75	19473.26
441.94	19386.66
442.12	19166.65
442.31	19491.98
442.50	19566.88
442.68	19613.69
442.87	19138.56
443.05	18911.53
443.24	19033.24
443.43	19653.48
443.61	19779.87
443.80	20294.79
443.98	19145.58
444.17	18930.25
444.35	20063.07
444.54	20271.38
444.73	20346.28
444.91	19356.23
445.10	18750.03
445.28	18036.17
445.47	17387.84
445.65	17668.70
445.84	18267.88
446.02	19061.32
446.21	19178.35
446.39	19302.40
446.58	19700.29
446.77	19751.78
446.95	19936.68
447.14	20556.93
447.32	20861.19
447.51	20486.71
447.69	19543.47
447.88	19489.64
448.06	19646.46
448.25	20308.83
448.43	20575.65
448.62	19878.17
448.80	19552.84
448.99	19875.83
449.17	20201.16
449.36	19943.70
449.54	20879.92
449.73	21343.35
449.91	21383.13
450.10	21893.37
450.28	22443.40
450.46	22003.38
450.65	22221.05
450.83	22075.93
451.02	21528.25
451.20	21303.56
451.39	21383.13
451.57	21123.33
451.76	21343.35
451.94	21254.40
452.13	20662.25
452.31	20039.67
452.49	19136.22
452.68	19250.91
452.86	19115.16
453.05	19639.44
453.23	19974.13
453.42	20533.52
453.60	21387.82
453.78	21355.05
453.97	20823.75
454.15	21254.40
454.34	20460.96
454.52	20776.94
454.70	20259.68
454.89	20666.93
455.07	20240.95
455.26	20648.21
455.44	21692.08
455.62	21853.58
455.81	22277.22
455.99	21986.99
456.17	21518.89
456.36	21867.63
456.54	22260.84
456.73	22539.36
456.91	22661.07
457.09	23056.62
457.28	23302.37
457.46	22611.92
457.64	22333.39
457.83	21523.57
458.01	20968.86
458.19	21486.12
458.38	21909.75
458.56	22518.29
458.74	22267.86
458.93	22115.72
459.11	21593.78
459.29	21930.82
459.48	21886.35
459.66	21556.33
459.84	22118.06
460.03	22288.92
460.21	22228.07
460.39	23080.02
460.57	22991.08
460.76	23145.56
460.94	23145.56
461.12	22977.04
461.31	22876.40
461.49	22918.53
461.67	22689.15
461.85	23295.35
462.04	23325.78
462.22	24266.67
462.40	23885.17
462.59	23608.98
462.77	23489.62
462.95	23498.98
463.13	23419.40
463.32	23117.47
463.50	22881.08
463.68	22586.17
463.86	22789.80
464.05	22492.55
464.23	22118.06
464.41	22003.38
464.59	21633.57
464.78	23009.81
464.96	22625.96
465.14	22462.12
465.32	23211.09
465.50	23562.17
465.69	24144.97
465.87	23569.19
466.05	22845.97
466.23	21673.36
466.41	21135.04
466.60	21628.89
466.78	22106.36
466.96	22204.66
467.14	22672.77
467.32	23175.98
467.51	23044.91
467.69	21991.67
467.87	22579.15
468.05	22780.43
468.23	22820.22
468.41	22532.34
468.60	23068.32
468.78	22946.61
468.96	22717.24
469.14	23178.33
469.32	23445.15
469.50	22118.06
469.69	22560.42
469.87	22279.56
470.05	21951.88
470.23	22263.18
470.41	22429.35
470.59	22537.02
470.77	22754.69
470.95	23199.39
471.14	23260.24
471.32	23407.70
471.50	24657.54
471.68	24879.89
471.86	24999.26
472.04	24856.49
472.22	24952.45
472.40	23800.91
472.58	23480.25
472.77	23548.13
472.95	23838.36
473.13	24343.91
473.31	24020.92
473.49	23981.13
473.67	24088.79
473.85	24498.39
474.03	25453.33
474.21	25369.07
474.39	25586.74
474.57	25844.20
474.75	25549.29
474.93	25624.18
475.12	25095.22
475.30	25032.03
475.48	24978.20
475.66	25355.02
475.84	25369.07
476.02	24858.83
476.20	24666.91
476.38	25146.72
476.56	25783.34
476.74	26686.79
476.92	26590.83
477.10	26574.44
477.28	27716.62
477.46	27592.58
477.64	27917.91
477.82	27761.09
478.00	28308.78
478.18	27538.74
478.36	27461.51
478.54	27395.97
478.72	27571.51
478.90	28297.08
479.08	29369.04
479.26	29535.22
479.44	29483.73
479.62	28996.90
479.80	28912.64
479.98	29397.13
480.16	29528.20
480.34	29551.60
480.52	29832.47
480.70	29745.87
480.88	30258.45
481.06	30775.70
481.24	30525.27
481.41	31292.96
481.59	31920.23
481.77	31529.36
481.95	30888.05
482.13	30965.29
482.31	30782.73
482.49	31440.42
482.67	31412.33
482.85	31590.21
483.03	31840.65
483.21	32484.30
483.39	32142.58
483.57	31840.65
483.74	31501.27
483.92	32147.26
484.10	32245.56
484.28	32823.67
484.46	33434.55
484.64	33298.80
484.82	32435.14
485.00	32294.71
485.18	31789.16
485.35	30988.69
485.53	28596.67
485.71	25965.90
485.89	25284.81
486.07	26492.52
486.25	28917.32
486.43	31161.89
486.61	32002.14
486.78	31332.75
486.96	31784.48
487.14	33013.26
487.32	33935.43
487.50	34883.34
487.68	35510.61
487.85	36025.53
488.03	36180.00
488.21	35732.96
488.39	34972.28
488.57	33905.00
488.75	33944.79
488.92	34960.58
489.10	37326.86
489.28	38494.79
489.46	39524.63
489.64	39421.64
489.81	39487.18
489.99	39173.55
490.17	39227.38
490.35	39636.97
490.53	39072.90
490.70	38459.68
490.88	38330.95
491.06	39992.73
491.24	39304.62
491.41	38600.12
491.59	36573.21
491.77	35512.95
491.95	36844.71
492.13	38237.33
492.30	39728.25
492.48	40957.03
492.66	41773.88
492.84	41453.23
493.01	41216.83
493.19	40233.81
493.37	40271.26
493.54	39835.92
493.72	40378.92
493.90	41944.74
494.08	43147.78
494.25	43430.98
494.43	43433.32
494.61	44313.36
494.79	44423.37
494.96	43915.47
495.14	43456.73
495.32	41790.27
495.49	41027.25
495.67	42293.48
495.85	44006.75
496.02	45167.66
496.20	44734.66
496.38	43803.13
496.55	43768.02
496.73	44538.05
496.91	44790.83
497.09	45879.18
497.26	45785.56
497.44	44755.72
497.62	44460.82
497.79	43777.38
497.97	41495.36
498.14	41687.28
498.32	43182.88
498.50	44636.36
498.67	45205.11
498.85	45022.54
499.03	45799.60
499.20	45801.94
499.38	45844.07
499.56	45081.06
499.73	44935.95
499.91	44360.17
500.08	43721.21
500.26	42288.80
500.44	43522.26
500.61	43981.01
500.79	43779.72
500.97	43749.29
501.14	42995.64
501.32	43428.64
501.49	43194.59
501.67	43564.39
501.84	44346.13
502.02	44699.55
502.20	45177.02
502.37	44863.39
502.55	45050.63
502.72	46356.65
502.90	46754.54
503.07	46490.06
503.25	45776.20
503.43	44194.00
503.60	43576.09
503.78	42501.79
503.95	43304.59
504.13	45106.80
504.30	46595.38
504.48	46260.69
504.65	45778.54
504.83	46169.41
505.01	46459.63
505.18	46902.00
505.36	47852.25
505.53	47997.37
505.71	48531.01
505.88	48563.78
506.06	47594.79
506.23	47327.97
506.41	46848.16
506.58	47009.66
506.76	46976.89
506.93	46658.58
507.11	46328.56
507.28	46660.92
507.46	46017.27
507.63	45272.98
507.81	44765.09
507.98	44940.63
508.16	46361.33
508.33	46951.15
508.50	47894.38
508.68	48030.13
508.85	48645.69
509.03	48399.94
509.20	48292.27
509.38	47267.12
509.55	46141.32
509.73	46183.45
509.90	47770.33
510.08	47620.54
510.25	47171.16
510.42	47353.72
510.60	47459.04
510.77	47847.57
510.95	48561.44
511.12	48406.96
511.30	48835.28
511.47	49378.28
511.64	48912.52
511.82	48722.93
511.99	47232.01
512.17	47068.17
512.34	46216.22
512.51	46476.02
512.69	46829.44
512.86	46988.60
513.04	48137.80
513.21	47863.96
513.38	47187.54
513.56	46576.66
513.73	45752.79
513.90	45682.58
514.08	45844.07
514.25	46700.71
514.43	46607.09
514.60	47199.24
514.77	47152.43
514.95	47346.70
515.12	47206.26
515.29	47400.53
515.47	48067.58
515.64	48460.79
515.81	47791.40
515.99	47201.58
516.16	45420.44
516.33	41879.21
516.51	39878.05
516.68	39077.58
516.85	38305.21
517.03	39023.75
517.20	42237.31
517.37	45750.45
517.54	47334.99
517.72	46960.51
517.89	42986.28
518.06	39889.75
518.24	39826.56
518.41	43414.60
518.58	45284.68
518.75	45308.09
518.93	45766.84
519.10	45492.99
519.27	46534.53
519.45	46260.69
519.62	47292.86
519.79	48121.41
519.96	48002.05
520.14	47625.22
520.31	45748.11
520.48	45806.62
520.65	46576.66
520.83	47826.51
521.00	48311.00
521.17	47917.79
521.34	47805.44
521.52	48392.92
521.69	48474.84
521.86	49247.21
522.03	48566.12
522.20	47136.05
522.38	45317.45
522.55	45251.92
522.72	46340.27
522.89	46686.67
523.07	47433.30
523.24	47243.71
523.41	48491.22
523.58	49209.76
523.75	49860.43
523.92	49401.69
524.10	49600.63
524.27	49450.84
524.44	49008.48
524.61	48823.58
524.78	48594.20
524.96	48397.60
525.13	48823.58
525.30	48697.19
525.47	49354.88
525.64	49432.11
525.81	48657.40
525.98	46323.88
526.16	44261.87
526.33	43201.61
526.50	42492.43
526.67	42351.99
526.84	43386.51
527.01	44224.42
527.18	45787.90
527.36	47384.15
527.53	48383.55
527.70	48802.51
527.87	47971.62
528.04	47178.18
528.21	48535.69
528.38	49186.36
528.55	49712.98
528.72	50136.62
528.89	50185.77
529.07	49785.54
529.24	48964.01
529.41	47899.06
529.58	47056.47
529.75	47344.36
529.92	48252.48
530.09	48500.58
530.26	49270.62
530.43	49436.80
530.60	49743.41
530.77	49860.43
530.94	50373.01
531.11	49675.53
531.28	49209.76
531.46	48828.26
531.63	48886.77
531.80	49074.01
531.97	48154.18
532.14	47143.07
532.31	45591.30
532.48	45191.06
532.65	44828.28
532.82	45698.96
532.99	47861.61
533.16	48168.22
533.33	48858.68
533.50	48657.40
533.67	47618.20
533.84	47185.20
534.01	47428.62
534.18	47931.83
534.35	48069.92
534.52	48062.90
534.69	48346.11
534.86	48697.19
535.03	49474.24
535.20	49605.31
535.37	50363.65
535.54	50497.06
535.71	49769.15
535.88	49549.14
536.05	48147.16
536.22	47522.24
536.38	47480.11
536.55	46628.15
536.72	46047.70
536.89	45823.01
537.06	46845.82
537.23	48886.77
537.40	48690.16
537.57	48645.69
537.74	48294.61
537.91	48701.87
538.08	48439.73
538.25	47962.26
538.42	48823.58
538.59	48196.31
538.75	47381.80
538.92	47009.66
539.09	46660.92
539.26	46464.32
539.43	46342.61
539.60	46211.54
539.77	46827.10
539.94	46838.80
540.11	45764.49
540.28	44729.98
540.44	44839.98
540.61	44905.52
540.78	45689.60
540.95	46169.41
541.12	46703.05
541.29	47058.81
541.46	48020.77
541.62	47782.04
541.79	47604.16
541.96	46604.75
542.13	46761.56
542.30	46983.91
542.47	47538.62
542.63	47014.34
542.80	46813.05
542.97	46784.97
543.14	46770.93
543.31	46426.87
543.48	47126.69
543.64	48727.61
543.81	49013.16
543.98	48460.79
544.15	47849.91
544.32	46817.74
544.48	46822.42
544.65	47782.04
544.82	48233.76
544.99	47765.65
545.16	47367.76
545.32	46887.95
545.49	47988.00
545.66	48325.04
545.83	48179.93
546.00	47615.86
546.16	46873.91
546.33	47037.75
546.50	47262.44
546.67	47526.92
546.83	47107.96
547.00	47309.25
547.17	46124.94
547.34	45116.17
547.50	45230.85
547.67	46251.33
547.84	45930.67
548.00	46527.51
548.17	46803.69
548.34	47040.09
548.51	47208.61
548.67	46808.37
548.84	47590.11
549.01	47475.43
549.18	47154.77
549.34	46927.74
549.51	46887.95
549.68	46834.12
549.84	46218.56
550.01	46408.14
550.18	46227.92
550.34	46010.25
550.51	46923.06
550.68	46794.33
550.84	45808.96
551.01	46089.83
551.18	45766.84
551.34	46153.02
551.51	46663.26
551.68	47309.25
551.84	46813.05
552.01	47058.81
552.18	46747.52
552.34	45553.85
552.51	44832.96
552.68	44751.04
552.84	45408.73
553.01	46267.71
553.18	45771.52
553.34	46036.00
553.51	46401.12
553.67	46204.52
553.84	46885.61
554.01	46564.96
554.17	46344.95
554.34	46494.74
554.51	46539.21
554.67	46609.43
554.84	46728.80
555.00	46218.56
555.17	45666.19
555.33	45914.29
555.50	45652.15
555.67	45801.94
555.83	45806.62
556.00	45102.12
556.16	45155.96
556.33	44746.36
556.50	44374.22
556.66	45001.48
556.83	44275.91
556.99	44210.38
557.16	44123.78
557.32	44804.88
557.49	45289.37
557.65	44563.80
557.82	45088.08
557.98	44369.54
558.15	43817.17
558.32	43028.41
558.48	42117.94
558.65	42101.56
558.81	42719.46
558.98	43161.82
559.14	43353.74
559.31	43428.64
559.47	43777.38
559.64	42707.76
559.80	42422.21
559.97	42649.24
560.13	43510.56
560.30	44774.45
560.46	45244.90
560.63	45925.99
560.79	45881.52
560.96	45151.27
561.12	43438.00
561.29	42452.64
561.45	42284.12
561.61	43405.23
561.78	43707.16
561.94	43494.18
562.11	43669.72
562.27	43337.36
562.44	43571.41
562.60	44222.08
562.77	44641.04
562.93	44357.83
563.10	44360.17
563.26	43182.88
563.42	43281.19
563.59	43033.09
563.75	43091.60
563.92	42803.72
564.08	43037.77
564.24	44039.52
564.41	43407.58
564.57	43557.37
564.74	43253.10
564.90	42953.51
565.07	42637.54
565.23	42487.74
565.39	41422.80
565.56	41254.28
565.72	40830.65
565.88	41399.40
566.05	41558.55
566.21	42040.70
566.38	42220.92
566.54	42459.66
566.70	42628.18
566.87	43402.89
567.03	42810.74
567.19	42885.64
567.36	42574.34
567.52	42733.50
567.68	42000.91
567.85	41801.97
568.01	40971.08
568.17	40542.76
568.34	40289.98
568.50	40182.32
568.66	41289.39
568.83	41624.09
568.99	41455.57
569.15	41511.74
569.32	41567.91
569.48	41188.75
569.64	40910.22
569.81	40545.10
569.97	40418.71
570.13	40680.85
570.30	39426.32
570.46	39569.10
570.62	38466.70
570.78	38513.52
570.95	39159.50
571.11	39885.07
571.27	40245.51
571.43	40072.31
571.60	40617.66
571.76	40851.71
571.92	41375.99
572.09	41483.66
572.25	41504.72
572.41	41148.96
572.57	41134.92
572.74	41425.14
572.90	40432.75
573.06	40713.62
573.22	40769.79
573.38	40882.14
573.55	40720.64
573.71	40849.37
573.87	40531.06
574.03	40212.74
574.20	40500.63
574.36	40030.18
574.52	39571.44
574.68	39604.20
574.84	38756.93
575.01	38483.09
575.17	38747.57
575.33	38485.43
575.49	38820.13
575.65	39115.03
575.82	39321.00
575.98	38602.46
576.14	39185.25
576.30	39728.25
576.46	39693.15
576.62	39541.01
576.79	39639.31
576.95	39021.41
577.11	38937.15
577.27	39236.74
577.43	38944.17
577.59	38930.13
577.75	38614.16
577.92	37661.56
578.08	37773.91
578.24	37312.82
578.40	37839.44
578.56	38000.94
578.72	38295.85
578.88	38431.60
579.04	38281.80
579.21	38618.84
579.37	38707.78
579.53	39248.44
579.69	38703.10
579.85	39056.52
580.01	38923.11
580.17	38352.02
580.33	38232.65
580.49	38794.38
580.65	38497.13
580.82	38520.54
580.98	38572.03
581.14	38932.47
581.30	38789.70
581.46	39068.22
581.62	39096.31
581.78	38565.01
581.94	38892.68
582.10	39124.40
582.26	39328.02
582.42	38902.04
582.58	39124.40
582.74	38813.10
582.90	39147.80
583.06	39035.45
583.22	39218.02
583.38	38368.40
583.54	38649.27
583.70	38487.77
583.86	38525.22
584.02	38150.73
584.18	38583.73
584.34	38174.14
584.50	37986.89
584.66	37926.04
584.82	37603.05
584.98	37638.15
585.14	37397.08
585.30	35936.59
585.46	35943.61
585.62	36027.87
585.78	36842.37
