SpectraSuite Data File
++++++++++++++++++++++++++++++++++++
Date: Mon Oct 07 14:53:33 GMT-05:00 2013
User: price-jones
Dark Spectrum Present: No
Reference Spectrum Present: No
Number of Sampled Component Spectra: 1
Spectrometers: USB2+H05261
Integration Time (usec): 100000 (USB2+H05261)
Spectra Averaged: 1 (USB2+H05261)
Boxcar Smoothing: 0 (USB2+H05261)
Correct for Electrical Dark: No (USB2+H05261)
Strobe/Lamp Enabled: No (USB2+H05261)
Correct for Detector Non-linearity: No (USB2+H05261)
Correct for Stray Light: No (USB2+H05261)
Number of Pixels in Processed Spectrum: 2048
>>>>>Begin Processed Spectral Data<<<<<
365.73	0.00
365.92	0.00
366.12	0.00
366.32	0.00
366.52	0.00
366.72	0.00
366.91	0.00
367.11	0.00
367.31	0.00
367.51	0.00
367.70	0.00
367.90	0.00
368.10	0.00
368.30	0.00
368.49	0.00
368.69	0.00
368.89	0.00
369.09	0.00
369.28	0.00
369.48	0.00
369.68	0.00
369.87	0.00
370.07	0.00
370.27	0.00
370.47	571.09
370.66	2944.39
370.86	3375.05
371.06	3915.72
371.25	3801.03
371.45	3489.74
371.65	3126.96
371.84	2890.56
372.04	2984.18
372.24	3597.40
372.44	3658.26
372.63	3501.44
372.83	3309.52
373.03	2925.67
373.22	2644.81
373.42	2827.37
373.62	3293.13
373.81	3471.01
374.01	3524.85
374.21	3227.60
374.40	2944.39
374.60	3047.38
374.79	3562.30
374.99	4105.30
375.19	4369.78
375.38	4390.84
375.58	4070.19
375.78	3948.48
375.97	4138.07
376.17	4187.22
376.37	4222.33
376.56	4454.04
376.76	4505.53
376.95	5001.72
377.15	5315.36
377.35	5235.78
377.54	5727.29
377.74	5727.29
377.93	5813.89
378.13	5832.62
378.33	5303.65
378.52	4992.36
378.72	4814.48
378.91	4667.03
379.11	4629.58
379.31	4269.14
379.50	4465.74
379.70	4678.73
379.89	5219.39
380.09	5434.72
380.28	5643.03
380.48	5797.51
380.68	5638.35
380.87	5355.15
381.07	5076.62
381.26	4697.46
381.46	4451.70
381.65	4266.80
381.85	4156.79
382.04	3899.33
382.24	3695.71
382.43	3716.77
382.63	3459.31
382.83	3550.59
383.02	3442.93
383.22	3307.18
383.41	3625.49
383.61	3721.45
383.80	4250.41
384.00	4819.16
384.19	5453.45
384.39	5680.48
384.58	5731.97
384.78	5579.84
384.97	5530.69
385.17	5226.42
385.36	5025.13
385.56	4809.80
385.75	4840.23
385.95	5411.32
386.14	5837.30
386.34	5860.70
386.53	5521.32
386.72	5172.58
386.92	5359.83
387.11	5605.58
387.31	5942.62
387.50	5675.80
387.70	5495.58
387.89	5465.15
388.09	5535.37
388.28	5647.71
388.48	5720.27
388.67	6040.92
388.86	6951.39
389.06	7108.21
389.25	7592.70
389.45	7634.83
389.64	7641.85
389.84	7478.01
390.03	7314.17
390.22	7592.70
390.42	7634.83
390.61	8163.79
390.81	8606.15
391.00	8753.60
391.19	8772.33
391.39	8617.85
391.58	8058.46
391.78	7492.05
391.97	7246.30
392.16	6897.56
392.36	6209.44
392.55	5078.96
392.75	3988.27
392.94	3169.09
393.13	3204.19
393.33	3639.53
393.52	4812.14
393.71	5944.96
393.91	6609.67
394.10	7250.98
394.29	7894.63
394.49	8688.07
394.68	9371.50
394.88	9387.89
395.07	9755.35
395.26	9476.83
395.46	9296.61
395.65	8865.95
395.84	7648.87
396.04	6628.40
396.23	5397.28
396.42	4514.89
396.62	4044.45
396.81	4875.34
397.00	6345.19
397.19	7955.48
397.39	9273.20
397.58	10516.03
397.77	11028.60
397.97	11768.21
398.16	11831.41
398.35	12138.02
398.55	12461.01
398.74	12999.34
398.93	13427.65
399.12	13151.47
399.32	12599.10
399.51	13001.68
399.70	13963.64
399.90	13673.41
400.09	13549.36
400.28	13249.77
400.47	13694.47
400.67	14450.47
400.86	14698.56
401.05	14548.77
401.24	14628.35
401.44	14963.04
401.63	14981.77
401.82	15061.35
402.01	15087.09
402.21	15173.69
402.40	15176.03
402.59	14874.10
402.78	14066.62
402.97	13680.43
403.17	14450.47
403.36	15070.71
403.55	15800.96
403.74	15815.00
403.93	15220.50
404.13	14239.82
404.32	13579.79
404.51	14504.30
404.70	15641.80
404.89	15714.36
405.09	15260.29
405.28	14934.96
405.47	14644.73
405.66	14759.42
405.85	14560.47
406.05	13947.25
406.24	14471.53
406.43	14899.85
406.62	15618.39
406.81	15726.06
407.00	14862.40
407.20	14792.19
407.39	15000.49
407.58	15410.09
407.77	16152.04
407.96	16484.39
408.15	16856.54
408.34	16774.62
408.54	17729.56
408.73	17582.10
408.92	17167.83
409.11	16915.05
409.30	15990.54
409.49	15176.03
409.68	14185.99
409.87	13839.59
410.07	14724.31
410.26	15681.59
410.45	16638.87
410.64	17137.40
410.83	17862.97
411.02	18015.10
411.21	18820.25
411.40	18679.82
411.59	18951.32
411.78	18501.93
411.98	18108.72
412.17	18794.50
412.36	18293.63
412.55	18445.76
412.74	18057.23
412.93	17635.94
413.12	17696.79
413.31	19262.61
413.50	19545.81
413.69	20009.24
413.88	19152.60
414.07	18281.92
414.26	18895.14
414.45	19644.12
414.64	19604.33
414.83	19807.95
415.02	19168.99
415.22	19260.27
415.41	19644.12
415.60	20315.85
415.79	21050.78
415.98	21542.29
416.17	21736.56
416.36	21102.27
416.55	20596.71
416.74	20205.84
416.93	19470.92
417.12	19381.98
417.31	19660.50
417.50	19873.49
417.69	20683.31
417.88	20613.10
418.07	20402.45
418.26	19950.73
418.45	20292.44
418.64	20954.82
418.83	21937.84
419.02	21436.97
419.21	21497.82
419.39	20081.80
419.58	19463.90
419.77	19389.00
419.96	20327.55
420.15	21116.31
420.34	21916.78
420.53	22724.26
420.72	23400.68
420.91	23026.19
421.10	22600.21
421.29	22824.90
421.48	21881.67
421.67	22995.76
421.86	22235.09
422.05	20816.72
422.24	18700.88
422.43	18389.59
422.61	19957.75
422.80	21762.30
422.99	22185.94
423.18	20957.16
423.37	20620.12
423.56	20659.91
423.75	21369.09
423.94	21584.42
424.13	20662.25
424.32	20552.24
424.50	20812.04
424.69	20570.97
424.88	20507.77
425.07	20620.12
425.26	20402.45
425.45	20212.87
425.64	19676.88
425.83	19843.06
426.01	20996.95
426.20	21605.49
426.39	21862.94
426.58	20046.69
426.77	18499.59
426.96	18012.76
427.15	18202.35
427.33	19943.70
427.52	20545.22
427.71	20985.24
427.90	20453.94
428.09	20280.74
428.28	19847.74
428.46	19178.35
428.65	19040.26
428.84	19466.24
429.03	19632.41
429.22	18890.46
429.40	17762.33
429.59	16238.64
429.78	14286.63
429.97	14197.69
430.16	14530.05
430.34	14759.42
430.53	14719.63
430.72	14815.59
430.91	16290.13
431.10	19391.34
431.28	22506.59
431.47	24507.75
431.66	24889.26
431.85	22740.64
432.03	20760.55
432.22	19690.93
432.41	20585.01
432.60	23157.26
432.79	23939.00
432.97	24439.87
433.16	24034.96
433.35	21876.99
433.54	19494.32
433.72	18396.61
433.91	18651.73
434.10	21198.23
434.28	22913.84
434.47	23995.17
434.66	23531.75
434.85	22951.29
435.03	22726.60
435.22	23440.47
435.41	24940.75
435.59	24973.52
435.78	25170.12
435.97	26036.12
436.16	26103.99
436.34	25989.31
436.53	25144.38
436.72	25425.24
436.90	23939.00
437.09	23702.61
437.28	23309.40
437.46	24116.88
437.65	24137.94
437.84	22939.59
438.02	20727.78
438.21	20402.45
438.40	21851.24
438.58	23669.84
438.77	24215.18
438.96	24364.98
439.14	25280.13
439.33	26096.97
439.52	26288.90
439.70	26089.95
439.89	25352.68
440.08	24524.13
440.26	24257.31
440.45	25216.93
440.63	27363.20
440.82	28334.53
441.01	27934.29
441.19	27410.01
441.38	28016.21
441.57	29427.56
441.75	29766.93
441.94	29965.88
442.12	29509.47
442.31	30075.88
442.50	29890.98
442.68	29717.78
442.87	29149.03
443.05	28811.99
443.24	29542.24
443.43	29741.19
443.61	30499.52
443.80	30824.86
443.98	29116.26
444.17	28938.38
444.35	30738.26
444.54	31484.89
444.73	30759.32
444.91	29509.47
445.10	28694.97
445.28	27438.10
445.47	26717.22
445.65	26923.18
445.84	27899.19
446.02	28854.12
446.21	28961.79
446.39	29455.64
446.58	29390.11
446.77	29956.52
446.95	30632.93
447.14	31028.48
447.32	31824.26
447.51	31445.10
447.69	29766.93
447.88	29177.12
448.06	29827.79
448.25	30452.71
448.43	30801.45
448.62	30073.54
448.80	30349.73
448.99	30396.54
449.17	30682.08
449.36	30548.67
449.54	31868.73
449.73	31908.52
449.91	32772.18
450.10	33298.80
450.28	33858.19
450.46	33888.62
450.65	33942.45
450.83	33312.84
451.02	32753.46
451.20	32687.92
451.39	32535.79
451.57	32503.02
451.76	32470.25
451.94	32250.24
452.13	31459.14
452.31	30361.43
452.49	28914.98
452.68	29078.82
452.86	29312.87
453.05	29387.77
453.23	30377.81
453.42	31211.04
453.60	31835.97
453.78	32189.39
453.97	32233.86
454.15	31999.80
454.34	31555.10
454.52	31550.42
454.70	30810.81
454.89	31234.45
455.07	31527.02
455.26	31550.42
455.44	32940.70
455.62	33586.69
455.81	33970.54
455.99	33350.29
456.17	33298.80
456.36	33308.16
456.54	34075.86
456.73	34204.59
456.91	34422.26
457.09	34677.38
457.28	35189.95
457.46	34199.91
457.64	33879.25
457.83	32755.80
458.01	32297.05
458.19	32870.48
458.38	32914.95
458.56	34110.97
458.74	33893.30
458.93	33450.94
459.11	33324.55
459.29	32898.57
459.48	33305.82
459.66	33109.22
459.84	33816.06
460.03	33909.68
460.21	33963.51
460.39	34836.53
460.57	34611.84
460.76	35161.87
460.94	35534.01
461.12	34991.01
461.31	34581.42
461.49	34494.82
461.67	34422.26
461.85	35955.31
462.04	35517.63
462.22	36037.23
462.40	36121.49
462.59	35709.55
462.77	35686.15
462.95	35306.98
463.13	35150.17
463.32	34632.91
463.50	34689.08
463.68	34614.18
463.86	35058.88
464.05	34665.67
464.23	33457.96
464.41	33502.43
464.59	33167.73
464.78	34380.13
464.96	34452.69
465.14	33940.11
465.32	34937.18
465.50	35859.35
465.69	36339.16
465.87	35124.42
466.05	34494.82
466.23	32875.16
466.41	32620.05
466.60	33219.22
466.78	32844.74
466.96	33443.91
467.14	34253.74
467.32	34932.50
467.51	34873.98
467.69	32978.15
467.87	34174.16
468.05	34263.10
468.23	34792.06
468.41	34679.72
468.60	34806.11
468.78	35459.12
468.96	34312.25
469.14	35580.82
469.32	35526.99
469.50	33982.24
469.69	34080.54
469.87	33394.76
470.05	33151.35
470.23	33305.82
470.41	33200.50
470.59	34050.11
470.77	34099.26
470.95	34871.64
471.14	35267.19
471.32	35260.17
471.50	37486.02
471.68	37668.58
471.86	37867.53
472.04	37734.12
472.22	37724.75
472.40	36144.89
472.58	36070.00
472.77	35550.40
472.95	36528.74
473.13	37436.87
473.31	35971.69
473.49	36313.41
473.67	36900.89
473.85	37486.02
474.03	37965.83
474.21	38525.22
474.39	38712.46
474.57	38761.61
474.75	38892.68
474.93	38909.07
475.12	37895.61
475.30	37778.59
475.48	38024.34
475.66	38225.63
475.84	38258.40
476.02	37462.61
476.20	37251.97
476.38	37848.80
476.56	39232.06
476.74	39505.90
476.92	39693.15
477.10	40692.55
477.28	41113.85
477.46	41186.41
477.64	42078.15
477.82	42124.96
478.00	42686.69
478.18	41144.28
478.36	40992.14
478.54	41326.84
478.72	41408.76
478.90	42361.36
479.08	43697.80
479.26	44196.34
479.44	43978.67
479.62	43690.78
479.80	43936.54
479.98	44065.27
480.16	44091.01
480.34	43723.55
480.52	44266.55
480.70	44346.13
480.88	44268.89
481.06	45233.19
481.24	45567.89
481.41	46286.43
481.59	47054.13
481.77	46941.78
481.95	46162.39
482.13	45504.70
482.31	46080.47
482.49	46419.84
482.67	46806.03
482.85	46845.82
483.03	47243.71
483.21	47880.34
483.39	47737.57
483.57	46979.23
483.74	46642.20
483.92	47044.77
484.10	47159.45
484.28	48025.45
484.46	48926.56
484.64	49062.31
484.82	48163.54
485.00	47618.20
485.18	47133.71
485.35	45385.33
485.53	42698.39
485.71	38934.81
485.89	38092.22
486.07	40339.13
486.25	43164.16
486.43	45460.23
486.61	46637.51
486.78	46707.73
486.96	46300.48
487.14	48250.14
487.32	49343.17
487.50	50085.12
487.68	51019.00
487.85	51283.48
488.03	51353.69
488.21	51363.06
488.39	50401.10
488.57	49876.82
488.75	49315.09
488.92	50590.68
489.10	52477.15
489.28	53860.41
489.46	54665.55
489.64	54108.50
489.81	54438.52
489.99	54115.53
490.17	54213.83
490.35	54255.96
490.53	53982.12
490.70	53567.84
490.88	53551.46
491.06	54492.35
491.24	54557.89
491.41	53581.88
491.59	52048.83
491.77	51159.43
491.95	52315.65
492.13	53567.84
492.30	54611.72
492.48	55409.84
492.66	55877.95
492.84	55992.64
493.01	55327.92
493.19	55241.32
493.37	55054.08
493.54	54553.21
493.72	55103.23
493.90	55962.21
494.08	57083.33
494.25	57237.80
494.43	57443.77
494.61	57654.42
494.79	57834.64
494.96	57513.98
495.14	57176.95
495.32	55983.27
495.49	55510.49
495.67	56545.00
495.85	57602.92
496.02	58141.25
496.20	57879.11
496.38	57680.16
496.55	57282.27
496.73	57911.88
496.91	57815.91
497.09	58607.01
497.26	58700.64
497.44	58267.64
497.62	57853.36
497.79	57113.75
497.97	55899.01
498.14	55779.65
498.32	56975.66
498.50	57759.74
498.67	58583.61
498.85	58391.68
499.03	58436.16
499.20	58815.32
499.38	58611.70
499.56	58569.57
499.73	58141.25
499.91	57717.61
500.08	57251.84
500.26	56692.46
500.44	56891.40
500.61	57762.08
500.79	57577.18
500.97	57069.28
501.14	57127.80
501.32	56811.82
501.49	57027.15
501.67	57148.86
501.84	57254.18
502.02	57804.21
502.20	58274.66
502.37	58227.85
502.55	58314.45
502.72	58930.01
502.90	59159.38
503.07	58897.24
503.25	58665.53
503.43	57703.57
503.60	57226.10
503.78	56706.50
503.95	56996.73
504.13	58459.56
504.30	59224.92
504.48	58951.07
504.65	58513.39
504.83	58585.95
505.01	59210.87
505.18	59363.01
505.36	60060.49
505.53	60032.40
505.71	60292.20
505.88	60425.61
506.06	59700.04
506.23	59590.04
506.41	59063.42
506.58	59339.60
506.76	59442.59
506.93	59281.09
507.11	58995.54
507.28	59107.89
507.46	58653.82
507.63	58274.66
507.81	57888.47
507.98	58333.17
508.16	58969.80
508.33	59262.36
508.50	59842.82
508.68	60090.91
508.85	60470.08
509.03	60481.78
509.20	60287.52
509.38	59763.24
509.55	58815.32
509.73	58965.12
509.90	59573.66
510.08	59686.00
510.25	59667.28
510.42	59529.19
510.60	59344.28
510.77	59587.70
510.95	60329.65
511.12	60339.01
511.30	60809.46
511.47	60722.86
511.64	60544.98
511.82	60441.99
511.99	59753.88
512.17	59552.59
512.34	58756.81
512.51	59077.46
512.69	59208.53
512.86	59449.61
513.04	60004.31
513.21	59746.86
513.38	59526.84
513.56	58890.22
513.73	58405.73
513.90	58665.53
514.08	58838.73
514.25	59201.51
514.43	59363.01
514.60	59435.56
514.77	59475.35
514.95	59669.62
515.12	59494.08
515.29	59618.13
515.47	60051.12
515.64	60409.23
515.81	59767.92
515.99	59571.32
516.16	57961.03
516.33	56009.02
516.51	54288.73
516.68	53834.66
516.85	53408.68
517.03	53495.28
517.20	56147.11
517.37	58829.37
517.54	59470.67
517.72	59245.98
517.89	56905.44
518.06	54639.81
518.24	54789.60
518.41	56940.55
518.58	58209.12
518.75	58450.20
518.93	58515.73
519.10	58494.67
519.27	58885.54
519.45	58983.84
519.62	59824.09
519.79	59957.50
519.96	60044.10
520.14	59545.57
520.31	58768.51
520.48	58646.80
520.65	59241.30
520.83	60205.60
521.00	60299.22
521.17	60032.40
521.34	59505.78
521.52	59882.61
521.69	60404.55
521.86	60926.49
522.03	60657.32
522.20	59377.05
522.38	58473.60
522.55	58269.98
522.72	58855.11
522.89	59131.29
523.07	59449.61
523.24	59690.68
523.41	60404.55
523.58	60610.51
523.75	60933.51
523.92	61052.87
524.10	61010.74
524.27	60781.37
524.44	60718.18
524.61	60528.59
524.78	60498.17
524.96	60259.43
525.13	60390.50
525.30	60376.46
525.47	61123.09
525.64	60914.78
525.81	60303.90
525.98	59091.51
526.16	57528.03
526.33	56926.51
526.50	56570.75
526.67	56193.92
526.84	56589.47
527.01	57586.54
527.18	58560.20
527.36	59386.41
527.53	60144.75
527.70	60449.02
527.87	59978.57
528.04	59540.89
528.21	60142.41
528.38	60552.00
528.55	61059.90
528.72	61478.85
528.89	61471.83
529.07	61275.22
529.24	60811.80
529.41	60327.31
529.58	59419.18
529.75	59505.78
529.92	60053.47
530.09	60320.29
530.26	60844.57
530.43	61062.24
530.60	61031.81
530.77	61394.59
530.94	61474.17
531.11	61240.12
531.28	60608.17
531.46	60467.74
531.63	60727.54
531.80	60425.61
531.97	60217.30
532.14	59456.63
532.31	58328.49
532.48	57916.56
532.65	57663.78
532.82	58583.61
532.99	59746.86
533.16	60250.07
533.33	60624.56
533.50	60308.58
533.67	59964.52
533.84	59494.08
534.01	59676.64
534.18	59711.75
534.35	60060.49
534.52	59955.16
534.69	60198.58
534.86	60486.46
535.03	60683.07
535.20	60938.19
535.37	61462.47
535.54	61331.40
535.71	61183.94
535.88	60652.64
536.05	60275.82
536.22	59882.61
536.38	59386.41
536.55	59091.51
536.72	58553.18
536.89	58590.63
537.06	59325.56
537.23	60240.71
537.40	60308.58
537.57	60303.90
537.74	59929.42
537.91	60032.40
538.08	60142.41
538.25	60065.17
538.42	60310.92
538.59	60196.24
538.75	59405.14
538.92	59269.39
539.09	59100.87
539.26	58761.49
539.43	58808.30
539.60	59100.87
539.77	59070.44
539.94	58887.88
540.11	58171.67
540.28	57822.93
540.44	57825.28
540.61	57996.13
540.78	58220.83
540.95	58604.67
541.12	59250.66
541.29	59407.48
541.46	59288.11
541.62	59538.55
541.79	59414.50
541.96	58777.87
542.13	58850.43
542.30	59147.68
542.47	59442.59
542.63	59119.59
542.80	58897.24
542.97	59061.08
543.14	59187.47
543.31	58890.22
543.48	59323.22
543.64	60097.94
543.81	60399.86
543.98	60289.86
544.15	59391.09
544.32	58920.65
544.48	59150.02
544.65	59437.90
544.82	59838.14
544.99	59515.14
545.16	59412.16
545.32	59061.08
545.49	59774.94
545.66	60198.58
545.83	59632.17
546.00	59367.69
546.16	59035.33
546.33	59166.40
546.50	59199.17
546.67	59564.29
546.83	59117.25
547.00	59323.22
547.17	58768.51
547.34	58078.05
547.50	58087.42
547.67	58597.65
547.84	58445.52
548.00	58855.11
548.17	59346.62
548.34	59140.66
548.51	59255.34
548.67	59318.54
548.84	59386.41
549.01	59201.51
549.18	59044.69
549.34	59171.08
549.51	59164.06
549.68	59231.94
549.84	58684.25
550.01	58768.51
550.18	58457.22
550.34	58592.97
550.51	58754.47
550.68	58805.96
550.84	58532.12
551.01	58571.91
551.18	58555.52
551.34	58728.72
551.51	58681.91
551.68	59161.72
551.84	59213.21
552.01	58901.92
552.18	59210.87
552.34	58279.34
552.51	58096.78
552.68	57743.36
552.84	58216.14
553.01	58625.74
553.18	58361.26
553.34	58578.93
553.51	58698.30
553.67	58960.44
553.84	59114.91
554.01	58700.64
554.17	58719.36
554.34	58438.50
554.51	59070.44
554.67	59117.25
554.84	59014.27
555.00	58693.61
555.17	58761.49
555.33	58543.82
555.50	58333.17
555.67	58461.90
555.83	58335.51
556.00	58075.71
556.16	57869.75
556.33	57640.37
556.50	57408.66
556.66	57443.77
556.83	57254.18
556.99	57563.14
557.16	57542.07
557.32	57726.97
557.49	57911.88
557.65	57609.95
557.82	57972.73
557.98	57652.08
558.15	57326.74
558.32	56413.93
558.48	55590.06
558.65	56018.38
558.81	56495.85
558.98	56329.67
559.14	56891.40
559.31	56573.09
559.47	56940.55
559.64	56587.13
559.80	56074.55
559.97	56332.01
560.13	56301.59
560.30	57422.70
560.46	57998.48
560.63	58047.63
560.79	58197.42
560.96	57930.60
561.12	56989.70
561.29	55955.19
561.45	56069.87
561.61	56577.77
561.78	57003.75
561.94	56870.34
562.11	56844.59
562.27	56488.83
562.44	57242.48
562.60	57357.17
562.77	57593.56
562.93	57233.12
563.10	57422.70
563.26	56746.29
563.42	56598.83
563.59	56575.43
563.75	56353.08
563.92	56575.43
564.08	56383.51
564.24	56547.34
564.41	56926.51
564.57	56662.03
564.74	56577.77
564.90	56523.94
565.07	56250.09
565.23	55908.38
565.39	55573.68
565.56	55126.64
565.72	55133.66
565.88	55414.52
566.05	55334.95
566.21	55896.67
566.38	55826.46
566.54	56060.51
566.70	56404.57
566.87	56336.69
567.03	56488.83
567.19	56875.02
567.36	56537.98
567.52	56437.34
567.68	56177.54
567.85	55440.27
568.01	55241.32
568.17	54822.37
568.34	54852.80
568.50	54976.84
568.66	54906.63
568.83	55348.99
568.99	55255.37
569.15	55370.05
569.32	55522.19
569.48	55358.35
569.64	54972.16
569.81	54719.38
569.97	54775.56
570.13	54773.22
570.30	54183.40
570.46	53790.19
570.62	53200.38
570.78	53106.76
570.95	53205.06
571.11	54148.29
571.27	54305.11
571.43	54438.52
571.60	55068.12
571.76	54901.95
571.92	55255.37
572.09	55295.16
572.25	55451.97
572.41	55442.61
572.57	55023.65
572.74	55161.75
572.90	54705.34
573.06	54939.39
573.22	54859.82
573.38	54733.43
573.55	54904.29
573.71	55194.51
573.87	54752.15
574.03	54670.23
574.20	54691.30
574.36	54129.57
574.52	54227.87
574.68	54024.25
574.84	53717.64
575.01	53151.23
575.17	53116.12
575.33	53418.05
575.49	53808.92
575.65	53780.83
575.82	53666.14
575.98	53317.40
576.14	53645.08
576.30	53963.39
576.46	53965.73
576.62	53532.73
576.79	53888.49
576.95	53354.85
577.11	53614.65
577.27	53897.86
577.43	53659.12
577.59	53123.14
577.75	52755.68
577.92	52308.63
578.08	52006.70
578.24	52200.97
578.40	52470.13
578.56	52947.60
578.72	52921.85
578.88	52832.91
579.04	53073.99
579.21	53146.54
579.37	53062.29
579.53	53490.60
579.69	53436.77
579.85	53488.26
580.01	53366.55
580.17	52722.91
580.33	52975.69
580.49	53031.86
580.65	52961.64
580.82	53462.52
580.98	53270.59
581.14	53249.53
581.30	53375.92
581.46	52919.51
581.62	53233.14
581.78	53216.76
581.94	53495.28
582.10	53333.79
582.26	53476.56
582.42	53352.51
582.58	53659.12
582.74	53301.02
582.90	53275.27
583.06	53357.19
583.22	53069.31
583.38	53191.01
583.54	53118.46
583.70	53036.54
583.86	53127.82
584.02	52971.00
584.18	53134.84
584.34	52809.51
584.50	52566.09
584.66	52853.98
584.82	52566.09
584.98	52339.06
585.14	51704.77
585.30	51271.78
