SpectraSuite Data File
++++++++++++++++++++++++++++++++++++
Date: Mon Oct 07 14:54:54 GMT-05:00 2013
User: price-jones
Dark Spectrum Present: No
Reference Spectrum Present: No
Number of Sampled Component Spectra: 1
Spectrometers: USB2+H05261
Integration Time (usec): 10000 (USB2+H05261)
Spectra Averaged: 1 (USB2+H05261)
Boxcar Smoothing: 0 (USB2+H05261)
Correct for Electrical Dark: No (USB2+H05261)
Strobe/Lamp Enabled: No (USB2+H05261)
Correct for Detector Non-linearity: No (USB2+H05261)
Correct for Stray Light: No (USB2+H05261)
Number of Pixels in Processed Spectrum: 2048
>>>>>Begin Processed Spectral Data<<<<<
365.73	0.00
365.92	0.00
366.12	0.00
366.32	0.00
366.52	0.00
366.72	0.00
366.91	0.00
367.11	0.00
367.31	0.00
367.51	0.00
367.70	0.00
367.90	0.00
368.10	0.00
368.30	0.00
368.49	0.00
368.69	0.00
368.89	0.00
369.09	0.00
369.28	0.00
369.48	0.00
369.68	0.00
369.87	0.00
370.07	0.00
370.27	0.00
370.47	0.00
370.66	0.00
370.86	2.34
371.06	0.00
371.25	14.04
371.45	0.00
371.65	0.00
371.84	0.00
372.04	0.00
372.24	23.41
372.44	51.49
372.63	56.17
372.83	0.00
373.03	0.00
373.22	0.00
373.42	0.00
373.62	30.43
373.81	98.30
374.01	14.04
374.21	28.09
374.40	0.00
374.60	56.17
374.79	23.41
374.99	39.79
375.19	131.07
375.38	124.05
375.58	7.02
375.78	7.02
375.97	44.47
376.17	142.77
376.37	32.77
376.56	93.62
376.76	121.71
376.95	173.20
377.15	154.48
377.35	294.91
377.54	159.16
377.74	212.99
377.93	147.45
378.13	184.90
378.33	196.60
378.52	135.75
378.72	154.48
378.91	201.29
379.11	131.07
379.31	142.77
379.50	154.48
379.70	110.01
379.89	180.22
380.09	187.24
380.28	220.01
380.48	177.88
380.68	154.48
380.87	154.48
381.07	117.03
381.26	135.75
381.46	79.58
381.65	135.75
381.85	0.00
382.04	11.70
382.24	28.09
382.43	51.49
382.63	53.83
382.83	0.00
383.02	39.79
383.22	0.00
383.41	23.41
383.61	74.90
383.80	37.45
384.00	126.39
384.19	227.03
384.39	140.43
384.58	191.92
384.78	152.13
384.97	189.58
385.17	212.99
385.36	152.13
385.56	168.52
385.75	100.64
385.95	241.08
386.14	238.73
386.34	243.42
386.53	210.65
386.72	112.35
386.92	180.22
387.11	145.11
387.31	203.63
387.50	189.58
387.70	110.01
387.89	198.95
388.09	149.79
388.28	215.33
388.48	173.20
388.67	222.35
388.86	266.82
389.06	283.20
389.25	301.93
389.45	344.06
389.64	231.71
389.84	301.93
390.03	397.89
390.22	358.10
390.42	297.25
390.61	409.59
390.81	386.19
391.00	425.98
391.19	404.91
391.39	351.08
391.58	374.49
391.78	379.17
391.97	271.50
392.16	238.73
392.36	255.12
392.55	112.35
392.75	60.85
392.94	0.00
393.13	0.00
393.33	0.00
393.52	95.96
393.71	231.71
393.91	212.99
394.10	334.70
394.29	337.04
394.49	285.55
394.68	400.23
394.88	358.10
395.07	517.26
395.26	421.30
395.46	444.70
395.65	402.57
395.84	290.23
396.04	236.39
396.23	135.75
396.42	124.05
396.62	72.56
396.81	88.94
397.00	236.39
397.19	308.95
397.39	477.47
397.58	559.39
397.77	580.45
397.97	594.50
398.16	638.97
398.35	638.97
398.55	704.50
398.74	655.35
398.93	774.72
399.12	681.10
399.32	617.90
399.51	685.78
399.70	821.53
399.90	765.36
400.09	723.23
400.28	800.46
400.47	702.16
400.67	816.85
400.86	840.25
401.05	851.96
401.24	819.19
401.44	835.57
401.63	741.95
401.82	866.00
402.01	849.61
402.21	842.59
402.40	898.77
402.59	786.42
402.78	833.23
402.97	699.82
403.17	791.10
403.36	837.91
403.55	945.58
403.74	844.93
403.93	887.06
404.13	718.54
404.32	737.27
404.51	819.19
404.70	940.90
404.89	896.43
405.09	880.04
405.28	767.70
405.47	770.04
405.66	894.08
405.85	823.87
406.05	814.51
406.24	819.19
406.43	763.01
406.62	882.38
406.81	809.83
407.00	833.23
407.20	788.76
407.39	919.83
407.58	774.72
407.77	938.55
407.96	837.91
408.15	957.28
408.34	968.98
408.54	947.92
408.73	1083.67
408.92	889.40
409.11	889.40
409.30	978.34
409.49	784.08
409.68	819.19
409.87	716.20
410.07	826.21
410.26	957.28
410.45	994.73
410.64	990.05
410.83	1067.28
411.02	1064.94
411.21	1167.93
411.40	1093.03
411.59	1121.12
411.78	1081.33
411.98	1102.39
412.17	1090.69
412.36	1102.39
412.55	1032.18
412.74	952.60
412.93	992.39
413.12	992.39
413.31	1128.14
413.50	1144.52
413.69	1100.05
413.88	1006.43
414.07	1078.99
414.26	1088.35
414.45	1116.44
414.64	1121.12
414.83	1160.91
415.02	1179.63
415.22	1219.42
415.41	1153.88
415.60	1130.48
415.79	1184.31
415.98	1252.19
416.17	1249.85
416.36	1284.95
416.55	1221.76
416.74	1156.22
416.93	1158.57
417.12	1078.99
417.31	1149.20
417.50	1093.03
417.69	1188.99
417.88	1174.95
418.07	1111.75
418.26	1198.35
418.45	1277.93
418.64	1200.69
418.83	1254.53
419.02	1249.85
419.21	1235.80
419.39	1100.05
419.58	1174.95
419.77	968.98
419.96	1238.14
420.15	1212.40
420.34	1322.40
420.53	1355.17
420.72	1432.41
420.91	1364.53
421.10	1380.92
421.29	1186.65
421.48	1224.10
421.67	1329.42
421.86	1355.17
422.05	1114.10
422.24	1011.11
422.43	952.60
422.61	1128.14
422.80	1359.85
422.99	1345.81
423.18	1235.80
423.37	1139.84
423.56	1233.46
423.75	1188.99
423.94	1235.80
424.13	1132.82
424.32	1111.75
424.50	1203.04
424.69	1165.59
424.88	1074.31
425.07	1198.35
425.26	1203.04
425.45	1240.48
425.64	1160.91
425.83	1160.91
426.01	1277.93
426.20	1191.33
426.39	1153.88
426.58	1128.14
426.77	1088.35
426.96	1046.22
427.15	1020.47
427.33	1135.16
427.52	1252.19
427.71	1219.42
427.90	1249.85
428.09	1188.99
428.28	1100.05
428.46	1067.28
428.65	961.96
428.84	1011.11
429.03	1104.73
429.22	1074.31
429.40	992.39
429.59	866.00
429.78	732.59
429.97	739.61
430.16	777.06
430.34	781.74
430.53	767.70
430.72	753.65
430.91	964.30
431.10	1071.97
431.28	1205.38
431.47	1479.22
431.66	1409.00
431.85	1310.70
432.03	1177.29
432.22	1107.07
432.41	1114.10
432.60	1329.42
432.79	1420.71
432.97	1465.18
433.16	1378.58
433.35	1252.19
433.54	1013.45
433.72	1062.60
433.91	1128.14
434.10	1231.12
434.28	1261.55
434.47	1268.57
434.66	1373.89
434.85	1247.51
435.03	1364.53
435.22	1282.61
435.41	1352.83
435.59	1514.33
435.78	1455.81
435.97	1479.22
436.16	1441.77
436.34	1497.94
436.53	1493.26
436.72	1483.90
436.90	1317.72
437.09	1380.92
437.28	1308.36
437.46	1322.40
437.65	1425.39
437.84	1306.02
438.02	1165.59
438.21	1144.52
438.40	1198.35
438.58	1359.85
438.77	1378.58
438.96	1299.00
439.14	1467.52
439.33	1474.54
439.52	1533.05
439.70	1502.62
439.89	1500.28
440.08	1411.34
440.26	1418.36
440.45	1439.43
440.63	1530.71
440.82	1554.12
441.01	1654.76
441.19	1537.73
441.38	1511.99
441.57	1746.04
441.75	1685.19
441.94	1689.87
442.12	1699.23
442.31	1689.87
442.50	1750.72
442.68	1633.69
442.87	1823.28
443.05	1734.34
443.24	1666.46
443.43	1743.70
443.61	1724.97
443.80	1802.21
443.98	1717.95
444.17	1769.44
444.35	1682.85
444.54	1771.79
444.73	1781.15
444.91	1682.85
445.10	1612.63
445.28	1610.29
445.47	1509.65
445.65	1549.43
445.84	1654.76
446.02	1549.43
446.21	1675.82
446.39	1600.93
446.58	1706.25
446.77	1708.59
446.95	1820.94
447.14	1694.55
447.32	1806.89
447.51	1792.85
447.69	1715.61
447.88	1727.32
448.06	1650.08
448.25	1849.02
448.43	1753.06
448.62	1715.61
448.80	1811.57
448.99	1652.42
449.17	1888.81
449.36	1818.60
449.54	1757.74
449.73	1942.64
449.91	1916.90
450.10	2038.61
450.28	1893.49
450.46	1977.75
450.65	2062.01
450.83	1895.83
451.02	1827.96
451.20	1804.55
451.39	1900.52
451.57	1834.98
451.76	1743.70
451.94	1734.34
452.13	1895.83
452.31	1666.46
452.49	1696.89
452.68	1556.46
452.86	1589.22
453.05	1638.38
453.23	1762.42
453.42	1767.10
453.60	1846.68
453.78	1856.04
453.97	1675.82
454.15	1851.36
454.34	1849.02
454.52	1867.75
454.70	1703.91
454.89	1839.66
455.07	1788.17
455.26	1806.89
455.44	1912.22
455.62	1867.75
455.81	1935.62
455.99	1923.92
456.17	1832.64
456.36	1963.71
456.54	1825.62
456.73	1935.62
456.91	1919.24
457.09	1914.56
457.28	1912.22
457.46	1998.82
457.64	1912.22
457.83	1856.04
458.01	1708.59
458.19	1743.70
458.38	1830.30
458.56	1968.39
458.74	1912.22
458.93	1867.75
459.11	1907.54
459.29	1870.09
459.48	1900.52
459.66	1804.55
459.84	1886.47
460.03	1966.05
460.21	1966.05
460.39	1940.30
460.57	1959.03
460.76	2038.61
460.94	2071.37
461.12	1895.83
461.31	1909.88
461.49	1994.14
461.67	2090.10
461.85	1898.17
462.04	2033.93
462.22	2059.67
462.40	1930.94
462.59	1956.69
462.77	1989.46
462.95	2059.67
463.13	1905.20
463.32	2019.88
463.50	1984.77
463.68	1968.39
463.86	1963.71
464.05	1963.71
464.23	1816.26
464.41	1907.54
464.59	1804.55
464.78	1921.58
464.96	1799.87
465.14	2078.40
465.32	1891.15
465.50	1867.75
465.69	1984.77
465.87	2022.22
466.05	1907.54
466.23	1818.60
466.41	1732.00
466.60	1867.75
466.78	1856.04
466.96	1879.45
467.14	1881.79
467.32	1944.99
467.51	1984.77
467.69	1804.55
467.87	1973.07
468.05	1977.75
468.23	1998.82
468.41	1970.73
468.60	1949.67
468.78	1952.01
468.96	1933.28
469.14	1872.43
469.32	1898.17
469.50	1842.00
469.69	1853.70
469.87	1802.21
470.05	1806.89
470.23	1851.36
470.41	1825.62
470.59	1863.07
470.77	1923.92
470.95	1884.13
471.14	1994.14
471.32	1984.77
471.50	2008.18
471.68	2040.95
471.86	2038.61
472.04	2125.21
472.22	2062.01
472.40	1989.46
472.58	1991.80
472.77	2073.71
472.95	1977.75
473.13	2022.22
473.31	1900.52
473.49	2059.67
473.67	2015.20
473.85	2094.78
474.03	2207.13
474.21	2010.52
474.39	2125.21
474.57	2263.30
474.75	2125.21
474.93	2174.36
475.12	2033.93
475.30	2052.65
475.48	2097.12
475.66	2076.06
475.84	2181.38
476.02	2113.50
476.20	2052.65
476.38	2069.03
476.56	2127.55
476.74	2162.66
476.92	2153.29
477.10	2134.57
477.28	2300.75
477.46	2286.70
477.64	2352.24
477.82	2373.30
478.00	2286.70
478.18	2284.36
478.36	2335.85
478.54	2354.58
478.72	2246.91
478.90	2289.04
479.08	2307.77
479.26	2373.30
479.44	2438.84
479.62	2469.27
479.80	2326.49
479.98	2293.72
480.16	2483.31
480.34	2375.64
480.52	2331.17
480.70	2452.88
480.88	2431.82
481.06	2455.22
481.24	2532.46
481.41	2654.17
481.59	2722.04
481.77	2644.81
481.95	2576.93
482.13	2619.06
482.31	2607.36
482.49	2612.04
482.67	2518.42
482.85	2626.08
483.03	2651.83
483.21	2708.00
483.39	2665.87
483.57	2581.61
483.74	2640.12
483.92	2684.59
484.10	2600.34
484.28	2857.79
484.46	2876.52
484.64	2691.62
484.82	2647.15
485.00	2705.66
485.18	2576.93
485.35	2518.42
485.53	2396.71
485.71	2038.61
485.89	2122.87
486.07	2249.25
486.25	2476.29
486.43	2359.26
486.61	2597.99
486.78	2609.70
486.96	2539.48
487.14	2757.15
487.32	2729.06
487.50	2780.56
487.68	2979.50
487.85	2911.63
488.03	2911.63
488.21	2909.29
488.39	2925.67
488.57	2820.35
488.75	2764.17
488.92	2818.00
489.10	3084.83
489.28	3248.66
489.46	3361.01
489.64	3253.34
489.81	3468.67
489.99	3276.75
490.17	3293.13
490.35	3155.04
490.53	3222.92
490.70	3206.53
490.88	3194.83
491.06	3110.57
491.24	3468.67
491.41	3119.93
491.59	3045.04
491.77	2951.42
491.95	3028.65
492.13	3115.25
492.30	3323.56
492.48	3407.82
492.66	3433.57
492.84	3471.01
493.01	3435.91
493.19	3370.37
493.37	3363.35
493.54	3318.88
493.72	3321.22
493.90	3405.48
494.08	3534.21
494.25	3686.34
494.43	3613.79
494.61	3693.37
494.79	3618.47
494.96	3669.96
495.14	3569.32
495.32	3510.80
495.49	3351.65
495.67	3494.42
495.85	3662.94
496.02	3676.98
496.20	3686.34
496.38	3637.19
496.55	3571.66
496.73	3616.13
496.91	3637.19
497.09	3705.07
497.26	3875.93
497.44	3695.71
497.62	3866.56
497.79	3618.47
497.97	3391.44
498.14	3496.76
498.32	3632.51
498.50	3719.11
498.67	3770.60
498.85	3751.88
499.03	3805.71
499.20	3765.92
499.38	3726.13
499.56	3824.44
499.73	3693.37
499.91	3602.08
500.08	3620.81
500.26	3576.34
500.44	3557.61
500.61	3585.70
500.79	3737.84
500.97	3543.57
501.14	3550.59
501.32	3454.63
501.49	3541.23
501.67	3559.95
501.84	3665.28
502.02	3655.92
502.20	3695.71
502.37	3798.69
502.55	3662.94
502.72	3777.62
502.90	3887.63
503.07	3843.16
503.25	3728.47
503.43	3590.38
503.60	3517.83
503.78	3382.07
503.95	3536.55
504.13	3744.86
504.30	3698.05
504.48	3684.00
504.65	3838.48
504.83	3791.67
505.01	3786.99
505.18	3901.67
505.36	4025.72
505.53	4002.32
505.71	4060.83
505.88	3929.76
506.06	3920.40
506.23	3845.50
506.41	3737.84
506.58	3866.56
506.76	3796.35
506.93	3861.88
507.11	3838.48
507.28	3861.88
507.46	3857.20
507.63	3606.77
507.81	3700.39
507.98	3653.58
508.16	3878.27
508.33	3943.80
508.50	4035.08
508.68	3999.98
508.85	4004.66
509.03	3953.16
509.20	3990.61
509.38	3875.93
509.55	3843.16
509.73	3894.65
509.90	3920.40
510.08	3791.67
510.25	3854.86
510.42	3819.75
510.60	3801.03
510.77	3983.59
510.95	4009.34
511.12	3995.29
511.30	3868.91
511.47	4058.49
511.64	4039.76
511.82	3899.33
511.99	3974.23
512.17	3784.65
512.34	3698.05
512.51	3803.37
512.69	3765.92
512.86	3810.39
513.04	3857.20
513.21	3777.62
513.38	3761.24
513.56	3735.50
513.73	3695.71
513.90	3609.11
514.08	3763.58
514.25	3744.86
514.43	3730.81
514.60	3772.94
514.77	3819.75
514.95	3908.69
515.12	3845.50
515.29	3885.29
515.47	3864.22
515.64	3974.23
515.81	3918.06
515.99	3604.42
516.16	3702.73
516.33	3440.59
516.51	3159.72
516.68	3054.40
516.85	3080.14
517.03	3054.40
517.20	3337.60
517.37	3625.49
517.54	3918.06
517.72	3751.88
517.89	3234.62
518.06	3253.34
518.24	3112.91
518.41	3508.46
518.58	3770.60
518.75	3625.49
518.93	3620.81
519.10	3639.53
519.27	3786.99
519.45	3789.33
519.62	3819.75
519.79	3920.40
519.96	3737.84
520.14	3941.46
520.31	3684.00
520.48	3557.61
520.65	3726.13
520.83	3777.62
521.00	3911.04
521.17	3709.75
521.34	3707.41
521.52	3822.09
521.69	3918.06
521.86	3929.76
522.03	3939.12
522.20	3815.07
522.38	3602.08
522.55	3583.36
522.72	3538.89
522.89	3545.91
523.07	3918.06
523.24	3803.37
523.41	3864.22
523.58	4056.15
523.75	3915.72
523.92	4138.07
524.10	4053.81
524.27	4056.15
524.44	4042.11
524.61	3887.63
524.78	3854.86
524.96	3873.59
525.13	3946.14
525.30	3880.61
525.47	3901.67
525.64	3913.38
525.81	3901.67
525.98	3702.73
526.16	3499.10
526.33	3304.84
526.50	3342.28
526.67	3173.77
526.84	3325.90
527.01	3496.76
527.18	3550.59
527.36	3609.11
527.53	3808.05
527.70	3838.48
527.87	3829.12
528.04	3892.31
528.21	3826.78
528.38	3927.42
528.55	3927.42
528.72	4170.83
528.89	4091.26
529.07	4051.47
529.24	3861.88
529.41	3880.61
529.58	3728.47
529.75	3768.26
529.92	3791.67
530.09	3845.50
530.26	3896.99
530.43	4018.70
530.60	3913.38
530.77	4056.15
530.94	4065.51
531.11	3889.97
531.28	3941.46
531.46	3871.25
531.63	3941.46
531.80	3953.16
531.97	3735.50
532.14	3684.00
532.31	3499.10
532.48	3555.27
532.65	3447.61
532.82	3604.42
532.99	3658.26
533.16	3810.39
533.33	3880.61
533.50	3812.73
533.67	3641.87
533.84	3623.15
534.01	3747.20
534.18	3796.35
534.35	3756.56
534.52	3815.07
534.69	3667.62
534.86	3971.89
535.03	3831.46
535.20	4004.66
535.37	4072.53
535.54	4058.49
535.71	3939.12
535.88	3992.95
536.05	3794.01
536.22	3789.33
536.38	3686.34
536.55	3578.68
536.72	3658.26
536.89	3492.08
537.06	3627.83
537.23	3798.69
537.40	3824.44
537.57	3756.56
537.74	3861.88
537.91	3772.94
538.08	3714.43
538.25	3798.69
538.42	3798.69
538.59	3887.63
538.75	3758.90
538.92	3796.35
539.09	3630.17
539.26	3695.71
539.43	3609.11
539.60	3651.24
539.77	3723.79
539.94	3517.83
540.11	3424.20
540.28	3468.67
540.44	3463.99
540.61	3440.59
540.78	3524.85
540.95	3548.25
541.12	3674.64
541.29	3606.77
541.46	3695.71
541.62	3812.73
541.79	3691.02
541.96	3702.73
542.13	3475.70
542.30	3674.64
542.47	3536.55
542.63	3667.62
542.80	3667.62
542.97	3566.98
543.14	3625.49
543.31	3611.45
543.48	3552.93
543.64	3805.71
543.81	3894.65
543.98	3639.53
544.15	3672.30
544.32	3667.62
544.48	3630.17
544.65	3620.81
544.82	3681.66
544.99	3698.05
545.16	3744.86
545.32	3653.58
545.49	3592.72
545.66	3747.20
545.83	3733.15
546.00	3618.47
546.16	3737.84
546.33	3646.55
546.50	3658.26
546.67	3721.45
546.83	3665.28
547.00	3684.00
547.17	3435.91
547.34	3417.18
547.50	3463.99
547.67	3522.51
547.84	3529.53
548.00	3576.34
548.17	3705.07
548.34	3613.79
548.51	3487.40
548.67	3557.61
548.84	3534.21
549.01	3492.08
549.18	3641.87
549.34	3616.13
549.51	3609.11
549.68	3662.94
549.84	3473.36
550.01	3552.93
550.18	3562.30
550.34	3398.46
550.51	3524.85
550.68	3543.57
550.84	3386.76
551.01	3410.16
551.18	3496.76
551.34	3529.53
551.51	3447.61
551.68	3522.51
551.84	3604.42
552.01	3581.02
552.18	3613.79
552.34	3438.25
552.51	3438.25
552.68	3400.80
552.84	3400.80
553.01	3400.80
553.18	3492.08
553.34	3531.87
553.51	3426.54
553.67	3538.89
553.84	3384.41
554.01	3499.10
554.17	3471.01
554.34	3442.93
554.51	3503.78
554.67	3595.06
554.84	3403.14
555.00	3510.80
555.17	3372.71
555.33	3393.78
555.50	3307.18
555.67	3391.44
555.83	3398.46
556.00	3370.37
556.16	3339.94
556.33	3368.03
556.50	3440.59
556.66	3351.65
556.83	3164.40
556.99	3290.79
557.16	3136.32
557.32	3272.07
557.49	3372.71
557.65	3391.44
557.82	3382.07
557.98	3351.65
558.15	3290.79
558.32	3126.96
558.48	3056.74
558.65	3094.19
558.81	3136.32
558.98	3073.12
559.14	3150.36
559.31	3206.53
559.47	3241.64
559.64	3098.87
559.80	3056.74
559.97	3164.40
560.13	3176.11
560.30	3265.05
560.46	3379.73
560.63	3510.80
560.79	3461.65
560.96	3290.79
561.12	3183.13
561.29	3131.64
561.45	3059.08
561.61	3119.93
561.78	3253.34
561.94	3187.81
562.11	3157.38
562.27	3185.47
562.44	3166.74
562.60	3265.05
562.77	3232.28
562.93	3272.07
563.10	3405.48
563.26	3272.07
563.42	3239.30
563.59	3159.72
563.75	3248.66
563.92	3075.46
564.08	3150.36
564.24	3152.70
564.41	3131.64
564.57	3173.77
564.74	3136.32
564.90	3171.43
565.07	3229.94
565.23	3094.19
565.39	3075.46
565.56	2925.67
565.72	2909.29
565.88	2991.20
566.05	3009.93
566.21	3016.95
566.38	3068.44
566.54	3000.57
566.70	3143.34
566.87	3049.72
567.03	3129.30
567.19	3251.00
567.36	3164.40
567.52	3082.49
567.68	2958.44
567.85	2967.80
568.01	2956.10
568.17	2942.05
568.34	3110.57
568.50	2928.01
568.66	2911.63
568.83	3101.21
568.99	2963.12
569.15	2993.55
569.32	2953.76
569.48	2911.63
569.64	2984.18
569.81	2991.20
569.97	2916.31
570.13	2806.30
570.30	2860.13
570.46	2839.07
570.62	2899.92
570.78	2834.39
570.95	2771.19
571.11	2888.22
571.27	2813.32
571.43	2953.76
571.60	2818.00
571.76	2937.37
571.92	2909.29
572.09	2918.65
572.25	2909.29
572.41	2911.63
572.57	2965.46
572.74	3040.36
572.90	2953.76
573.06	2953.76
573.22	2747.79
573.38	3054.40
573.55	2946.73
573.71	3021.63
573.87	2883.54
574.03	2920.99
574.20	2944.39
574.36	2867.16
574.52	2911.63
574.68	2745.45
574.84	2799.28
575.01	2778.22
575.17	2773.53
575.33	2761.83
575.49	2750.13
575.65	2766.51
575.82	2883.54
575.98	2719.70
576.14	2796.94
576.30	2878.86
576.46	2857.79
576.62	2766.51
576.79	2782.90
576.95	2796.94
577.11	2684.59
577.27	2682.25
577.43	2841.41
577.59	2803.96
577.75	2724.38
577.92	2539.48
578.08	2637.78
578.24	2693.96
578.40	2616.72
578.56	2693.96
578.72	2729.06
578.88	2834.39
579.04	2729.06
579.21	2715.02
579.37	2717.36
579.53	2705.66
579.69	2670.55
579.85	2768.85
580.01	2773.53
580.17	2736.09
580.33	2710.34
580.49	2689.28
580.65	2691.62
580.82	2780.56
580.98	2708.00
581.14	2761.83
581.30	2672.89
581.46	2616.72
581.62	2682.25
581.78	2708.00
581.94	2768.85
582.10	2867.16
582.26	2703.32
582.42	2715.02
582.58	2782.90
582.74	2616.72
582.90	2757.15
583.06	2766.51
583.22	2691.62
583.38	2693.96
583.54	2785.24
583.70	2743.11
583.86	2686.94
584.02	2722.04
584.18	2794.60
584.34	2715.02
584.50	2651.83
584.66	2586.29
584.82	2644.81
584.98	2677.57
585.14	2544.16
585.30	2504.37
585.46	2640.12
585.62	2539.48
585.78	2532.46
585.94	2546.50
586.10	2600.34
586.26	2649.49
586.42	2595.65
586.58	2609.70
586.74	2576.93
586.90	2668.21
587.06	2565.23
587.22	2700.98
587.38	2546.50
587.54	2523.10
587.70	2492.67
587.86	2399.05
588.02	2345.22
588.18	2511.39
588.34	2354.58
588.49	2286.70
588.65	2026.90
588.81	1989.46
588.97	2169.68
589.13	2146.27
589.29	2087.76
589.45	2153.29
589.61	2317.13
589.77	2230.53
589.93	2403.73
590.08	2370.96
590.24	2553.52
590.40	2422.45
590.56	2441.18
590.72	2394.37
590.88	2429.48
591.04	2410.75
591.20	2417.77
591.35	2340.54
591.51	2408.41
591.67	2518.42
591.83	2291.38
591.99	2396.71
592.15	2321.81
592.31	2445.86
592.46	2373.30
592.62	2373.30
592.78	2385.01
592.94	2321.81
593.10	2312.45
593.26	2335.85
593.41	2382.67
593.57	2448.20
593.73	2413.09
593.89	2282.02
594.05	2361.60
594.20	2342.88
594.36	2260.96
594.52	2298.41
594.68	2207.13
594.84	2183.72
594.99	2310.11
595.15	2352.24
595.31	2401.39
595.47	2356.92
595.62	2303.09
595.78	2534.80
595.94	2431.82
596.10	2312.45
596.25	2275.00
596.41	2258.62
596.57	2260.96
596.73	2354.58
596.88	2186.06
597.04	2392.03
597.20	2284.36
597.36	2279.68
597.51	2244.57
597.67	2249.25
597.83	2251.60
597.99	2282.02
598.14	2209.47
598.30	2202.44
598.46	2181.38
598.61	2310.11
598.77	2211.81
598.93	2207.13
599.09	2193.08
599.24	2321.81
599.40	2326.49
599.56	2225.85
