SpectraSuite Data File
++++++++++++++++++++++++++++++++++++
Date: Mon Oct 07 14:53:07 GMT-05:00 2013
User: price-jones
Dark Spectrum Present: No
Reference Spectrum Present: No
Number of Sampled Component Spectra: 1
Spectrometers: USB2+H05261
Integration Time (usec): 100000 (USB2+H05261)
Spectra Averaged: 1 (USB2+H05261)
Boxcar Smoothing: 0 (USB2+H05261)
Correct for Electrical Dark: No (USB2+H05261)
Strobe/Lamp Enabled: No (USB2+H05261)
Correct for Detector Non-linearity: No (USB2+H05261)
Correct for Stray Light: No (USB2+H05261)
Number of Pixels in Processed Spectrum: 2048
>>>>>Begin Processed Spectral Data<<<<<
365.73	0.00
365.92	0.00
366.12	0.00
366.32	0.00
366.52	0.00
366.72	0.00
366.91	0.00
367.11	0.00
367.31	0.00
367.51	0.00
367.70	0.00
367.90	0.00
368.10	0.00
368.30	0.00
368.49	0.00
368.69	0.00
368.89	0.00
369.09	0.00
369.28	0.00
369.48	0.00
369.68	0.00
369.87	0.00
370.07	0.00
370.27	0.00
370.47	674.07
370.66	3442.93
370.86	3932.10
371.06	4257.43
371.25	4348.72
371.45	3922.74
371.65	3557.61
371.84	3344.63
372.04	3236.96
372.24	3824.44
372.44	3946.14
372.63	4025.72
372.83	3651.24
373.03	3309.52
373.22	3082.49
373.42	3091.85
373.62	3674.64
373.81	3915.72
374.01	4009.34
374.21	3571.66
374.40	3372.71
374.60	3382.07
374.79	3995.29
374.99	4484.47
375.19	4950.23
375.38	4889.38
375.58	4409.57
375.78	4566.39
375.97	4636.60
376.17	4566.39
376.37	4685.75
376.56	4943.21
376.76	4978.32
376.95	5432.38
377.15	5720.27
377.35	6148.59
377.54	6370.94
377.74	6480.94
377.93	6429.45
378.13	6289.02
378.33	6087.73
378.52	5483.88
378.72	5277.91
378.91	5210.03
379.11	5081.30
379.31	4987.68
379.50	4690.43
379.70	5336.42
379.89	5692.18
380.09	6279.66
380.28	6368.60
380.48	6319.45
380.68	6300.72
380.87	6239.87
381.07	5706.23
381.26	5404.30
381.46	4807.46
381.65	4830.87
381.85	4533.62
382.04	4273.82
382.24	4039.76
382.43	3789.33
382.63	3831.46
382.83	3791.67
383.02	3765.92
383.22	3852.52
383.41	3836.14
383.61	4301.90
383.80	4758.31
384.00	5308.34
384.19	5933.26
384.39	6246.89
384.58	6424.77
384.78	6228.17
384.97	6209.44
385.17	5860.70
385.36	5544.73
385.56	5320.04
385.75	5453.45
385.95	5956.66
386.14	6502.01
386.34	6452.86
386.53	6345.19
386.72	5746.02
386.92	5907.51
387.11	6291.36
387.31	6242.21
387.50	6370.94
387.70	6345.19
387.89	6085.39
388.09	6043.26
388.28	6108.80
388.48	6101.78
388.67	6712.66
388.86	7321.20
389.06	7915.69
389.25	8369.76
389.45	8439.97
389.64	8334.65
389.84	8224.64
390.03	8077.19
390.22	8098.25
390.42	8617.85
390.61	8915.10
390.81	9624.28
391.00	9645.35
391.19	9685.14
391.39	9359.80
391.58	8891.70
391.78	8404.86
391.97	7929.74
392.16	7529.50
392.36	6869.47
392.55	5448.77
392.75	4381.48
392.94	3648.90
393.13	3576.34
393.33	4227.01
393.52	5327.06
393.71	6600.31
393.91	7583.34
394.10	8114.64
394.29	8947.87
394.49	9671.09
394.68	10422.41
394.88	10143.88
395.07	10649.44
395.26	10455.17
395.46	10211.76
395.65	9547.05
395.84	8425.93
396.04	7119.91
396.23	5790.49
396.42	4896.40
396.62	4617.88
396.81	5530.69
397.00	7054.37
397.19	8561.68
397.39	10260.91
397.58	11653.53
397.77	12325.26
397.97	12959.55
398.16	12933.80
398.35	13523.62
398.55	13696.82
398.74	14071.30
398.93	14843.68
399.12	14361.53
399.32	13729.58
399.51	14129.81
399.70	15089.43
399.90	14963.04
400.09	15276.68
400.28	15077.73
400.47	15002.83
400.67	15932.03
400.86	16360.34
401.05	16250.34
401.24	16505.46
401.44	16732.49
401.63	16718.45
401.82	16622.48
402.01	16643.55
402.21	16952.50
402.40	16652.91
402.59	16350.98
402.78	15534.14
402.97	15391.36
403.17	15716.70
403.36	17083.57
403.55	17235.70
403.74	17778.71
403.93	16587.38
404.13	15520.09
404.32	15197.10
404.51	16205.87
404.70	17720.20
404.89	17214.64
405.09	16599.08
405.28	16561.63
405.47	16294.81
405.66	16442.26
405.85	15756.49
406.05	15644.14
406.24	15644.14
406.43	16325.24
406.62	17008.67
406.81	17142.08
407.00	16514.82
407.20	16208.21
407.39	16341.62
407.58	16975.91
407.77	17895.74
407.96	18513.64
408.15	18572.15
408.34	18438.74
408.54	19377.30
408.73	19491.98
408.92	19417.08
409.11	18534.70
409.30	17678.07
409.49	16575.67
409.68	15779.89
409.87	14939.64
410.07	16505.46
410.26	17415.93
410.45	18633.00
410.64	18834.29
410.83	19733.06
411.02	20255.00
411.21	21006.31
411.40	20877.58
411.59	20638.84
411.78	20393.09
411.98	20287.76
412.17	20678.63
412.36	20212.87
412.55	20458.62
412.74	19576.24
412.93	19447.51
413.12	19639.44
413.31	21160.78
413.50	21703.79
413.69	21771.66
413.88	21209.93
414.07	20814.38
414.26	20924.39
414.45	21441.65
414.64	21633.57
414.83	21806.77
415.02	21413.56
415.22	21392.50
415.41	21694.43
415.60	22331.05
415.79	23410.04
415.98	23721.33
416.17	23997.51
416.36	23208.75
416.55	22937.25
416.74	22237.43
416.93	21378.45
417.12	21612.51
417.31	21841.88
417.50	22211.68
417.69	23267.27
417.88	23026.19
418.07	22483.19
418.26	22434.03
418.45	22623.62
418.64	23456.85
418.83	23812.61
419.02	23831.33
419.21	23637.07
419.39	22621.28
419.58	21357.39
419.77	21083.55
419.96	22574.47
420.15	23887.51
420.34	24570.94
420.53	25619.50
420.72	25853.56
420.91	25781.00
421.10	25123.31
421.29	25085.86
421.48	24290.08
421.67	25209.91
421.86	25013.31
422.05	23030.87
422.24	20760.55
422.43	20798.00
422.61	22867.03
422.80	24636.48
422.99	24706.70
423.18	23857.08
423.37	23131.51
423.56	23002.78
423.75	23892.19
423.94	24159.01
424.13	22951.29
424.32	23087.04
424.50	22944.27
424.69	22902.14
424.88	22967.68
425.07	22841.29
425.26	22970.02
425.45	22443.40
425.64	22029.12
425.83	22174.24
426.01	23777.50
426.20	24252.63
426.39	23817.29
426.58	22356.80
426.77	20533.52
426.96	20004.56
427.15	20463.30
427.33	22293.60
427.52	23133.86
427.71	23183.01
427.90	22794.48
428.09	22813.20
428.28	22249.13
428.46	21528.25
428.65	21029.71
428.84	21879.33
429.03	21956.57
429.22	20741.83
429.40	19789.23
429.59	17778.71
429.78	15946.07
429.97	15976.50
430.16	16308.85
430.34	16112.25
430.53	16283.11
430.72	16547.59
430.91	18366.18
431.10	21572.72
431.28	25797.38
431.47	27431.08
431.66	27548.11
431.85	25312.89
432.03	23126.83
432.22	22073.59
432.41	23222.80
432.60	25874.62
432.79	26820.20
432.97	27632.36
433.16	26759.34
433.35	23934.32
433.54	21935.50
433.72	20599.05
433.91	21504.84
434.10	23735.37
434.28	25720.15
434.47	26979.36
434.66	26698.49
434.85	25453.33
435.03	25443.96
435.22	26279.54
435.41	27857.06
435.59	27960.04
435.78	28163.67
435.97	29003.92
436.16	29319.89
436.34	28692.63
436.53	27962.38
436.72	28329.84
436.90	26654.02
437.09	26588.49
437.28	26277.19
437.46	27527.04
437.65	27115.11
437.84	25291.83
438.02	23115.13
438.21	23321.10
438.40	24386.04
438.58	26792.11
438.77	26878.71
438.96	27545.76
439.14	28479.64
439.33	28725.39
439.52	29825.45
439.70	29032.00
439.89	28135.58
440.08	27520.02
440.26	27515.34
440.45	28290.06
440.63	29876.94
440.82	31611.28
441.01	30991.03
441.19	31257.85
441.38	31854.69
441.57	32535.79
441.75	33017.94
441.94	33687.33
442.12	33062.41
442.31	33710.74
442.50	33661.58
442.68	32926.66
442.87	32877.51
443.05	32428.12
443.24	33020.28
443.43	33418.17
443.61	34649.29
443.80	34511.20
443.98	32456.21
444.17	32807.29
444.35	34497.16
444.54	34972.28
444.73	34513.54
444.91	33347.95
445.10	31821.92
445.28	30806.13
445.47	30471.43
445.65	30705.49
445.84	31384.24
446.02	32591.96
446.21	32994.53
446.39	33289.44
446.58	33661.58
446.77	33874.57
446.95	34382.47
447.14	35281.24
447.32	35688.49
447.51	34913.77
447.69	33200.50
447.88	33270.72
448.06	33553.92
448.25	34698.44
448.43	34782.70
448.62	34220.97
448.80	33640.52
448.99	34197.57
449.17	34106.29
449.36	34457.37
449.54	35985.74
449.73	36552.15
449.91	36718.32
450.10	37799.65
450.28	38169.46
450.46	37982.21
450.65	37694.33
450.83	37226.22
451.02	36657.47
451.20	36690.24
451.39	36535.76
451.57	36287.67
451.76	36182.34
451.94	36264.26
452.13	35349.11
452.31	33865.21
452.49	32708.99
452.68	32957.08
452.86	33064.75
453.05	33188.80
453.23	34653.97
453.42	35033.14
453.60	35915.52
453.78	36297.03
453.97	35840.62
454.15	36011.48
454.34	35208.68
454.52	35814.88
454.70	34974.63
454.89	35335.07
455.07	35232.08
455.26	35651.04
455.44	37277.71
455.62	38092.22
455.81	37778.59
455.99	37663.90
456.17	37081.11
456.36	37642.84
456.54	38618.84
456.73	38478.41
456.91	38967.58
457.09	39089.29
457.28	39730.59
457.46	37963.49
457.64	37954.13
457.83	36872.80
458.01	36341.50
458.19	36954.72
458.38	37254.31
458.56	38639.90
458.74	38323.93
458.93	37848.80
459.11	37916.68
459.29	37635.81
459.48	37764.54
459.66	37436.87
459.84	37586.66
460.03	38536.92
460.21	38464.36
460.39	39192.27
460.57	39253.12
460.76	39833.58
460.94	40257.21
461.12	39028.43
461.31	39463.77
461.49	39309.30
461.67	39030.77
461.85	40797.88
462.04	40023.16
462.22	40612.98
462.40	40034.86
462.59	40252.53
462.77	39920.18
462.95	40552.12
463.13	39590.16
463.32	39487.18
463.50	39395.90
463.68	39580.80
463.86	39166.52
464.05	38829.49
464.23	38227.97
464.41	38068.81
464.59	37254.31
464.78	39433.35
464.96	39068.22
465.14	38696.08
465.32	39414.62
465.50	40540.42
465.69	41050.66
465.87	39702.51
466.05	38824.81
466.23	37261.33
466.41	36430.44
466.60	37322.18
466.78	37668.58
466.96	38192.86
467.14	38632.88
467.32	39398.24
467.51	39019.07
467.69	37509.43
467.87	38567.35
468.05	38960.56
468.23	38976.94
468.41	39005.03
468.60	39225.04
468.78	39421.64
468.96	38993.32
469.14	40147.21
469.32	40119.12
469.50	38012.64
469.69	38419.89
469.87	38209.25
470.05	38160.09
470.23	38199.88
470.41	38293.50
470.59	38712.46
470.77	38960.56
470.95	39613.57
471.14	40170.61
471.32	39952.94
471.50	42281.78
471.68	42263.05
471.86	42454.98
472.04	42616.47
472.22	43030.75
472.40	40830.65
472.58	41057.68
472.77	40027.84
472.95	41099.81
473.13	42377.74
473.31	41134.92
473.49	41062.36
473.67	42096.88
473.85	42241.99
474.03	43683.76
474.21	43072.88
474.39	43786.74
474.57	43938.88
474.75	44027.82
474.93	43505.88
475.12	42904.36
475.30	43283.53
475.48	42850.53
475.66	43620.56
475.84	43159.48
476.02	42597.75
476.20	41600.68
476.38	43040.11
476.56	44086.33
476.74	44357.83
476.92	44931.26
477.10	45462.57
477.28	46506.44
477.46	46672.62
477.64	47140.73
477.82	47138.39
478.00	47152.43
478.18	46740.50
478.36	46398.78
478.54	46380.06
478.72	47077.54
478.90	47491.81
479.08	49069.33
479.26	49242.53
479.44	49050.61
479.62	48690.16
479.80	48795.49
479.98	49139.55
480.16	49830.01
480.34	48795.49
480.52	49434.45
480.70	49401.69
480.88	49694.25
481.06	50410.46
481.24	50876.22
481.41	51444.98
481.59	51835.84
481.77	51475.40
481.95	51143.05
482.13	50932.40
482.31	51210.92
482.49	51601.79
482.67	51421.57
482.85	51510.51
483.03	52245.44
483.21	52416.30
483.39	52603.54
483.57	51971.60
483.74	51672.01
483.92	51980.96
484.10	52065.22
484.28	53031.86
484.46	52992.07
484.64	53146.54
484.82	52851.64
485.00	52292.25
485.18	51377.10
485.35	50630.47
485.53	47716.50
485.71	43878.02
485.89	43819.51
486.07	45603.00
486.25	48917.20
486.43	50880.91
486.61	51648.60
486.78	51650.94
486.96	51440.29
487.14	53022.50
487.32	53881.47
487.50	54740.45
487.68	55229.62
487.85	55894.33
488.03	55587.72
488.21	55564.32
488.39	54850.45
488.57	54295.75
488.75	53712.95
488.92	54813.01
489.10	56495.85
489.28	57687.18
489.46	58131.89
489.64	58042.95
489.81	58382.32
489.99	57886.13
490.17	57890.81
490.35	58335.51
490.53	57930.60
490.70	57521.01
490.88	57621.65
491.06	58443.18
491.24	58335.51
491.41	57219.08
491.59	56123.71
491.77	55569.00
491.95	56528.62
492.13	57499.94
492.30	58461.90
492.48	59164.06
492.66	59686.00
492.84	59374.71
493.01	59220.23
493.19	58740.42
493.37	58578.93
493.54	58340.19
493.72	59002.56
493.90	59758.56
494.08	60343.69
494.25	60722.86
494.43	60954.57
494.61	61085.64
494.79	61291.61
494.96	61183.94
495.14	60273.48
495.32	59803.03
495.49	59304.49
495.67	60402.21
495.85	61340.76
496.02	61595.88
496.20	61560.77
496.38	60999.04
496.55	60818.82
496.73	61518.64
496.91	61453.11
497.09	62026.54
497.26	62101.43
497.44	61764.40
497.62	61401.61
497.79	60554.34
497.97	59489.40
498.14	59639.19
498.32	60678.39
498.50	61439.06
498.67	61918.87
498.85	61900.15
499.03	61895.47
499.20	62120.16
499.38	62244.21
499.56	61958.66
499.73	61432.04
499.91	61137.13
500.08	60842.23
500.26	60245.39
500.44	60638.60
500.61	61359.48
500.79	61137.13
500.97	60846.91
501.14	60596.47
501.32	60561.36
501.49	60580.09
501.67	60781.37
501.84	61073.94
502.02	61333.74
502.20	61642.69
502.37	61865.04
502.55	61827.59
502.72	62489.96
502.90	62855.09
503.07	62417.41
503.25	61951.64
503.43	61406.30
503.60	60743.92
503.78	60205.60
503.95	60603.49
504.13	61862.70
504.30	62569.54
504.48	62436.13
504.65	61965.68
504.83	62209.10
505.01	62681.89
505.18	62974.45
505.36	63566.61
505.53	63590.01
505.71	63807.68
505.88	63770.24
506.06	63192.12
506.23	62958.07
506.41	62621.03
506.58	62960.41
506.76	62937.01
506.93	62901.90
507.11	62665.50
507.28	62766.15
507.46	62372.94
507.63	61930.58
507.81	61712.91
507.98	62010.15
508.16	62653.80
508.33	62990.84
508.50	63138.29
508.68	63517.46
508.85	63983.22
509.03	63915.35
509.20	63700.02
509.38	63203.83
509.55	62349.53
509.73	62724.02
509.90	63082.12
510.08	63355.96
510.25	63222.55
510.42	63224.89
510.60	62969.77
510.77	63252.98
510.95	63856.84
511.12	63915.35
511.30	64259.41
511.47	64437.29
511.64	64198.55
511.82	63976.20
511.99	63187.44
512.17	62979.14
512.34	62487.62
512.51	62733.38
512.69	62986.16
512.86	62906.58
513.04	63341.92
513.21	63454.26
513.38	63105.52
513.56	62564.86
513.73	62305.06
513.90	62351.87
514.08	62541.45
514.25	62649.12
514.43	62911.26
514.60	62974.45
514.77	63021.26
514.95	63121.91
515.12	63028.29
515.29	63393.41
515.47	63746.83
515.64	63929.39
515.81	63606.40
515.99	63126.59
516.16	61640.35
516.33	59744.51
516.51	58489.99
516.68	57790.17
516.85	57478.88
517.03	57958.69
517.20	60432.63
517.37	62232.50
517.54	63262.34
517.72	62672.52
517.89	60676.05
518.06	58447.86
518.24	59032.99
518.41	60774.35
518.58	61888.45
518.75	61996.11
518.93	62246.55
519.10	62145.90
519.27	62305.06
519.45	62803.59
519.62	63463.63
519.79	63817.05
519.96	63582.99
520.14	63070.42
520.31	62300.38
520.48	62557.84
520.65	62801.25
520.83	63580.65
521.00	63901.31
521.17	63451.92
521.34	63121.91
521.52	63622.78
521.69	64046.42
521.86	64395.16
522.03	63987.91
522.20	63032.97
522.38	62312.08
522.55	62305.06
522.72	62812.96
522.89	62838.70
523.07	63042.33
523.24	63332.56
523.41	64088.55
523.58	64310.90
523.75	64661.98
523.92	64846.88
524.10	64500.48
524.27	64566.02
524.44	64406.86
524.61	64137.70
524.78	63971.52
524.96	63866.20
525.13	63964.50
525.30	64268.77
525.47	64657.30
525.64	64690.07
525.81	63941.10
525.98	62726.36
526.16	61347.78
526.33	61036.49
526.50	60601.15
526.67	60257.09
526.84	60931.17
527.01	61635.67
527.18	62581.24
527.36	63278.72
527.53	63987.91
527.70	64114.29
527.87	63777.26
528.04	63252.98
528.21	63758.53
528.38	64320.26
528.55	64924.12
528.72	65116.04
528.89	65261.16
529.07	64867.95
529.24	64336.65
529.41	63798.32
529.58	63231.91
529.75	63400.43
529.92	63784.28
530.09	64158.76
530.26	64568.36
530.43	64790.71
530.60	64968.59
530.77	65087.96
530.94	65029.44
531.11	64694.75
531.28	64397.50
531.46	64271.11
531.63	64420.90
531.80	64214.94
531.97	63648.53
532.14	63152.33
532.31	62403.36
532.48	61806.53
532.65	61900.15
532.82	62581.24
532.99	63550.23
533.16	63973.86
533.33	64406.86
533.50	64076.85
533.67	63681.30
533.84	63252.98
534.01	63604.06
534.18	63566.61
534.35	63800.66
534.52	63803.00
534.69	63791.30
534.86	64243.02
535.03	64530.91
535.20	64832.84
535.37	65141.79
535.54	65162.85
535.71	64900.71
535.88	64488.78
536.05	64039.40
536.22	63597.04
536.38	63379.37
536.55	62944.03
536.72	62539.11
536.89	62398.68
537.06	63295.11
537.23	63920.03
537.40	64196.21
537.57	64203.24
537.74	63980.88
537.91	63978.54
538.08	63962.16
538.25	64027.70
538.42	64313.24
538.59	63936.41
538.75	63463.63
538.92	63353.62
539.09	63018.92
539.26	62852.75
539.43	62742.74
539.60	62845.72
539.77	62997.86
539.94	62700.61
540.11	62080.37
540.28	61813.55
540.44	61689.50
540.61	62143.56
540.78	62181.01
540.95	62691.25
541.12	62904.24
541.29	63260.00
541.46	63529.16
541.62	63608.74
541.79	63421.50
541.96	62885.51
542.13	62929.98
542.30	63215.53
542.47	63257.66
542.63	63009.56
542.80	62862.11
542.97	62794.23
543.14	62937.01
543.31	63039.99
543.48	63414.47
543.64	64104.93
543.81	64306.22
543.98	64072.17
544.15	63381.71
544.32	62915.94
544.48	63178.08
544.65	63632.14
544.82	64048.76
544.99	63559.59
545.16	63185.10
545.32	63142.97
545.49	63690.66
545.66	64217.28
545.83	63660.23
546.00	63164.04
546.16	63152.33
546.33	63140.63
546.50	63159.36
546.67	63774.92
546.83	63334.90
547.00	63309.15
547.17	62548.48
547.34	62099.09
547.50	62192.72
547.67	62578.90
547.84	62475.92
548.00	63065.73
548.17	63348.94
548.34	63187.44
548.51	63149.99
548.67	63358.30
548.84	63283.40
549.01	63157.02
549.18	63194.46
549.34	63070.42
549.51	63283.40
549.68	62927.64
549.84	62925.30
550.01	62850.41
550.18	62520.39
550.34	62709.97
550.51	63023.61
550.68	63126.59
550.84	62518.05
551.01	62602.31
551.18	62468.90
551.34	62726.36
551.51	63086.80
551.68	63327.87
551.84	63236.59
552.01	62913.60
552.18	62993.18
552.34	62232.50
552.51	62101.43
552.68	61848.66
552.84	62309.74
553.01	62482.94
553.18	62506.35
553.34	62644.44
553.51	62644.44
553.67	63030.63
553.84	62904.24
554.01	62974.45
554.17	62805.94
554.34	62885.51
554.51	62981.48
554.67	63472.99
554.84	63187.44
555.00	62768.49
555.17	62688.91
555.33	62485.28
555.50	62450.17
555.67	62412.73
555.83	62372.94
556.00	62288.68
556.16	62080.37
556.33	61771.42
556.50	61923.55
556.66	61752.69
556.83	61609.92
556.99	61560.77
557.16	61661.41
557.32	62087.39
557.49	62159.95
557.65	62173.99
557.82	62026.54
557.98	61874.40
558.15	61619.28
558.32	60945.21
558.48	60137.72
558.65	60409.23
558.81	60781.37
558.98	60867.97
559.14	60982.66
559.31	60996.70
559.47	61169.90
559.64	60956.91
559.80	60610.51
559.97	60612.85
560.13	61043.51
560.30	61843.98
560.46	62440.81
560.63	62518.05
560.79	62326.13
560.96	62068.67
561.12	60963.93
561.29	60521.57
561.45	60488.80
561.61	61113.73
561.78	61499.92
561.94	61275.22
562.11	61123.09
562.27	61048.19
562.44	61202.67
562.60	61649.71
562.77	61705.88
562.93	61619.28
563.10	61312.67
563.26	61006.06
563.42	61254.16
563.59	60886.70
563.75	60996.70
563.92	60987.34
564.08	61045.85
564.24	61193.31
564.41	61202.67
564.57	61118.41
564.74	60940.53
564.90	60856.27
565.07	60626.90
565.23	60392.84
565.39	60088.57
565.56	59763.24
565.72	59505.78
565.88	59929.42
566.05	59859.20
566.21	60221.98
566.38	60437.31
566.54	60577.75
566.70	60774.35
566.87	60961.59
567.03	60961.59
567.19	61261.18
567.36	60825.84
567.52	60877.33
567.68	60392.84
567.85	59924.74
568.01	59765.58
568.17	59278.75
568.34	59428.54
568.50	59494.08
568.66	59430.88
568.83	59978.57
568.99	59870.90
569.15	60200.92
569.32	60062.83
569.48	59753.88
569.64	59746.86
569.81	59405.14
569.97	59355.99
570.13	59203.85
570.30	58756.81
570.46	58520.41
570.62	58188.06
570.78	58157.63
570.95	58433.81
571.11	58859.79
571.27	59037.67
571.43	59330.24
571.60	59412.16
571.76	59655.57
571.92	59807.71
572.09	59814.73
572.25	59915.37
572.41	59934.10
572.57	59601.74
572.74	59854.52
572.90	59384.07
573.06	59421.52
573.22	59512.80
573.38	59421.52
573.55	59395.77
573.71	59753.88
573.87	59634.51
574.03	59255.34
574.20	59302.15
574.36	59154.70
574.52	59032.99
574.68	58873.84
574.84	58440.84
575.01	58012.52
575.17	58159.97
575.33	58504.03
575.49	58698.30
575.65	58660.85
575.82	58642.12
575.98	58468.92
576.14	58548.50
576.30	58798.94
576.46	58810.64
576.62	58937.03
576.79	58925.33
576.95	58457.22
577.11	58466.58
577.27	58550.84
577.43	58513.39
577.59	58258.27
577.75	57818.25
577.92	57441.43
578.08	57289.29
578.24	57542.07
578.40	57607.61
578.56	57844.00
578.72	57595.90
578.88	57935.28
579.04	58321.47
579.21	58230.19
579.37	58209.12
579.53	58389.34
579.69	58277.00
579.85	58511.05
580.01	58272.32
580.17	58014.86
580.33	57876.77
580.49	57935.28
580.65	58143.59
580.82	58387.00
580.98	58323.81
581.14	58087.42
581.30	58141.25
581.46	58199.76
581.62	58209.12
581.78	58246.57
581.94	58466.58
582.10	58513.39
582.26	58506.37
582.42	58511.05
582.58	58370.62
582.74	58391.68
582.90	58550.84
583.06	58494.67
583.22	58326.15
583.38	58197.42
583.54	58145.93
583.70	57848.68
583.86	58017.20
584.02	58094.44
584.18	58131.89
584.34	57862.72
584.50	57872.09
584.66	57839.32
584.82	57687.18
584.98	57656.76
585.14	57134.82
