SpectraSuite Data File
++++++++++++++++++++++++++++++++++++
Date: Mon Oct 07 14:52:58 GMT-05:00 2013
User: price-jones
Dark Spectrum Present: No
Reference Spectrum Present: No
Number of Sampled Component Spectra: 1
Spectrometers: USB2+H05261
Integration Time (usec): 100000 (USB2+H05261)
Spectra Averaged: 1 (USB2+H05261)
Boxcar Smoothing: 0 (USB2+H05261)
Correct for Electrical Dark: No (USB2+H05261)
Strobe/Lamp Enabled: No (USB2+H05261)
Correct for Detector Non-linearity: No (USB2+H05261)
Correct for Stray Light: No (USB2+H05261)
Number of Pixels in Processed Spectrum: 2048
>>>>>Begin Processed Spectral Data<<<<<
365.73	0.00
365.92	0.00
366.12	0.00
366.32	0.00
366.52	0.00
366.72	0.00
366.91	0.00
367.11	0.00
367.31	0.00
367.51	0.00
367.70	0.00
367.90	0.00
368.10	0.00
368.30	0.00
368.49	0.00
368.69	0.00
368.89	0.00
369.09	0.00
369.28	0.00
369.48	0.00
369.68	0.00
369.87	0.00
370.07	0.00
370.27	0.00
370.47	566.41
370.66	2806.30
370.86	3269.73
371.06	3552.93
371.25	3597.40
371.45	3311.86
371.65	2853.11
371.84	2626.08
372.04	3016.95
372.24	3353.99
372.44	3431.23
372.63	3375.05
372.83	3122.27
373.03	2693.96
373.22	2504.37
373.42	2712.68
373.62	3077.80
373.81	3290.79
374.01	3304.84
374.21	3040.36
374.40	2768.85
374.60	3038.02
374.79	3192.49
374.99	3812.73
375.19	4049.13
375.38	4060.83
375.58	3845.50
375.78	3948.48
375.97	3908.69
376.17	3995.29
376.37	3971.89
376.56	4128.70
376.76	4337.01
376.95	4610.86
377.15	5011.09
377.35	5107.05
377.54	5132.79
377.74	5584.52
377.93	5476.85
378.13	5238.12
378.33	5195.99
378.52	4599.15
378.72	4386.16
378.91	4369.78
379.11	4374.46
379.31	4212.96
379.50	4086.58
379.70	4521.92
379.89	4971.30
380.09	5158.54
380.28	5425.36
380.48	5373.87
380.68	5174.92
380.87	5062.58
381.07	4718.52
381.26	4425.95
381.46	4018.70
381.65	4112.32
381.85	3913.38
382.04	3658.26
382.24	3471.01
382.43	3258.03
382.63	3251.00
382.83	3208.87
383.02	3304.84
383.22	3295.47
383.41	3356.33
383.61	3639.53
383.80	4014.02
384.00	4507.87
384.19	5067.26
384.39	5277.91
384.58	5371.53
384.78	5247.48
384.97	5242.80
385.17	4863.63
385.36	4678.73
385.56	4540.64
385.75	4472.76
385.95	4947.89
386.14	5533.03
386.34	5542.39
386.53	5282.59
386.72	4945.55
386.92	5153.86
387.11	5268.55
387.31	5533.03
387.50	5453.45
387.70	5165.56
387.89	5224.08
388.09	5090.67
388.28	5273.23
388.48	5287.27
388.67	5792.83
388.86	6249.23
389.06	6836.70
389.25	6986.50
389.45	7082.46
389.64	7023.95
389.84	6970.12
390.03	6717.34
390.22	6869.47
390.42	7272.04
390.61	7623.12
390.81	8168.47
391.00	8044.42
391.19	8306.56
391.39	8016.33
391.58	7485.03
391.78	6925.65
391.97	6846.07
392.16	6303.06
392.36	5785.80
392.55	4557.02
392.75	3707.41
392.94	3007.59
393.13	2998.23
393.33	3627.83
393.52	4650.64
393.71	5633.67
393.91	6211.78
394.10	6995.86
394.29	7433.54
394.49	7981.23
394.68	8531.25
394.88	8634.24
395.07	9135.11
395.26	8940.85
395.46	8657.64
395.65	8131.02
395.84	7206.51
396.04	6188.38
396.23	4823.84
396.42	4044.45
396.62	3889.97
396.81	4723.20
397.00	6012.84
397.19	7482.69
397.39	8620.19
397.58	9912.17
397.77	10604.97
397.97	11059.03
398.16	10993.50
398.35	11356.28
398.55	11765.87
398.74	12355.69
398.93	12191.85
399.12	12138.02
399.32	11676.93
399.51	12119.29
399.70	12676.34
399.90	12652.94
400.09	12697.41
400.28	12599.10
400.47	12678.68
400.67	13378.50
400.86	13734.26
401.05	13528.30
401.24	13958.96
401.44	14017.47
401.63	14054.92
401.82	14008.11
402.01	14113.43
402.21	14164.92
402.40	14246.84
402.59	13752.99
402.78	13298.92
402.97	12917.42
403.17	13418.29
403.36	14258.54
403.55	14593.24
403.74	14780.48
403.93	14118.11
404.13	13160.83
404.32	12865.92
404.51	13563.40
404.70	14361.53
404.89	14586.22
405.09	13996.40
405.28	13785.76
405.47	13654.69
405.66	13755.33
405.85	13460.42
406.05	13097.64
406.24	13170.19
406.43	13977.68
406.62	14345.14
406.81	14420.04
407.00	13633.62
407.20	13504.89
407.39	13731.92
407.58	14483.24
407.77	14939.64
407.96	15613.71
408.15	15524.77
408.34	15620.74
408.54	16498.44
408.73	16180.12
408.92	16020.97
409.11	15868.83
409.30	14974.75
409.49	14057.26
409.68	13324.67
409.87	12755.92
410.07	13645.32
410.26	14827.29
410.45	15733.08
410.64	15873.51
410.83	16751.21
411.02	16613.12
411.21	18054.89
411.40	17179.53
411.59	17493.16
411.78	17291.88
411.98	16812.07
412.17	17240.39
412.36	17025.06
412.55	17163.15
412.74	16683.34
412.93	16549.93
413.12	16496.10
413.31	18221.07
413.50	18164.90
413.69	18728.97
413.88	17745.94
414.07	17357.41
414.26	17645.30
414.45	18314.69
414.64	18368.52
414.83	18291.29
415.02	18108.72
415.22	17762.33
415.41	18291.29
415.60	18738.33
415.79	19805.61
415.98	19868.81
416.17	20081.80
416.36	19428.79
416.55	19410.06
416.74	18747.69
416.93	17858.29
417.12	17919.14
417.31	18209.37
417.50	18600.24
417.69	19129.20
417.88	19372.61
418.07	18974.72
418.26	18597.90
418.45	18981.74
418.64	19697.95
418.83	20013.92
419.02	20135.63
419.21	19908.60
419.39	18927.91
419.58	17884.03
419.77	18218.73
419.96	18895.14
420.15	19990.52
420.34	20755.87
420.53	21645.27
420.72	21621.87
420.91	21546.97
421.10	20971.20
421.29	21032.05
421.48	20348.62
421.67	21448.67
421.86	20884.60
422.05	19119.84
422.24	17411.25
422.43	17228.68
422.61	19108.13
422.80	20285.42
422.99	20877.58
423.18	19932.00
423.37	19447.51
423.56	19599.65
423.75	19922.64
423.94	20063.07
424.13	19073.03
424.32	19243.88
424.50	19316.44
424.69	18988.77
424.88	19398.36
425.07	19527.09
425.26	19091.75
425.45	18995.79
425.64	18616.62
425.83	18693.86
426.01	19803.27
426.20	20240.95
426.39	20332.23
426.58	18537.04
426.77	16901.01
426.96	16695.04
427.15	17156.13
427.33	18874.08
427.52	19520.07
427.71	19358.57
427.90	19197.07
428.09	18920.89
428.28	18719.60
428.46	18031.49
428.65	17741.26
428.84	18022.12
429.03	18443.42
429.22	17619.55
429.40	16549.93
429.59	14841.34
429.78	13458.08
429.97	13584.47
430.16	13600.85
430.34	13650.00
430.53	13657.03
430.72	14115.77
430.91	15580.95
431.10	18202.35
431.28	21565.70
431.47	23302.37
431.66	22890.44
431.85	21312.92
432.03	19513.05
432.22	18525.34
432.41	19700.29
432.60	21741.24
432.79	22513.61
432.97	22986.40
433.16	22293.60
433.35	20383.73
433.54	18132.13
433.72	17514.23
433.91	18054.89
434.10	20016.26
434.28	21689.74
434.47	22583.83
434.66	22104.02
434.85	21429.94
435.03	21355.05
435.22	22001.04
435.41	23779.84
435.59	23384.29
435.78	23655.79
435.97	24290.08
436.16	24271.36
436.34	23857.08
436.53	23374.93
436.72	23601.96
436.90	22202.32
437.09	22443.40
437.28	22176.58
437.46	22750.01
437.65	22431.69
437.84	20814.38
438.02	19651.14
438.21	19379.64
438.40	20343.94
438.58	22111.04
438.77	22654.05
438.96	23077.68
439.14	24189.44
439.33	24301.78
439.52	24966.49
439.70	24177.73
439.89	23854.74
440.08	23061.30
440.26	23288.33
440.45	24247.95
440.63	25441.62
440.82	26953.61
441.01	26384.86
441.19	25977.61
441.38	26686.79
441.57	27515.34
441.75	28135.58
441.94	27943.66
442.12	27864.08
442.31	28456.23
442.50	28629.43
442.68	27943.66
442.87	27402.99
443.05	26972.33
443.24	27524.70
443.43	28198.77
443.61	28914.98
443.80	29071.79
443.98	27810.25
444.17	27578.53
444.35	28879.87
444.54	29235.63
444.73	29263.72
444.91	27817.27
445.10	26927.86
445.28	25879.30
445.47	25612.48
445.65	25481.41
445.84	26438.69
446.02	27351.50
446.21	27779.82
446.39	27721.30
446.58	28219.84
446.77	28357.93
446.95	28540.49
447.14	29783.32
447.32	30036.09
447.51	28922.00
447.69	28156.64
447.88	27995.15
448.06	28158.99
448.25	29057.75
448.43	29209.89
448.62	28376.66
448.80	28364.95
448.99	28627.09
449.17	28673.90
449.36	29165.42
449.54	29818.42
449.73	30483.14
449.91	30771.02
450.10	31885.12
450.28	32315.78
450.46	31601.91
450.65	31866.39
450.83	31501.27
451.02	30417.60
451.20	30693.79
451.39	31070.61
451.57	30333.34
451.76	30738.26
451.94	30258.45
452.13	29766.93
452.31	28493.68
452.49	27363.20
452.68	27520.02
452.86	27679.18
453.05	28194.09
453.23	28992.22
453.42	29411.17
453.60	30419.94
453.78	30768.68
453.97	30061.84
454.15	30256.11
454.34	29546.92
454.52	29411.17
454.70	29167.76
454.89	29436.92
455.07	29383.09
455.26	30326.32
455.44	31239.13
455.62	31796.18
455.81	31807.88
455.99	31431.05
456.17	31199.34
456.36	31580.85
456.54	32119.17
456.73	32591.96
456.91	32552.17
457.09	32879.85
457.28	33633.50
457.46	32149.60
457.64	31850.01
457.83	31012.10
458.01	30295.89
458.19	31328.07
458.38	31168.91
458.56	32182.37
458.74	32233.86
458.93	31730.64
459.11	31798.52
459.29	31435.74
459.48	31725.96
459.66	31386.58
459.84	31772.77
460.03	32292.37
460.21	32133.21
460.39	33146.67
460.57	32741.75
460.76	33483.70
460.94	33699.03
461.12	33003.89
461.31	33198.16
461.49	33099.86
461.67	32954.74
461.85	33797.34
462.04	33579.67
462.22	34604.82
462.40	33757.55
462.59	33883.94
462.77	33937.77
462.95	33689.67
463.13	33621.80
463.32	32973.47
463.50	32870.48
463.68	32950.06
463.86	32367.27
464.05	32430.46
464.23	31917.89
464.41	31721.28
464.59	31089.34
464.78	32910.27
464.96	32598.98
465.14	32252.58
465.32	33053.05
465.50	34087.56
465.69	34330.98
465.87	33385.40
466.05	32872.82
466.23	31424.03
466.41	30422.28
466.60	31875.76
466.78	31693.19
466.96	32322.80
467.14	32655.15
467.32	33158.37
467.51	33188.80
467.69	31257.85
467.87	32463.23
468.05	33015.60
468.23	33003.89
468.41	32903.25
468.60	33130.28
468.78	33109.22
468.96	32598.98
469.14	33387.74
469.32	33619.46
469.50	32360.25
469.69	32547.49
469.87	31761.07
470.05	31681.49
470.23	31777.45
470.41	32140.24
470.59	32617.71
470.77	32261.94
470.95	33352.63
471.14	33462.64
471.32	33633.50
471.50	35538.69
471.68	35817.22
471.86	35613.59
472.04	36051.27
472.22	36098.08
472.40	33968.19
472.58	33846.49
472.77	33483.70
472.95	34815.47
473.13	34993.35
473.31	34588.44
473.49	34707.80
473.67	35339.75
473.85	35892.12
474.03	36301.71
474.21	36718.32
474.39	36638.75
474.57	36833.01
474.75	36715.98
474.93	36961.74
475.12	35644.02
475.30	36301.71
475.48	36119.15
475.66	36587.25
475.84	36353.20
476.02	36016.16
476.20	35285.92
476.38	36247.88
476.56	37158.34
476.74	37694.33
476.92	37792.63
477.10	38403.51
477.28	39505.90
477.46	39618.25
477.64	39758.68
477.82	39936.56
478.00	40343.81
478.18	39491.86
478.36	39370.15
478.54	39304.62
478.72	39728.25
478.90	40657.45
479.08	41537.49
479.26	41914.31
479.44	42108.58
479.62	42148.37
479.80	41846.44
479.98	41832.39
480.16	42202.20
480.34	41502.38
480.52	42342.63
480.70	42450.30
480.88	42628.18
481.06	43253.10
481.24	43545.67
481.41	44552.10
481.59	45235.53
481.77	45059.99
481.95	44163.57
482.13	44320.38
482.31	44079.31
482.49	44549.76
482.67	44818.92
482.85	45120.85
483.03	45703.64
483.21	46454.95
483.39	45677.90
483.57	45233.19
483.74	44882.11
483.92	45123.19
484.10	45567.89
484.28	46438.57
484.46	46742.84
484.64	47784.38
484.82	46438.57
485.00	45794.92
485.18	44706.57
485.35	43435.66
485.53	40027.84
485.71	37008.55
485.89	36624.70
486.07	38740.55
486.25	42155.39
486.43	44605.93
486.61	44837.64
486.78	44832.96
486.96	44832.96
487.14	46965.19
487.32	47468.40
487.50	48156.52
487.68	49626.38
487.85	49813.62
488.03	49755.11
488.21	49441.48
488.39	48418.66
488.57	47840.55
488.75	47742.25
488.92	49148.91
489.10	51248.37
489.28	52575.45
489.46	53251.87
489.64	52870.36
489.81	53078.67
489.99	52856.32
490.17	53013.13
490.35	53015.47
490.53	52640.99
490.70	52514.60
490.88	52299.27
491.06	53303.36
491.24	52978.03
491.41	52247.78
491.59	50204.49
491.77	49968.10
491.95	51117.30
492.13	52083.94
492.30	53567.84
492.48	54284.04
492.66	54866.84
492.84	54747.47
493.01	54368.30
493.19	54017.22
493.37	53263.57
493.54	53284.64
493.72	53801.89
493.90	54890.24
494.08	55601.77
494.25	55814.76
494.43	56037.11
494.61	56336.69
494.79	56680.75
494.96	56329.67
495.14	55531.55
495.32	54693.64
495.49	54429.16
495.67	55412.18
495.85	56612.88
496.02	57205.03
496.20	56870.34
496.38	56257.12
496.55	56334.35
496.73	56851.61
496.91	56980.34
497.09	57453.13
497.26	57616.97
497.44	57043.54
497.62	56563.73
497.79	55994.98
497.97	54497.03
498.14	54981.52
498.32	55767.94
498.50	56914.81
498.67	57439.09
498.85	57024.81
499.03	57233.12
499.20	57518.67
499.38	57502.28
499.56	57298.65
499.73	56814.16
499.91	56706.50
500.08	55945.83
500.26	55505.80
500.44	55903.70
500.61	56530.96
500.79	56554.36
500.97	55922.42
501.14	55901.36
501.32	55643.90
501.49	55891.99
501.67	56032.42
501.84	56753.31
502.02	56844.59
502.20	57120.77
502.37	57340.78
502.55	57214.40
502.72	58026.56
502.90	58162.31
503.07	58085.07
503.25	57607.61
503.43	56488.83
503.60	56025.40
503.78	55196.85
503.95	55983.27
504.13	57221.42
504.30	58071.03
504.48	57944.64
504.65	57502.28
504.83	57811.23
505.01	58148.27
505.18	58511.05
505.36	58976.82
505.53	59110.23
505.71	59573.66
505.88	59564.29
506.06	58607.01
506.23	58576.59
506.41	58291.04
506.58	58394.03
506.76	58422.11
506.93	58307.43
507.11	57811.23
507.28	58157.63
507.46	57656.76
507.63	57162.90
507.81	57165.24
507.98	57537.39
508.16	58000.82
508.33	58623.40
508.50	58850.43
508.68	58937.03
508.85	59391.09
509.03	59568.97
509.20	59360.67
509.38	58529.78
509.55	58089.76
509.73	57918.90
509.90	58581.27
510.08	58761.49
510.25	58752.13
510.42	58534.46
510.60	58403.39
510.77	58920.65
510.95	59131.29
511.12	59536.21
511.30	59737.49
511.47	59915.37
511.64	60016.02
511.82	59468.33
511.99	58749.79
512.17	58482.97
512.34	58059.33
512.51	58415.09
512.69	58431.47
512.86	58539.14
513.04	58864.47
513.21	59040.01
513.38	58370.62
513.56	57968.05
513.73	57279.93
513.90	57717.61
514.08	57771.44
514.25	58230.19
514.43	58504.03
514.60	58583.61
514.77	58518.07
514.95	58508.71
515.12	58321.47
515.29	58944.05
515.47	59171.08
515.64	59355.99
515.81	58878.52
515.99	58436.16
516.16	57036.51
516.33	54791.94
516.51	53675.51
516.68	52732.27
516.85	52334.38
517.03	52926.53
517.20	55402.82
517.37	57748.04
517.54	58831.71
517.72	57949.32
517.89	55505.80
518.06	53514.01
518.24	54258.30
518.41	55976.25
518.58	57064.60
518.75	57502.28
518.93	57635.69
519.10	57528.03
519.27	58014.86
519.45	58253.59
519.62	58941.71
519.79	59058.74
519.96	58993.20
520.14	58625.74
520.31	57776.12
520.48	57773.78
520.65	58445.52
520.83	59281.09
521.00	59412.16
521.17	59068.10
521.34	58820.00
521.52	59089.16
521.69	59643.87
521.86	60011.34
522.03	59686.00
522.20	58419.77
522.38	57425.04
522.55	57635.69
522.72	58078.05
522.89	58354.24
523.07	58368.28
523.24	58852.77
523.41	59580.68
523.58	59716.43
523.75	60226.66
523.92	60055.81
524.10	59781.96
524.27	59931.76
524.44	60020.70
524.61	59791.33
524.78	59561.95
524.96	59536.21
525.13	59379.39
525.30	59774.94
525.47	60179.85
525.64	60175.17
525.81	59222.58
525.98	57902.51
526.16	56521.60
526.33	56147.11
526.50	55870.93
526.67	55377.08
526.84	56133.07
527.01	57139.50
527.18	57656.76
527.36	58637.44
527.53	59360.67
527.70	59508.12
527.87	59110.23
528.04	58532.12
528.21	59206.19
528.38	59587.70
528.55	60420.93
528.72	60439.65
528.89	60509.87
529.07	60350.71
529.24	59826.43
529.41	59271.73
529.58	58852.77
529.75	58611.70
529.92	59175.76
530.09	59678.98
530.26	60023.04
530.43	60392.84
530.60	60399.86
530.77	60547.32
530.94	60622.22
531.11	60161.13
531.28	59849.84
531.46	59870.90
531.63	59922.40
531.80	59688.34
531.97	59175.76
532.14	58768.51
532.31	57560.79
532.48	56783.74
532.65	56954.60
532.82	58075.71
532.99	59091.51
533.16	59344.28
533.33	59573.66
533.50	59634.51
533.67	59075.12
533.84	58473.60
534.01	58859.79
534.18	58869.15
534.35	59330.24
534.52	58913.62
534.69	59414.50
534.86	59629.83
535.03	59854.52
535.20	60273.48
535.37	60753.29
535.54	60746.26
535.71	60135.38
535.88	59964.52
536.05	59365.35
536.22	59061.08
536.38	58740.42
536.55	58120.18
536.72	57975.07
536.89	57869.75
537.06	58632.76
537.23	59386.41
537.40	59725.79
537.57	59606.42
537.74	59456.63
537.91	59318.54
538.08	59220.23
538.25	59393.43
538.42	59386.41
538.59	59178.10
538.75	58796.60
538.92	58609.35
539.09	58260.62
539.26	58141.25
539.43	58040.60
539.60	58082.73
539.77	58457.22
539.94	58014.86
540.11	57497.60
540.28	56945.23
540.44	57052.90
540.61	57324.40
540.78	57509.30
540.95	57996.13
541.12	58466.58
541.29	58728.72
541.46	58958.09
541.62	59042.35
541.79	58674.89
541.96	58082.73
542.13	58138.91
542.30	58412.75
542.47	58567.23
542.63	58457.22
542.80	58115.50
542.97	58211.46
543.14	58232.53
543.31	58274.66
543.48	58688.93
543.64	59519.82
543.81	59791.33
543.98	59316.20
544.15	58937.03
544.32	58384.66
544.48	58473.60
544.65	58953.41
544.82	59260.02
544.99	58747.45
545.16	58401.05
545.32	58405.73
545.49	58979.16
545.66	59456.63
545.83	59107.89
546.00	58707.66
546.16	58284.02
546.33	58358.92
546.50	58695.95
546.67	58812.98
546.83	58475.94
547.00	58412.75
547.17	57724.63
547.34	57263.55
547.50	57392.28
547.67	57771.44
547.84	57703.57
548.00	58269.98
548.17	58660.85
548.34	58412.75
548.51	58464.24
548.67	58607.01
548.84	58590.63
549.01	58405.73
549.18	58604.67
549.34	58192.74
549.51	58485.31
549.68	58475.94
549.84	58106.14
550.01	58138.91
550.18	57972.73
550.34	57780.81
550.51	58082.73
550.68	58218.49
550.84	57509.30
551.01	57762.08
551.18	57633.35
551.34	57942.30
551.51	58216.14
551.68	58471.26
551.84	58749.79
552.01	58401.05
552.18	58155.29
552.34	57518.67
552.51	57263.55
552.68	56978.00
552.84	57846.34
553.01	57893.15
553.18	57670.80
553.34	57762.08
553.51	57958.69
553.67	58323.81
553.84	58099.12
554.01	58188.06
554.17	58075.71
554.34	57886.13
554.51	58021.88
554.67	58738.08
554.84	58485.31
555.00	58054.65
555.17	57762.08
555.33	57701.23
555.50	57942.30
555.67	57764.42
555.83	57429.72
556.00	57064.60
556.16	57537.39
556.33	56877.36
556.50	56746.29
556.66	57008.43
556.83	56652.67
556.99	56926.51
557.16	56828.21
557.32	57010.77
557.49	57539.73
557.65	57373.55
557.82	57275.25
557.98	57174.61
558.15	56783.74
558.32	55730.50
558.48	55042.38
558.65	55517.51
558.81	55884.97
558.98	55943.48
559.14	56161.15
559.31	56011.36
559.47	56133.07
559.64	55877.95
559.80	55744.54
559.97	55903.70
560.13	56278.18
560.30	57034.17
560.46	57389.94
560.63	57616.97
560.79	57659.10
560.96	57186.31
561.12	56236.05
561.29	55622.83
561.45	55435.59
561.61	56086.26
561.78	56371.80
561.94	56147.11
562.11	56156.47
562.27	56247.75
562.44	56327.33
562.60	56636.28
562.77	56914.81
562.93	56772.03
563.10	56652.67
563.26	56200.94
563.42	56016.04
563.59	55870.93
563.75	55941.14
563.92	56126.05
564.08	56161.15
564.24	56135.41
564.41	56292.22
564.57	56175.20
564.74	56065.19
564.90	55833.48
565.07	55648.58
565.23	55180.47
565.39	54838.75
565.56	54497.03
565.72	54536.82
565.88	54607.04
566.05	54869.18
566.21	55363.03
566.38	55531.55
566.54	55346.65
566.70	55545.59
566.87	56086.26
567.03	55807.73
567.19	56158.81
567.36	55938.80
567.52	55622.83
567.68	55386.44
567.85	54850.45
568.01	54646.83
568.17	53996.16
568.34	54365.96
568.50	54124.89
568.66	54344.90
568.83	54670.23
568.99	54677.25
569.15	54838.75
569.32	54967.48
569.48	54766.20
569.64	54389.37
569.81	54064.03
569.97	54333.20
570.13	54005.52
570.30	53291.66
570.46	53097.39
570.62	52470.13
570.78	52535.66
570.95	52945.26
571.11	53387.62
571.27	53719.98
571.43	54141.27
571.60	54464.27
571.76	54445.54
571.92	54822.37
572.09	54700.66
572.25	54887.90
572.41	54810.67
572.57	54424.48
572.74	54497.03
572.90	54005.52
573.06	54143.61
573.22	54110.85
573.38	54160.00
573.55	54248.94
573.71	54548.53
573.87	54415.11
574.03	54031.27
574.20	54288.73
574.36	53989.14
574.52	53712.95
574.68	53364.21
574.84	53118.46
575.01	52732.27
575.17	52732.27
575.33	52694.82
575.49	53399.32
575.65	53336.13
575.82	53029.52
575.98	52870.36
576.14	53069.31
576.30	53687.21
576.46	53605.29
576.62	53387.62
576.79	53378.26
576.95	53102.07
577.11	52971.00
577.27	52879.72
577.43	53113.78
577.59	52886.74
577.75	52505.24
577.92	51636.90
578.08	51571.36
578.24	51419.23
578.40	51723.50
578.56	52252.46
578.72	52158.84
578.88	52467.79
579.04	52573.11
579.21	52533.32
579.37	52418.64
579.53	52790.78
579.69	52734.61
579.85	52945.26
580.01	52935.90
580.17	52364.81
580.33	52016.07
580.49	52369.49
580.65	52376.51
580.82	52795.46
580.98	52662.05
581.14	52392.89
581.30	52832.91
581.46	52650.35
581.62	52790.78
581.78	52830.57
581.94	52872.70
582.10	53116.12
582.26	53310.38
582.42	52959.30
582.58	53174.63
582.74	52978.03
582.90	53106.76
583.06	52549.71
583.22	52645.67
583.38	52746.31
583.54	52514.60
583.70	52690.14
583.86	52652.69
584.02	52472.47
584.18	52299.27
584.34	52526.30
584.50	52271.18
584.66	52109.69
584.82	51866.27
584.98	51880.31
585.14	51297.52
585.30	50527.48
