SpectraSuite Data File
++++++++++++++++++++++++++++++++++++
Date: Mon Oct 07 14:53:01 GMT-05:00 2013
User: price-jones
Dark Spectrum Present: No
Reference Spectrum Present: No
Number of Sampled Component Spectra: 1
Spectrometers: USB2+H05261
Integration Time (usec): 100000 (USB2+H05261)
Spectra Averaged: 1 (USB2+H05261)
Boxcar Smoothing: 0 (USB2+H05261)
Correct for Electrical Dark: No (USB2+H05261)
Strobe/Lamp Enabled: No (USB2+H05261)
Correct for Detector Non-linearity: No (USB2+H05261)
Correct for Stray Light: No (USB2+H05261)
Number of Pixels in Processed Spectrum: 2048
>>>>>Begin Processed Spectral Data<<<<<
365.73	0.00
365.92	0.00
366.12	0.00
366.32	0.00
366.52	0.00
366.72	0.00
366.91	0.00
367.11	0.00
367.31	0.00
367.51	0.00
367.70	0.00
367.90	0.00
368.10	0.00
368.30	0.00
368.49	0.00
368.69	0.00
368.89	0.00
369.09	0.00
369.28	0.00
369.48	0.00
369.68	0.00
369.87	0.00
370.07	0.00
370.27	0.00
370.47	540.66
370.66	2860.13
370.86	3339.94
371.06	3716.77
371.25	3672.30
371.45	3321.22
371.65	3136.32
371.84	2672.89
372.04	2963.12
372.24	3297.81
372.44	3522.51
372.63	3522.51
372.83	3267.39
373.03	2862.48
373.22	2635.44
373.42	2679.91
373.62	3157.38
373.81	3405.48
374.01	3363.35
374.21	2995.89
374.40	2766.51
374.60	3047.38
374.79	3414.84
374.99	3943.80
375.19	4170.83
375.38	4187.22
375.58	3962.53
375.78	4018.70
375.97	3866.56
376.17	3997.64
376.37	4065.51
376.56	4238.71
376.76	4407.23
376.95	4676.39
377.15	5078.96
377.35	5280.25
377.54	5313.02
377.74	5549.41
377.93	5703.89
378.13	5446.43
378.33	5125.77
378.52	4819.16
378.72	4531.28
378.91	4411.91
379.11	4262.12
379.31	4170.83
379.50	4198.92
379.70	4587.45
379.89	5076.62
380.09	5373.87
380.28	5523.66
380.48	5514.30
380.68	5338.76
380.87	5181.95
381.07	4760.65
381.26	4664.69
381.46	4229.35
381.65	4156.79
381.85	3950.82
382.04	3747.20
382.24	3471.01
382.43	3339.94
382.63	3222.92
382.83	3370.37
383.02	3300.16
383.22	3281.43
383.41	3461.65
383.61	3478.04
383.80	4163.81
384.00	4596.81
384.19	5200.67
384.39	5537.71
384.58	5659.42
384.78	5355.15
384.97	5287.27
385.17	5050.88
385.36	4849.59
385.56	4608.51
385.75	4720.86
385.95	5280.25
386.14	5659.42
386.34	5621.97
386.53	5434.72
386.72	5071.94
386.92	5179.61
387.11	5474.51
387.31	5685.16
387.50	5511.96
387.70	5284.93
387.89	5294.29
388.09	5345.78
388.28	5301.31
388.48	5432.38
388.67	5699.20
388.86	6534.78
389.06	7000.54
389.25	7281.41
389.45	7330.56
389.64	7218.21
389.84	7138.63
390.03	7094.16
390.22	7323.54
390.42	7323.54
390.61	7829.09
390.81	8245.71
391.00	8437.63
391.19	8234.00
391.39	8084.21
391.58	7740.15
391.78	7164.38
391.97	6890.54
392.16	6403.71
392.36	5898.15
392.55	4688.09
392.75	3693.37
392.94	2979.50
393.13	3012.27
393.33	3623.15
393.52	4631.92
393.71	5724.95
393.91	6270.30
394.10	7037.99
394.29	7733.13
394.49	8362.73
394.68	9125.75
394.88	8905.74
395.07	9284.91
395.26	9252.14
395.46	8725.52
395.65	8358.05
395.84	7368.01
396.04	6160.29
396.23	4997.04
396.42	4121.68
396.62	4159.13
396.81	4660.01
397.00	6200.08
397.19	7681.64
397.39	9004.04
397.58	10235.16
397.77	10771.15
397.97	11386.71
398.16	11260.32
398.35	11674.59
398.55	11791.62
398.74	12264.41
398.93	12812.09
399.12	12372.07
399.32	12056.10
399.51	12215.26
399.70	13275.52
399.90	13004.02
400.09	12858.90
400.28	12840.18
400.47	13202.96
400.67	13664.05
400.86	14008.11
401.05	13839.59
401.24	13977.68
401.44	14202.37
401.63	14546.43
401.82	14492.60
402.01	14312.38
402.21	14530.05
402.40	14801.55
402.59	14197.69
402.78	13544.68
402.97	13268.50
403.17	13666.39
403.36	14356.85
403.55	15164.33
403.74	15260.29
403.93	14389.61
404.13	13518.93
404.32	13121.04
404.51	13839.59
404.70	14857.72
404.89	14796.87
405.09	14684.52
405.28	14523.02
405.47	14036.19
405.66	14127.47
405.85	13776.39
406.05	13797.46
406.24	13626.60
406.43	14190.67
406.62	14389.61
406.81	14663.46
407.00	14340.46
407.20	13855.97
407.39	14113.43
407.58	14602.60
407.77	15154.97
407.96	15807.98
408.15	15936.71
408.34	16018.63
408.54	17027.40
408.73	17132.72
408.92	16769.94
409.11	16072.46
409.30	15335.19
409.49	14445.79
409.68	13575.11
409.87	13179.56
410.07	14115.77
410.26	14916.23
410.45	16086.50
410.64	16439.92
410.83	16912.71
411.02	17472.10
411.21	18090.00
411.40	17874.67
411.59	17554.02
411.78	17645.30
411.98	17373.80
412.17	17919.14
412.36	17343.37
412.55	17607.85
412.74	17151.45
412.93	16805.05
413.12	17163.15
413.31	18672.79
413.50	18813.23
413.69	19311.76
413.88	18139.15
414.07	17745.94
414.26	18183.62
414.45	18689.18
414.64	18555.77
414.83	18827.27
415.02	18604.92
415.22	18590.88
415.41	19058.98
415.60	19377.30
415.79	20114.56
415.98	20812.04
416.17	20673.95
416.36	20107.54
416.55	19908.60
416.74	19489.64
416.93	18661.09
417.12	18436.40
417.31	18899.83
417.50	19363.25
417.69	19714.33
417.88	20004.56
418.07	19421.77
418.26	19140.90
418.45	19269.63
418.64	20247.97
418.83	20765.23
419.02	20372.02
419.21	20533.52
419.39	19487.30
419.58	18689.18
419.77	18623.64
419.96	19346.87
420.15	20758.21
420.34	21249.72
420.53	21879.33
420.72	22319.35
420.91	22387.22
421.10	21696.77
421.29	21678.04
421.48	21132.70
421.67	21905.07
421.86	21221.64
422.05	19562.20
422.24	17804.46
422.43	17771.69
422.61	19548.15
422.80	21006.31
422.99	21130.36
423.18	20538.20
423.37	19747.10
423.56	19995.20
423.75	20388.41
423.94	20952.48
424.13	19807.95
424.32	19840.72
424.50	19915.62
424.69	19506.02
424.88	19850.08
425.07	19768.16
425.26	19733.06
425.45	19559.86
425.64	19293.04
425.83	19405.38
426.01	20542.88
426.20	20987.58
426.39	20271.38
426.58	19222.82
426.77	17682.75
426.96	17341.03
427.15	17989.36
427.33	19440.49
427.52	20006.90
427.71	19875.83
427.90	19562.20
428.09	19789.23
428.28	19264.95
428.46	18623.64
428.65	18408.31
428.84	18808.54
429.03	19344.53
429.22	18218.73
429.40	17053.14
429.59	15557.54
429.78	13743.63
429.97	13666.39
430.16	14274.93
430.34	14113.43
430.53	13858.31
430.72	14616.65
430.91	15903.94
431.10	18541.72
431.28	21902.73
431.47	23864.10
431.66	24088.79
431.85	21759.96
432.03	20030.30
432.22	19103.45
432.41	19974.13
432.60	22377.86
432.79	23227.48
432.97	23625.37
433.16	23211.09
433.35	21139.72
433.54	18930.25
433.72	17841.90
433.91	18359.16
434.10	20840.13
434.28	21949.54
434.47	23414.72
434.66	22707.88
434.85	22235.09
435.03	22274.88
435.22	22955.97
435.41	24140.29
435.59	23978.79
435.78	24589.67
435.97	25099.90
436.16	25357.36
436.34	24716.06
436.53	24453.92
436.72	24084.11
436.90	22904.48
437.09	23428.76
437.28	22476.16
437.46	23449.83
437.65	23454.51
437.84	21638.25
438.02	20042.01
438.21	19997.54
438.40	21296.53
438.58	22967.68
438.77	23384.29
438.96	23730.69
439.14	24795.64
439.33	25212.25
439.52	25362.04
439.70	25319.92
439.89	24472.64
440.08	23985.81
440.26	23946.02
440.45	24833.08
440.63	26333.37
440.82	27260.22
441.01	27030.85
441.19	26747.64
441.38	27590.24
441.57	28283.03
441.75	28299.42
441.94	28980.51
442.12	28683.27
442.31	29167.76
442.50	29111.58
442.68	28858.81
442.87	28442.19
443.05	28037.28
443.24	28493.68
443.43	29024.98
443.61	29385.43
443.80	29813.74
443.98	28231.54
444.17	28355.59
444.35	29968.22
444.54	30515.90
444.73	30064.18
444.91	28964.13
445.10	27873.44
445.28	26380.18
445.47	26377.84
445.65	26536.99
445.84	27236.81
446.02	28177.71
446.21	28645.82
446.39	28320.48
446.58	29090.52
446.77	29090.52
446.95	29654.59
447.14	30263.13
447.32	31138.49
447.51	30190.57
447.69	29043.71
447.88	28624.75
448.06	29083.50
448.25	29991.62
448.43	30127.38
448.62	29488.41
448.80	29448.62
448.99	29521.18
449.17	29364.36
449.36	29694.38
449.54	30764.00
449.73	31335.09
449.91	31587.87
450.10	32807.29
450.28	32655.15
450.46	32762.82
450.65	33090.49
450.83	32290.03
451.02	31583.19
451.20	31763.41
451.39	31435.74
451.57	31550.42
451.76	31618.30
451.94	31730.64
452.13	30824.86
452.31	29134.99
452.49	27845.35
452.68	28666.88
452.86	28404.74
453.05	28975.83
453.23	29689.70
453.42	30380.15
453.60	30948.90
453.78	31480.21
453.97	30466.75
454.15	30941.88
454.34	30387.18
454.52	30682.08
454.70	29965.88
454.89	30466.75
455.07	30609.53
455.26	30925.50
455.44	32079.38
455.62	32596.64
455.81	32664.52
455.99	32430.46
456.17	32180.03
456.36	32687.92
456.54	32861.12
456.73	33254.33
456.91	33888.62
457.09	33991.60
457.28	34450.35
457.46	33102.20
457.64	32865.80
457.83	31545.74
458.01	31136.15
458.19	31910.86
458.38	32130.87
458.56	33319.87
458.74	32966.45
458.93	32732.39
459.11	32098.11
459.29	32123.85
459.48	32685.58
459.66	32182.37
459.84	32641.11
460.03	33177.09
460.21	32980.49
460.39	33699.03
460.57	33944.79
460.76	34047.77
460.94	34253.74
461.12	34169.48
461.31	34136.71
461.49	33865.21
461.67	33982.24
461.85	34927.81
462.04	34628.23
462.22	35061.22
462.40	34991.01
462.59	34670.36
462.77	35021.44
462.95	34862.28
463.13	34668.02
463.32	33977.56
463.50	34019.69
463.68	34106.29
463.86	34007.98
464.05	33228.59
464.23	32737.07
464.41	32620.05
464.59	32465.57
464.78	33933.09
464.96	33591.37
465.14	33450.94
465.32	34401.19
465.50	34918.45
465.69	35501.25
465.87	34792.06
466.05	33670.95
466.23	32243.22
466.41	31625.32
466.60	32341.52
466.78	32428.12
466.96	32900.91
467.14	33418.17
467.32	33886.28
467.51	34143.74
467.69	32287.69
467.87	33479.02
468.05	34005.64
468.23	33663.93
468.41	33996.28
468.60	34132.03
468.78	34536.94
468.96	33511.79
469.14	34366.09
469.32	34504.18
469.50	33380.72
469.69	33455.62
469.87	32996.87
470.05	32584.94
470.23	32622.39
470.41	32957.08
470.59	33535.20
470.77	33235.61
470.95	34359.06
471.14	34396.51
471.32	34403.53
471.50	36261.92
471.68	36727.69
471.86	37425.17
472.04	36737.05
472.22	37076.43
472.40	35555.08
472.58	35143.14
472.77	34843.56
472.95	35517.63
473.13	36566.19
473.31	35644.02
473.49	35634.66
473.67	36381.29
473.85	36797.90
474.03	37504.74
474.21	37872.21
474.39	38251.38
474.57	37951.79
474.75	38031.36
474.93	37752.84
475.12	36685.56
475.30	36807.26
475.48	37090.47
475.66	37387.72
475.84	37205.16
476.02	36830.67
476.20	36194.04
476.38	36931.31
476.56	38209.25
476.74	38672.67
476.92	39452.07
477.10	39594.84
477.28	40685.53
477.46	40577.87
477.64	41055.34
477.82	40987.46
478.00	41596.00
478.18	41078.74
478.36	40421.05
478.54	40779.15
478.72	40739.36
478.90	41872.18
479.08	43002.66
479.26	43241.40
479.44	42986.28
479.62	43297.57
479.80	43210.97
479.98	43496.52
480.16	43573.75
480.34	43019.05
480.52	43091.60
480.70	43739.93
480.88	43538.65
481.06	44800.19
481.24	44505.29
481.41	45567.89
481.59	46305.16
481.77	46068.76
481.95	45436.82
482.13	45289.37
482.31	45563.21
482.49	45687.26
482.67	46078.13
482.85	45968.12
483.03	46501.76
483.21	46859.87
483.39	47248.39
483.57	46358.99
483.74	46094.51
483.92	46679.64
484.10	46256.01
484.28	47398.19
484.46	47775.02
484.64	48196.31
484.82	46923.06
485.00	46831.78
485.18	46146.00
485.35	44898.50
485.53	41446.21
485.71	37876.89
485.89	37841.78
486.07	39632.29
486.25	42897.34
486.43	45240.21
486.61	45911.95
486.78	45659.17
486.96	46075.79
487.14	47955.24
487.32	48727.61
487.50	49656.81
487.68	50557.91
487.85	51030.70
488.03	50859.84
488.21	50607.06
488.39	49656.81
488.57	49081.03
488.75	48671.44
488.92	50103.85
489.10	52416.30
489.28	53584.22
489.46	54157.66
489.64	53771.47
489.81	53998.50
489.99	53902.54
490.17	53895.52
490.35	54152.97
490.53	53492.94
490.70	53408.68
490.88	53106.76
491.06	53984.46
491.24	54026.59
491.41	52786.10
491.59	51517.53
491.77	50838.78
491.95	51957.55
492.13	53055.26
492.30	54319.15
492.48	55140.68
492.66	55587.72
492.84	55426.23
493.01	55297.50
493.19	54611.72
493.37	54478.31
493.54	53958.71
493.72	54798.96
493.90	55901.36
494.08	56472.45
494.25	56587.13
494.43	56629.26
494.61	57200.35
494.79	57483.56
494.96	56989.70
495.14	56528.62
495.32	55772.63
495.49	55222.60
495.67	56233.71
495.85	57333.76
496.02	57771.44
496.20	57542.07
496.38	56952.26
496.55	57240.14
496.73	57593.56
496.91	57670.80
497.09	58007.84
497.26	58401.05
497.44	57799.53
497.62	57209.71
497.79	56617.56
497.97	55398.14
498.14	55784.33
498.32	56774.37
498.50	57691.86
498.67	58113.16
498.85	58145.93
499.03	58134.23
499.20	58506.37
499.38	58391.68
499.56	58080.39
499.73	57741.02
499.91	57485.90
500.08	56655.01
500.26	56245.41
500.44	56882.04
500.61	57223.76
500.79	57106.73
500.97	56743.95
501.14	56629.26
501.32	56535.64
501.49	56554.36
501.67	56788.42
501.84	57350.15
502.02	57607.61
502.20	57883.79
502.37	58005.50
502.55	57939.96
502.72	58616.38
502.90	59086.82
503.07	58742.77
503.25	58286.36
503.43	57272.91
503.60	56863.32
503.78	56275.84
503.95	56732.25
504.13	58157.63
504.30	58887.88
504.48	58611.70
504.65	58307.43
504.83	58438.50
505.01	59175.76
505.18	59302.15
505.36	59887.29
505.53	59936.44
505.71	60111.98
505.88	60013.68
506.06	59484.72
506.23	59164.06
506.41	59018.95
506.58	58958.09
506.76	59011.93
506.93	59063.42
507.11	58812.98
507.28	58969.80
507.46	58452.54
507.63	58307.43
507.81	57883.79
507.98	58047.63
508.16	58632.76
508.33	59161.72
508.50	59753.88
508.68	59707.07
508.85	60313.26
509.03	60236.03
509.20	60037.08
509.38	58962.78
509.55	58834.05
509.73	58749.79
509.90	59267.05
510.08	59625.15
510.25	59515.14
510.42	59152.36
510.60	59203.85
510.77	59580.68
510.95	59934.10
511.12	60299.22
511.30	60388.16
511.47	60601.15
511.64	60624.56
511.82	60341.35
511.99	59419.18
512.17	59086.82
512.34	58890.22
512.51	58815.32
512.69	59274.07
512.86	59206.19
513.04	59678.98
513.21	59601.74
513.38	59367.69
513.56	58782.55
513.73	57925.92
513.90	58492.33
514.08	58822.34
514.25	58618.72
514.43	59032.99
514.60	59220.23
514.77	59341.94
514.95	59222.58
515.12	59283.43
515.29	59487.06
515.47	59894.31
515.64	59938.78
515.81	59620.47
515.99	59114.91
516.16	57766.76
516.33	55578.36
516.51	54192.76
516.68	53598.27
516.85	53235.48
517.03	53862.75
517.20	56324.99
517.37	58403.39
517.54	59320.88
517.72	58960.44
517.89	56268.82
518.06	54295.75
518.24	54857.48
518.41	56914.81
518.58	57883.79
518.75	58192.74
518.93	58272.32
519.10	58534.46
519.27	58986.18
519.45	58897.24
519.62	59559.61
519.79	60053.47
519.96	59664.94
520.14	59381.73
520.31	58464.24
520.48	58665.53
520.65	59061.08
520.83	59760.90
521.00	60034.74
521.17	59730.47
521.34	59238.96
521.52	59707.07
521.69	60346.03
521.86	60622.22
522.03	60140.07
522.20	59124.27
522.38	58248.91
522.55	58241.89
522.72	58908.94
522.89	58976.82
523.07	59367.69
523.24	59461.31
523.41	60090.91
523.58	60769.67
523.75	60825.84
523.92	60701.79
524.10	60720.52
524.27	60776.69
524.44	60598.81
524.61	60292.20
524.78	60182.19
524.96	60156.45
525.13	60219.64
525.30	60491.15
525.47	60828.18
525.64	60760.31
525.81	60147.09
525.98	58571.91
526.16	57481.22
526.33	56886.72
526.50	56584.79
526.67	56170.52
526.84	56809.48
527.01	57954.00
527.18	58452.54
527.36	59164.06
527.53	59943.46
527.70	60369.44
527.87	59625.15
528.04	59470.67
528.21	60097.94
528.38	60514.55
528.55	61092.66
528.72	61087.98
528.89	61200.33
529.07	61029.47
529.24	60371.78
529.41	59894.31
529.58	59468.33
529.75	59693.02
529.92	59985.59
530.09	60385.82
530.26	60837.54
530.43	60999.04
530.60	61148.84
530.77	61305.65
530.94	61165.22
531.11	60912.44
531.28	60549.66
531.46	60289.86
531.63	60430.29
531.80	60374.12
531.97	59931.76
532.14	59505.78
532.31	58117.84
532.48	57675.48
532.65	58031.24
532.82	58768.51
532.99	59819.41
533.16	60013.68
533.33	60463.06
533.50	60498.17
533.67	59812.39
533.84	59449.61
534.01	59578.34
534.18	59788.98
534.35	59868.56
534.52	59810.05
534.69	60041.76
534.86	60027.72
535.03	60336.67
535.20	60917.12
535.37	61116.07
535.54	61427.36
535.71	61008.40
535.88	60692.43
536.05	60013.68
536.22	59627.49
536.38	59498.76
536.55	59056.40
536.72	58508.71
536.89	58349.56
537.06	59487.06
537.23	60186.88
537.40	60238.37
537.57	60320.29
537.74	59985.59
537.91	59985.59
538.08	60107.30
538.25	60109.64
538.42	60158.79
538.59	60004.31
538.75	59421.52
538.92	59210.87
539.09	59082.14
539.26	59058.74
539.43	58745.11
539.60	58937.03
539.77	59295.13
539.94	58848.09
540.11	58024.22
540.28	57825.28
540.44	57923.58
540.61	58012.52
540.78	58377.64
540.95	58700.64
541.12	58913.62
541.29	59290.45
541.46	59711.75
541.62	59678.98
541.79	59552.59
541.96	58625.74
542.13	58934.69
542.30	59395.77
542.47	59330.24
542.63	59185.13
542.80	58726.38
542.97	59124.27
543.14	58983.84
543.31	58951.07
543.48	59194.49
543.64	60062.83
543.81	60552.00
543.98	60245.39
544.15	59540.89
544.32	59147.68
544.48	59187.47
544.65	59709.41
544.82	59964.52
544.99	59566.63
545.16	59234.28
545.32	59224.92
545.49	59704.73
545.66	60119.00
545.83	59742.17
546.00	59409.82
546.16	59178.10
546.33	59084.48
546.50	59365.35
546.67	59674.30
546.83	59117.25
547.00	59248.32
547.17	58702.98
547.34	58244.23
547.50	58204.44
547.67	58630.42
547.84	58417.43
548.00	58960.44
548.17	59372.37
548.34	59276.41
548.51	59164.06
548.67	59269.39
548.84	59430.88
549.01	59217.89
549.18	59061.08
549.34	59032.99
549.51	59025.97
549.68	59255.34
549.84	59016.61
550.01	58695.95
550.18	58817.66
550.34	58789.58
550.51	58885.54
550.68	58897.24
550.84	58431.47
551.01	58475.94
551.18	58515.73
551.34	58770.85
551.51	58967.46
551.68	59358.33
551.84	59409.82
552.01	59117.25
552.18	59035.33
552.34	58157.63
552.51	57993.79
552.68	57799.53
552.84	58351.90
553.01	58733.40
553.18	58419.77
553.34	58281.68
553.51	58635.10
553.67	59011.93
553.84	59110.23
554.01	58726.38
554.17	58831.71
554.34	58852.77
554.51	59157.04
554.67	59419.18
554.84	59238.96
555.00	58618.72
555.17	58440.84
555.33	58670.21
555.50	58543.82
555.67	58695.95
555.83	58646.80
556.00	58152.95
556.16	58122.52
556.33	57738.68
556.50	57478.88
556.66	57572.50
556.83	57495.26
556.99	57392.28
557.16	57588.88
557.32	58049.97
557.49	58038.26
557.65	57951.66
557.82	58033.58
557.98	57806.55
558.15	57221.42
558.32	56547.34
558.48	55952.85
558.65	56205.62
558.81	56474.79
558.98	57017.79
559.14	56978.00
559.31	56736.93
559.47	57008.43
559.64	56680.75
559.80	56481.81
559.97	56507.55
560.13	57162.90
560.30	57925.92
560.46	58157.63
560.63	58585.95
560.79	58489.99
560.96	58120.18
561.12	56919.49
561.29	56130.73
561.45	56348.40
561.61	56743.95
561.78	57373.55
561.94	57064.60
562.11	57120.77
562.27	56898.42
562.44	57247.16
562.60	57441.43
562.77	57801.87
562.93	57389.94
563.10	57399.30
563.26	56872.68
563.42	56882.04
563.59	56809.48
563.75	56853.95
563.92	56919.49
564.08	56952.26
564.24	57006.09
564.41	56818.84
564.57	57106.73
564.74	56804.80
564.90	56797.78
565.07	56411.59
565.23	56182.22
565.39	55693.05
565.56	55650.92
565.72	55377.08
565.88	55714.11
566.05	55594.74
566.21	55992.64
566.38	56210.31
566.54	55985.61
566.70	56411.59
566.87	56626.92
567.03	56779.06
567.19	56919.49
567.36	56849.27
567.52	56530.96
567.68	56200.94
567.85	55686.03
568.01	55304.52
568.17	54894.92
568.34	55231.96
568.50	55117.28
568.66	55161.75
568.83	55407.50
568.99	55278.77
569.15	55800.71
569.32	55866.25
569.48	55550.27
569.64	55187.49
569.81	54841.09
569.97	54908.97
570.13	54768.54
570.30	54387.03
570.46	54066.38
570.62	53628.69
570.78	53354.85
570.95	53961.05
571.11	54562.57
571.27	54499.37
571.43	54885.56
571.60	55423.89
571.76	55316.22
571.92	55356.01
572.09	55662.62
572.25	55650.92
572.41	55774.97
572.57	55576.02
572.74	55618.15
572.90	55121.96
573.06	55150.04
573.22	55215.58
573.38	55234.30
573.55	55047.06
573.71	55283.45
573.87	55243.66
574.03	54866.84
574.20	55168.77
574.36	54642.15
574.52	54464.27
574.68	54085.10
574.84	53764.45
575.01	53680.19
575.17	53481.24
575.33	54178.72
575.49	53883.81
575.65	54340.22
575.82	54216.17
575.98	53829.98
576.14	53947.01
576.30	54295.75
576.46	54241.92
576.62	54368.30
576.79	54152.97
576.95	54073.40
577.11	54092.12
577.27	54106.16
577.43	53989.14
577.59	53549.12
577.75	53097.39
577.92	52919.51
578.08	52467.79
578.24	52556.73
578.40	52968.66
578.56	53113.78
578.72	53137.18
578.88	53523.37
579.04	53670.82
579.21	53642.74
579.37	53694.23
579.53	53825.30
579.69	53675.51
579.85	53703.59
580.01	53455.50
580.17	52931.22
580.33	52982.71
580.49	52982.71
580.65	53558.48
580.82	53731.68
580.98	53542.10
581.14	53350.17
581.30	53574.86
581.46	53361.87
581.62	53670.82
581.78	53844.02
581.94	54148.29
582.10	53759.76
582.26	54028.93
582.42	53815.94
582.58	53729.34
582.74	53844.02
582.90	53666.14
583.06	53865.09
583.22	53710.61
583.38	53469.54
583.54	53553.80
583.70	53352.51
583.86	53616.99
584.02	53375.92
584.18	53322.08
584.34	53275.27
584.50	53251.87
584.66	53235.48
584.82	52626.95
584.98	52772.06
585.14	52509.92
585.30	51597.11
