SpectraSuite Data File
++++++++++++++++++++++++++++++++++++
Date: Mon Oct 07 14:53:57 GMT-05:00 2013
User: price-jones
Dark Spectrum Present: No
Reference Spectrum Present: No
Number of Sampled Component Spectra: 1
Spectrometers: USB2+H05261
Integration Time (usec): 100000 (USB2+H05261)
Spectra Averaged: 1 (USB2+H05261)
Boxcar Smoothing: 0 (USB2+H05261)
Correct for Electrical Dark: No (USB2+H05261)
Strobe/Lamp Enabled: No (USB2+H05261)
Correct for Detector Non-linearity: No (USB2+H05261)
Correct for Stray Light: No (USB2+H05261)
Number of Pixels in Processed Spectrum: 2048
>>>>>Begin Processed Spectral Data<<<<<
365.73	0.00
365.92	0.00
366.12	0.00
366.32	0.00
366.52	0.00
366.72	0.00
366.91	0.00
367.11	0.00
367.31	0.00
367.51	0.00
367.70	0.00
367.90	0.00
368.10	0.00
368.30	0.00
368.49	0.00
368.69	0.00
368.89	0.00
369.09	0.00
369.28	0.00
369.48	0.00
369.68	0.00
369.87	0.00
370.07	0.00
370.27	0.00
370.47	1310.70
370.66	5900.49
370.86	6750.10
371.06	7295.45
371.25	7145.66
371.45	6478.60
371.65	5729.63
371.84	5584.52
372.04	6031.56
372.24	6387.32
372.44	6787.55
372.63	6621.38
372.83	6073.69
373.03	5210.03
373.22	5060.24
373.42	5252.16
373.62	5980.07
373.81	6567.54
374.01	6380.30
374.21	5832.62
374.40	5483.88
374.60	5811.55
374.79	6581.59
374.99	7522.48
375.19	7885.26
375.38	8063.15
375.58	7517.80
375.78	7307.15
375.97	7531.84
376.17	7775.26
376.37	7695.68
376.56	8077.19
376.76	8353.37
376.95	8627.21
377.15	9226.39
377.35	9610.24
377.54	10127.50
377.74	10399.00
377.93	10445.81
378.13	10204.74
378.33	9476.83
378.52	8968.93
378.72	8383.80
378.91	8486.78
379.11	7978.89
379.31	7857.18
379.50	7992.93
379.70	8517.21
379.89	9289.59
380.09	9902.81
380.28	10176.65
380.48	9898.13
380.68	9804.50
380.87	9439.38
381.07	8760.63
381.26	8252.73
381.46	7485.03
381.65	7510.78
381.85	7023.95
382.04	6832.02
382.24	6408.39
382.43	6188.38
382.63	6047.94
382.83	6024.54
383.02	6106.46
383.22	6155.61
383.41	6214.12
383.61	6588.61
383.80	7489.71
384.00	8428.27
384.19	9418.32
384.39	9802.16
384.58	9717.90
384.78	9516.62
384.97	9277.88
385.17	8699.77
385.36	8322.94
385.56	8182.51
385.75	8498.49
385.95	9296.61
386.14	10078.35
386.34	9753.01
386.53	9589.17
386.72	8872.97
386.92	8987.66
387.11	9481.51
387.31	9720.24
387.50	9858.34
387.70	9427.68
387.89	9109.36
388.09	9352.78
388.28	9385.55
388.48	9577.47
388.67	10178.99
388.86	11318.83
389.06	12035.03
389.25	12727.83
389.45	12477.40
389.64	12746.56
389.84	12409.52
390.03	12194.19
390.22	12173.13
390.42	12786.35
390.61	13397.23
390.81	14576.86
391.00	14700.90
391.19	14523.02
391.39	13944.91
391.58	12870.61
391.78	12308.88
391.97	11953.12
392.16	11143.29
392.36	10111.11
392.55	8116.98
392.75	6403.71
392.94	5418.34
393.13	5315.36
393.33	6282.00
393.52	8046.76
393.71	9788.12
393.91	10857.75
394.10	12056.10
394.29	12903.37
394.49	13888.74
394.68	15211.14
394.88	15110.50
395.07	15571.58
395.26	15286.04
395.46	14991.13
395.65	13724.90
395.84	11913.33
396.04	10120.48
396.23	8334.65
396.42	7180.76
396.62	6836.70
396.81	8060.80
397.00	10181.33
397.19	12765.28
397.39	15070.71
397.58	17106.98
397.77	17855.95
397.97	18789.82
398.16	19239.20
398.35	19674.54
398.55	19758.80
398.74	20809.70
398.93	21432.29
399.12	21076.52
399.32	20065.41
399.51	20596.71
399.70	21699.11
399.90	21488.46
400.09	21530.59
400.28	21488.46
400.47	21486.12
400.67	22553.40
400.86	23257.90
401.05	22918.53
401.24	23206.41
401.44	23779.84
401.63	23798.57
401.82	23840.70
402.01	23564.51
402.21	23723.67
402.40	24051.34
402.59	22792.14
402.78	22284.24
402.97	21610.17
403.17	22328.71
403.36	23583.24
403.55	24694.99
403.74	24980.54
403.93	23463.87
404.13	21841.88
404.32	21755.28
404.51	22590.85
404.70	24063.05
404.89	24027.94
405.09	23751.76
405.28	23290.67
405.47	22960.66
405.66	22834.27
405.85	22185.94
406.05	21891.03
406.24	21916.78
406.43	22955.97
406.62	23939.00
406.81	24203.48
407.00	22911.50
407.20	22834.27
407.39	23185.35
407.58	23850.06
407.77	24720.74
407.96	25741.21
408.15	25532.90
408.34	25844.20
408.54	27054.25
408.73	27105.74
408.92	26422.31
409.11	25792.70
409.30	24514.77
409.49	23115.13
409.68	21654.64
409.87	21549.31
410.07	22731.28
410.26	23957.72
410.45	25450.99
410.64	26333.37
410.83	26668.06
411.02	27615.98
411.21	28203.46
411.40	27995.15
411.59	28367.29
411.78	27924.93
411.98	27892.16
412.17	28048.98
412.36	27730.67
412.55	27793.86
412.74	27505.98
412.93	26513.59
413.12	26635.30
413.31	29076.48
413.50	29102.22
413.69	29764.59
413.88	28739.44
414.07	27910.89
414.26	28622.41
414.45	29244.99
414.64	29663.95
414.83	29722.46
415.02	28795.61
415.22	29029.66
415.41	29207.55
415.60	30300.58
415.79	31452.12
415.98	32573.24
416.17	32091.09
416.36	31559.78
416.55	30923.16
416.74	29811.40
416.93	29008.60
417.12	28795.61
417.31	29504.79
417.50	29710.76
417.69	31016.78
417.88	30817.83
418.07	30242.06
418.26	29928.43
418.45	30103.97
418.64	31674.47
418.83	32416.42
419.02	32173.00
419.21	31463.82
419.39	30094.61
419.58	28879.87
419.77	28978.17
419.96	30106.31
420.15	32322.80
420.34	32498.34
420.53	33893.30
420.72	34440.98
420.91	34305.23
421.10	34043.09
421.29	33851.17
421.48	32442.17
421.67	33720.10
421.86	32891.55
422.05	30628.25
422.24	27669.81
422.43	27365.54
422.61	30206.95
422.80	32343.86
422.99	32786.22
423.18	31917.89
423.37	31243.81
423.56	31164.23
423.75	31491.91
423.94	32060.66
424.13	30316.96
424.32	30515.90
424.50	30923.16
424.69	30164.82
424.88	30396.54
425.07	30422.28
425.26	30354.41
425.45	29703.74
425.64	29514.16
425.83	29752.89
426.01	31278.92
426.20	32063.00
426.39	31292.96
426.58	29652.25
426.77	27358.52
426.96	26324.01
427.15	26984.04
427.33	29696.72
427.52	30539.31
427.71	30911.46
427.90	30361.43
428.09	29567.99
428.28	29188.82
428.46	28559.22
428.65	27828.97
428.84	28552.20
429.03	29111.58
429.22	27562.15
429.40	26192.94
429.59	23679.20
429.78	20915.03
429.97	20886.94
430.16	21584.42
430.34	21434.63
430.53	21020.35
430.72	21813.79
430.91	24414.13
431.10	28259.63
431.28	33357.32
431.47	35463.80
431.66	36259.58
431.85	32767.50
432.03	30438.67
432.22	29418.19
432.41	30066.52
432.60	33572.64
432.79	34792.06
432.97	35503.59
433.16	34408.22
433.35	31835.97
433.54	28985.19
433.72	26995.74
433.91	27981.10
434.10	31122.10
434.28	33200.50
434.47	34581.42
434.66	34284.17
434.85	32809.63
435.03	33464.98
435.22	34265.44
435.41	35892.12
435.59	35955.31
435.78	36041.91
435.97	37368.99
436.16	37521.13
436.34	37170.05
436.53	35798.49
436.72	36128.51
436.90	34579.07
437.09	34281.83
437.28	33909.68
437.46	34642.27
437.65	34525.24
437.84	32577.92
438.02	29783.32
438.21	29862.90
438.40	31339.77
438.58	33935.43
438.77	34586.10
438.96	35126.76
439.14	36559.17
439.33	36914.93
439.52	37645.18
439.70	36938.33
439.89	36151.91
440.08	35400.60
440.26	35084.63
440.45	36397.67
440.63	38923.11
440.82	40467.86
441.01	39976.35
441.19	39641.65
441.38	40091.04
441.57	41071.72
441.75	42213.90
441.94	42419.87
442.12	41656.85
442.31	42576.69
442.50	42501.79
442.68	41935.38
442.87	41598.34
443.05	40968.74
443.24	41312.80
443.43	42583.71
443.61	43061.18
443.80	43201.61
443.98	41268.33
444.17	41411.10
444.35	43665.03
444.54	44240.81
444.73	43772.70
444.91	41949.42
445.10	40327.43
445.28	38637.56
445.47	38103.92
445.65	38457.34
445.84	39555.05
446.02	40493.61
446.21	40832.99
446.39	41364.29
446.58	41979.85
446.77	42583.71
446.95	42698.39
447.14	43700.14
447.32	44186.97
447.51	43700.14
447.69	42244.33
447.88	41368.97
448.06	42155.39
448.25	43194.59
448.43	43379.49
448.62	42101.56
448.80	42312.20
448.99	42267.73
449.17	42897.34
449.36	42981.60
449.54	44378.90
449.73	44718.28
449.91	45233.19
450.10	46274.73
450.28	46637.51
450.46	46291.12
450.65	46824.76
450.83	46473.68
451.02	45448.52
451.20	45436.82
451.39	45275.32
451.57	45022.54
451.76	44531.03
451.94	44842.32
452.13	43889.73
452.31	42267.73
452.49	40350.84
452.68	41120.87
452.86	40641.06
453.05	41591.32
453.23	42885.64
453.42	43627.59
453.60	43966.96
453.78	44367.20
453.97	44032.50
454.15	44538.05
454.34	43091.60
454.52	43690.78
454.70	42576.69
454.89	43175.86
455.07	43166.50
455.26	43952.92
455.44	45446.18
455.62	46176.43
455.81	46391.76
455.99	46417.50
456.17	45464.91
456.36	45535.12
456.54	46602.41
456.73	46721.77
456.91	47526.92
457.09	47540.96
457.28	48512.28
457.46	46485.38
457.64	46227.92
457.83	44914.88
458.01	44114.42
458.19	45483.63
458.38	45581.93
458.56	46813.05
458.74	46836.46
458.93	45897.91
459.11	45979.82
459.29	45471.93
459.48	45294.05
459.66	45502.35
459.84	45914.29
460.03	46248.99
460.21	46253.67
460.39	47140.73
460.57	47405.21
460.76	47714.16
460.94	47601.82
461.12	47302.23
461.31	47522.24
461.49	46920.72
461.67	47016.68
461.85	49102.10
462.04	48413.98
462.22	48751.02
462.40	48465.47
462.59	47955.24
462.77	48322.70
462.95	48140.14
463.13	47454.36
463.32	47239.03
463.50	46923.06
463.68	47133.71
463.86	46979.23
464.05	46237.28
464.23	45797.26
464.41	45078.72
464.59	44472.52
464.78	47028.38
464.96	46263.03
465.14	46480.70
465.32	47491.81
465.50	48046.52
465.69	48603.56
465.87	47430.96
466.05	46719.43
466.23	44786.15
466.41	43861.64
466.60	45160.64
466.78	44907.86
466.96	45724.71
467.14	46431.55
467.32	46424.53
467.51	46731.14
467.69	44676.15
467.87	45766.84
468.05	46513.47
468.23	46162.39
468.41	46597.73
468.60	46665.60
468.78	47030.72
468.96	46476.02
469.14	47082.22
469.32	47421.59
469.50	45652.15
469.69	46131.96
469.87	45076.38
470.05	45305.75
470.23	45294.05
470.41	45263.62
470.59	45876.84
470.77	45837.05
470.95	47014.34
471.14	47243.71
471.32	46885.61
471.50	49413.39
471.68	49404.03
471.86	49539.78
472.04	49806.60
472.22	49755.11
472.40	47983.32
472.58	47594.79
472.77	46953.49
472.95	48320.36
473.13	48954.64
473.31	47945.87
473.49	48488.88
473.67	48786.13
473.85	48952.30
474.03	50157.68
474.21	50162.36
474.39	50623.45
474.57	50646.85
474.75	50731.11
474.93	49776.17
475.12	49497.65
475.30	49654.47
475.48	49481.27
475.66	50103.85
475.84	49745.75
476.02	49359.56
476.20	48748.68
476.38	49607.65
476.56	50412.80
476.74	51065.81
476.92	51011.98
477.10	51774.99
477.28	52652.69
477.46	52491.19
477.64	52633.97
477.82	52940.58
478.00	53141.86
478.18	52729.93
478.36	52526.30
478.54	52446.72
478.72	53029.52
478.90	53394.64
479.08	54101.48
479.26	54646.83
479.44	54557.89
479.62	54536.82
479.80	54447.88
479.98	54588.31
480.16	54843.43
480.34	54265.32
480.52	54691.30
480.70	54864.50
480.88	54667.89
481.06	55657.94
481.24	55615.81
481.41	56172.86
481.59	56329.67
481.77	56376.48
481.95	55962.21
482.13	55856.88
482.31	55915.40
482.49	56357.76
482.67	56193.92
482.85	56299.25
483.03	56575.43
483.21	57132.48
483.39	57249.50
483.57	56582.45
483.74	56179.88
483.92	56456.06
484.10	56416.27
484.28	57291.63
484.46	57563.14
484.64	57717.61
484.82	57181.63
485.00	57055.24
485.18	56612.88
485.35	55679.00
485.53	53076.33
485.71	49947.03
485.89	49148.91
486.07	51222.62
486.25	54049.99
486.43	55847.52
486.61	56222.01
486.78	56086.26
486.96	56430.32
487.14	57506.96
487.32	57726.97
487.50	58405.73
487.68	59325.56
487.85	59693.02
488.03	59587.70
488.21	59337.26
488.39	58721.70
488.57	58536.80
488.75	58042.95
488.92	58780.21
489.10	60603.49
489.28	61418.00
489.46	61991.43
489.64	61670.78
489.81	61811.21
489.99	61661.41
490.17	61640.35
490.35	61769.08
490.53	61577.15
490.70	61148.84
490.88	61202.67
491.06	61783.12
491.24	61733.97
491.41	60912.44
491.59	59934.10
491.77	59526.84
491.95	60060.49
492.13	61188.63
492.30	62010.15
492.48	62691.25
492.66	62953.39
492.84	62763.81
493.01	62658.48
493.19	62408.04
493.37	62197.40
493.54	62040.58
493.72	62611.67
493.90	63339.58
494.08	63898.97
494.25	64147.06
494.43	64065.14
494.61	64385.80
494.79	64399.84
494.96	64420.90
495.14	63833.43
495.32	63096.16
495.49	62487.62
495.67	63414.47
495.85	64554.32
496.02	64999.02
496.20	64736.88
496.38	64193.87
496.55	64034.72
496.73	64699.43
496.91	64678.36
497.09	65279.88
497.26	65378.18
497.44	64884.33
497.62	64551.98
497.79	63784.28
497.97	62801.25
498.14	63047.01
498.32	63751.51
498.50	64362.39
498.67	64989.66
498.85	64928.80
499.03	65059.87
499.20	65064.55
499.38	65155.83
499.56	65010.72
499.73	64603.47
499.91	64498.14
500.08	63795.98
500.26	63262.34
500.44	63859.18
500.61	64350.69
500.79	64282.81
500.97	63915.35
501.14	63678.96
501.32	63629.80
501.49	63667.25
501.67	63767.90
501.84	64287.49
502.02	64570.70
502.20	64535.59
502.37	64844.54
502.55	64800.07
502.72	65399.25
502.90	65535.00
503.07	65359.46
503.25	64872.63
503.43	64292.18
503.60	63831.09
503.78	63260.00
503.95	63580.65
504.13	64718.15
504.30	65476.49
504.48	65361.80
504.65	64905.40
504.83	65158.17
505.01	65535.00
505.18	65535.00
505.36	65535.00
505.53	65535.00
505.71	65535.00
505.88	65535.00
506.06	65535.00
506.23	65535.00
506.41	65408.61
506.58	65535.00
506.76	65520.96
506.93	65535.00
507.11	65476.49
507.28	65532.66
507.46	65151.15
507.63	64500.48
507.81	64355.37
507.98	64605.81
508.16	65197.96
508.33	65535.00
508.50	65535.00
508.68	65535.00
508.85	65535.00
509.03	65535.00
509.20	65535.00
509.38	65535.00
509.55	65181.58
509.73	65329.03
509.90	65535.00
510.08	65535.00
510.25	65535.00
510.42	65535.00
510.60	65535.00
510.77	65535.00
510.95	65535.00
511.12	65535.00
511.30	65535.00
511.47	65535.00
511.64	65535.00
511.82	65535.00
511.99	65535.00
512.17	65535.00
512.34	65270.52
512.51	65497.55
512.69	65535.00
512.86	65535.00
513.04	65535.00
513.21	65535.00
513.38	65535.00
513.56	65392.23
513.73	64874.97
513.90	64877.31
514.08	64879.65
514.25	65167.54
514.43	65352.44
514.60	65424.99
514.77	65535.00
514.95	65535.00
515.12	65535.00
515.29	65535.00
515.47	65535.00
515.64	65535.00
515.81	65535.00
515.99	65535.00
516.16	64439.63
516.33	62520.39
516.51	61403.95
516.68	60542.64
516.85	60271.14
517.03	60680.73
517.20	63091.48
517.37	64877.31
517.54	65535.00
517.72	65251.80
517.89	63128.93
518.06	61172.24
518.24	61645.03
518.41	63210.85
518.58	64413.88
518.75	64547.29
518.93	64603.47
519.10	64654.96
519.27	64924.12
519.45	65071.57
519.62	65535.00
519.79	65535.00
519.96	65535.00
520.14	65530.32
520.31	64755.60
520.48	64839.86
520.65	65141.79
520.83	65535.00
521.00	65535.00
521.17	65535.00
521.34	65535.00
521.52	65535.00
521.69	65535.00
521.86	65535.00
522.03	65535.00
522.20	65504.57
522.38	64610.49
522.55	64474.74
522.72	65106.68
522.89	65134.77
523.07	65202.64
523.24	65535.00
523.41	65535.00
523.58	65535.00
523.75	65535.00
523.92	65535.00
524.10	65535.00
524.27	65535.00
524.44	65535.00
524.61	65535.00
524.78	65535.00
524.96	65535.00
525.13	65535.00
525.30	65535.00
525.47	65535.00
525.64	65535.00
525.81	65535.00
525.98	64907.74
526.16	63557.25
526.33	63215.53
526.50	62862.11
526.67	62592.95
526.84	63245.96
527.01	63744.49
527.18	64732.20
527.36	65265.84
527.53	65535.00
527.70	65535.00
527.87	65535.00
528.04	65340.74
528.21	65535.00
528.38	65535.00
528.55	65535.00
528.72	65535.00
528.89	65535.00
529.07	65535.00
529.24	65535.00
529.41	65535.00
529.58	65364.14
529.75	65455.42
529.92	65535.00
530.09	65535.00
530.26	65535.00
530.43	65535.00
530.60	65535.00
530.77	65535.00
530.94	65535.00
531.11	65535.00
531.28	65535.00
531.46	65535.00
531.63	65535.00
531.80	65535.00
531.97	65535.00
532.14	65141.79
532.31	64168.13
532.48	63753.85
532.65	63791.30
532.82	64423.25
532.99	65471.81
533.16	65535.00
533.33	65535.00
533.50	65535.00
533.67	65535.00
533.84	64870.29
534.01	65167.54
534.18	65382.87
534.35	65506.91
534.52	65432.02
534.69	65535.00
534.86	65535.00
535.03	65535.00
535.20	65535.00
535.37	65535.00
535.54	65535.00
535.71	65535.00
535.88	65535.00
536.05	65535.00
536.22	65434.36
536.38	65174.56
536.55	64837.52
536.72	64254.73
536.89	64388.14
537.06	65118.38
537.23	65535.00
537.40	65535.00
537.57	65535.00
537.74	65535.00
537.91	65535.00
538.08	65535.00
538.25	65535.00
538.42	65535.00
538.59	65535.00
538.75	65078.60
538.92	64753.26
539.09	64734.54
539.26	64699.43
539.43	64575.38
539.60	64512.19
539.77	64858.59
539.94	64608.15
540.11	63821.73
540.28	63472.99
540.44	63662.57
540.61	63714.06
540.78	63945.78
540.95	64369.41
541.12	64610.49
541.29	64879.65
541.46	65043.49
541.62	65031.78
541.79	64865.61
541.96	64303.88
542.13	64294.52
542.30	64713.47
542.47	65003.70
542.63	64561.34
542.80	64402.18
542.97	64516.87
543.14	64308.56
543.31	64554.32
543.48	65006.04
543.64	65535.00
543.81	65535.00
543.98	65535.00
544.15	65106.68
544.32	64797.73
544.48	64769.64
544.65	65087.96
544.82	65429.68
544.99	65038.81
545.16	64708.79
545.32	64383.46
545.49	65158.17
545.66	65361.80
545.83	65144.13
546.00	64793.05
546.16	64502.82
546.33	64722.83
546.50	64713.47
546.67	64963.91
546.83	64790.71
547.00	64544.95
547.17	64114.29
547.34	63718.74
547.50	63622.78
547.67	63896.62
547.84	64013.65
548.00	64544.95
548.17	64788.37
548.34	64736.88
548.51	64654.96
548.67	64706.45
548.84	64666.66
549.01	64533.25
549.18	64521.55
549.34	64474.74
549.51	64542.61
549.68	64661.98
549.84	64257.07
550.01	64217.28
550.18	64147.06
550.34	64175.15
550.51	64121.32
550.68	64306.22
550.84	63957.48
551.01	64055.78
551.18	63969.18
551.34	64144.72
551.51	64439.63
551.68	64608.15
551.84	64596.45
552.01	64537.93
552.18	64444.31
552.34	63725.77
552.51	63608.74
552.68	63510.44
552.84	63962.16
553.01	64048.76
553.18	63870.88
553.34	64053.44
553.51	64095.57
553.67	64158.76
553.84	64402.18
554.01	64266.43
554.17	64046.42
554.34	64271.11
554.51	64425.59
554.67	64596.45
554.84	64669.00
555.00	64011.31
555.17	64008.97
555.33	64034.72
555.50	63943.44
555.67	63756.19
555.83	63920.03
556.00	63646.19
556.16	63664.91
556.33	63480.01
556.50	62983.82
556.66	63021.26
556.83	62906.58
556.99	62883.17
557.16	62990.84
557.32	63154.68
557.49	63444.90
557.65	63229.57
557.82	63393.41
557.98	63313.83
558.15	62920.62
558.32	62342.51
558.48	61869.72
558.65	61918.87
558.81	62082.71
558.98	62052.28
559.14	62532.09
559.31	62532.09
559.47	62546.14
559.64	62127.18
559.80	62017.17
559.97	61928.23
560.13	62368.26
560.30	63281.06
560.46	63627.46
560.63	63781.94
560.79	63763.21
560.96	63337.24
561.12	62443.15
561.29	61832.27
561.45	62021.86
561.61	62321.44
561.78	62504.01
561.94	62560.18
562.11	62276.97
562.27	62087.39
562.44	62522.73
562.60	62688.91
562.77	62822.32
562.93	62815.30
563.10	62621.03
563.26	62382.30
563.42	62386.98
563.59	62099.09
563.75	62089.73
563.92	62450.17
564.08	62272.29
564.24	62452.51
564.41	62471.24
564.57	62307.40
564.74	62298.04
564.90	62244.21
565.07	62040.58
565.23	61481.19
565.39	61045.85
565.56	61024.79
565.72	60523.91
565.88	60877.33
566.05	60844.57
566.21	61249.48
566.38	61504.60
566.54	61471.83
566.70	61961.00
566.87	62080.37
567.03	62038.24
567.19	62548.48
567.36	61900.15
567.52	62094.41
567.68	61710.56
567.85	61162.88
568.01	60980.32
568.17	60474.76
568.34	60580.09
568.50	60636.26
568.66	60755.63
568.83	60914.78
568.99	60921.80
569.15	61336.08
569.32	61165.22
569.48	60640.94
569.64	60657.32
569.81	60425.61
569.97	60346.03
570.13	60315.61
570.30	60210.28
570.46	59788.98
570.62	59220.23
570.78	59065.76
570.95	59348.96
571.11	60100.28
571.27	60083.89
571.43	60163.47
571.60	60542.64
571.76	60746.26
571.92	60804.78
572.09	61073.94
572.25	60985.00
572.41	60975.64
572.57	60910.10
572.74	60865.63
572.90	60610.51
573.06	60690.09
573.22	60692.43
573.38	60526.25
573.55	60350.71
573.71	60636.26
573.87	60554.34
574.03	60568.38
574.20	60378.80
574.36	60233.69
574.52	60093.25
574.68	59852.18
574.84	59718.77
575.01	59264.70
575.17	59121.93
575.33	59241.30
575.49	59515.14
575.65	59594.72
575.82	59456.63
575.98	59297.47
576.14	59519.82
576.30	59700.04
576.46	59845.16
576.62	59655.57
576.79	59678.98
576.95	59374.71
577.11	59505.78
577.27	59618.13
577.43	59676.64
577.59	59072.78
577.75	58965.12
577.92	58417.43
578.08	58068.69
578.24	58223.17
578.40	58548.50
578.56	58911.28
578.72	58955.75
578.88	59025.97
579.04	59030.65
579.21	59164.06
579.37	59255.34
579.53	59278.75
579.69	59105.55
579.85	59295.13
580.01	59161.72
580.17	58805.96
580.33	58553.18
580.49	58777.87
580.65	59061.08
580.82	59241.30
580.98	59084.48
581.14	59023.63
581.30	59166.40
581.46	59065.76
581.62	59391.09
581.78	58979.16
581.94	59302.15
582.10	59255.34
582.26	59288.11
582.42	59213.21
582.58	59217.89
582.74	59028.31
582.90	58930.01
583.06	58967.46
583.22	58789.58
583.38	59049.38
583.54	58827.02
583.70	58574.25
583.86	58908.94
584.02	58782.55
584.18	58913.62
584.34	58782.55
584.50	58777.87
584.66	58628.08
584.82	58349.56
