SpectraSuite Data File
++++++++++++++++++++++++++++++++++++
Date: Mon Oct 07 14:55:01 GMT-05:00 2013
User: price-jones
Dark Spectrum Present: No
Reference Spectrum Present: No
Number of Sampled Component Spectra: 1
Spectrometers: USB2+H05261
Integration Time (usec): 10000 (USB2+H05261)
Spectra Averaged: 1 (USB2+H05261)
Boxcar Smoothing: 0 (USB2+H05261)
Correct for Electrical Dark: No (USB2+H05261)
Strobe/Lamp Enabled: No (USB2+H05261)
Correct for Detector Non-linearity: No (USB2+H05261)
Correct for Stray Light: No (USB2+H05261)
Number of Pixels in Processed Spectrum: 2048
>>>>>Begin Processed Spectral Data<<<<<
365.73	0.00
365.92	0.00
366.12	0.00
366.32	0.00
366.52	0.00
366.72	0.00
366.91	0.00
367.11	0.00
367.31	0.00
367.51	0.00
367.70	0.00
367.90	0.00
368.10	0.00
368.30	0.00
368.49	0.00
368.69	0.00
368.89	0.00
369.09	0.00
369.28	0.00
369.48	0.00
369.68	0.00
369.87	0.00
370.07	0.00
370.27	0.00
370.47	423.64
370.66	2431.82
370.86	2834.39
371.06	3145.68
371.25	3040.36
371.45	2757.15
371.65	2410.75
371.84	2298.41
372.04	2619.06
372.24	2787.58
372.44	2888.22
372.63	2820.35
372.83	2497.35
373.03	2310.11
373.22	2230.53
373.42	2485.65
373.62	2712.68
373.81	2979.50
374.01	2672.89
374.21	2476.29
374.40	2387.35
374.60	2473.95
374.79	2829.71
374.99	3389.10
375.19	3536.55
375.38	3492.08
375.58	3204.19
375.78	3229.94
375.97	3391.44
376.17	3396.12
376.37	3536.55
376.56	3496.76
376.76	3791.67
376.95	4030.40
377.15	4444.68
377.35	4437.66
377.54	4608.51
377.74	4753.63
377.93	4725.54
378.13	4580.43
378.33	4156.79
378.52	3964.87
378.72	3843.16
378.91	3836.14
379.11	3702.73
379.31	3592.72
379.50	3620.81
379.70	3957.85
379.89	4285.52
380.09	4585.11
380.28	4744.27
380.48	4711.50
380.68	4510.21
380.87	4362.76
381.07	4065.51
381.26	3688.68
381.46	3620.81
381.65	3283.77
381.85	3377.39
382.04	3155.04
382.24	3014.61
382.43	2883.54
382.63	2679.91
382.83	2818.00
383.02	2827.37
383.22	2867.16
383.41	2829.71
383.61	3059.08
383.80	3466.33
384.00	4095.94
384.19	4559.36
384.39	4739.58
384.58	4699.80
384.78	4461.06
384.97	4407.23
385.17	4229.35
385.36	4074.87
385.56	3967.21
385.75	4194.24
385.95	4507.87
386.14	4919.81
386.34	4697.46
386.53	4500.85
386.72	4337.01
386.92	4461.06
387.11	4767.67
387.31	4830.87
387.50	4624.90
387.70	4671.71
387.89	4561.70
388.09	4528.94
388.28	4695.11
388.48	4713.84
388.67	5224.08
388.86	5628.99
389.06	6108.80
389.25	6399.02
389.45	6511.37
389.64	6342.85
389.84	5977.73
390.03	5973.05
390.22	6216.46
390.42	6494.99
390.61	6923.30
390.81	7548.23
391.00	7323.54
391.19	7288.43
391.39	6956.07
391.58	6593.29
391.78	6237.53
391.97	6134.54
392.16	5598.56
392.36	4973.64
392.55	3864.22
392.75	3075.46
392.94	2693.96
393.13	2635.44
393.33	3386.76
393.52	4273.82
393.71	5011.09
393.91	5827.93
394.10	6146.25
394.29	6871.81
394.49	7300.13
394.68	7932.08
394.88	7974.21
395.07	7892.29
395.26	7983.57
395.46	7742.49
395.65	7026.29
395.84	6071.35
396.04	4968.96
396.23	3978.91
396.42	3506.12
396.62	3571.66
396.81	4552.34
397.00	5734.31
397.19	7119.91
397.39	8135.70
397.58	9212.35
397.77	9640.67
397.97	9937.91
398.16	10134.52
398.35	10340.49
398.55	10569.86
398.74	11145.63
398.93	11307.13
399.12	11452.24
399.32	10878.81
399.51	10846.04
399.70	11901.62
399.90	11485.01
400.09	11433.52
400.28	11330.53
400.47	11534.16
400.67	12236.32
400.86	12365.05
401.05	12589.74
401.24	12699.75
401.44	12711.45
401.63	12676.34
401.82	12753.58
402.01	12767.62
402.21	13043.81
402.40	13043.81
402.59	12217.60
402.78	11948.43
402.97	11698.00
403.17	12446.97
403.36	13226.37
403.55	13547.02
403.74	13785.76
403.93	12795.71
404.13	11564.59
404.32	11960.14
404.51	12449.31
404.70	13219.35
404.89	13212.32
405.09	12891.67
405.28	12554.63
405.47	12755.92
405.66	12826.14
405.85	12351.01
406.05	12196.53
406.24	12465.69
406.43	13006.36
406.62	13259.13
406.81	13277.86
407.00	12784.01
407.20	12744.22
407.39	12748.90
407.58	13577.45
407.77	14012.79
407.96	14092.37
408.15	14530.05
408.34	14747.72
408.54	15206.46
408.73	15136.24
408.92	14930.28
409.11	14347.48
409.30	13729.58
409.49	12746.56
409.68	12088.87
409.87	11992.90
410.07	12779.32
410.26	13799.80
410.45	14389.61
410.64	14698.56
410.83	15587.97
411.02	15978.84
411.21	16201.19
411.40	15838.41
411.59	16163.74
411.78	16201.19
411.98	15955.43
412.17	16210.55
412.36	15658.18
412.55	15932.03
412.74	15576.27
412.93	15262.63
413.12	15660.52
413.31	17547.00
413.50	17062.51
413.69	17123.36
413.88	16615.46
414.07	16280.77
414.26	16964.20
414.45	16964.20
414.64	16608.44
414.83	16681.00
415.02	16477.37
415.22	16531.20
415.41	17727.22
415.60	17748.28
415.79	18611.94
415.98	18614.28
416.17	18647.05
416.36	18017.44
416.55	17785.73
416.74	17268.47
416.93	17015.69
417.12	16889.31
417.31	16905.69
417.50	17701.47
417.69	18141.49
417.88	17994.04
418.07	17893.40
418.26	17605.51
418.45	17813.82
418.64	18431.72
418.83	19552.84
419.02	18738.33
419.21	18628.32
419.39	17717.86
419.58	17099.95
419.77	17256.77
419.96	18546.40
420.15	19332.82
420.34	19702.63
420.53	20032.65
420.72	20372.02
420.91	19901.58
421.10	19576.24
421.29	19274.31
421.48	19159.63
421.67	20449.26
421.86	19304.74
422.05	17394.86
422.24	16156.72
422.43	16730.15
422.61	18726.63
422.80	19754.12
422.99	19126.86
423.18	18740.67
423.37	18656.41
423.56	18775.78
423.75	19190.05
423.94	19571.56
424.13	18129.79
424.32	18132.13
424.50	18651.73
424.69	18478.53
424.88	18572.15
425.07	18415.34
425.26	18513.64
425.45	17886.37
425.64	17703.81
425.83	17996.38
426.01	18745.35
426.20	19283.67
426.39	19033.24
426.58	17542.32
426.77	16170.76
426.96	16119.27
427.15	17181.87
427.33	18398.95
427.52	18768.76
427.71	19005.15
427.90	18525.34
428.09	18003.40
428.28	17762.33
428.46	16903.35
428.65	17130.38
428.84	17755.30
429.03	17666.36
429.22	16528.86
429.40	15183.06
429.59	14090.02
429.78	12863.58
429.97	13074.23
430.16	12917.42
430.34	12966.57
430.53	13446.38
430.72	13729.58
430.91	15599.67
431.10	18216.39
431.28	21055.46
431.47	22167.21
431.66	22178.92
431.85	19592.62
432.03	18401.29
432.22	18012.76
432.41	19506.02
432.60	21006.31
432.79	21977.63
432.97	21902.73
433.16	20987.58
433.35	19129.20
433.54	17216.98
433.72	17088.25
433.91	17680.41
434.10	19807.95
434.28	20842.47
434.47	21598.46
434.66	20994.61
434.85	20692.68
435.03	21280.15
435.22	21408.88
435.41	22417.65
435.59	22883.42
435.78	22881.08
435.97	23782.18
436.16	23454.51
436.34	22972.36
436.53	22457.44
436.72	22895.12
436.90	21628.89
437.09	21708.47
437.28	21383.13
437.46	22015.08
437.65	21411.22
437.84	19332.82
438.02	18714.92
438.21	18857.70
438.40	20102.86
438.58	21516.54
438.77	22143.81
438.96	22522.98
439.14	23119.81
439.33	23676.86
439.52	23571.54
439.70	23302.37
439.89	22806.18
440.08	22361.48
440.26	22560.42
440.45	23468.55
440.63	24926.71
440.82	25738.87
441.01	25125.65
441.19	25450.99
441.38	26129.74
441.57	27033.19
441.75	26775.73
441.94	26888.07
442.12	26525.29
442.31	27379.59
442.50	27449.80
442.68	26859.99
442.87	27077.66
443.05	26155.49
443.24	26993.40
443.43	27201.71
443.61	27826.63
443.80	28245.58
443.98	26930.20
444.17	27077.66
444.35	27908.55
444.54	28549.85
444.73	28048.98
444.91	26801.47
445.10	25954.20
445.28	24936.07
445.47	24788.61
445.65	24807.34
445.84	25261.40
446.02	26148.46
446.21	27002.76
446.39	27129.15
446.58	27318.73
446.77	28009.19
446.95	28112.17
447.14	29450.96
447.32	29635.86
447.51	28472.62
447.69	27513.00
447.88	27344.48
448.06	27754.07
448.25	28617.73
448.43	28053.66
448.62	28018.55
448.80	27796.20
448.99	28212.82
449.17	27880.46
449.36	28477.30
449.54	29436.92
449.73	29989.28
449.91	30223.34
450.10	31332.75
450.28	30958.27
450.46	31248.49
450.65	31087.00
450.83	30532.29
451.02	30478.46
451.20	30096.95
451.39	30265.47
451.57	30441.01
451.76	30373.13
451.94	30155.46
452.13	28816.68
452.31	27632.36
452.49	26162.51
452.68	27005.10
452.86	27407.67
453.05	27292.99
453.23	28435.17
453.42	29104.56
453.60	29598.41
453.78	29614.80
453.97	29907.37
454.15	29174.78
454.34	28694.97
454.52	28041.96
454.70	28194.09
454.89	28943.06
455.07	28891.57
455.26	29668.63
455.44	30326.32
455.62	30637.61
455.81	30625.91
455.99	30749.96
456.17	30499.52
456.36	31524.68
456.54	31168.91
456.73	31115.08
456.91	31358.50
457.09	32098.11
457.28	32842.40
457.46	31225.09
457.64	30670.38
457.83	29935.45
458.01	29724.80
458.19	30939.54
458.38	31599.57
458.56	32320.46
458.74	31569.15
458.93	30960.61
459.11	30794.43
459.29	30352.07
459.48	31215.72
459.66	30232.70
459.84	30752.30
460.03	31119.76
460.21	32346.20
460.39	32765.16
460.57	31728.30
460.76	32006.83
460.94	32325.14
461.12	32496.00
461.31	32425.78
461.49	32767.50
461.67	32596.64
461.85	33603.07
462.04	33415.83
462.22	33256.67
462.40	33163.05
462.59	32657.49
462.77	33083.47
462.95	33043.68
463.13	32879.85
463.32	31985.76
463.50	32074.70
463.68	32009.17
463.86	32371.95
464.05	31529.36
464.23	31012.10
464.41	31295.30
464.59	30789.75
464.78	31910.86
464.96	31541.06
465.14	30827.20
465.32	32470.25
465.50	33626.48
465.69	34054.79
465.87	33013.26
466.05	31913.20
466.23	30583.78
466.41	30038.44
466.60	31185.30
466.78	30572.08
466.96	31192.32
467.14	31503.61
467.32	32084.06
467.51	31845.33
467.69	30410.58
467.87	31599.57
468.05	32353.23
468.23	32189.39
468.41	32570.90
468.60	32589.62
468.78	32790.91
468.96	32638.77
469.14	33308.16
469.32	32954.74
469.50	31613.62
469.69	31721.28
469.87	31056.57
470.05	31087.00
470.23	31257.85
470.41	31337.43
470.59	31732.98
470.77	31915.54
470.95	32348.54
471.14	33034.32
471.32	33120.92
471.50	35016.75
471.68	34623.54
471.86	35372.52
472.04	34923.13
472.22	35234.42
472.40	33172.41
472.58	33558.60
472.77	33516.47
472.95	34127.35
473.13	34836.53
473.31	33975.22
473.49	34361.40
473.67	34609.50
473.85	34948.88
474.03	36334.48
474.21	36697.26
474.39	36561.51
474.57	36512.36
474.75	36795.56
474.93	36011.48
475.12	34890.37
475.30	35379.54
475.48	35332.73
475.66	35793.81
475.84	35398.26
476.02	35842.96
476.20	34979.31
476.38	35494.22
476.56	36020.84
476.74	36961.74
476.92	37556.24
477.10	37652.20
477.28	38876.30
477.46	39262.49
477.64	39545.69
477.82	39662.72
478.00	39215.68
478.18	39012.05
478.36	38330.95
478.54	39241.42
478.72	39866.34
478.90	40739.36
479.08	41668.56
479.26	41516.42
479.44	42244.33
479.62	41996.23
479.80	41832.39
479.98	41165.34
480.16	42071.13
480.34	41390.03
480.52	42234.97
480.70	42087.51
480.88	41659.20
481.06	42728.82
481.24	43255.44
481.41	44486.56
481.59	44870.41
481.77	43899.09
481.95	43810.15
482.13	43634.61
482.31	44261.87
482.49	44781.47
482.67	44126.12
482.85	44336.77
483.03	44629.34
483.21	45371.28
483.39	45869.82
483.57	45270.64
483.74	44746.36
483.92	44624.65
484.10	44664.44
484.28	45769.18
484.46	45689.60
484.64	46731.14
484.82	45727.05
485.00	45542.14
485.18	44388.26
485.35	42691.37
485.53	37677.94
485.71	35332.73
485.89	35629.98
486.07	39269.51
486.25	41212.15
486.43	43863.98
486.61	44423.37
486.78	43330.34
486.96	45340.86
487.14	46129.62
487.32	47620.54
487.50	48086.31
487.68	48919.54
487.85	50110.87
488.03	49607.65
488.21	48308.66
488.39	48081.63
488.57	46684.33
488.75	46841.14
488.92	48788.47
489.10	51075.17
489.28	51426.25
489.46	52800.15
489.64	52210.33
489.81	52725.25
489.99	52233.74
490.17	52437.36
490.35	52655.03
490.53	52100.32
490.70	52250.12
490.88	51805.42
491.06	52973.34
491.24	53371.24
491.41	51807.76
491.59	50059.38
491.77	49818.30
491.95	50770.90
492.13	52853.98
492.30	53275.27
492.48	54197.44
492.66	54195.10
492.84	53876.79
493.01	53914.24
493.19	53757.42
493.37	53102.07
493.54	53591.25
493.72	54733.43
493.90	54937.05
494.08	55363.03
494.25	55683.69
494.43	56273.50
494.61	56502.87
494.79	56030.08
494.96	56264.14
495.14	55964.55
495.32	54487.67
495.49	54681.94
495.67	55501.12
495.85	56528.62
496.02	57078.64
496.20	56355.42
496.38	55980.93
496.55	56069.87
496.73	56683.09
496.91	57024.81
497.09	57111.41
497.26	57949.32
497.44	56858.63
497.62	55934.12
497.79	55791.35
497.97	54541.50
498.14	55227.28
498.32	56135.41
498.50	56617.56
498.67	56711.18
498.85	56507.55
499.03	56996.73
499.20	57141.84
499.38	56442.02
499.56	55992.64
499.73	56062.85
499.91	56177.54
500.08	55388.78
500.26	55150.04
500.44	55660.28
500.61	56636.28
500.79	55985.61
500.97	55700.07
501.14	55164.09
501.32	54555.55
501.49	55018.97
501.67	55826.46
501.84	56191.58
502.02	56205.62
502.20	56704.16
502.37	56643.30
502.55	57158.22
502.72	58253.59
502.90	58363.60
503.07	57488.24
503.25	56753.31
503.43	56027.74
503.60	55594.74
503.78	55732.84
503.95	56109.66
504.13	57106.73
504.30	58129.54
504.48	57418.02
504.65	57378.23
504.83	57361.85
505.01	58225.51
505.18	58309.77
505.36	59028.31
505.53	58944.05
505.71	58609.35
505.88	59126.61
506.06	58635.10
506.23	58302.74
506.41	57865.06
506.58	58099.12
506.76	58216.14
506.93	57450.79
507.11	57556.11
507.28	57764.42
507.46	56968.64
507.63	57392.28
507.81	56935.87
507.98	56849.27
508.16	58368.28
508.33	58536.80
508.50	58471.26
508.68	58969.80
508.85	59178.10
509.03	59669.62
509.20	59400.46
509.38	58403.39
509.55	58536.80
509.73	58134.23
509.90	58244.23
510.08	58330.83
510.25	58075.71
510.42	57687.18
510.60	58082.73
510.77	58773.19
510.95	58838.73
511.12	59096.19
511.30	59917.71
511.47	60226.66
511.64	59849.84
511.82	59613.44
511.99	58628.08
512.17	58438.50
512.34	57958.69
512.51	58504.03
512.69	58791.92
512.86	57883.79
513.04	58288.70
513.21	58113.16
513.38	57471.85
513.56	57195.67
513.73	56718.20
513.90	57935.28
514.08	57696.55
514.25	57893.15
514.43	58178.70
514.60	57937.62
514.77	58220.83
514.95	58759.15
515.12	58405.73
515.29	58967.46
515.47	59327.90
515.64	59255.34
515.81	58787.24
515.99	57792.51
516.16	56006.68
516.33	53649.76
516.51	53481.24
516.68	52310.97
516.85	51161.77
517.03	52804.83
517.20	55409.84
517.37	57619.31
517.54	58368.28
517.72	57368.87
517.89	54440.86
518.06	52985.05
518.24	53961.05
518.41	55838.16
518.58	57429.72
518.75	57436.75
518.93	57059.92
519.10	56963.96
519.27	57963.37
519.45	58382.32
519.62	58777.87
519.79	58850.43
519.96	58471.26
520.14	58489.99
520.31	57439.09
520.48	57343.12
520.65	58314.45
520.83	59126.61
521.00	58735.74
521.17	58216.14
521.34	58454.88
521.52	59463.65
521.69	59423.86
521.86	59634.51
522.03	58857.45
522.20	57645.05
522.38	56877.36
522.55	57254.18
522.72	57282.27
522.89	57549.09
523.07	58431.47
523.24	59133.63
523.41	59238.96
523.58	59592.38
523.75	59660.26
523.92	59969.21
524.10	59601.74
524.27	59302.15
524.44	58691.27
524.61	58248.91
524.78	58796.60
524.96	58546.16
525.13	58997.88
525.30	59587.70
525.47	60027.72
525.64	59934.10
525.81	58422.11
525.98	56779.06
526.16	55550.27
526.33	55723.47
526.50	55171.11
526.67	55592.40
526.84	56310.95
527.01	57200.35
527.18	57593.56
527.36	58075.71
527.53	59110.23
527.70	58658.51
527.87	57366.53
528.04	58108.48
528.21	58927.67
528.38	59248.32
528.55	60416.25
528.72	60385.82
528.89	59702.38
529.07	59753.88
529.24	58555.52
529.41	58213.80
529.58	58286.36
529.75	58897.24
529.92	59442.59
530.09	59529.19
530.26	59994.95
530.43	60470.08
530.60	60093.25
530.77	60231.35
530.94	60582.43
531.11	59615.79
531.28	59143.00
531.46	59449.61
531.63	59533.87
531.80	59049.38
531.97	58885.54
532.14	58717.02
532.31	57104.39
532.48	56446.70
532.65	56699.48
532.82	57612.29
532.99	59526.84
533.16	59395.77
533.33	59538.55
533.50	59498.76
533.67	58883.20
533.84	58901.92
534.01	59182.79
534.18	58927.67
534.35	58670.21
534.52	58260.62
534.69	58698.30
534.86	59119.59
535.03	59594.72
535.20	60046.44
535.37	60439.65
535.54	60582.43
535.71	59753.88
535.88	59714.09
536.05	58766.17
536.22	58204.44
536.38	58368.28
536.55	58014.86
536.72	57591.22
536.89	57930.60
537.06	58176.36
537.23	58871.49
537.40	58239.55
537.57	58408.07
537.74	58536.80
537.91	58822.34
538.08	58419.77
538.25	58892.56
538.42	59590.04
538.59	59140.66
538.75	58284.02
538.92	57565.48
539.09	57790.17
539.26	57895.49
539.43	57874.43
539.60	57371.21
539.77	58103.80
539.94	57925.92
540.11	57411.00
540.28	56910.13
540.44	57080.98
540.61	56786.08
540.78	57155.88
540.95	57427.38
541.12	57904.85
541.29	58213.80
541.46	57855.70
541.62	58379.98
541.79	57668.46
541.96	57371.21
542.13	57748.04
542.30	57890.81
542.47	57851.02
542.63	57785.49
542.80	57619.31
542.97	56835.23
543.14	57371.21
543.31	58253.59
543.48	58506.37
543.64	58981.50
543.81	59288.11
543.98	59274.07
544.15	58340.19
544.32	58506.37
544.48	58115.50
544.65	57937.62
544.82	58466.58
544.99	57333.76
545.16	57354.83
545.32	57565.48
545.49	58328.49
545.66	58447.86
545.83	58225.51
546.00	58564.88
546.16	57883.79
546.33	57666.12
546.50	57560.79
546.67	58532.12
546.83	58260.62
547.00	58192.74
547.17	56598.83
547.34	56149.45
547.50	56526.28
547.67	57006.09
547.84	57598.24
548.00	58387.00
548.17	58040.60
548.34	58075.71
548.51	58117.84
548.67	57647.39
548.84	57855.70
549.01	58398.71
549.18	57745.70
549.34	57696.55
549.51	58349.56
549.68	58588.29
549.84	57537.39
550.01	56722.88
550.18	57258.87
550.34	57460.15
550.51	57329.08
550.68	57581.86
550.84	58089.76
551.01	57188.65
551.18	57272.91
551.34	57226.10
551.51	57968.05
551.68	57865.06
551.84	58960.44
552.01	57736.34
552.18	57329.08
552.34	56561.39
552.51	56266.48
552.68	56287.54
552.84	57212.06
553.01	56891.40
553.18	56765.01
553.34	56790.76
553.51	57249.50
553.67	57228.44
553.84	57567.82
554.01	58005.50
554.17	57476.54
554.34	57389.94
554.51	57151.20
554.67	56711.18
554.84	56886.72
555.00	56589.47
555.17	56697.14
555.33	56720.54
555.50	56076.90
555.67	56821.19
555.83	56800.12
556.00	56156.47
556.16	56243.07
556.33	56334.35
556.50	56577.77
556.66	56107.32
556.83	55615.81
556.99	55458.99
557.16	56282.86
557.32	55924.76
557.49	56615.22
557.65	56158.81
557.82	56788.42
557.98	56823.53
558.15	55571.34
558.32	55400.48
558.48	54447.88
558.65	54372.99
558.81	54698.32
558.98	55688.37
559.14	55569.00
559.31	55618.15
559.47	55267.07
559.64	55585.38
559.80	54607.04
559.97	55004.93
560.13	55732.84
560.30	57015.45
560.46	57401.64
560.63	57448.45
560.79	57481.22
560.96	56259.46
561.12	55536.23
561.29	55639.22
561.45	55592.40
561.61	56357.76
561.78	55423.89
561.94	55278.77
562.11	55393.46
562.27	54817.69
562.44	56020.72
562.60	56271.16
562.77	56222.01
562.93	55969.23
563.10	56231.37
563.26	55863.91
563.42	56018.38
563.59	55861.57
563.75	55477.72
563.92	55136.00
564.08	55330.26
564.24	56062.85
564.41	54855.14
564.57	56238.39
564.74	55781.99
564.90	55178.13
565.07	54813.01
565.23	54120.21
565.39	53408.68
565.56	53516.35
565.72	54323.83
565.88	53544.44
566.05	55592.40
566.21	54944.08
566.38	54969.82
566.54	55800.71
566.70	56264.14
566.87	55622.83
567.03	55943.48
567.19	56781.40
567.36	56643.30
567.52	55065.78
567.68	54763.85
567.85	53811.26
568.01	54438.52
568.17	54365.96
568.34	54438.52
568.50	53958.71
568.66	53584.22
568.83	53418.05
568.99	53291.66
569.15	53759.76
569.32	53450.81
569.48	53546.78
569.64	53408.68
569.81	53675.51
569.97	53499.97
570.13	52505.24
570.30	51695.41
570.46	51767.97
570.62	51756.27
570.78	51702.43
570.95	51868.61
571.11	52650.35
571.27	52334.38
571.43	52954.62
571.60	52933.56
571.76	53354.85
571.92	53654.44
572.09	54157.66
572.25	53558.48
572.41	53020.16
572.57	53975.09
572.74	54232.55
572.90	54824.71
573.06	54766.20
573.22	54745.13
573.38	54380.01
573.55	55285.79
573.71	54129.57
573.87	53904.88
574.03	54040.63
574.20	52956.96
574.36	52669.08
574.52	53062.29
574.68	52655.03
574.84	51985.64
575.01	51847.55
575.17	51585.41
575.33	52285.23
575.49	52804.83
575.65	51386.46
575.82	51894.36
575.98	52797.80
576.14	53195.70
576.30	53642.74
576.46	52580.13
576.62	51934.15
576.79	52245.44
576.95	52853.98
577.11	52844.62
577.27	52282.89
577.43	52708.86
577.59	52479.49
577.75	51838.18
577.92	51217.94
578.08	51430.93
578.24	51358.38
578.40	51290.50
578.56	50164.70
578.72	50698.34
578.88	51154.75
579.04	51515.19
579.21	50965.17
579.37	51236.67
579.53	51393.48
579.69	50855.16
579.85	50663.24
580.01	51409.87
580.17	50808.35
580.33	52102.67
580.49	51744.56
580.65	51257.73
580.82	51760.95
580.98	51889.68
581.14	51400.50
581.30	51011.98
581.46	50410.46
581.62	51547.96
581.78	52303.95
581.94	52095.64
582.10	52439.70
582.26	52186.92
582.42	51786.69
582.58	51709.46
582.74	51243.69
582.90	51126.66
583.06	52371.83
583.22	51824.14
583.38	51737.54
583.54	51920.10
583.70	51796.06
583.86	51906.06
584.02	50553.23
584.18	51019.00
584.34	50595.36
584.50	50239.60
584.66	50707.71
584.82	50609.40
584.98	50459.61
585.14	49434.45
585.30	49474.24
