SpectraSuite Data File
++++++++++++++++++++++++++++++++++++
Date: Mon Oct 07 14:52:54 GMT-05:00 2013
User: price-jones
Dark Spectrum Present: No
Reference Spectrum Present: No
Number of Sampled Component Spectra: 1
Spectrometers: USB2+H05261
Integration Time (usec): 100000 (USB2+H05261)
Spectra Averaged: 1 (USB2+H05261)
Boxcar Smoothing: 0 (USB2+H05261)
Correct for Electrical Dark: No (USB2+H05261)
Strobe/Lamp Enabled: No (USB2+H05261)
Correct for Detector Non-linearity: No (USB2+H05261)
Correct for Stray Light: No (USB2+H05261)
Number of Pixels in Processed Spectrum: 2048
>>>>>Begin Processed Spectral Data<<<<<
365.73	0.00
365.92	0.00
366.12	0.00
366.32	0.00
366.52	0.00
366.72	0.00
366.91	0.00
367.11	0.00
367.31	0.00
367.51	0.00
367.70	0.00
367.90	0.00
368.10	0.00
368.30	0.00
368.49	0.00
368.69	0.00
368.89	0.00
369.09	0.00
369.28	0.00
369.48	0.00
369.68	0.00
369.87	0.00
370.07	0.00
370.27	0.00
370.47	442.36
370.66	2846.09
370.86	3201.85
371.06	3503.78
371.25	3513.14
371.45	3061.42
371.65	2963.12
371.84	2539.48
372.04	2862.48
372.24	3173.77
372.44	3314.20
372.63	3281.43
372.83	2949.08
373.03	2717.36
373.22	2462.24
373.42	2523.10
373.62	2993.55
373.81	3239.30
374.01	3353.99
374.21	2883.54
374.40	2726.72
374.60	2820.35
374.79	3190.15
374.99	3648.90
375.19	4049.13
375.38	3941.46
375.58	3922.74
375.78	3803.37
375.97	3794.01
376.17	3887.63
376.37	3812.73
376.56	4147.43
376.76	4236.37
376.95	4542.98
377.15	4800.44
377.35	4973.64
377.54	5179.61
377.74	5240.46
377.93	5406.64
378.13	5188.97
378.33	4966.62
378.52	4540.64
378.72	4269.14
378.91	4215.30
379.11	4079.55
379.31	3955.51
379.50	3969.55
379.70	4409.57
379.89	4777.03
380.09	5025.13
380.28	5146.84
380.48	5254.50
380.68	5118.75
380.87	4990.02
381.07	4463.40
381.26	4311.27
381.46	3918.06
381.65	3922.74
381.85	3756.56
382.04	3531.87
382.24	3361.01
382.43	3246.32
382.63	3131.64
382.83	3098.87
383.02	3136.32
383.22	3260.37
383.41	3087.17
383.61	3520.17
383.80	3950.82
384.00	4416.59
384.19	4968.96
384.39	5139.82
384.58	5167.90
384.78	4912.78
384.97	5069.60
385.17	4638.94
385.36	4535.96
385.56	4325.31
385.75	4411.91
385.95	4943.21
386.14	5359.83
386.34	5495.58
386.53	5069.60
386.72	4849.59
386.92	4908.10
387.11	5135.14
387.31	5507.28
387.50	5231.10
387.70	5085.98
387.89	4950.23
388.09	5139.82
388.28	5055.56
388.48	5046.20
388.67	5598.56
388.86	6001.13
389.06	6466.90
389.25	6918.62
389.45	6810.96
389.64	6853.09
389.84	6806.28
390.03	6612.01
390.22	6815.64
390.42	6939.69
390.61	7548.23
390.81	8203.58
391.00	8067.83
391.19	7978.89
391.39	7527.16
391.58	7159.70
391.78	6679.89
391.97	6588.61
392.16	6188.38
392.36	5528.35
392.55	4578.09
392.75	3503.78
392.94	2963.12
393.13	3047.38
393.33	3543.57
393.52	4388.50
393.71	5516.64
393.91	6181.35
394.10	6649.46
394.29	7318.86
394.49	7903.99
394.68	8617.85
394.88	8454.02
395.07	8613.17
395.26	8648.28
395.46	8226.98
395.65	7796.32
395.84	6846.07
396.04	5996.45
396.23	4624.90
396.42	3915.72
396.62	3887.63
396.81	4615.54
397.00	5621.97
397.19	7321.20
397.39	8477.42
397.58	9753.01
397.77	10188.35
397.97	10506.66
398.16	10827.32
398.35	11253.30
398.55	11382.03
398.74	11873.54
398.93	12102.91
399.12	11868.86
399.32	11370.32
399.51	11770.55
399.70	12449.31
399.90	12341.64
400.09	12273.77
400.28	12343.99
400.47	12491.44
400.67	12905.71
400.86	13263.82
401.05	13380.84
401.24	13561.06
401.44	13846.61
401.63	13406.59
401.82	13893.42
402.01	13748.31
402.21	13841.93
402.40	13755.33
402.59	13486.17
402.78	12894.01
402.97	12847.20
403.17	13153.81
403.36	13680.43
403.55	14635.37
403.74	14448.13
403.93	13771.71
404.13	12807.41
404.32	12814.43
404.51	13186.58
404.70	14321.74
404.89	14153.22
405.09	13923.85
405.28	13554.04
405.47	13858.31
405.66	13736.60
405.85	13195.94
406.05	12968.91
406.24	12870.61
406.43	13652.34
406.62	14080.66
406.81	14368.55
407.00	13642.98
407.20	13497.87
407.39	13355.10
407.58	14181.31
407.77	14785.16
407.96	14972.41
408.15	15091.77
408.34	15564.56
408.54	16002.24
408.73	15843.09
408.92	15733.08
409.11	15431.15
409.30	14728.99
409.49	13556.38
409.68	12739.54
409.87	12812.09
410.07	13418.29
410.26	14347.48
410.45	15391.36
410.64	16006.92
410.83	16350.98
411.02	16566.31
411.21	16950.16
411.40	17018.04
411.59	17224.00
411.78	16999.31
411.98	16620.14
412.17	17008.67
412.36	16938.46
412.55	16617.80
412.74	16240.98
412.93	16098.20
413.12	16262.04
413.31	17687.43
413.50	17692.11
413.69	18253.84
413.88	17343.37
414.07	16968.88
414.26	17252.09
414.45	17764.67
414.64	17900.42
414.83	17954.25
415.02	17621.89
415.22	17558.70
415.41	18075.96
415.60	18707.90
415.79	19063.66
415.98	19587.94
416.17	19634.75
416.36	19133.88
416.55	18789.82
416.74	18352.14
416.93	17692.11
417.12	17844.24
417.31	17935.53
417.50	18579.17
417.69	19349.21
417.88	18696.20
418.07	18644.71
418.26	18305.33
418.45	18661.09
418.64	19211.12
418.83	19719.01
419.02	19616.03
419.21	19248.57
419.39	18424.70
419.58	17624.23
419.77	17523.59
419.96	18590.88
420.15	19583.26
420.34	20163.72
420.53	21036.74
420.72	21116.31
420.91	21209.93
421.10	21022.69
421.29	20561.61
421.48	19894.55
421.67	21125.68
421.86	20388.41
422.05	18871.74
422.24	17121.02
422.43	16961.86
422.61	18979.40
422.80	20222.23
422.99	20086.48
423.18	19761.14
423.37	18775.78
423.56	19236.86
423.75	19541.13
423.94	20011.58
424.13	18663.43
424.32	18803.86
424.50	19115.16
424.69	18885.78
424.88	19005.15
425.07	18838.97
425.26	18904.51
425.45	18551.09
425.64	18342.78
425.83	18338.10
426.01	19414.74
426.20	19936.68
426.39	19761.14
426.58	17998.72
426.77	17118.68
426.96	16460.99
427.15	16805.05
427.33	18361.50
427.52	19124.52
427.71	19007.49
427.90	18771.10
428.09	18892.80
428.28	18539.38
428.46	17703.81
428.65	17432.31
428.84	18115.75
429.03	18265.54
429.22	17179.53
429.40	16231.62
429.59	14920.92
429.78	13092.96
429.97	13043.81
430.16	13198.28
430.34	13516.59
430.53	13577.45
430.72	13788.10
430.91	15335.19
431.10	18183.62
431.28	20999.29
431.47	22752.35
431.66	22558.08
431.85	20964.18
432.03	18998.13
432.22	18508.96
432.41	19463.90
432.60	21312.92
432.79	22085.30
432.97	22810.86
433.16	21912.10
433.35	20109.88
433.54	17994.04
433.72	17083.57
433.91	17949.57
434.10	19927.32
434.28	21041.42
434.47	22291.26
434.66	21696.77
434.85	21020.35
435.03	21268.45
435.22	21923.80
435.41	23246.20
435.59	22902.14
435.78	23218.11
435.97	24135.60
436.16	23754.10
436.34	23910.91
436.53	23068.32
436.72	23131.51
436.90	22136.79
437.09	21940.18
437.28	21855.92
437.46	22249.13
437.65	22162.53
437.84	20655.23
438.02	19143.24
438.21	19094.09
438.40	20386.07
438.58	21565.70
438.77	22209.34
438.96	22272.54
439.14	23789.20
439.33	24395.40
439.52	24507.75
439.70	23786.86
439.89	23477.91
440.08	22874.06
440.26	22785.12
440.45	23356.21
440.63	25411.20
440.82	26450.39
441.01	26047.82
441.19	25638.23
441.38	26373.16
441.57	26773.39
441.75	27522.36
441.94	27651.09
442.12	27138.51
442.31	27683.86
442.50	28112.17
442.68	27627.68
442.87	27206.39
443.05	26661.04
443.24	27229.79
443.43	27653.43
443.61	28065.36
443.80	28329.84
443.98	27178.30
444.17	27489.59
444.35	28744.12
444.54	28732.42
444.73	29024.98
444.91	27381.93
445.10	26174.21
445.28	25310.55
445.47	25116.29
445.65	24966.49
445.84	26298.26
446.02	27110.43
446.21	27391.29
446.39	27377.25
446.58	27737.69
446.77	27924.93
446.95	28456.23
447.14	29200.52
447.32	29340.96
447.51	28959.45
447.69	28119.20
447.88	27531.72
448.06	28224.52
448.25	28751.14
448.43	28842.42
448.62	28032.60
448.80	28163.67
448.99	28339.21
449.17	28903.28
449.36	28496.02
449.54	29797.36
449.73	30038.44
449.91	30391.86
450.10	31257.85
450.28	31466.16
450.46	31730.64
450.65	31356.16
450.83	31215.72
451.02	30466.75
451.20	30515.90
451.39	30724.21
451.57	30464.41
451.76	30270.15
451.94	30157.80
452.13	29373.72
452.31	27983.44
452.49	26927.86
452.68	27576.19
452.86	27264.90
453.05	27672.15
453.23	28671.56
453.42	29333.93
453.60	29443.94
453.78	30213.98
453.97	29788.00
454.15	29680.33
454.34	29425.22
454.52	29252.02
454.70	28973.49
454.89	29090.52
455.07	29053.07
455.26	29928.43
455.44	31112.74
455.62	31321.05
455.81	31604.25
455.99	31236.79
456.17	31129.12
456.36	31414.67
456.54	32105.13
456.73	31789.16
456.91	32512.38
457.09	32706.65
457.28	33013.26
457.46	31667.45
457.64	31770.43
457.83	30686.76
458.01	29914.39
458.19	31054.23
458.38	31133.81
458.56	32053.64
458.74	31929.59
458.93	31466.16
459.11	31255.51
459.29	31428.71
459.48	31519.99
459.66	30717.19
459.84	31229.77
460.03	31604.25
460.21	31672.13
460.39	32744.09
460.57	32620.05
460.76	33249.65
460.94	32933.68
461.12	32575.58
461.31	32891.55
461.49	32788.56
461.67	32591.96
461.85	33670.95
462.04	33249.65
462.22	33914.36
462.40	33441.57
462.59	33184.12
462.77	33652.22
462.95	33436.89
463.13	33170.07
463.32	33031.98
463.50	33092.83
463.68	32910.27
463.86	32538.13
464.05	32297.05
464.23	31805.54
464.41	31360.84
464.59	31042.53
464.78	32807.29
464.96	32297.05
465.14	31960.02
465.32	32842.40
465.50	33762.23
465.69	34052.45
465.87	32975.81
466.05	32446.85
466.23	31150.19
466.41	30302.92
466.60	31400.63
466.78	31311.69
466.96	31929.59
467.14	32402.38
467.32	32861.12
467.51	32861.12
467.69	31187.64
467.87	32081.72
468.05	32325.14
468.23	32491.32
468.41	32498.34
468.60	32510.04
468.78	32685.58
468.96	32428.12
469.14	33340.93
469.32	33188.80
469.50	31960.02
469.69	31969.38
469.87	31534.04
470.05	31491.91
470.23	31948.31
470.41	31779.79
470.59	32268.97
470.77	32165.98
470.95	33113.90
471.14	33319.87
471.32	33188.80
471.50	35058.88
471.68	35159.53
471.86	35915.52
472.04	35545.72
472.22	35959.99
472.40	34162.46
472.58	33565.62
472.77	33010.92
472.95	34274.80
473.13	35159.53
473.31	34174.16
473.49	33998.62
473.67	34916.11
473.85	35374.86
474.03	36465.55
474.21	36297.03
474.39	36758.11
474.57	36776.84
474.75	36690.24
474.93	36156.60
475.12	35819.56
475.30	35847.64
475.48	35955.31
475.66	36376.61
475.84	36102.76
476.02	35725.94
476.20	35037.82
476.38	35938.93
476.56	37151.32
476.74	37357.29
476.92	37373.67
477.10	37897.95
477.28	39129.08
477.46	39210.99
477.64	39461.43
477.82	39639.31
478.00	39959.97
478.18	39042.48
478.36	39070.56
478.54	39042.48
478.72	39761.02
478.90	40266.58
479.08	41308.11
479.26	42391.78
479.44	41596.00
479.62	41298.75
479.80	41500.04
479.98	42038.36
480.16	42010.28
480.34	41923.68
480.52	42124.96
480.70	42204.54
480.88	42309.86
481.06	43274.16
481.24	43746.95
481.41	44439.75
481.59	44814.24
481.77	44257.19
481.95	43931.86
482.13	43725.89
482.31	43997.39
482.49	44999.14
482.67	44516.99
482.85	44790.83
483.03	45399.37
483.21	45614.70
483.39	45656.83
483.57	45038.93
483.74	44921.90
483.92	45200.43
484.10	45277.66
484.28	46101.53
484.46	46403.46
484.64	46857.52
484.82	45656.83
485.00	45352.56
485.18	45029.57
485.35	43519.92
485.53	40027.84
485.71	36521.72
485.89	36746.41
486.07	38359.04
486.25	41523.44
486.43	43569.07
486.61	44065.27
486.78	44671.46
486.96	44509.97
487.14	46848.16
487.32	47473.09
487.50	48280.57
487.68	48999.12
487.85	49389.98
488.03	49710.64
488.21	49329.13
488.39	48629.31
488.57	47779.70
488.75	47707.14
488.92	48776.76
489.10	51112.62
489.28	52381.19
489.46	52914.83
489.64	52655.03
489.81	53027.18
489.99	52739.29
490.17	52755.68
490.35	52809.51
490.53	52465.45
490.70	52121.39
490.88	51765.63
491.06	52966.32
491.24	53275.27
491.41	51767.97
491.59	49947.03
491.77	49230.83
491.95	50714.73
492.13	51983.30
492.30	53202.72
492.48	54124.89
492.66	54534.48
492.84	54630.44
493.01	54202.13
493.19	53872.11
493.37	53408.68
493.54	52711.20
493.72	53951.69
493.90	55018.97
494.08	55510.49
494.25	55781.99
494.43	56034.77
494.61	56552.02
494.79	56540.32
494.96	56334.35
495.14	55531.55
495.32	54695.98
495.49	54227.87
495.67	55278.77
495.85	56479.47
496.02	56706.50
496.20	56678.41
496.38	56076.90
496.55	56074.55
496.73	56762.67
496.91	56788.42
497.09	57219.08
497.26	57467.17
497.44	56870.34
497.62	56523.94
497.79	55767.94
497.97	54433.84
498.14	54703.00
498.32	55657.94
498.50	56435.00
498.67	57233.12
498.85	57141.84
499.03	57418.02
499.20	57476.54
499.38	57340.78
499.56	57162.90
499.73	56875.02
499.91	56390.53
500.08	55718.79
500.26	55278.77
500.44	56086.26
500.61	56458.40
500.79	56537.98
500.97	55952.85
501.14	55725.81
501.32	55737.52
501.49	55704.75
501.67	55866.25
501.84	56303.93
502.02	56442.02
502.20	57076.30
502.37	57034.17
502.55	56994.39
502.72	57745.70
502.90	57846.34
503.07	57757.40
503.25	57343.12
503.43	56486.49
503.60	55927.10
503.78	55112.59
503.95	55903.70
504.13	57289.29
504.30	57965.71
504.48	57565.48
504.65	57614.63
504.83	57616.97
505.01	58017.20
505.18	58543.82
505.36	59119.59
505.53	58894.90
505.71	59255.34
505.88	59311.52
506.06	58632.76
506.23	58319.13
506.41	57626.33
506.58	58190.40
506.76	58061.67
506.93	58047.63
507.11	57930.60
507.28	58099.12
507.46	57326.74
507.63	57031.83
507.81	56956.94
507.98	57069.28
508.16	57825.28
508.33	58230.19
508.50	58773.19
508.68	58805.96
508.85	59480.03
509.03	59487.06
509.20	59260.02
509.38	58419.77
509.55	57790.17
509.73	57930.60
509.90	58288.70
510.08	58695.95
510.25	58628.08
510.42	58478.28
510.60	58410.41
510.77	58651.48
510.95	59276.41
511.12	59248.32
511.30	59788.98
511.47	59732.81
511.64	59889.63
511.82	59323.22
511.99	58796.60
512.17	58312.11
512.34	58059.33
512.51	58225.51
512.69	58155.29
512.86	58314.45
513.04	58602.33
513.21	58630.42
513.38	58305.09
513.56	57670.80
513.73	57333.76
513.90	57691.86
514.08	57951.66
514.25	57909.53
514.43	58239.55
514.60	58197.42
514.77	58408.07
514.95	58492.33
515.12	58379.98
515.29	58702.98
515.47	59086.82
515.64	59421.52
515.81	58892.56
515.99	58232.53
516.16	56765.01
516.33	54784.92
516.51	53516.35
516.68	52259.48
516.85	52060.54
517.03	52961.64
517.20	55686.03
517.37	57764.42
517.54	58576.59
517.72	57874.43
517.89	55269.41
518.06	53301.02
518.24	53982.12
518.41	55915.40
518.58	57205.03
518.75	57434.41
518.93	57647.39
519.10	57588.88
519.27	58019.54
519.45	58188.06
519.62	58953.41
519.79	59152.36
519.96	58864.47
520.14	58415.09
520.31	57640.37
520.48	57631.01
520.65	58099.12
520.83	59110.23
521.00	59119.59
521.17	58838.73
521.34	58644.46
521.52	59037.67
521.69	59292.79
521.86	59697.70
522.03	59456.63
522.20	58347.21
522.38	57446.11
522.55	57457.81
522.72	58127.20
522.89	58113.16
523.07	58389.34
523.24	58756.81
523.41	59536.21
523.58	59765.58
523.75	60182.19
523.92	60011.34
524.10	59924.74
524.27	60011.34
524.44	59702.38
524.61	59693.02
524.78	59374.71
524.96	59351.30
525.13	59437.90
525.30	59536.21
525.47	60013.68
525.64	59882.61
525.81	59435.56
525.98	57811.23
526.16	56402.23
526.33	56161.15
526.50	55643.90
526.67	55299.84
526.84	56055.83
527.01	56678.41
527.18	57726.97
527.36	58611.70
527.53	59299.81
527.70	59458.97
527.87	58953.41
528.04	58607.01
528.21	59250.66
528.38	59737.49
528.55	60224.32
528.72	60353.05
528.89	60626.90
529.07	60303.90
529.24	59653.23
529.41	59032.99
529.58	58618.72
529.75	58761.49
529.92	59154.70
530.09	59526.84
530.26	59938.78
530.43	60044.10
530.60	60236.03
530.77	60214.96
530.94	60617.53
531.11	60154.11
531.28	59723.45
531.46	59564.29
531.63	59608.76
531.80	59274.07
531.97	59285.77
532.14	58492.33
532.31	57233.12
532.48	56774.37
532.65	57209.71
532.82	57762.08
532.99	58770.85
533.16	59091.51
533.33	59767.92
533.50	59501.10
533.67	58817.66
533.84	58323.81
534.01	58548.50
534.18	59028.31
534.35	59124.27
534.52	58962.78
534.69	59309.18
534.86	59522.16
535.03	59788.98
535.20	60156.45
535.37	60701.79
535.54	60561.36
535.71	60182.19
535.88	59973.89
536.05	59302.15
536.22	58960.44
536.38	58738.08
536.55	58031.24
536.72	57825.28
536.89	57752.72
537.06	58710.00
537.23	59496.42
537.40	59676.64
537.57	59568.97
537.74	59313.86
537.91	59262.36
538.08	59269.39
538.25	59454.29
538.42	59414.50
538.59	59316.20
538.75	58433.81
538.92	58478.28
539.09	58438.50
539.26	58391.68
539.43	57860.38
539.60	57832.30
539.77	58145.93
539.94	57935.28
540.11	57228.44
540.28	57010.77
540.44	57073.96
540.61	57167.58
540.78	57490.58
540.95	57881.45
541.12	58110.82
541.29	58260.62
541.46	58885.54
541.62	58871.49
541.79	58574.25
541.96	58216.14
542.13	58019.54
542.30	58274.66
542.47	58616.38
542.63	58159.97
542.80	58136.57
542.97	58293.38
543.14	58225.51
543.31	58138.91
543.48	58604.67
543.64	59484.72
543.81	59639.19
543.98	59367.69
544.15	58529.78
544.32	58066.35
544.48	58487.65
544.65	58857.45
544.82	59164.06
544.99	59040.01
545.16	58279.34
545.32	58326.15
545.49	59051.72
545.66	59407.48
545.83	58834.05
546.00	58747.45
546.16	58262.96
546.33	58466.58
546.50	58518.07
546.67	58754.47
546.83	58192.74
547.00	58394.03
547.17	57633.35
547.34	57055.24
547.50	57401.64
547.67	57418.02
547.84	57595.90
548.00	58220.83
548.17	58569.57
548.34	58541.48
548.51	58389.34
548.67	58471.26
548.84	58478.28
549.01	58464.24
549.18	58234.87
549.34	58171.67
549.51	58124.86
549.68	58213.80
549.84	58087.42
550.01	57865.06
550.18	57801.87
550.34	57883.79
550.51	57860.38
550.68	58145.93
550.84	57448.45
551.01	57375.89
551.18	57675.48
551.34	57689.52
551.51	58071.03
551.68	58223.17
551.84	58223.17
552.01	58017.20
552.18	57907.19
552.34	57214.40
552.51	57062.26
552.68	56917.15
552.84	57345.47
553.01	57654.42
553.18	57485.90
553.34	57677.82
553.51	57848.68
553.67	58199.76
553.84	58314.45
554.01	58092.10
554.17	57972.73
554.34	58127.20
554.51	58267.64
554.67	58553.18
554.84	58316.79
555.00	57921.24
555.17	57738.68
555.33	57612.29
555.50	57469.51
555.67	57425.04
555.83	57476.54
556.00	57064.60
556.16	57326.74
556.33	56823.53
556.50	56678.41
556.66	56924.17
556.83	56577.77
556.99	56676.07
557.16	57024.81
557.32	57181.63
557.49	57411.00
557.65	57226.10
557.82	56821.19
557.98	56856.29
558.15	56409.25
558.32	55763.26
558.48	54693.64
558.65	55206.22
558.81	55444.95
558.98	55971.57
559.14	55994.98
559.31	55971.57
559.47	56081.58
559.64	55842.84
559.80	55238.98
559.97	55604.11
560.13	56196.26
560.30	56973.32
560.46	57221.42
560.63	57502.28
560.79	57476.54
560.96	57097.37
561.12	56217.33
561.29	55145.36
561.45	55133.66
561.61	55760.92
561.78	56453.72
561.94	56133.07
562.11	56046.47
562.27	55941.14
562.44	56385.85
562.60	56477.13
562.77	56411.59
562.93	56659.69
563.10	56589.47
563.26	56147.11
563.42	56048.81
563.59	55842.84
563.75	55880.29
563.92	55969.23
564.08	55819.44
564.24	55992.64
564.41	56154.13
564.57	56154.13
564.74	55749.22
564.90	55980.93
565.07	55454.31
565.23	55229.62
565.39	54574.27
565.56	54368.30
565.72	54410.43
565.88	54550.87
566.05	54747.47
566.21	54997.91
566.38	55168.77
566.54	55089.19
566.70	55461.33
566.87	56002.00
567.03	55608.79
567.19	55978.59
567.36	55833.48
567.52	55480.06
567.68	55348.99
567.85	54602.36
568.01	54342.56
568.17	54031.27
568.34	54014.88
568.50	53968.07
568.66	54087.44
568.83	54227.87
568.99	54679.60
569.15	54611.72
569.32	54504.06
569.48	54410.43
569.64	54307.45
569.81	54106.16
569.97	53951.69
570.13	53820.62
570.30	53191.01
570.46	52818.87
570.62	52390.55
570.78	52301.61
570.95	52280.55
571.11	53368.90
571.27	53586.57
571.43	53968.07
571.60	54262.98
571.76	54454.90
571.92	54742.79
572.09	54700.66
572.25	54564.91
572.41	54703.00
572.57	54548.53
572.74	54335.54
572.90	53780.83
573.06	53673.16
573.22	53965.73
573.38	54223.19
573.55	53907.22
573.71	54216.17
573.87	53944.67
574.03	53792.53
574.20	53895.52
574.36	53577.20
574.52	53535.07
574.68	53296.34
574.84	52861.00
575.01	52107.35
575.17	52743.97
575.33	52861.00
575.49	53024.84
575.65	53031.86
575.82	52821.21
575.98	52652.69
576.14	52743.97
576.30	52978.03
576.46	53183.99
576.62	53268.25
576.79	53165.27
576.95	52762.70
577.11	52804.83
577.27	52741.63
577.43	52968.66
577.59	52570.77
577.75	52128.41
577.92	51634.56
578.08	51365.40
578.24	51168.79
578.40	51695.41
578.56	52072.24
578.72	52191.61
578.88	52392.89
579.04	52547.37
579.21	52711.20
579.37	52453.75
579.53	52528.64
579.69	52758.02
579.85	52753.33
580.01	52334.38
580.17	51852.23
580.33	52025.43
580.49	52135.43
580.65	52369.49
580.82	52516.94
580.98	52390.55
581.14	52339.06
581.30	52772.06
581.46	52238.42
581.62	52477.15
581.78	52420.98
581.94	52617.58
582.10	52631.63
582.26	52743.97
582.42	52903.13
582.58	52989.73
582.74	52685.46
582.90	52903.13
583.06	52530.98
583.22	52727.59
583.38	52439.70
583.54	52238.42
583.70	52364.81
583.86	52339.06
584.02	51945.85
584.18	52266.50
584.34	51856.91
584.50	52226.71
584.66	52119.05
584.82	51393.48
584.98	51718.82
585.14	50883.25
585.30	50230.24
