SpectraSuite Data File
++++++++++++++++++++++++++++++++++++
Date: Mon Oct 07 14:54:57 GMT-05:00 2013
User: price-jones
Dark Spectrum Present: No
Reference Spectrum Present: No
Number of Sampled Component Spectra: 1
Spectrometers: USB2+H05261
Integration Time (usec): 10000 (USB2+H05261)
Spectra Averaged: 1 (USB2+H05261)
Boxcar Smoothing: 0 (USB2+H05261)
Correct for Electrical Dark: No (USB2+H05261)
Strobe/Lamp Enabled: No (USB2+H05261)
Correct for Detector Non-linearity: No (USB2+H05261)
Correct for Stray Light: No (USB2+H05261)
Number of Pixels in Processed Spectrum: 2048
>>>>>Begin Processed Spectral Data<<<<<
365.73	0.00
365.92	0.00
366.12	0.00
366.32	0.00
366.52	0.00
366.72	0.00
366.91	0.00
367.11	0.00
367.31	0.00
367.51	0.00
367.70	0.00
367.90	0.00
368.10	0.00
368.30	0.00
368.49	0.00
368.69	0.00
368.89	0.00
369.09	0.00
369.28	0.00
369.48	0.00
369.68	0.00
369.87	0.00
370.07	0.00
370.27	0.00
370.47	819.19
370.66	4126.36
370.86	4620.22
371.06	4978.32
371.25	4873.00
371.45	4386.16
371.65	3988.27
371.84	3772.94
372.04	4138.07
372.24	4561.70
372.44	4725.54
372.63	4493.83
372.83	4070.19
373.03	3721.45
373.22	3536.55
373.42	3772.94
373.62	4444.68
373.81	4711.50
374.01	4454.04
374.21	4128.70
374.40	3808.05
374.60	4086.58
374.79	4540.64
374.99	5392.59
375.19	5717.93
375.38	5659.42
375.58	5247.48
375.78	5303.65
375.97	5263.86
376.17	5308.34
376.37	5626.65
376.56	5841.98
376.76	6036.24
376.95	6497.33
377.15	6689.25
377.35	7166.72
377.54	7396.09
377.74	7672.28
377.93	7714.41
378.13	7286.09
378.33	6899.90
378.52	6368.60
378.72	6132.20
378.91	6122.84
379.11	5731.97
379.31	5638.35
379.50	5977.73
379.70	6347.53
379.89	6970.12
380.09	7215.87
380.28	7377.37
380.48	7522.48
380.68	7335.24
380.87	6995.86
381.07	6441.15
381.26	6169.65
381.46	5865.38
381.65	5458.13
381.85	5322.38
382.04	5053.22
382.24	4751.29
382.43	4732.56
382.63	4456.38
382.83	4545.32
383.02	4669.37
383.22	4727.88
383.41	4657.67
383.61	4919.81
383.80	6001.13
384.00	6541.80
384.19	7391.41
384.39	7716.75
384.58	7590.36
384.78	7276.73
384.97	7281.41
385.17	6963.09
385.36	6626.06
385.56	6338.17
385.75	6579.25
385.95	7321.20
386.14	7679.30
386.34	7852.50
386.53	7349.28
386.72	7012.24
386.92	7206.51
387.11	7468.65
387.31	7885.26
387.50	7597.38
387.70	7473.33
387.89	7611.42
388.09	7412.48
388.28	7410.14
388.48	7503.76
388.67	8224.64
388.86	9174.90
389.06	9563.43
389.25	10108.77
389.45	10321.76
389.64	10057.28
389.84	10078.35
390.03	9994.09
390.22	10183.67
390.42	10387.30
390.61	11206.48
390.81	11679.27
391.00	11964.82
391.19	11929.71
391.39	11323.51
391.58	10483.26
391.78	10071.33
391.97	10026.86
392.16	8952.55
392.36	7948.46
392.55	6368.60
392.75	5085.98
392.94	4252.75
393.13	4294.88
393.33	5305.99
393.52	7103.53
393.71	8301.88
393.91	9174.90
394.10	10057.28
394.29	11061.37
394.49	12161.42
394.68	12865.92
394.88	12945.50
395.07	12959.55
395.26	12858.90
395.46	12533.57
395.65	11487.35
395.84	10073.67
396.04	8287.84
396.23	6981.82
396.42	5778.78
396.62	5912.19
396.81	7061.40
397.00	9151.49
397.19	11014.56
397.39	13153.81
397.58	15059.01
397.77	15807.98
397.97	16189.49
398.16	16248.00
398.35	16994.63
398.55	17394.86
398.74	18064.25
398.93	18192.98
399.12	18113.41
399.32	17053.14
399.51	18335.76
399.70	19281.33
399.90	18948.98
400.09	18567.47
400.28	19159.63
400.47	19026.21
400.67	20123.93
400.86	20238.61
401.05	20425.86
401.24	20704.38
401.44	20985.24
401.63	21022.69
401.82	21120.99
402.01	21043.76
402.21	20961.84
402.40	21441.65
402.59	20276.06
402.78	19630.07
402.97	19393.68
403.17	20912.69
403.36	21516.54
403.55	22443.40
403.74	22679.79
403.93	21167.80
404.13	19396.02
404.32	19625.39
404.51	20713.74
404.70	22164.87
404.89	22061.89
405.09	21385.47
405.28	20861.19
405.47	21144.40
405.66	21158.44
405.85	20074.77
406.05	19674.54
406.24	20395.43
406.43	21128.02
406.62	21879.33
406.81	22221.05
407.00	21336.32
407.20	21088.23
407.39	21348.03
407.58	22094.66
407.77	23222.80
407.96	23321.10
408.15	23873.46
408.34	24091.13
408.54	25123.31
408.73	25025.01
408.92	24491.37
409.11	23721.33
409.30	22551.06
409.49	20802.68
409.68	19901.58
409.87	19735.40
410.07	21568.04
410.26	22939.59
410.45	24308.80
410.64	24978.20
410.83	25284.81
411.02	26031.44
411.21	26553.38
411.40	26244.43
411.59	26518.27
411.78	26623.59
411.98	26464.44
412.17	26944.25
412.36	26628.27
412.55	25993.99
412.74	25476.73
412.93	24816.70
413.12	25376.09
413.31	28077.07
413.50	27978.76
413.69	28348.57
413.88	27204.05
414.07	26878.71
414.26	27749.39
414.45	28732.42
414.64	28105.15
414.83	28460.91
415.02	27957.70
415.22	28032.60
415.41	28882.21
415.60	29649.91
415.79	30661.02
415.98	30787.41
416.17	31115.08
416.36	30110.99
416.55	29668.63
416.74	28652.84
416.93	27714.28
417.12	28201.11
417.31	29102.22
417.50	29525.86
417.69	30513.56
417.88	29991.62
418.07	30110.99
418.26	29127.97
418.45	29399.47
418.64	30885.71
418.83	32044.27
419.02	31431.05
419.21	30728.89
419.39	29317.55
419.58	28025.57
419.77	28402.40
419.96	29975.24
420.15	31529.36
420.34	32503.02
420.53	33429.87
420.72	33996.28
420.91	33982.24
421.10	33020.28
421.29	33102.20
421.48	32074.70
421.67	33134.96
421.86	32128.53
422.05	30019.71
422.24	26918.50
422.43	27765.78
422.61	30459.73
422.80	32301.73
422.99	32065.34
423.18	30981.67
423.37	30759.32
423.56	31522.34
423.75	32058.32
423.94	32598.98
424.13	30471.43
424.32	30714.85
424.50	30565.06
424.69	30497.18
424.88	30918.48
425.07	30703.15
425.26	30745.28
425.45	29727.14
425.64	29397.13
425.83	30120.35
426.01	32196.41
426.20	32191.73
426.39	31541.06
426.58	29193.50
426.77	26789.77
426.96	26216.34
427.15	27971.74
427.33	30291.21
427.52	30869.33
427.71	31264.88
427.90	30771.02
428.09	30213.98
428.28	29514.16
428.46	28624.75
428.65	28978.17
428.84	29806.72
429.03	29680.33
429.22	28006.85
429.40	26434.01
429.59	23777.50
429.78	21851.24
429.97	21694.43
430.16	21881.67
430.34	21738.90
430.53	21692.08
430.72	22845.97
430.91	26260.81
431.10	30270.15
431.28	35084.63
431.47	37589.00
431.66	36882.16
431.85	33319.87
432.03	30639.95
432.22	30740.60
432.41	33036.66
432.60	35615.93
432.79	36484.27
432.97	37359.63
433.16	35747.00
433.35	32500.68
433.54	28938.38
433.72	28025.57
433.91	29677.99
434.10	33441.57
434.28	35793.81
434.47	36591.94
434.66	35541.03
434.85	34756.96
435.03	34916.11
435.22	35770.41
435.41	37167.71
435.59	37750.50
435.78	38934.81
435.97	39852.30
436.16	39828.90
436.34	38880.98
436.53	38361.38
436.72	38148.39
436.90	36940.68
437.09	36400.01
437.28	36254.90
437.46	37652.20
437.65	37317.50
437.84	34068.84
438.02	31758.73
438.21	32385.99
438.40	33858.19
438.58	37017.91
438.77	37713.05
438.96	38106.26
439.14	39346.75
439.33	39814.85
439.52	40847.03
439.70	39452.07
439.89	38321.59
440.08	37343.25
440.26	37982.21
440.45	39409.94
440.63	42431.57
440.82	44081.65
441.01	42988.62
441.19	42735.84
441.38	43428.64
441.57	44666.78
441.75	44556.78
441.94	44570.82
442.12	45141.91
442.31	46333.24
442.50	45694.28
442.68	45088.08
442.87	44027.82
443.05	43976.33
443.24	45521.08
443.43	45998.55
443.61	46330.90
443.80	46461.97
443.98	44662.10
444.17	44715.93
444.35	46707.73
444.54	47342.02
444.73	47047.11
444.91	44486.56
445.10	43585.46
445.28	42457.32
445.47	41457.91
445.65	41530.47
445.84	43234.38
446.02	44353.15
446.21	45258.94
446.39	44741.68
446.58	45511.72
446.77	45975.14
446.95	46822.42
447.14	48011.41
447.32	48680.80
447.51	47386.49
447.69	46057.06
447.88	45741.09
448.06	46380.06
448.25	47075.19
448.43	47391.17
448.62	46904.34
448.80	46333.24
448.99	46944.12
449.17	46965.19
449.36	47859.27
449.54	48734.63
449.73	49057.63
449.91	49242.53
450.10	50188.11
450.28	50742.81
450.46	50396.42
450.65	50850.48
450.83	50302.79
451.02	49635.74
451.20	49495.31
451.39	49415.73
451.57	49801.92
451.76	48921.88
451.94	48514.62
452.13	47665.01
452.31	45516.40
452.49	44568.48
452.68	45591.30
452.86	46059.40
453.05	46679.64
453.23	48093.33
453.42	49205.08
453.60	48954.64
453.78	49338.49
453.97	49495.31
454.15	49132.53
454.34	48362.49
454.52	48102.69
454.70	47854.59
454.89	48465.47
455.07	48549.73
455.26	49378.28
455.44	50335.56
455.62	51026.02
455.81	50834.10
455.99	50546.21
456.17	50085.12
456.36	50574.30
456.54	51463.70
456.73	51725.84
456.91	52327.36
457.09	52451.41
457.28	53120.80
457.46	51309.22
457.64	50976.87
457.83	50127.25
458.01	49595.95
458.19	50688.98
458.38	51311.56
458.56	51852.23
458.74	51480.08
458.93	51302.20
459.11	50532.17
459.29	50710.05
459.48	50855.16
459.66	50546.21
459.84	51449.66
460.03	51016.66
460.21	50979.21
460.39	52718.23
460.57	52193.95
460.76	53031.86
460.94	52961.64
461.12	52299.27
461.31	52428.00
461.49	52163.52
461.67	51955.21
461.85	53640.40
462.04	53303.36
462.22	53523.37
462.40	53427.41
462.59	53162.93
462.77	52868.02
462.95	53326.77
463.13	52914.83
463.32	52463.11
463.50	53158.25
463.68	52795.46
463.86	52795.46
464.05	52268.84
464.23	51129.00
464.41	51405.19
464.59	51377.10
464.78	52648.01
464.96	52528.64
465.14	51910.74
465.32	52774.40
465.50	53490.60
465.69	53766.79
465.87	52952.28
466.05	51753.93
466.23	50646.85
466.41	50768.56
466.60	51995.00
466.78	51100.92
466.96	51868.61
467.14	52734.61
467.32	52666.73
467.51	52952.28
467.69	51704.77
467.87	51625.20
468.05	51861.59
468.23	52612.90
468.41	52069.90
468.60	53017.82
468.78	53352.51
468.96	53340.81
469.14	53560.82
469.32	53755.08
469.50	52137.77
469.69	52526.30
469.87	51913.08
470.05	51915.42
470.23	52126.07
470.41	52037.13
470.59	52570.77
470.77	52395.23
470.95	52835.25
471.14	53806.58
471.32	53921.26
471.50	55344.31
471.68	55178.13
471.86	55601.77
472.04	56193.92
472.22	55838.16
472.40	54145.95
472.58	54045.31
472.77	54042.97
472.95	54478.31
473.13	54635.13
473.31	54134.25
473.49	54644.49
473.67	55063.44
473.85	55491.76
474.03	55976.25
474.21	55781.99
474.39	56109.66
474.57	56746.29
474.75	56378.82
474.93	56142.43
475.12	55398.14
475.30	55700.07
475.48	55800.71
475.66	56200.94
475.84	56041.79
476.02	55934.12
476.20	55372.39
476.38	55913.06
476.56	56666.71
476.74	57052.90
476.92	56935.87
477.10	57513.98
477.28	58501.69
477.46	58466.58
477.64	58576.59
477.82	59070.44
478.00	58749.79
478.18	58543.82
478.36	58188.06
478.54	58419.77
478.72	58607.01
478.90	59552.59
479.08	59671.96
479.26	59805.37
479.44	59671.96
479.62	59854.52
479.80	59489.40
479.98	60378.80
480.16	60762.65
480.34	60275.82
480.52	60301.56
480.70	60474.76
480.88	60292.20
481.06	60903.08
481.24	61001.38
481.41	61666.09
481.59	61836.95
481.77	61815.89
481.95	60989.68
482.13	61214.37
482.31	61272.88
482.49	61841.63
482.67	62040.58
482.85	62127.18
483.03	62284.00
483.21	62129.52
483.39	62408.04
483.57	62066.33
483.74	61630.99
483.92	61886.10
484.10	62281.66
484.28	62702.95
484.46	63377.03
484.64	63650.87
484.82	62660.82
485.00	61881.42
485.18	61275.22
485.35	60839.89
485.53	58307.43
485.71	56240.73
485.89	56786.08
486.07	58925.33
486.25	60406.89
486.43	61656.73
486.61	61666.09
486.78	61588.86
486.96	62335.49
487.14	62969.77
487.32	63620.44
487.50	64137.70
487.68	64179.83
487.85	64926.46
488.03	64921.78
488.21	64491.12
488.39	64448.99
488.57	63845.13
488.75	63831.09
488.92	64999.02
489.10	65535.00
489.28	65535.00
489.46	65535.00
489.64	65535.00
489.81	65535.00
489.99	65535.00
490.17	65535.00
490.35	65535.00
490.53	65535.00
490.70	65535.00
490.88	65535.00
491.06	65535.00
491.24	65535.00
491.41	65535.00
491.59	65535.00
491.77	65464.78
491.95	65535.00
492.13	65535.00
492.30	65535.00
492.48	65535.00
492.66	65535.00
492.84	65535.00
493.01	65535.00
493.19	65535.00
493.37	65535.00
493.54	65535.00
493.72	65535.00
493.90	65535.00
494.08	65535.00
494.25	65535.00
494.43	65535.00
494.61	65535.00
494.79	65535.00
494.96	65535.00
495.14	65535.00
495.32	65535.00
495.49	65535.00
495.67	65535.00
495.85	65535.00
496.02	65535.00
496.20	65535.00
496.38	65535.00
496.55	65535.00
496.73	65535.00
496.91	65535.00
497.09	65535.00
497.26	65535.00
497.44	65535.00
497.62	65535.00
497.79	65535.00
497.97	65535.00
498.14	65535.00
498.32	65535.00
498.50	65535.00
498.67	65535.00
498.85	65535.00
499.03	65535.00
499.20	65535.00
499.38	65535.00
499.56	65535.00
499.73	65535.00
499.91	65535.00
500.08	65535.00
500.26	65535.00
500.44	65535.00
500.61	65535.00
500.79	65535.00
500.97	65535.00
501.14	65535.00
501.32	65535.00
501.49	65535.00
501.67	65535.00
501.84	65535.00
502.02	65535.00
502.20	65535.00
502.37	65535.00
502.55	65535.00
502.72	65535.00
502.90	65535.00
503.07	65535.00
503.25	65535.00
503.43	65535.00
503.60	65535.00
503.78	65535.00
503.95	65535.00
504.13	65535.00
504.30	65535.00
504.48	65535.00
504.65	65535.00
504.83	65535.00
505.01	65535.00
505.18	65535.00
505.36	65535.00
505.53	65535.00
505.71	65535.00
505.88	65535.00
506.06	65535.00
506.23	65535.00
506.41	65535.00
506.58	65535.00
506.76	65535.00
506.93	65535.00
507.11	65535.00
507.28	65535.00
507.46	65535.00
507.63	65535.00
507.81	65535.00
507.98	65535.00
508.16	65535.00
508.33	65535.00
508.50	65535.00
508.68	65535.00
508.85	65535.00
509.03	65535.00
509.20	65535.00
509.38	65535.00
509.55	65535.00
509.73	65535.00
509.90	65535.00
510.08	65535.00
510.25	65535.00
510.42	65535.00
510.60	65535.00
510.77	65535.00
510.95	65535.00
511.12	65535.00
511.30	65535.00
511.47	65535.00
511.64	65535.00
511.82	65535.00
511.99	65535.00
512.17	65535.00
512.34	65535.00
512.51	65535.00
512.69	65535.00
512.86	65535.00
513.04	65535.00
513.21	65535.00
513.38	65535.00
513.56	65535.00
513.73	65535.00
513.90	65535.00
514.08	65535.00
514.25	65535.00
514.43	65535.00
514.60	65535.00
514.77	65535.00
514.95	65535.00
515.12	65535.00
515.29	65535.00
515.47	65535.00
515.64	65535.00
515.81	65535.00
515.99	65535.00
516.16	65535.00
516.33	65535.00
516.51	65535.00
516.68	65535.00
516.85	65535.00
517.03	65535.00
517.20	65535.00
517.37	65535.00
517.54	65535.00
517.72	65535.00
517.89	65535.00
518.06	65535.00
518.24	65535.00
518.41	65535.00
518.58	65535.00
518.75	65535.00
518.93	65535.00
519.10	65535.00
519.27	65535.00
519.45	65535.00
519.62	65535.00
519.79	65535.00
519.96	65535.00
520.14	65535.00
520.31	65535.00
520.48	65535.00
520.65	65535.00
520.83	65535.00
521.00	65535.00
521.17	65535.00
521.34	65535.00
521.52	65535.00
521.69	65535.00
521.86	65535.00
522.03	65535.00
522.20	65535.00
522.38	65535.00
522.55	65535.00
522.72	65535.00
522.89	65535.00
523.07	65535.00
523.24	65535.00
523.41	65535.00
523.58	65535.00
523.75	65535.00
523.92	65535.00
524.10	65535.00
524.27	65535.00
524.44	65535.00
524.61	65535.00
524.78	65535.00
524.96	65535.00
525.13	65535.00
525.30	65535.00
525.47	65535.00
525.64	65535.00
525.81	65535.00
525.98	65535.00
526.16	65535.00
526.33	65535.00
526.50	65535.00
526.67	65535.00
526.84	65535.00
527.01	65535.00
527.18	65535.00
527.36	65535.00
527.53	65535.00
527.70	65535.00
527.87	65535.00
528.04	65535.00
528.21	65535.00
528.38	65535.00
528.55	65535.00
528.72	65535.00
528.89	65535.00
529.07	65535.00
529.24	65535.00
529.41	65535.00
529.58	65535.00
529.75	65535.00
529.92	65535.00
530.09	65535.00
530.26	65535.00
530.43	65535.00
530.60	65535.00
530.77	65535.00
530.94	65535.00
531.11	65535.00
531.28	65535.00
531.46	65535.00
531.63	65535.00
531.80	65535.00
531.97	65535.00
532.14	65535.00
532.31	65535.00
532.48	65535.00
532.65	65535.00
532.82	65535.00
532.99	65535.00
533.16	65535.00
533.33	65535.00
533.50	65535.00
533.67	65535.00
533.84	65535.00
534.01	65535.00
534.18	65535.00
534.35	65535.00
534.52	65535.00
534.69	65535.00
534.86	65535.00
535.03	65535.00
535.20	65535.00
535.37	65535.00
535.54	65535.00
535.71	65535.00
535.88	65535.00
536.05	65535.00
536.22	65535.00
536.38	65535.00
536.55	65535.00
536.72	65535.00
536.89	65535.00
537.06	65535.00
537.23	65535.00
537.40	65535.00
537.57	65535.00
537.74	65535.00
537.91	65535.00
538.08	65535.00
538.25	65535.00
538.42	65535.00
538.59	65535.00
538.75	65535.00
538.92	65535.00
539.09	65535.00
539.26	65535.00
539.43	65535.00
539.60	65535.00
539.77	65535.00
539.94	65535.00
540.11	65535.00
540.28	65535.00
540.44	65535.00
540.61	65535.00
540.78	65535.00
540.95	65535.00
541.12	65535.00
541.29	65535.00
541.46	65535.00
541.62	65535.00
541.79	65535.00
541.96	65535.00
542.13	65535.00
542.30	65535.00
542.47	65535.00
542.63	65535.00
542.80	65535.00
542.97	65535.00
543.14	65535.00
543.31	65535.00
543.48	65535.00
543.64	65535.00
543.81	65535.00
543.98	65535.00
544.15	65535.00
544.32	65535.00
544.48	65535.00
544.65	65535.00
544.82	65535.00
544.99	65535.00
545.16	65535.00
545.32	65535.00
545.49	65535.00
545.66	65535.00
545.83	65535.00
546.00	65535.00
546.16	65535.00
546.33	65535.00
546.50	65535.00
546.67	65535.00
546.83	65535.00
547.00	65535.00
547.17	65535.00
547.34	65535.00
547.50	65535.00
547.67	65535.00
547.84	65535.00
548.00	65535.00
548.17	65535.00
548.34	65535.00
548.51	65535.00
548.67	65535.00
548.84	65535.00
549.01	65535.00
549.18	65535.00
549.34	65535.00
549.51	65535.00
549.68	65535.00
549.84	65535.00
550.01	65535.00
550.18	65535.00
550.34	65535.00
550.51	65535.00
550.68	65535.00
550.84	65535.00
551.01	65535.00
551.18	65535.00
551.34	65535.00
551.51	65535.00
551.68	65535.00
551.84	65535.00
552.01	65535.00
552.18	65535.00
552.34	65535.00
552.51	65535.00
552.68	65535.00
552.84	65535.00
553.01	65535.00
553.18	65535.00
553.34	65535.00
553.51	65535.00
553.67	65535.00
553.84	65535.00
554.01	65535.00
554.17	65535.00
554.34	65535.00
554.51	65535.00
554.67	65535.00
554.84	65535.00
555.00	65535.00
555.17	65535.00
555.33	65535.00
555.50	65535.00
555.67	65535.00
555.83	65535.00
556.00	65535.00
556.16	65535.00
556.33	65535.00
556.50	65535.00
556.66	65535.00
556.83	65535.00
556.99	65535.00
557.16	65535.00
557.32	65535.00
557.49	65535.00
557.65	65535.00
557.82	65535.00
557.98	65535.00
558.15	65535.00
558.32	65535.00
558.48	65535.00
558.65	65535.00
558.81	65535.00
558.98	65535.00
559.14	65535.00
559.31	65535.00
559.47	65535.00
559.64	65535.00
559.80	65535.00
559.97	65535.00
560.13	65535.00
560.30	65535.00
560.46	65535.00
560.63	65535.00
560.79	65535.00
560.96	65535.00
561.12	65535.00
561.29	65535.00
561.45	65535.00
561.61	65535.00
561.78	65535.00
561.94	65535.00
562.11	65535.00
562.27	65535.00
562.44	65535.00
562.60	65535.00
562.77	65535.00
562.93	65535.00
563.10	65535.00
563.26	65535.00
563.42	65535.00
563.59	65535.00
563.75	65535.00
563.92	65535.00
564.08	65535.00
564.24	65535.00
564.41	65535.00
564.57	65535.00
564.74	65535.00
564.90	65535.00
565.07	65535.00
565.23	65535.00
565.39	65535.00
565.56	65535.00
565.72	65535.00
565.88	65535.00
566.05	65535.00
566.21	65535.00
566.38	65535.00
566.54	65535.00
566.70	65535.00
566.87	65535.00
567.03	65535.00
567.19	65535.00
567.36	65535.00
567.52	65535.00
567.68	65535.00
567.85	65535.00
568.01	65535.00
568.17	65535.00
568.34	65535.00
568.50	65535.00
568.66	65535.00
568.83	65535.00
568.99	65535.00
569.15	65535.00
569.32	65535.00
569.48	65535.00
569.64	65535.00
569.81	65535.00
569.97	65535.00
570.13	65535.00
570.30	65535.00
570.46	65535.00
570.62	65535.00
570.78	65535.00
570.95	65535.00
571.11	65535.00
571.27	65535.00
571.43	65535.00
571.60	65535.00
571.76	65535.00
571.92	65535.00
572.09	65535.00
572.25	65535.00
572.41	65535.00
572.57	65535.00
572.74	65535.00
572.90	65535.00
573.06	65535.00
573.22	65535.00
573.38	65535.00
573.55	65535.00
573.71	65535.00
573.87	65535.00
574.03	65535.00
574.20	65535.00
574.36	65535.00
574.52	65535.00
574.68	65535.00
574.84	65535.00
575.01	65535.00
575.17	65535.00
575.33	65535.00
575.49	65535.00
575.65	65535.00
575.82	65535.00
575.98	65535.00
576.14	65535.00
576.30	65535.00
576.46	65535.00
576.62	65535.00
576.79	65535.00
576.95	65535.00
577.11	65535.00
577.27	65535.00
577.43	65535.00
577.59	65535.00
577.75	65535.00
577.92	65535.00
578.08	65535.00
578.24	65535.00
578.40	65535.00
578.56	65535.00
578.72	65535.00
578.88	65535.00
579.04	65535.00
579.21	65535.00
579.37	65535.00
579.53	65535.00
579.69	65535.00
579.85	65535.00
580.01	65535.00
580.17	65535.00
580.33	65535.00
580.49	65535.00
580.65	65535.00
580.82	65535.00
580.98	65535.00
581.14	65535.00
581.30	65535.00
581.46	65535.00
581.62	65535.00
581.78	65535.00
581.94	65535.00
582.10	65535.00
582.26	65535.00
582.42	65535.00
582.58	65535.00
582.74	65535.00
582.90	65535.00
583.06	65535.00
583.22	65535.00
583.38	65535.00
583.54	65535.00
583.70	65535.00
583.86	65535.00
584.02	65535.00
584.18	65535.00
584.34	65535.00
584.50	65535.00
584.66	65535.00
584.82	65535.00
584.98	65535.00
