SpectraSuite Data File
++++++++++++++++++++++++++++++++++++
Date: Mon Oct 07 14:55:33 GMT-05:00 2013
User: price-jones
Dark Spectrum Present: No
Reference Spectrum Present: No
Number of Sampled Component Spectra: 1
Spectrometers: USB2+H05261
Integration Time (usec): 1000000 (USB2+H05261)
Spectra Averaged: 1 (USB2+H05261)
Boxcar Smoothing: 0 (USB2+H05261)
Correct for Electrical Dark: No (USB2+H05261)
Strobe/Lamp Enabled: No (USB2+H05261)
Correct for Detector Non-linearity: No (USB2+H05261)
Correct for Stray Light: No (USB2+H05261)
Number of Pixels in Processed Spectrum: 2048
>>>>>Begin Processed Spectral Data<<<<<
365.73	0.00
365.92	0.00
366.12	0.00
366.32	0.00
366.52	0.00
366.72	212.99
366.91	11.70
367.11	180.22
367.31	79.58
367.51	124.05
367.70	234.05
367.90	447.04
368.10	208.31
368.30	292.57
368.49	0.00
368.69	435.34
368.89	255.12
369.09	0.00
369.28	77.24
369.48	0.00
369.68	23.41
369.87	278.52
370.07	91.28
370.27	554.71
370.47	2314.79
370.66	8393.16
370.86	10094.73
371.06	11016.90
371.25	11201.80
371.45	9877.06
371.65	9170.22
371.84	8140.38
372.04	8615.51
372.24	9537.68
372.44	9795.14
372.63	9912.17
372.83	9769.40
373.03	8208.26
373.22	7321.20
373.42	7896.97
373.62	8957.23
373.81	10050.26
374.01	9980.04
374.21	9128.09
374.40	8283.16
374.60	8905.74
374.79	9514.28
374.99	10991.16
375.19	11971.84
375.38	12011.63
375.58	11239.25
375.78	11257.98
375.97	11459.26
376.17	12131.00
376.37	11419.47
376.56	12196.53
376.76	12266.75
376.95	13022.74
377.15	14497.28
377.35	15047.30
377.54	15365.62
377.74	15356.25
377.93	15482.64
378.13	15133.90
378.33	14616.65
378.52	13001.68
378.72	13102.32
378.91	12748.90
379.11	12210.57
379.31	11927.37
379.50	11569.27
379.70	13109.34
379.89	14087.68
380.09	14539.41
380.28	15307.10
380.48	15178.37
380.68	14815.59
380.87	14403.66
381.07	13699.16
381.26	12795.71
381.46	12177.81
381.65	11534.16
381.85	11117.54
382.04	10621.35
382.24	10270.27
382.43	9570.45
382.63	9266.18
382.83	9397.25
383.02	9689.82
383.22	9680.46
383.41	9303.63
383.61	9898.13
383.80	11513.10
384.00	12592.08
384.19	13942.57
384.39	14705.59
384.58	14867.08
384.78	14429.40
384.97	14574.52
385.17	13551.70
385.36	12872.95
385.56	12498.46
385.75	12683.36
385.95	13804.48
386.14	15159.65
386.34	15150.29
386.53	14567.49
386.72	13544.68
386.92	13996.40
387.11	14382.59
387.31	15138.58
387.50	14672.82
387.70	14080.66
387.89	14010.45
388.09	13921.51
388.28	14040.87
388.48	14366.21
388.67	15562.22
388.86	16933.78
389.06	17832.54
389.25	19061.32
389.45	19281.33
389.64	18789.82
389.84	18625.98
390.03	18504.28
390.22	18618.96
390.42	18857.70
390.61	19960.09
390.81	21453.35
391.00	21928.48
391.19	21558.67
391.39	20662.25
391.58	19697.95
391.78	18633.00
391.97	18218.73
392.16	16573.33
392.36	15695.63
392.55	12840.18
392.75	10087.71
392.94	8379.12
393.13	8374.44
393.33	9392.57
393.52	11990.56
393.71	15035.60
393.91	16421.20
394.10	17912.12
394.29	19124.52
394.49	20755.87
394.68	22359.14
394.88	22562.76
395.07	23576.22
395.26	22773.41
395.46	22143.81
395.65	21467.39
395.84	18803.86
396.04	16704.40
396.23	13149.13
396.42	10925.62
396.62	10621.35
396.81	12142.70
397.00	15267.31
397.19	19204.10
397.39	22242.11
397.58	25111.61
397.77	26618.91
397.97	27400.65
398.16	27459.16
398.35	28884.55
398.55	29174.78
398.74	30366.11
398.93	31365.52
399.12	30581.44
399.32	29883.96
399.51	30101.63
399.70	32472.59
399.90	32142.58
400.09	31740.00
400.28	31730.64
400.47	31754.05
400.67	33577.33
400.86	34005.64
401.05	33792.65
401.24	34087.56
401.44	34890.37
401.63	34628.23
401.82	34747.59
402.01	34230.33
402.21	35349.11
402.40	35515.29
402.59	34125.01
402.78	32945.38
402.97	31660.43
403.17	33053.05
403.36	34593.12
403.55	36306.39
403.74	36500.65
403.93	35157.19
404.13	33380.72
404.32	31922.57
404.51	33446.26
404.70	36053.61
404.89	35285.92
405.09	35103.35
405.28	34085.22
405.47	33839.47
405.66	33841.81
405.85	33055.39
406.05	32374.29
406.24	32390.67
406.43	34117.99
406.62	35215.70
406.81	35749.34
407.00	34508.86
407.20	33792.65
407.39	33551.58
407.58	34476.09
407.77	35992.76
407.96	37659.22
408.15	38101.58
408.34	37809.01
408.54	39115.03
408.73	39363.13
408.92	38824.81
409.11	38167.12
409.30	36350.86
409.49	33937.77
409.68	32142.58
409.87	31065.93
410.07	32275.99
410.26	35241.45
410.45	37504.74
410.64	37991.58
410.83	38670.33
411.02	39849.96
411.21	41244.92
411.40	40957.03
411.59	41020.23
411.78	40889.16
411.98	40306.37
412.17	40870.43
412.36	40032.52
412.55	40769.79
412.74	39526.97
412.93	39248.44
413.12	38855.23
413.31	42698.39
413.50	42508.81
413.69	42967.55
413.88	42078.15
414.07	40458.50
414.26	41085.76
414.45	42555.62
414.64	42550.94
414.83	43075.22
415.02	41600.68
415.22	41961.12
415.41	43157.14
415.60	43339.70
415.79	44931.26
415.98	46686.67
416.17	45949.40
416.36	45022.54
416.55	44371.88
416.74	43379.49
416.93	42143.69
417.12	41890.91
417.31	42635.20
417.50	43068.20
417.69	44406.98
417.88	44423.37
418.07	43866.32
418.26	42700.73
418.45	43576.09
418.64	45186.38
418.83	46110.89
419.02	45916.63
419.21	45638.11
419.39	43105.65
419.58	41455.57
419.77	42101.56
419.96	43395.87
420.15	45698.96
420.34	46674.96
420.53	47409.89
420.72	48186.95
420.91	48051.20
421.10	47737.57
421.29	46930.08
421.48	45954.08
421.67	47861.61
421.86	46658.58
422.05	44140.16
422.24	40182.32
422.43	39063.54
422.61	42490.09
422.80	46358.99
422.99	46085.15
423.18	44952.33
423.37	44149.53
423.56	44198.68
423.75	45008.50
423.94	44912.54
424.13	43503.54
424.32	43173.52
424.50	43494.18
424.69	42850.53
424.88	43753.97
425.07	43353.74
425.26	43126.71
425.45	42941.81
425.64	42309.86
425.83	42017.30
426.01	44172.93
426.20	44989.78
426.39	44968.71
426.58	42162.41
426.77	39232.06
426.96	37633.47
427.15	39222.70
427.33	41951.76
427.52	43777.38
427.71	43938.88
427.90	42710.10
428.09	42637.54
428.28	41720.05
428.46	40568.51
428.65	40278.28
428.84	40526.38
429.03	41504.72
429.22	39234.40
429.40	37577.30
429.59	34244.38
429.78	30426.96
429.97	30579.10
430.16	30738.26
430.34	30958.27
430.53	30876.35
430.72	31494.25
430.91	34948.88
431.10	40336.79
431.28	46000.89
431.47	48989.75
431.66	49425.09
431.85	46618.79
432.03	42768.61
432.22	42293.48
432.41	42841.17
432.60	47159.45
432.79	48357.81
432.97	49162.95
433.16	48638.67
433.35	45130.21
433.54	40762.77
433.72	38415.21
433.91	39573.78
434.10	43791.42
434.28	46649.22
434.47	48259.51
434.66	47924.81
434.85	46972.21
435.03	47203.92
435.22	49279.98
435.41	51971.60
435.59	51477.74
435.78	51253.05
435.97	51274.12
436.16	50866.86
436.34	50541.53
436.53	49830.01
436.72	50213.85
436.90	47639.26
437.09	47737.57
437.28	46728.80
437.46	48563.78
437.65	48341.42
437.84	45986.85
438.02	42258.37
438.21	42323.91
438.40	43920.15
438.58	47122.01
438.77	47945.87
438.96	48198.65
439.14	49827.66
439.33	50710.05
439.52	51192.20
439.70	50328.54
439.89	49932.99
440.08	48664.42
440.26	48413.98
440.45	49874.48
440.63	51456.68
440.82	52790.78
441.01	53134.84
441.19	52299.27
441.38	52952.28
441.57	53951.69
441.75	54504.06
441.94	54457.24
442.12	54265.32
442.31	54609.38
442.50	54660.87
442.68	54375.33
442.87	54323.83
443.05	53577.20
443.24	53822.96
443.43	54562.57
443.61	55501.12
443.80	55229.62
443.98	53780.83
444.17	53900.20
444.35	55138.34
444.54	55519.85
444.73	55419.20
444.91	54656.19
445.10	53179.31
445.28	51854.57
445.47	51154.75
445.65	51318.59
445.84	52285.23
446.02	53338.47
446.21	53764.45
446.39	53846.36
446.58	53504.65
446.77	54459.58
446.95	54738.11
447.14	55339.63
447.32	56214.99
447.51	55386.44
447.69	54251.28
447.88	53839.34
448.06	54473.63
448.25	54871.52
448.43	55007.27
448.62	54639.81
448.80	54272.34
448.99	54457.24
449.17	54801.30
449.36	54782.58
449.54	56055.83
449.73	55772.63
449.91	56392.87
450.10	57279.93
450.28	57708.25
450.46	57464.83
450.65	57371.21
450.83	57102.05
451.02	56509.89
451.20	56128.39
451.39	56282.86
451.57	56193.92
451.76	56383.51
451.94	55681.34
452.13	54705.34
452.31	54607.04
452.49	52886.74
452.68	53097.39
452.86	53305.70
453.05	53399.32
453.23	54396.39
453.42	54553.21
453.60	55702.41
453.78	55863.91
453.97	55777.31
454.15	55475.38
454.34	54822.37
454.52	55086.85
454.70	54223.19
454.89	54965.14
455.07	55049.40
455.26	55075.15
455.44	56154.13
455.62	56711.18
455.81	56872.68
455.99	56734.59
456.17	56432.66
456.36	56336.69
456.54	57172.27
456.73	57322.06
456.91	57460.15
457.09	57846.34
457.28	58220.83
457.46	56788.42
457.64	56891.40
457.83	55821.78
458.01	55323.24
458.19	55831.14
458.38	55952.85
458.56	57132.48
458.74	56645.65
458.93	56652.67
459.11	56739.27
459.29	56224.35
459.48	56533.30
459.66	56301.59
459.84	56629.26
460.03	57251.84
460.21	56470.11
460.39	57420.36
460.57	57521.01
460.76	57602.92
460.94	57719.95
461.12	57235.46
461.31	57324.40
461.49	57352.49
461.67	57181.63
461.85	57839.32
462.04	58110.82
462.22	58553.18
462.40	57771.44
462.59	58012.52
462.77	57951.66
462.95	57968.05
463.13	57403.98
463.32	57380.57
463.50	57172.27
463.68	57031.83
463.86	57214.40
464.05	56863.32
464.23	56404.57
464.41	56280.52
464.59	55648.58
464.78	57113.75
464.96	56615.22
465.14	56605.86
465.32	57237.80
465.50	57865.06
465.69	57726.97
465.87	57565.48
466.05	56938.21
466.23	55767.94
466.41	55089.19
466.60	55739.86
466.78	55824.12
466.96	56254.78
467.14	56413.93
467.32	57343.12
467.51	56963.96
467.69	55646.24
467.87	56650.33
468.05	56633.94
468.23	56931.19
468.41	56860.97
468.60	56809.48
468.78	57160.56
468.96	56863.32
469.14	57382.91
469.32	57380.57
469.50	56107.32
469.69	56390.53
469.87	56013.70
470.05	55594.74
470.23	55608.79
470.41	55873.27
470.59	56210.31
470.77	56081.58
470.95	56802.46
471.14	57448.45
471.32	57036.51
471.50	58845.75
471.68	58810.64
471.86	58199.76
472.04	58770.85
472.22	58515.73
472.40	57635.69
472.58	57537.39
472.77	57059.92
472.95	57893.15
473.13	58260.62
473.31	57776.12
473.49	57488.24
473.67	57900.17
473.85	58482.97
474.03	59194.49
474.21	58721.70
474.39	59419.18
474.57	59419.18
474.75	59278.75
474.93	58927.67
475.12	58056.99
475.30	58122.52
475.48	58489.99
475.66	58965.12
475.84	58588.29
476.02	58389.34
476.20	57968.05
476.38	58763.83
476.56	58827.02
476.74	59203.85
476.92	59971.55
477.10	60034.74
477.28	60657.32
477.46	60863.29
477.64	60273.48
477.82	60858.61
478.00	61109.05
478.18	60514.55
478.36	60626.90
478.54	60713.50
478.72	60968.61
478.90	61228.41
479.08	62375.28
479.26	61946.96
479.44	61984.41
479.62	61778.44
479.80	62246.55
479.98	61991.43
480.16	62141.22
480.34	62295.70
480.52	62131.86
480.70	62672.52
480.88	62578.90
481.06	62824.66
481.24	63051.69
481.41	63437.88
481.59	63849.81
481.77	63833.43
481.95	63309.15
482.13	63517.46
482.31	62976.79
482.49	63641.51
482.67	63580.65
482.85	63690.66
483.03	63798.32
483.21	64554.32
483.39	64601.13
483.57	63793.64
483.74	63171.06
483.92	63664.91
484.10	63047.01
484.28	64118.98
484.46	64460.69
484.64	64863.27
484.82	64355.37
485.00	63847.47
485.18	63601.72
485.35	62857.43
485.53	60711.16
485.71	59187.47
485.89	58433.81
486.07	60039.42
486.25	61736.31
486.43	63337.24
486.61	63463.63
486.78	63370.00
486.96	63313.83
487.14	64479.42
487.32	64809.43
487.50	65527.98
487.68	65535.00
487.85	65535.00
488.03	65535.00
488.21	65535.00
488.39	65535.00
488.57	65179.24
488.75	65036.47
488.92	65535.00
489.10	65535.00
489.28	65535.00
489.46	65535.00
489.64	65535.00
489.81	65535.00
489.99	65535.00
490.17	65535.00
490.35	65535.00
490.53	65535.00
490.70	65535.00
490.88	65535.00
491.06	65535.00
491.24	65535.00
491.41	65535.00
491.59	65535.00
491.77	65535.00
491.95	65535.00
492.13	65535.00
492.30	65535.00
492.48	65535.00
492.66	65535.00
492.84	65535.00
493.01	65535.00
493.19	65535.00
493.37	65535.00
493.54	65535.00
493.72	65535.00
493.90	65535.00
494.08	65535.00
494.25	65535.00
494.43	65535.00
494.61	65535.00
494.79	65535.00
494.96	65535.00
495.14	65535.00
495.32	65535.00
495.49	65535.00
495.67	65535.00
495.85	65535.00
496.02	65535.00
496.20	65535.00
496.38	65535.00
496.55	65535.00
496.73	65535.00
496.91	65535.00
497.09	65535.00
497.26	65535.00
497.44	65535.00
497.62	65535.00
497.79	65535.00
497.97	65535.00
498.14	65535.00
498.32	65535.00
498.50	65535.00
498.67	65535.00
498.85	65535.00
499.03	65535.00
499.20	65535.00
499.38	65535.00
499.56	65535.00
499.73	65535.00
499.91	65535.00
500.08	65535.00
500.26	65535.00
500.44	65535.00
500.61	65535.00
500.79	65535.00
500.97	65535.00
501.14	65535.00
501.32	65535.00
501.49	65535.00
501.67	65535.00
501.84	65535.00
502.02	65535.00
502.20	65535.00
502.37	65535.00
502.55	65535.00
502.72	65535.00
502.90	65535.00
503.07	65535.00
503.25	65535.00
503.43	65535.00
503.60	65535.00
503.78	65535.00
503.95	65535.00
504.13	65535.00
504.30	65535.00
504.48	65535.00
504.65	65535.00
504.83	65535.00
505.01	65535.00
505.18	65535.00
505.36	65535.00
505.53	65535.00
505.71	65535.00
505.88	65535.00
506.06	65535.00
506.23	65535.00
506.41	65535.00
506.58	65535.00
506.76	65535.00
506.93	65535.00
507.11	65535.00
507.28	65535.00
507.46	65535.00
507.63	65535.00
507.81	65535.00
507.98	65535.00
508.16	65535.00
508.33	65535.00
508.50	65535.00
508.68	65535.00
508.85	65535.00
509.03	65535.00
509.20	65535.00
509.38	65535.00
509.55	65535.00
509.73	65535.00
509.90	65535.00
510.08	65535.00
510.25	65535.00
510.42	65535.00
510.60	65535.00
510.77	65535.00
510.95	65535.00
511.12	65535.00
511.30	65535.00
511.47	65535.00
511.64	65535.00
511.82	65535.00
511.99	65535.00
512.17	65535.00
512.34	65535.00
512.51	65535.00
512.69	65535.00
512.86	65535.00
513.04	65535.00
513.21	65535.00
513.38	65535.00
513.56	65535.00
513.73	65535.00
513.90	65535.00
514.08	65535.00
514.25	65535.00
514.43	65535.00
514.60	65535.00
514.77	65535.00
514.95	65535.00
515.12	65535.00
515.29	65535.00
515.47	65535.00
515.64	65535.00
515.81	65535.00
515.99	65535.00
516.16	65535.00
516.33	65535.00
516.51	65535.00
516.68	65535.00
516.85	65535.00
517.03	65535.00
517.20	65535.00
517.37	65535.00
517.54	65535.00
517.72	65535.00
517.89	65535.00
518.06	65535.00
518.24	65535.00
518.41	65535.00
518.58	65535.00
518.75	65535.00
518.93	65535.00
519.10	65535.00
519.27	65535.00
519.45	65535.00
519.62	65535.00
519.79	65535.00
519.96	65535.00
520.14	65535.00
520.31	65535.00
520.48	65535.00
520.65	65535.00
520.83	65535.00
521.00	65535.00
521.17	65535.00
521.34	65535.00
521.52	65535.00
521.69	65535.00
521.86	65535.00
522.03	65535.00
522.20	65535.00
522.38	65535.00
522.55	65535.00
522.72	65535.00
522.89	65535.00
523.07	65535.00
523.24	65535.00
523.41	65535.00
523.58	65535.00
523.75	65535.00
523.92	65535.00
524.10	65535.00
524.27	65535.00
524.44	65535.00
524.61	65535.00
524.78	65535.00
524.96	65535.00
525.13	65535.00
525.30	65535.00
525.47	65535.00
525.64	65535.00
525.81	65535.00
525.98	65535.00
526.16	65535.00
526.33	65535.00
526.50	65535.00
526.67	65535.00
526.84	65535.00
527.01	65535.00
527.18	65535.00
527.36	65535.00
527.53	65535.00
527.70	65535.00
527.87	65535.00
528.04	65535.00
528.21	65535.00
528.38	65535.00
528.55	65535.00
528.72	65535.00
528.89	65535.00
529.07	65535.00
529.24	65535.00
529.41	65535.00
529.58	65535.00
529.75	65535.00
529.92	65535.00
530.09	65535.00
530.26	65535.00
530.43	65535.00
530.60	65535.00
530.77	65535.00
530.94	65535.00
531.11	65535.00
531.28	65535.00
531.46	65535.00
531.63	65535.00
531.80	65535.00
531.97	65535.00
532.14	65535.00
532.31	65535.00
532.48	65535.00
532.65	65535.00
532.82	65535.00
532.99	65535.00
533.16	65535.00
533.33	65535.00
533.50	65535.00
533.67	65535.00
533.84	65535.00
534.01	65535.00
534.18	65535.00
534.35	65535.00
534.52	65535.00
534.69	65535.00
534.86	65535.00
535.03	65535.00
535.20	65535.00
535.37	65535.00
535.54	65535.00
535.71	65535.00
535.88	65535.00
536.05	65535.00
536.22	65535.00
536.38	65535.00
536.55	65535.00
536.72	65535.00
536.89	65535.00
537.06	65535.00
537.23	65535.00
537.40	65535.00
537.57	65535.00
537.74	65535.00
537.91	65535.00
538.08	65535.00
538.25	65535.00
538.42	65535.00
538.59	65535.00
538.75	65535.00
538.92	65535.00
539.09	65535.00
539.26	65535.00
539.43	65535.00
539.60	65535.00
539.77	65535.00
539.94	65535.00
540.11	65535.00
540.28	65535.00
540.44	65535.00
540.61	65535.00
540.78	65535.00
540.95	65535.00
541.12	65535.00
541.29	65535.00
541.46	65535.00
541.62	65535.00
541.79	65535.00
541.96	65535.00
542.13	65535.00
542.30	65535.00
542.47	65535.00
542.63	65535.00
542.80	65535.00
542.97	65535.00
543.14	65535.00
543.31	65535.00
543.48	65535.00
543.64	65535.00
543.81	65535.00
543.98	65535.00
544.15	65535.00
544.32	65535.00
544.48	65535.00
544.65	65535.00
544.82	65535.00
544.99	65535.00
545.16	65535.00
545.32	65535.00
545.49	65535.00
545.66	65535.00
545.83	65535.00
546.00	65535.00
546.16	65535.00
546.33	65535.00
546.50	65535.00
546.67	65535.00
546.83	65535.00
547.00	65535.00
547.17	65535.00
547.34	65535.00
547.50	65535.00
547.67	65535.00
547.84	65535.00
548.00	65535.00
548.17	65535.00
548.34	65535.00
548.51	65535.00
548.67	65535.00
548.84	65535.00
549.01	65535.00
549.18	65535.00
549.34	65535.00
549.51	65535.00
549.68	65535.00
549.84	65535.00
550.01	65535.00
550.18	65535.00
550.34	65535.00
550.51	65535.00
550.68	65535.00
550.84	65535.00
551.01	65535.00
551.18	65535.00
551.34	65535.00
551.51	65535.00
551.68	65535.00
551.84	65535.00
552.01	65535.00
552.18	65535.00
552.34	65535.00
552.51	65535.00
552.68	65535.00
552.84	65535.00
553.01	65535.00
553.18	65535.00
553.34	65535.00
553.51	65535.00
553.67	65535.00
553.84	65535.00
554.01	65535.00
554.17	65535.00
554.34	65535.00
554.51	65535.00
554.67	65535.00
554.84	65535.00
555.00	65535.00
555.17	65535.00
555.33	65535.00
555.50	65535.00
555.67	65535.00
555.83	65535.00
556.00	65535.00
556.16	65535.00
556.33	65535.00
556.50	65535.00
556.66	65535.00
556.83	65535.00
556.99	65535.00
557.16	65535.00
557.32	65535.00
557.49	65535.00
557.65	65535.00
557.82	65535.00
557.98	65535.00
558.15	65535.00
558.32	65535.00
558.48	65535.00
558.65	65535.00
558.81	65535.00
558.98	65535.00
559.14	65535.00
559.31	65535.00
559.47	65535.00
559.64	65535.00
559.80	65535.00
559.97	65535.00
560.13	65535.00
560.30	65535.00
560.46	65535.00
560.63	65535.00
560.79	65535.00
560.96	65535.00
561.12	65535.00
561.29	65535.00
561.45	65535.00
561.61	65535.00
561.78	65535.00
561.94	65535.00
562.11	65535.00
562.27	65535.00
562.44	65535.00
562.60	65535.00
562.77	65535.00
562.93	65535.00
563.10	65535.00
563.26	65535.00
563.42	65535.00
563.59	65535.00
563.75	65535.00
563.92	65535.00
564.08	65535.00
564.24	65535.00
564.41	65535.00
564.57	65535.00
564.74	65535.00
564.90	65535.00
565.07	65535.00
565.23	65535.00
565.39	65535.00
565.56	65535.00
565.72	65535.00
565.88	65535.00
566.05	65535.00
566.21	65535.00
566.38	65535.00
566.54	65535.00
566.70	65535.00
566.87	65535.00
567.03	65535.00
567.19	65535.00
567.36	65535.00
567.52	65535.00
567.68	65535.00
567.85	65535.00
568.01	65535.00
568.17	65535.00
568.34	65535.00
568.50	65535.00
568.66	65535.00
568.83	65535.00
568.99	65535.00
569.15	65535.00
569.32	65535.00
569.48	65535.00
569.64	65535.00
569.81	65535.00
569.97	65535.00
570.13	65535.00
570.30	65535.00
570.46	65535.00
570.62	65535.00
570.78	65535.00
570.95	65535.00
571.11	65535.00
571.27	65535.00
571.43	65535.00
571.60	65535.00
571.76	65535.00
571.92	65535.00
572.09	65535.00
572.25	65535.00
572.41	65535.00
572.57	65535.00
572.74	65535.00
572.90	65535.00
573.06	65535.00
573.22	65535.00
573.38	65535.00
573.55	65535.00
573.71	65535.00
573.87	65535.00
574.03	65535.00
574.20	65535.00
574.36	65535.00
574.52	65535.00
574.68	65535.00
574.84	65535.00
575.01	65535.00
575.17	65495.21
575.33	65535.00
575.49	65535.00
575.65	65535.00
575.82	65535.00
575.98	65535.00
576.14	65535.00
576.30	65535.00
576.46	65535.00
576.62	65535.00
576.79	65535.00
576.95	65535.00
577.11	65535.00
577.27	65535.00
577.43	65535.00
577.59	65535.00
577.75	65499.89
577.92	64992.00
578.08	64479.42
578.24	64896.03
578.40	65535.00
578.56	65432.02
578.72	65535.00
578.88	65535.00
579.04	65509.25
579.21	65535.00
579.37	65535.00
579.53	65535.00
579.69	65535.00
579.85	65535.00
580.01	65535.00
580.17	65052.85
580.33	65127.75
580.49	65506.91
580.65	65535.00
580.82	65535.00
580.98	65446.06
581.14	65535.00
581.30	65535.00
581.46	65535.00
581.62	65535.00
581.78	65535.00
581.94	65535.00
582.10	65535.00
582.26	65535.00
582.42	65535.00
582.58	65535.00
582.74	65535.00
582.90	65535.00
583.06	65535.00
583.22	65373.50
583.38	65535.00
583.54	65535.00
583.70	65535.00
583.86	65535.00
