SpectraSuite Data File
++++++++++++++++++++++++++++++++++++
Date: Mon Oct 07 14:53:11 GMT-05:00 2013
User: price-jones
Dark Spectrum Present: No
Reference Spectrum Present: No
Number of Sampled Component Spectra: 1
Spectrometers: USB2+H05261
Integration Time (usec): 100000 (USB2+H05261)
Spectra Averaged: 1 (USB2+H05261)
Boxcar Smoothing: 0 (USB2+H05261)
Correct for Electrical Dark: No (USB2+H05261)
Strobe/Lamp Enabled: No (USB2+H05261)
Correct for Detector Non-linearity: No (USB2+H05261)
Correct for Stray Light: No (USB2+H05261)
Number of Pixels in Processed Spectrum: 2048
>>>>>Begin Processed Spectral Data<<<<<
365.73	0.00
365.92	0.00
366.12	0.00
366.32	0.00
366.52	0.00
366.72	0.00
366.91	0.00
367.11	0.00
367.31	0.00
367.51	0.00
367.70	0.00
367.90	0.00
368.10	0.00
368.30	0.00
368.49	0.00
368.69	0.00
368.89	0.00
369.09	0.00
369.28	0.00
369.48	0.00
369.68	0.00
369.87	0.00
370.07	0.00
370.27	0.00
370.47	1165.59
370.66	5001.72
370.86	5654.73
371.06	6300.72
371.25	6101.78
371.45	5600.90
371.65	4945.55
371.84	4652.98
372.04	4985.34
372.24	5558.77
372.44	5830.27
372.63	5425.36
372.83	5153.86
373.03	4540.64
373.22	4311.27
373.42	4592.13
373.62	5200.67
373.81	5628.99
374.01	5640.69
374.21	5107.05
374.40	4711.50
374.60	4851.93
374.79	5652.39
374.99	6452.86
375.19	6974.80
375.38	6707.98
375.58	6389.66
375.78	6438.81
375.97	6441.15
376.17	6698.61
376.37	6806.28
376.56	7052.03
376.76	7414.82
376.95	7793.98
377.15	8163.79
377.35	8484.44
377.54	8905.74
377.74	8985.32
377.93	8940.85
378.13	8814.46
378.33	8484.44
378.52	7616.10
378.72	7470.99
378.91	7475.67
379.11	7157.36
379.31	7033.31
379.50	6937.35
379.70	7709.72
379.89	8271.45
380.09	8727.86
380.28	8954.89
380.48	8784.03
380.68	8659.98
380.87	8435.29
381.07	7808.03
381.26	7033.31
381.46	6780.53
381.65	6607.33
381.85	6490.31
382.04	6211.78
382.24	5746.02
382.43	5610.26
382.63	5469.83
382.83	5352.81
383.02	5385.57
383.22	5425.36
383.41	5540.05
383.61	5902.83
383.80	6623.72
384.00	7520.14
384.19	8505.51
384.39	8613.17
384.58	8617.85
384.78	8425.93
384.97	8741.90
385.17	8147.40
385.36	7548.23
385.56	7213.53
385.75	7616.10
385.95	8308.90
386.14	8915.10
386.34	8833.18
386.53	8496.14
386.72	8018.68
386.92	8124.00
387.11	8615.51
387.31	8872.97
387.50	8652.96
387.70	8662.32
387.89	8369.76
388.09	8610.83
388.28	8475.08
388.48	8655.30
388.67	9500.23
388.86	10377.94
389.06	10895.19
389.25	11585.65
389.45	11501.39
389.64	11506.07
389.84	11204.14
390.03	11105.84
390.22	11398.41
390.42	11782.26
390.61	12688.04
390.81	13142.11
391.00	13411.27
391.19	13575.11
391.39	12671.66
391.58	11999.93
391.78	11386.71
391.97	10923.28
392.16	10197.71
392.36	9172.56
392.55	7351.62
392.75	6022.20
392.94	4940.87
393.13	4987.68
393.33	5900.49
393.52	7536.52
393.71	8870.63
393.91	10071.33
394.10	11068.39
394.29	12044.40
394.49	13158.49
394.68	13982.36
394.88	14246.84
395.07	14523.02
395.26	14471.53
395.46	13958.96
395.65	12996.99
395.84	11379.68
396.04	9469.81
396.23	7845.48
396.42	6764.15
396.62	6443.49
396.81	7618.44
397.00	9753.01
397.19	11793.96
397.39	14267.91
397.58	15620.74
397.77	16929.09
397.97	17317.62
398.16	17848.93
398.35	18235.11
398.55	18731.31
398.74	19594.96
398.93	20100.52
399.12	19716.67
399.32	18956.00
399.51	19445.17
399.70	20884.60
399.90	20350.96
400.09	20428.20
400.28	20130.95
400.47	20662.25
400.67	21577.40
400.86	21837.20
401.05	22012.74
401.24	22340.41
401.44	22412.97
401.63	22197.64
401.82	22246.79
402.01	22382.54
402.21	23037.89
402.40	22923.21
402.59	22101.68
402.78	21411.22
402.97	20629.48
403.17	21200.57
403.36	22937.25
403.55	23543.45
403.74	23931.98
403.93	22794.48
404.13	21003.97
404.32	20315.85
404.51	22190.62
404.70	23211.09
404.89	23201.73
405.09	22960.66
405.28	21855.92
405.47	22417.65
405.66	22132.11
405.85	21778.68
406.05	20966.52
406.24	21694.43
406.43	22118.06
406.62	23040.23
406.81	23351.52
407.00	21991.67
407.20	21621.87
407.39	22045.51
407.58	23075.34
407.77	23726.01
407.96	24493.71
408.15	25013.31
408.34	25067.14
408.54	26258.47
408.73	26190.59
408.92	25572.69
409.11	24886.92
409.30	23728.35
409.49	22459.78
409.68	21043.76
409.87	20643.52
410.07	22204.66
410.26	23683.88
410.45	24985.22
410.64	25628.87
410.83	25912.07
411.02	27129.15
411.21	28004.51
411.40	27433.42
411.59	27393.63
411.78	27395.97
411.98	26906.80
412.17	27484.91
412.36	26925.52
412.55	26864.67
412.74	26572.10
412.93	25853.56
413.12	26647.00
413.31	28746.46
413.50	28964.13
413.69	29778.64
413.88	28247.93
414.07	27800.88
414.26	28175.37
414.45	28772.21
414.64	29043.71
414.83	29085.84
415.02	28236.22
415.22	28474.96
415.41	29228.61
415.60	29743.53
415.79	31489.57
415.98	31571.49
416.17	31779.79
416.36	31147.85
416.55	30429.30
416.74	29350.32
416.93	28266.65
417.12	28804.97
417.31	28980.51
417.50	29481.39
417.69	30415.26
417.88	30106.31
418.07	30279.51
418.26	29193.50
418.45	29872.26
418.64	31239.13
418.83	32168.32
419.02	31646.38
419.21	31159.55
419.39	30005.67
419.58	28542.83
419.77	28741.78
419.96	30199.93
420.15	31215.72
420.34	32444.51
420.53	33415.83
420.72	33909.68
420.91	33759.89
421.10	33113.90
421.29	32968.79
421.48	31952.99
421.67	33546.90
421.86	32369.61
422.05	30520.59
422.24	27321.07
422.43	27524.70
422.61	29989.28
422.80	32577.92
422.99	32180.03
423.18	31180.62
423.37	30888.05
423.56	30782.73
423.75	31466.16
423.94	31608.93
424.13	30085.25
424.32	30607.19
424.50	30548.67
424.69	30218.66
424.88	30382.49
425.07	30349.73
425.26	30211.64
425.45	30066.52
425.64	29315.21
425.83	29287.12
426.01	31452.12
426.20	31761.07
426.39	31475.52
426.58	29149.03
426.77	26981.70
426.96	26419.97
427.15	27300.01
427.33	29799.70
427.52	30593.14
427.71	30792.09
427.90	30223.34
428.09	29813.74
428.28	29104.56
428.46	28070.04
428.65	27665.13
428.84	28676.24
429.03	29338.62
429.22	27349.16
429.40	26253.79
429.59	23803.25
429.78	21050.78
429.97	21460.37
430.16	21350.37
430.34	21385.47
430.53	21565.70
430.72	22649.36
430.91	24671.59
431.10	28830.72
431.28	33979.90
431.47	36343.84
431.66	36002.12
431.85	33251.99
432.03	30115.67
432.22	29228.61
432.41	31173.60
432.60	34022.03
432.79	35468.48
432.97	36114.47
433.16	35168.89
433.35	31873.42
433.54	28907.96
433.72	27229.79
433.91	28479.64
434.10	31498.93
434.28	33596.05
434.47	35594.87
434.66	34754.61
434.85	33521.15
435.03	33542.22
435.22	34543.97
435.41	36828.33
435.59	36327.45
435.78	36950.04
435.97	38010.30
436.16	38085.20
436.34	37514.11
436.53	36769.82
436.72	36966.42
436.90	35206.34
437.09	34904.41
437.28	34593.12
437.46	35821.90
437.65	35566.78
437.84	32781.54
438.02	30483.14
438.21	30625.91
438.40	32341.52
438.58	34506.52
438.77	35763.39
438.96	35906.16
439.14	37207.50
439.33	37830.08
439.52	38845.87
439.70	37876.89
439.89	36587.25
440.08	35985.74
440.26	36140.21
440.45	37528.15
440.63	39988.05
440.82	41474.29
441.01	40832.99
441.19	40580.21
441.38	41022.57
441.57	42576.69
441.75	42930.11
441.94	43372.47
442.12	42712.44
442.31	44032.50
442.50	43283.53
442.68	43105.65
442.87	42920.74
443.05	42284.12
443.24	42560.30
443.43	43412.26
443.61	44229.10
443.80	44797.85
443.98	42548.60
444.17	42204.54
444.35	44783.81
444.54	45230.85
444.73	45069.36
444.91	43105.65
445.10	41619.41
445.28	40301.68
445.47	39447.39
445.65	40006.78
445.84	40825.96
446.02	42223.26
446.21	42167.09
446.39	42579.03
446.58	43152.46
446.77	44025.48
446.95	44533.37
447.14	45818.33
447.32	45586.61
447.51	45076.38
447.69	43482.47
447.88	43229.69
448.06	43676.74
448.25	44786.15
448.43	44753.38
448.62	44067.61
448.80	44100.37
448.99	44268.89
449.17	44690.19
449.36	44353.15
449.54	46038.34
449.73	46457.29
449.91	46902.00
450.10	47618.20
450.28	48296.95
450.46	48222.06
450.65	48121.41
450.83	47920.13
451.02	47044.77
451.20	46878.59
451.39	47243.71
451.57	46710.07
451.76	46614.11
451.94	46019.61
452.13	45668.53
452.31	43952.92
452.49	42398.80
452.68	42518.17
452.86	42829.46
453.05	42731.16
453.23	44364.85
453.42	45535.12
453.60	46330.90
453.78	46539.21
453.97	45986.85
454.15	46316.86
454.34	45523.42
454.52	45851.09
454.70	44626.99
454.89	45357.24
455.07	45448.52
455.26	46202.18
455.44	47515.22
455.62	48126.10
455.81	48507.60
455.99	48004.39
456.17	47316.27
456.36	47433.30
456.54	48790.81
456.73	48421.00
456.91	49425.09
457.09	49408.71
457.28	50075.76
457.46	48140.14
457.64	48226.74
457.83	46754.54
458.01	46185.79
458.19	47693.10
458.38	47611.18
458.56	48811.87
458.74	48879.75
458.93	47903.74
459.11	48151.84
459.29	47751.61
459.48	48065.24
459.66	47449.68
459.84	47461.38
460.03	48318.02
460.21	48198.65
460.39	49474.24
460.57	49350.20
460.76	49684.89
460.94	49991.50
461.12	49305.73
461.31	49530.42
461.49	49628.72
461.67	49553.82
461.85	50571.96
462.04	50337.90
462.22	50518.12
462.40	50480.67
462.59	50241.94
462.77	50335.56
462.95	50370.67
463.13	49879.16
463.32	49467.22
463.50	49413.39
463.68	49235.51
463.86	49661.49
464.05	49045.93
464.23	48222.06
464.41	47730.54
464.59	47468.40
464.78	49282.32
464.96	48837.62
465.14	48720.59
465.32	49874.48
465.50	50487.70
465.69	50644.51
465.87	50211.51
466.05	48767.40
466.23	47363.08
466.41	46328.56
466.60	47793.74
466.78	48018.43
466.96	48381.21
467.14	49111.46
467.32	49397.01
467.51	49345.51
467.69	47569.05
467.87	48168.22
468.05	49036.56
468.23	49202.74
468.41	49132.53
468.60	49387.64
468.78	49446.16
468.96	49141.89
469.14	49900.22
469.32	49834.69
469.50	48261.85
469.69	48495.90
469.87	48039.50
470.05	47985.66
470.23	47779.70
470.41	48250.14
470.59	49130.19
470.77	48921.88
470.95	49610.00
471.14	49982.14
471.32	49909.58
471.50	52144.80
471.68	51983.30
471.86	52308.63
472.04	52250.12
472.22	52161.18
472.40	50665.58
472.58	50412.80
472.77	49804.26
472.95	51295.18
473.13	51636.90
473.31	51091.55
473.49	51311.56
473.67	51817.12
473.85	52034.79
474.03	52846.96
474.21	52664.39
474.39	53113.78
474.57	53394.64
474.75	53195.70
474.93	52739.29
475.12	52207.99
475.30	52044.15
475.48	52556.73
475.66	52931.22
475.84	51995.00
476.02	52538.01
476.20	51676.69
476.38	52460.77
476.56	53488.26
476.74	53949.35
476.92	53890.83
477.10	54307.45
477.28	54923.01
477.46	55140.68
477.64	55414.52
477.82	55433.25
478.00	55819.44
478.18	55243.66
478.36	55271.75
478.54	54930.03
478.72	55334.95
478.90	56287.54
479.08	56601.18
479.26	57237.80
479.44	56945.23
479.62	56732.25
479.80	56732.25
479.98	56877.36
480.16	56961.62
480.34	56704.16
480.52	56919.49
480.70	57190.99
480.88	57174.61
481.06	57715.27
481.24	58047.63
481.41	58358.92
481.59	58906.60
481.77	58794.26
481.95	58274.66
482.13	58340.19
482.31	58206.78
482.49	58829.37
482.67	58756.81
482.85	58981.50
483.03	59224.92
483.21	59346.62
483.39	59372.37
483.57	58759.15
483.74	58761.49
483.92	59007.25
484.10	59140.66
484.28	59838.14
484.46	60088.57
484.64	60119.00
484.82	59393.43
485.00	59451.95
485.18	58644.46
485.35	57759.74
485.53	56002.00
485.71	52978.03
485.89	52917.17
486.07	54770.88
486.25	56732.25
486.43	58230.19
486.61	58644.46
486.78	58775.53
486.96	58920.65
487.14	59917.71
487.32	60488.80
487.50	60896.06
487.68	61652.05
487.85	61740.99
488.03	62019.52
488.21	61666.09
488.39	61361.82
488.57	60725.20
488.75	60505.19
488.92	61492.89
489.10	63051.69
489.28	63678.96
489.46	64203.24
489.64	63983.22
489.81	64264.09
489.99	63805.34
490.17	63945.78
490.35	64395.16
490.53	64025.35
490.70	63725.77
490.88	63753.85
491.06	64418.56
491.24	64362.39
491.41	63217.87
491.59	62496.98
491.77	62047.60
491.95	62773.17
492.13	63515.12
492.30	64516.87
492.48	65010.72
492.66	65474.15
492.84	65415.63
493.01	65207.32
493.19	64708.79
493.37	64472.40
493.54	64533.25
493.72	64994.34
493.90	65535.00
494.08	65535.00
494.25	65535.00
494.43	65535.00
494.61	65535.00
494.79	65535.00
494.96	65535.00
495.14	65535.00
495.32	65535.00
495.49	65322.01
495.67	65535.00
495.85	65535.00
496.02	65535.00
496.20	65535.00
496.38	65535.00
496.55	65535.00
496.73	65535.00
496.91	65535.00
497.09	65535.00
497.26	65535.00
497.44	65535.00
497.62	65535.00
497.79	65535.00
497.97	65535.00
498.14	65535.00
498.32	65535.00
498.50	65535.00
498.67	65535.00
498.85	65535.00
499.03	65535.00
499.20	65535.00
499.38	65535.00
499.56	65535.00
499.73	65535.00
499.91	65535.00
500.08	65535.00
500.26	65535.00
500.44	65535.00
500.61	65535.00
500.79	65535.00
500.97	65535.00
501.14	65535.00
501.32	65535.00
501.49	65535.00
501.67	65535.00
501.84	65535.00
502.02	65535.00
502.20	65535.00
502.37	65535.00
502.55	65535.00
502.72	65535.00
502.90	65535.00
503.07	65535.00
503.25	65535.00
503.43	65535.00
503.60	65535.00
503.78	65535.00
503.95	65535.00
504.13	65535.00
504.30	65535.00
504.48	65535.00
504.65	65535.00
504.83	65535.00
505.01	65535.00
505.18	65535.00
505.36	65535.00
505.53	65535.00
505.71	65535.00
505.88	65535.00
506.06	65535.00
506.23	65535.00
506.41	65535.00
506.58	65535.00
506.76	65535.00
506.93	65535.00
507.11	65535.00
507.28	65535.00
507.46	65535.00
507.63	65535.00
507.81	65535.00
507.98	65535.00
508.16	65535.00
508.33	65535.00
508.50	65535.00
508.68	65535.00
508.85	65535.00
509.03	65535.00
509.20	65535.00
509.38	65535.00
509.55	65535.00
509.73	65535.00
509.90	65535.00
510.08	65535.00
510.25	65535.00
510.42	65535.00
510.60	65535.00
510.77	65535.00
510.95	65535.00
511.12	65535.00
511.30	65535.00
511.47	65535.00
511.64	65535.00
511.82	65535.00
511.99	65535.00
512.17	65535.00
512.34	65535.00
512.51	65535.00
512.69	65535.00
512.86	65535.00
513.04	65535.00
513.21	65535.00
513.38	65535.00
513.56	65535.00
513.73	65535.00
513.90	65535.00
514.08	65535.00
514.25	65535.00
514.43	65535.00
514.60	65535.00
514.77	65535.00
514.95	65535.00
515.12	65535.00
515.29	65535.00
515.47	65535.00
515.64	65535.00
515.81	65535.00
515.99	65535.00
516.16	65535.00
516.33	65535.00
516.51	65535.00
516.68	63749.17
516.85	63456.60
517.03	63896.62
517.20	65535.00
517.37	65535.00
517.54	65535.00
517.72	65535.00
517.89	65535.00
518.06	65535.00
518.24	65174.56
518.41	65535.00
518.58	65535.00
518.75	65535.00
518.93	65535.00
519.10	65535.00
519.27	65535.00
519.45	65535.00
519.62	65535.00
519.79	65535.00
519.96	65535.00
520.14	65535.00
520.31	65535.00
520.48	65535.00
520.65	65535.00
520.83	65535.00
521.00	65535.00
521.17	65535.00
521.34	65535.00
521.52	65535.00
521.69	65535.00
521.86	65535.00
522.03	65535.00
522.20	65535.00
522.38	65535.00
522.55	65535.00
522.72	65535.00
522.89	65535.00
523.07	65535.00
523.24	65535.00
523.41	65535.00
523.58	65535.00
523.75	65535.00
523.92	65535.00
524.10	65535.00
524.27	65535.00
524.44	65535.00
524.61	65535.00
524.78	65535.00
524.96	65535.00
525.13	65535.00
525.30	65535.00
525.47	65535.00
525.64	65535.00
525.81	65535.00
525.98	65535.00
526.16	65535.00
526.33	65535.00
526.50	65535.00
526.67	65535.00
526.84	65535.00
527.01	65535.00
527.18	65535.00
527.36	65535.00
527.53	65535.00
527.70	65535.00
527.87	65535.00
528.04	65535.00
528.21	65535.00
528.38	65535.00
528.55	65535.00
528.72	65535.00
528.89	65535.00
529.07	65535.00
529.24	65535.00
529.41	65535.00
529.58	65535.00
529.75	65535.00
529.92	65535.00
530.09	65535.00
530.26	65535.00
530.43	65535.00
530.60	65535.00
530.77	65535.00
530.94	65535.00
531.11	65535.00
531.28	65535.00
531.46	65535.00
531.63	65535.00
531.80	65535.00
531.97	65535.00
532.14	65535.00
532.31	65535.00
532.48	65535.00
532.65	65535.00
532.82	65535.00
532.99	65535.00
533.16	65535.00
533.33	65535.00
533.50	65535.00
533.67	65535.00
533.84	65535.00
534.01	65535.00
534.18	65535.00
534.35	65535.00
534.52	65535.00
534.69	65535.00
534.86	65535.00
535.03	65535.00
535.20	65535.00
535.37	65535.00
535.54	65535.00
535.71	65535.00
535.88	65535.00
536.05	65535.00
536.22	65535.00
536.38	65535.00
536.55	65535.00
536.72	65535.00
536.89	65535.00
537.06	65535.00
537.23	65535.00
537.40	65535.00
537.57	65535.00
537.74	65535.00
537.91	65535.00
538.08	65535.00
538.25	65535.00
538.42	65535.00
538.59	65535.00
538.75	65535.00
538.92	65535.00
539.09	65535.00
539.26	65535.00
539.43	65535.00
539.60	65535.00
539.77	65535.00
539.94	65535.00
540.11	65535.00
540.28	65535.00
540.44	65535.00
540.61	65535.00
540.78	65535.00
540.95	65535.00
541.12	65535.00
541.29	65535.00
541.46	65535.00
541.62	65535.00
541.79	65535.00
541.96	65535.00
542.13	65535.00
542.30	65535.00
542.47	65535.00
542.63	65535.00
542.80	65535.00
542.97	65535.00
543.14	65535.00
543.31	65535.00
543.48	65535.00
543.64	65535.00
543.81	65535.00
543.98	65535.00
544.15	65535.00
544.32	65535.00
544.48	65535.00
544.65	65535.00
544.82	65535.00
544.99	65535.00
545.16	65535.00
545.32	65535.00
545.49	65535.00
545.66	65535.00
545.83	65535.00
546.00	65535.00
546.16	65535.00
546.33	65535.00
546.50	65535.00
546.67	65535.00
546.83	65535.00
547.00	65535.00
547.17	65535.00
547.34	65535.00
547.50	65535.00
547.67	65535.00
547.84	65535.00
548.00	65535.00
548.17	65535.00
548.34	65535.00
548.51	65535.00
548.67	65535.00
548.84	65535.00
549.01	65535.00
549.18	65535.00
549.34	65535.00
549.51	65535.00
549.68	65535.00
549.84	65535.00
550.01	65535.00
550.18	65535.00
550.34	65535.00
550.51	65535.00
550.68	65535.00
550.84	65535.00
551.01	65535.00
551.18	65535.00
551.34	65535.00
551.51	65535.00
551.68	65535.00
551.84	65535.00
552.01	65535.00
552.18	65535.00
552.34	65535.00
552.51	65535.00
552.68	65535.00
552.84	65535.00
553.01	65535.00
553.18	65535.00
553.34	65535.00
553.51	65535.00
553.67	65535.00
553.84	65535.00
554.01	65535.00
554.17	65535.00
554.34	65535.00
554.51	65535.00
554.67	65535.00
554.84	65535.00
555.00	65535.00
555.17	65535.00
555.33	65535.00
555.50	65535.00
555.67	65535.00
555.83	65535.00
556.00	65535.00
556.16	65535.00
556.33	65535.00
556.50	65535.00
556.66	65535.00
556.83	65535.00
556.99	65535.00
557.16	65535.00
557.32	65535.00
557.49	65535.00
557.65	65535.00
557.82	65535.00
557.98	65535.00
558.15	65535.00
558.32	65535.00
558.48	65535.00
558.65	65535.00
558.81	65535.00
558.98	65535.00
559.14	65535.00
559.31	65535.00
559.47	65535.00
559.64	65535.00
559.80	65535.00
559.97	65535.00
560.13	65535.00
560.30	65535.00
560.46	65535.00
560.63	65535.00
560.79	65535.00
560.96	65535.00
561.12	65535.00
561.29	65535.00
561.45	65535.00
561.61	65535.00
561.78	65535.00
561.94	65535.00
562.11	65535.00
562.27	65535.00
562.44	65535.00
562.60	65535.00
562.77	65535.00
562.93	65535.00
563.10	65535.00
563.26	65535.00
563.42	65535.00
563.59	65535.00
563.75	65535.00
563.92	65535.00
564.08	65535.00
564.24	65535.00
564.41	65535.00
564.57	65535.00
564.74	65535.00
564.90	65535.00
565.07	65535.00
565.23	65535.00
565.39	65535.00
565.56	65265.84
565.72	65085.62
565.88	65535.00
566.05	65535.00
566.21	65535.00
566.38	65535.00
566.54	65535.00
566.70	65535.00
566.87	65535.00
567.03	65535.00
567.19	65535.00
567.36	65535.00
567.52	65535.00
567.68	65535.00
567.85	65535.00
568.01	65357.12
568.17	65139.45
568.34	64947.53
568.50	65303.29
568.66	65017.74
568.83	65258.82
568.99	65305.63
569.15	65511.59
569.32	65535.00
569.48	65385.21
569.64	65329.03
569.81	64898.37
569.97	65113.70
570.13	65111.36
570.30	64437.29
570.46	64154.08
570.62	63697.68
570.78	63800.66
570.95	63969.18
571.11	64521.55
571.27	64580.06
571.43	64954.55
571.60	65329.03
571.76	65382.87
571.92	65509.25
572.09	65535.00
572.25	65518.62
572.41	65385.21
572.57	65326.69
572.74	65293.92
572.90	64961.57
573.06	64903.06
573.22	65197.96
573.38	65202.64
573.55	64994.34
573.71	65160.51
573.87	64968.59
574.03	64797.73
574.20	64839.86
574.36	64729.86
574.52	64718.15
574.68	64622.19
574.84	64025.35
575.01	63625.12
575.17	63671.93
575.33	64023.01
575.49	64310.90
575.65	64411.54
575.82	64189.19
575.98	63770.24
576.14	64212.60
576.30	64250.05
576.46	64491.12
576.62	64296.86
576.79	64418.56
576.95	64044.08
577.11	64076.85
577.27	64027.70
577.43	64104.93
577.59	63601.72
577.75	63409.79
577.92	63039.99
578.08	62829.34
578.24	62911.26
578.40	63288.09
578.56	63248.30
578.72	63229.57
578.88	63636.83
579.04	63618.10
579.21	63788.96
579.37	63592.36
579.53	63791.30
579.69	63779.60
579.85	63922.37
580.01	63781.94
580.17	63447.24
580.33	63341.92
580.49	63430.86
580.65	63646.19
580.82	63781.94
580.98	63700.02
581.14	63636.83
581.30	63606.40
581.46	63597.04
581.62	63662.57
581.78	63723.43
581.94	64144.72
582.10	63856.84
582.26	64006.63
582.42	63957.48
582.58	64044.08
582.74	64114.29
582.90	64142.38
583.06	64034.72
583.22	63791.30
583.38	63728.11
583.54	63835.77
583.70	63487.03
583.86	63854.50
584.02	63772.58
584.18	63760.87
584.34	63519.80
584.50	63543.20
584.66	63348.94
584.82	63049.35
584.98	63262.34
