SpectraSuite Data File
++++++++++++++++++++++++++++++++++++
Date: Mon Oct 07 14:53:30 GMT-05:00 2013
User: price-jones
Dark Spectrum Present: No
Reference Spectrum Present: No
Number of Sampled Component Spectra: 1
Spectrometers: USB2+H05261
Integration Time (usec): 100000 (USB2+H05261)
Spectra Averaged: 1 (USB2+H05261)
Boxcar Smoothing: 0 (USB2+H05261)
Correct for Electrical Dark: No (USB2+H05261)
Strobe/Lamp Enabled: No (USB2+H05261)
Correct for Detector Non-linearity: No (USB2+H05261)
Correct for Stray Light: No (USB2+H05261)
Number of Pixels in Processed Spectrum: 2048
>>>>>Begin Processed Spectral Data<<<<<
365.73	0.00
365.92	0.00
366.12	0.00
366.32	0.00
366.52	0.00
366.72	0.00
366.91	0.00
367.11	0.00
367.31	0.00
367.51	0.00
367.70	0.00
367.90	0.00
368.10	0.00
368.30	0.00
368.49	0.00
368.69	0.00
368.89	0.00
369.09	0.00
369.28	0.00
369.48	0.00
369.68	0.00
369.87	0.00
370.07	0.00
370.27	0.00
370.47	641.31
370.66	3162.06
370.86	3658.26
371.06	4201.26
371.25	4222.33
371.45	3735.50
371.65	3283.77
371.84	3164.40
372.04	3215.90
372.24	3763.58
372.44	3833.80
372.63	3817.41
372.83	3700.39
373.03	3222.92
373.22	2897.58
373.42	3012.27
373.62	3471.01
373.81	3866.56
374.01	3779.97
374.21	3377.39
374.40	3251.00
374.60	3321.22
374.79	3644.21
374.99	4255.09
375.19	4648.30
375.38	4657.67
375.58	4334.67
375.78	4290.20
375.97	4337.01
376.17	4465.74
376.37	4624.90
376.56	4706.82
376.76	4919.81
376.95	5277.91
377.15	5551.75
377.35	5900.49
377.54	5947.30
377.74	6202.42
377.93	6342.85
378.13	5984.75
378.33	5959.00
378.52	5345.78
378.72	5167.90
378.91	5158.54
379.11	5006.41
379.31	4788.74
379.50	4638.94
379.70	5039.17
379.89	5724.95
380.09	5860.70
380.28	6076.03
380.48	6073.69
380.68	5872.40
380.87	5837.30
381.07	5479.19
381.26	5064.92
381.46	4685.75
381.65	4648.30
381.85	4451.70
382.04	4313.61
382.24	3997.64
382.43	3784.65
382.63	3695.71
382.83	3737.84
383.02	3658.26
383.22	3632.51
383.41	3583.36
383.61	4105.30
383.80	4599.15
384.00	5139.82
384.19	5675.80
384.39	6061.99
384.58	6115.82
384.78	5959.00
384.97	5944.96
385.17	5500.26
385.36	5458.13
385.56	5083.64
385.75	5217.05
385.95	5802.19
386.14	6338.17
386.34	6579.25
386.53	6069.01
386.72	5797.51
386.92	5579.84
387.11	5984.75
387.31	6333.49
387.50	6214.12
387.70	5996.45
387.89	5879.43
388.09	5912.19
388.28	5966.03
388.48	6061.99
388.67	6567.54
388.86	7143.32
389.06	7588.02
389.25	7976.55
389.45	8376.78
389.64	8053.78
389.84	8109.96
390.03	7903.99
390.22	7927.39
390.42	8198.90
390.61	8748.92
390.81	9109.36
391.00	9254.48
391.19	9352.78
391.39	9179.58
391.58	8631.90
391.78	8107.62
391.97	7925.05
392.16	7410.14
392.36	6558.18
392.55	5465.15
392.75	4161.47
392.94	3454.63
393.13	3361.01
393.33	4060.83
393.52	5247.48
393.71	6544.14
393.91	7101.19
394.10	7763.56
394.29	8617.85
394.49	9015.74
394.68	9954.30
394.88	9954.30
395.07	10101.75
395.26	10289.00
395.46	10026.86
395.65	9345.76
395.84	8243.37
396.04	6913.94
396.23	5703.89
396.42	4655.33
396.62	4397.87
396.81	5266.21
397.00	6794.58
397.19	8432.95
397.39	10015.15
397.58	11173.72
397.77	11859.49
397.97	12311.22
398.16	12580.38
398.35	12847.20
398.55	13165.51
398.74	13760.01
398.93	14178.97
399.12	14083.00
399.32	13493.19
399.51	13933.21
399.70	14714.95
399.90	14406.00
400.09	14546.43
400.28	14326.42
400.47	14473.87
400.67	15342.21
400.86	15611.37
401.05	15541.16
401.24	15763.51
401.44	15896.92
401.63	15754.15
401.82	16107.57
402.01	16105.23
402.21	16201.19
402.40	16072.46
402.59	15983.52
402.78	15262.63
402.97	14689.20
403.17	14974.75
403.36	16056.08
403.55	16945.48
403.74	16992.29
403.93	16098.20
404.13	14843.68
404.32	15002.83
404.51	15208.80
404.70	16437.58
404.89	16547.59
405.09	16161.40
405.28	15817.34
405.47	15782.23
405.66	15880.53
405.85	15632.44
406.05	14937.30
406.24	15009.86
406.43	15889.90
406.62	16460.99
406.81	16634.19
407.00	15693.29
407.20	15400.72
407.39	15728.40
407.58	16315.87
407.77	16954.84
407.96	17621.89
408.15	17748.28
408.34	17696.79
408.54	18787.48
408.73	18752.37
408.92	18464.49
409.11	17776.37
409.30	17003.99
409.49	16046.71
409.68	15215.82
409.87	14586.22
410.07	15410.09
410.26	16673.98
410.45	17905.10
410.64	18534.70
410.83	19002.81
411.02	19400.70
411.21	19779.87
411.40	19751.78
411.59	19641.78
411.78	19744.76
411.98	19295.38
412.17	19747.10
412.36	19271.97
412.55	19590.28
412.74	19054.30
412.93	18895.14
413.12	18583.85
413.31	20346.28
413.50	20460.96
413.69	21315.26
413.88	20657.57
414.07	19826.68
414.26	19929.66
414.45	20943.11
414.64	20730.12
414.83	20968.86
415.02	20409.47
415.22	20308.83
415.41	20706.72
415.60	21451.01
415.79	22183.60
415.98	22932.57
416.17	22897.46
416.36	22272.54
416.55	21963.59
416.74	21385.47
416.93	20456.28
417.12	20430.54
417.31	20952.48
417.50	21312.92
417.69	22108.70
417.88	21926.14
418.07	21909.75
418.26	21458.03
418.45	21619.53
418.64	22525.32
418.83	22977.04
419.02	22693.83
419.21	22527.66
419.39	21385.47
419.58	20489.05
419.77	20533.52
419.96	21680.38
420.15	22934.91
420.34	23271.95
420.53	24013.90
420.72	24453.92
420.91	24620.10
421.10	24109.86
421.29	24161.35
421.48	23339.82
421.67	24266.67
421.86	23845.38
422.05	22127.42
422.24	19957.75
422.43	19484.96
422.61	21331.64
422.80	23381.95
422.99	23208.75
423.18	22691.49
423.37	22118.06
423.56	21795.07
423.75	22434.03
423.94	22948.95
424.13	21741.24
424.32	21977.63
424.50	22197.64
424.69	21558.67
424.88	21642.93
425.07	21596.12
425.26	21844.22
425.45	21336.32
425.64	21060.14
425.83	21067.16
426.01	22438.72
426.20	22654.05
426.39	22803.84
426.58	21209.93
426.77	19278.99
426.96	18890.46
427.15	19346.87
427.33	21333.98
427.52	21914.44
427.71	22242.11
427.90	21788.05
428.09	21722.51
428.28	21050.78
428.46	20446.92
428.65	20063.07
428.84	20830.77
429.03	20982.90
429.22	20044.35
429.40	18761.73
429.59	17303.58
429.78	15091.77
429.97	15091.77
430.16	15480.30
430.34	15616.05
430.53	15466.26
430.72	15861.81
430.91	17476.78
431.10	20308.83
431.28	23983.47
431.47	26181.23
431.66	26529.97
431.85	23496.64
432.03	21841.88
432.22	21156.10
432.41	21827.84
432.60	24311.14
432.79	25406.52
432.97	25867.60
433.16	25228.63
433.35	23185.35
433.54	20720.76
433.72	19653.48
433.91	19971.79
434.10	22637.66
434.28	24144.97
434.47	25649.93
434.66	25106.93
434.85	24180.07
435.03	24290.08
435.22	24893.94
435.41	26487.84
435.59	26171.87
435.78	27005.10
435.97	27388.95
436.16	27976.42
436.34	27550.45
436.53	26567.42
436.72	26951.27
436.90	25488.43
437.09	24931.39
437.28	24723.08
437.46	25689.72
437.65	25642.91
437.84	24119.22
438.02	21921.46
438.21	21727.19
438.40	23080.02
438.58	25205.23
438.77	25441.62
438.96	26003.35
439.14	26881.05
439.33	27545.76
439.52	27906.21
439.70	27807.90
439.89	26384.86
440.08	26436.35
440.26	25795.04
440.45	26859.99
440.63	28872.85
440.82	30249.08
441.01	29502.45
441.19	29308.19
441.38	29596.07
441.57	30637.61
441.75	31344.45
441.94	31606.59
442.12	31686.17
442.31	31864.05
442.50	31541.06
442.68	31573.83
442.87	31445.10
443.05	30441.01
443.24	30939.54
443.43	31700.22
443.61	32119.17
443.80	32889.21
443.98	30984.01
444.17	30979.33
444.35	32257.26
444.54	32964.10
444.73	32428.12
444.91	31604.25
445.10	29780.98
445.28	29001.58
445.47	28341.55
445.65	28716.03
445.84	29661.61
446.02	30441.01
446.21	31035.50
446.39	30792.09
446.58	31639.36
446.77	31917.89
446.95	32346.20
447.14	33362.00
447.32	33467.32
447.51	33081.13
447.69	31470.84
447.88	31264.88
448.06	31192.32
448.25	32634.09
448.43	32992.19
448.62	31941.29
448.80	31571.49
448.99	32259.60
449.17	32577.92
449.36	32032.57
449.54	33532.86
449.73	34092.24
449.91	34431.62
450.10	35529.33
450.28	35566.78
450.46	35466.14
450.65	35784.45
450.83	35405.28
451.02	34478.43
451.20	34572.05
451.39	34721.85
451.57	34176.50
451.76	34541.63
451.94	33942.45
452.13	33369.02
452.31	31924.91
452.49	30593.14
452.68	30724.21
452.86	31096.36
453.05	31651.06
453.23	32327.48
453.42	32849.42
453.60	34139.05
453.78	34197.57
453.97	33986.92
454.15	33682.65
454.34	32816.65
454.52	33380.72
454.70	32336.84
454.89	32861.12
455.07	33163.05
455.26	33612.43
455.44	34665.67
455.62	35358.47
455.81	35758.70
455.99	35824.24
456.17	34724.19
456.36	34871.64
456.54	35985.74
456.73	35828.92
456.91	36870.46
457.09	36987.49
457.28	37612.41
457.46	35969.35
457.64	35831.26
457.83	34653.97
458.01	33759.89
458.19	34534.60
458.38	35185.27
458.56	36041.91
458.74	35597.21
458.93	35168.89
459.11	35178.25
459.29	34829.51
459.48	35044.84
459.66	34660.99
459.84	35489.54
460.03	35828.92
460.21	35606.57
460.39	36266.60
460.57	36790.88
460.76	36966.42
460.94	37326.86
461.12	36601.30
461.31	36847.05
461.49	36542.78
461.67	36367.24
461.85	37904.98
462.04	37963.49
462.22	37926.04
462.40	37666.24
462.59	37418.14
462.77	37390.06
462.95	37380.70
463.13	37088.13
463.32	36718.32
463.50	36362.56
463.68	36507.68
463.86	36589.59
464.05	36383.63
464.23	35660.40
464.41	35576.14
464.59	34841.21
464.78	36486.61
464.96	36486.61
465.14	35751.68
465.32	36783.86
465.50	38031.36
465.69	37841.78
465.87	37610.07
466.05	36678.54
466.23	34642.27
466.41	33928.41
466.60	34646.95
466.78	34850.58
466.96	35487.20
467.14	35665.08
467.32	36877.48
467.51	36957.06
467.69	34911.43
467.87	35936.59
468.05	36383.63
468.23	36297.03
468.41	36350.86
468.60	36917.27
468.78	36896.20
468.96	36400.01
469.14	37418.14
469.32	37324.52
469.50	36048.93
469.69	36404.69
469.87	35524.65
470.05	35070.59
470.23	35438.05
470.41	35608.91
470.59	35651.04
470.77	36048.93
470.95	36683.22
471.14	37312.82
471.32	37289.42
471.50	39246.10
471.68	39187.59
471.86	39821.87
472.04	39814.85
472.22	39899.11
472.40	38476.07
472.58	37935.40
472.77	37177.07
472.95	37762.20
473.13	39103.33
473.31	38014.98
473.49	37872.21
473.67	38927.79
473.85	39271.85
474.03	40137.85
474.21	39964.65
474.39	40638.72
474.57	41216.83
474.75	40835.33
474.93	40524.04
475.12	39515.26
475.30	39805.49
475.48	40055.93
475.66	40524.04
475.84	39983.37
476.02	40013.80
476.20	39192.27
476.38	39468.45
476.56	40917.25
476.74	41429.82
476.92	41544.51
477.10	42487.74
477.28	43559.71
477.46	43522.26
477.64	43997.39
477.82	44114.42
478.00	44147.18
478.18	43353.74
478.36	43379.49
478.54	42937.13
478.72	43908.45
478.90	44729.98
479.08	45626.40
479.26	46263.03
479.44	45984.51
479.62	45933.01
479.80	46043.02
479.98	46017.27
480.16	46358.99
480.34	46169.41
480.52	46541.55
480.70	46571.98
480.88	46656.24
481.06	47096.26
481.24	47648.63
481.41	48287.59
481.59	48856.34
481.77	48418.66
481.95	48360.15
482.13	48196.31
482.31	48098.01
482.49	48629.31
482.67	48559.09
482.85	48828.26
483.03	49528.08
483.21	49481.27
483.39	49612.34
483.57	49289.34
483.74	48877.41
483.92	48907.83
484.10	49095.08
484.28	49921.29
484.46	50365.99
484.64	50679.62
484.82	50042.99
485.00	49652.12
485.18	48935.92
485.35	47374.78
485.53	44638.70
485.71	40828.30
485.89	39997.41
486.07	41961.12
486.25	45605.34
486.43	48048.86
486.61	48725.27
486.78	48458.45
486.96	48638.67
487.14	50265.34
487.32	50880.91
487.50	51835.84
487.68	52500.56
487.85	53237.83
488.03	53066.97
488.21	52655.03
488.39	51997.34
488.57	51505.83
488.75	51161.77
488.92	51887.34
489.10	54169.36
489.28	55140.68
489.46	55964.55
489.64	55676.66
489.81	55938.80
489.99	55484.74
490.17	55571.34
490.35	55838.16
490.53	55683.69
490.70	55372.39
490.88	55444.95
491.06	56055.83
491.24	55903.70
491.41	54925.35
491.59	53731.68
491.77	52750.99
491.95	53797.21
492.13	54824.71
492.30	56090.94
492.48	56919.49
492.66	57226.10
492.84	57420.36
493.01	57127.80
493.19	56427.98
493.37	56287.54
493.54	56100.30
493.72	56706.50
493.90	57539.73
494.08	58213.80
494.25	58492.33
494.43	58625.74
494.61	58887.88
494.79	58997.88
494.96	58871.49
495.14	58286.36
495.32	57626.33
495.49	56914.81
495.67	57911.88
495.85	59025.97
496.02	59423.86
496.20	59295.13
496.38	58710.00
496.55	58834.05
496.73	59334.92
496.91	59271.73
497.09	60011.34
497.26	59973.89
497.44	59538.55
497.62	59061.08
497.79	58340.19
497.97	57183.97
498.14	57382.91
498.32	58520.41
498.50	59178.10
498.67	59746.86
498.85	59554.93
499.03	59760.90
499.20	59882.61
499.38	60004.31
499.56	60016.02
499.73	59271.73
499.91	58897.24
500.08	58700.64
500.26	58122.52
500.44	58595.31
500.61	59128.95
500.79	58698.30
500.97	58408.07
501.14	58281.68
501.32	58150.61
501.49	58178.70
501.67	58412.75
501.84	58796.60
502.02	59103.21
502.20	59416.84
502.37	59529.19
502.55	59395.77
502.72	60158.79
502.90	60776.69
503.07	60151.77
503.25	59983.25
503.43	59112.57
503.60	58560.20
503.78	57799.53
503.95	58213.80
504.13	59538.55
504.30	60477.10
504.48	60128.36
504.65	59882.61
504.83	59770.26
505.01	60523.91
505.18	60795.42
505.36	61375.87
505.53	61207.35
505.71	61565.45
505.88	61485.87
506.06	61099.68
506.23	60680.73
506.41	60486.46
506.58	60591.79
506.76	60542.64
506.93	60542.64
507.11	60378.80
507.28	60399.86
507.46	60048.78
507.63	59543.23
507.81	59346.62
507.98	59608.76
508.16	60273.48
508.33	60694.77
508.50	60865.63
508.68	61434.38
508.85	61724.61
509.03	61717.59
509.20	61462.47
509.38	60905.42
509.55	60207.94
509.73	60308.58
509.90	60767.33
510.08	60828.18
510.25	60767.33
510.42	60711.16
510.60	60624.56
510.77	60889.04
510.95	61588.86
511.12	61553.75
511.30	61883.76
511.47	61886.10
511.64	62059.30
511.82	61642.69
511.99	61024.79
512.17	60561.36
512.34	60065.17
512.51	60509.87
512.69	60701.79
512.86	60575.40
513.04	61144.16
513.21	61106.71
513.38	60697.11
513.56	60413.91
513.73	59716.43
513.90	60126.02
514.08	60114.32
514.25	60247.73
514.43	60486.46
514.60	60594.13
514.77	60797.76
514.95	60704.13
515.12	60816.48
515.29	61057.56
515.47	61319.70
515.64	61570.13
515.81	61303.31
515.99	60725.20
516.16	59339.60
516.33	57092.69
516.51	55753.90
516.68	55220.26
516.85	54784.92
517.03	55250.69
517.20	57656.76
517.37	59924.74
517.54	60722.86
517.72	60437.31
517.89	58089.76
518.06	55882.63
518.24	56041.79
518.41	58192.74
518.58	59442.59
518.75	59870.90
518.93	59798.35
519.10	59526.84
519.27	60147.09
519.45	60257.09
519.62	61080.96
519.79	61298.63
519.96	61059.90
520.14	60816.48
520.31	59856.86
520.48	59913.03
520.65	60322.63
520.83	61223.73
521.00	61504.60
521.17	61324.38
521.34	60786.05
521.52	61080.96
521.69	61460.13
521.86	61993.77
522.03	61666.09
522.20	60582.43
522.38	59639.19
522.55	59545.57
522.72	60137.72
522.89	60369.44
523.07	60521.57
523.24	60837.54
523.41	61640.35
523.58	61918.87
523.75	62485.28
523.92	62007.81
524.10	62035.90
524.27	61979.73
524.44	61839.29
524.61	61792.48
524.78	61588.86
524.96	61284.59
525.13	61497.58
525.30	61827.59
525.47	62173.99
525.64	62028.88
525.81	61319.70
525.98	60317.95
526.16	58827.02
526.33	58277.00
526.50	57958.69
526.67	57577.18
526.84	58110.82
527.01	58944.05
527.18	59765.58
527.36	60516.89
527.53	61516.30
527.70	61764.40
527.87	61151.18
528.04	60732.22
528.21	61116.07
528.38	61748.01
528.55	62295.70
528.72	62623.37
528.89	62588.27
529.07	62307.40
529.24	61848.66
529.41	60935.85
529.58	60624.56
529.75	60896.06
529.92	61256.50
530.09	61638.01
530.26	62117.82
530.43	62171.65
530.60	62344.85
530.77	62340.17
530.94	62709.97
531.11	62120.16
531.28	61897.81
531.46	61722.27
531.63	61888.45
531.80	61712.91
531.97	61366.51
532.14	60736.90
532.31	59739.83
532.48	59082.14
532.65	59145.34
532.82	59908.35
532.99	61097.34
533.16	61359.48
533.33	61822.91
533.50	61696.52
533.67	61059.90
533.84	60589.45
534.01	60935.85
534.18	60956.91
534.35	61268.20
534.52	61013.08
534.69	61420.34
534.86	61429.70
535.03	61722.27
535.20	62019.52
535.37	62555.50
535.54	62639.76
535.71	62246.55
535.88	61921.21
536.05	61413.32
536.22	61045.85
536.38	60725.20
536.55	60367.10
536.72	59945.80
536.89	59800.69
537.06	60573.06
537.23	61333.74
537.40	61556.09
537.57	61474.17
537.74	61258.84
537.91	61279.91
538.08	61186.28
538.25	61413.32
538.42	61418.00
538.59	61275.22
538.75	60612.85
538.92	60388.16
539.09	60315.61
539.26	60264.11
539.43	60123.68
539.60	60128.36
539.77	60240.71
539.94	60020.70
540.11	59414.50
540.28	58969.80
540.44	58934.69
540.61	59304.49
540.78	59454.29
540.95	59774.94
541.12	60282.84
541.29	60673.71
541.46	60776.69
541.62	60863.29
541.79	60732.22
541.96	59936.44
542.13	60395.18
542.30	60385.82
542.47	60582.43
542.63	60470.08
542.80	59994.95
542.97	60324.97
543.14	60119.00
543.31	60161.13
543.48	60781.37
543.64	61509.28
543.81	61726.95
543.98	61457.79
544.15	60823.50
544.32	60119.00
544.48	60313.26
544.65	60882.02
544.82	61233.10
544.99	60807.12
545.16	60596.47
545.32	60102.62
545.49	60970.96
545.66	61286.93
545.83	61050.53
546.00	60762.65
546.16	60207.94
546.33	60406.89
546.50	60507.53
546.67	60694.77
546.83	60449.02
547.00	60434.97
547.17	59756.22
547.34	59290.45
547.50	59107.89
547.67	59587.70
547.84	59770.26
548.00	60154.11
548.17	60617.53
548.34	60367.10
548.51	60444.33
548.67	60343.69
548.84	60598.81
549.01	60369.44
549.18	60364.76
549.34	60481.78
549.51	60278.16
549.68	60123.68
549.84	59985.59
550.01	59849.84
550.18	59709.41
550.34	59767.92
550.51	60102.62
550.68	60147.09
550.84	59686.00
551.01	59707.07
551.18	59695.36
551.34	59828.77
551.51	60219.64
551.68	60341.35
551.84	60303.90
552.01	60179.85
552.18	60123.68
552.34	59419.18
552.51	59128.95
552.68	59114.91
552.84	59416.84
553.01	59571.32
553.18	59554.93
553.34	59648.55
553.51	59700.04
553.67	59852.18
553.84	60179.85
554.01	60020.70
554.17	59955.16
554.34	59978.57
554.51	60224.32
554.67	60514.55
554.84	60126.02
555.00	59854.52
555.17	59671.96
555.33	59622.81
555.50	59578.34
555.67	59653.23
555.83	59664.94
556.00	59344.28
556.16	59119.59
556.33	58869.15
556.50	58834.05
556.66	58798.94
556.83	58426.79
556.99	58707.66
557.16	58731.06
557.32	58955.75
557.49	59365.35
557.65	59100.87
557.82	59224.92
557.98	58944.05
558.15	58714.68
558.32	57829.96
558.48	56893.74
558.65	57415.68
558.81	57544.41
558.98	57937.62
559.14	57916.56
559.31	58122.52
559.47	58255.93
559.64	57923.58
559.80	57277.59
559.97	57305.68
560.13	57785.49
560.30	58801.28
560.46	59194.49
560.63	59498.76
560.79	59522.16
560.96	59220.23
561.12	58234.87
561.29	57373.55
561.45	57396.96
561.61	57902.51
561.78	58309.77
561.94	58049.97
562.11	58000.82
562.27	58148.27
562.44	58284.02
562.60	58644.46
562.77	58784.90
562.93	58494.67
563.10	58447.86
563.26	57897.83
563.42	58021.88
563.59	57687.18
563.75	57839.32
563.92	57921.24
564.08	57677.82
564.24	58174.02
564.41	58241.89
564.57	57993.79
564.74	58073.37
564.90	57766.76
565.07	57776.12
565.23	57029.49
565.39	56769.69
565.56	56580.11
565.72	56322.65
565.88	56498.19
566.05	56875.02
566.21	57073.96
566.38	57308.02
566.54	57214.40
566.70	57759.74
566.87	57818.25
567.03	57649.74
567.19	57965.71
567.36	57663.78
567.52	57560.79
567.68	57558.45
567.85	56767.35
568.01	56484.15
568.17	55812.41
568.34	56329.67
568.50	55884.97
568.66	56250.09
568.83	56694.80
568.99	56779.06
569.15	56823.53
569.32	56669.05
569.48	56458.40
569.64	56397.55
569.81	56114.34
569.97	56055.83
570.13	56055.83
570.30	55477.72
570.46	55189.83
570.62	54761.51
570.78	54773.22
570.95	54906.63
571.11	55903.70
571.27	55772.63
571.43	55821.78
571.60	56289.88
571.76	56226.69
571.92	56699.48
572.09	56928.85
572.25	56879.70
572.41	56418.61
572.57	56432.66
572.74	56608.20
572.90	56306.27
573.06	56245.41
573.22	55957.53
573.38	56013.70
573.55	55964.55
573.71	56289.88
573.87	56390.53
574.03	55924.76
574.20	55913.06
574.36	55629.85
574.52	55604.11
574.68	55707.09
574.84	55037.70
575.01	55056.42
575.17	54473.63
575.33	54836.41
575.49	55173.45
575.65	55374.73
575.82	55121.96
575.98	54988.55
576.14	54876.20
576.30	55466.02
576.46	55531.55
576.62	55463.67
576.79	55494.10
576.95	54962.80
577.11	54939.39
577.27	55058.76
577.43	55124.30
577.59	54878.54
577.75	54419.80
577.92	53996.16
578.08	53675.51
578.24	53605.29
578.40	53797.21
578.56	54241.92
578.72	54052.33
578.88	54398.73
579.04	54564.91
579.21	54710.02
579.37	54543.84
579.53	54864.50
579.69	54836.41
579.85	55161.75
580.01	54681.94
580.17	54206.81
580.33	54199.79
580.49	54384.69
580.65	54501.71
580.82	54724.07
580.98	54625.76
581.14	54550.87
581.30	54564.91
581.46	54370.64
581.62	54754.49
581.78	54864.50
581.94	55061.10
582.10	54855.14
582.26	54803.64
582.42	54710.02
582.58	55018.97
582.74	54873.86
582.90	54672.57
583.06	54969.82
583.22	54639.81
583.38	54562.57
583.54	54403.41
583.70	54504.06
583.86	54670.23
584.02	54223.19
584.18	54508.74
584.34	54431.50
584.50	54293.41
584.66	54227.87
584.82	53677.85
584.98	53886.15
585.14	53773.81
