SpectraSuite Data File
++++++++++++++++++++++++++++++++++++
Date: Mon Oct 07 14:54:56 GMT-05:00 2013
User: price-jones
Dark Spectrum Present: No
Reference Spectrum Present: No
Number of Sampled Component Spectra: 1
Spectrometers: USB2+H05261
Integration Time (usec): 10000 (USB2+H05261)
Spectra Averaged: 1 (USB2+H05261)
Boxcar Smoothing: 0 (USB2+H05261)
Correct for Electrical Dark: No (USB2+H05261)
Strobe/Lamp Enabled: No (USB2+H05261)
Correct for Detector Non-linearity: No (USB2+H05261)
Correct for Stray Light: No (USB2+H05261)
Number of Pixels in Processed Spectrum: 2048
>>>>>Begin Processed Spectral Data<<<<<
365.73	0.00
365.92	0.00
366.12	0.00
366.32	0.00
366.52	0.00
366.72	0.00
366.91	0.00
367.11	0.00
367.31	0.00
367.51	0.00
367.70	0.00
367.90	0.00
368.10	0.00
368.30	0.00
368.49	0.00
368.69	0.00
368.89	0.00
369.09	0.00
369.28	0.00
369.48	0.00
369.68	0.00
369.87	0.00
370.07	0.00
370.27	0.00
370.47	0.00
370.66	23.41
370.86	72.56
371.06	117.03
371.25	156.82
371.45	102.98
371.65	0.00
371.84	0.00
372.04	14.04
372.24	49.15
372.44	135.75
372.63	126.39
372.83	119.37
373.03	53.83
373.22	0.00
373.42	100.64
373.62	95.96
373.81	140.43
374.01	121.71
374.21	138.09
374.40	91.28
374.60	163.84
374.79	145.11
374.99	163.84
375.19	227.03
375.38	271.50
375.58	152.13
375.78	257.46
375.97	105.32
376.17	231.71
376.37	238.73
376.56	252.78
376.76	220.01
376.95	358.10
377.15	311.29
377.35	416.62
377.54	472.79
377.74	395.55
377.93	421.30
378.13	313.63
378.33	290.23
378.52	285.55
378.72	266.82
378.91	264.48
379.11	243.42
379.31	212.99
379.50	208.31
379.70	229.37
379.89	383.85
380.09	348.74
380.28	358.10
380.48	308.95
380.68	346.40
380.87	327.68
381.07	231.71
381.26	229.37
381.46	264.48
381.65	229.37
381.85	215.33
382.04	100.64
382.24	142.77
382.43	67.88
382.63	79.58
382.83	163.84
383.02	88.94
383.22	161.50
383.41	18.72
383.61	138.09
383.80	201.29
384.00	217.67
384.19	280.86
384.39	383.85
384.58	306.61
384.78	341.72
384.97	311.29
385.17	381.51
385.36	283.20
385.56	278.52
385.75	285.55
385.95	229.37
386.14	318.31
386.34	397.89
386.53	409.59
386.72	327.68
386.92	224.69
387.11	255.12
387.31	360.44
387.50	334.70
387.70	344.06
387.89	332.36
388.09	367.46
388.28	320.65
388.48	339.38
388.67	341.72
388.86	423.64
389.06	510.24
389.25	519.60
389.45	580.45
389.64	519.60
389.84	458.74
390.03	573.43
390.22	463.43
390.42	550.03
390.61	601.52
390.81	627.26
391.00	624.92
391.19	608.54
391.39	610.88
391.58	554.71
391.78	552.37
391.97	528.96
392.16	458.74
392.36	376.83
392.55	308.95
392.75	217.67
392.94	100.64
393.13	39.79
393.33	184.90
393.52	337.04
393.71	411.93
393.91	414.27
394.10	489.17
394.29	512.58
394.49	631.94
394.68	636.63
394.88	734.93
395.07	732.59
395.26	685.78
395.46	720.88
395.65	578.11
395.84	557.05
396.04	430.66
396.23	257.46
396.42	194.26
396.62	159.16
396.81	346.40
397.00	330.02
397.19	592.16
397.39	709.18
397.58	784.08
397.77	835.57
397.97	926.85
398.16	929.19
398.35	1018.13
398.55	924.51
398.74	1151.54
398.93	1097.71
399.12	1004.09
399.32	971.32
399.51	999.41
399.70	1128.14
399.90	1086.01
400.09	1090.69
400.28	1210.06
400.47	1116.44
400.67	1128.14
400.86	1193.67
401.05	1149.20
401.24	1228.78
401.44	1317.72
401.63	1270.91
401.82	1249.85
402.01	1142.18
402.21	1247.51
402.40	1221.76
402.59	1217.08
402.78	1111.75
402.97	1064.94
403.17	1132.82
403.36	1252.19
403.55	1184.31
403.74	1334.11
403.93	1233.46
404.13	1114.10
404.32	1123.46
404.51	1203.04
404.70	1315.38
404.89	1289.64
405.09	1284.95
405.28	1214.74
405.47	1203.04
405.66	1200.69
405.85	1100.05
406.05	1090.69
406.24	1214.74
406.43	1210.06
406.62	1235.80
406.81	1336.45
407.00	1158.57
407.20	1172.61
407.39	1233.46
407.58	1331.76
407.77	1291.98
407.96	1385.60
408.15	1373.89
408.34	1359.85
408.54	1455.81
408.73	1523.69
408.92	1467.52
409.11	1399.64
409.30	1228.78
409.49	1273.25
409.68	1219.42
409.87	1193.67
410.07	1102.39
410.26	1247.51
410.45	1453.47
410.64	1387.94
410.83	1486.24
411.02	1455.81
411.21	1633.69
411.40	1533.05
411.59	1533.05
411.78	1624.33
411.98	1493.26
412.17	1577.52
412.36	1502.62
412.55	1547.09
412.74	1502.62
412.93	1437.09
413.12	1359.85
413.31	1636.03
413.50	1572.84
413.69	1668.80
413.88	1514.33
414.07	1565.82
414.26	1465.18
414.45	1561.14
414.64	1584.54
414.83	1661.78
415.02	1589.22
415.22	1619.65
415.41	1643.06
415.60	1743.70
415.79	1760.08
415.98	1818.60
416.17	1790.51
416.36	1743.70
416.55	1748.38
416.74	1673.48
416.93	1535.39
417.12	1540.07
417.31	1533.05
417.50	1689.87
417.69	1732.00
417.88	1783.49
418.07	1678.16
418.26	1680.50
418.45	1610.29
418.64	1849.02
418.83	1762.42
419.02	1783.49
419.21	1825.62
419.39	1568.16
419.58	1526.03
419.77	1554.12
419.96	1715.61
420.15	1783.49
420.34	1837.32
420.53	1959.03
420.72	1952.01
420.91	2015.20
421.10	1961.37
421.29	1853.70
421.48	1802.21
421.67	1877.11
421.86	1771.79
422.05	1753.06
422.24	1528.37
422.43	1488.58
422.61	1750.72
422.80	1762.42
422.99	1837.32
423.18	1729.66
423.37	1699.23
423.56	1621.99
423.75	1715.61
423.94	1776.47
424.13	1617.31
424.32	1722.63
424.50	1846.68
424.69	1652.42
424.88	1678.16
425.07	1783.49
425.26	1647.74
425.45	1509.65
425.64	1614.97
425.83	1549.43
426.01	1685.19
426.20	1797.53
426.39	1666.46
426.58	1626.67
426.77	1378.58
426.96	1320.06
427.15	1460.49
427.33	1593.90
427.52	1774.13
427.71	1678.16
427.90	1652.42
428.09	1638.38
428.28	1689.87
428.46	1605.61
428.65	1523.69
428.84	1603.27
429.03	1633.69
429.22	1558.80
429.40	1334.11
429.59	1273.25
429.78	1095.37
429.97	1160.91
430.16	1125.80
430.34	1135.16
430.53	1125.80
430.72	1174.95
430.91	1294.32
431.10	1476.88
431.28	1825.62
431.47	2115.84
431.66	2083.08
431.85	1881.79
432.03	1647.74
432.22	1416.02
432.41	1760.08
432.60	1832.64
432.79	1877.11
432.97	1937.96
433.16	1893.49
433.35	1860.73
433.54	1561.14
433.72	1411.34
433.91	1502.62
434.10	1631.35
434.28	1799.87
434.47	1956.69
434.66	1891.15
434.85	1863.07
435.03	1940.30
435.22	1963.71
435.41	2022.22
435.59	2017.54
435.78	2022.22
435.97	2047.97
436.16	2165.00
436.34	2062.01
436.53	2008.18
436.72	2207.13
436.90	1961.37
437.09	1944.99
437.28	1961.37
437.46	2019.88
437.65	2008.18
437.84	1881.79
438.02	1551.78
438.21	1526.03
438.40	1804.55
438.58	1933.28
438.77	1984.77
438.96	1944.99
439.14	1977.75
439.33	2139.25
439.52	2165.00
439.70	2050.31
439.89	1954.35
440.08	1954.35
440.26	2038.61
440.45	2108.82
440.63	2120.53
440.82	2366.28
441.01	2223.51
441.19	2272.66
441.38	2221.17
441.57	2307.77
441.75	2427.14
441.94	2518.42
442.12	2340.54
442.31	2471.61
442.50	2368.62
442.68	2455.22
442.87	2380.32
443.05	2307.77
443.24	2443.52
443.43	2441.18
443.61	2480.97
443.80	2569.91
443.98	2314.79
444.17	2342.88
444.35	2511.39
444.54	2576.93
444.73	2553.52
444.91	2462.24
445.10	2387.35
445.28	2200.10
445.47	2104.14
445.65	2120.53
445.84	2282.02
446.02	2333.51
446.21	2490.33
446.39	2345.22
446.58	2445.86
446.77	2466.92
446.95	2445.86
447.14	2504.37
447.32	2633.10
447.51	2431.82
447.69	2373.30
447.88	2394.37
448.06	2537.14
448.25	2548.84
448.43	2485.65
448.62	2399.05
448.80	2422.45
448.99	2429.48
449.17	2466.92
449.36	2541.82
449.54	2605.02
449.73	2548.84
449.91	2562.89
450.10	2698.64
450.28	2860.13
450.46	2759.49
450.65	2738.43
450.83	2712.68
451.02	2633.10
451.20	2635.44
451.39	2619.06
451.57	2668.21
451.76	2490.33
451.94	2567.57
452.13	2497.35
452.31	2459.90
452.49	2333.51
452.68	2331.17
452.86	2331.17
453.05	2422.45
453.23	2438.84
453.42	2483.31
453.60	2567.57
453.78	2560.55
453.97	2476.29
454.15	2677.57
454.34	2403.73
454.52	2490.33
454.70	2438.84
454.89	2574.59
455.07	2459.90
455.26	2525.44
455.44	2675.23
455.62	2733.75
455.81	2679.91
455.99	2705.66
456.17	2794.60
456.36	2764.17
456.54	2672.89
456.73	2651.83
456.91	2644.81
457.09	2864.82
457.28	2862.48
457.46	2733.75
457.64	2801.62
457.83	2558.21
458.01	2593.31
458.19	2623.74
458.38	2672.89
458.56	2745.45
458.74	2705.66
458.93	2637.78
459.11	2642.46
459.29	2647.15
459.48	2588.63
459.66	2670.55
459.84	2553.52
460.03	2623.74
460.21	2736.09
460.39	2843.75
460.57	2829.71
460.76	2832.05
460.94	2747.79
461.12	2878.86
461.31	2738.43
461.49	2885.88
461.67	2818.00
461.85	2841.41
462.04	2857.79
462.22	2836.73
462.40	2871.84
462.59	2808.64
462.77	2895.24
462.95	2841.41
463.13	2789.92
463.32	2672.89
463.50	2764.17
463.68	2677.57
463.86	2850.77
464.05	2731.41
464.23	2773.53
464.41	2677.57
464.59	2560.55
464.78	2715.02
464.96	2832.05
465.14	2602.68
465.32	2696.30
465.50	2841.41
465.69	2848.43
465.87	2752.47
466.05	2785.24
466.23	2504.37
466.41	2455.22
466.60	2651.83
466.78	2476.29
466.96	2523.10
467.14	2661.19
467.32	2752.47
467.51	2815.66
467.69	2656.51
467.87	2715.02
468.05	2703.32
468.23	2747.79
468.41	2689.28
468.60	2670.55
468.78	2682.25
468.96	2708.00
469.14	2871.84
469.32	2799.28
469.50	2729.06
469.69	2719.70
469.87	2602.68
470.05	2621.40
470.23	2703.32
470.41	2612.04
470.59	2738.43
470.77	2715.02
470.95	2679.91
471.14	2789.92
471.32	2733.75
471.50	2977.16
471.68	2846.09
471.86	2913.97
472.04	3005.25
472.22	3119.93
472.40	2874.18
472.58	2670.55
472.77	2789.92
472.95	2818.00
473.13	2991.20
473.31	2794.60
473.49	2761.83
473.67	2878.86
473.85	2974.82
474.03	2972.48
474.21	2981.84
474.39	3042.70
474.57	3080.14
474.75	3033.33
474.93	2935.03
475.12	2895.24
475.30	2876.52
475.48	2876.52
475.66	2956.10
475.84	2923.33
476.02	2867.16
476.20	2937.37
476.38	3082.49
476.56	3066.10
476.74	3145.68
476.92	3178.45
477.10	3038.02
477.28	3208.87
477.46	3311.86
477.64	3321.22
477.82	3267.39
478.00	3248.66
478.18	3239.30
478.36	3260.37
478.54	3166.74
478.72	3236.96
478.90	3318.88
479.08	3393.78
479.26	3440.59
479.44	3541.23
479.62	3534.21
479.80	3377.39
479.98	3492.08
480.16	3515.48
480.34	3346.97
480.52	3583.36
480.70	3536.55
480.88	3454.63
481.06	3524.85
481.24	3559.95
481.41	3705.07
481.59	3770.60
481.77	3691.02
481.95	3566.98
482.13	3630.17
482.31	3726.13
482.49	3641.87
482.67	3695.71
482.85	3740.18
483.03	3772.94
483.21	3609.11
483.39	3824.44
483.57	3667.62
483.74	3592.72
483.92	3693.37
484.10	3873.59
484.28	3824.44
484.46	3882.95
484.64	3873.59
484.82	3939.12
485.00	3815.07
485.18	3726.13
485.35	3562.30
485.53	3339.94
485.71	3035.67
485.89	2916.31
486.07	3054.40
486.25	3351.65
486.43	3424.20
486.61	3641.87
486.78	3721.45
486.96	3662.94
487.14	3854.86
487.32	3941.46
487.50	4072.53
487.68	4124.02
487.85	4203.60
488.03	4203.60
488.21	4100.62
488.39	4098.28
488.57	4030.40
488.75	3894.65
488.92	4105.30
489.10	4397.87
489.28	4440.00
489.46	4674.05
489.64	4561.70
489.81	4552.34
489.99	4589.79
490.17	4566.39
490.35	4667.03
490.53	4503.19
490.70	4475.10
490.88	4372.12
491.06	4727.88
491.24	4482.13
491.41	4535.96
491.59	4236.37
491.77	4210.62
491.95	4297.22
492.13	4435.32
492.30	4652.98
492.48	4830.87
492.66	4755.97
492.84	4798.10
493.01	4786.40
493.19	4692.77
493.37	4692.77
493.54	4667.03
493.72	4753.63
493.90	4940.87
494.08	5015.77
494.25	5116.41
494.43	4950.23
494.61	5203.01
494.79	5163.22
494.96	5210.03
495.14	4980.66
495.32	4973.64
495.49	4568.73
495.67	4961.94
495.85	5242.80
496.02	5205.35
496.20	5219.39
496.38	5132.79
496.55	5200.67
496.73	5240.46
496.91	5158.54
497.09	5296.63
497.26	5495.58
497.44	5399.62
497.62	5195.99
497.79	5001.72
497.97	4880.02
498.14	4926.83
498.32	5001.72
498.50	5142.16
498.67	5282.59
498.85	5320.04
499.03	5324.72
499.20	5336.42
499.38	5441.75
499.56	5327.06
499.73	5158.54
499.91	5001.72
500.08	5142.16
500.26	4978.32
500.44	4994.70
500.61	5109.39
500.79	5305.99
500.97	4938.53
501.14	5004.07
501.32	4990.02
501.49	4777.03
501.67	4968.96
501.84	4999.38
502.02	5252.16
502.20	5104.71
502.37	5245.14
502.55	5219.39
502.72	5380.89
502.90	5565.79
503.07	5458.13
503.25	5165.56
503.43	5179.61
503.60	5046.20
503.78	4917.47
503.95	5046.20
504.13	5336.42
504.30	5383.23
504.48	5352.81
504.65	5277.91
504.83	5217.05
505.01	5423.02
505.18	5516.64
505.36	5717.93
505.53	5666.44
505.71	5741.33
505.88	5736.65
506.06	5657.07
506.23	5446.43
506.41	5394.93
506.58	5371.53
506.76	5427.70
506.93	5453.45
507.11	5479.19
507.28	5437.06
507.46	5247.48
507.63	5322.38
507.81	5221.74
507.98	5205.35
508.16	5385.57
508.33	5528.35
508.50	5708.57
508.68	5582.18
508.85	5844.32
509.03	5631.33
509.20	5565.79
509.38	5558.77
509.55	5336.42
509.73	5423.02
509.90	5411.32
510.08	5518.98
510.25	5523.66
510.42	5523.66
510.60	5488.56
510.77	5472.17
510.95	5696.86
511.12	5717.93
511.30	5811.55
511.47	5753.04
511.64	5884.11
511.82	5748.36
511.99	5511.96
512.17	5401.96
512.34	5224.08
512.51	5387.91
512.69	5341.10
512.86	5406.64
513.04	5497.92
513.21	5689.84
513.38	5413.66
513.56	5270.89
513.73	5088.32
513.90	5212.37
514.08	5338.76
514.25	5317.70
514.43	5448.77
514.60	5284.93
514.77	5432.38
514.95	5437.06
515.12	5305.99
515.29	5472.17
515.47	5504.94
515.64	5551.75
515.81	5394.93
515.99	5282.59
516.16	5181.95
516.33	4613.20
516.51	4559.36
516.68	4299.56
516.85	4313.61
517.03	4306.59
517.20	4739.58
517.37	5226.42
517.54	5434.72
517.72	5226.42
517.89	4873.00
518.06	4365.10
518.24	4432.97
518.41	4851.93
518.58	5125.77
518.75	5207.69
518.93	5226.42
519.10	5121.09
519.27	5294.29
519.45	5193.65
519.62	5523.66
519.79	5383.23
519.96	5547.07
520.14	5394.93
520.31	5097.69
520.48	5083.64
520.65	5121.09
520.83	5432.38
521.00	5521.32
521.17	5518.98
521.34	5408.98
521.52	5448.77
521.69	5668.78
521.86	5607.92
522.03	5647.71
522.20	5502.60
522.38	5144.50
522.55	5137.48
522.72	5376.21
522.89	5254.50
523.07	5406.64
523.24	5313.02
523.41	5565.79
523.58	5696.86
523.75	5610.26
523.92	5537.71
524.10	5556.43
524.27	5591.54
524.44	5472.17
524.61	5605.58
524.78	5425.36
524.96	5425.36
525.13	5469.83
525.30	5579.84
525.47	5664.10
525.64	5598.56
525.81	5441.75
525.98	5181.95
526.16	4936.19
526.33	4826.18
526.50	4737.24
526.67	4660.01
526.84	4760.65
527.01	5006.41
527.18	5205.35
527.36	5163.22
527.53	5348.12
527.70	5507.28
527.87	5247.48
528.04	5195.99
528.21	5315.36
528.38	5659.42
528.55	5682.82
528.72	5654.73
528.89	5762.40
529.07	5720.27
529.24	5640.69
529.41	5327.06
529.58	5259.18
529.75	5516.64
529.92	5549.41
530.09	5537.71
530.26	5584.52
530.43	5554.09
530.60	5877.09
530.77	5664.10
530.94	5771.76
531.11	5593.88
531.28	5603.24
531.46	5577.50
531.63	5495.58
531.80	5689.84
531.97	5465.15
532.14	5369.19
532.31	5104.71
532.48	4966.62
532.65	4978.32
532.82	5158.54
532.99	5320.04
533.16	5383.23
533.33	5404.30
533.50	5394.93
533.67	5509.62
533.84	5287.27
534.01	5203.01
534.18	5210.03
534.35	5404.30
534.52	5404.30
534.69	5516.64
534.86	5294.29
535.03	5664.10
535.20	5591.54
535.37	5621.97
535.54	5713.25
535.71	5626.65
535.88	5603.24
536.05	5542.39
536.22	5373.87
536.38	5327.06
536.55	5322.38
536.72	4978.32
536.89	5029.81
537.06	5275.57
537.23	5448.77
537.40	5556.43
537.57	5516.64
537.74	5444.09
537.91	5390.25
538.08	5291.95
538.25	5280.25
538.42	5336.42
538.59	5263.86
538.75	5177.26
538.92	5186.63
539.09	5221.74
539.26	5013.43
539.43	5041.51
539.60	5121.09
539.77	5188.97
539.94	5160.88
540.11	4954.91
540.28	4908.10
540.44	5041.51
540.61	4980.66
540.78	4950.23
540.95	4980.66
541.12	5118.75
541.29	5193.65
541.46	5249.82
541.62	5357.49
541.79	5270.89
541.96	5078.96
542.13	5130.45
542.30	5165.56
542.47	5034.49
542.63	5240.46
542.80	5118.75
542.97	5158.54
543.14	4994.70
543.31	5104.71
543.48	5315.36
543.64	5249.82
543.81	5432.38
543.98	5357.49
544.15	5118.75
544.32	5015.77
544.48	5083.64
544.65	5146.84
544.82	5298.97
544.99	5315.36
545.16	5245.14
545.32	4889.38
545.49	5280.25
545.66	5348.12
545.83	5200.67
546.00	5294.29
546.16	5041.51
546.33	5191.31
546.50	5055.56
546.67	5320.04
546.83	5273.23
547.00	5207.69
547.17	4894.06
547.34	4983.00
547.50	4880.02
547.67	4870.65
547.84	5008.75
548.00	5144.50
548.17	5212.37
548.34	5121.09
548.51	5004.07
548.67	5259.18
548.84	5078.96
549.01	4896.40
549.18	5088.32
549.34	5212.37
549.51	5217.05
549.68	5067.26
549.84	5046.20
550.01	5008.75
550.18	5076.62
550.34	4983.00
550.51	5025.13
550.68	5046.20
550.84	5025.13
551.01	4945.55
551.18	4863.63
551.34	5029.81
551.51	5109.39
551.68	5165.56
551.84	5259.18
552.01	5083.64
552.18	5057.90
552.34	4938.53
552.51	4896.40
552.68	4791.08
552.84	4880.02
553.01	4903.42
553.18	4952.57
553.34	5100.03
553.51	5029.81
553.67	5041.51
553.84	4971.30
554.01	4980.66
554.17	4924.49
554.34	5048.54
554.51	4968.96
554.67	5034.49
554.84	5041.51
555.00	4924.49
555.17	4917.47
555.33	4898.74
555.50	5076.62
555.67	4856.61
555.83	4737.24
556.00	4882.36
556.16	4793.42
556.33	4767.67
556.50	4819.16
556.66	4798.10
556.83	4772.35
556.99	4858.95
557.16	4641.28
557.32	4734.90
557.49	4755.97
557.65	4615.54
557.82	4727.88
557.98	4851.93
558.15	4561.70
558.32	4582.77
558.48	4411.91
558.65	4458.72
558.81	4589.79
558.98	4482.13
559.14	4690.43
559.31	4631.92
559.47	4493.83
559.64	4449.36
559.80	4386.16
559.97	4564.04
560.13	4545.32
560.30	4814.48
560.46	4887.04
560.63	4835.55
560.79	4868.31
560.96	4793.42
561.12	4592.13
561.29	4475.10
561.45	4390.84
561.61	4676.39
561.78	4650.64
561.94	4519.57
562.11	4603.83
562.27	4594.47
562.44	4603.83
562.60	4601.49
562.77	4685.75
562.93	4608.51
563.10	4608.51
563.26	4468.08
563.42	4615.54
563.59	4510.21
563.75	4503.19
563.92	4435.32
564.08	4519.57
564.24	4512.55
564.41	4566.39
564.57	4608.51
564.74	4657.67
564.90	4402.55
565.07	4390.84
565.23	4418.93
565.39	4297.22
565.56	4360.42
565.72	4168.49
565.88	4351.06
566.05	4318.29
566.21	4320.63
566.38	4428.29
566.54	4208.28
566.70	4402.55
566.87	4545.32
567.03	4393.19
567.19	4561.70
567.36	4634.26
567.52	4320.63
567.68	4358.08
567.85	4376.80
568.01	4212.96
568.17	4114.66
568.34	4119.34
568.50	4208.28
568.66	4257.43
568.83	4374.46
568.99	4205.94
569.15	4418.93
569.32	4269.14
569.48	4273.82
569.64	4236.37
569.81	4142.75
569.97	4177.86
570.13	4173.18
570.30	4128.70
570.46	4107.64
570.62	4037.42
570.78	4032.74
570.95	3995.29
571.11	4124.02
571.27	4142.75
571.43	4095.94
571.60	4056.15
571.76	4245.73
571.92	4119.34
572.09	4294.88
572.25	4243.39
572.41	4236.37
572.57	4088.92
572.74	4236.37
572.90	4205.94
573.06	4126.36
573.22	4278.50
573.38	4184.88
573.55	4105.30
573.71	4219.99
573.87	4191.90
574.03	4084.23
574.20	4177.86
574.36	4142.75
574.52	4072.53
574.68	4107.64
574.84	4035.08
575.01	3985.93
575.17	3873.59
575.33	3868.91
575.49	4037.42
575.65	4070.19
575.82	3857.20
575.98	3971.89
576.14	3999.98
576.30	4170.83
576.46	4042.11
576.62	4124.02
576.79	3845.50
576.95	3894.65
577.11	3957.85
577.27	4037.42
577.43	3990.61
577.59	3915.72
577.75	3882.95
577.92	3845.50
578.08	3815.07
578.24	3728.47
578.40	3896.99
578.56	3901.67
578.72	3817.41
578.88	3852.52
579.04	3894.65
579.21	4060.83
579.37	3892.31
579.53	3878.27
579.69	3943.80
579.85	4032.74
580.01	3948.48
580.17	3981.25
580.33	3992.95
580.49	3901.67
580.65	3805.71
580.82	3915.72
580.98	4149.77
581.14	3976.57
581.30	3983.59
581.46	3962.53
581.62	3852.52
581.78	3857.20
581.94	3948.48
582.10	3939.12
582.26	3894.65
582.42	3929.76
582.58	3960.19
582.74	3939.12
582.90	3854.86
583.06	3784.65
583.22	3969.55
583.38	3894.65
583.54	3941.46
583.70	3932.10
583.86	3819.75
584.02	3838.48
584.18	3953.16
584.34	3817.41
584.50	3904.01
584.66	3744.86
584.82	3815.07
584.98	3709.75
585.14	3702.73
585.30	3555.27
585.46	3625.49
585.62	3658.26
585.78	3695.71
585.94	3641.87
586.10	3758.90
586.26	3721.45
586.42	3866.56
586.58	3840.82
586.74	3744.86
586.90	3747.20
587.06	3782.31
587.22	3789.33
587.38	3716.77
587.54	3735.50
587.70	3613.79
587.86	3461.65
588.02	3609.11
588.18	3492.08
588.34	3515.48
588.49	3358.67
588.65	3094.19
588.81	2986.52
588.97	3199.51
589.13	3007.59
589.29	3049.72
589.45	3126.96
589.61	3253.34
589.77	3269.73
589.93	3370.37
590.08	3407.82
590.24	3517.83
590.40	3597.40
590.56	3611.45
590.72	3403.14
590.88	3400.80
591.04	3468.67
591.20	3466.33
591.35	3386.76
591.51	3405.48
591.67	3389.10
591.83	3440.59
591.99	3463.99
592.15	3466.33
592.31	3538.89
592.46	3475.70
592.62	3330.58
592.78	3417.18
592.94	3482.72
593.10	3407.82
593.26	3517.83
593.41	3431.23
593.57	3452.29
593.73	3325.90
593.89	3410.16
594.05	3384.41
594.20	3302.50
594.36	3353.99
594.52	3316.54
594.68	3286.11
594.84	3269.73
594.99	3213.56
595.15	3342.28
595.31	3424.20
595.47	3527.19
595.62	3328.24
595.78	3414.84
595.94	3555.27
596.10	3363.35
596.25	3328.24
596.41	3449.95
596.57	3353.99
596.73	3295.47
596.88	3342.28
597.04	3330.58
597.20	3180.79
597.36	3290.79
597.51	3246.32
597.67	3211.22
597.83	3412.50
597.99	3314.20
598.14	3084.83
