SpectraSuite Data File
++++++++++++++++++++++++++++++++++++
Date: Mon Oct 07 14:53:55 GMT-05:00 2013
User: price-jones
Dark Spectrum Present: No
Reference Spectrum Present: No
Number of Sampled Component Spectra: 1
Spectrometers: USB2+H05261
Integration Time (usec): 100000 (USB2+H05261)
Spectra Averaged: 1 (USB2+H05261)
Boxcar Smoothing: 0 (USB2+H05261)
Correct for Electrical Dark: No (USB2+H05261)
Strobe/Lamp Enabled: No (USB2+H05261)
Correct for Detector Non-linearity: No (USB2+H05261)
Correct for Stray Light: No (USB2+H05261)
Number of Pixels in Processed Spectrum: 2048
>>>>>Begin Processed Spectral Data<<<<<
365.73	0.00
365.92	0.00
366.12	0.00
366.32	0.00
366.52	0.00
366.72	0.00
366.91	0.00
367.11	0.00
367.31	0.00
367.51	0.00
367.70	0.00
367.90	0.00
368.10	0.00
368.30	0.00
368.49	0.00
368.69	0.00
368.89	0.00
369.09	0.00
369.28	0.00
369.48	0.00
369.68	0.00
369.87	0.00
370.07	0.00
370.27	0.00
370.47	498.53
370.66	2738.43
370.86	3274.41
371.06	3653.58
371.25	3721.45
371.45	3248.66
371.65	3052.06
371.84	2775.88
372.04	2967.80
372.24	3309.52
372.44	3461.65
372.63	3372.71
372.83	3243.98
373.03	2780.56
373.22	2462.24
373.42	2731.41
373.62	3117.59
373.81	3405.48
374.01	3445.27
374.21	3126.96
374.40	2883.54
374.60	2878.86
374.79	3255.69
374.99	3737.84
375.19	4241.05
375.38	4133.39
375.58	3918.06
375.78	3838.48
375.97	3875.93
376.17	3995.29
376.37	4030.40
376.56	4067.85
376.76	4491.49
376.95	4713.84
377.15	5153.86
377.35	5064.92
377.54	5385.57
377.74	5490.90
377.93	5530.69
378.13	5556.43
378.33	5118.75
378.52	4699.80
378.72	4463.40
378.91	4475.10
379.11	4315.95
379.31	4280.84
379.50	4119.34
379.70	4507.87
379.89	4952.57
380.09	5221.74
380.28	5502.60
380.48	5373.87
380.68	5205.35
380.87	5135.14
381.07	4997.04
381.26	4571.07
381.46	4236.37
381.65	4002.32
381.85	3920.40
382.04	3829.12
382.24	3571.66
382.43	3330.58
382.63	3176.11
382.83	3393.78
383.02	3286.11
383.22	3262.71
383.41	3220.58
383.61	3489.74
383.80	4114.66
384.00	4599.15
384.19	5167.90
384.39	5327.06
384.58	5465.15
384.78	5476.85
384.97	5294.29
385.17	4947.89
385.36	4779.37
385.56	4641.28
385.75	4725.54
385.95	5081.30
386.14	5619.63
386.34	5479.19
386.53	5284.93
386.72	4929.17
386.92	5153.86
387.11	5259.18
387.31	5507.28
387.50	5385.57
387.70	5329.40
387.89	5336.42
388.09	5247.48
388.28	5205.35
388.48	5460.47
388.67	5823.25
388.86	6342.85
389.06	6590.95
389.25	7117.57
389.45	7159.70
389.64	7239.28
389.84	7087.14
390.03	6977.14
390.22	6998.20
390.42	7241.62
390.61	7688.66
390.81	8163.79
391.00	8400.18
391.19	8290.18
391.39	8166.13
391.58	7440.56
391.78	7056.72
391.97	6867.13
392.16	6366.26
392.36	5874.74
392.55	4753.63
392.75	3805.71
392.94	3021.63
393.13	2904.60
393.33	3506.12
393.52	4678.73
393.71	5575.16
393.91	6232.85
394.10	6860.11
394.29	7569.29
394.49	7976.55
394.68	8636.58
394.88	8737.22
395.07	9132.77
395.26	8861.27
395.46	8706.79
395.65	8468.06
395.84	7070.76
396.04	6157.95
396.23	5057.90
396.42	4173.18
396.62	4077.21
396.81	4472.76
397.00	5987.09
397.19	7370.35
397.39	8727.86
397.58	10054.94
397.77	10492.62
397.97	10764.12
398.16	11061.37
398.35	11492.03
398.55	11700.34
398.74	12070.14
398.93	12664.64
399.12	12458.67
399.32	11641.82
399.51	12112.27
399.70	12903.37
399.90	12872.95
400.09	12720.81
400.28	12451.65
400.47	12800.39
400.67	13483.83
400.86	13680.43
401.05	13748.31
401.24	13708.52
401.44	13881.72
401.63	14008.11
401.82	14022.15
402.01	14120.45
402.21	14321.74
402.40	14417.70
402.59	14019.81
402.78	13102.32
402.97	12823.80
403.17	13406.59
403.36	14193.01
403.55	14661.12
403.74	15035.60
403.93	14085.34
404.13	13219.35
404.32	12879.97
404.51	13355.10
404.70	14848.36
404.89	14427.06
405.09	14391.95
405.28	13961.30
405.47	13935.55
405.66	14029.17
405.85	13518.93
406.05	13144.45
406.24	13102.32
406.43	13837.25
406.62	14497.28
406.81	14523.02
407.00	13963.64
407.20	13563.40
407.39	13970.66
407.58	14356.85
407.77	14862.40
407.96	15161.99
408.15	15620.74
408.34	15644.14
408.54	16255.02
408.73	16269.06
408.92	16119.27
409.11	15517.75
409.30	15021.56
409.49	14270.25
409.68	13277.86
409.87	12912.74
410.07	13511.91
410.26	14834.32
410.45	15330.51
410.64	15901.60
410.83	16273.74
411.02	16819.09
411.21	17338.69
411.40	17479.12
411.59	17179.53
411.78	17312.94
411.98	17060.16
412.17	17436.99
412.36	16966.54
412.55	17053.14
412.74	16479.71
412.93	16290.13
413.12	16662.27
413.31	18106.38
413.50	17968.29
413.69	18750.03
413.88	17767.01
414.07	17060.16
414.26	17558.70
414.45	17987.02
414.64	18038.51
414.83	18338.10
415.02	17586.79
415.22	17731.90
415.41	18455.12
415.60	18890.46
415.79	19793.91
415.98	19924.98
416.17	19913.28
416.36	19592.62
416.55	19119.84
416.74	18338.10
416.93	18078.30
417.12	18019.78
417.31	18237.45
417.50	18508.96
417.69	19201.76
417.88	19054.30
418.07	18735.99
418.26	18593.22
418.45	18642.37
418.64	19199.41
418.83	20013.92
419.02	20023.28
419.21	19770.51
419.39	18604.92
419.58	17853.61
419.77	17898.08
419.96	18743.01
420.15	19613.69
420.34	20135.63
420.53	21132.70
420.72	21453.35
420.91	21493.14
421.10	20924.39
421.29	20795.66
421.48	20006.90
421.67	21032.05
421.86	20783.96
422.05	19164.31
422.24	17418.27
422.43	16776.96
422.61	18740.67
422.80	20409.47
422.99	20381.38
423.18	19515.39
423.37	19218.14
423.56	19360.91
423.75	19667.52
423.94	19960.09
424.13	18888.12
424.32	19098.77
424.50	19288.35
424.69	19033.24
424.88	18829.61
425.07	18897.49
425.26	18932.59
425.45	18604.92
425.64	18253.84
425.83	18328.74
426.01	19428.79
426.20	19810.29
426.39	19871.15
426.58	18228.09
426.77	16968.88
426.96	16313.53
427.15	16568.65
427.33	18120.43
427.52	19166.65
427.71	19278.99
427.90	18906.85
428.09	19194.73
428.28	18249.16
428.46	17745.94
428.65	17317.62
428.84	17895.74
429.03	18314.69
429.22	17160.81
429.40	16102.89
429.59	14794.53
429.78	13343.39
429.97	13081.25
430.16	13453.40
430.34	13394.89
430.53	13097.64
430.72	13486.17
430.91	15215.82
431.10	17633.60
431.28	20800.34
431.47	22448.08
431.66	22890.44
431.85	20634.16
432.03	19183.03
432.22	18307.67
432.41	19145.58
432.60	20973.54
432.79	21972.95
432.97	22272.54
433.16	21844.22
433.35	20105.20
433.54	18200.01
433.72	16713.77
433.91	17434.65
434.10	19499.00
434.28	20891.62
434.47	21584.42
434.66	21589.10
434.85	21135.04
435.03	20744.17
435.22	21743.58
435.41	22712.56
435.59	22979.38
435.78	23061.30
435.97	23772.82
436.16	24074.75
436.34	23798.57
436.53	22918.53
436.72	23115.13
436.90	21907.41
437.09	21867.63
437.28	21219.30
437.46	21968.27
437.65	22141.47
437.84	20851.83
438.02	18956.00
438.21	18857.70
438.40	19798.59
438.58	21553.99
438.77	21998.70
438.96	22143.81
439.14	23417.06
439.33	23435.78
439.52	24056.03
439.70	23772.82
439.89	23084.70
440.08	22260.84
440.26	22066.57
440.45	23236.84
440.63	24781.59
440.82	26380.18
441.01	25336.30
441.19	25348.00
441.38	26157.83
441.57	26644.66
441.75	26939.57
441.94	27367.88
442.12	27342.14
442.31	27707.26
442.50	27337.46
442.68	27124.47
442.87	26810.84
443.05	26434.01
443.24	26562.74
443.43	27475.55
443.61	27679.18
443.80	27957.70
443.98	26632.96
444.17	26518.27
444.35	27992.81
444.54	28514.75
444.73	27971.74
444.91	26944.25
445.10	25900.37
445.28	24807.34
445.47	24266.67
445.65	24662.22
445.84	25308.21
446.02	26328.69
446.21	26698.49
446.39	27051.91
446.58	26995.74
446.77	27281.28
446.95	27831.31
447.14	28313.46
447.32	28842.42
447.51	28156.64
447.69	27255.54
447.88	26698.49
448.06	27445.12
448.25	27714.28
448.43	28203.46
448.62	27480.23
448.80	27131.49
448.99	27751.73
449.17	27534.06
449.36	27868.76
449.54	28760.50
449.73	29397.13
449.91	29677.99
450.10	30480.80
450.28	30824.86
450.46	30646.97
450.65	30464.41
450.83	30511.22
451.02	29769.27
451.20	29612.46
451.39	29469.69
451.57	29268.40
451.76	29766.93
451.94	29046.05
452.13	28535.81
452.31	27042.55
452.49	26185.91
452.68	26391.88
452.86	26604.87
453.05	27028.51
453.23	27351.50
453.42	28432.83
453.60	28748.80
453.78	29036.69
453.97	28957.11
454.15	28837.74
454.34	28559.22
454.52	28388.36
454.70	27576.19
454.89	28180.05
455.07	28451.55
455.26	28400.06
455.44	29472.03
455.62	30684.42
455.81	30969.97
455.99	30134.40
456.17	29586.71
456.36	29865.24
456.54	30541.65
456.73	30419.94
456.91	31274.24
457.09	31421.69
457.28	31810.22
457.46	30988.69
457.64	31014.44
457.83	29727.14
458.01	28657.52
458.19	29542.24
458.38	29825.45
458.56	30869.33
458.74	30679.74
458.93	30213.98
459.11	30244.40
459.29	29696.72
459.48	30139.08
459.66	29610.12
459.84	30211.64
460.03	30845.92
460.21	30806.13
460.39	31262.54
460.57	31475.52
460.76	31763.41
460.94	31971.72
461.12	31180.62
461.31	31236.79
461.49	31491.91
461.67	31335.09
461.85	32467.91
462.04	32116.83
462.22	33043.68
462.40	32512.38
462.59	32034.91
462.77	32603.66
462.95	32144.92
463.13	31594.89
463.32	31604.25
463.50	31211.04
463.68	31477.86
463.86	31094.02
464.05	31101.04
464.23	30272.49
464.41	30228.02
464.59	29254.36
464.78	31414.67
464.96	31105.72
465.14	30668.04
465.32	31452.12
465.50	32294.71
465.69	32437.48
465.87	31321.05
466.05	30930.18
466.23	29406.49
466.41	29280.10
466.60	30099.29
466.78	30019.71
466.96	30096.95
467.14	30808.47
467.32	31278.92
467.51	31257.85
467.69	29844.17
467.87	30747.62
468.05	31023.80
468.23	31328.07
468.41	31314.03
468.60	30628.25
468.78	31468.50
468.96	30780.39
469.14	31414.67
469.32	31491.91
469.50	30520.59
469.69	30775.70
469.87	30223.34
470.05	29935.45
470.23	30031.41
470.41	29947.15
470.59	30443.35
470.77	31159.55
470.95	30841.24
471.14	31599.57
471.32	31955.33
471.50	33556.26
471.68	33448.60
471.86	34029.05
472.04	33970.54
472.22	34019.69
472.40	32584.94
472.58	32046.62
472.77	31669.79
472.95	32290.03
473.13	33270.72
473.31	32147.26
473.49	32549.83
473.67	33069.43
473.85	33156.03
474.03	34202.25
474.21	34202.25
474.39	34492.47
474.57	35000.37
474.75	34660.99
474.93	34567.37
475.12	34068.84
475.30	33853.51
475.48	33890.96
475.66	34558.01
475.84	33888.62
476.02	34082.88
476.20	33324.55
476.38	33837.12
476.56	34763.98
476.74	35526.99
476.92	35328.05
477.10	35442.73
477.28	36818.97
477.46	37167.71
477.64	37722.41
477.82	37673.26
478.00	37708.37
478.18	36933.65
478.36	37270.69
478.54	36877.48
478.72	37319.84
478.90	38408.19
479.08	39131.42
479.26	39943.58
479.44	39618.25
479.62	38817.78
479.80	39243.76
479.98	39178.23
480.16	39552.71
480.34	39161.84
480.52	39548.03
480.70	40018.48
480.88	40130.83
481.06	40580.21
481.24	40961.72
481.41	41631.11
481.59	42167.09
481.77	42342.63
481.95	41476.63
482.13	41352.58
482.31	41493.02
482.49	41951.76
482.67	41792.61
482.85	42639.88
483.03	43072.88
483.21	43311.61
483.39	42937.13
483.57	42300.50
483.74	42213.90
483.92	42831.80
484.10	43065.86
484.28	43842.92
484.46	43814.83
484.64	44252.51
484.82	43433.32
485.00	42953.51
485.18	42007.94
485.35	40524.04
485.53	37963.49
485.71	34431.62
485.89	33958.83
486.07	35449.75
486.25	38586.07
486.43	40989.80
486.61	42082.83
486.78	41752.82
486.96	41928.36
487.14	43845.26
487.32	44112.08
487.50	45979.82
487.68	46218.56
487.85	46873.91
488.03	47566.71
488.21	47044.77
488.39	46103.87
488.57	45312.77
488.75	44645.72
488.92	45757.47
489.10	48615.27
489.28	50000.86
489.46	50480.67
489.64	50623.45
489.81	50817.71
489.99	49944.69
490.17	50131.93
490.35	50787.28
490.53	50443.23
490.70	49565.52
490.88	49378.28
491.06	51026.02
491.24	50707.71
491.41	49605.31
491.59	47466.06
491.77	46555.60
491.95	47714.16
492.13	49294.02
492.30	50429.18
492.48	51807.76
492.66	52037.13
492.84	52287.57
493.01	51772.65
493.19	51414.55
493.37	51082.19
493.54	50443.23
493.72	51454.34
493.90	52535.66
494.08	53357.19
494.25	53539.75
494.43	53996.16
494.61	54106.16
494.79	54447.88
494.96	54270.00
495.14	53549.12
495.32	52273.52
495.49	51400.50
495.67	53141.86
495.85	54440.86
496.02	54658.53
496.20	54602.36
496.38	53883.81
496.55	54066.38
496.73	54557.89
496.91	54604.70
497.09	55402.82
497.26	55384.10
497.44	55093.87
497.62	54272.34
497.79	53439.11
497.97	51807.76
498.14	52346.08
498.32	53352.51
498.50	54260.64
498.67	55049.40
498.85	54735.77
499.03	54976.84
499.20	55325.58
499.38	55583.04
499.56	54988.55
499.73	54742.79
499.91	54113.19
500.08	53979.78
500.26	52603.54
500.44	53162.93
500.61	54326.17
500.79	53954.03
500.97	53705.93
501.14	53490.60
501.32	53024.84
501.49	53347.83
501.67	53565.50
501.84	53893.18
502.02	54396.39
502.20	54890.24
502.37	54794.28
502.55	54972.16
502.72	55451.97
502.90	55917.74
503.07	55585.38
503.25	55107.91
503.43	54506.40
503.60	53710.61
503.78	52966.32
503.95	53523.37
504.13	54789.60
504.30	55707.09
504.48	55473.04
504.65	55030.68
504.83	55243.66
505.01	55770.28
505.18	56367.12
505.36	56903.10
505.53	56612.88
505.71	56970.98
505.88	57263.55
506.06	56449.04
506.23	56231.37
506.41	55767.94
506.58	55969.23
506.76	56004.34
506.93	56076.90
507.11	55552.62
507.28	55437.93
507.46	55285.79
507.63	54550.87
507.81	54618.74
507.98	54927.69
508.16	55433.25
508.33	56016.04
508.50	56303.93
508.68	56598.83
508.85	57286.95
509.03	56853.95
509.20	56954.60
509.38	56217.33
509.55	55550.27
509.73	55608.79
509.90	56285.20
510.08	56369.46
510.25	56224.35
510.42	56109.66
510.60	56090.94
510.77	56238.39
510.95	56863.32
511.12	57006.09
511.30	57354.83
511.47	57614.63
511.64	57504.62
511.82	57148.86
511.99	56542.66
512.17	56079.24
512.34	55550.27
512.51	55707.09
512.69	55875.61
512.86	56137.75
513.04	56519.26
513.21	56259.46
513.38	55992.64
513.56	55358.35
513.73	54745.13
513.90	55206.22
514.08	55098.55
514.25	55386.44
514.43	55987.95
514.60	55948.17
514.77	55945.83
514.95	56076.90
515.12	55985.61
515.29	56090.94
515.47	56395.21
515.64	56963.96
515.81	56261.80
515.99	55913.06
516.16	54571.93
516.33	51807.76
516.51	50174.06
516.68	49631.06
516.85	48638.67
517.03	48718.25
517.20	52217.35
517.37	55047.06
517.54	56303.93
517.72	55463.67
517.89	53137.18
518.06	50141.30
518.24	50569.61
518.41	53001.43
518.58	54574.27
518.75	54562.57
518.93	54644.49
519.10	54789.60
519.27	55374.73
519.45	55657.94
519.62	56121.37
519.79	56540.32
519.96	56664.37
520.14	55924.76
520.31	54939.39
520.48	55157.06
520.65	55407.50
520.83	56250.09
521.00	56711.18
521.17	56446.70
521.34	56006.68
521.52	56463.08
521.69	56697.14
521.86	57399.30
522.03	56725.22
522.20	55547.93
522.38	54803.64
522.55	54684.28
522.72	55398.14
522.89	55426.23
523.07	55767.94
523.24	55840.50
523.41	56790.76
523.58	57066.94
523.75	57579.52
523.92	57181.63
524.10	57336.10
524.27	57176.95
524.44	57301.00
524.61	56811.82
524.78	56786.08
524.96	56608.20
525.13	56765.01
525.30	56926.51
525.47	57502.28
525.64	57181.63
525.81	56708.84
525.98	55044.72
526.16	53769.13
526.33	52608.22
526.50	52404.59
526.67	51917.76
526.84	52882.06
527.01	53731.68
527.18	54583.63
527.36	55714.11
527.53	56566.07
527.70	56889.06
527.87	56371.80
528.04	55800.71
528.21	56317.97
528.38	56893.74
528.55	57607.61
528.72	57886.13
528.89	58045.29
529.07	57752.72
529.24	57097.37
529.41	56072.21
529.58	55744.54
529.75	55929.44
529.92	56268.82
530.09	56582.45
530.26	57291.63
530.43	57516.32
530.60	57483.56
530.77	57790.17
530.94	57869.75
531.11	57687.18
531.28	56872.68
531.46	56868.00
531.63	56900.76
531.80	56903.10
531.97	56512.23
532.14	55723.47
532.31	54454.90
532.48	53893.18
532.65	53790.19
532.82	54808.32
532.99	55891.99
533.16	56446.70
533.33	56978.00
533.50	56863.32
533.67	56006.68
533.84	55444.95
534.01	55554.96
534.18	56030.08
534.35	56079.24
534.52	56191.58
534.69	56362.44
534.86	56870.34
535.03	56849.27
535.20	57223.76
535.37	57895.49
535.54	57853.36
535.71	57116.09
535.88	57123.11
536.05	56376.48
536.22	56107.32
536.38	55517.51
536.55	55269.41
536.72	54815.35
536.89	54433.84
537.06	55503.46
537.23	56479.47
537.40	56449.04
537.57	56470.11
537.74	56303.93
537.91	56240.73
538.08	56109.66
538.25	56472.45
538.42	56385.85
538.59	56512.23
538.75	55690.71
538.92	55306.86
539.09	55168.77
539.26	55058.76
539.43	54562.57
539.60	55044.72
539.77	55302.18
539.94	55051.74
540.11	54138.93
540.28	53750.40
540.44	53371.24
540.61	54019.56
540.78	54197.44
540.95	54555.55
541.12	55281.11
541.29	55491.76
541.46	55798.37
541.62	55718.79
541.79	55751.56
541.96	54878.54
542.13	55061.10
542.30	55037.70
542.47	55482.40
542.63	55096.21
542.80	54791.94
542.97	54993.23
543.14	54960.46
543.31	54796.62
543.48	55529.21
543.64	56301.59
543.81	56584.79
543.98	56575.43
544.15	55796.03
544.32	55002.59
544.48	54927.69
544.65	55611.13
544.82	56142.43
544.99	55569.00
545.16	55189.83
545.32	54960.46
545.49	55828.80
545.66	56425.64
545.83	55810.07
546.00	55334.95
546.16	54894.92
546.33	55199.19
546.50	55304.52
546.67	55913.06
546.83	54976.84
547.00	55253.03
547.17	54522.78
547.34	54117.87
547.50	53888.49
547.67	54344.90
547.84	54410.43
548.00	54773.22
548.17	55377.08
548.34	55173.45
548.51	55023.65
548.67	55159.41
548.84	55206.22
549.01	55267.07
549.18	54986.21
549.34	54918.33
549.51	54948.76
549.68	54944.08
549.84	54534.48
550.01	54813.01
550.18	54337.88
550.34	54536.82
550.51	54358.94
550.68	54803.64
550.84	54169.36
551.01	54185.74
551.18	54103.82
551.34	54391.71
551.51	54822.37
551.68	55061.10
551.84	55054.08
552.01	54887.90
552.18	54688.96
552.34	53972.75
552.51	53544.44
552.68	53137.18
552.84	54103.82
553.01	53993.82
553.18	53989.14
553.34	54131.91
553.51	54553.21
553.67	54841.09
553.84	54763.85
554.01	54635.13
554.17	54447.88
554.34	54461.93
554.51	54543.84
554.67	55091.53
554.84	54735.77
555.00	54120.21
555.17	54143.61
555.33	54087.44
555.50	53925.94
555.67	54232.55
555.83	53797.21
556.00	53624.01
556.16	53914.24
556.33	53338.47
556.50	53052.92
556.66	53265.91
556.83	52786.10
556.99	53017.82
557.16	52985.05
557.32	53338.47
557.49	53666.14
557.65	53471.88
557.82	53422.73
557.98	53202.72
558.15	52825.89
558.32	51807.76
558.48	51194.54
558.65	51253.05
558.81	51763.29
558.98	51877.97
559.14	52346.08
559.31	52306.29
559.47	52210.33
559.64	51868.61
559.80	51592.43
559.97	51697.75
560.13	52030.11
560.30	53165.27
560.46	53588.91
560.63	53712.95
560.79	53865.09
560.96	53324.43
561.12	52266.50
561.29	51154.75
561.45	51327.95
561.61	51945.85
561.78	52444.38
561.94	52112.03
562.11	52060.54
562.27	51920.10
562.44	52378.85
562.60	52729.93
562.77	52886.74
562.93	52713.55
563.10	52729.93
563.26	51978.62
563.42	52046.49
563.59	51564.34
563.75	51852.23
563.92	51992.66
564.08	51786.69
564.24	52336.72
564.41	52250.12
564.57	51915.42
564.74	51814.78
564.90	51700.09
565.07	51536.26
565.23	50981.55
565.39	50623.45
565.56	50113.21
565.72	50019.59
565.88	50415.14
566.05	50438.54
566.21	51026.02
566.38	50885.59
566.54	51159.43
566.70	51421.57
566.87	51716.48
567.03	51379.44
567.19	52020.75
567.36	51880.31
567.52	51304.54
567.68	51143.05
567.85	50412.80
568.01	49968.10
568.17	49336.15
568.34	49708.30
568.50	49474.24
568.66	49471.90
568.83	49998.52
568.99	50005.55
569.15	50396.42
569.32	49844.05
569.48	49897.88
569.64	50017.25
569.81	49731.70
569.97	49509.35
570.13	49251.89
570.30	48587.18
570.46	48261.85
570.62	47402.87
570.78	47264.78
570.95	47643.94
571.11	48645.69
571.27	48992.09
571.43	49233.17
571.60	49059.97
571.76	49940.01
571.92	49743.41
572.09	50241.94
572.25	49928.31
572.41	49963.42
572.57	49818.30
572.74	49968.10
572.90	49455.52
573.06	48940.60
573.22	49518.71
573.38	49188.70
573.55	49509.35
573.71	49790.22
573.87	49525.74
574.03	49235.51
574.20	49191.04
574.36	48624.63
574.52	49092.74
574.68	48858.68
574.84	48095.67
575.01	47423.93
575.17	47220.31
575.33	47440.32
575.49	48299.30
575.65	48477.18
575.82	47707.14
575.98	47674.37
576.14	48074.60
576.30	48320.36
576.46	48697.19
576.62	48458.45
576.79	48493.56
576.95	47962.26
577.11	47798.42
577.27	48191.63
577.43	47938.85
577.59	47419.25
577.75	46988.60
577.92	46366.01
578.08	45925.99
578.24	46157.70
578.40	46412.82
578.56	46990.94
578.72	47042.43
578.88	47051.79
579.04	47590.11
579.21	47208.61
579.37	47133.71
579.53	47365.42
579.69	47004.98
579.85	47620.54
580.01	47356.06
580.17	47110.30
580.33	47023.70
580.49	46937.10
580.65	47140.73
580.82	47084.56
580.98	47538.62
581.14	47234.35
581.30	47683.73
581.46	47236.69
581.62	47419.25
581.78	47435.64
581.94	47992.68
582.10	47480.11
582.26	47744.59
582.42	47807.78
582.58	47524.58
582.74	47332.65
582.90	47892.04
583.06	47402.87
583.22	47613.52
583.38	47285.84
583.54	46897.31
583.70	47356.06
583.86	47161.79
584.02	46698.37
584.18	47037.75
584.34	46752.20
584.50	46480.70
584.66	46639.86
584.82	45940.04
584.98	46080.47
585.14	45404.05
585.30	44692.53
