SpectraSuite Data File
++++++++++++++++++++++++++++++++++++
Date: Mon Oct 07 14:53:52 GMT-05:00 2013
User: price-jones
Dark Spectrum Present: No
Reference Spectrum Present: No
Number of Sampled Component Spectra: 1
Spectrometers: USB2+H05261
Integration Time (usec): 100000 (USB2+H05261)
Spectra Averaged: 1 (USB2+H05261)
Boxcar Smoothing: 0 (USB2+H05261)
Correct for Electrical Dark: No (USB2+H05261)
Strobe/Lamp Enabled: No (USB2+H05261)
Correct for Detector Non-linearity: No (USB2+H05261)
Correct for Stray Light: No (USB2+H05261)
Number of Pixels in Processed Spectrum: 2048
>>>>>Begin Processed Spectral Data<<<<<
365.73	0.00
365.92	0.00
366.12	0.00
366.32	0.00
366.52	0.00
366.72	0.00
366.91	0.00
367.11	0.00
367.31	0.00
367.51	0.00
367.70	0.00
367.90	0.00
368.10	0.00
368.30	0.00
368.49	0.00
368.69	0.00
368.89	0.00
369.09	0.00
369.28	0.00
369.48	0.00
369.68	0.00
369.87	0.00
370.07	0.00
370.27	0.00
370.47	568.75
370.66	2841.41
370.86	3419.52
371.06	3712.09
371.25	3810.39
371.45	3365.69
371.65	3084.83
371.84	2839.07
372.04	2932.69
372.24	3442.93
372.44	3480.38
372.63	3520.17
372.83	3190.15
373.03	2864.82
373.22	2502.03
373.42	2696.30
373.62	3183.13
373.81	3433.57
374.01	3452.29
374.21	3185.47
374.40	2761.83
374.60	2881.20
374.79	3445.27
374.99	3829.12
375.19	4252.75
375.38	4262.12
375.58	3981.25
375.78	3868.91
375.97	3840.82
376.17	4138.07
376.37	4149.77
376.56	4280.84
376.76	4423.61
376.95	4786.40
377.15	5083.64
377.35	5310.68
377.54	5584.52
377.74	5610.26
377.93	5666.44
378.13	5458.13
378.33	5177.26
378.52	4847.25
378.72	4493.83
378.91	4662.35
379.11	4449.36
379.31	4175.52
379.50	4285.52
379.70	4428.29
379.89	5238.12
380.09	5341.10
380.28	5542.39
380.48	5544.73
380.68	5542.39
380.87	5366.85
381.07	4858.95
381.26	4564.04
381.46	4215.30
381.65	4072.53
381.85	3955.51
382.04	3744.86
382.24	3611.45
382.43	3398.46
382.63	3393.78
382.83	3361.01
383.02	3393.78
383.22	3290.79
383.41	3391.44
383.61	3665.28
383.80	4168.49
384.00	4615.54
384.19	5195.99
384.39	5537.71
384.58	5350.46
384.78	5284.93
384.97	5383.23
385.17	4901.08
385.36	4819.16
385.56	4571.07
385.75	4683.41
385.95	5254.50
386.14	5689.84
386.34	5533.03
386.53	5163.22
386.72	5158.54
386.92	5078.96
387.11	5373.87
387.31	5631.33
387.50	5504.94
387.70	5399.62
387.89	5350.46
388.09	5369.19
388.28	5451.11
388.48	5460.47
388.67	5799.85
388.86	6506.69
389.06	6532.44
389.25	7356.30
389.45	7337.58
389.64	7089.48
389.84	7438.22
390.03	7218.21
390.22	7239.28
390.42	7375.03
390.61	7845.48
390.81	8198.90
391.00	8634.24
391.19	8388.48
391.39	8248.05
391.58	7751.85
391.78	7143.32
391.97	7115.23
392.16	6544.14
392.36	5956.66
392.55	4784.06
392.75	3838.48
392.94	3148.02
393.13	2979.50
393.33	3588.04
393.52	4753.63
393.71	5605.58
393.91	6267.95
394.10	6883.52
394.29	7599.72
394.49	8346.35
394.68	8765.31
394.88	8959.57
395.07	9233.41
395.26	8959.57
395.46	8905.74
395.65	8376.78
395.84	7236.94
396.04	6221.14
396.23	5151.52
396.42	4219.99
396.62	4063.17
396.81	4835.55
397.00	6045.60
397.19	7538.87
397.39	8954.89
397.58	10141.54
397.77	10635.39
397.97	11162.01
398.16	11105.84
398.35	11569.27
398.55	12002.27
398.74	12367.39
398.93	12659.96
399.12	12475.06
399.32	12009.29
399.51	12224.62
399.70	13167.85
399.90	12910.40
400.09	12961.89
400.28	12802.73
400.47	13137.43
400.67	13474.46
400.86	13902.78
401.05	13991.72
401.24	13935.55
401.44	14209.39
401.63	14340.46
401.82	14342.80
402.01	14188.33
402.21	14391.95
402.40	14623.67
402.59	14375.57
402.78	13518.93
402.97	13280.20
403.17	13350.42
403.36	14670.48
403.55	14902.19
403.74	15080.07
403.93	14672.82
404.13	13308.29
404.32	13048.49
404.51	13476.80
404.70	14871.76
404.89	15054.33
405.09	14288.97
405.28	13954.27
405.47	14031.51
405.66	14260.88
405.85	13893.42
406.05	13568.09
406.24	13521.27
406.43	14052.58
406.62	14934.96
406.81	14965.39
407.00	14136.84
407.20	13724.90
407.39	14005.77
407.58	14487.92
407.77	15367.96
407.96	15779.89
408.15	15899.26
408.34	15922.66
408.54	16847.18
408.73	16615.46
408.92	16458.65
409.11	16016.29
409.30	15515.41
409.49	14242.16
409.68	13362.12
409.87	12926.78
410.07	13682.77
410.26	14820.27
410.45	15714.36
410.64	16067.78
410.83	16739.51
411.02	17029.74
411.21	17781.05
411.40	17556.36
411.59	17767.01
411.78	17319.96
411.98	17188.89
412.17	17701.47
412.36	17170.17
412.55	17408.90
412.74	16933.78
412.93	16563.97
413.12	16725.47
413.31	18211.71
413.50	18614.28
413.69	18934.93
413.88	18242.14
414.07	17575.08
414.26	18094.68
414.45	18223.41
414.64	18691.52
414.83	18464.49
415.02	18022.12
415.22	18216.39
415.41	18429.38
415.60	18738.33
415.79	19690.93
415.98	20081.80
416.17	20112.22
416.36	19864.13
416.55	19461.55
416.74	18946.64
416.93	17900.42
417.12	18373.21
417.31	18745.35
417.50	18731.31
417.69	19410.06
417.88	19421.77
418.07	19002.81
418.26	18895.14
418.45	19068.34
418.64	19445.17
418.83	20299.47
419.02	20264.36
419.21	20306.49
419.39	18925.57
419.58	18223.41
419.77	18324.05
419.96	18827.27
420.15	19988.18
420.34	20973.54
420.53	21202.91
420.72	21797.41
420.91	21706.13
421.10	21308.24
421.29	21022.69
421.48	20552.24
421.67	21516.54
421.86	20982.90
422.05	19576.24
422.24	17624.23
422.43	17429.97
422.61	19185.37
422.80	20748.85
422.99	20809.70
423.18	20016.26
423.37	19311.76
423.56	19873.49
423.75	19990.52
423.94	20257.34
424.13	19243.88
424.32	19346.87
424.50	19253.25
424.69	19262.61
424.88	19171.33
425.07	19080.05
425.26	19484.96
425.45	19103.45
425.64	18633.00
425.83	18445.76
426.01	19822.00
426.20	20023.28
426.39	20039.67
426.58	18853.02
426.77	17401.88
426.96	16559.29
427.15	17207.62
427.33	18724.29
427.52	19164.31
427.71	19557.52
427.90	19019.19
428.09	18951.32
428.28	18721.95
428.46	17675.73
428.65	17706.15
428.84	18342.78
429.03	18511.30
429.22	17432.31
429.40	16905.69
429.59	14998.15
429.78	13233.39
429.97	13645.32
430.16	13504.89
430.34	13792.78
430.53	13628.94
430.72	13706.18
430.91	15157.31
431.10	17982.34
431.28	21170.15
431.47	22862.35
431.66	23281.31
431.85	21488.46
432.03	19695.61
432.22	18588.53
432.41	19318.78
432.60	21762.30
432.79	22455.10
432.97	22916.19
433.16	22057.21
433.35	20683.31
433.54	18211.71
433.72	17406.56
433.91	17839.56
434.10	19733.06
434.28	21235.68
434.47	22745.33
434.66	22057.21
434.85	21413.56
435.03	21415.90
435.22	22164.87
435.41	23433.44
435.59	23211.09
435.78	23403.02
435.97	24386.04
436.16	24589.67
436.34	23962.40
436.53	23587.92
436.72	23470.89
436.90	22359.14
437.09	22199.98
437.28	21771.66
437.46	22487.87
437.65	22466.80
437.84	20945.45
438.02	19424.11
438.21	19454.53
438.40	20362.66
438.58	22071.25
438.77	22593.19
438.96	23037.89
439.14	23623.03
439.33	24102.84
439.52	24608.39
439.70	24720.74
439.89	23396.00
440.08	23037.89
440.26	22431.69
440.45	23538.77
440.63	25301.19
440.82	26487.84
441.01	26211.66
441.19	25867.60
441.38	26141.44
441.57	27129.15
441.75	27463.85
441.94	27704.92
442.12	27407.67
442.31	28109.83
442.50	28004.51
442.68	27592.58
442.87	27328.10
443.05	26761.69
443.24	27421.72
443.43	27782.16
443.61	28423.47
443.80	28713.69
443.98	27431.08
444.17	26965.31
444.35	28861.15
444.54	29153.71
444.73	29010.94
444.91	27651.09
445.10	26705.51
445.28	25521.20
445.47	25118.63
445.65	25493.12
445.84	26181.23
446.02	26654.02
446.21	27026.17
446.39	27508.32
446.58	27927.27
446.77	28301.76
446.95	28379.00
447.14	29041.37
447.32	29364.36
447.51	28865.83
447.69	27908.55
447.88	27590.24
448.06	27810.25
448.25	28491.34
448.43	28758.16
448.62	28329.84
448.80	28390.70
448.99	27955.36
449.17	28636.45
449.36	28467.94
449.54	29626.50
449.73	29633.52
449.91	30230.36
450.10	30756.98
450.28	31548.08
450.46	31658.09
450.65	31189.98
450.83	31161.89
451.02	30497.18
451.20	30443.35
451.39	30085.25
451.57	29638.20
451.76	29755.23
451.94	30363.77
452.13	29425.22
452.31	27847.69
452.49	27070.64
452.68	27391.29
452.86	27218.09
453.05	27447.46
453.23	28154.30
453.42	29221.59
453.60	29474.37
453.78	29926.09
453.97	29930.77
454.15	29844.17
454.34	28980.51
454.52	28753.48
454.70	28573.26
454.89	28435.17
455.07	28992.22
455.26	29717.78
455.44	30712.51
455.62	31178.28
455.81	30979.33
455.99	31037.84
456.17	30443.35
456.36	30541.65
456.54	31346.79
456.73	31175.94
456.91	32158.96
457.09	32390.67
457.28	32936.02
457.46	31934.27
457.64	31700.22
457.83	30473.78
458.01	29481.39
458.19	30185.89
458.38	30806.13
458.56	31555.10
458.74	31765.75
458.93	30883.37
459.11	31232.11
459.29	30459.73
459.48	30637.61
459.66	30560.37
459.84	31037.84
460.03	31356.16
460.21	31208.70
460.39	31887.46
460.57	32383.65
460.76	32486.64
460.94	32430.46
461.12	31761.07
461.31	31971.72
461.49	32210.45
461.67	32077.04
461.85	33479.02
462.04	32863.46
462.22	33724.78
462.40	32921.98
462.59	32877.51
462.77	32912.61
462.95	32580.26
463.13	32669.20
463.32	31936.61
463.50	31812.56
463.68	32196.41
463.86	32147.26
464.05	31658.09
464.23	31295.30
464.41	30693.79
464.59	30621.23
464.78	32161.30
464.96	31660.43
465.14	31332.75
465.32	32198.75
465.50	33209.86
465.69	33621.80
465.87	32751.12
466.05	31786.82
466.23	29996.31
466.41	29436.92
466.60	30623.57
466.78	30618.89
466.96	31353.82
467.14	31508.29
467.32	32039.59
467.51	32053.64
467.69	30693.79
467.87	31356.16
468.05	31756.39
468.23	32091.09
468.41	31697.88
468.60	31852.35
468.78	32144.92
468.96	31952.99
469.14	32507.70
469.32	32467.91
469.50	31370.20
469.69	31845.33
469.87	30918.48
470.05	31014.44
470.23	31192.32
470.41	30906.77
470.59	31246.15
470.77	31768.09
470.95	32306.41
471.14	32432.80
471.32	32767.50
471.50	33921.38
471.68	34546.31
471.86	34738.23
472.04	35124.42
472.22	34536.94
472.40	33673.29
472.58	33069.43
472.77	32470.25
472.95	33614.77
473.13	34330.98
473.31	33179.43
473.49	33209.86
473.67	34199.91
473.85	34330.98
474.03	34864.62
474.21	35161.87
474.39	35475.50
474.57	35606.57
474.75	36229.15
474.93	35697.85
475.12	34483.11
475.30	34822.49
475.48	35140.80
475.66	35583.16
475.84	34972.28
476.02	34169.48
476.20	34059.48
476.38	34815.47
476.56	35728.28
476.74	36491.29
476.92	36542.78
477.10	36811.95
477.28	38071.15
477.46	38361.38
477.64	38380.10
477.82	38775.66
478.00	38597.77
478.18	37937.74
478.36	38017.32
478.54	37970.51
478.72	38352.02
478.90	38693.74
479.08	40018.48
479.26	40774.47
479.44	40444.46
479.62	40444.46
479.80	40339.13
479.98	40502.97
480.16	41228.54
480.34	39999.76
480.52	40818.94
480.70	41060.02
480.88	40680.85
481.06	41872.18
481.24	42471.36
481.41	42593.07
481.59	43515.24
481.77	43349.06
481.95	42457.32
482.13	42024.32
482.31	42721.80
482.49	43412.26
482.67	42965.21
482.85	43164.16
483.03	43709.50
483.21	44516.99
483.39	44311.02
483.57	43391.19
483.74	42927.77
483.92	43072.88
484.10	43414.60
484.28	44404.64
484.46	45123.19
484.64	45343.20
484.82	44395.28
485.00	44203.36
485.18	42848.19
485.35	41560.89
485.53	38899.70
485.71	35442.73
485.89	35009.73
486.07	36809.61
486.25	39875.71
486.43	42440.93
486.61	43180.54
486.78	42967.55
486.96	43304.59
487.14	44865.73
487.32	45324.47
487.50	46651.56
487.68	47866.30
487.85	48280.57
488.03	48074.60
488.21	47997.37
488.39	46581.34
488.57	46117.92
488.75	46220.90
488.92	46892.63
489.10	49432.11
489.28	50972.19
489.46	51386.46
489.64	51288.16
489.81	51814.78
489.99	51194.54
490.17	51318.59
490.35	51578.39
490.53	51107.94
490.70	50471.31
490.88	50454.93
491.06	51913.08
491.24	51672.01
491.41	50267.69
491.59	48282.91
491.77	47983.32
491.95	49263.60
492.13	50265.34
492.30	51746.90
492.48	52453.75
492.66	53174.63
492.84	53006.11
493.01	52788.44
493.19	52280.55
493.37	51672.01
493.54	51536.26
493.72	52128.41
493.90	53467.20
494.08	53958.71
494.25	54337.88
494.43	54677.25
494.61	55011.95
494.79	55054.08
494.96	54862.16
495.14	54417.46
495.32	53256.55
495.49	52488.85
495.67	53900.20
495.85	54948.76
496.02	55458.99
496.20	55508.14
496.38	54871.52
496.55	54897.27
496.73	55384.10
496.91	55388.78
497.09	56011.36
497.26	56212.65
497.44	55526.87
497.62	55285.79
497.79	54335.54
497.97	53001.43
498.14	53336.13
498.32	54564.91
498.50	55313.88
498.67	55810.07
498.85	55547.93
499.03	55674.32
499.20	55994.98
499.38	56133.07
499.56	56032.42
499.73	55491.76
499.91	55037.70
500.08	54562.57
500.26	53834.66
500.44	54293.41
500.61	55091.53
500.79	54663.21
500.97	54401.07
501.14	54101.48
501.32	54021.90
501.49	54094.46
501.67	54365.96
501.84	55171.11
502.02	55304.52
502.20	55407.50
502.37	55679.00
502.55	55700.07
502.72	56346.06
502.90	56629.26
503.07	56381.16
503.25	55702.41
503.43	55086.85
503.60	54244.26
503.78	53537.41
503.95	54270.00
504.13	55765.60
504.30	56526.28
504.48	56282.86
504.65	55896.67
504.83	56126.05
505.01	56411.59
505.18	56589.47
505.36	57593.56
505.53	57380.57
505.71	57921.24
505.88	57792.51
506.06	57219.08
506.23	56949.92
506.41	56561.39
506.58	56750.97
506.76	56718.20
506.93	56750.97
507.11	56247.75
507.28	56624.58
507.46	56303.93
507.63	55615.81
507.81	55348.99
507.98	55538.57
508.16	56294.56
508.33	56877.36
508.50	57226.10
508.68	57455.47
508.85	58007.84
509.03	57923.58
509.20	57893.15
509.38	56978.00
509.55	56275.84
509.73	56324.99
509.90	56935.87
510.08	57219.08
510.25	57158.22
510.42	56865.66
510.60	56788.42
510.77	56987.36
510.95	57675.48
511.12	57808.89
511.30	58094.44
511.47	58223.17
511.64	58415.09
511.82	57939.96
511.99	57113.75
512.17	56694.80
512.34	56273.50
512.51	56411.59
512.69	56722.88
512.86	56722.88
513.04	57001.41
513.21	57317.38
513.38	56790.76
513.56	56390.53
513.73	55812.41
513.90	55847.52
514.08	56119.02
514.25	56430.32
514.43	56863.32
514.60	56605.86
514.77	56750.97
514.95	56879.70
515.12	56783.74
515.29	57038.86
515.47	57483.56
515.64	57525.69
515.81	57277.59
515.99	56608.20
516.16	55194.51
516.33	52821.21
516.51	51454.34
516.68	50686.64
516.85	49918.95
517.03	50204.49
517.20	53174.63
517.37	55683.69
517.54	56900.76
517.72	56423.29
517.89	53961.05
518.06	51210.92
518.24	51573.70
518.41	53977.43
518.58	55054.08
518.75	55552.62
518.93	55800.71
519.10	55545.59
519.27	55990.30
519.45	56322.65
519.62	57200.35
519.79	57521.01
519.96	57347.81
520.14	56666.71
520.31	55908.38
520.48	55880.29
520.65	56140.09
520.83	57319.72
521.00	57595.90
521.17	57050.56
521.34	56856.29
521.52	57069.28
521.69	57609.95
521.86	57958.69
522.03	57687.18
522.20	56713.52
522.38	55414.52
522.55	55213.24
522.72	56247.75
522.89	56512.23
523.07	56404.57
523.24	56828.21
523.41	57729.31
523.58	58204.44
523.75	58532.12
523.92	58330.83
524.10	58110.82
524.27	58073.37
524.44	57970.39
524.61	57745.70
524.78	57642.71
524.96	57591.22
525.13	57532.71
525.30	57844.00
525.47	58344.87
525.64	58319.13
525.81	57439.09
525.98	56186.90
526.16	54787.26
526.33	53834.66
526.50	53626.35
526.67	52968.66
526.84	53619.33
527.01	54838.75
527.18	55576.02
527.36	56474.79
527.53	57382.91
527.70	57567.82
527.87	57062.26
528.04	56673.73
528.21	57162.90
528.38	57806.55
528.55	58408.07
528.72	58440.84
528.89	58714.68
529.07	58651.48
529.24	57939.96
529.41	57301.00
529.58	56640.96
529.75	56657.35
529.92	57350.15
530.09	57619.31
530.26	58054.65
530.43	58143.59
530.60	58272.32
530.77	58712.34
530.94	58791.92
531.11	58106.14
531.28	57942.30
531.46	57701.23
531.63	57872.09
531.80	57673.14
531.97	57326.74
532.14	56374.14
532.31	55501.12
532.48	54972.16
532.65	54674.91
532.82	55657.94
532.99	56767.35
533.16	57378.23
533.33	57773.78
533.50	57549.09
533.67	56952.26
533.84	56444.36
534.01	56643.30
534.18	56776.72
534.35	57228.44
534.52	56877.36
534.69	57308.02
534.86	57755.06
535.03	57616.97
535.20	58188.06
535.37	58431.47
535.54	58571.91
535.71	58328.49
535.88	57902.51
536.05	57326.74
536.22	56814.16
536.38	56647.99
536.55	56002.00
536.72	55468.36
536.89	55299.84
537.06	56500.53
537.23	57214.40
537.40	57467.17
537.57	57565.48
537.74	57221.42
537.91	57240.14
538.08	57181.63
538.25	57183.97
538.42	57467.17
538.59	57263.55
538.75	56584.79
538.92	56299.25
539.09	56060.51
539.26	55884.97
539.43	55536.23
539.60	55730.50
539.77	56133.07
539.94	56048.81
540.11	55379.42
540.28	54658.53
540.44	54892.58
540.61	54911.31
540.78	55325.58
540.95	55791.35
541.12	56123.71
541.29	56364.78
541.46	56570.75
541.62	56427.98
541.79	56484.15
541.96	55735.18
542.13	55882.63
542.30	56149.45
542.47	56399.89
542.63	56058.17
542.80	56154.13
542.97	56126.05
543.14	55671.98
543.31	55917.74
543.48	56420.95
543.64	57209.71
543.81	57471.85
543.98	57078.64
544.15	56559.05
544.32	55693.05
544.48	55980.93
544.65	56362.44
544.82	56741.61
544.99	56535.64
545.16	56285.20
545.32	56020.72
545.49	56697.14
545.66	57088.01
545.83	56502.87
546.00	56196.26
546.16	55901.36
546.33	56076.90
546.50	56135.41
546.67	56722.88
546.83	56069.87
547.00	56233.71
547.17	55533.89
547.34	55098.55
547.50	54653.85
547.67	55435.59
547.84	55393.46
548.00	55697.73
548.17	56413.93
548.34	56364.78
548.51	56186.90
548.67	56142.43
548.84	56273.50
549.01	56140.09
549.18	56130.73
549.34	56013.70
549.51	55997.32
549.68	55786.67
549.84	55646.24
550.01	55634.53
550.18	55503.46
550.34	55494.10
550.51	55751.56
550.68	55798.37
550.84	55171.11
551.01	55248.35
551.18	55234.30
551.34	55480.06
551.51	55690.71
551.68	56030.08
551.84	56317.97
552.01	56051.15
552.18	55700.07
552.34	54838.75
552.51	54525.12
552.68	54475.97
552.84	54976.84
553.01	55440.27
553.18	55208.56
553.34	55288.13
553.51	55442.61
553.67	55580.70
553.84	55627.51
554.01	55526.87
554.17	55337.29
554.34	55559.64
554.51	55393.46
554.67	55828.80
554.84	55664.96
555.00	55388.78
555.17	55182.81
555.33	55147.70
555.50	55051.74
555.67	55100.89
555.83	54911.31
556.00	54574.27
556.16	54815.35
556.33	54316.81
556.50	53719.98
556.66	54078.08
556.83	53738.70
556.99	53965.73
557.16	54188.08
557.32	54328.52
557.49	54766.20
557.65	54377.67
557.82	54630.44
557.98	54543.84
558.15	53853.39
558.32	53034.20
558.48	52264.16
558.65	52240.76
558.81	52715.89
558.98	53097.39
559.14	53333.79
559.31	53361.87
559.47	53415.71
559.64	53380.60
559.80	52486.51
559.97	52795.46
560.13	52846.96
560.30	54169.36
560.46	54824.71
560.63	54974.50
560.79	55016.63
560.96	54454.90
561.12	53406.34
561.29	52367.15
561.45	52397.57
561.61	53183.99
561.78	53570.18
561.94	53244.85
562.11	53270.59
562.27	53036.54
562.44	53153.57
562.60	53895.52
562.77	53799.55
562.93	53703.59
563.10	53722.32
563.26	52938.24
563.42	53212.08
563.59	52851.64
563.75	53202.72
563.92	53268.25
564.08	52912.49
564.24	53198.04
564.41	53350.17
564.57	53038.88
564.74	53059.94
564.90	52980.37
565.07	52760.36
565.23	52348.42
565.39	51512.85
565.56	51639.24
565.72	50965.17
565.88	51613.49
566.05	51702.43
566.21	51742.22
566.38	52161.18
566.54	52233.74
566.70	52802.49
566.87	52591.84
567.03	53062.29
567.19	53139.52
567.36	52612.90
567.52	52650.35
567.68	52275.87
567.85	51833.50
568.01	51435.61
568.17	50738.13
568.34	50892.61
568.50	50944.10
568.66	51011.98
568.83	51491.79
568.99	51231.99
569.15	51618.17
569.32	51849.89
569.48	51356.03
569.64	50735.79
569.81	50864.52
569.97	50738.13
570.13	50501.74
570.30	49687.23
570.46	49469.56
570.62	49207.42
570.78	48821.23
570.95	49254.23
571.11	50064.06
571.27	50052.36
571.43	50536.85
571.60	50759.20
571.76	51068.15
571.92	50829.41
572.09	51419.23
572.25	51304.54
572.41	51379.44
572.57	51304.54
572.74	51456.68
572.90	50574.30
573.06	50864.52
573.22	50916.01
573.38	50787.28
573.55	50586.00
573.71	50824.73
573.87	50712.39
574.03	50593.02
574.20	50852.82
574.36	50326.20
574.52	50202.15
574.68	50059.38
574.84	49308.07
575.01	48830.60
575.17	48619.95
575.33	49155.93
575.49	49319.77
575.65	49464.88
575.82	49495.31
575.98	49102.10
576.14	49144.23
576.30	49900.22
576.46	49900.22
576.62	49588.93
576.79	49579.57
576.95	49654.47
577.11	48872.73
577.27	49663.83
577.43	49509.35
577.59	48921.88
577.75	48493.56
577.92	47693.10
578.08	47639.26
578.24	47793.74
578.40	48023.11
578.56	47988.00
578.72	47838.21
578.88	48594.20
579.04	48935.92
579.21	48868.05
579.37	48886.77
579.53	48961.67
579.69	48865.70
579.85	49181.68
580.01	48994.43
580.17	48250.14
580.33	48369.51
580.49	48203.33
580.65	48662.08
580.82	48767.40
580.98	48809.53
581.14	48608.25
581.30	48605.91
581.46	48404.62
581.62	49172.31
581.78	48767.40
581.94	49263.60
582.10	48854.00
582.26	49298.70
582.42	49411.05
582.58	49191.04
582.74	49043.59
582.90	49076.35
583.06	48868.05
583.22	48619.95
583.38	48683.14
583.54	48708.89
583.70	48446.75
583.86	48463.13
584.02	48334.40
584.18	48538.03
584.34	48044.18
584.50	48215.04
584.66	48376.53
584.82	47430.96
584.98	47421.59
585.14	47079.88
585.30	46553.26
