SpectraSuite Data File
++++++++++++++++++++++++++++++++++++
Date: Mon Oct 07 14:53:28 GMT-05:00 2013
User: price-jones
Dark Spectrum Present: No
Reference Spectrum Present: No
Number of Sampled Component Spectra: 1
Spectrometers: USB2+H05261
Integration Time (usec): 100000 (USB2+H05261)
Spectra Averaged: 1 (USB2+H05261)
Boxcar Smoothing: 0 (USB2+H05261)
Correct for Electrical Dark: No (USB2+H05261)
Strobe/Lamp Enabled: No (USB2+H05261)
Correct for Detector Non-linearity: No (USB2+H05261)
Correct for Stray Light: No (USB2+H05261)
Number of Pixels in Processed Spectrum: 2048
>>>>>Begin Processed Spectral Data<<<<<
365.73	0.00
365.92	0.00
366.12	0.00
366.32	0.00
366.52	0.00
366.72	0.00
366.91	0.00
367.11	0.00
367.31	0.00
367.51	0.00
367.70	0.00
367.90	0.00
368.10	0.00
368.30	0.00
368.49	0.00
368.69	0.00
368.89	0.00
369.09	0.00
369.28	0.00
369.48	0.00
369.68	0.00
369.87	0.00
370.07	0.00
370.27	0.00
370.47	627.26
370.66	3035.67
370.86	3772.94
371.06	3932.10
371.25	4124.02
371.45	3700.39
371.65	3243.98
371.84	3026.31
372.04	3267.39
372.24	3758.90
372.44	3758.90
372.63	3700.39
372.83	3487.40
373.03	3119.93
373.22	2925.67
373.42	2963.12
373.62	3389.10
373.81	3906.35
374.01	3693.37
374.21	3494.42
374.40	3141.00
374.60	3316.54
374.79	3817.41
374.99	4318.29
375.19	4723.20
375.38	4685.75
375.58	4367.44
375.78	4454.04
375.97	4341.69
376.17	4587.45
376.37	4355.74
376.56	4699.80
376.76	4954.91
376.95	5467.49
377.15	5659.42
377.35	5755.38
377.54	5961.34
377.74	6326.47
377.93	6136.88
378.13	6033.90
378.33	6040.92
378.52	5369.19
378.72	5186.63
378.91	5160.88
379.11	4774.69
379.31	4709.16
379.50	4826.18
379.70	5039.17
379.89	5547.07
380.09	5942.62
380.28	6216.46
380.48	6092.41
380.68	5991.77
380.87	5872.40
381.07	5509.62
381.26	5029.81
381.46	4720.86
381.65	4573.41
381.85	4489.15
382.04	4241.05
382.24	3995.29
382.43	3700.39
382.63	3686.34
382.83	3754.22
383.02	3791.67
383.22	3808.05
383.41	3789.33
383.61	4009.34
383.80	4470.42
384.00	5214.71
384.19	5799.85
384.39	6143.91
384.58	6153.27
384.78	5799.85
384.97	5959.00
385.17	5675.80
385.36	5275.57
385.56	5081.30
385.75	5287.27
385.95	5748.36
386.14	6263.27
386.34	6284.34
386.53	5951.98
386.72	5724.95
386.92	5715.59
387.11	5902.83
387.31	6265.61
387.50	6263.27
387.70	5797.51
387.89	5982.41
388.09	6012.84
388.28	6043.26
388.48	6094.76
388.67	6527.75
388.86	7241.62
389.06	7740.15
389.25	8271.45
389.45	8091.23
389.64	8037.40
389.84	7964.84
390.03	7824.41
390.22	7894.63
390.42	8063.15
390.61	8758.28
390.81	9193.62
391.00	9647.69
391.19	9345.76
391.39	9032.13
391.58	8315.92
391.78	8013.99
391.97	7576.31
392.16	7311.83
392.36	6602.65
392.55	5301.31
392.75	4311.27
392.94	3384.41
393.13	3398.46
393.33	3927.42
393.52	5186.63
393.71	6333.49
393.91	7068.42
394.10	7847.82
394.29	8351.03
394.49	8992.34
394.68	9989.41
394.88	9900.47
395.07	10190.69
395.26	10012.81
395.46	9638.33
395.65	9476.83
395.84	8250.39
396.04	6946.71
396.23	5605.58
396.42	4718.52
396.62	4676.39
396.81	5188.97
397.00	6604.99
397.19	8351.03
397.39	10064.30
397.58	11276.70
397.77	12112.27
397.97	12287.81
398.16	12690.38
398.35	12912.74
398.55	13467.44
398.74	13891.08
398.93	14171.94
399.12	13994.06
399.32	13448.72
399.51	13474.46
399.70	14541.75
399.90	14436.42
400.09	14377.91
400.28	14384.93
400.47	14497.28
400.67	14981.77
400.86	15730.74
401.05	15524.77
401.24	15585.63
401.44	15974.16
401.63	15782.23
401.82	15749.46
402.01	15983.52
402.21	16123.95
402.40	16451.63
402.59	15578.61
402.78	14930.28
402.97	14401.32
403.17	15386.68
403.36	16042.03
403.55	16709.08
403.74	17305.92
403.93	16058.42
404.13	15019.22
404.32	14593.24
404.51	15396.04
404.70	16489.07
404.89	16411.84
405.09	16327.58
405.28	15822.02
405.47	15587.97
405.66	15737.76
405.85	15419.45
406.05	14829.63
406.24	15213.48
406.43	16018.63
406.62	16404.81
406.81	16613.12
407.00	15850.11
407.20	15461.58
407.39	15634.78
407.58	16432.90
407.77	16915.05
407.96	17282.52
408.15	17504.87
408.34	17972.97
408.54	18576.83
408.73	18691.52
408.92	18548.75
409.11	17659.34
409.30	17034.42
409.49	15950.75
409.68	15082.41
409.87	14450.47
410.07	15508.39
410.26	16678.66
410.45	17448.69
410.64	18167.24
410.83	18932.59
411.02	19159.63
411.21	19758.80
411.40	19857.10
411.59	19782.21
411.78	19463.90
411.98	19433.47
412.17	19646.46
412.36	19016.85
412.55	19466.24
412.74	19091.75
412.93	18544.06
413.12	18719.60
413.31	20676.29
413.50	20908.01
413.69	21071.84
413.88	20184.78
414.07	19503.68
414.26	20034.99
414.45	20737.15
414.64	20631.82
414.83	20606.08
415.02	20542.88
415.22	20217.55
415.41	21003.97
415.60	21149.08
415.79	22281.90
415.98	22717.24
416.17	22834.27
416.36	22527.66
416.55	21862.94
416.74	21284.83
416.93	20631.82
417.12	20624.80
417.31	20929.07
417.50	21305.90
417.69	21792.73
417.88	21685.06
418.07	21317.60
418.26	21366.75
418.45	21434.63
418.64	21907.41
418.83	22780.43
419.02	22560.42
419.21	22565.10
419.39	21872.31
419.58	20535.86
419.77	20636.50
419.96	21795.07
420.15	22752.35
420.34	23388.97
420.53	23976.45
420.72	24805.00
420.91	24507.75
421.10	24580.31
421.29	23875.80
421.48	22740.64
421.67	24395.40
421.86	23695.58
422.05	22314.67
422.24	19590.28
422.43	19201.76
422.61	21413.56
422.80	23545.79
422.99	23571.54
423.18	22518.29
423.37	22001.04
423.56	22104.02
423.75	22508.93
423.94	23068.32
424.13	21481.44
424.32	21811.45
424.50	21811.45
424.69	21720.17
424.88	21631.23
425.07	21406.54
425.26	21528.25
425.45	21556.33
425.64	20978.22
425.83	20816.72
426.01	22263.18
426.20	22635.32
426.39	22780.43
426.58	21074.18
426.77	19782.21
426.96	18752.37
427.15	19527.09
427.33	20711.40
427.52	22017.42
427.71	21694.43
427.90	21734.21
428.09	21401.86
428.28	21181.85
428.46	20556.93
428.65	19983.49
428.84	20615.44
429.03	21116.31
429.22	19922.64
429.40	18714.92
429.59	17032.08
429.78	15033.26
429.97	15147.95
430.16	15197.10
430.34	15311.78
430.53	15147.95
430.72	15805.64
430.91	17273.15
431.10	20341.60
431.28	23814.95
431.47	25963.56
431.66	26115.70
431.85	24039.64
432.03	22113.38
432.22	20947.79
432.41	21858.26
432.60	24411.79
432.79	25135.01
432.97	25933.14
433.16	25127.99
433.35	23239.18
433.54	20695.02
433.72	19669.86
433.91	19960.09
434.10	22501.91
434.28	24175.39
434.47	25434.60
434.66	24835.42
434.85	24631.80
435.03	24212.84
435.22	24732.44
435.41	26347.41
435.59	26022.08
435.78	26878.71
435.97	27440.44
436.16	27538.74
436.34	27185.32
436.53	26609.55
436.72	26672.74
436.90	25184.16
437.09	25184.16
437.28	24727.76
437.46	25734.19
437.65	25671.00
437.84	23688.56
438.02	21956.57
438.21	21879.33
438.40	22771.07
438.58	24692.65
438.77	25324.60
438.96	26228.04
439.14	26719.56
439.33	27138.51
439.52	27807.90
439.70	27515.34
439.89	26497.20
440.08	25820.79
440.26	25993.99
440.45	26539.33
440.63	28393.04
440.82	30129.72
441.01	29706.08
441.19	29085.84
441.38	29577.35
441.57	30604.84
441.75	31047.21
441.94	31419.35
442.12	31260.20
442.31	31917.89
442.50	31625.32
442.68	31428.71
442.87	30981.67
443.05	30518.25
443.24	31084.65
443.43	31763.41
443.61	32285.35
443.80	32465.57
443.98	30852.94
444.17	30490.16
444.35	32156.62
444.54	33144.33
444.73	32758.14
444.91	31379.56
445.10	30043.12
445.28	28975.83
445.47	28547.51
445.65	28505.38
445.84	29481.39
446.02	30375.47
446.21	31035.50
446.39	30857.62
446.58	31143.17
446.77	31976.40
446.95	31971.72
447.14	32847.08
447.32	33820.74
447.51	32840.06
447.69	31531.70
447.88	31082.31
448.06	31505.95
448.25	32116.83
448.43	32552.17
448.62	31791.50
448.80	32051.30
448.99	31793.84
449.17	32535.79
449.36	32009.17
449.54	33497.75
449.73	34288.85
449.91	34258.42
450.10	35349.11
450.28	35859.35
450.46	35395.92
450.65	35494.22
450.83	35686.15
451.02	33872.23
451.20	34174.16
451.39	34478.43
451.57	34220.97
451.76	34057.14
451.94	33860.53
452.13	33551.58
452.31	31885.12
452.49	30377.81
452.68	30902.09
452.86	30848.26
453.05	31030.82
453.23	32198.75
453.42	32844.74
453.60	33652.22
453.78	33399.44
453.97	33633.50
454.15	33434.55
454.34	33120.92
454.52	32818.99
454.70	32521.74
454.89	32865.80
455.07	32732.39
455.26	33560.94
455.44	34089.90
455.62	34998.03
455.81	35082.29
455.99	35674.45
456.17	34897.39
456.36	34349.70
456.54	36023.19
456.73	36187.02
456.91	36268.94
457.09	36671.51
457.28	37095.15
457.46	35833.60
457.64	35452.09
457.83	34394.17
458.01	33656.90
458.19	34464.39
458.38	34817.81
458.56	35749.34
458.74	35688.49
458.93	35461.46
459.11	35147.82
459.29	34831.85
459.48	35543.38
459.66	34728.87
459.84	34939.52
460.03	35644.02
460.21	35274.21
460.39	36299.37
460.57	36409.37
460.76	37132.60
460.94	37237.92
461.12	36425.76
461.31	36638.75
461.49	36481.93
461.67	36374.27
461.85	37469.64
462.04	37535.17
462.22	38237.33
462.40	37394.74
462.59	37670.92
462.77	37581.98
462.95	37530.49
463.13	37144.30
463.32	36938.33
463.50	36486.61
463.68	36797.90
463.86	36608.32
464.05	35871.05
464.23	35115.06
464.41	35267.19
464.59	34499.50
464.78	36175.32
464.96	36123.83
465.14	35803.17
465.32	36336.82
465.50	37729.44
465.69	37977.53
465.87	37383.04
466.05	36165.96
466.23	34714.83
466.41	33862.87
466.60	34955.90
466.78	34979.31
466.96	35545.72
467.14	35835.94
467.32	36573.21
467.51	36542.78
467.69	35140.80
467.87	35487.20
468.05	35723.60
468.23	36444.48
468.41	36638.75
468.60	36561.51
468.78	36435.12
468.96	36297.03
469.14	37214.52
469.32	37111.53
469.50	35447.41
469.69	35648.70
469.87	34974.63
470.05	35372.52
470.23	35089.31
470.41	34792.06
470.59	35597.21
470.77	35634.66
470.95	36575.55
471.14	37326.86
471.32	37273.03
471.50	39388.88
471.68	39222.70
471.86	39548.03
472.04	39510.58
472.22	39697.83
472.40	38043.07
472.58	37703.69
472.77	37298.78
472.95	38073.49
473.13	38810.76
473.31	38106.26
473.49	38045.41
473.67	38939.49
473.85	39161.84
474.03	39981.03
474.21	39903.79
474.39	40432.75
474.57	40671.49
474.75	40884.48
474.93	40360.20
475.12	39627.61
475.30	39852.30
475.48	39917.84
475.66	40240.83
475.84	40069.97
476.02	39566.76
476.20	39133.76
476.38	39702.51
476.56	40832.99
476.74	41720.05
476.92	41696.64
477.10	42099.22
477.28	43709.50
477.46	43239.06
477.64	43917.81
477.82	43723.55
478.00	43927.17
478.18	43555.03
478.36	43232.04
478.54	42937.13
478.72	43232.04
478.90	44720.62
479.08	45497.67
479.26	46375.37
479.44	45757.47
479.62	45610.02
479.80	45787.90
479.98	46157.70
480.16	46323.88
480.34	45509.38
480.52	46052.38
480.70	46541.55
480.88	46134.30
481.06	47196.90
481.24	47679.05
481.41	48605.91
481.59	48809.53
481.77	48711.23
481.95	47702.46
482.13	47821.83
482.31	48273.55
482.49	48622.29
482.67	48446.75
482.85	48605.91
483.03	49387.64
483.21	49776.17
483.39	49703.62
483.57	48919.54
483.74	48486.54
483.92	49111.46
484.10	49485.95
484.28	49853.41
484.46	50464.29
484.64	50541.53
484.82	50021.93
485.00	49406.37
485.18	48622.29
485.35	47445.00
485.53	44491.24
485.71	40631.70
485.89	40058.27
486.07	42256.03
486.25	45387.67
486.43	48053.54
486.61	48631.65
486.78	48554.41
486.96	49076.35
487.14	50192.79
487.32	50761.54
487.50	51922.44
487.68	52505.24
487.85	53076.33
488.03	53209.74
488.21	52788.44
488.39	52144.80
488.57	51590.09
488.75	51341.99
488.92	52144.80
489.10	53820.62
489.28	55299.84
489.46	55639.22
489.64	55571.34
489.81	55882.63
489.99	55583.04
490.17	55655.60
490.35	55856.88
490.53	55428.57
490.70	55166.43
490.88	54955.78
491.06	55779.65
491.24	56156.47
491.41	54972.16
491.59	53113.78
491.77	52914.83
491.95	53794.87
492.13	54969.82
492.30	56076.90
492.48	56914.81
492.66	57275.25
492.84	57251.84
493.01	56935.87
493.19	56528.62
493.37	56308.61
493.54	56140.09
493.72	56591.81
493.90	57497.60
494.08	58267.64
494.25	58206.78
494.43	58787.24
494.61	59054.06
494.79	59143.00
494.96	58742.77
495.14	58473.60
495.32	57343.12
495.49	56755.65
495.67	57916.56
495.85	58794.26
496.02	59203.85
496.20	59208.53
496.38	58820.00
496.55	58754.47
496.73	59042.35
496.91	59185.13
497.09	59770.26
497.26	59924.74
497.44	59613.44
497.62	58981.50
497.79	58269.98
497.97	57006.09
498.14	57268.23
498.32	58384.66
498.50	59138.32
498.67	59728.13
498.85	59449.61
499.03	59566.63
499.20	59976.23
499.38	59929.42
499.56	59730.47
499.73	59227.26
499.91	59072.78
500.08	58422.11
500.26	58159.97
500.44	58197.42
500.61	58976.82
500.79	58794.26
500.97	58461.90
501.14	58365.94
501.32	58071.03
501.49	58066.35
501.67	58342.53
501.84	58843.41
502.02	59030.65
502.20	59426.20
502.37	59463.65
502.55	59643.87
502.72	60102.62
502.90	60526.25
503.07	60200.92
503.25	59835.80
503.43	59150.02
503.60	58614.04
503.78	57982.09
503.95	58281.68
504.13	59561.95
504.30	60430.29
504.48	60168.15
504.65	59739.83
504.83	59856.86
505.01	60381.14
505.18	60439.65
505.36	61366.51
505.53	61378.21
505.71	61455.45
505.88	61446.08
506.06	60963.93
506.23	60666.69
506.41	60196.24
506.58	60509.87
506.76	60605.83
506.93	60647.96
507.11	60331.99
507.28	60383.48
507.46	59976.23
507.63	59339.60
507.81	59288.11
507.98	59531.53
508.16	60123.68
508.33	60715.84
508.50	60917.12
508.68	61460.13
508.85	61722.27
509.03	61642.69
509.20	61628.65
509.38	61120.75
509.55	60114.32
509.73	60257.09
509.90	60788.39
510.08	61095.00
510.25	61013.08
510.42	60846.91
510.60	60612.85
510.77	60795.42
510.95	61389.91
511.12	61633.33
511.30	61750.35
511.47	62260.59
511.64	62131.86
511.82	61680.14
511.99	61085.64
512.17	60624.56
512.34	60266.45
512.51	60568.38
512.69	60711.16
512.86	60699.45
513.04	60982.66
513.21	61155.86
513.38	60816.48
513.56	60119.00
513.73	59793.67
513.90	59882.61
514.08	59915.37
514.25	60376.46
514.43	60474.76
514.60	60669.03
514.77	60764.99
514.95	60800.10
515.12	60458.38
515.29	60828.18
515.47	61254.16
515.64	61586.52
515.81	61137.13
515.99	60708.82
516.16	59451.95
516.33	57176.95
516.51	55838.16
516.68	55290.48
516.85	54913.65
517.03	55288.13
517.20	57464.83
517.37	59800.69
517.54	60762.65
517.72	60456.04
517.89	58223.17
518.06	55791.35
518.24	56165.84
518.41	58375.30
518.58	59512.80
518.75	59714.09
518.93	59896.65
519.10	59550.25
519.27	59992.61
519.45	60229.01
519.62	61050.53
519.79	61392.25
519.96	61087.98
520.14	60676.05
520.31	59931.76
520.48	59917.71
520.65	60189.22
520.83	60877.33
521.00	61446.08
521.17	61181.60
521.34	60633.92
521.52	61221.39
521.69	61567.79
521.86	61860.36
522.03	61609.92
522.20	60535.62
522.38	59709.41
522.55	59599.40
522.72	60128.36
522.89	60472.42
523.07	60381.14
523.24	60823.50
523.41	61649.71
523.58	61925.89
523.75	62293.36
523.92	62209.10
524.10	61902.49
524.27	62017.17
524.44	62012.49
524.61	61645.03
524.78	61364.17
524.96	61324.38
525.13	61394.59
525.30	61745.67
525.47	62192.72
525.64	62138.88
525.81	61586.52
525.98	60158.79
526.16	58618.72
526.33	58216.14
526.50	57972.73
526.67	57705.91
526.84	58014.86
527.01	58932.35
527.18	59756.22
527.36	60608.17
527.53	61214.37
527.70	61752.69
527.87	61055.21
528.04	60694.77
528.21	61190.97
528.38	61668.44
528.55	62312.08
528.72	62518.05
528.89	62693.59
529.07	62295.70
529.24	61790.14
529.41	60982.66
529.58	60678.39
529.75	60704.13
529.92	61244.80
530.09	61663.75
530.26	62040.58
530.43	62457.20
530.60	62443.15
530.77	62475.92
530.94	62653.80
531.11	62078.03
531.28	61890.79
531.46	61656.73
531.63	61921.21
531.80	61602.90
531.97	61270.54
532.14	60596.47
532.31	59896.65
532.48	59143.00
532.65	59147.68
532.82	60123.68
532.99	61151.18
533.16	61268.20
533.33	61759.72
533.50	61736.31
533.67	61062.24
533.84	60465.40
534.01	61020.11
534.18	60849.25
534.35	61371.19
534.52	61083.30
534.69	61279.91
534.86	61539.71
535.03	61811.21
535.20	62120.16
535.37	62553.16
535.54	62499.33
535.71	62291.02
535.88	61890.79
536.05	61322.04
536.22	61069.26
536.38	60828.18
536.55	60266.45
536.72	59793.67
536.89	59796.01
537.06	60779.03
537.23	61261.18
537.40	61647.37
537.57	61673.12
537.74	61481.19
537.91	61303.31
538.08	61326.72
538.25	61195.65
538.42	61586.52
538.59	61331.40
538.75	60477.10
538.92	60544.98
539.09	60317.95
539.26	60156.45
539.43	60046.44
539.60	60025.38
539.77	60266.45
539.94	60210.28
540.11	59585.36
540.28	59091.51
540.44	59194.49
540.61	59180.45
540.78	59688.34
540.95	59793.67
541.12	60282.84
541.29	60694.77
541.46	60865.63
541.62	60842.23
541.79	60690.09
541.96	59976.23
542.13	59882.61
542.30	60463.06
542.47	60594.13
542.63	60451.36
542.80	60224.32
542.97	60250.07
543.14	60240.71
543.31	60013.68
543.48	60764.99
543.64	61219.05
543.81	61591.20
543.98	61284.59
544.15	60959.25
544.32	60079.21
544.48	60458.38
544.65	60788.39
544.82	61052.87
544.99	60594.13
545.16	60514.55
545.32	60292.20
545.49	60912.44
545.66	61483.53
545.83	60975.64
546.00	60608.17
546.16	60292.20
546.33	60451.36
546.50	60425.61
546.67	60781.37
546.83	60542.64
547.00	60306.24
547.17	59779.62
547.34	59304.49
547.50	59274.07
547.67	59667.28
547.84	59620.47
548.00	60041.76
548.17	60591.79
548.34	60317.95
548.51	60470.08
548.67	60329.65
548.84	60427.95
549.01	60392.84
549.18	60374.12
549.34	60191.56
549.51	60343.69
549.68	60219.64
549.84	60142.41
550.01	60069.85
550.18	59552.59
550.34	59990.27
550.51	60020.70
550.68	60156.45
550.84	59416.84
551.01	59604.08
551.18	59648.55
551.34	59838.14
551.51	60151.77
551.68	60219.64
551.84	60486.46
552.01	60441.99
552.18	60346.03
552.34	59611.10
552.51	59028.31
552.68	58976.82
552.84	59554.93
553.01	59671.96
553.18	59805.37
553.34	59529.19
553.51	59774.94
553.67	59950.48
553.84	60182.19
554.01	60023.04
554.17	60032.40
554.34	60093.25
554.51	60032.40
554.67	60367.10
554.84	59976.23
555.00	59891.97
555.17	59702.38
555.33	59714.09
555.50	59597.06
555.67	59723.45
555.83	59484.72
556.00	59292.79
556.16	59388.75
556.33	58885.54
556.50	58796.60
556.66	58684.25
556.83	58569.57
556.99	58599.99
557.16	58773.19
557.32	59037.67
557.49	59128.95
557.65	59199.17
557.82	59112.57
557.98	58883.20
558.15	58637.44
558.32	57869.75
558.48	56959.28
558.65	57219.08
558.81	57741.02
558.98	57935.28
559.14	58099.12
559.31	58192.74
559.47	58277.00
559.64	57841.66
559.80	57544.41
559.97	57553.77
560.13	57972.73
560.30	58878.52
560.46	59398.12
560.63	59344.28
560.79	59339.60
560.96	58967.46
561.12	58176.36
561.29	57340.78
561.45	57570.16
561.61	57937.62
561.78	58504.03
561.94	58061.67
562.11	58099.12
562.27	57928.26
562.44	58206.78
562.60	58511.05
562.77	58717.02
562.93	58810.64
563.10	58679.57
563.26	58218.49
563.42	58078.05
563.59	57881.45
563.75	57836.98
563.92	57982.09
564.08	57865.06
564.24	58101.46
564.41	58197.42
564.57	58017.20
564.74	57968.05
564.90	57916.56
565.07	57570.16
565.23	57469.51
565.39	56924.17
565.56	56566.07
565.72	56432.66
565.88	56640.96
566.05	56673.73
566.21	57120.77
566.38	57291.63
566.54	57322.06
566.70	57523.35
566.87	57982.09
567.03	57600.58
567.19	57963.37
567.36	57771.44
567.52	57565.48
567.68	57705.91
567.85	56587.13
568.01	56498.19
568.17	56074.55
568.34	56154.13
568.50	56046.47
568.66	56409.25
568.83	56559.05
568.99	56629.26
569.15	56830.55
569.32	56776.72
569.48	56549.68
569.64	56425.64
569.81	56200.94
569.97	55920.08
570.13	56081.58
570.30	55430.91
570.46	55114.94
570.62	54667.89
570.78	54382.35
570.95	54688.96
571.11	55519.85
571.27	55735.18
571.43	55730.50
571.60	56161.15
571.76	56191.58
571.92	56596.49
572.09	56846.93
572.25	56837.57
572.41	56587.13
572.57	56507.55
572.74	56420.95
572.90	56439.68
573.06	56130.73
573.22	56472.45
573.38	56264.14
573.55	56018.38
573.71	56619.90
573.87	56193.92
574.03	55899.01
574.20	55957.53
574.36	55669.64
574.52	55522.19
574.68	55463.67
574.84	55089.19
575.01	54691.30
575.17	54508.74
575.33	54951.10
575.49	55049.40
575.65	55337.29
575.82	55070.46
575.98	54681.94
576.14	54925.35
576.30	55337.29
576.46	55604.11
576.62	55325.58
576.79	55262.39
576.95	55042.38
577.11	55164.09
577.27	55028.34
577.43	55091.53
577.59	54780.24
577.75	54361.28
577.92	53787.85
578.08	53464.86
578.24	53694.23
578.40	54321.49
578.56	54532.14
578.72	54241.92
578.88	54522.78
579.04	54478.31
579.21	54630.44
579.37	54602.36
579.53	55065.78
579.69	54508.74
579.85	54623.42
580.01	54878.54
580.17	54384.69
580.33	54113.19
580.49	54258.30
580.65	54705.34
580.82	54672.57
580.98	54759.17
581.14	54445.54
581.30	54576.61
581.46	54691.30
581.62	54869.18
581.78	54798.96
581.94	54710.02
582.10	54747.47
582.26	54745.13
582.42	54710.02
582.58	54972.16
582.74	54897.27
582.90	54878.54
583.06	54777.90
583.22	54805.98
583.38	54398.73
583.54	54536.82
583.70	54459.58
583.86	54520.44
584.02	54061.69
584.18	54714.70
584.34	54583.63
584.50	54361.28
584.66	54246.60
584.82	53911.90
584.98	53998.50
585.14	53485.92
