SpectraSuite Data File
++++++++++++++++++++++++++++++++++++
Date: Mon Oct 07 14:53:44 GMT-05:00 2013
User: price-jones
Dark Spectrum Present: No
Reference Spectrum Present: No
Number of Sampled Component Spectra: 1
Spectrometers: USB2+H05261
Integration Time (usec): 100000 (USB2+H05261)
Spectra Averaged: 1 (USB2+H05261)
Boxcar Smoothing: 0 (USB2+H05261)
Correct for Electrical Dark: No (USB2+H05261)
Strobe/Lamp Enabled: No (USB2+H05261)
Correct for Detector Non-linearity: No (USB2+H05261)
Correct for Stray Light: No (USB2+H05261)
Number of Pixels in Processed Spectrum: 2048
>>>>>Begin Processed Spectral Data<<<<<
365.73	0.00
365.92	0.00
366.12	0.00
366.32	0.00
366.52	0.00
366.72	0.00
366.91	0.00
367.11	0.00
367.31	0.00
367.51	0.00
367.70	0.00
367.90	0.00
368.10	0.00
368.30	0.00
368.49	0.00
368.69	0.00
368.89	0.00
369.09	0.00
369.28	0.00
369.48	0.00
369.68	0.00
369.87	0.00
370.07	0.00
370.27	0.00
370.47	594.50
370.66	3215.90
370.86	3761.24
371.06	4180.20
371.25	4255.09
371.45	3974.23
371.65	3510.80
371.84	3173.77
372.04	3466.33
372.24	3843.16
372.44	3995.29
372.63	3974.23
372.83	3721.45
373.03	3316.54
373.22	2888.22
373.42	3101.21
373.62	3609.11
373.81	3948.48
374.01	3880.61
374.21	3564.64
374.40	3309.52
374.60	3463.99
374.79	3838.48
374.99	4423.61
375.19	4868.31
375.38	4966.62
375.58	4657.67
375.78	4517.23
375.97	4683.41
376.17	4685.75
376.37	4641.28
376.56	4704.48
376.76	5055.56
376.95	5322.38
377.15	5858.36
377.35	6190.72
377.54	6209.44
377.74	6457.54
377.93	6321.79
378.13	6389.66
378.33	6026.88
378.52	5404.30
378.72	5247.48
378.91	5170.24
379.11	5132.79
379.31	4898.74
379.50	4931.51
379.70	5341.10
379.89	5874.74
380.09	6298.38
380.28	6408.39
380.48	6303.06
380.68	6307.74
380.87	6246.89
381.07	5717.93
381.26	5195.99
381.46	5008.75
381.65	4695.11
381.85	4512.55
382.04	4404.89
382.24	4056.15
382.43	3992.95
382.63	3819.75
382.83	3887.63
383.02	3805.71
383.22	3936.78
383.41	3894.65
383.61	4149.77
383.80	4660.01
384.00	5329.40
384.19	6061.99
384.39	6509.03
384.58	6249.23
384.78	6284.34
384.97	5914.53
385.17	5795.17
385.36	5568.13
385.56	5362.17
385.75	5423.02
385.95	5991.77
386.14	6429.45
386.34	6314.77
386.53	6242.21
386.72	5846.66
386.92	5849.00
387.11	6202.42
387.31	6516.05
387.50	6523.07
387.70	6078.37
387.89	6132.20
388.09	6251.57
388.28	6296.04
388.48	6497.33
388.67	6719.68
388.86	7393.75
389.06	7896.97
389.25	8561.68
389.45	8545.30
389.64	8489.12
389.84	8219.96
390.03	8348.69
390.22	8257.41
390.42	8421.25
390.61	9226.39
390.81	9556.41
391.00	9816.21
391.19	9687.48
391.39	9434.70
391.58	8879.99
391.78	8280.82
391.97	8215.28
392.16	7548.23
392.36	7021.61
392.55	5694.52
392.75	4451.70
392.94	3691.02
393.13	3585.70
393.33	4208.28
393.52	5383.23
393.71	6602.65
393.91	7449.93
394.10	7990.59
394.29	8842.54
394.49	9586.83
394.68	10153.24
394.88	10307.72
395.07	10628.37
395.26	10492.62
395.46	10242.18
395.65	9816.21
395.84	8636.58
396.04	7236.94
396.23	5870.06
396.42	4849.59
396.62	4690.43
396.81	5654.73
397.00	7159.70
397.19	8683.39
397.39	10410.70
397.58	11808.00
397.77	12311.22
397.97	12741.88
398.16	12966.57
398.35	13490.85
398.55	14104.07
398.74	14534.73
398.93	14806.23
399.12	14710.27
399.32	14022.15
399.51	14366.21
399.70	15410.09
399.90	15115.18
400.09	15330.51
400.28	14850.70
400.47	15150.29
400.67	15922.66
400.86	16503.12
401.05	16376.73
401.24	16355.66
401.44	16575.67
401.63	16664.61
401.82	16812.07
402.01	16758.24
402.21	16767.60
402.40	16994.63
402.59	16685.68
402.78	16011.60
402.97	15400.72
403.17	16271.40
403.36	16830.79
403.55	17605.51
403.74	17921.48
403.93	16950.16
404.13	15627.76
404.32	15431.15
404.51	16133.31
404.70	17198.26
404.89	17233.36
405.09	17057.82
405.28	16451.63
405.47	16442.26
405.66	16634.19
405.85	16245.66
406.05	15524.77
406.24	15941.39
406.43	16475.03
406.62	17022.72
406.81	17329.33
407.00	16556.95
407.20	16395.45
407.39	16688.02
407.58	17341.03
407.77	17717.86
407.96	18354.48
408.15	18539.38
408.34	18710.24
408.54	19571.56
408.73	19522.41
408.92	19379.64
409.11	18663.43
409.30	17834.88
409.49	16755.90
409.68	15800.96
409.87	15059.01
410.07	16196.51
410.26	17633.60
410.45	18555.77
410.64	19063.66
410.83	19459.21
411.02	20030.30
411.21	21008.65
411.40	20940.77
411.59	20589.69
411.78	20755.87
411.98	20540.54
412.17	20526.50
412.36	20212.87
412.55	20531.18
412.74	20013.92
412.93	19339.85
413.12	19534.11
413.31	21539.95
413.50	21795.07
413.69	22214.02
413.88	20868.22
414.07	20383.73
414.26	20959.50
414.45	21460.37
414.64	21729.53
414.83	21785.71
415.02	21422.92
415.22	21490.80
415.41	21841.88
415.60	22164.87
415.79	23288.33
415.98	24060.71
416.17	23981.13
416.36	23707.29
416.55	22934.91
416.74	22251.47
416.93	21476.76
417.12	21582.08
417.31	21942.52
417.50	22328.71
417.69	23075.34
417.88	22768.73
418.07	22693.83
418.26	22466.80
418.45	22625.96
418.64	23180.67
418.83	24088.79
419.02	23873.46
419.21	23695.58
419.39	22733.62
419.58	22012.74
419.77	21532.93
419.96	22609.58
420.15	23564.51
420.34	24376.68
420.53	25001.60
420.72	25970.58
420.91	25614.82
421.10	25076.50
421.29	25170.12
421.48	24011.56
421.67	25238.00
421.86	25179.48
422.05	23208.75
422.24	20533.52
422.43	20362.66
422.61	22295.94
422.80	24074.75
422.99	24404.77
423.18	23709.63
423.37	23428.76
423.56	23012.15
423.75	23377.27
423.94	23978.79
424.13	22710.22
424.32	22665.75
424.50	23208.75
424.69	22665.75
424.88	22852.99
425.07	23185.35
425.26	22473.82
425.45	22562.76
425.64	21862.94
425.83	22038.48
426.01	23431.10
426.20	24247.95
426.39	24264.33
426.58	22256.15
426.77	20467.98
426.96	19814.98
427.15	20240.95
427.33	22115.72
427.52	23007.47
427.71	23159.60
427.90	22827.24
428.09	22902.14
428.28	22485.53
428.46	21350.37
428.65	20961.84
428.84	21713.15
429.03	21975.29
429.22	20954.82
429.40	20074.77
429.59	17848.93
429.78	15728.40
429.97	16112.25
430.16	15873.51
430.34	16205.87
430.53	16109.91
430.72	16840.15
430.91	18176.60
431.10	21303.56
431.28	25240.34
431.47	27147.87
431.66	27615.98
431.85	25338.64
432.03	23435.78
432.22	22178.92
432.41	22759.37
432.60	25729.51
432.79	26588.49
432.97	27569.17
433.16	26525.29
433.35	24489.03
433.54	21734.21
433.72	20320.53
433.91	21018.01
434.10	23864.10
434.28	25598.44
434.47	26747.64
434.66	26155.49
434.85	25596.10
435.03	25174.80
435.22	26078.25
435.41	27740.03
435.59	27613.64
435.78	28116.86
435.97	28882.21
436.16	29160.73
436.34	28547.51
436.53	27770.46
436.72	28280.69
436.90	26607.21
437.09	26431.67
437.28	25757.60
437.46	27033.19
437.65	26923.18
437.84	25296.51
438.02	22981.72
438.21	22614.26
438.40	23669.84
438.58	25905.05
438.77	26749.98
438.96	27405.33
439.14	28519.43
439.33	28858.81
439.52	29366.70
439.70	28671.56
439.89	27831.31
440.08	27058.93
440.26	26974.67
440.45	28020.89
440.63	29858.21
440.82	31709.58
441.01	30993.37
441.19	30728.89
441.38	31234.45
441.57	32393.01
441.75	33242.63
441.94	33205.18
442.12	33067.09
442.31	33504.77
442.50	33287.10
442.68	33226.24
442.87	32568.55
443.05	32093.43
443.24	32463.23
443.43	32978.15
443.61	33834.78
443.80	34223.31
443.98	32364.93
444.17	32636.43
444.35	34300.55
444.54	34604.82
444.73	34398.85
444.91	32865.80
445.10	31660.43
445.28	30471.43
445.47	29827.79
445.65	30125.04
445.84	30815.49
446.02	32149.60
446.21	32617.71
446.39	33102.20
446.58	32877.51
446.77	33518.81
446.95	33443.91
447.14	34792.06
447.32	35016.75
447.51	34345.02
447.69	33097.52
447.88	32746.44
448.06	33156.03
448.25	34185.86
448.43	34012.66
448.62	33628.82
448.80	33392.42
448.99	33610.09
449.17	34335.66
449.36	33979.90
449.54	35236.77
449.73	35592.53
449.91	35938.93
450.10	37074.09
450.28	37546.87
450.46	37467.30
450.65	37457.93
450.83	37266.01
451.02	36311.07
451.20	36381.29
451.39	36067.66
451.57	35644.02
451.76	36236.17
451.94	35864.03
452.13	34932.50
452.31	33415.83
452.49	32016.19
452.68	32128.53
452.86	32629.41
453.05	33076.45
453.23	33785.63
453.42	34719.51
453.60	35297.62
453.78	35950.63
453.97	35463.80
454.15	35302.30
454.34	34574.39
454.52	34939.52
454.70	34246.72
454.89	34583.76
455.07	34656.31
455.26	34932.50
455.44	36273.62
455.62	36870.46
455.81	37469.64
455.99	37041.32
456.17	36648.11
456.36	36877.48
456.54	37537.51
456.73	37715.39
456.91	38394.15
457.09	38408.19
457.28	39040.14
457.46	37528.15
457.64	37361.97
457.83	36594.28
458.01	35501.25
458.19	36788.54
458.38	36741.73
458.56	37982.21
458.74	37830.08
458.93	36957.06
459.11	37202.82
459.29	36886.84
459.48	37315.16
459.66	36531.08
459.84	37310.48
460.03	37322.18
460.21	37256.65
460.39	38176.48
460.57	38368.40
460.76	38983.96
460.94	38883.32
461.12	38272.44
461.31	38293.50
461.49	38417.55
461.67	38256.06
461.85	40025.50
462.04	39517.60
462.22	39557.39
462.40	39414.62
462.59	39480.16
462.77	39583.14
462.95	39325.68
463.13	38820.13
463.32	38649.27
463.50	38415.21
463.68	38698.42
463.86	38333.29
464.05	37724.75
464.23	37088.13
464.41	37186.43
464.59	36825.99
464.78	38366.06
464.96	37958.81
465.14	37619.43
465.32	38492.45
465.50	39732.93
465.69	39903.79
465.87	38953.54
466.05	38305.21
466.23	36739.39
466.41	35868.71
466.60	36935.99
466.78	36811.95
466.96	37312.82
467.14	37916.68
467.32	38359.04
467.51	38625.86
467.69	36610.66
467.87	37338.57
468.05	38590.75
468.23	38117.96
468.41	38359.04
468.60	38319.25
468.78	38799.06
468.96	38363.72
469.14	38698.42
469.32	39328.02
469.50	37331.54
469.69	37488.36
469.87	37387.72
470.05	36868.12
470.23	37177.07
470.41	37450.91
470.59	37666.24
470.77	37984.55
470.95	38621.18
471.14	39072.90
471.32	39161.84
471.50	41223.86
471.68	41228.54
471.86	41918.99
472.04	41563.23
472.22	41689.62
472.40	39353.77
472.58	39454.41
472.77	39290.57
472.95	40048.91
473.13	41151.30
473.31	39810.17
473.49	40222.11
473.67	41013.21
473.85	41462.59
474.03	42586.05
474.21	42099.22
474.39	43117.35
474.57	42923.08
474.75	42291.14
474.93	42747.54
475.12	41652.17
475.30	41900.27
475.48	41572.60
475.66	42546.26
475.84	42256.03
476.02	41813.67
476.20	41158.32
476.38	41631.11
476.56	43065.86
476.74	43349.06
476.92	43732.91
477.10	44516.99
477.28	45322.13
477.46	45689.60
477.64	45909.61
477.82	46450.27
478.00	46256.01
478.18	45659.17
478.36	45481.29
478.54	45350.22
478.72	46007.91
478.90	46579.00
479.08	47847.57
479.26	48114.39
479.44	47950.56
479.62	47955.24
479.80	47831.19
479.98	47615.86
480.16	48362.49
480.34	47643.94
480.52	48467.81
480.70	48708.89
480.88	48495.90
481.06	49144.23
481.24	49368.92
481.41	50288.75
481.59	50752.18
481.77	50248.96
481.95	50117.89
482.13	49935.33
482.31	50019.59
482.49	50485.36
482.67	50305.13
482.85	50665.58
483.03	51236.67
483.21	51449.66
483.39	51409.87
483.57	51068.15
483.74	50309.82
483.92	51033.04
484.10	51175.81
484.28	51847.55
484.46	52310.97
484.64	52460.77
484.82	51767.97
485.00	51393.48
485.18	50656.21
485.35	49621.70
485.53	46412.82
485.71	43115.01
485.89	42087.51
486.07	44093.35
486.25	47447.34
486.43	49787.88
486.61	50497.06
486.78	50260.66
486.96	50398.76
487.14	51693.07
487.32	52825.89
487.50	53602.95
487.68	54251.28
487.85	54901.95
488.03	54911.31
488.21	54607.04
488.39	53818.28
488.57	53312.72
488.75	53191.01
488.92	53916.58
489.10	55585.38
489.28	56765.01
489.46	57308.02
489.64	57069.28
489.81	57378.23
489.99	57113.75
490.17	57017.79
490.35	57450.79
490.53	57109.07
490.70	56591.81
490.88	56479.47
491.06	57509.30
491.24	57396.96
491.41	56519.26
491.59	55178.13
491.77	54473.63
491.95	55531.55
492.13	56353.08
492.30	57492.92
492.48	58166.99
492.66	58698.30
492.84	58674.89
493.01	58312.11
493.19	57806.55
493.37	57598.24
493.54	57338.44
493.72	57968.05
493.90	58805.96
494.08	59377.05
494.25	59669.62
494.43	59924.74
494.61	60296.88
494.79	60395.18
494.96	60266.45
495.14	59494.08
495.32	58808.30
495.49	58358.92
495.67	58976.82
495.85	60528.59
496.02	60828.18
496.20	60638.60
496.38	60083.89
496.55	59887.29
496.73	60481.78
496.91	60540.30
497.09	61010.74
497.26	61277.57
497.44	60734.56
497.62	60430.29
497.79	59868.56
497.97	58653.82
498.14	58717.02
498.32	59615.79
498.50	60596.47
498.67	61073.94
498.85	60926.49
499.03	60893.72
499.20	61242.46
499.38	61193.31
499.56	61141.81
499.73	60622.22
499.91	60133.04
500.08	60088.57
500.26	59365.35
500.44	59554.93
500.61	60306.24
500.79	60266.45
500.97	59810.05
501.14	59817.07
501.32	59482.37
501.49	59433.22
501.67	59639.19
501.84	60158.79
502.02	60427.95
502.20	60844.57
502.37	60893.72
502.55	60814.14
502.72	61509.28
502.90	61703.54
503.07	61478.85
503.25	61307.99
503.43	60385.82
503.60	59927.08
503.78	59358.33
503.95	59643.87
504.13	60912.44
504.30	61719.93
504.48	61453.11
504.65	61064.58
504.83	61277.57
505.01	61614.60
505.18	62145.90
505.36	62695.93
505.53	62541.45
505.71	62796.57
505.88	62780.19
506.06	62368.26
506.23	62298.04
506.41	61535.02
506.58	61928.23
506.76	61944.62
506.93	61818.23
507.11	61471.83
507.28	61780.78
507.46	61298.63
507.63	60788.39
507.81	60629.24
507.98	60804.78
508.16	61499.92
508.33	61937.60
508.50	62293.36
508.68	62499.33
508.85	62899.56
509.03	62777.85
509.20	62738.06
509.38	62288.68
509.55	61455.45
509.73	61539.71
509.90	62131.86
510.08	62436.13
510.25	62164.63
510.42	62202.08
510.60	61939.94
510.77	62288.68
510.95	62724.02
511.12	62876.15
511.30	63044.67
511.47	63154.68
511.64	63487.03
511.82	63299.79
511.99	62246.55
512.17	62040.58
512.34	61476.51
512.51	61556.09
512.69	61661.41
512.86	61928.23
513.04	62314.42
513.21	62342.51
513.38	62082.71
513.56	61712.91
513.73	60825.84
513.90	61235.44
514.08	61336.08
514.25	61518.64
514.43	61872.06
514.60	61925.89
514.77	61897.81
514.95	62209.10
515.12	62092.07
515.29	62078.03
515.47	62326.13
515.64	62784.87
515.81	62637.42
515.99	61914.19
516.16	60748.60
516.33	58871.49
516.51	57420.36
516.68	56456.06
516.85	56268.82
517.03	56470.11
517.20	58836.39
517.37	61197.99
517.54	62166.97
517.72	61602.90
517.89	59580.68
518.06	57418.02
518.24	57680.16
518.41	59564.29
518.58	60699.45
518.75	60956.91
518.93	61078.62
519.10	61041.17
519.27	61490.55
519.45	61570.13
519.62	62344.85
519.79	62447.83
519.96	62302.72
520.14	62117.82
520.31	61392.25
520.48	61336.08
520.65	61542.05
520.83	62445.49
521.00	62726.36
521.17	62562.52
521.34	62035.90
521.52	62314.42
521.69	62920.62
521.86	63325.53
522.03	62866.79
522.20	62073.35
522.38	60882.02
522.55	60935.85
522.72	61518.64
522.89	61708.22
523.07	61778.44
523.24	62040.58
523.41	62876.15
523.58	63089.14
523.75	63428.52
523.92	63339.58
524.10	63510.44
524.27	63435.54
524.44	63269.36
524.61	62819.98
524.78	62925.30
524.96	62709.97
525.13	62887.85
525.30	62918.28
525.47	63398.09
525.64	63470.65
525.81	62883.17
525.98	61567.79
526.16	60140.07
526.33	59437.90
526.50	59243.64
526.67	59023.63
526.84	59234.28
527.01	60301.56
527.18	60989.68
527.36	61942.28
527.53	62700.61
527.70	62927.64
527.87	62368.26
528.04	62056.96
528.21	62284.00
528.38	63089.14
528.55	63536.18
528.72	63674.27
528.89	64025.35
529.07	63498.73
529.24	63159.36
529.41	62585.92
529.58	61911.85
529.75	62110.80
529.92	62391.66
530.09	62824.66
530.26	63231.91
530.43	63515.12
530.60	63540.86
530.77	63763.21
530.94	63978.54
531.11	63575.97
531.28	63117.23
531.46	62880.83
531.63	63231.91
531.80	62948.71
531.97	62597.63
532.14	61975.05
532.31	61127.77
532.48	60477.10
532.65	60404.55
532.82	61392.25
532.99	62258.25
533.16	62260.59
533.33	63107.86
533.50	62845.72
533.67	62284.00
533.84	61820.57
534.01	62122.50
534.18	62262.93
534.35	62543.80
534.52	62377.62
534.69	62609.33
534.86	62674.87
535.03	62988.50
535.20	63454.26
535.37	63826.41
535.54	63833.43
535.71	63524.48
535.88	63149.99
536.05	62592.95
536.22	62417.41
536.38	62071.01
536.55	61659.07
536.72	61197.99
536.89	61001.38
537.06	61879.08
537.23	62724.02
537.40	62829.34
537.57	62843.38
537.74	62658.48
537.91	62590.61
538.08	62595.29
538.25	62651.46
538.42	62791.89
538.59	62749.76
538.75	61923.55
538.92	61825.25
539.09	61689.50
539.26	61434.38
539.43	61181.60
539.60	61350.12
539.77	61539.71
539.94	61675.46
540.11	60818.82
540.28	60329.65
540.44	60547.32
540.61	60685.41
540.78	60985.00
540.95	61235.44
541.12	61673.12
541.29	61794.82
541.46	62035.90
541.62	62216.12
541.79	62155.27
541.96	61429.70
542.13	61244.80
542.30	61602.90
542.47	61797.16
542.63	61633.33
542.80	61516.30
542.97	61432.04
543.14	61429.70
543.31	61326.72
543.48	61951.64
543.64	62616.35
543.81	62782.53
543.98	62754.44
544.15	62185.69
544.32	61584.18
544.48	61588.86
544.65	62129.52
544.82	62508.69
544.99	62094.41
545.16	61928.23
545.32	61286.93
545.49	62085.05
545.66	62534.43
545.83	62284.00
546.00	61923.55
546.16	61572.47
546.33	61626.31
546.50	61710.56
546.67	62078.03
546.83	61858.02
547.00	61787.80
547.17	61329.06
547.34	60680.73
547.50	60566.04
547.67	60828.18
547.84	61272.88
548.00	61357.14
548.17	61773.76
548.34	61705.88
548.51	61778.44
548.67	61513.96
548.84	61794.82
549.01	61818.23
549.18	61579.49
549.34	61764.40
549.51	61691.84
549.68	61371.19
549.84	61460.13
550.01	61380.55
550.18	60921.80
550.34	61174.58
550.51	61174.58
550.68	61296.29
550.84	60905.42
551.01	60851.59
551.18	60816.48
551.34	61071.60
551.51	61401.61
551.68	61705.88
551.84	61748.01
552.01	61455.45
552.18	61359.48
552.34	60736.90
552.51	60378.80
552.68	60397.52
552.84	60746.26
553.01	61017.77
553.18	60926.49
553.34	60940.53
553.51	61158.20
553.67	61258.84
553.84	61467.15
554.01	61293.95
554.17	61219.05
554.34	61183.94
554.51	61226.07
554.67	61626.31
554.84	61415.66
555.00	61118.41
555.17	60935.85
555.33	61041.17
555.50	60874.99
555.67	61146.50
555.83	60818.82
556.00	60598.81
556.16	60465.40
556.33	60107.30
556.50	60198.58
556.66	60128.36
556.83	59917.71
556.99	60168.15
557.16	60048.78
557.32	60343.69
557.49	60605.83
557.65	60591.79
557.82	60425.61
557.98	60367.10
558.15	60020.70
558.32	59220.23
558.48	58468.92
558.65	58724.04
558.81	58969.80
558.98	59154.70
559.14	59414.50
559.31	59590.04
559.47	59325.56
559.64	59238.96
559.80	58939.37
559.97	58852.77
560.13	59313.86
560.30	60247.73
560.46	60474.76
560.63	60956.91
560.79	60959.25
560.96	60465.40
561.12	59519.82
561.29	58618.72
561.45	58653.82
561.61	59199.17
561.78	59508.12
561.94	59552.59
562.11	59337.26
562.27	59112.57
562.44	59695.36
562.60	59833.46
562.77	60144.75
562.93	59868.56
563.10	59784.30
563.26	59309.18
563.42	59442.59
563.59	59194.49
563.75	59220.23
563.92	59339.60
564.08	59196.83
564.24	59435.56
564.41	59444.93
564.57	59351.30
564.74	59154.70
564.90	59093.85
565.07	58810.64
565.23	58569.57
565.39	58162.31
565.56	58169.33
565.72	57860.38
565.88	58099.12
566.05	58375.30
566.21	58408.07
566.38	58639.78
566.54	58625.74
566.70	58967.46
566.87	59096.19
567.03	59250.66
567.19	59533.87
567.36	59140.66
567.52	58988.52
567.68	58925.33
567.85	58190.40
568.01	57834.64
568.17	57666.12
568.34	57549.09
568.50	57462.49
568.66	57677.82
568.83	58049.97
568.99	58106.14
569.15	58211.46
569.32	58099.12
569.48	57928.26
569.64	57741.02
569.81	57474.20
569.97	57673.14
570.13	57570.16
570.30	56872.68
570.46	56926.51
570.62	56196.26
570.78	56119.02
570.95	56547.34
571.11	57066.94
571.27	57361.85
571.43	57450.79
571.60	57565.48
571.76	57654.42
571.92	57935.28
572.09	57993.79
572.25	58354.24
572.41	58071.03
572.57	57893.15
572.74	57982.09
572.90	57652.08
573.06	57504.62
573.22	57783.15
573.38	57579.52
573.55	57279.93
573.71	57659.10
573.87	57722.29
574.03	57411.00
574.20	57661.44
574.36	57200.35
574.52	57160.56
574.68	56938.21
574.84	56601.18
575.01	56212.65
575.17	56016.04
575.33	56334.35
575.49	56882.04
575.65	56685.43
575.82	56542.66
575.98	56381.16
576.14	56706.50
576.30	56830.55
576.46	56989.70
576.62	56900.76
576.79	57013.11
576.95	56463.08
577.11	56348.40
577.27	56537.98
577.43	56753.31
577.59	56151.79
577.75	55966.89
577.92	55173.45
578.08	55246.00
578.24	55250.69
578.40	55611.13
578.56	55627.51
578.72	55814.76
578.88	55854.54
579.04	56177.54
579.21	56158.81
579.37	56147.11
579.53	56362.44
579.69	56212.65
579.85	56449.04
580.01	56285.20
580.17	55774.97
580.33	55924.76
580.49	55985.61
580.65	56119.02
580.82	56292.22
580.98	56301.59
581.14	56039.45
581.30	56294.56
581.46	56217.33
581.62	56193.92
581.78	56032.42
581.94	56617.56
582.10	56238.39
582.26	56388.19
582.42	56779.06
582.58	56481.81
582.74	56254.78
582.90	56416.27
583.06	56371.80
583.22	56137.75
583.38	56203.28
583.54	56196.26
583.70	56081.58
583.86	55952.85
584.02	55987.95
584.18	56088.60
584.34	55737.52
584.50	55721.13
584.66	55884.97
584.82	55533.89
584.98	55274.09
585.14	55030.68
