SpectraSuite Data File
++++++++++++++++++++++++++++++++++++
Date: Mon Oct 07 14:53:48 GMT-05:00 2013
User: price-jones
Dark Spectrum Present: No
Reference Spectrum Present: No
Number of Sampled Component Spectra: 1
Spectrometers: USB2+H05261
Integration Time (usec): 100000 (USB2+H05261)
Spectra Averaged: 1 (USB2+H05261)
Boxcar Smoothing: 0 (USB2+H05261)
Correct for Electrical Dark: No (USB2+H05261)
Strobe/Lamp Enabled: No (USB2+H05261)
Correct for Detector Non-linearity: No (USB2+H05261)
Correct for Stray Light: No (USB2+H05261)
Number of Pixels in Processed Spectrum: 2048
>>>>>Begin Processed Spectral Data<<<<<
365.73	0.00
365.92	0.00
366.12	0.00
366.32	0.00
366.52	0.00
366.72	0.00
366.91	0.00
367.11	0.00
367.31	0.00
367.51	0.00
367.70	0.00
367.90	0.00
368.10	0.00
368.30	0.00
368.49	0.00
368.69	0.00
368.89	0.00
369.09	0.00
369.28	0.00
369.48	0.00
369.68	0.00
369.87	0.00
370.07	0.00
370.27	0.00
370.47	585.13
370.66	2843.75
370.86	3475.70
371.06	3934.44
371.25	3936.78
371.45	3419.52
371.65	3108.23
371.84	2874.18
372.04	3066.10
372.24	3428.88
372.44	3555.27
372.63	3602.08
372.83	3255.69
373.03	3014.61
373.22	2722.04
373.42	2876.52
373.62	3361.01
373.81	3550.59
374.01	3625.49
374.21	3309.52
374.40	2930.35
374.60	2855.45
374.79	3309.52
374.99	3950.82
375.19	4383.82
375.38	4437.66
375.58	4091.26
375.78	4128.70
375.97	4189.56
376.17	4416.59
376.37	4208.28
376.56	4479.79
376.76	4477.44
376.95	4950.23
377.15	5345.78
377.35	5404.30
377.54	5708.57
377.74	5949.64
377.93	5834.96
378.13	5774.10
378.33	5441.75
378.52	4931.51
378.72	4746.61
378.91	4802.78
379.11	4585.11
379.31	4346.37
379.50	4337.01
379.70	4713.84
379.89	5277.91
380.09	5556.43
380.28	5760.06
380.48	5717.93
380.68	5600.90
380.87	5631.33
381.07	5137.48
381.26	4894.06
381.46	4402.55
381.65	4437.66
381.85	4227.01
382.04	3960.19
382.24	3653.58
382.43	3595.06
382.63	3562.30
382.83	3527.19
383.02	3524.85
383.22	3407.82
383.41	3424.20
383.61	3630.17
383.80	4194.24
384.00	4758.31
384.19	5423.02
384.39	5753.04
384.58	5795.17
384.78	5413.66
384.97	5593.88
385.17	5376.21
385.36	4973.64
385.56	4795.76
385.75	4968.96
385.95	5502.60
386.14	5774.10
386.34	5877.09
386.53	5563.45
386.72	5191.31
386.92	5219.39
387.11	5696.86
387.31	5795.17
387.50	5767.08
387.70	5570.48
387.89	5462.81
388.09	5516.64
388.28	5514.30
388.48	5643.03
388.67	5870.06
388.86	6590.95
389.06	7033.31
389.25	7564.61
389.45	7543.55
389.64	7494.40
389.84	7454.61
390.03	7489.71
390.22	7407.80
390.42	7751.85
390.61	8177.83
390.81	8566.36
391.00	8968.93
391.19	8917.44
391.39	8468.06
391.58	7903.99
391.78	7513.12
391.97	7272.04
392.16	6843.73
392.36	6237.53
392.55	5107.05
392.75	3878.27
392.94	3211.22
393.13	3279.09
393.33	3850.18
393.52	4957.25
393.71	5760.06
393.91	6712.66
394.10	7279.07
394.29	8081.87
394.49	8531.25
394.68	9156.18
394.88	9135.11
395.07	9638.33
395.26	9437.04
395.46	9397.25
395.65	8758.28
395.84	7679.30
396.04	6656.48
396.23	5296.63
396.42	4414.25
396.62	4262.12
396.81	4800.44
397.00	6230.51
397.19	7812.71
397.39	9095.32
397.58	10417.72
397.77	11147.97
397.97	11510.75
398.16	11655.87
398.35	12145.04
398.55	12362.71
398.74	12980.61
398.93	13151.47
399.12	12961.89
399.32	12542.93
399.51	12968.91
399.70	13713.20
399.90	13547.02
400.09	13486.17
400.28	13411.27
400.47	13322.33
400.67	14321.74
400.86	14670.48
401.05	14611.96
401.24	14682.18
401.44	14827.29
401.63	15124.54
401.82	15199.44
402.01	14956.02
402.21	15508.39
402.40	15204.12
402.59	14932.62
402.78	13989.38
402.97	13743.63
403.17	14167.26
403.36	14967.73
403.55	15733.08
403.74	15903.94
403.93	15157.31
404.13	13989.38
404.32	13855.97
404.51	14314.72
404.70	15611.37
404.89	15440.51
405.09	15393.70
405.28	14726.65
405.47	14775.80
405.66	14813.25
405.85	14600.26
406.05	14324.08
406.24	14335.78
406.43	15021.56
406.62	15449.88
406.81	15700.31
407.00	14752.40
407.20	14408.34
407.39	15131.56
407.58	15424.13
407.77	16032.67
407.96	16477.37
408.15	16631.85
408.34	16748.87
408.54	17528.27
408.73	17497.84
408.92	17149.11
409.11	17022.72
409.30	15981.18
409.49	15166.67
409.68	14211.73
409.87	13352.76
410.07	14501.96
410.26	15538.82
410.45	16678.66
410.64	17090.59
410.83	17364.43
411.02	17752.96
411.21	18738.33
411.40	18480.87
411.59	18462.15
411.78	18445.76
411.98	18258.52
412.17	18614.28
412.36	18162.56
412.55	18244.48
412.74	17811.48
412.93	17153.79
413.12	17439.33
413.31	19274.31
413.50	19283.67
413.69	19719.01
413.88	19250.91
414.07	18480.87
414.26	18843.65
414.45	19339.85
414.64	19590.28
414.83	19604.33
415.02	19180.69
415.22	19005.15
415.41	19632.41
415.60	20348.62
415.79	20851.83
415.98	21240.36
416.17	21378.45
416.36	20851.83
416.55	20666.93
416.74	19810.29
416.93	19103.45
417.12	19133.88
417.31	19510.71
417.50	19749.44
417.69	20615.44
417.88	20577.99
418.07	20222.23
418.26	19711.99
418.45	20203.50
418.64	21050.78
418.83	21446.33
419.02	21088.23
419.21	21170.15
419.39	20460.96
419.58	19360.91
419.77	19513.05
419.96	20166.06
420.15	21022.69
420.34	21853.58
420.53	22696.17
420.72	22918.53
420.91	22895.12
421.10	22693.83
421.29	22628.30
421.48	21521.23
421.67	22455.10
421.86	21898.05
422.05	21039.08
422.24	18335.76
422.43	18136.81
422.61	20137.97
422.80	21949.54
422.99	21790.39
423.18	21193.55
423.37	20755.87
423.56	20929.07
423.75	20900.98
423.94	21434.63
424.13	20379.04
424.32	20908.01
424.50	20652.89
424.69	20280.74
424.88	20475.01
425.07	20208.19
425.26	20350.96
425.45	20156.69
425.64	19917.96
425.83	19880.51
426.01	21071.84
426.20	21266.11
426.39	21373.77
426.58	19571.56
426.77	18478.53
426.96	17799.77
427.15	18396.61
427.33	19793.91
427.52	20439.90
427.71	20669.27
427.90	20702.04
428.09	20130.95
428.28	19630.07
428.46	18853.02
428.65	19091.75
428.84	19257.93
429.03	19613.69
429.22	18752.37
429.40	17841.90
429.59	16224.59
429.78	14265.57
429.97	14232.80
430.16	14225.78
430.34	14707.93
430.53	14209.39
430.72	14668.14
430.91	16395.45
431.10	18909.19
431.28	22298.28
431.47	24084.11
431.66	24713.72
431.85	22630.64
432.03	20636.50
432.22	19562.20
432.41	20854.17
432.60	22939.59
432.79	23723.67
432.97	24269.01
433.16	23695.58
433.35	21752.94
433.54	19552.84
433.72	18295.97
433.91	19138.56
434.10	21352.71
434.28	22251.47
434.47	24161.35
434.66	23548.13
434.85	22574.47
435.03	22822.56
435.22	23421.74
435.41	24870.53
435.59	24783.93
435.78	25067.14
435.97	25764.62
436.16	25788.02
436.34	25188.85
436.53	24957.13
436.72	25135.01
436.90	23854.74
437.09	23686.22
437.28	22902.14
437.46	23983.47
437.65	24065.39
437.84	22403.61
438.02	20343.94
438.21	20603.74
438.40	21373.77
438.58	23180.67
438.77	24044.32
438.96	24093.47
439.14	25291.83
439.33	25788.02
439.52	25923.77
439.70	25750.57
439.89	25223.95
440.08	24233.91
440.26	24362.64
440.45	25179.48
440.63	26483.16
440.82	28233.88
441.01	27515.34
441.19	27850.03
441.38	27728.33
441.57	28989.88
441.75	29123.29
441.94	29230.95
442.12	28498.36
442.31	29893.32
442.50	29820.77
442.68	29628.84
442.87	29296.49
443.05	28524.11
443.24	29315.21
443.43	29605.44
443.61	30551.01
443.80	30632.93
443.98	28961.79
444.17	28673.90
444.35	30724.21
444.54	30911.46
444.73	30724.21
444.91	29596.07
445.10	28341.55
445.28	27314.05
445.47	26611.89
445.65	26925.52
445.84	27662.79
446.02	28411.76
446.21	28936.04
446.39	28954.77
446.58	29472.03
446.77	29677.99
446.95	30246.74
447.14	30895.07
447.32	31302.32
447.51	30909.11
447.69	29631.18
447.88	29516.50
448.06	29673.31
448.25	30356.75
448.43	30604.84
448.62	30050.14
448.80	29900.34
448.99	29916.73
449.17	30384.83
449.36	30050.14
449.54	31440.42
449.73	31880.44
449.91	32409.40
450.10	33303.48
450.28	33586.69
450.46	33184.12
450.65	33486.04
450.83	32903.25
451.02	32416.42
451.20	32332.16
451.39	32481.95
451.57	32086.40
451.76	32123.85
451.94	31906.18
452.13	31386.58
452.31	30110.99
452.49	28526.45
452.68	28608.37
452.86	28783.91
453.05	29493.09
453.23	30176.53
453.42	30623.57
453.60	31206.36
453.78	31601.91
453.97	31527.02
454.15	31559.78
454.34	30855.28
454.52	30848.26
454.70	30590.80
454.89	30703.15
455.07	30813.15
455.26	31477.86
455.44	32818.99
455.62	33268.37
455.81	33364.34
455.99	33088.15
456.17	32240.88
456.36	32821.33
456.54	33645.20
456.73	34019.69
456.91	33846.49
457.09	34256.08
457.28	34857.60
457.46	33724.78
457.64	33369.02
457.83	32238.54
458.01	31409.99
458.19	32259.60
458.38	32554.51
458.56	33701.37
458.74	33546.90
458.93	33256.67
459.11	32816.65
459.29	32818.99
459.48	33060.07
459.66	32842.40
459.84	32924.32
460.03	33696.69
460.21	33401.79
460.39	34466.73
460.57	34492.47
460.76	34682.06
460.94	34979.31
461.12	34113.31
461.31	34508.86
461.49	33820.74
461.67	34117.99
461.85	35548.06
462.04	35093.99
462.22	35314.00
462.40	35077.61
462.59	34986.33
462.77	35372.52
462.95	35133.78
463.13	34682.06
463.32	34349.70
463.50	34162.46
463.68	33905.00
463.86	34740.57
464.05	33703.71
464.23	33221.56
464.41	33125.60
464.59	32575.58
464.78	34052.45
464.96	33558.60
465.14	33570.30
465.32	34359.06
465.50	34848.24
465.69	35519.97
465.87	34834.19
466.05	33954.15
466.23	32444.51
466.41	31850.01
466.60	32673.88
466.78	33106.88
466.96	33443.91
467.14	33722.44
467.32	34223.31
467.51	34043.09
467.69	33247.31
467.87	33570.30
468.05	33905.00
468.23	33914.36
468.41	34007.98
468.60	34115.65
468.78	34113.31
468.96	33680.31
469.14	34829.51
469.32	34951.22
469.50	33415.83
469.69	33666.27
469.87	33118.58
470.05	32793.25
470.23	32856.44
470.41	33034.32
470.59	33207.52
470.77	33570.30
470.95	34625.89
471.14	34572.05
471.32	34763.98
471.50	36891.52
471.68	36940.68
471.86	37013.23
472.04	37392.40
472.22	37448.57
472.40	35416.99
472.58	35267.19
472.77	34689.08
472.95	35831.26
473.13	36526.40
473.31	35386.56
473.49	35714.23
473.67	36329.80
473.85	36662.15
474.03	37773.91
474.21	37544.53
474.39	38080.52
474.57	38272.44
474.75	37921.36
474.93	38064.13
475.12	37268.35
475.30	36854.08
475.48	37392.40
475.66	37965.83
475.84	37481.34
476.02	37198.13
476.20	36575.55
476.38	37010.89
476.56	38345.00
476.74	39129.08
476.92	38990.98
477.10	39426.32
477.28	40620.00
477.46	40793.20
477.64	41064.70
477.82	41130.23
478.00	41291.73
478.18	41062.36
478.36	40821.28
478.54	40512.33
478.72	40912.56
478.90	41738.77
479.08	42492.43
479.26	43438.00
479.44	43138.41
479.62	43023.73
479.80	42572.00
479.98	43196.93
480.16	43461.41
480.34	42813.08
480.52	43545.67
480.70	43672.06
480.88	43550.35
481.06	44140.16
481.24	45001.48
481.41	45965.78
481.59	46244.30
481.77	45921.31
481.95	45123.19
482.13	45148.93
482.31	45104.46
482.49	45846.41
482.67	45907.27
482.85	45984.51
483.03	46831.78
483.21	46710.07
483.39	47037.75
483.57	46309.84
483.74	46204.52
483.92	46698.37
484.10	46658.58
484.28	47868.64
484.46	47854.59
484.64	48444.41
484.82	47304.57
485.00	46941.78
485.18	45872.16
485.35	44811.90
485.53	41710.69
485.71	38059.45
485.89	37539.85
486.07	39005.03
486.25	42967.55
486.43	45008.50
486.61	45549.17
486.78	45588.95
486.96	46094.51
487.14	47473.09
487.32	48332.06
487.50	49649.78
487.68	50483.01
487.85	51061.13
488.03	50817.71
488.21	50485.36
488.39	49626.38
488.57	49158.27
488.75	48758.04
488.92	49591.27
489.10	51978.62
489.28	52889.09
489.46	53818.28
489.64	53780.83
489.81	53811.26
489.99	53570.18
490.17	53354.85
490.35	54024.25
490.53	53514.01
490.70	53198.04
490.88	53125.48
491.06	53949.35
491.24	53921.26
491.41	52823.55
491.59	51276.46
491.77	50742.81
491.95	51559.66
492.13	52694.82
492.30	54138.93
492.48	55040.04
492.66	55220.26
492.84	55255.37
493.01	55098.55
493.19	54686.62
493.37	54260.64
493.54	54115.53
493.72	54630.44
493.90	55477.72
494.08	56488.83
494.25	56638.62
494.43	56598.83
494.61	57284.61
494.79	57261.21
494.96	57041.20
495.14	56463.08
495.32	55704.75
495.49	54770.88
495.67	55875.61
495.85	57095.03
496.02	57621.65
496.20	57322.06
496.38	56954.60
496.55	56816.50
496.73	57338.44
496.91	57513.98
497.09	58059.33
497.26	58408.07
497.44	57631.01
497.62	57240.14
497.79	56502.87
497.97	55299.84
498.14	55278.77
498.32	56442.02
498.50	57359.51
498.67	57984.43
498.85	57642.71
499.03	58031.24
499.20	58181.04
499.38	58052.31
499.56	58122.52
499.73	57694.21
499.91	57045.88
500.08	56762.67
500.26	55877.95
500.44	56334.35
500.61	57043.54
500.79	56793.10
500.97	56554.36
501.14	56437.34
501.32	56472.45
501.49	56360.10
501.67	56664.37
501.84	57106.73
502.02	57120.77
502.20	57605.26
502.37	57748.04
502.55	57623.99
502.72	58197.42
502.90	58686.59
503.07	58611.70
503.25	58181.04
503.43	57343.12
503.60	56697.14
503.78	55999.66
503.95	56231.37
504.13	57738.68
504.30	58639.78
504.48	58387.00
504.65	57956.35
504.83	58101.46
505.01	58684.25
505.18	58862.13
505.36	59634.51
505.53	59599.40
505.71	59779.62
505.88	59814.73
506.06	59351.30
506.23	58770.85
506.41	58429.13
506.58	58796.60
506.76	58763.83
506.93	58702.98
507.11	58487.65
507.28	58714.68
507.46	58150.61
507.63	57623.99
507.81	57537.39
507.98	57616.97
508.16	58115.50
508.33	58773.19
508.50	59283.43
508.68	59512.80
508.85	59999.63
509.03	59861.54
509.20	59856.86
509.38	59194.49
509.55	58468.92
509.73	58445.52
509.90	58955.75
510.08	59166.40
510.25	59035.33
510.42	58951.07
510.60	58768.51
510.77	59082.14
510.95	59678.98
511.12	59931.76
511.30	60196.24
511.47	60037.08
511.64	60334.33
511.82	59936.44
511.99	59290.45
512.17	58745.11
512.34	58321.47
512.51	58653.82
512.69	58766.17
512.86	58820.00
513.04	59299.81
513.21	59215.55
513.38	59004.91
513.56	58499.35
513.73	57893.15
513.90	58042.95
514.08	58176.36
514.25	58234.87
514.43	58700.64
514.60	58583.61
514.77	59035.33
514.95	58927.67
515.12	58850.43
515.29	59255.34
515.47	59421.52
515.64	59791.33
515.81	59363.01
515.99	58927.67
516.16	57537.39
516.33	55288.13
516.51	53633.38
516.68	53013.13
516.85	52280.55
517.03	53176.97
517.20	55620.49
517.37	57846.34
517.54	59114.91
517.72	58497.01
517.89	56177.54
518.06	53661.46
518.24	54115.53
518.41	56392.87
518.58	57614.63
518.75	57787.83
518.93	58064.01
519.10	57759.74
519.27	58375.30
519.45	58375.30
519.62	59194.49
519.79	59461.31
519.96	59531.53
520.14	58885.54
520.31	57942.30
520.48	58195.08
520.65	58174.02
520.83	59290.45
521.00	59777.28
521.17	59332.58
521.34	59072.78
521.52	59463.65
521.69	59594.72
521.86	60179.85
522.03	59927.08
522.20	58880.86
522.38	57822.93
522.55	57806.55
522.72	58335.51
522.89	58316.79
523.07	58541.48
523.24	59093.85
523.41	59601.74
523.58	59924.74
523.75	60474.76
523.92	60441.99
524.10	60491.15
524.27	60130.70
524.44	60020.70
524.61	59774.94
524.78	59849.84
524.96	59653.23
525.13	59576.00
525.30	59903.67
525.47	60261.77
525.64	60385.82
525.81	59433.22
525.98	58066.35
526.16	56781.40
526.33	56053.49
526.50	55824.12
526.67	55461.33
526.84	56268.82
527.01	57132.48
527.18	57715.27
527.36	58794.26
527.53	59664.94
527.70	59784.30
527.87	59189.81
528.04	58784.90
528.21	59119.59
528.38	59803.03
528.55	60413.91
528.72	60603.49
528.89	60975.64
529.07	60544.98
529.24	59957.50
529.41	59412.16
529.58	58714.68
529.75	58904.26
529.92	59388.75
530.09	59831.11
530.26	60177.51
530.43	60575.40
530.60	60533.28
530.77	60718.18
530.94	60973.30
531.11	60486.46
531.28	59957.50
531.46	59681.32
531.63	59990.27
531.80	59868.56
531.97	59512.80
532.14	58965.12
532.31	57925.92
532.48	57146.52
532.65	57181.63
532.82	58089.76
532.99	59346.62
533.16	59292.79
533.33	60238.37
533.50	59716.43
533.67	59098.53
533.84	58674.89
534.01	58974.48
534.18	59096.19
534.35	59355.99
534.52	59285.77
534.69	59561.95
534.86	59805.37
535.03	59805.37
535.20	60317.95
535.37	60467.74
535.54	60547.32
535.71	60404.55
535.88	60378.80
536.05	59437.90
536.22	59119.59
536.38	58897.24
536.55	58454.88
536.72	57633.35
536.89	57869.75
537.06	58677.23
537.23	59613.44
537.40	59704.73
537.57	59484.72
537.74	59416.84
537.91	59428.54
538.08	59419.18
538.25	59367.69
538.42	59604.08
538.59	59451.95
538.75	58710.00
538.92	58534.46
539.09	58405.73
539.26	58272.32
539.43	57977.41
539.60	58206.78
539.77	58206.78
539.94	58277.00
540.11	57614.63
540.28	57176.95
540.44	57104.39
540.61	57221.42
540.78	57633.35
540.95	57883.79
541.12	58417.43
541.29	58583.61
541.46	58904.26
541.62	58962.78
541.79	58700.64
541.96	58300.40
542.13	58157.63
542.30	58377.64
542.47	58506.37
542.63	58408.07
542.80	58117.84
542.97	58244.23
543.14	58190.40
543.31	58169.33
543.48	58747.45
543.64	59536.21
543.81	59730.47
543.98	59538.55
544.15	58812.98
544.32	58403.39
544.48	58255.93
544.65	58787.24
544.82	59292.79
544.99	58880.86
545.16	58674.89
545.32	58354.24
545.49	58913.62
545.66	59482.37
545.83	58981.50
546.00	58489.99
546.16	58286.36
546.33	58384.66
546.50	58429.13
546.67	59007.25
546.83	58494.67
547.00	58597.65
547.17	57879.11
547.34	57282.27
547.50	57169.93
547.67	57752.72
547.84	57726.97
548.00	58192.74
548.17	58616.38
548.34	58543.82
548.51	58302.74
548.67	58426.79
548.84	58525.10
549.01	58363.60
549.18	58361.26
549.34	58471.26
549.51	58206.78
549.68	58375.30
549.84	57989.11
550.01	57946.98
550.18	57741.02
550.34	57991.45
550.51	58085.07
550.68	58326.15
550.84	57628.67
551.01	57607.61
551.18	57623.99
551.34	57937.62
551.51	58190.40
551.68	58452.54
551.84	58520.41
552.01	58466.58
552.18	58286.36
552.34	57588.88
552.51	56945.23
552.68	56786.08
552.84	57286.95
553.01	57607.61
553.18	57553.77
553.34	57733.99
553.51	57907.19
553.67	57865.06
553.84	58092.10
554.01	57881.45
554.17	57916.56
554.34	57827.62
554.51	57790.17
554.67	58408.07
554.84	58080.39
555.00	57762.08
555.17	57682.50
555.33	57516.32
555.50	57574.84
555.67	57773.78
555.83	57270.57
556.00	57045.88
556.16	57034.17
556.33	56626.92
556.50	56741.61
556.66	56746.29
556.83	56367.12
556.99	56451.38
557.16	56750.97
557.32	57113.75
557.49	57284.61
557.65	57188.65
557.82	57113.75
557.98	56750.97
558.15	56537.98
558.32	55744.54
558.48	54784.92
558.65	55203.88
558.81	55508.14
558.98	55945.83
559.14	55887.31
559.31	55922.42
559.47	55948.17
559.64	55702.41
559.80	55393.46
559.97	55210.90
560.13	55917.74
560.30	56966.30
560.46	57378.23
560.63	57521.01
560.79	57439.09
560.96	57020.13
561.12	56086.26
561.29	54944.08
561.45	55056.42
561.61	55543.25
561.78	55997.32
561.94	56231.37
562.11	56006.68
562.27	55501.12
562.44	56086.26
562.60	56416.27
562.77	56655.01
562.93	56402.23
563.10	56430.32
563.26	55781.99
563.42	55955.19
563.59	55681.34
563.75	55819.44
563.92	55767.94
564.08	55547.93
564.24	55884.97
564.41	55934.12
564.57	55749.22
564.74	55793.69
564.90	55702.41
565.07	55430.91
565.23	55068.12
565.39	54677.25
565.56	54293.41
565.72	53972.75
565.88	54365.96
566.05	54656.19
566.21	55042.38
566.38	54925.35
566.54	54911.31
566.70	55437.93
566.87	55910.72
567.03	55657.94
567.19	55810.07
567.36	55597.09
567.52	55313.88
567.68	55168.77
567.85	54513.42
568.01	54314.47
568.17	53778.49
568.34	53886.15
568.50	53818.28
568.66	53855.73
568.83	54440.86
568.99	54508.74
569.15	54653.85
569.32	54726.41
569.48	54103.82
569.64	54490.01
569.81	53827.64
569.97	53766.79
570.13	53497.62
570.30	53052.92
570.46	52758.02
570.62	52222.03
570.78	51892.02
570.95	52090.96
571.11	53361.87
571.27	53401.66
571.43	53294.00
571.60	53832.32
571.76	54108.50
571.92	54382.35
572.09	54443.20
572.25	54473.63
572.41	54440.86
572.57	54038.29
572.74	54298.09
572.90	53902.54
573.06	53829.98
573.22	53937.65
573.38	53904.88
573.55	54169.36
573.71	53911.90
573.87	54204.47
574.03	53291.66
574.20	53638.06
574.36	53422.73
574.52	53256.55
574.68	53123.14
574.84	52694.82
575.01	51964.57
575.17	52219.69
575.33	52528.64
575.49	52676.10
575.65	52872.70
575.82	52683.12
575.98	52306.29
576.14	52664.39
576.30	52978.03
576.46	52942.92
576.62	53099.73
576.79	52975.69
576.95	52603.54
577.11	52332.04
577.27	52528.64
577.43	52788.44
577.59	52346.08
577.75	51892.02
577.92	51257.73
578.08	51129.00
578.24	51157.09
578.40	51480.08
578.56	51782.01
578.72	51367.74
578.88	51700.09
579.04	52018.41
579.21	52222.03
579.37	52097.98
579.53	52142.45
579.69	52102.67
579.85	52446.72
580.01	52177.56
580.17	51910.74
580.33	51777.33
580.49	51831.16
580.65	51906.06
580.82	52053.51
580.98	52460.77
581.14	51810.10
581.30	52074.58
581.46	52009.04
581.62	52273.52
581.78	51997.34
581.94	52299.27
582.10	52538.01
582.26	52273.52
582.42	52540.35
582.58	52484.17
582.74	52060.54
582.90	52552.05
583.06	52179.90
583.22	52182.24
583.38	51711.80
583.54	51763.29
583.70	51828.82
583.86	52130.75
584.02	51973.94
584.18	52156.50
584.34	51641.58
584.50	51707.12
584.66	51309.22
584.82	51278.80
584.98	50908.99
585.14	50623.45
585.30	50333.22
