SpectraSuite Data File
++++++++++++++++++++++++++++++++++++
Date: Mon Oct 07 14:53:25 GMT-05:00 2013
User: price-jones
Dark Spectrum Present: No
Reference Spectrum Present: No
Number of Sampled Component Spectra: 1
Spectrometers: USB2+H05261
Integration Time (usec): 100000 (USB2+H05261)
Spectra Averaged: 1 (USB2+H05261)
Boxcar Smoothing: 0 (USB2+H05261)
Correct for Electrical Dark: No (USB2+H05261)
Strobe/Lamp Enabled: No (USB2+H05261)
Correct for Detector Non-linearity: No (USB2+H05261)
Correct for Stray Light: No (USB2+H05261)
Number of Pixels in Processed Spectrum: 2048
>>>>>Begin Processed Spectral Data<<<<<
365.73	0.00
365.92	0.00
366.12	0.00
366.32	0.00
366.52	0.00
366.72	0.00
366.91	0.00
367.11	0.00
367.31	0.00
367.51	0.00
367.70	0.00
367.90	0.00
368.10	0.00
368.30	0.00
368.49	0.00
368.69	0.00
368.89	0.00
369.09	0.00
369.28	0.00
369.48	0.00
369.68	0.00
369.87	0.00
370.07	0.00
370.27	0.00
370.47	561.73
370.66	2939.71
370.86	3517.83
371.06	3794.01
371.25	3838.48
371.45	3419.52
371.65	3197.17
371.84	2836.73
372.04	3030.99
372.24	3557.61
372.44	3630.17
372.63	3529.53
372.83	3361.01
373.03	2906.95
373.22	2572.25
373.42	2731.41
373.62	3213.56
373.81	3522.51
374.01	3527.19
374.21	3115.25
374.40	2810.98
374.60	3000.57
374.79	3517.83
374.99	3929.76
375.19	4365.10
375.38	4262.12
375.58	4135.73
375.78	3985.93
375.97	4112.32
376.17	4138.07
376.37	4070.19
376.56	4400.21
376.76	4472.76
376.95	4861.29
377.15	5130.45
377.35	5399.62
377.54	5701.54
377.74	5792.83
377.93	5804.53
378.13	5570.48
378.33	5444.09
378.52	4868.31
378.72	4566.39
378.91	4634.26
379.11	4564.04
379.31	4346.37
379.50	4327.65
379.70	4664.69
379.89	5238.12
380.09	5341.10
380.28	5643.03
380.48	5584.52
380.68	5537.71
380.87	5453.45
381.07	4975.98
381.26	4620.22
381.46	4390.84
381.65	4168.49
381.85	4067.85
382.04	3831.46
382.24	3662.94
382.43	3454.63
382.63	3459.31
382.83	3316.54
383.02	3316.54
383.22	3353.99
383.41	3349.31
383.61	3674.64
383.80	4203.60
384.00	4772.35
384.19	5287.27
384.39	5699.20
384.58	5600.90
384.78	5596.22
384.97	5404.30
385.17	5195.99
385.36	5121.09
385.56	4620.22
385.75	4875.34
385.95	5348.12
386.14	5872.40
386.34	5806.87
386.53	5439.40
386.72	5118.75
386.92	5338.76
387.11	5633.67
387.31	5820.91
387.50	5713.25
387.70	5411.32
387.89	5523.66
388.09	5607.92
388.28	5645.37
388.48	5483.88
388.67	6029.22
388.86	6569.88
389.06	7009.90
389.25	7485.03
389.45	7459.29
389.64	7499.08
389.84	7473.33
390.03	7136.29
390.22	7438.22
390.42	7541.21
390.61	8065.49
390.81	8479.76
391.00	8786.37
391.19	8716.16
391.39	8388.48
391.58	7845.48
391.78	7428.86
391.97	7192.47
392.16	6480.94
392.36	6083.05
392.55	4964.28
392.75	3948.48
392.94	3129.30
393.13	3211.22
393.33	3723.79
393.52	4727.88
393.71	5867.72
393.91	6640.10
394.10	7206.51
394.29	7737.81
394.49	8390.82
394.68	9142.13
394.88	9334.06
395.07	9430.02
395.26	9404.27
395.46	9060.21
395.65	8699.77
395.84	7412.48
396.04	6408.39
396.23	5226.42
396.42	4315.95
396.62	4187.22
396.81	4828.53
397.00	6122.84
397.19	7683.98
397.39	9184.26
397.58	10483.26
397.77	10911.58
397.97	11309.47
398.16	11426.50
398.35	12042.06
398.55	12285.47
398.74	12645.91
398.93	13123.38
399.12	12856.56
399.32	12556.97
399.51	12678.68
399.70	13692.13
399.90	13214.66
400.09	13542.34
400.28	13069.55
400.47	13378.50
400.67	14031.51
400.86	14197.69
401.05	14391.95
401.24	14530.05
401.44	14593.24
401.63	14747.72
401.82	14839.00
402.01	14785.16
402.21	14848.36
402.40	14878.79
402.59	14455.15
402.78	13855.97
402.97	13472.12
403.17	13909.80
403.36	14696.22
403.55	15047.30
403.74	15716.70
403.93	14747.72
404.13	13832.57
404.32	13394.89
404.51	14338.12
404.70	15363.28
404.89	15070.71
405.09	15054.33
405.28	14274.93
405.47	14698.56
405.66	14679.84
405.85	14218.75
406.05	13631.28
406.24	13762.35
406.43	14537.07
406.62	15066.03
406.81	14965.39
407.00	14890.49
407.20	14354.51
407.39	14534.73
407.58	15183.06
407.77	15396.04
407.96	16189.49
408.15	16414.18
408.34	16327.58
408.54	17048.46
408.73	17174.85
408.92	17018.04
409.11	16898.67
409.30	15927.35
409.49	14630.69
409.68	13563.40
409.87	13338.71
410.07	14260.88
410.26	15391.36
410.45	16615.46
410.64	16524.18
410.83	17369.12
411.02	17568.06
411.21	18244.48
411.40	18160.22
411.59	18277.24
411.78	18277.24
411.98	17872.33
412.17	18265.54
412.36	17832.54
412.55	18178.94
412.74	17518.91
412.93	16919.73
413.12	17202.94
413.31	18876.42
413.50	18958.34
413.69	19321.12
413.88	18948.98
414.07	18022.12
414.26	18422.36
414.45	18923.23
414.64	19197.07
414.83	19180.69
415.02	18738.33
415.22	18696.20
415.41	19183.03
415.60	19646.46
415.79	20594.37
415.98	20704.38
416.17	21294.19
416.36	20318.19
416.55	20233.93
416.74	19473.26
416.93	19016.85
417.12	18923.23
417.31	19164.31
417.50	19339.85
417.69	20285.42
417.88	20121.59
418.07	19711.99
418.26	19597.31
418.45	19658.16
418.64	20528.84
418.83	21032.05
419.02	20994.61
419.21	20734.81
419.39	19892.21
419.58	18747.69
419.77	18878.76
419.96	19922.64
420.15	20858.85
420.34	21308.24
420.53	22160.19
420.72	22581.49
420.91	22427.01
421.10	21820.81
421.29	22073.59
421.48	21130.36
421.67	22277.22
421.86	21766.98
422.05	20233.93
422.24	18204.69
422.43	17734.24
422.61	19641.78
422.80	21425.26
422.99	21848.90
423.18	20849.49
423.37	20276.06
423.56	20418.83
423.75	20587.35
423.94	21034.39
424.13	19695.61
424.32	20058.39
424.50	20287.76
424.69	19786.89
424.88	19917.96
425.07	20074.77
425.26	19901.58
425.45	19826.68
425.64	19360.91
425.83	19213.46
426.01	20603.74
426.20	20652.89
426.39	20631.82
426.58	19026.21
426.77	17980.00
426.96	17242.73
427.15	17879.35
427.33	19496.66
427.52	19953.07
427.71	20255.00
427.90	20217.55
428.09	20039.67
428.28	19321.12
428.46	18789.82
428.65	18420.02
428.84	18923.23
429.03	19124.52
429.22	18342.78
429.40	17188.89
429.59	15758.83
429.78	13996.40
429.97	13982.36
430.16	13839.59
430.34	14270.25
430.53	14214.07
430.72	14530.05
430.91	16084.16
431.10	19016.85
431.28	22171.89
431.47	24013.90
431.66	24233.91
431.85	21813.79
432.03	20175.42
432.22	19145.58
432.41	20276.06
432.60	22384.88
432.79	23283.65
432.97	23833.68
433.16	23384.29
433.35	21298.88
433.54	19215.80
433.72	18031.49
433.91	18654.07
434.10	20531.18
434.28	22171.89
434.47	23103.43
434.66	22965.34
434.85	22455.10
435.03	22246.79
435.22	22738.30
435.41	24353.27
435.59	23821.97
435.78	24458.60
435.97	24975.86
436.16	25298.85
436.34	25153.74
436.53	24304.12
436.72	24643.50
436.90	22934.91
437.09	23587.92
437.28	22747.67
437.46	23063.64
437.65	23681.54
437.84	22029.12
438.02	20074.77
438.21	20147.33
438.40	20978.22
438.58	22747.67
438.77	23262.58
438.96	23576.22
439.14	24531.15
439.33	25092.88
439.52	25755.26
439.70	24641.16
439.89	24638.82
440.08	23798.57
440.26	23924.96
440.45	24835.42
440.63	26216.34
440.82	27658.11
441.01	27356.18
441.19	27000.42
441.38	27447.46
441.57	28257.29
441.75	28741.78
441.94	29125.63
442.12	28613.05
442.31	29963.54
442.50	29076.48
442.68	28760.50
442.87	28261.97
443.05	28004.51
443.24	28851.78
443.43	29041.37
443.61	29537.56
443.80	29797.36
443.98	28369.63
444.17	28247.93
444.35	30068.86
444.54	30527.61
444.73	30204.61
444.91	28718.37
445.10	27543.42
445.28	26958.29
445.47	26103.99
445.65	26223.36
445.84	27021.48
446.02	27946.00
446.21	28732.42
446.39	28514.75
446.58	29104.56
446.77	29387.77
446.95	29476.71
447.14	29970.56
447.32	30962.95
447.51	30455.05
447.69	29034.35
447.88	28914.98
448.06	28552.20
448.25	29858.21
448.43	30202.27
448.62	29165.42
448.80	29254.36
448.99	29249.67
449.17	29685.01
449.36	29589.05
449.54	31108.06
449.73	31199.34
449.91	31854.69
450.10	32444.51
450.28	33046.02
450.46	32952.40
450.65	32989.85
450.83	32147.26
451.02	31534.04
451.20	31641.70
451.39	31679.15
451.57	31468.50
451.76	31861.71
451.94	31243.81
452.13	30607.19
452.31	29462.66
452.49	27960.04
452.68	28280.69
452.86	28428.15
453.05	28716.03
453.23	29633.52
453.42	30422.28
453.60	30874.01
453.78	31056.57
453.97	30775.70
454.15	31147.85
454.34	30218.66
454.52	30586.12
454.70	29862.90
454.89	29844.17
455.07	30045.46
455.26	30771.02
455.44	31709.58
455.62	32645.79
455.81	32531.11
455.99	32570.90
456.17	32208.11
456.36	32144.92
456.54	33404.13
456.73	33113.90
456.91	33387.74
457.09	33717.76
457.28	34005.64
457.46	33242.63
457.64	32526.42
457.83	31496.59
458.01	30899.75
458.19	32156.62
458.38	32128.53
458.56	32938.36
458.74	33266.03
458.93	32376.63
459.11	31955.33
459.29	31931.93
459.48	32135.56
459.66	32247.90
459.84	32458.55
460.03	32926.66
460.21	32788.56
460.39	33738.82
460.57	33837.12
460.76	34010.32
460.94	34293.53
461.12	33542.22
461.31	33790.31
461.49	33710.74
461.67	33734.14
461.85	34906.75
462.04	34396.51
462.22	35005.05
462.40	34771.00
462.59	34487.79
462.77	34775.68
462.95	34532.26
463.13	34288.85
463.32	33874.57
463.50	33560.94
463.68	33549.24
463.86	33834.78
464.05	33223.90
464.23	32545.15
464.41	32388.33
464.59	32226.84
464.78	33472.00
464.96	33383.06
465.14	32533.45
465.32	33675.63
465.50	34686.74
465.69	34962.92
465.87	34024.37
466.05	33097.52
466.23	32189.39
466.41	30906.77
466.60	32114.49
466.78	32128.53
466.96	32725.37
467.14	33130.28
467.32	33694.35
467.51	33724.78
467.69	32156.62
467.87	33036.66
468.05	33067.09
468.23	33352.63
468.41	33216.88
468.60	33500.09
468.78	33820.74
468.96	33343.27
469.14	33926.07
469.32	34099.26
469.50	32231.52
469.69	32921.98
469.87	32540.47
470.05	32308.76
470.23	31952.99
470.41	32865.80
470.59	32423.44
470.77	33092.83
470.95	34050.11
471.14	33968.19
471.32	34155.44
471.50	36062.97
471.68	36175.32
471.86	36268.94
472.04	36610.66
472.22	36847.05
472.40	34782.70
472.58	34773.34
472.77	34338.00
472.95	34892.71
473.13	36601.30
473.31	35005.05
473.49	35255.49
473.67	36247.88
473.85	36041.91
474.03	37036.64
474.21	37123.24
474.39	37380.70
474.57	37715.39
474.75	37446.23
474.93	37551.56
475.12	36313.41
475.30	36411.71
475.48	36966.42
475.66	37242.60
475.84	36701.94
476.02	36652.79
476.20	35646.36
476.38	36556.83
476.56	37916.68
476.74	38302.87
476.92	38211.59
477.10	39091.63
477.28	40189.34
477.46	40397.65
477.64	40664.47
477.82	40608.29
478.00	40687.87
478.18	40669.15
478.36	39784.43
478.54	39861.66
478.72	39899.11
478.90	41345.56
479.08	42614.13
479.26	42951.17
479.44	42363.70
479.62	42068.79
479.80	42141.35
479.98	42581.37
480.16	42859.89
480.34	42363.70
480.52	42869.25
480.70	43021.39
480.88	43068.20
481.06	44025.48
481.24	44318.04
481.41	44980.42
481.59	45949.40
481.77	45233.19
481.95	44722.96
482.13	44289.96
482.31	44306.34
482.49	45289.37
482.67	45031.91
482.85	45008.50
483.03	45869.82
483.21	46932.42
483.39	46735.82
483.57	45511.72
483.74	45457.88
483.92	45460.23
484.10	45680.24
484.28	46625.81
484.46	46719.43
484.64	47824.17
484.82	46635.17
485.00	46064.08
485.18	45450.86
485.35	44376.56
485.53	41406.42
485.71	37230.90
485.89	36861.10
486.07	38567.35
486.25	42134.32
486.43	44339.11
486.61	45067.02
486.78	45392.35
486.96	45064.67
487.14	46962.85
487.32	48088.65
487.50	48671.44
487.68	49478.92
487.85	50167.04
488.03	50349.60
488.21	49518.71
488.39	48863.36
488.57	48086.31
488.75	47903.74
488.92	49310.41
489.10	51573.70
489.28	52858.66
489.46	53310.38
489.64	53221.44
489.81	53584.22
489.99	52949.94
490.17	53188.67
490.35	53731.68
490.53	53071.65
490.70	52891.43
490.88	52519.28
491.06	53694.23
491.24	53308.04
491.41	52523.96
491.59	50876.22
491.77	49977.46
491.95	51220.28
492.13	52296.93
492.30	53579.54
492.48	54440.86
492.66	54691.30
492.84	54901.95
493.01	54443.20
493.19	54199.79
493.37	53750.40
493.54	53535.07
493.72	54064.03
493.90	54944.08
494.08	55861.57
494.25	55931.78
494.43	56210.31
494.61	56786.08
494.79	56863.32
494.96	56605.86
495.14	55910.72
495.32	54976.84
495.49	54267.66
495.67	55503.46
495.85	56640.96
496.02	57172.27
496.20	57073.96
496.38	56390.53
496.55	56273.50
496.73	56956.94
496.91	57174.61
497.09	57464.83
497.26	57598.24
497.44	57265.89
497.62	56842.25
497.79	56123.71
497.97	54770.88
498.14	54829.39
498.32	56055.83
498.50	57045.88
498.67	57539.73
498.85	57322.06
499.03	57628.67
499.20	57439.09
499.38	57839.32
499.56	57574.84
499.73	56914.81
499.91	56678.41
500.08	56423.29
500.26	55671.98
500.44	55856.88
500.61	56802.46
500.79	56500.53
500.97	55971.57
501.14	55760.92
501.32	55739.86
501.49	55817.10
501.67	56100.30
501.84	56594.15
502.02	56839.91
502.20	57272.91
502.37	57193.33
502.55	57303.34
502.72	57916.56
502.90	58363.60
503.07	58117.84
503.25	57745.70
503.43	56750.97
503.60	56334.35
503.78	55597.09
503.95	56142.43
504.13	57305.68
504.30	58110.82
504.48	57893.15
504.65	57616.97
504.83	57389.94
505.01	58232.53
505.18	58642.12
505.36	59093.85
505.53	59245.98
505.71	59231.94
505.88	59388.75
506.06	59063.42
506.23	58522.76
506.41	58040.60
506.58	58387.00
506.76	58251.25
506.93	58319.13
507.11	57918.90
507.28	58080.39
507.46	57780.81
507.63	57382.91
507.81	57095.03
507.98	57427.38
508.16	58117.84
508.33	58424.45
508.50	58782.55
508.68	58859.79
508.85	59297.47
509.03	59583.02
509.20	59281.09
509.38	58702.98
509.55	58003.16
509.73	57848.68
509.90	58314.45
510.08	58742.77
510.25	58670.21
510.42	58646.80
510.60	58487.65
510.77	58803.62
510.95	59576.00
511.12	59360.67
511.30	59777.28
511.47	59817.07
511.64	59826.43
511.82	59505.78
511.99	58686.59
512.17	58415.09
512.34	57970.39
512.51	57930.60
512.69	58241.89
512.86	58534.46
513.04	58724.04
513.21	58681.91
513.38	58527.44
513.56	57956.35
513.73	57780.81
513.90	57715.27
514.08	57731.65
514.25	58110.82
514.43	58216.14
514.60	58361.26
514.77	58489.99
514.95	58625.74
515.12	58555.52
515.29	58623.40
515.47	59065.76
515.64	59140.66
515.81	58953.41
515.99	58417.43
516.16	57062.26
516.33	55002.59
516.51	53703.59
516.68	52729.93
516.85	52280.55
517.03	52325.02
517.20	55278.77
517.37	57649.74
517.54	58576.59
517.72	58202.10
517.89	55753.90
518.06	53219.10
518.24	53689.55
518.41	55875.61
518.58	57282.27
518.75	57298.65
518.93	57822.93
519.10	57385.25
519.27	57848.68
519.45	58117.84
519.62	58838.73
519.79	58920.65
519.96	59021.29
520.14	58298.06
520.31	57556.11
520.48	57799.53
520.65	58082.73
520.83	59082.14
521.00	59126.61
521.17	58962.78
521.34	58534.46
521.52	59021.29
521.69	59264.70
521.86	59774.94
522.03	59566.63
522.20	58398.71
522.38	57251.84
522.55	57403.98
522.72	58017.20
522.89	57963.37
523.07	58305.09
523.24	58667.87
523.41	59444.93
523.58	59571.32
523.75	59901.33
523.92	59999.63
524.10	59889.63
524.27	59959.84
524.44	59728.13
524.61	59590.04
524.78	59402.80
524.96	59267.05
525.13	59311.52
525.30	59501.10
525.47	59852.18
525.64	59791.33
525.81	59175.76
525.98	57825.28
526.16	56135.41
526.33	55772.63
526.50	55606.45
526.67	55309.20
526.84	55735.18
527.01	56863.32
527.18	57621.65
527.36	58286.36
527.53	59187.47
527.70	59482.37
527.87	58899.58
528.04	58267.64
528.21	58922.99
528.38	59620.47
528.55	60140.07
528.72	60432.63
528.89	60678.39
529.07	60200.92
529.24	59557.27
529.41	59175.76
529.58	58309.77
529.75	58506.37
529.92	59002.56
530.09	59180.45
530.26	59964.52
530.43	60076.87
530.60	59985.59
530.77	60177.51
530.94	60493.49
531.11	60060.49
531.28	59580.68
531.46	59508.12
531.63	59597.06
531.80	59257.68
531.97	59245.98
532.14	58410.41
532.31	57579.52
532.48	56830.55
532.65	56704.16
532.82	57572.50
532.99	58583.61
533.16	59011.93
533.33	59433.22
533.50	59283.43
533.67	58805.96
533.84	58539.14
534.01	58604.67
534.18	58871.49
534.35	59042.35
534.52	58672.55
534.69	59051.72
534.86	59370.03
535.03	59643.87
535.20	59980.91
535.37	60257.09
535.54	60229.01
535.71	60154.11
535.88	60009.00
536.05	59096.19
536.22	58665.53
536.38	58377.64
536.55	58082.73
536.72	57567.82
536.89	57392.28
537.06	58461.90
537.23	59248.32
537.40	59346.62
537.57	59278.75
537.74	59171.08
537.91	59021.29
538.08	59016.61
538.25	59065.76
538.42	59302.15
538.59	59040.01
538.75	58279.34
538.92	58384.66
539.09	58340.19
539.26	57949.32
539.43	57935.28
539.60	57799.53
539.77	58040.60
539.94	57736.34
540.11	57109.07
540.28	56683.09
540.44	56608.20
540.61	56928.85
540.78	57080.98
540.95	57722.29
541.12	58134.23
541.29	58258.27
541.46	58635.10
541.62	58604.67
541.79	58504.03
541.96	57829.96
542.13	57799.53
542.30	58094.44
542.47	58284.02
542.63	58024.22
542.80	57815.91
542.97	58045.29
543.14	57970.39
543.31	57722.29
543.48	58267.64
543.64	59114.91
543.81	59318.54
543.98	59147.68
544.15	58394.03
544.32	58080.39
544.48	57972.73
544.65	58426.79
544.82	58862.13
544.99	58520.41
545.16	58218.49
545.32	58019.54
545.49	58695.95
545.66	59068.10
545.83	58770.85
546.00	58426.79
546.16	58073.37
546.33	58005.50
546.50	58277.00
546.67	58717.02
546.83	58134.23
547.00	58049.97
547.17	57485.90
547.34	57038.86
547.50	56987.36
547.67	57628.67
547.84	57413.34
548.00	57757.40
548.17	58188.06
548.34	57862.72
548.51	58178.70
548.67	58155.29
548.84	58291.04
549.01	58024.22
549.18	58068.69
549.34	57991.45
549.51	57954.00
549.68	57860.38
549.84	57792.51
550.01	57722.29
550.18	57352.49
550.34	57462.49
550.51	57612.29
550.68	57808.89
550.84	57443.77
551.01	57401.64
551.18	57481.22
551.34	57544.41
551.51	57977.41
551.68	58230.19
551.84	58265.30
552.01	57797.19
552.18	57888.47
552.34	56924.17
552.51	56685.43
552.68	56442.02
552.84	57083.33
553.01	57425.04
553.18	57242.48
553.34	57406.32
553.51	57581.86
553.67	57684.84
553.84	58014.86
554.01	57705.91
554.17	57525.69
554.34	57719.95
554.51	57790.17
554.67	58078.05
554.84	57930.60
555.00	57403.98
555.17	57291.63
555.33	57113.75
555.50	57249.50
555.67	57399.30
555.83	57059.92
556.00	56776.72
556.16	56851.61
556.33	56233.71
556.50	56364.78
556.66	56465.42
556.83	56018.38
556.99	56135.41
557.16	56207.97
557.32	56465.42
557.49	57015.45
557.65	56947.57
557.82	56774.37
557.98	56657.35
558.15	55924.76
558.32	55253.03
558.48	54497.03
558.65	54834.07
558.81	54937.05
558.98	55292.82
559.14	55531.55
559.31	55625.17
559.47	55908.38
559.64	55451.97
559.80	55037.70
559.97	55033.02
560.13	55470.70
560.30	56680.75
560.46	56933.53
560.63	57078.64
560.79	57141.84
560.96	56638.62
561.12	55660.28
561.29	54712.36
561.45	55084.51
561.61	55494.10
561.78	55842.84
561.94	55634.53
562.11	55585.38
562.27	55346.65
562.44	55896.67
562.60	56196.26
562.77	56374.14
562.93	55962.21
563.10	55805.39
563.26	55402.82
563.42	55487.08
563.59	55414.52
563.75	55339.63
563.92	55444.95
564.08	55281.11
564.24	55648.58
564.41	55765.60
564.57	55561.98
564.74	55503.46
564.90	55433.25
565.07	55246.00
565.23	54632.78
565.39	54000.84
565.56	53942.33
565.72	53811.26
565.88	54312.13
566.05	54033.61
566.21	54422.14
566.38	54869.18
566.54	54562.57
566.70	54859.82
566.87	55554.96
567.03	55524.53
567.19	55683.69
567.36	55037.70
567.52	55339.63
567.68	54553.21
567.85	54244.26
568.01	53572.52
568.17	53506.99
568.34	53528.05
568.50	53340.81
568.66	53373.58
568.83	53832.32
568.99	54073.40
569.15	54450.22
569.32	54071.06
569.48	53881.47
569.64	53822.96
569.81	53593.59
569.97	53261.23
570.13	53031.86
570.30	52662.05
570.46	52463.11
570.62	51770.31
570.78	51608.81
570.95	51943.51
571.11	52725.25
571.27	53127.82
571.43	53277.61
571.60	53439.11
571.76	53769.13
571.92	53717.64
572.09	54014.88
572.25	53773.81
572.41	53989.14
572.57	53813.60
572.74	53745.72
572.90	53286.98
573.06	53436.77
573.22	53338.47
573.38	53312.72
573.55	53207.40
573.71	53815.94
573.87	53530.39
574.03	53261.23
574.20	53357.19
574.36	52928.87
574.52	52776.74
574.68	52580.13
574.84	52203.31
575.01	51866.27
575.17	51824.14
575.33	52135.43
575.49	52299.27
575.65	52378.85
575.82	52097.98
575.98	51765.63
576.14	52006.70
576.30	52254.80
576.46	52488.85
576.62	52563.75
576.79	52353.10
576.95	52172.88
577.11	52076.92
577.27	52100.32
577.43	52133.09
577.59	51985.64
577.75	51278.80
577.92	50630.47
578.08	50894.95
578.24	50843.46
578.40	50997.93
578.56	51194.54
578.72	51503.49
578.88	51519.87
579.04	51601.79
579.21	51688.39
579.37	51770.31
579.53	51789.03
579.69	51742.22
579.85	52378.85
580.01	51629.88
580.17	51604.13
580.33	51231.99
580.49	51210.92
580.65	51756.27
580.82	51737.54
580.98	51735.20
581.14	51690.73
581.30	51562.00
581.46	51508.17
581.62	51938.83
581.78	51744.56
581.94	52158.84
582.10	52114.37
582.26	52083.94
582.42	51772.65
582.58	52109.69
582.74	52041.81
582.90	52065.22
583.06	51760.95
583.22	51615.83
583.38	51489.45
583.54	51487.10
583.70	51700.09
583.86	51653.28
584.02	51306.88
584.18	51187.52
584.34	51498.81
584.50	51344.33
584.66	51129.00
584.82	50543.87
584.98	50871.54
585.14	50440.89
585.30	49759.79
