SpectraSuite Data File
++++++++++++++++++++++++++++++++++++
Date: Mon Oct 07 14:53:17 GMT-05:00 2013
User: price-jones
Dark Spectrum Present: No
Reference Spectrum Present: No
Number of Sampled Component Spectra: 1
Spectrometers: USB2+H05261
Integration Time (usec): 100000 (USB2+H05261)
Spectra Averaged: 1 (USB2+H05261)
Boxcar Smoothing: 0 (USB2+H05261)
Correct for Electrical Dark: No (USB2+H05261)
Strobe/Lamp Enabled: No (USB2+H05261)
Correct for Detector Non-linearity: No (USB2+H05261)
Correct for Stray Light: No (USB2+H05261)
Number of Pixels in Processed Spectrum: 2048
>>>>>Begin Processed Spectral Data<<<<<
365.73	0.00
365.92	0.00
366.12	0.00
366.32	0.00
366.52	0.00
366.72	0.00
366.91	0.00
367.11	0.00
367.31	0.00
367.51	0.00
367.70	0.00
367.90	0.00
368.10	0.00
368.30	0.00
368.49	0.00
368.69	0.00
368.89	0.00
369.09	0.00
369.28	0.00
369.48	0.00
369.68	0.00
369.87	0.00
370.07	0.00
370.27	0.00
370.47	1736.68
370.66	7215.87
370.86	8138.04
371.06	8922.12
371.25	8779.35
371.45	7978.89
371.65	7468.65
371.84	6803.94
372.04	7424.18
372.24	8154.43
372.44	8414.23
372.63	7894.63
372.83	7360.98
373.03	6857.77
373.22	6317.11
373.42	6544.14
373.62	7466.31
373.81	8067.83
374.01	7779.94
374.21	7215.87
374.40	6897.56
374.60	7122.25
374.79	8196.56
374.99	9525.98
375.19	9774.08
375.38	9769.40
375.58	9296.61
375.78	9153.84
375.97	9156.18
376.17	9444.06
376.37	9591.52
376.56	10129.84
376.76	10487.94
376.95	11096.48
377.15	11946.09
377.35	12205.89
377.54	12643.57
377.74	12772.30
377.93	12802.73
378.13	12573.36
378.33	11887.58
378.52	10829.66
378.72	10462.19
378.91	10303.04
379.11	10076.01
379.31	9687.48
379.50	10033.88
379.70	10794.55
379.89	11913.33
380.09	12465.69
380.28	12821.45
380.48	12690.38
380.68	12369.73
380.87	11763.53
381.07	11040.31
381.26	10153.24
381.46	9589.17
381.65	9240.44
381.85	8891.70
382.04	8587.43
382.24	7850.16
382.43	7756.54
382.63	7426.52
382.83	7672.28
383.02	7421.84
383.22	7435.88
383.41	7786.96
383.61	8236.35
383.80	9572.79
384.00	10654.12
384.19	11569.27
384.39	12292.49
384.58	12156.74
384.78	11957.80
384.97	11992.90
385.17	11023.92
385.36	10298.36
385.56	10242.18
385.75	10757.10
385.95	11623.10
386.14	12507.82
386.34	12292.49
386.53	11857.15
386.72	11272.02
386.92	11503.73
387.11	11826.73
387.31	12528.89
387.50	12383.77
387.70	11985.88
387.89	11669.91
388.09	11557.57
388.28	11925.03
388.48	12081.85
388.67	13081.25
388.86	14272.59
389.06	15218.16
389.25	16152.04
389.45	16102.89
389.64	15932.03
389.84	15791.59
390.03	15569.24
390.22	15566.90
390.42	15988.20
390.61	16989.95
390.81	18092.34
391.00	18291.29
391.19	18288.95
391.39	17600.83
391.58	16486.73
391.78	15779.89
391.97	15222.84
392.16	13872.36
392.36	12442.29
392.55	9827.91
392.75	8053.78
392.94	6707.98
393.13	6836.70
393.33	8341.67
393.52	10356.87
393.71	12568.68
393.91	14207.05
394.10	15044.96
394.29	16823.77
394.49	18071.28
394.68	19152.60
394.88	19297.72
395.07	19915.62
395.26	19845.40
395.46	19080.05
395.65	17570.40
395.84	15318.81
396.04	12856.56
396.23	10394.32
396.42	9076.60
396.62	8985.32
396.81	10548.79
397.00	13198.28
397.19	16652.91
397.39	19990.52
397.58	21638.25
397.77	23108.11
397.97	24070.07
398.16	24254.97
398.35	25025.01
398.55	25781.00
398.74	26867.01
398.93	27108.08
399.12	26483.16
399.32	25778.66
399.51	26546.36
399.70	27718.96
399.90	27456.82
400.09	27447.46
400.28	27297.67
400.47	27978.76
400.67	28950.09
400.86	29680.33
401.05	29378.40
401.24	29560.97
401.44	30101.63
401.63	30375.47
401.82	30473.78
402.01	30871.67
402.21	30979.33
402.40	30501.86
402.59	29589.05
402.78	28320.48
402.97	27953.02
403.17	29106.90
403.36	30658.68
403.55	31683.83
403.74	31812.56
403.93	30817.83
404.13	28166.01
404.32	27941.32
404.51	29142.01
404.70	30920.82
404.89	30834.22
405.09	30452.71
405.28	29867.58
405.47	29968.22
405.66	29640.54
405.85	28950.09
406.05	28077.07
406.24	29022.64
406.43	29890.98
406.62	30881.03
406.81	30944.22
407.00	29991.62
407.20	29214.57
407.39	29425.22
407.58	30895.07
407.77	31810.22
407.96	32947.72
408.15	33090.49
408.34	32978.15
408.54	34307.57
408.73	34618.86
408.92	33893.30
409.11	33205.18
409.30	31618.30
409.49	29851.19
409.68	27871.10
409.87	27578.53
410.07	29619.48
410.26	31613.62
410.45	33474.34
410.64	34763.98
410.83	35398.26
411.02	36392.99
411.21	36760.45
411.40	36622.36
411.59	36687.90
411.78	36854.08
411.98	35962.33
412.17	36835.35
412.36	36093.40
412.55	35931.90
412.74	35297.62
412.93	34396.51
413.12	35241.45
413.31	37993.92
413.50	38469.04
413.69	38724.16
413.88	37659.22
414.07	36481.93
414.26	37134.94
414.45	38653.95
414.64	38242.01
414.83	38698.42
415.02	37844.12
415.22	37626.45
415.41	38316.91
415.60	40039.54
415.79	41141.94
415.98	41710.69
416.17	41944.74
416.36	41179.39
416.55	40287.64
416.74	39084.61
416.93	37776.25
417.12	38059.45
417.31	38401.17
417.50	39288.23
417.69	40175.30
417.88	39929.54
418.07	39552.71
418.26	39278.87
418.45	39229.72
418.64	40968.74
418.83	42033.68
419.02	41478.97
419.21	41397.06
419.39	39426.32
419.58	37778.59
419.77	38279.46
419.96	40144.87
420.15	41610.04
420.34	42438.59
420.53	44004.41
420.72	44102.71
420.91	44259.53
421.10	43585.46
421.29	43543.33
421.48	42417.53
421.67	43562.05
421.86	42417.53
422.05	39290.57
422.24	35915.52
422.43	35957.65
422.61	40098.06
422.80	42436.25
422.99	42630.52
423.18	40655.11
423.37	40034.86
423.56	40430.41
423.75	40823.62
423.94	42300.50
424.13	39529.31
424.32	40114.44
424.50	39990.39
424.69	39559.73
424.88	39969.33
425.07	39456.75
425.26	39297.59
425.45	38983.96
425.64	38506.49
425.83	38726.50
426.01	40898.52
426.20	41663.88
426.39	41280.03
426.58	38185.84
426.77	36133.19
426.96	34478.43
427.15	35864.03
427.33	38595.43
427.52	39990.39
427.71	39859.32
427.90	39625.27
428.09	39393.56
428.28	38490.11
428.46	36788.54
428.65	36919.61
428.84	37846.46
429.03	37844.12
429.22	35264.85
429.40	33369.02
429.59	30567.40
429.78	27475.55
429.97	27433.42
430.16	27873.44
430.34	28133.24
430.53	28126.22
430.72	28996.90
430.91	32734.73
431.10	37951.79
431.28	43667.37
431.47	46239.62
431.66	46534.53
431.85	42295.82
432.03	39491.86
432.22	38363.72
432.41	39812.51
432.60	43730.57
432.79	45045.95
432.97	46080.47
433.16	44315.70
433.35	40767.45
433.54	37256.65
433.72	35967.01
433.91	37263.67
434.10	41270.67
434.28	43576.09
434.47	45453.20
434.66	44044.20
434.85	43842.92
435.03	43852.28
435.22	45081.06
435.41	46876.25
435.59	46939.44
435.78	47201.58
435.97	48509.94
436.16	48322.70
436.34	47704.80
436.53	47009.66
436.72	46883.27
436.90	45010.84
437.09	45294.05
437.28	43952.92
437.46	45481.29
437.65	45207.45
437.84	42241.99
438.02	39690.80
438.21	39346.75
438.40	41727.07
438.58	44584.86
438.77	45551.51
438.96	46213.88
439.14	47878.00
439.33	48601.22
439.52	48992.09
439.70	48020.77
439.89	46742.84
440.08	46375.37
440.26	45752.79
440.45	47547.98
440.63	49879.16
440.82	51435.61
441.01	50827.07
441.19	50569.61
441.38	51559.66
441.57	52500.56
441.75	52612.90
441.94	52975.69
442.12	52875.04
442.31	53132.50
442.50	53099.73
442.68	52678.44
442.87	52317.99
443.05	51566.68
443.24	52870.36
443.43	53441.45
443.61	53516.35
443.80	53832.32
443.98	52215.01
444.17	52154.16
444.35	53876.79
444.54	54520.44
444.73	54078.08
444.91	52430.34
445.10	51124.32
445.28	50188.11
445.47	49521.05
445.65	50248.96
445.84	50955.80
446.02	51920.10
446.21	52268.84
446.39	52449.06
446.58	53059.94
446.77	53181.65
446.95	54040.63
447.14	54298.09
447.32	54712.36
447.51	54199.79
447.69	53069.31
447.88	52662.05
448.06	53242.51
448.25	53624.01
448.43	53818.28
448.62	53544.44
448.80	52971.00
448.99	53268.25
449.17	53717.64
449.36	53453.15
449.54	54710.02
449.73	55302.18
449.91	55428.57
450.10	56430.32
450.28	56608.20
450.46	56404.57
450.65	56177.54
450.83	56016.04
451.02	55566.66
451.20	55433.25
451.39	55337.29
451.57	55512.83
451.76	55409.84
451.94	54787.26
452.13	54272.34
452.31	53092.71
452.49	51487.10
452.68	52439.70
452.86	52161.18
453.05	52779.08
453.23	53883.81
453.42	54461.93
453.60	54707.68
453.78	55056.42
453.97	54829.39
454.15	55192.17
454.34	54351.92
454.52	54866.84
454.70	53935.30
454.89	54209.15
455.07	54131.91
455.26	54632.78
455.44	55569.00
455.62	55985.61
455.81	56250.09
455.99	55936.46
456.17	55789.01
456.36	55849.86
456.54	56516.92
456.73	56657.35
456.91	57050.56
457.09	57235.46
457.28	57654.42
457.46	56402.23
457.64	56357.76
457.83	55515.17
458.01	54969.82
458.19	55690.71
458.38	55910.72
458.56	56563.73
458.74	56458.40
458.93	56093.28
459.11	56065.19
459.29	55819.44
459.48	56037.11
459.66	55973.91
459.84	56142.43
460.03	56343.72
460.21	56449.04
460.39	57073.96
460.57	56877.36
460.76	57418.02
460.94	57392.28
461.12	56729.90
461.31	57258.87
461.49	57195.67
461.67	57223.76
461.85	57925.92
462.04	57652.08
462.22	57766.76
462.40	57797.19
462.59	57771.44
462.77	57549.09
462.95	57752.72
463.13	57010.77
463.32	56835.23
463.50	56797.78
463.68	57050.56
463.86	57202.69
464.05	56772.03
464.23	56081.58
464.41	56086.26
464.59	55622.83
464.78	56968.64
464.96	56924.17
465.14	56694.80
465.32	57338.44
465.50	57930.60
465.69	58248.91
465.87	57612.29
466.05	56945.23
466.23	55477.72
466.41	55461.33
466.60	55714.11
466.78	55786.67
466.96	56280.52
467.14	56659.69
467.32	57226.10
467.51	57207.37
467.69	55880.29
467.87	56030.08
468.05	56875.02
468.23	56669.05
468.41	56664.37
468.60	56912.47
468.78	56931.19
468.96	56940.55
469.14	57453.13
469.32	57497.60
469.50	56189.24
469.69	56486.49
469.87	55931.78
470.05	55805.39
470.23	55875.61
470.41	55948.17
470.59	56219.67
470.77	56456.06
470.95	56914.81
471.14	57258.87
471.32	57406.32
471.50	58915.96
471.68	58775.53
471.86	59255.34
472.04	59143.00
472.22	59245.98
472.40	57839.32
472.58	57904.85
472.77	57301.00
472.95	57832.30
473.13	58679.57
473.31	58220.83
473.49	58220.83
473.67	58733.40
473.85	58670.21
474.03	59398.12
474.21	59435.56
474.39	59477.69
474.57	59840.48
474.75	59725.79
474.93	59597.06
475.12	58925.33
475.30	59049.38
475.48	59105.55
475.66	59409.82
475.84	59047.04
476.02	59215.55
476.20	58459.56
476.38	59339.60
476.56	60006.65
476.74	60161.13
476.92	60142.41
477.10	60779.03
477.28	61408.64
477.46	61347.78
477.64	61656.73
477.82	61600.56
478.00	61588.86
478.18	61034.15
478.36	61268.20
478.54	61345.44
478.72	61605.24
478.90	61972.70
479.08	62707.63
479.26	62993.18
479.44	62717.00
479.62	62588.27
479.80	62543.80
479.98	62763.81
480.16	62787.21
480.34	62663.16
480.52	62733.38
480.70	63072.76
480.88	63267.02
481.06	63571.29
481.24	63676.61
481.41	64161.11
481.59	64692.41
481.77	64299.20
481.95	63800.66
482.13	63955.14
482.31	63957.48
482.49	64495.80
482.67	64357.71
482.85	64736.88
483.03	65071.57
483.21	65085.62
483.39	65057.53
483.57	64376.43
483.74	64247.71
483.92	64793.05
484.10	64725.17
484.28	65364.14
484.46	65535.00
484.64	65535.00
484.82	65256.48
485.00	64980.29
485.18	64397.50
485.35	63627.46
485.53	61785.46
485.71	59433.22
485.89	59458.97
486.07	60926.49
486.25	62908.92
486.43	64074.51
486.61	64250.05
486.78	64409.20
486.96	64376.43
487.14	65123.07
487.32	65535.00
487.50	65535.00
487.68	65535.00
487.85	65535.00
488.03	65535.00
488.21	65535.00
488.39	65535.00
488.57	65535.00
488.75	65535.00
488.92	65535.00
489.10	65535.00
489.28	65535.00
489.46	65535.00
489.64	65535.00
489.81	65535.00
489.99	65535.00
490.17	65535.00
490.35	65535.00
490.53	65535.00
490.70	65535.00
490.88	65535.00
491.06	65535.00
491.24	65535.00
491.41	65535.00
491.59	65535.00
491.77	65535.00
491.95	65535.00
492.13	65535.00
492.30	65535.00
492.48	65535.00
492.66	65535.00
492.84	65535.00
493.01	65535.00
493.19	65535.00
493.37	65535.00
493.54	65535.00
493.72	65535.00
493.90	65535.00
494.08	65535.00
494.25	65535.00
494.43	65535.00
494.61	65535.00
494.79	65535.00
494.96	65535.00
495.14	65535.00
495.32	65535.00
495.49	65535.00
495.67	65535.00
495.85	65535.00
496.02	65535.00
496.20	65535.00
496.38	65535.00
496.55	65535.00
496.73	65535.00
496.91	65535.00
497.09	65535.00
497.26	65535.00
497.44	65535.00
497.62	65535.00
497.79	65535.00
497.97	65535.00
498.14	65535.00
498.32	65535.00
498.50	65535.00
498.67	65535.00
498.85	65535.00
499.03	65535.00
499.20	65535.00
499.38	65535.00
499.56	65535.00
499.73	65535.00
499.91	65535.00
500.08	65535.00
500.26	65535.00
500.44	65535.00
500.61	65535.00
500.79	65535.00
500.97	65535.00
501.14	65535.00
501.32	65535.00
501.49	65535.00
501.67	65535.00
501.84	65535.00
502.02	65535.00
502.20	65535.00
502.37	65535.00
502.55	65535.00
502.72	65535.00
502.90	65535.00
503.07	65535.00
503.25	65535.00
503.43	65535.00
503.60	65535.00
503.78	65535.00
503.95	65535.00
504.13	65535.00
504.30	65535.00
504.48	65535.00
504.65	65535.00
504.83	65535.00
505.01	65535.00
505.18	65535.00
505.36	65535.00
505.53	65535.00
505.71	65535.00
505.88	65535.00
506.06	65535.00
506.23	65535.00
506.41	65535.00
506.58	65535.00
506.76	65535.00
506.93	65535.00
507.11	65535.00
507.28	65535.00
507.46	65535.00
507.63	65535.00
507.81	65535.00
507.98	65535.00
508.16	65535.00
508.33	65535.00
508.50	65535.00
508.68	65535.00
508.85	65535.00
509.03	65535.00
509.20	65535.00
509.38	65535.00
509.55	65535.00
509.73	65535.00
509.90	65535.00
510.08	65535.00
510.25	65535.00
510.42	65535.00
510.60	65535.00
510.77	65535.00
510.95	65535.00
511.12	65535.00
511.30	65535.00
511.47	65535.00
511.64	65535.00
511.82	65535.00
511.99	65535.00
512.17	65535.00
512.34	65535.00
512.51	65535.00
512.69	65535.00
512.86	65535.00
513.04	65535.00
513.21	65535.00
513.38	65535.00
513.56	65535.00
513.73	65535.00
513.90	65535.00
514.08	65535.00
514.25	65535.00
514.43	65535.00
514.60	65535.00
514.77	65535.00
514.95	65535.00
515.12	65535.00
515.29	65535.00
515.47	65535.00
515.64	65535.00
515.81	65535.00
515.99	65535.00
516.16	65535.00
516.33	65535.00
516.51	65535.00
516.68	65535.00
516.85	65535.00
517.03	65535.00
517.20	65535.00
517.37	65535.00
517.54	65535.00
517.72	65535.00
517.89	65535.00
518.06	65535.00
518.24	65535.00
518.41	65535.00
518.58	65535.00
518.75	65535.00
518.93	65535.00
519.10	65535.00
519.27	65535.00
519.45	65535.00
519.62	65535.00
519.79	65535.00
519.96	65535.00
520.14	65535.00
520.31	65535.00
520.48	65535.00
520.65	65535.00
520.83	65535.00
521.00	65535.00
521.17	65535.00
521.34	65535.00
521.52	65535.00
521.69	65535.00
521.86	65535.00
522.03	65535.00
522.20	65535.00
522.38	65535.00
522.55	65535.00
522.72	65535.00
522.89	65535.00
523.07	65535.00
523.24	65535.00
523.41	65535.00
523.58	65535.00
523.75	65535.00
523.92	65535.00
524.10	65535.00
524.27	65535.00
524.44	65535.00
524.61	65535.00
524.78	65535.00
524.96	65535.00
525.13	65535.00
525.30	65535.00
525.47	65535.00
525.64	65535.00
525.81	65535.00
525.98	65535.00
526.16	65535.00
526.33	65535.00
526.50	65535.00
526.67	65535.00
526.84	65535.00
527.01	65535.00
527.18	65535.00
527.36	65535.00
527.53	65535.00
527.70	65535.00
527.87	65535.00
528.04	65535.00
528.21	65535.00
528.38	65535.00
528.55	65535.00
528.72	65535.00
528.89	65535.00
529.07	65535.00
529.24	65535.00
529.41	65535.00
529.58	65535.00
529.75	65535.00
529.92	65535.00
530.09	65535.00
530.26	65535.00
530.43	65535.00
530.60	65535.00
530.77	65535.00
530.94	65535.00
531.11	65535.00
531.28	65535.00
531.46	65535.00
531.63	65535.00
531.80	65535.00
531.97	65535.00
532.14	65535.00
532.31	65535.00
532.48	65535.00
532.65	65535.00
532.82	65535.00
532.99	65535.00
533.16	65535.00
533.33	65535.00
533.50	65535.00
533.67	65535.00
533.84	65535.00
534.01	65535.00
534.18	65535.00
534.35	65535.00
534.52	65535.00
534.69	65535.00
534.86	65535.00
535.03	65535.00
535.20	65535.00
535.37	65535.00
535.54	65535.00
535.71	65535.00
535.88	65535.00
536.05	65535.00
536.22	65535.00
536.38	65535.00
536.55	65535.00
536.72	65535.00
536.89	65535.00
537.06	65535.00
537.23	65535.00
537.40	65535.00
537.57	65535.00
537.74	65535.00
537.91	65535.00
538.08	65535.00
538.25	65535.00
538.42	65535.00
538.59	65535.00
538.75	65535.00
538.92	65535.00
539.09	65535.00
539.26	65535.00
539.43	65535.00
539.60	65535.00
539.77	65535.00
539.94	65535.00
540.11	65535.00
540.28	65535.00
540.44	65535.00
540.61	65535.00
540.78	65535.00
540.95	65535.00
541.12	65535.00
541.29	65535.00
541.46	65535.00
541.62	65535.00
541.79	65535.00
541.96	65535.00
542.13	65535.00
542.30	65535.00
542.47	65535.00
542.63	65535.00
542.80	65535.00
542.97	65535.00
543.14	65535.00
543.31	65535.00
543.48	65535.00
543.64	65535.00
543.81	65535.00
543.98	65535.00
544.15	65535.00
544.32	65535.00
544.48	65535.00
544.65	65535.00
544.82	65535.00
544.99	65535.00
545.16	65535.00
545.32	65535.00
545.49	65535.00
545.66	65535.00
545.83	65535.00
546.00	65535.00
546.16	65535.00
546.33	65535.00
546.50	65535.00
546.67	65535.00
546.83	65535.00
547.00	65535.00
547.17	65535.00
547.34	65535.00
547.50	65535.00
547.67	65535.00
547.84	65535.00
548.00	65535.00
548.17	65535.00
548.34	65535.00
548.51	65535.00
548.67	65535.00
548.84	65535.00
549.01	65535.00
549.18	65535.00
549.34	65535.00
549.51	65535.00
549.68	65535.00
549.84	65535.00
550.01	65535.00
550.18	65535.00
550.34	65535.00
550.51	65535.00
550.68	65535.00
550.84	65535.00
551.01	65535.00
551.18	65535.00
551.34	65535.00
551.51	65535.00
551.68	65535.00
551.84	65535.00
552.01	65535.00
552.18	65535.00
552.34	65535.00
552.51	65535.00
552.68	65535.00
552.84	65535.00
553.01	65535.00
553.18	65535.00
553.34	65535.00
553.51	65535.00
553.67	65535.00
553.84	65535.00
554.01	65535.00
554.17	65535.00
554.34	65535.00
554.51	65535.00
554.67	65535.00
554.84	65535.00
555.00	65535.00
555.17	65535.00
555.33	65535.00
555.50	65535.00
555.67	65535.00
555.83	65535.00
556.00	65535.00
556.16	65535.00
556.33	65535.00
556.50	65535.00
556.66	65535.00
556.83	65535.00
556.99	65535.00
557.16	65535.00
557.32	65535.00
557.49	65535.00
557.65	65535.00
557.82	65535.00
557.98	65535.00
558.15	65535.00
558.32	65535.00
558.48	65535.00
558.65	65535.00
558.81	65535.00
558.98	65535.00
559.14	65535.00
559.31	65535.00
559.47	65535.00
559.64	65535.00
559.80	65535.00
559.97	65535.00
560.13	65535.00
560.30	65535.00
560.46	65535.00
560.63	65535.00
560.79	65535.00
560.96	65535.00
561.12	65535.00
561.29	65535.00
561.45	65535.00
561.61	65535.00
561.78	65535.00
561.94	65535.00
562.11	65535.00
562.27	65535.00
562.44	65535.00
562.60	65535.00
562.77	65535.00
562.93	65535.00
563.10	65535.00
563.26	65535.00
563.42	65535.00
563.59	65535.00
563.75	65535.00
563.92	65535.00
564.08	65535.00
564.24	65535.00
564.41	65535.00
564.57	65535.00
564.74	65535.00
564.90	65535.00
565.07	65535.00
565.23	65535.00
565.39	65535.00
565.56	65535.00
565.72	65535.00
565.88	65535.00
566.05	65535.00
566.21	65535.00
566.38	65535.00
566.54	65535.00
566.70	65535.00
566.87	65535.00
567.03	65535.00
567.19	65535.00
567.36	65535.00
567.52	65535.00
567.68	65535.00
567.85	65535.00
568.01	65535.00
568.17	65535.00
568.34	65535.00
568.50	65535.00
568.66	65535.00
568.83	65535.00
568.99	65535.00
569.15	65535.00
569.32	65535.00
569.48	65535.00
569.64	65535.00
569.81	65535.00
569.97	65535.00
570.13	65535.00
570.30	65535.00
570.46	65535.00
570.62	65535.00
570.78	65535.00
570.95	65535.00
571.11	65535.00
571.27	65535.00
571.43	65535.00
571.60	65535.00
571.76	65535.00
571.92	65535.00
572.09	65535.00
572.25	65535.00
572.41	65535.00
572.57	65535.00
572.74	65535.00
572.90	65535.00
573.06	65535.00
573.22	65535.00
573.38	65535.00
573.55	65535.00
573.71	65535.00
573.87	65535.00
574.03	65535.00
574.20	65535.00
574.36	65535.00
574.52	65535.00
574.68	65535.00
574.84	65535.00
575.01	65535.00
575.17	65535.00
575.33	65535.00
575.49	65535.00
575.65	65535.00
575.82	65535.00
575.98	65535.00
576.14	65535.00
576.30	65535.00
576.46	65535.00
576.62	65535.00
576.79	65535.00
576.95	65535.00
577.11	65535.00
577.27	65535.00
577.43	65535.00
577.59	65535.00
577.75	65535.00
577.92	65535.00
578.08	65535.00
578.24	65535.00
578.40	65535.00
578.56	65535.00
578.72	65535.00
578.88	65535.00
579.04	65535.00
579.21	65535.00
579.37	65535.00
579.53	65535.00
579.69	65535.00
579.85	65535.00
580.01	65535.00
580.17	65535.00
580.33	65535.00
580.49	65535.00
580.65	65535.00
580.82	65535.00
580.98	65535.00
581.14	65535.00
581.30	65535.00
581.46	65535.00
581.62	65535.00
581.78	65535.00
581.94	65535.00
582.10	65535.00
582.26	65535.00
582.42	65535.00
582.58	65535.00
582.74	65535.00
582.90	65535.00
583.06	65535.00
583.22	65535.00
583.38	65535.00
583.54	65535.00
583.70	65535.00
583.86	65535.00
584.02	65535.00
584.18	65535.00
584.34	65535.00
