SpectraSuite Data File
++++++++++++++++++++++++++++++++++++
Date: Mon Oct 07 14:54:00 GMT-05:00 2013
User: price-jones
Dark Spectrum Present: No
Reference Spectrum Present: No
Number of Sampled Component Spectra: 1
Spectrometers: USB2+H05261
Integration Time (usec): 100000 (USB2+H05261)
Spectra Averaged: 1 (USB2+H05261)
Boxcar Smoothing: 0 (USB2+H05261)
Correct for Electrical Dark: No (USB2+H05261)
Strobe/Lamp Enabled: No (USB2+H05261)
Correct for Detector Non-linearity: No (USB2+H05261)
Correct for Stray Light: No (USB2+H05261)
Number of Pixels in Processed Spectrum: 2048
>>>>>Begin Processed Spectral Data<<<<<
365.73	0.00
365.92	0.00
366.12	0.00
366.32	0.00
366.52	0.00
366.72	0.00
366.91	0.00
367.11	0.00
367.31	0.00
367.51	0.00
367.70	0.00
367.90	0.00
368.10	0.00
368.30	0.00
368.49	0.00
368.69	0.00
368.89	0.00
369.09	0.00
369.28	0.00
369.48	0.00
369.68	0.00
369.87	0.00
370.07	0.00
370.27	0.00
370.47	683.44
370.66	3344.63
370.86	4051.47
371.06	4442.34
371.25	4416.59
371.45	4004.66
371.65	3524.85
371.84	3346.97
372.04	3440.59
372.24	3866.56
372.44	4177.86
372.63	4091.26
372.83	3719.11
373.03	3330.58
373.22	3000.57
373.42	3344.63
373.62	3655.92
373.81	3953.16
374.01	4007.00
374.21	3480.38
374.40	3433.57
374.60	3552.93
374.79	3861.88
374.99	4545.32
375.19	4919.81
375.38	4980.66
375.58	4615.54
375.78	4538.30
375.97	4688.09
376.17	4943.21
376.37	4863.63
376.56	5032.15
376.76	5273.23
376.95	5577.50
377.15	6050.28
377.35	6258.59
377.54	6293.70
377.74	6487.96
377.93	6509.03
378.13	6614.35
378.33	6080.71
378.52	5593.88
378.72	5441.75
378.91	5362.17
379.11	5057.90
379.31	5032.15
379.50	5011.09
379.70	5394.93
379.89	5980.07
380.09	6354.55
380.28	6548.82
380.48	6387.32
380.68	6375.62
380.87	6476.26
381.07	5675.80
381.26	5270.89
381.46	4861.29
381.65	4807.46
381.85	4681.07
382.04	4482.13
382.24	4189.56
382.43	4025.72
382.63	3868.91
382.83	3885.29
383.02	3871.25
383.22	3782.31
383.41	3962.53
383.61	4203.60
383.80	4819.16
384.00	5313.02
384.19	5923.90
384.39	6253.91
384.58	6450.52
384.78	6267.95
384.97	6253.91
385.17	5930.92
385.36	5689.84
385.56	5357.49
385.75	5589.20
385.95	6174.33
386.14	6555.84
386.34	6609.67
386.53	6282.00
386.72	5881.77
386.92	6050.28
387.11	6342.85
387.31	6579.25
387.50	6544.14
387.70	6289.02
387.89	6305.40
388.09	6239.87
388.28	6335.83
388.48	6303.06
388.67	6876.49
388.86	7468.65
389.06	8046.76
389.25	8446.99
389.45	8655.30
389.64	8606.15
389.84	8266.77
390.03	8161.45
390.22	8208.26
390.42	8418.91
390.61	9015.74
390.81	9542.36
391.00	9991.75
391.19	9874.72
391.39	9415.98
391.58	8926.80
391.78	8327.63
391.97	8224.64
392.16	7655.89
392.36	6972.46
392.55	5738.99
392.75	4662.35
392.94	3660.60
393.13	3623.15
393.33	4234.03
393.52	5301.31
393.71	6677.55
393.91	7456.95
394.10	8091.23
394.29	8791.05
394.49	9570.45
394.68	10441.13
394.88	10298.36
395.07	10609.65
395.26	10661.14
395.46	10171.97
395.65	9668.75
395.84	8510.19
396.04	7253.32
396.23	5912.19
396.42	4908.10
396.62	4643.62
396.81	5460.47
397.00	6925.65
397.19	8659.98
397.39	10328.78
397.58	11641.82
397.77	12243.34
397.97	12954.87
398.16	12847.20
398.35	13394.89
398.55	13823.20
398.74	14382.59
398.93	14633.03
399.12	14555.79
399.32	14050.24
399.51	14305.35
399.70	15206.46
399.90	15105.82
400.09	15264.97
400.28	14944.32
400.47	15023.90
400.67	15639.46
400.86	16217.57
401.05	16063.10
401.24	16039.69
401.44	16318.22
401.63	16547.59
401.82	16573.33
402.01	16634.19
402.21	16755.90
402.40	16966.54
402.59	16479.71
402.78	15520.09
402.97	15201.78
403.17	15789.25
403.36	16791.00
403.55	17088.25
403.74	17652.32
403.93	16879.94
404.13	15492.01
404.32	15220.50
404.51	15686.27
404.70	17350.39
404.89	17233.36
405.09	16847.18
405.28	16414.18
405.47	16037.35
405.66	16348.64
405.85	15913.30
406.05	15494.35
406.24	15602.01
406.43	16376.73
406.62	16999.31
406.81	17132.72
407.00	16498.44
407.20	15932.03
407.39	16196.51
407.58	16751.21
407.77	17364.43
407.96	18307.67
408.15	18132.13
408.34	18445.76
408.54	19096.43
408.73	19215.80
408.92	19208.78
409.11	18506.62
409.30	17806.80
409.49	16512.48
409.68	15393.70
409.87	15021.56
410.07	15611.37
410.26	17392.52
410.45	18310.01
410.64	18803.86
410.83	19068.34
411.02	19639.44
411.21	20435.22
411.40	20404.79
411.59	20608.42
411.78	20348.62
411.98	19719.01
412.17	20517.14
412.36	19709.65
412.55	20004.56
412.74	19559.86
412.93	18860.04
413.12	19157.28
413.31	21013.33
413.50	21315.26
413.69	21895.71
413.88	20833.11
414.07	20144.99
414.26	20503.09
414.45	21380.79
414.64	21165.46
414.83	21570.38
415.02	20936.09
415.22	20704.38
415.41	21696.77
415.60	22036.14
415.79	22993.42
415.98	23388.97
416.17	23475.57
416.36	22883.42
416.55	22422.33
416.74	21811.45
416.93	21067.16
417.12	20926.73
417.31	21312.92
417.50	21876.99
417.69	22991.08
417.88	22419.99
418.07	22403.61
418.26	22017.42
418.45	21940.18
418.64	22785.12
418.83	23704.95
419.02	23325.78
419.21	23026.19
419.39	22183.60
419.58	21338.66
419.77	20926.73
419.96	21855.92
420.15	22820.22
420.34	23700.26
420.53	24346.25
420.72	25099.90
420.91	24737.12
421.10	24662.22
421.29	24505.41
421.48	23538.77
421.67	24725.42
421.86	24100.50
422.05	22618.94
422.24	20262.02
422.43	19826.68
422.61	22059.55
422.80	23901.55
422.99	23704.95
423.18	23407.70
423.37	22609.58
423.56	22391.91
423.75	22649.36
423.94	23391.31
424.13	22073.59
424.32	22265.52
424.50	22246.79
424.69	22239.77
424.88	22033.80
425.07	22143.81
425.26	21661.66
425.45	21818.47
425.64	21343.35
425.83	21249.72
426.01	22789.80
426.20	23590.26
426.39	23276.63
426.58	21640.59
426.77	19744.76
426.96	19040.26
427.15	19772.85
427.33	20987.58
427.52	22621.28
427.71	22588.51
427.90	22183.60
428.09	21799.75
428.28	21577.40
428.46	21020.35
428.65	20554.58
428.84	21308.24
429.03	21195.89
429.22	20409.47
429.40	19000.47
429.59	17399.54
429.78	15358.60
429.97	15382.00
430.16	15822.02
430.34	15508.39
430.53	15557.54
430.72	16074.80
430.91	17518.91
431.10	20732.47
431.28	24196.46
431.47	26038.46
431.66	26941.91
431.85	24079.43
432.03	22237.43
432.22	21097.59
432.41	22281.90
432.60	24470.30
432.79	25544.61
432.97	26324.01
433.16	25577.37
433.35	23683.88
433.54	21104.61
433.72	19587.94
433.91	20393.09
434.10	22789.80
434.28	24287.74
434.47	25731.85
434.66	25266.08
434.85	24704.35
435.03	24793.29
435.22	25069.48
435.41	26490.18
435.59	26326.35
435.78	27190.00
435.97	27534.06
436.16	27910.89
436.34	27068.30
436.53	27035.53
436.72	26981.70
436.90	25378.43
437.09	25483.75
437.28	25160.76
437.46	26199.96
437.65	25675.68
437.84	24175.39
438.02	21797.41
438.21	22040.82
438.40	23220.45
438.58	25029.69
438.77	25993.99
438.96	25820.79
439.14	26960.63
439.33	27452.14
439.52	28449.21
439.70	27704.92
439.89	26670.40
440.08	25883.98
440.26	26157.83
440.45	27072.98
440.63	29001.58
440.82	30300.58
441.01	29766.93
441.19	29652.25
441.38	29869.92
441.57	31136.15
441.75	31695.53
441.94	31833.63
442.12	31405.31
442.31	32013.85
442.50	31798.52
442.68	30991.03
442.87	31075.29
443.05	30373.13
443.24	31211.04
443.43	31545.74
443.61	32568.55
443.80	32594.30
443.98	30691.44
444.17	30862.30
444.35	32336.84
444.54	32900.91
444.73	32442.17
444.91	31400.63
445.10	30494.84
445.28	29350.32
445.47	28645.82
445.65	28692.63
445.84	29556.28
446.02	30808.47
446.21	30955.93
446.39	31407.65
446.58	31409.99
446.77	32109.81
446.95	32474.93
447.14	33090.49
447.32	33818.40
447.51	32875.16
447.69	31662.77
447.88	31087.00
448.06	31791.50
448.25	32744.09
448.43	32793.25
448.62	32034.91
448.80	31894.48
448.99	31938.95
449.17	32341.52
449.36	32547.49
449.54	33736.48
449.73	33982.24
449.91	34218.63
450.10	35599.55
450.28	35964.67
450.46	35491.88
450.65	35779.77
450.83	35487.20
451.02	34466.73
451.20	34539.29
451.39	34625.89
451.57	34469.07
451.76	34408.22
451.94	34052.45
452.13	33181.77
452.31	31873.42
452.49	29947.15
452.68	30789.75
452.86	30478.46
453.05	31288.28
453.23	32173.00
453.42	32577.92
453.60	33205.18
453.78	33942.45
453.97	33633.50
454.15	33825.42
454.34	33144.33
454.52	33123.26
454.70	31826.60
454.89	33020.28
455.07	32767.50
455.26	33296.46
455.44	34506.52
455.62	35105.70
455.81	35454.44
455.99	34962.92
456.17	34478.43
456.36	35016.75
456.54	35519.97
456.73	35585.50
456.91	36411.71
457.09	36615.34
457.28	37097.49
457.46	35655.72
457.64	35840.62
457.83	34099.26
458.01	33935.43
458.19	34462.05
458.38	34534.60
458.56	35714.23
458.74	35536.35
458.93	35131.44
459.11	34857.60
459.29	34520.56
459.48	34916.11
459.66	34328.64
459.84	35456.78
460.03	35321.02
460.21	35763.39
460.39	36072.34
460.57	35959.99
460.76	36662.15
460.94	37212.18
461.12	36212.77
461.31	36273.62
461.49	36545.12
461.67	36226.81
461.85	37605.39
462.04	37617.09
462.22	37848.80
462.40	37600.71
462.59	37179.41
462.77	37237.92
462.95	37167.71
463.13	36598.96
463.32	36336.82
463.50	35761.05
463.68	36421.08
463.86	36123.83
464.05	36004.46
464.23	34831.85
464.41	34995.69
464.59	34115.65
464.78	35716.58
464.96	35983.40
465.14	35283.58
465.32	36254.90
465.50	37415.80
465.69	37467.30
465.87	36666.83
466.05	35658.06
466.23	34822.49
466.41	33935.43
466.60	34387.15
466.78	35037.82
466.96	35211.02
467.14	35714.23
467.32	36336.82
467.51	36187.02
467.69	34518.22
467.87	35402.94
468.05	36081.70
468.23	35683.81
468.41	35857.01
468.60	36142.55
468.78	36514.70
468.96	35587.85
469.14	36697.26
469.32	36907.91
469.50	35084.63
469.69	35449.75
469.87	34553.33
470.05	34843.56
470.23	34993.35
470.41	35075.27
470.59	35447.41
470.77	35435.71
470.95	36175.32
471.14	36886.84
471.32	36341.50
471.50	38939.49
471.68	38419.89
471.86	38932.47
472.04	39313.98
472.22	39594.84
472.40	37483.68
472.58	36975.78
472.77	36889.18
472.95	37394.74
473.13	38719.48
473.31	37528.15
473.49	37708.37
473.67	38576.71
473.85	38574.37
474.03	39180.57
474.21	39594.84
474.39	40449.14
474.57	40018.48
474.75	40130.83
474.93	39917.84
475.12	38836.51
475.30	39124.40
475.48	39019.07
475.66	39482.50
475.84	38817.78
476.02	39042.48
476.20	38330.95
476.38	39152.48
476.56	40287.64
476.74	40577.87
476.92	40451.48
477.10	41626.43
477.28	42572.00
477.46	42557.96
477.64	43185.22
477.82	42916.06
478.00	43257.78
478.18	42454.98
478.36	42560.30
478.54	42506.47
478.72	43023.73
478.90	43838.23
479.08	44753.38
479.26	45743.43
479.44	45050.63
479.62	44580.18
479.80	44985.10
479.98	45347.88
480.16	45429.80
480.34	45233.19
480.52	45577.25
480.70	46024.29
480.88	45682.58
481.06	46604.75
481.24	46684.33
481.41	47618.20
481.59	47676.71
481.77	47791.40
481.95	47136.05
482.13	46934.76
482.31	47194.56
482.49	47959.92
482.67	47896.72
482.85	47978.64
483.03	48779.10
483.21	49008.48
483.39	48816.55
483.57	48105.03
483.74	47620.54
483.92	47833.53
484.10	48301.64
484.28	48942.94
484.46	49867.45
484.64	49827.66
484.82	48985.07
485.00	49134.87
485.18	47775.02
485.35	46667.94
485.53	43533.96
485.71	39718.89
485.89	39283.55
486.07	41223.86
486.25	44687.85
486.43	46979.23
486.61	47971.62
486.78	47381.80
486.96	47962.26
487.14	48898.47
487.32	49958.73
487.50	51002.61
487.68	51824.14
487.85	52154.16
488.03	52224.37
488.21	51859.25
488.39	51185.18
488.57	50527.48
488.75	50026.61
488.92	51222.62
489.10	53338.47
489.28	54564.91
489.46	55238.98
489.64	54899.61
489.81	55110.25
489.99	54724.07
490.17	54813.01
490.35	55299.84
490.53	54595.34
490.70	54323.83
490.88	54340.22
491.06	55306.86
491.24	55042.38
491.41	54391.71
491.59	52456.09
491.77	51821.80
491.95	53081.01
492.13	54152.97
492.30	55253.03
492.48	55840.50
492.66	56294.56
492.84	56353.08
493.01	56287.54
493.19	55791.35
493.37	55323.24
493.54	55320.90
493.72	55655.60
493.90	56598.83
494.08	57373.55
494.25	57645.05
494.43	57984.43
494.61	58188.06
494.79	58117.84
494.96	57949.32
495.14	57399.30
495.32	56542.66
495.49	56048.81
495.67	56999.07
495.85	58213.80
496.02	58459.56
496.20	58660.85
496.38	57989.11
496.55	57801.87
496.73	58277.00
496.91	58468.92
497.09	58953.41
497.26	59124.27
497.44	58780.21
497.62	58159.97
497.79	57551.43
497.97	56334.35
498.14	56516.92
498.32	57553.77
498.50	58204.44
498.67	58979.16
498.85	58644.46
499.03	59091.51
499.20	59194.49
499.38	59119.59
499.56	58834.05
499.73	58438.50
499.91	58321.47
500.08	57808.89
500.26	57006.09
500.44	57343.12
500.61	58244.23
500.79	58014.86
500.97	57588.88
501.14	57549.09
501.32	57333.76
501.49	57244.82
501.67	57638.03
501.84	58204.44
502.02	58199.76
502.20	58452.54
502.37	58735.74
502.55	58583.61
502.72	59084.48
502.90	59538.55
503.07	59175.76
503.25	58883.20
503.43	58246.57
503.60	57574.84
503.78	57059.92
503.95	57413.34
504.13	58562.54
504.30	59414.50
504.48	59503.44
504.65	59040.01
504.83	58988.52
505.01	59353.65
505.18	59793.67
505.36	60219.64
505.53	60385.82
505.71	60699.45
505.88	60732.22
506.06	60083.89
506.23	59887.29
506.41	59344.28
506.58	59767.92
506.76	59477.69
506.93	59496.42
507.11	59372.37
507.28	59587.70
507.46	59051.72
507.63	58424.45
507.81	58190.40
507.98	58630.42
508.16	59194.49
508.33	59667.28
508.50	60074.53
508.68	60392.84
508.85	60842.23
509.03	60566.04
509.20	60713.50
509.38	59950.48
509.55	59185.13
509.73	59126.61
509.90	59793.67
510.08	60051.12
510.25	59994.95
510.42	59681.32
510.60	59657.91
510.77	59973.89
510.95	60268.79
511.12	60495.83
511.30	60757.97
511.47	60961.59
511.64	60985.00
511.82	60715.84
511.99	59943.46
512.17	59671.96
512.34	59208.53
512.51	59386.41
512.69	59484.72
512.86	59538.55
513.04	59852.18
513.21	59866.22
513.38	59732.81
513.56	59152.36
513.73	58756.81
513.90	59007.25
514.08	58850.43
514.25	59260.02
514.43	59290.45
514.60	59337.26
514.77	59662.60
514.95	59702.38
515.12	59578.34
515.29	59688.34
515.47	60357.74
515.64	60350.71
515.81	59917.71
515.99	59468.33
516.16	58113.16
516.33	56191.58
516.51	54623.42
516.68	54190.42
516.85	53666.14
517.03	53965.73
517.20	56582.45
517.37	58628.08
517.54	59791.33
517.72	59103.21
517.89	57013.11
518.06	54817.69
518.24	54960.46
518.41	56753.31
518.58	58248.91
518.75	58710.00
518.93	58693.61
519.10	58415.09
519.27	59002.56
519.45	59192.15
519.62	59945.80
519.79	60093.25
519.96	60130.70
520.14	59653.23
520.31	58749.79
520.48	58789.58
520.65	59063.42
520.83	59934.10
521.00	60404.55
521.17	60072.19
521.34	59704.73
521.52	60044.10
521.69	60533.28
521.86	60830.52
522.03	60622.22
522.20	59241.30
522.38	58539.14
522.55	58379.98
522.72	59152.36
522.89	59023.63
523.07	59318.54
523.24	59501.10
523.41	60388.16
523.58	60647.96
523.75	60982.66
523.92	60973.30
524.10	60931.17
524.27	60783.71
524.44	60788.39
524.61	60566.04
524.78	60275.82
524.96	60233.69
525.13	60420.93
525.30	60446.68
525.47	60917.12
525.64	60961.59
525.81	60182.19
525.98	58845.75
526.16	57528.03
526.33	56882.04
526.50	56530.96
526.67	56313.29
526.84	57097.37
527.01	57759.74
527.18	58401.05
527.36	59253.00
527.53	60119.00
527.70	60266.45
527.87	59833.46
528.04	59494.08
528.21	59863.88
528.38	60488.80
528.55	61059.90
528.72	61478.85
528.89	61436.72
529.07	61263.52
529.24	60362.42
529.41	59908.35
529.58	59372.37
529.75	59554.93
529.92	59962.18
530.09	60271.14
530.26	60671.37
530.43	61069.26
530.60	61001.38
530.77	61265.86
530.94	61389.91
531.11	60790.73
531.28	60603.49
531.46	60252.41
531.63	60516.89
531.80	60271.14
531.97	59943.46
532.14	59367.69
532.31	58590.63
532.48	57743.36
532.65	57841.66
532.82	58667.87
532.99	59737.49
533.16	59920.05
533.33	60287.52
533.50	60247.73
533.67	59629.83
533.84	59157.04
534.01	59501.10
534.18	59461.31
534.35	59821.75
534.52	59622.81
534.69	59831.11
534.86	60224.32
535.03	60346.03
535.20	60828.18
535.37	61221.39
535.54	61464.81
535.71	60692.43
535.88	60598.81
536.05	59931.76
536.22	59622.81
536.38	59269.39
536.55	58770.85
536.72	58398.71
536.89	58120.18
537.06	59054.06
537.23	59819.41
537.40	60207.94
537.57	60161.13
537.74	59721.11
537.91	59849.84
538.08	59620.47
538.25	59807.71
538.42	60083.89
538.59	59812.39
538.75	59245.98
538.92	59185.13
539.09	59004.91
539.26	58726.38
539.43	58415.09
539.60	58597.65
539.77	58843.41
539.94	58864.47
540.11	58087.42
540.28	57429.72
540.44	57689.52
540.61	57862.72
540.78	57808.89
540.95	58426.79
541.12	58784.90
541.29	59093.85
541.46	59456.63
541.62	59187.47
541.79	59372.37
541.96	58482.97
542.13	58468.92
542.30	58801.28
542.47	59285.77
542.63	58899.58
542.80	58700.64
542.97	58747.45
543.14	58635.10
543.31	58536.80
543.48	59051.72
543.64	59884.95
543.81	60271.14
543.98	59924.74
544.15	59196.83
544.32	58681.91
544.48	58808.30
544.65	59143.00
544.82	59433.22
544.99	59227.26
545.16	59042.35
545.32	58408.07
545.49	59332.58
545.66	59999.63
545.83	59215.55
546.00	58852.77
546.16	58862.13
546.33	58663.19
546.50	58880.86
546.67	59348.96
546.83	58890.22
547.00	58876.18
547.17	58087.42
547.34	57696.55
547.50	57715.27
547.67	58197.42
547.84	58291.04
548.00	58588.29
548.17	58871.49
548.34	58953.41
548.51	58775.53
548.67	58595.31
548.84	59011.93
549.01	58944.05
549.18	58775.53
549.34	58824.68
549.51	58798.94
549.68	58548.50
549.84	58394.03
550.01	58269.98
550.18	58262.96
550.34	58159.97
550.51	58440.84
550.68	58522.76
550.84	57911.88
551.01	58082.73
551.18	58127.20
551.34	58141.25
551.51	58471.26
551.68	58993.20
551.84	58953.41
552.01	58581.27
552.18	58567.23
552.34	57764.42
552.51	57277.59
552.68	57209.71
552.84	57703.57
553.01	57970.39
553.18	57883.79
553.34	57951.66
553.51	58274.66
553.67	58379.98
553.84	58419.77
554.01	58291.04
554.17	58227.85
554.34	58220.83
554.51	58232.53
554.67	58777.87
554.84	58583.61
555.00	58110.82
555.17	58024.22
555.33	57895.49
555.50	58005.50
555.67	58038.26
555.83	57759.74
556.00	57462.49
556.16	57329.08
556.33	57027.15
556.50	56846.93
556.66	57134.82
556.83	56619.90
556.99	56910.13
557.16	57172.27
557.32	57265.89
557.49	57261.21
557.65	57406.32
557.82	57457.81
557.98	57226.10
558.15	56552.02
558.32	56034.77
558.48	55154.72
558.65	55086.85
558.81	55735.18
558.98	55826.46
559.14	56147.11
559.31	56104.98
559.47	56322.65
559.64	55751.56
559.80	55482.40
559.97	55824.12
560.13	55786.67
560.30	56877.36
560.46	57265.89
560.63	57649.74
560.79	57408.66
560.96	57357.17
561.12	56048.81
561.29	55311.54
561.45	55402.82
561.61	55978.59
561.78	56093.28
561.94	56147.11
562.11	56093.28
562.27	55978.59
562.44	56259.46
562.60	56622.24
562.77	56795.44
562.93	56741.61
563.10	56605.86
563.26	56046.47
563.42	56254.78
563.59	55662.62
563.75	55835.82
563.92	55793.69
564.08	55739.86
564.24	56324.99
564.41	56268.82
564.57	56102.64
564.74	55894.33
564.90	55856.88
565.07	55774.97
565.23	55480.06
565.39	54548.53
565.56	54410.43
565.72	54260.64
565.88	54513.42
566.05	54515.76
566.21	54965.14
566.38	55119.62
566.54	55161.75
566.70	55309.20
566.87	55847.52
567.03	55824.12
567.19	55997.32
567.36	55805.39
567.52	55629.85
567.68	55082.17
567.85	54789.60
568.01	54347.24
568.17	54052.33
568.34	54064.03
568.50	54108.50
568.66	54138.93
568.83	54319.15
568.99	54440.86
569.15	54663.21
569.32	54798.96
569.48	54293.41
569.64	54122.55
569.81	53879.13
569.97	53684.87
570.13	53586.57
570.30	53298.68
570.46	52870.36
570.62	52231.40
570.78	52175.22
570.95	52432.68
571.11	53490.60
571.27	53607.63
571.43	53710.61
571.60	53923.60
571.76	54234.89
571.92	54326.17
572.09	54585.97
572.25	54707.68
572.41	54401.07
572.57	54248.94
572.74	54265.32
572.90	54047.65
573.06	53778.49
573.22	53954.03
573.38	53738.70
573.55	53684.87
573.71	54059.35
573.87	54024.25
574.03	53631.04
574.20	53954.03
574.36	53357.19
574.52	53326.77
574.68	52985.05
574.84	52722.91
575.01	52505.24
575.17	51995.00
575.33	52575.45
575.49	52676.10
575.65	53076.33
575.82	52353.10
575.98	52388.21
576.14	53024.84
576.30	52966.32
576.46	53015.47
576.62	52987.39
576.79	52898.45
576.95	52538.01
577.11	52416.30
577.27	52442.04
577.43	52715.89
577.59	52446.72
577.75	51625.20
577.92	51234.33
578.08	51054.11
578.24	51220.28
578.40	51248.37
578.56	51786.69
578.72	51299.86
578.88	51973.94
579.04	51992.66
579.21	52133.09
579.37	51931.81
579.53	52229.05
579.69	52119.05
579.85	52591.84
580.01	52240.76
580.17	51503.49
580.33	51599.45
580.49	51796.06
580.65	51901.38
580.82	52392.89
580.98	52399.91
581.14	51807.76
581.30	51922.44
581.46	51845.21
581.62	52353.10
581.78	52217.35
581.94	52629.29
582.10	52144.80
582.26	52205.65
582.42	52308.63
582.58	52381.19
582.74	52299.27
582.90	52294.59
583.06	52301.61
583.22	51859.25
583.38	51957.55
583.54	51842.87
583.70	51875.63
583.86	51774.99
584.02	51714.14
584.18	51777.33
584.34	51718.82
584.50	51468.38
584.66	51194.54
584.82	50841.12
584.98	50822.39
585.14	50841.12
