SpectraSuite Data File
++++++++++++++++++++++++++++++++++++
Date: Mon Oct 07 14:53:04 GMT-05:00 2013
User: price-jones
Dark Spectrum Present: No
Reference Spectrum Present: No
Number of Sampled Component Spectra: 1
Spectrometers: USB2+H05261
Integration Time (usec): 100000 (USB2+H05261)
Spectra Averaged: 1 (USB2+H05261)
Boxcar Smoothing: 0 (USB2+H05261)
Correct for Electrical Dark: No (USB2+H05261)
Strobe/Lamp Enabled: No (USB2+H05261)
Correct for Detector Non-linearity: No (USB2+H05261)
Correct for Stray Light: No (USB2+H05261)
Number of Pixels in Processed Spectrum: 2048
>>>>>Begin Processed Spectral Data<<<<<
365.73	0.00
365.92	0.00
366.12	0.00
366.32	0.00
366.52	0.00
366.72	0.00
366.91	0.00
367.11	0.00
367.31	0.00
367.51	0.00
367.70	0.00
367.90	0.00
368.10	0.00
368.30	0.00
368.49	0.00
368.69	0.00
368.89	0.00
369.09	0.00
369.28	0.00
369.48	0.00
369.68	0.00
369.87	0.00
370.07	0.00
370.27	0.00
370.47	470.45
370.66	2422.45
370.86	2892.90
371.06	3159.72
371.25	3208.87
371.45	2928.01
371.65	2626.08
371.84	2459.90
372.04	2569.91
372.24	2834.39
372.44	2979.50
372.63	2993.55
372.83	2555.86
373.03	2354.58
373.22	2190.74
373.42	2420.11
373.62	2752.47
373.81	2789.92
374.01	2878.86
374.21	2572.25
374.40	2471.61
374.60	2562.89
374.79	2974.82
374.99	3405.48
375.19	3634.85
375.38	3644.21
375.58	3412.50
375.78	3368.03
375.97	3393.78
376.17	3559.95
376.37	3487.40
376.56	3602.08
376.76	3885.29
376.95	4051.47
377.15	4271.48
377.35	4432.97
377.54	4592.13
377.74	4781.71
377.93	4739.58
378.13	4643.62
378.33	4440.00
378.52	4072.53
378.72	3974.23
378.91	3964.87
379.11	3613.79
379.31	3602.08
379.50	3688.68
379.70	3868.91
379.89	4423.61
380.09	4486.81
380.28	4568.73
380.48	4617.88
380.68	4652.98
380.87	4456.38
381.07	4079.55
381.26	3854.86
381.46	3581.02
381.65	3452.29
381.85	3461.65
382.04	3026.31
382.24	2979.50
382.43	2862.48
382.63	2848.43
382.83	2703.32
383.02	2888.22
383.22	2696.30
383.41	2860.13
383.61	3040.36
383.80	3548.25
384.00	3934.44
384.19	4482.13
384.39	4671.71
384.58	4723.20
384.78	4650.64
384.97	4409.57
385.17	4390.84
385.36	4086.58
385.56	3988.27
385.75	4030.40
385.95	4461.06
386.14	4798.10
386.34	4786.40
386.53	4540.64
386.72	4224.67
386.92	4325.31
387.11	4533.62
387.31	4882.36
387.50	4652.98
387.70	4521.92
387.89	4365.10
388.09	4512.55
388.28	4304.25
388.48	4718.52
388.67	5078.96
388.86	5593.88
389.06	5809.21
389.25	6225.82
389.45	6361.58
389.64	6265.61
389.84	5982.41
390.03	6076.03
390.22	6083.05
390.42	6328.81
390.61	6546.48
390.81	7080.12
391.00	7330.56
391.19	7351.62
391.39	6693.93
391.58	6511.37
391.78	6328.81
391.97	5977.73
392.16	5469.83
392.36	4966.62
392.55	4014.02
392.75	3131.64
392.94	2565.23
393.13	2569.91
393.33	3030.99
393.52	3969.55
393.71	4877.68
393.91	5394.93
394.10	5818.57
394.29	6485.62
394.49	7023.95
394.68	7466.31
394.88	7644.19
395.07	7742.49
395.26	7786.96
395.46	7377.37
395.65	6857.77
395.84	6129.86
396.04	5294.29
396.23	4161.47
396.42	3489.74
396.62	3372.71
396.81	4067.85
397.00	5144.50
397.19	6530.09
397.39	7583.34
397.58	8432.95
397.77	9181.92
397.97	9275.54
398.16	9537.68
398.35	9769.40
398.55	10209.42
398.74	10394.32
398.93	10813.28
399.12	10537.09
399.32	10104.09
399.51	10466.88
399.70	11096.48
399.90	10998.18
400.09	11091.80
400.28	10747.74
400.47	11101.16
400.67	11316.49
400.86	11712.04
401.05	11632.46
401.24	11850.13
401.44	12046.74
401.63	12013.97
401.82	12086.53
402.01	12095.89
402.21	12123.98
402.40	12334.62
402.59	11885.24
402.78	11262.66
402.97	10965.41
403.17	11541.18
403.36	12035.03
403.55	12636.55
403.74	12755.92
403.93	12105.25
404.13	11335.21
404.32	11075.42
404.51	11587.99
404.70	12498.46
404.89	12608.47
405.09	12233.98
405.28	11992.90
405.47	12149.72
405.66	12032.69
405.85	11728.42
406.05	11396.07
406.24	11477.99
406.43	12079.50
406.62	12601.44
406.81	12643.57
407.00	11927.37
407.20	11716.72
407.39	12112.27
407.58	12463.35
407.77	13095.30
407.96	13434.68
408.15	13582.13
408.34	13556.38
408.54	14193.01
408.73	14333.44
408.92	13970.66
409.11	13783.41
409.30	12669.32
409.49	12266.75
409.68	11421.81
409.87	10930.30
410.07	11981.20
410.26	12716.13
410.45	13245.09
410.64	13785.76
410.83	14228.12
411.02	14675.16
411.21	15267.31
411.40	14707.93
411.59	14960.70
411.78	14871.76
411.98	14780.48
412.17	14815.59
412.36	14663.46
412.55	14583.88
412.74	14434.08
412.93	14015.13
413.12	14141.52
413.31	15573.92
413.50	15658.18
413.69	15976.50
413.88	15276.68
414.07	15009.86
414.26	15089.43
414.45	15625.42
414.64	15873.51
414.83	15744.78
415.02	15426.47
415.22	15520.09
415.41	15803.30
415.60	16018.63
415.79	17287.20
415.98	17441.67
416.17	17338.69
416.36	16783.98
416.55	16732.49
416.74	16154.38
416.93	15679.25
417.12	15555.20
417.31	15779.89
417.50	16191.83
417.69	16549.93
417.88	16582.70
418.07	16161.40
418.26	16084.16
418.45	16570.99
418.64	16828.45
418.83	17507.21
419.02	17268.47
419.21	17034.42
419.39	16264.38
419.58	15658.18
419.77	15494.35
419.96	16257.36
420.15	17334.01
420.34	17823.18
420.53	18047.87
420.72	18560.45
420.91	18422.36
421.10	18195.32
421.29	18094.68
421.48	17439.33
421.67	18504.28
421.86	17607.85
422.05	16659.93
422.24	14850.70
422.43	15126.88
422.61	16341.62
422.80	17642.96
422.99	17778.71
423.18	17352.73
423.37	16547.59
423.56	16919.73
423.75	17104.64
423.94	17406.56
424.13	16444.60
424.32	16601.42
424.50	16353.32
424.69	16369.71
424.88	16561.63
425.07	16549.93
425.26	16439.92
425.45	16198.85
425.64	16009.26
425.83	16187.14
426.01	17142.08
426.20	17394.86
426.39	17556.36
426.58	15800.96
426.77	14993.47
426.96	14193.01
427.15	14855.38
427.33	16126.29
427.52	16615.46
427.71	16697.38
427.90	16301.83
428.09	16203.53
428.28	15969.48
428.46	15145.61
428.65	15279.02
428.84	15770.53
429.03	16325.24
429.22	14995.81
429.40	14349.82
429.59	12961.89
429.78	11477.99
429.97	11744.81
430.16	11433.52
430.34	11800.98
430.53	11875.88
430.72	12058.44
430.91	13198.28
431.10	15520.09
431.28	18480.87
431.47	19793.91
431.66	20056.05
431.85	18153.20
432.03	16554.61
432.22	16049.05
432.41	16685.68
432.60	18384.91
432.79	19536.45
432.97	19730.72
433.16	19192.39
433.35	17516.57
433.54	15531.80
433.72	14876.44
433.91	15442.85
434.10	17036.76
434.28	18183.62
434.47	19435.81
434.66	18930.25
434.85	18625.98
435.03	18253.84
435.22	19035.58
435.41	19873.49
435.59	19924.98
435.78	20252.66
435.97	20814.38
436.16	20940.77
436.34	20306.49
436.53	20144.99
436.72	20276.06
436.90	19103.45
437.09	19042.60
437.28	19190.05
437.46	19646.46
437.65	19077.71
437.84	18239.79
438.02	16578.01
438.21	16617.80
438.40	17577.42
438.58	19047.28
438.77	19723.69
438.96	19758.80
439.14	20465.64
439.33	21198.23
439.52	21167.80
439.70	20716.08
439.89	20475.01
440.08	19613.69
440.26	19644.12
440.45	20524.16
440.63	21722.51
440.82	23164.28
441.01	22616.60
441.19	22284.24
441.38	22726.60
441.57	23606.64
441.75	24163.69
441.94	23990.49
442.12	23583.24
442.31	24170.71
442.50	24044.32
442.68	24058.37
442.87	23665.16
443.05	23316.42
443.24	23534.09
443.43	24079.43
443.61	24491.37
443.80	25137.35
443.98	23672.18
444.17	23644.09
444.35	24617.75
444.54	25216.93
444.73	24945.43
444.91	23758.78
445.10	22691.49
445.28	22080.61
445.47	21570.38
445.65	21905.07
445.84	22221.05
446.02	23351.52
446.21	23564.51
446.39	23606.64
446.58	24056.03
446.77	24350.93
446.95	25001.60
447.14	25245.02
447.32	25324.60
447.51	24896.28
447.69	23920.28
447.88	23978.79
448.06	24226.89
448.25	24992.24
448.43	24938.41
448.62	24451.58
448.80	24393.06
448.99	24793.29
449.17	24805.00
449.36	24683.29
449.54	25535.24
449.73	26008.03
449.91	26326.35
450.10	27117.45
450.28	27161.92
450.46	27402.99
450.65	27433.42
450.83	26595.51
451.02	26354.43
451.20	26705.51
451.39	26380.18
451.57	25956.54
451.76	26373.16
451.94	25748.23
452.13	25862.92
452.31	24334.55
452.49	22649.36
452.68	23571.54
452.86	23791.55
453.05	24041.98
453.23	25071.82
453.42	25144.38
453.60	25944.84
453.78	25865.26
453.97	25518.86
454.15	25797.38
454.34	25142.03
454.52	25722.49
454.70	25242.68
454.89	25025.01
455.07	25350.34
455.26	25727.17
455.44	26438.69
455.62	27145.53
455.81	27321.07
455.99	26616.57
456.17	26841.26
456.36	26714.87
456.54	27454.48
456.73	27583.21
456.91	28032.60
457.09	28093.45
457.28	28512.41
457.46	27262.56
457.64	26827.22
457.83	26345.07
458.01	25729.51
458.19	26567.42
458.38	26810.84
458.56	27747.05
458.74	27391.29
458.93	26972.33
459.11	27035.53
459.29	26693.81
459.48	26859.99
459.66	26345.07
459.84	27119.79
460.03	27461.51
460.21	27470.87
460.39	27978.76
460.57	28116.86
460.76	28264.31
460.94	28828.38
461.12	28533.47
461.31	27936.63
461.49	28156.64
461.67	28189.41
461.85	28964.13
462.04	29118.60
462.22	29214.57
462.40	29015.62
462.59	28840.08
462.77	29170.10
462.95	28533.47
463.13	28477.30
463.32	28217.50
463.50	27850.03
463.68	28336.87
463.86	28133.24
464.05	27651.09
464.23	27300.01
464.41	27096.38
464.59	26401.24
464.78	28088.77
464.96	27924.93
465.14	27377.25
465.32	28610.71
465.50	29067.11
465.69	29261.38
465.87	28718.37
466.05	27700.24
466.23	26525.29
466.41	26204.64
466.60	26768.71
466.78	27091.70
466.96	27559.81
467.14	27763.43
467.32	27779.82
467.51	28187.07
467.69	27056.59
467.87	27548.11
468.05	27566.83
468.23	28009.19
468.41	28198.77
468.60	27882.80
468.78	27946.00
468.96	27889.82
469.14	28570.92
469.32	28849.44
469.50	27405.33
469.69	27311.71
469.87	27089.36
470.05	27133.83
470.23	27236.81
470.41	27021.48
470.59	27475.55
470.77	28072.39
470.95	28144.94
471.14	28615.39
471.32	28936.04
471.50	30061.84
471.68	30155.46
471.86	30651.66
472.04	30761.66
472.22	30829.54
472.40	28989.88
472.58	28868.17
472.77	28273.67
472.95	29696.72
473.13	29963.54
473.31	29333.93
473.49	29443.94
473.67	29947.15
473.85	30204.61
474.03	30813.15
474.21	31161.89
474.39	31318.71
474.57	31828.95
474.75	31590.21
474.93	31409.99
475.12	30560.37
475.30	30764.00
475.48	30731.23
475.66	30969.97
475.84	30855.28
476.02	30632.93
476.20	30155.46
476.38	30838.90
476.56	31964.70
476.74	32102.79
476.92	32205.77
477.10	33156.03
477.28	33752.87
477.46	33635.84
477.64	34068.84
477.82	34216.29
478.00	34085.22
478.18	33701.37
478.36	33464.98
478.54	33390.08
478.72	34087.56
478.90	34717.17
479.08	35927.22
479.26	35892.12
479.44	35660.40
479.62	35159.53
479.80	35842.96
479.98	35957.65
480.16	36364.90
480.34	35845.30
480.52	36280.64
480.70	36479.59
480.88	36086.38
481.06	36886.84
481.24	37411.12
481.41	38068.81
481.59	39077.58
481.77	38157.75
481.95	37677.94
482.13	37734.12
482.31	37326.86
482.49	38480.75
482.67	38438.62
482.85	38557.99
483.03	39049.50
483.21	39688.46
483.39	39728.25
483.57	38710.12
483.74	38234.99
483.92	38810.76
484.10	39349.09
484.28	40053.59
484.46	39812.51
484.64	40416.37
484.82	39541.01
485.00	39295.25
485.18	38354.36
485.35	37652.20
485.53	34176.50
485.71	31566.81
485.89	31147.85
486.07	32678.56
486.25	35658.06
486.43	38319.25
486.61	38169.46
486.78	38642.24
486.96	38604.80
487.14	40168.27
487.32	41113.85
487.50	42529.87
487.68	43402.89
487.85	43531.62
488.03	43672.06
488.21	42983.94
488.39	42773.29
488.57	41717.71
488.75	41371.31
488.92	43009.68
489.10	45500.01
489.28	46443.25
489.46	47452.02
489.64	47264.78
489.81	47421.59
489.99	46490.06
490.17	47428.62
490.35	47648.63
490.53	46681.98
490.70	46588.36
490.88	46457.29
491.06	47964.60
491.24	47882.68
491.41	45989.19
491.59	44294.64
491.77	43426.30
491.95	44910.20
492.13	46136.64
492.30	47498.83
492.48	48626.97
492.66	49525.74
492.84	49104.44
493.01	48907.83
493.19	48397.60
493.37	48027.79
493.54	47304.57
493.72	48322.70
493.90	50047.68
494.08	50361.31
494.25	50969.85
494.43	51253.05
494.61	51739.88
494.79	51821.80
494.96	51103.26
495.14	50047.68
495.32	49422.75
495.49	48870.39
495.67	50368.33
495.85	51931.81
496.02	52140.11
496.20	51957.55
496.38	51421.57
496.55	51714.14
496.73	52083.94
496.91	52006.70
497.09	52594.18
497.26	53207.40
497.44	52364.81
497.62	51798.40
497.79	50941.76
497.97	49401.69
498.14	49666.17
498.32	51129.00
498.50	51964.57
498.67	52374.17
498.85	52135.43
499.03	52921.85
499.20	52853.98
499.38	53162.93
499.56	52575.45
499.73	52154.16
499.91	51489.45
500.08	51337.31
500.26	50169.38
500.44	50829.41
500.61	51973.94
500.79	51693.07
500.97	51002.61
501.14	50857.50
501.32	50688.98
501.49	50850.48
501.67	51196.88
501.84	51554.98
502.02	52041.81
502.20	52404.59
502.37	52516.94
502.55	52346.08
502.72	53366.55
502.90	53771.47
503.07	53322.08
503.25	52818.87
503.43	51885.00
503.60	50857.50
503.78	50347.26
503.95	50897.29
504.13	52617.58
504.30	53556.14
504.48	53127.82
504.65	53050.58
504.83	53015.47
505.01	53811.26
505.18	54127.23
505.36	54801.30
505.53	54719.38
505.71	54930.03
505.88	54993.23
506.06	54485.33
506.23	53879.13
506.41	53511.67
506.58	53687.21
506.76	53691.89
506.93	53572.52
507.11	53308.04
507.28	53759.76
507.46	53139.52
507.63	52435.02
507.81	52200.97
507.98	52853.98
508.16	53272.93
508.33	54042.97
508.50	54279.36
508.68	54541.50
508.85	55274.09
509.03	55309.20
509.20	55112.59
509.38	54199.79
509.55	53345.49
509.73	53478.90
509.90	53907.22
510.08	54370.64
510.25	54438.52
510.42	53989.14
510.60	54021.90
510.77	54557.89
510.95	54766.20
511.12	55128.98
511.30	55180.47
511.47	55604.11
511.64	55526.87
511.82	55124.30
511.99	54197.44
512.17	53848.71
512.34	53645.08
512.51	53668.48
512.69	53439.11
512.86	54167.02
513.04	54649.17
513.21	54223.19
513.38	54057.01
513.56	53652.10
513.73	52509.92
513.90	52992.07
514.08	53387.62
514.25	53535.07
514.43	53844.02
514.60	53748.06
514.77	54099.14
514.95	54258.30
515.12	54040.63
515.29	54368.30
515.47	54815.35
515.64	55042.38
515.81	54585.97
515.99	54031.27
516.16	52212.67
516.33	49406.37
516.51	47739.91
516.68	46791.99
516.85	45968.12
517.03	47007.32
517.20	50134.28
517.37	53109.10
517.54	53965.73
517.72	53303.36
517.89	50335.56
518.06	47901.40
518.24	48570.80
518.41	51384.12
518.58	52516.94
518.75	52680.78
518.93	52903.13
519.10	52877.38
519.27	53638.06
519.45	53715.29
519.62	54695.98
519.79	54621.08
519.96	54309.79
520.14	54134.25
520.31	53130.16
520.48	53043.56
520.65	53858.07
520.83	54810.67
521.00	54923.01
521.17	54394.05
521.34	54291.07
521.52	54632.78
521.69	55367.71
521.86	55496.44
522.03	55217.92
522.20	53724.66
522.38	52996.75
522.55	53001.43
522.72	53284.64
522.89	53411.02
523.07	53684.87
523.24	54347.24
523.41	55274.09
523.58	55498.78
523.75	55896.67
523.92	55714.11
524.10	55924.76
524.27	55512.83
524.44	55407.50
524.61	55398.14
524.78	54997.91
524.96	55044.72
525.13	55229.62
525.30	55320.90
525.47	55999.66
525.64	55789.01
525.81	54667.89
525.98	53303.36
526.16	51599.45
526.33	51065.81
526.50	50490.04
526.67	50370.67
526.84	51021.34
527.01	52119.05
527.18	52882.06
527.36	54204.47
527.53	54990.89
527.70	55517.51
527.87	54604.70
528.04	54518.10
528.21	54665.55
528.38	55454.31
528.55	56214.99
528.72	56128.39
528.89	56460.74
529.07	56203.28
529.24	55213.24
529.41	54665.55
529.58	53975.09
529.75	54328.52
529.92	54562.57
530.09	55260.05
530.26	55763.26
530.43	55952.85
530.60	56025.40
530.77	56142.43
530.94	56575.43
531.11	55966.89
531.28	55365.37
531.46	55442.61
531.63	55234.30
531.80	55107.91
531.97	54693.64
532.14	53773.81
532.31	52903.13
532.48	52069.90
532.65	52266.50
532.82	53296.34
532.99	54382.35
533.16	54911.31
533.33	55421.55
533.50	55140.68
533.67	54679.60
533.84	54120.21
534.01	54511.08
534.18	54265.32
534.35	54721.72
534.52	54546.18
534.69	55068.12
534.86	55086.85
535.03	55664.96
535.20	56051.15
535.37	56306.27
535.54	56416.27
535.71	55866.25
535.88	55475.38
536.05	54967.48
536.22	54504.06
536.38	54272.34
536.55	53778.49
536.72	53113.78
536.89	53083.35
537.06	54185.74
537.23	54915.99
537.40	55178.13
537.57	55440.27
537.74	54990.89
537.91	55065.78
538.08	54960.46
538.25	55000.25
538.42	55044.72
538.59	54976.84
538.75	53862.75
538.92	53932.96
539.09	53759.76
539.26	53883.81
539.43	53134.84
539.60	53811.26
539.77	53794.87
539.94	53659.12
540.11	52371.83
540.28	52086.28
540.44	52364.81
540.61	52575.45
540.78	52896.11
540.95	53188.67
541.12	53862.75
541.29	54136.59
541.46	54527.46
541.62	54447.88
541.79	54522.78
541.96	53558.48
542.13	53633.38
542.30	53853.39
542.47	54096.80
542.63	53600.61
542.80	53773.81
542.97	53811.26
543.14	53621.67
543.31	53565.50
543.48	54068.72
543.64	55213.24
543.81	55423.89
543.98	55042.38
544.15	54253.62
544.32	53963.39
544.48	53956.37
544.65	54230.21
544.82	54724.07
544.99	54185.74
545.16	53881.47
545.32	53844.02
545.49	54761.51
545.66	55051.74
545.83	54454.90
546.00	54267.66
546.16	53787.85
546.33	53797.21
546.50	54117.87
546.67	54555.55
546.83	54314.47
547.00	53956.37
547.17	53102.07
547.34	52657.37
547.50	52509.92
547.67	53160.59
547.84	52900.79
548.00	53621.67
548.17	54213.83
548.34	53963.39
548.51	53727.00
548.67	53993.82
548.84	54078.08
549.01	54028.93
549.18	54042.97
549.34	53848.71
549.51	53862.75
549.68	53675.51
549.84	53352.51
550.01	53254.21
550.18	53176.97
550.34	53415.71
550.51	53237.83
550.68	53593.59
550.84	53006.11
551.01	53272.93
551.18	53102.07
551.34	53301.02
551.51	53624.01
551.68	54124.89
551.84	54136.59
552.01	53834.66
552.18	53633.38
552.34	52619.92
552.51	52423.32
552.68	52383.53
552.84	52781.42
553.01	53219.10
553.18	53158.25
553.34	52954.62
553.51	53036.54
553.67	53591.25
553.84	53544.44
554.01	53371.24
554.17	53263.57
554.34	53516.35
554.51	53591.25
554.67	54059.35
554.84	53656.78
555.00	53389.96
555.17	53139.52
555.33	53106.76
555.50	53139.52
555.67	53191.01
555.83	52605.88
556.00	52502.90
556.16	52423.32
556.33	51995.00
556.50	52065.22
556.66	52128.41
556.83	51578.39
556.99	51882.66
557.16	51901.38
557.32	52320.34
557.49	52484.17
557.65	52514.60
557.82	52437.36
557.98	52264.16
558.15	51779.67
558.32	50962.82
558.48	49703.62
558.65	49925.97
558.81	50546.21
558.98	50728.77
559.14	51402.85
559.31	51217.94
559.47	51229.65
559.64	50621.11
559.80	50328.54
559.97	50480.67
560.13	50908.99
560.30	52219.69
560.46	52481.83
560.63	53031.86
560.79	52760.36
560.96	52348.42
561.12	50855.16
561.29	50185.77
561.45	50703.03
561.61	50972.19
561.78	51444.98
561.94	51210.92
562.11	51194.54
562.27	51187.52
562.44	51377.10
562.60	51987.98
562.77	51810.10
562.93	51711.80
563.10	51515.19
563.26	51037.72
563.42	51327.95
563.59	51084.53
563.75	51159.43
563.92	50791.97
564.08	50848.14
564.24	51007.29
564.41	51192.20
564.57	50899.63
564.74	50920.70
564.90	50794.31
565.07	50831.75
565.23	50117.89
565.39	49839.37
565.56	49148.91
565.72	48767.40
565.88	49612.34
566.05	49509.35
566.21	49745.75
566.38	50024.27
566.54	50312.16
566.70	50630.47
566.87	50904.31
567.03	50836.44
567.19	51323.27
567.36	50820.05
567.52	50492.38
567.68	50120.23
567.85	49193.38
568.01	49298.70
568.17	48437.39
568.34	48437.39
568.50	48762.72
568.66	48893.79
568.83	49394.67
568.99	49317.43
569.15	49563.18
569.32	49647.44
569.48	49148.91
569.64	49008.48
569.81	48371.85
569.97	48718.25
570.13	48465.47
570.30	47985.66
570.46	47360.74
570.62	46946.47
570.78	46780.29
570.95	47206.26
571.11	48013.75
571.27	48076.94
571.43	48615.27
571.60	48832.94
571.76	49193.38
571.92	49294.02
572.09	49015.50
572.25	49279.98
572.41	49338.49
572.57	49031.88
572.74	49212.10
572.90	48411.64
573.06	48388.24
573.22	48493.56
573.38	48725.27
573.55	48727.61
573.71	48718.25
573.87	48362.49
574.03	48673.78
574.20	48769.74
574.36	47995.03
574.52	47833.53
574.68	47330.31
574.84	47098.60
575.01	46796.67
575.17	46965.19
575.33	47327.97
575.49	47201.58
575.65	47576.07
575.82	47274.14
575.98	46586.02
576.14	47407.55
576.30	47571.39
576.46	47290.52
576.62	47433.30
576.79	47929.49
576.95	46983.91
577.11	47414.57
577.27	47016.68
577.43	47459.04
577.59	46817.74
577.75	46036.00
577.92	45783.22
578.08	45436.82
578.24	44928.92
578.40	45778.54
578.56	45834.71
578.72	45900.25
578.88	46452.61
579.04	46625.81
579.21	47028.38
579.37	46628.15
579.53	46724.11
579.69	46564.96
579.85	46913.70
580.01	46527.51
580.17	46127.28
580.33	45923.65
580.49	46108.55
580.65	46616.45
580.82	47014.34
580.98	46384.74
581.14	46586.02
581.30	46955.83
581.46	46490.06
581.62	47159.45
581.78	46719.43
581.94	47082.22
582.10	46911.36
582.26	47178.18
582.42	47386.49
582.58	47196.90
582.74	46724.11
582.90	46962.85
583.06	46667.94
583.22	47107.96
583.38	46436.23
583.54	46426.87
583.70	46298.14
583.86	46925.40
584.02	46944.12
584.18	46333.24
584.34	46541.55
584.50	46394.10
584.66	46012.59
584.82	45855.78
584.98	46115.58
585.14	45034.25
585.30	44456.14
