SpectraSuite Data File
++++++++++++++++++++++++++++++++++++
Date: Mon Oct 07 14:53:58 GMT-05:00 2013
User: price-jones
Dark Spectrum Present: No
Reference Spectrum Present: No
Number of Sampled Component Spectra: 1
Spectrometers: USB2+H05261
Integration Time (usec): 100000 (USB2+H05261)
Spectra Averaged: 1 (USB2+H05261)
Boxcar Smoothing: 0 (USB2+H05261)
Correct for Electrical Dark: No (USB2+H05261)
Strobe/Lamp Enabled: No (USB2+H05261)
Correct for Detector Non-linearity: No (USB2+H05261)
Correct for Stray Light: No (USB2+H05261)
Number of Pixels in Processed Spectrum: 2048
>>>>>Begin Processed Spectral Data<<<<<
365.73	0.00
365.92	0.00
366.12	0.00
366.32	0.00
366.52	0.00
366.72	0.00
366.91	0.00
367.11	0.00
367.31	0.00
367.51	0.00
367.70	0.00
367.90	0.00
368.10	0.00
368.30	0.00
368.49	0.00
368.69	0.00
368.89	0.00
369.09	0.00
369.28	0.00
369.48	0.00
369.68	0.00
369.87	0.00
370.07	0.00
370.27	0.00
370.47	800.46
370.66	3714.43
370.86	4339.35
371.06	4734.90
371.25	4809.80
371.45	4346.37
371.65	3934.44
371.84	3599.74
372.04	3815.07
372.24	4334.67
372.44	4608.51
372.63	4407.23
372.83	3988.27
373.03	3726.13
373.22	3344.63
373.42	3674.64
373.62	4002.32
373.81	4325.31
374.01	4348.72
374.21	4023.38
374.40	3653.58
374.60	3805.71
374.79	4205.94
374.99	5149.18
375.19	5357.49
375.38	5256.84
375.58	5083.64
375.78	4975.98
375.97	5139.82
376.17	5217.05
376.37	5163.22
376.56	5406.64
376.76	5788.14
376.95	6022.20
377.15	6347.53
377.35	6630.74
377.54	6916.28
377.74	7073.10
377.93	7126.93
378.13	6946.71
378.33	6684.57
378.52	6076.03
378.72	5750.70
378.91	5846.66
379.11	5661.76
379.31	5544.73
379.50	5327.06
379.70	5799.85
379.89	6326.47
380.09	6775.85
380.28	6984.16
380.48	7140.97
380.68	6956.07
380.87	6745.42
381.07	6406.05
381.26	5771.76
381.46	5399.62
381.65	5380.89
381.85	5284.93
382.04	4926.83
382.24	4671.71
382.43	4250.41
382.63	4203.60
382.83	4156.79
383.02	4304.25
383.22	4112.32
383.41	4278.50
383.61	4629.58
383.80	5055.56
384.00	5785.80
384.19	6473.92
384.39	6911.60
384.58	6794.58
384.78	6658.82
384.97	6822.66
385.17	6319.45
385.36	6111.14
385.56	5675.80
385.75	6033.90
385.95	6478.60
386.14	7030.97
386.34	7187.79
386.53	6796.92
386.72	6452.86
386.92	6532.44
387.11	6628.40
387.31	7187.79
387.50	6960.75
387.70	6642.44
387.89	6614.35
388.09	6733.72
388.28	6693.93
388.48	6855.43
388.67	7311.83
388.86	8023.36
389.06	8809.78
389.25	8952.55
389.45	9231.07
389.64	9022.77
389.84	9006.38
390.03	8830.84
390.22	8812.12
390.42	9179.58
390.61	9783.44
390.81	10403.68
391.00	10747.74
391.19	10438.79
391.39	10225.80
391.58	9476.83
391.78	9034.47
391.97	8769.99
392.16	8081.87
392.36	7548.23
392.55	6031.56
392.75	4566.39
392.94	4018.70
393.13	3742.52
393.33	4470.42
393.52	5860.70
393.71	7201.83
393.91	7810.37
394.10	8592.11
394.29	9465.13
394.49	10258.57
394.68	11073.07
394.88	10939.66
395.07	11433.52
395.26	11250.96
395.46	10862.43
395.65	10335.81
395.84	9018.08
396.04	7779.94
396.23	6169.65
396.42	5261.52
396.62	4950.23
396.81	5870.06
397.00	7363.33
397.19	9338.74
397.39	10981.79
397.58	12582.72
397.77	13561.06
397.97	13891.08
398.16	13951.93
398.35	14473.87
398.55	14766.44
398.74	15508.39
398.93	15932.03
399.12	15499.03
399.32	14949.00
399.51	15236.89
399.70	16175.44
399.90	16100.55
400.09	15992.88
400.28	15667.55
400.47	16046.71
400.67	17001.65
400.86	17582.10
401.05	16898.67
401.24	17453.37
401.44	17717.86
401.63	17603.17
401.82	17521.25
402.01	17736.58
402.21	18221.07
402.40	18146.17
402.59	17198.26
402.78	16772.28
402.97	16219.91
403.17	16645.89
403.36	17713.17
403.55	18239.79
403.74	19314.10
403.93	17940.21
404.13	16704.40
404.32	16460.99
404.51	16800.37
404.70	18574.49
404.89	18361.50
405.09	17820.84
405.28	17528.27
405.47	17584.44
405.66	17530.61
405.85	17312.94
406.05	16568.65
406.24	16730.15
406.43	17715.51
406.62	17977.65
406.81	18401.29
407.00	17652.32
407.20	17362.09
407.39	17184.21
407.58	17837.22
407.77	18951.32
407.96	19580.92
408.15	19442.83
408.34	19814.98
408.54	20479.69
408.73	20872.90
408.92	20439.90
409.11	19754.12
409.30	18782.80
409.49	17734.24
409.68	16362.69
409.87	16046.71
410.07	17006.33
410.26	18354.48
410.45	19318.78
410.64	19852.42
410.83	20390.75
411.02	21085.89
411.21	21940.18
411.40	21446.33
411.59	21818.47
411.78	21788.05
411.98	20952.48
412.17	21766.98
412.36	20938.43
412.55	21446.33
412.74	20919.71
412.93	20421.17
413.12	20402.45
413.31	22513.61
413.50	22705.54
413.69	23042.57
413.88	22412.97
414.07	21668.68
414.26	21795.07
414.45	22649.36
414.64	22986.40
414.83	22637.66
415.02	22314.67
415.22	22232.75
415.41	22939.59
415.60	23388.97
415.79	24374.34
415.98	25362.04
416.17	24971.18
416.36	24205.82
416.55	24032.62
416.74	23545.79
416.93	22340.41
417.12	22450.42
417.31	22974.70
417.50	23459.19
417.69	24058.37
417.88	23859.42
418.07	23587.92
418.26	23007.47
418.45	23515.36
418.64	24250.29
418.83	25280.13
419.02	24868.19
419.21	24938.41
419.39	23503.66
419.58	22384.88
419.77	22637.66
419.96	23515.36
420.15	25120.97
420.34	25694.40
420.53	26340.39
420.72	26691.47
420.91	26497.20
421.10	26003.35
421.29	25949.52
421.48	24826.06
421.67	26211.66
421.86	26085.27
422.05	24002.19
422.24	21287.17
422.43	21139.72
422.61	23653.45
422.80	25610.14
422.99	26017.40
423.18	24603.71
423.37	24135.60
423.56	24198.80
423.75	24294.76
423.94	24767.55
424.13	23681.54
424.32	24018.58
424.50	24044.32
424.69	23571.54
424.88	23917.93
425.07	23400.68
425.26	23304.71
425.45	23229.82
425.64	22867.03
425.83	22883.42
426.01	24393.06
426.20	24716.06
426.39	24627.12
426.58	23019.17
426.77	21067.16
426.96	20524.16
427.15	21326.96
427.33	22855.33
427.52	23707.29
427.71	24182.42
427.90	23531.75
428.09	23744.73
428.28	23047.26
428.46	22064.23
428.65	21844.22
428.84	22389.56
429.03	22663.41
429.22	21886.35
429.40	20540.54
429.59	18462.15
429.78	16339.28
429.97	16489.07
430.16	16297.15
430.34	16568.65
430.53	16641.21
430.72	16650.57
430.91	18869.40
431.10	22092.32
431.28	26352.09
431.47	28048.98
431.66	28222.18
431.85	26008.03
432.03	23761.12
432.22	22852.99
432.41	23480.25
432.60	26139.10
432.79	27126.81
432.97	28013.87
433.16	27295.33
433.35	24851.81
433.54	22588.51
433.72	21348.03
433.91	21729.53
434.10	24191.78
434.28	25762.28
434.47	27405.33
434.66	26799.13
434.85	26012.71
435.03	25905.05
435.22	27054.25
435.41	28613.05
435.59	28704.33
435.78	28954.77
435.97	29759.91
436.16	29729.48
436.34	29378.40
436.53	28835.40
436.72	29015.62
436.90	27047.23
437.09	27405.33
437.28	26707.85
437.46	27777.48
437.65	27630.02
437.84	25504.82
438.02	23428.76
438.21	23571.54
438.40	24498.39
438.58	27065.96
438.77	27110.43
438.96	27967.06
439.14	28709.01
439.33	29230.95
439.52	30492.50
439.70	29455.64
439.89	28641.14
440.08	27915.57
440.26	27749.39
440.45	28690.29
440.63	30792.09
440.82	32371.95
441.01	31667.45
441.19	31667.45
441.38	31889.80
441.57	32898.57
441.75	33219.22
441.94	33406.47
442.12	33790.31
442.31	34373.11
442.50	33593.71
442.68	33427.53
442.87	32868.14
443.05	33036.66
443.24	33186.46
443.43	33640.52
443.61	34232.68
443.80	35182.93
443.98	32882.19
444.17	33071.77
444.35	34686.74
444.54	35309.32
444.73	35260.17
444.91	33912.02
445.10	32481.95
445.28	30717.19
445.47	30895.07
445.65	30635.27
445.84	31374.88
446.02	32264.28
446.21	33027.30
446.39	33036.66
446.58	33310.50
446.77	33844.15
446.95	33860.53
447.14	35367.84
447.32	35992.76
447.51	35072.93
447.69	34022.03
447.88	33509.45
448.06	33345.61
448.25	34693.76
448.43	34899.73
448.62	34092.24
448.80	33916.70
448.99	34071.18
449.17	34244.38
449.36	34375.45
449.54	35587.85
449.73	36315.75
449.91	36907.91
450.10	37638.15
450.28	37977.53
450.46	37823.06
450.65	37759.86
450.83	37851.14
451.02	36559.17
451.20	36533.42
451.39	36608.32
451.57	36275.96
451.76	36453.84
451.94	36172.98
452.13	35325.71
452.31	33986.92
452.49	32034.91
452.68	32512.38
452.86	32549.83
453.05	32718.35
453.23	34345.02
453.42	34766.32
453.60	35482.52
453.78	36236.17
453.97	35608.91
454.15	35894.46
454.34	35065.91
454.52	34871.64
454.70	34410.56
454.89	35035.48
455.07	35557.42
455.26	35517.63
455.44	36921.95
455.62	36989.83
455.81	37797.31
455.99	36842.37
456.17	37097.49
456.36	36790.88
456.54	37904.98
456.73	38157.75
456.91	38597.77
457.09	38522.88
457.28	39309.30
457.46	38438.62
457.64	37783.27
457.83	36205.75
458.01	35599.55
458.19	36467.89
458.38	37024.93
458.56	38005.62
458.74	37923.70
458.93	37118.56
459.11	36957.06
459.29	36858.76
459.48	37193.45
459.66	36947.70
459.84	37177.07
460.03	37961.15
460.21	37649.86
460.39	38459.68
460.57	38792.04
460.76	39171.21
460.94	39529.31
461.12	38707.78
461.31	38983.96
461.49	38941.83
461.67	38574.37
461.85	39768.04
462.04	39407.60
462.22	40247.85
462.40	39931.88
462.59	39306.96
462.77	39459.09
462.95	39541.01
463.13	38902.04
463.32	39201.63
463.50	38623.52
463.68	38904.38
463.86	38494.79
464.05	37841.78
464.23	37691.99
464.41	36989.83
464.59	36615.34
464.78	38075.84
464.96	38436.28
465.14	37605.39
465.32	39065.88
465.50	39173.55
465.69	39817.19
465.87	39033.11
466.05	38302.87
466.23	36531.08
466.41	35299.96
466.60	36477.25
466.78	37181.75
466.96	37804.33
467.14	37869.87
467.32	38398.83
467.51	38560.33
467.69	37111.53
467.87	37413.46
468.05	38412.87
468.23	38054.77
468.41	38249.03
468.60	38234.99
468.78	38752.25
468.96	38038.39
469.14	38899.70
469.32	38890.34
469.50	37621.77
469.69	37469.64
469.87	37118.56
470.05	37277.71
470.23	36985.15
470.41	37268.35
470.59	37315.16
470.77	37792.63
470.95	38721.82
471.14	38962.90
471.32	38955.88
471.50	41099.81
471.68	41160.66
471.86	41273.01
472.04	41621.75
472.22	41961.12
472.40	39658.04
472.58	39388.88
472.77	38675.01
472.95	39866.34
473.13	40842.35
473.31	39063.54
473.49	39831.24
473.67	40982.78
473.85	41298.75
474.03	41942.40
474.21	41982.19
474.39	42300.50
474.57	42506.47
474.75	42602.43
474.93	42344.97
475.12	41483.66
475.30	41464.93
475.48	41352.58
475.66	42597.75
475.84	41743.45
476.02	41483.66
476.20	40458.50
476.38	41387.69
476.56	42810.74
476.74	42890.32
476.92	43667.37
477.10	43845.26
477.28	45291.71
477.46	45251.92
477.64	45736.41
477.82	45558.53
478.00	45670.87
478.18	45563.21
478.36	44776.79
478.54	44931.26
478.72	45184.04
478.90	46234.94
479.08	47419.25
479.26	47849.91
479.44	47569.05
479.62	47606.50
479.80	47452.02
479.98	47803.10
480.16	47852.25
480.34	47622.88
480.52	47875.66
480.70	48282.91
480.88	48268.87
481.06	48781.45
481.24	48516.96
481.41	49954.05
481.59	50253.64
481.77	50335.56
481.95	49516.37
482.13	49834.69
482.31	49446.16
482.49	50101.51
482.67	49900.22
482.85	49916.61
483.03	50761.54
483.21	50841.12
483.39	51016.66
483.57	50284.07
483.74	50337.90
483.92	50403.44
484.10	50513.44
484.28	51526.89
484.46	51690.73
484.64	51962.23
484.82	51100.92
485.00	50829.41
485.18	50024.27
485.35	48715.91
485.53	45806.62
485.71	42082.83
485.89	41287.05
486.07	43852.28
486.25	46967.53
486.43	49375.94
486.61	50138.96
486.78	49633.40
486.96	49729.36
487.14	51686.05
487.32	52184.58
487.50	52959.30
487.68	53502.31
487.85	54127.23
488.03	54227.87
488.21	53972.75
488.39	53441.45
488.57	52657.37
488.75	52123.73
488.92	53455.50
489.10	55292.82
489.28	56165.84
489.46	56793.10
489.64	56596.49
489.81	56802.46
489.99	56598.83
490.17	56505.21
490.35	56999.07
490.53	56493.51
490.70	56189.24
490.88	56041.79
491.06	57055.24
491.24	56765.01
491.41	56011.36
491.59	54541.50
491.77	53993.82
491.95	54836.41
492.13	55725.81
492.30	56816.50
492.48	57752.72
492.66	58007.84
492.84	58202.10
493.01	57944.64
493.19	57296.31
493.37	57176.95
493.54	56767.35
493.72	57343.12
493.90	58515.73
494.08	59072.78
494.25	59316.20
494.43	59164.06
494.61	59786.64
494.79	59856.86
494.96	59650.89
495.14	58962.78
495.32	58260.62
495.49	57832.30
495.67	58698.30
495.85	59653.23
496.02	60135.38
496.20	60151.77
496.38	59613.44
496.55	59456.63
496.73	60034.74
496.91	60116.66
497.09	60559.02
497.26	60760.31
497.44	60182.19
497.62	59798.35
497.79	59016.61
497.97	57825.28
498.14	58141.25
498.32	59128.95
498.50	59896.65
498.67	60329.65
498.85	60088.57
499.03	60495.83
499.20	60659.66
499.38	60605.83
499.56	60371.78
499.73	60111.98
499.91	59826.43
500.08	59234.28
500.26	58691.27
500.44	59135.98
500.61	59561.95
500.79	59461.31
500.97	59229.60
501.14	58937.03
501.32	58843.41
501.49	59016.61
501.67	59044.69
501.84	59686.00
502.02	59985.59
502.20	59943.46
502.37	60107.30
502.55	60203.26
502.72	60690.09
502.90	61242.46
503.07	60781.37
503.25	60589.45
503.43	59693.02
503.60	59145.34
503.78	58789.58
503.95	58922.99
504.13	60385.82
504.30	61099.68
504.48	60790.73
504.65	60381.14
504.83	60493.49
505.01	61123.09
505.18	61436.72
505.36	61832.27
505.53	62038.24
505.71	62096.75
505.88	62209.10
506.06	61642.69
506.23	61385.23
506.41	60867.97
506.58	61240.12
506.76	61167.56
506.93	61155.86
507.11	60921.80
507.28	60884.36
507.46	60521.57
507.63	60053.47
507.81	59728.13
507.98	60233.69
508.16	60809.46
508.33	61279.91
508.50	61523.32
508.68	61829.93
508.85	62192.72
509.03	62120.16
509.20	62113.14
509.38	61357.14
509.55	60788.39
509.73	60870.31
509.90	61336.08
510.08	61464.81
510.25	61354.80
510.42	61490.55
510.60	61209.69
510.77	61584.18
510.95	62042.92
511.12	62045.26
511.30	62445.49
511.47	62574.22
511.64	62440.81
511.82	62298.04
511.99	61593.54
512.17	61277.57
512.34	60821.16
512.51	60917.12
512.69	60917.12
512.86	61144.16
513.04	61677.80
513.21	61464.81
513.38	61137.13
513.56	60753.29
513.73	60076.87
513.90	60446.68
514.08	60385.82
514.25	60917.12
514.43	60999.04
514.60	61003.72
514.77	61354.80
514.95	61410.98
515.12	61193.31
515.29	61518.64
515.47	61846.32
515.64	61961.00
515.81	61682.48
515.99	61118.41
516.16	59810.05
516.33	57778.46
516.51	56184.56
516.68	55856.88
516.85	55433.25
517.03	55966.89
517.20	58078.05
517.37	60399.86
517.54	61331.40
517.72	60788.39
517.89	58567.23
518.06	56357.76
518.24	56612.88
518.41	58841.07
518.58	59749.20
518.75	60374.12
518.93	60224.32
519.10	60179.85
519.27	60577.75
519.45	60662.00
519.62	61535.02
519.79	61701.20
519.96	61420.34
520.14	61059.90
520.31	60385.82
520.48	60381.14
520.65	60701.79
520.83	61462.47
521.00	61813.55
521.17	61654.39
521.34	60996.70
521.52	61448.42
521.69	62038.24
521.86	62188.03
522.03	62136.54
522.20	60844.57
522.38	60147.09
522.55	59950.48
522.72	60540.30
522.89	60757.97
523.07	60821.16
523.24	61277.57
523.41	61858.02
523.58	62298.04
523.75	62461.88
523.92	62574.22
524.10	62410.38
524.27	62368.26
524.44	62199.74
524.61	62078.03
524.78	61855.68
524.96	61902.49
525.13	61879.08
525.30	62134.20
525.47	62405.70
525.64	62429.11
525.81	61771.42
525.98	60432.63
526.16	59121.93
526.33	58440.84
526.50	58382.32
526.67	57881.45
526.84	58309.77
527.01	59278.75
527.18	59962.18
527.36	60959.25
527.53	61815.89
527.70	61858.02
527.87	61389.91
528.04	61010.74
528.21	61396.93
528.38	62000.79
528.55	62623.37
528.72	62712.31
528.89	62911.26
529.07	62487.62
529.24	62038.24
529.41	61422.68
529.58	61069.26
529.75	61120.75
529.92	61478.85
530.09	61944.62
530.26	62216.12
530.43	62686.57
530.60	62539.11
530.77	62674.87
530.94	62979.14
531.11	62447.83
531.28	62066.33
531.46	61778.44
531.63	61986.75
531.80	61921.21
531.97	61537.36
532.14	60781.37
532.31	59936.44
532.48	59215.55
532.65	59386.41
532.82	60287.52
532.99	61268.20
533.16	61396.93
533.33	61911.85
533.50	61762.06
533.67	61410.98
533.84	60711.16
534.01	60989.68
534.18	61439.06
534.35	61483.53
534.52	61174.58
534.69	61450.77
534.86	61900.15
535.03	61829.93
535.20	62466.56
535.37	62719.34
535.54	62700.61
535.71	62335.49
535.88	62206.76
536.05	61401.61
536.22	61059.90
536.38	60879.67
536.55	60493.49
536.72	59978.57
536.89	59835.80
537.06	60750.94
537.23	61476.51
537.40	61502.26
537.57	61677.80
537.74	61345.44
537.91	61291.61
538.08	61389.91
538.25	61268.20
538.42	61621.62
538.59	61506.94
538.75	60846.91
538.92	60645.62
539.09	60390.50
539.26	60467.74
539.43	60257.09
539.60	60177.51
539.77	60348.37
539.94	60193.90
540.11	59639.19
540.28	59201.51
540.44	59049.38
540.61	59473.01
540.78	59618.13
540.95	59924.74
541.12	60301.56
541.29	60631.58
541.46	60947.55
541.62	60865.63
541.79	60577.75
541.96	60226.66
542.13	60264.11
542.30	60495.83
542.47	60676.05
542.63	60357.74
542.80	60144.75
542.97	60217.30
543.14	60144.75
543.31	60069.85
543.48	60598.81
543.64	61537.36
543.81	61668.44
543.98	61413.32
544.15	60849.25
544.32	60229.01
544.48	60364.76
544.65	60734.56
544.82	61099.68
544.99	60743.92
545.16	60488.80
545.32	60320.29
545.49	60846.91
545.66	61263.52
545.83	60746.26
546.00	60706.47
546.16	60413.91
546.33	60395.18
546.50	60552.00
546.67	60804.78
546.83	60467.74
547.00	60350.71
547.17	59777.28
547.34	59381.73
547.50	59161.72
547.67	59753.88
547.84	59643.87
548.00	60217.30
548.17	60608.17
548.34	60327.31
548.51	60238.37
548.67	60535.62
548.84	60315.61
549.01	60198.58
549.18	60521.57
549.34	60301.56
549.51	60238.37
549.68	60158.79
549.84	60065.17
550.01	60165.81
550.18	59639.19
550.34	59971.55
550.51	59934.10
550.68	59999.63
550.84	59508.12
551.01	59618.13
551.18	59412.16
551.34	59737.49
551.51	60383.48
551.68	60219.64
551.84	60416.25
552.01	60163.47
552.18	59959.84
552.34	59487.06
552.51	59068.10
552.68	58766.17
552.84	59306.83
553.01	59578.34
553.18	59388.75
553.34	59725.79
553.51	60020.70
553.67	60039.42
553.84	60285.18
554.01	59978.57
554.17	59711.75
554.34	59894.31
554.51	59903.67
554.67	60048.78
554.84	60025.38
555.00	59735.15
555.17	59496.42
555.33	59519.82
555.50	59655.57
555.67	59618.13
555.83	59255.34
556.00	59075.12
556.16	59255.34
556.33	58494.67
556.50	58382.32
556.66	58824.68
556.83	58431.47
556.99	58461.90
557.16	58637.44
557.32	58855.11
557.49	59145.34
557.65	58979.16
557.82	58827.02
557.98	58756.81
558.15	58375.30
558.32	57841.66
558.48	56968.64
558.65	57118.43
558.81	57619.31
558.98	57411.00
559.14	57890.81
559.31	57811.23
559.47	57888.47
559.64	57790.17
559.80	57432.07
559.97	57326.74
560.13	57558.45
560.30	58637.44
560.46	58967.46
560.63	59285.77
560.79	59236.62
560.96	58953.41
561.12	57946.98
561.29	57125.46
561.45	56970.98
561.61	57719.95
561.78	58005.50
561.94	57923.58
562.11	57743.36
562.27	57504.62
562.44	57755.06
562.60	58255.93
562.77	58623.40
562.93	58379.98
563.10	58253.59
563.26	57785.49
563.42	57715.27
563.59	57499.94
563.75	57698.89
563.92	57581.86
564.08	57588.88
564.24	57689.52
564.41	58007.84
564.57	57631.01
564.74	57623.99
564.90	57633.35
565.07	57382.91
565.23	57008.43
565.39	56622.24
565.56	56296.91
565.72	55924.76
565.88	56479.47
566.05	56346.06
566.21	56748.63
566.38	56884.38
566.54	56905.44
566.70	57268.23
566.87	57324.40
567.03	57642.71
567.19	57794.85
567.36	57244.82
567.52	57088.01
567.68	57153.54
567.85	56432.66
568.01	55983.27
568.17	56083.92
568.34	55807.73
568.50	55571.34
568.66	55849.86
568.83	56430.32
568.99	56364.78
569.15	56509.89
569.32	56341.38
569.48	56184.56
569.64	56151.79
569.81	55702.41
569.97	55578.36
570.13	55559.64
570.30	55054.08
570.46	55021.31
570.62	54396.39
570.78	54323.83
570.95	54525.12
571.11	55089.19
571.27	55269.41
571.43	55358.35
571.60	55917.74
571.76	56055.83
571.92	55945.83
572.09	56399.89
572.25	56313.29
572.41	56329.67
572.57	56119.02
572.74	56137.75
572.90	55831.14
573.06	55655.60
573.22	55943.48
573.38	55702.41
573.55	55847.52
573.71	55824.12
573.87	55807.73
574.03	55484.74
574.20	55545.59
574.36	55461.33
574.52	55409.84
574.68	55086.85
574.84	55056.42
575.01	54520.44
575.17	54110.85
575.33	54560.23
575.49	54852.80
575.65	54892.58
575.82	54501.71
575.98	54356.60
576.14	54674.91
576.30	54801.30
576.46	55157.06
576.62	54805.98
576.79	54934.71
576.95	54490.01
577.11	54464.27
577.27	54698.32
577.43	54651.51
577.59	54099.14
577.75	53897.86
577.92	53134.84
578.08	52741.63
578.24	53095.05
578.40	53436.77
578.56	53511.67
578.72	53719.98
578.88	53872.11
579.04	54085.10
579.21	54075.74
579.37	54152.97
579.53	54401.07
579.69	54162.34
579.85	54225.53
580.01	54148.29
580.17	53942.33
580.33	53652.10
580.49	53820.62
580.65	54092.12
580.82	54071.06
580.98	54204.47
581.14	53937.65
581.30	54157.66
581.46	53930.62
581.62	54422.14
581.78	54167.02
581.94	54405.75
582.10	54291.07
582.26	54216.17
582.42	54314.47
582.58	54134.25
582.74	54190.42
582.90	54490.01
583.06	54284.04
583.22	53937.65
583.38	53965.73
583.54	53628.69
583.70	53820.62
583.86	53989.14
584.02	53731.68
584.18	53918.92
584.34	53734.02
584.50	53722.32
584.66	53638.06
584.82	53137.18
584.98	53041.22
585.14	52879.72
