SpectraSuite Data File
++++++++++++++++++++++++++++++++++++
Date: Mon Oct 07 14:53:03 GMT-05:00 2013
User: price-jones
Dark Spectrum Present: No
Reference Spectrum Present: No
Number of Sampled Component Spectra: 1
Spectrometers: USB2+H05261
Integration Time (usec): 100000 (USB2+H05261)
Spectra Averaged: 1 (USB2+H05261)
Boxcar Smoothing: 0 (USB2+H05261)
Correct for Electrical Dark: No (USB2+H05261)
Strobe/Lamp Enabled: No (USB2+H05261)
Correct for Detector Non-linearity: No (USB2+H05261)
Correct for Stray Light: No (USB2+H05261)
Number of Pixels in Processed Spectrum: 2048
>>>>>Begin Processed Spectral Data<<<<<
365.73	0.00
365.92	0.00
366.12	0.00
366.32	0.00
366.52	0.00
366.72	0.00
366.91	0.00
367.11	0.00
367.31	0.00
367.51	0.00
367.70	0.00
367.90	0.00
368.10	0.00
368.30	0.00
368.49	0.00
368.69	0.00
368.89	0.00
369.09	0.00
369.28	0.00
369.48	0.00
369.68	0.00
369.87	0.00
370.07	0.00
370.27	0.00
370.47	456.40
370.66	2626.08
370.86	3112.91
371.06	3506.12
371.25	3456.97
371.45	3162.06
371.65	2668.21
371.84	2509.05
372.04	2642.46
372.24	2942.05
372.44	3148.02
372.63	3023.97
372.83	2942.05
373.03	2581.61
373.22	2326.49
373.42	2502.03
373.62	2928.01
373.81	3108.23
374.01	3208.87
374.21	2803.96
374.40	2452.88
374.60	2778.22
374.79	3023.97
374.99	3440.59
375.19	3843.16
375.38	3784.65
375.58	3508.46
375.78	3576.34
375.97	3527.19
376.17	3726.13
376.37	3735.50
376.56	3957.85
376.76	4063.17
376.95	4369.78
377.15	4557.02
377.35	4875.34
377.54	5219.39
377.74	5177.26
377.93	5048.54
378.13	4947.89
378.33	4739.58
378.52	4346.37
378.72	4126.36
378.91	4100.62
379.11	4039.76
379.31	3672.30
379.50	3754.22
379.70	4121.68
379.89	4613.20
380.09	4847.25
380.28	5118.75
380.48	5029.81
380.68	4950.23
380.87	4746.61
381.07	4372.12
381.26	4098.28
381.46	3894.65
381.65	3716.77
381.85	3562.30
382.04	3524.85
382.24	3220.58
382.43	3103.55
382.63	2946.73
382.83	2899.92
383.02	2967.80
383.22	2988.86
383.41	3052.06
383.61	3218.24
383.80	3796.35
384.00	4105.30
384.19	4786.40
384.39	4952.57
384.58	4957.25
384.78	4959.60
384.97	4681.07
385.17	4606.17
385.36	4252.75
385.56	4117.00
385.75	4133.39
385.95	4814.48
386.14	4966.62
386.34	5057.90
386.53	4814.48
386.72	4479.79
386.92	4561.70
387.11	4933.85
387.31	5109.39
387.50	5034.49
387.70	4823.84
387.89	4767.67
388.09	4856.61
388.28	4767.67
388.48	4786.40
388.67	5275.57
388.86	5736.65
389.06	6045.60
389.25	6619.04
389.45	6464.56
389.64	6649.46
389.84	6307.74
390.03	6469.24
390.22	6480.94
390.42	6736.06
390.61	7178.42
390.81	7508.44
391.00	7616.10
391.19	7651.21
391.39	7274.38
391.58	6881.18
391.78	6450.52
391.97	6399.02
392.16	5935.60
392.36	5430.04
392.55	4212.96
392.75	3515.48
392.94	2686.94
393.13	2822.69
393.33	3339.94
393.52	4168.49
393.71	5071.94
393.91	5959.00
394.10	6214.12
394.29	6794.58
394.49	7417.16
394.68	8102.93
394.88	7985.91
395.07	8205.92
395.26	8208.26
395.46	7967.18
395.65	7611.42
395.84	6691.59
396.04	5474.51
396.23	4334.67
396.42	3950.82
396.62	3599.74
396.81	4339.35
397.00	5561.11
397.19	6803.94
397.39	8074.85
397.58	9046.17
397.77	9666.41
397.97	9935.57
398.16	9912.17
398.35	10289.00
398.55	10759.44
398.74	11105.84
398.93	11417.13
399.12	11140.95
399.32	10686.89
399.51	11288.40
399.70	11901.62
399.90	11651.19
400.09	11445.22
400.28	11499.05
400.47	12072.48
400.67	12472.71
400.86	12503.14
401.05	12498.46
401.24	12730.17
401.44	12723.15
401.63	12737.20
401.82	13011.04
402.01	13146.79
402.21	13315.31
402.40	12982.95
402.59	12774.64
402.78	12236.32
402.97	11857.15
403.17	12430.59
403.36	12901.03
403.55	13371.48
403.74	13860.65
403.93	12968.91
404.13	12149.72
404.32	11913.33
404.51	12531.23
404.70	13462.76
404.89	13209.98
405.09	12896.35
405.28	12655.28
405.47	12657.62
405.66	12636.55
405.85	12493.78
406.05	12271.43
406.24	12009.29
406.43	12617.83
406.62	13125.72
406.81	13132.75
407.00	12765.28
407.20	12542.93
407.39	12528.89
407.58	13324.67
407.77	13839.59
407.96	14148.54
408.15	14277.27
408.34	14754.74
408.54	15066.03
408.73	14848.36
408.92	14768.78
409.11	14576.86
409.30	13626.60
409.49	12945.50
409.68	12224.62
409.87	11805.66
410.07	12807.41
410.26	13596.17
410.45	14324.08
410.64	14640.05
410.83	15131.56
411.02	15396.04
411.21	15943.73
411.40	15606.69
411.59	15899.26
411.78	15637.12
411.98	15688.61
412.17	16042.03
412.36	15630.10
412.55	15550.52
412.74	15389.02
412.93	14862.40
413.12	15351.57
413.31	16592.06
413.50	16496.10
413.69	17062.51
413.88	16152.04
414.07	15585.63
414.26	16142.67
414.45	16524.18
414.64	16713.77
414.83	16772.28
415.02	16580.36
415.22	16105.23
415.41	16863.56
415.60	17446.35
415.79	18167.24
415.98	18075.96
416.17	18450.44
416.36	17645.30
416.55	17774.03
416.74	17048.46
416.93	16409.50
417.12	16659.93
417.31	16758.24
417.50	17128.04
417.69	18017.44
417.88	17525.93
418.07	17392.52
418.26	17046.12
418.45	17308.26
418.64	17996.38
418.83	18546.40
419.02	18576.83
419.21	18157.88
419.39	17266.13
419.58	16706.74
419.77	16875.26
419.96	17532.95
420.15	18272.56
420.34	18890.46
420.53	19358.57
420.72	19939.02
420.91	19709.65
421.10	19171.33
421.29	18963.02
421.48	18625.98
421.67	19325.80
421.86	19211.12
422.05	17497.84
422.24	16042.03
422.43	15695.63
422.61	17429.97
422.80	18855.36
422.99	18988.77
423.18	17935.53
423.37	17708.49
423.56	17549.34
423.75	18176.60
423.94	18752.37
424.13	17504.87
424.32	17652.32
424.50	17549.34
424.69	17467.42
424.88	17614.87
425.07	17420.61
425.26	17441.67
425.45	17355.07
425.64	16940.80
425.83	17404.22
426.01	18047.87
426.20	18324.05
426.39	18015.10
426.58	17006.33
426.77	15559.88
426.96	14988.79
427.15	15777.55
427.33	17064.85
427.52	17715.51
427.71	17561.04
427.90	17607.85
428.09	17207.62
428.28	17106.98
428.46	16411.84
428.65	16350.98
428.84	16662.27
429.03	16982.93
429.22	16109.91
429.40	15021.56
429.59	13823.20
429.78	12243.34
429.97	12322.92
430.16	12407.18
430.34	12554.63
430.53	12538.25
430.72	12428.24
430.91	14111.09
431.10	16673.98
431.28	19414.74
431.47	21128.02
431.66	21188.87
431.85	19201.76
432.03	17628.92
432.22	16950.16
432.41	17832.54
432.60	19908.60
432.79	20421.17
432.97	21205.25
433.16	20266.70
433.35	18661.09
433.54	16737.17
433.72	15770.53
433.91	16381.41
434.10	18162.56
434.28	19381.98
434.47	20610.76
434.66	19868.81
434.85	19623.05
435.03	19714.33
435.22	20149.67
435.41	21142.06
435.59	21537.61
435.78	21713.15
435.97	22129.77
436.16	22272.54
436.34	21860.60
436.53	21284.83
436.72	21656.98
436.90	20215.21
437.09	19992.86
437.28	19791.57
437.46	20622.46
437.65	20547.56
437.84	19075.37
438.02	17626.57
438.21	17556.36
438.40	18593.22
438.58	20262.02
438.77	20823.75
438.96	20772.25
439.14	21685.06
439.33	22256.15
439.52	22565.10
439.70	22022.10
439.89	21542.29
440.08	21041.42
440.26	20868.22
440.45	21502.50
440.63	23129.17
440.82	24107.52
441.01	23899.21
441.19	23714.31
441.38	24224.54
441.57	25268.42
441.75	25298.85
441.94	25364.39
442.12	25401.83
442.31	25958.88
442.50	25778.66
442.68	25256.72
442.87	25202.89
443.05	24269.01
443.24	24971.18
443.43	25869.94
443.61	26434.01
443.80	26373.16
443.98	25083.52
444.17	25046.07
444.35	26363.79
444.54	26979.36
444.73	26616.57
444.91	25542.27
445.10	24198.80
445.28	23515.36
445.47	22993.42
445.65	23000.44
445.84	23807.93
446.02	25088.20
446.21	24975.86
446.39	24992.24
446.58	25647.59
446.77	25984.63
446.95	25935.48
447.14	26909.14
447.32	27487.25
447.51	26813.18
447.69	25738.87
447.88	25057.78
448.06	25495.46
448.25	26527.63
448.43	26541.68
448.62	25830.15
448.80	25851.22
448.99	25813.77
449.17	26078.25
449.36	26256.13
449.54	27264.90
449.73	27599.60
449.91	28407.08
450.10	28826.04
450.28	29097.54
450.46	28603.69
450.65	29090.52
450.83	28528.79
451.02	28121.54
451.20	28030.26
451.39	28016.21
451.57	27974.08
451.76	28034.94
451.94	27578.53
452.13	27110.43
452.31	25958.88
452.49	24339.23
452.68	24936.07
452.86	24954.79
453.05	25504.82
453.23	26471.46
453.42	26600.19
453.60	27456.82
453.78	27920.25
453.97	27356.18
454.15	27316.39
454.34	26684.45
454.52	27180.64
454.70	26405.92
454.89	26787.43
455.07	26841.26
455.26	27337.46
455.44	28257.29
455.62	29024.98
455.81	28877.53
455.99	28699.65
456.17	28334.53
456.36	28610.71
456.54	29310.53
456.73	29261.38
456.91	29411.17
457.09	29766.93
457.28	30347.39
457.46	29062.43
457.64	28865.83
457.83	28107.49
458.01	27702.58
458.19	28119.20
458.38	28390.70
458.56	29259.04
458.74	29411.17
458.93	28807.31
459.11	28533.47
459.29	28484.32
459.48	28753.48
459.66	28570.92
459.84	28662.20
460.03	29092.86
460.21	29394.79
460.39	29799.70
460.57	29942.47
460.76	30139.08
460.94	30471.43
461.12	29804.38
461.31	29942.47
461.49	29862.90
461.67	29788.00
461.85	30714.85
462.04	30754.64
462.22	31063.59
462.40	30635.27
462.59	30211.64
462.77	30455.05
462.95	30691.44
463.13	29872.26
463.32	30331.00
463.50	29834.81
463.68	29788.00
463.86	29766.93
464.05	29350.32
464.23	28861.15
464.41	28957.11
464.59	28287.71
464.78	29773.95
464.96	29504.79
465.14	29469.69
465.32	29942.47
465.50	30934.86
465.69	31358.50
465.87	30473.78
466.05	29488.41
466.23	28299.42
466.41	27779.82
466.60	28769.86
466.78	28470.28
466.96	29113.92
467.14	29558.63
467.32	29968.22
467.51	30129.72
467.69	28606.03
467.87	29048.39
468.05	29813.74
468.23	29776.30
468.41	29656.93
468.60	29804.38
468.78	30436.33
468.96	29476.71
469.14	30148.44
469.32	30113.33
469.50	29142.01
469.69	29186.48
469.87	29071.79
470.05	28704.33
470.23	28819.02
470.41	28847.10
470.59	29469.69
470.77	29359.68
470.95	30045.46
471.14	30525.27
471.32	30183.55
471.50	32226.84
471.68	32140.24
471.86	32687.92
472.04	32596.64
472.22	32903.25
472.40	31119.76
472.58	30955.93
472.77	30808.47
472.95	31108.06
473.13	31772.77
473.31	31180.62
473.49	31449.78
473.67	31782.13
473.85	32292.37
474.03	32875.16
474.21	32643.45
474.39	33280.08
474.57	33715.42
474.75	33628.82
474.93	33450.94
475.12	32053.64
475.30	32540.47
475.48	32765.16
475.66	33216.88
475.84	32428.12
476.02	32772.18
476.20	31852.35
476.38	32694.94
476.56	33773.93
476.74	34141.39
476.92	34452.69
477.10	35140.80
477.28	35571.46
477.46	36058.29
477.64	36133.19
477.82	35929.56
478.00	36531.08
478.18	36121.49
478.36	35426.35
478.54	35639.34
478.72	36224.47
478.90	36730.03
479.08	37982.21
479.26	38291.16
479.44	38410.53
479.62	37759.86
479.80	38022.00
479.98	37860.51
480.16	38307.55
480.34	38359.04
480.52	38445.64
480.70	38583.73
480.88	38726.50
481.06	39695.49
481.24	39573.78
481.41	40734.68
481.59	40657.45
481.77	40975.76
481.95	39997.41
482.13	40257.21
482.31	40392.97
482.49	40879.80
482.67	40350.84
482.85	41134.92
483.03	41661.54
483.21	41762.18
483.39	42073.47
483.57	41258.96
483.74	40734.68
483.92	41050.66
484.10	41371.31
484.28	42302.84
484.46	42665.63
484.64	43201.61
484.82	42279.44
485.00	41687.28
485.18	40903.20
485.35	39852.30
485.53	36793.22
485.71	33333.91
485.89	33315.19
486.07	34712.49
486.25	38267.76
486.43	40676.17
486.61	40903.20
486.78	40821.28
486.96	41240.24
487.14	43030.75
487.32	43627.59
487.50	44346.13
487.68	45619.38
487.85	46190.47
488.03	46066.42
488.21	45352.56
488.39	44762.75
488.57	43814.83
488.75	43807.81
488.92	45282.34
489.10	47503.51
489.28	49296.36
489.46	50073.42
489.64	49429.77
489.81	49741.06
489.99	49518.71
490.17	49198.06
490.35	49975.12
490.53	49109.12
490.70	48793.15
490.88	48919.54
491.06	50124.91
491.24	49773.83
491.41	48563.78
491.59	46904.34
491.77	45460.23
491.95	47239.03
492.13	48477.18
492.30	50014.91
492.48	50916.01
492.66	51433.27
492.84	51681.37
493.01	51201.56
493.19	50569.61
493.37	50373.01
493.54	50190.45
493.72	50806.01
493.90	51812.44
494.08	52449.06
494.25	53141.86
494.43	53027.18
494.61	53593.59
494.79	53715.29
494.96	53455.50
495.14	52552.05
495.32	51674.35
495.49	51117.30
495.67	52416.30
495.85	54110.85
496.02	54216.17
496.20	53991.48
496.38	53506.99
496.55	53207.40
496.73	53855.73
496.91	53975.09
497.09	54548.53
497.26	54892.58
497.44	54096.80
497.62	53698.91
497.79	52973.34
497.97	51473.06
498.14	51604.13
498.32	53221.44
498.50	54064.03
498.67	54635.13
498.85	54323.83
499.03	54443.20
499.20	54972.16
499.38	54787.26
499.56	54440.86
499.73	54007.86
499.91	53811.26
500.08	53230.80
500.26	52268.84
500.44	53123.14
500.61	53670.82
500.79	53616.99
500.97	52928.87
501.14	52938.24
501.32	52872.70
501.49	53010.79
501.67	53127.82
501.84	53708.27
502.02	54047.65
502.20	54511.08
502.37	54260.64
502.55	54419.80
502.72	55138.34
502.90	55442.61
503.07	55185.15
503.25	54543.84
503.43	53738.70
503.60	52971.00
503.78	52472.47
503.95	53027.18
504.13	54829.39
504.30	55168.77
504.48	55194.51
504.65	54595.34
504.83	54693.64
505.01	55655.60
505.18	56097.96
505.36	56317.97
505.53	56423.29
505.71	56718.20
505.88	56736.93
506.06	56168.18
506.23	55770.28
506.41	55334.95
506.58	55730.50
506.76	55725.81
506.93	55566.66
507.11	55435.59
507.28	55592.40
507.46	55068.12
507.63	54499.37
507.81	54220.85
507.98	54277.02
508.16	55398.14
508.33	55721.13
508.50	56222.01
508.68	56357.76
508.85	56818.84
509.03	56746.29
509.20	56619.90
509.38	55987.95
509.55	55269.41
509.73	55241.32
509.90	55884.97
510.08	56268.82
510.25	56126.05
510.42	55826.46
510.60	56013.70
510.77	56238.39
510.95	56704.16
511.12	56556.70
511.30	56987.36
511.47	57434.41
511.64	57275.25
511.82	56938.21
511.99	56200.94
512.17	55742.20
512.34	55365.37
512.51	55348.99
512.69	55711.77
512.86	55906.04
513.04	56296.91
513.21	56341.38
513.38	55793.69
513.56	55334.95
513.73	54761.51
513.90	55182.81
514.08	55196.85
514.25	55133.66
514.43	55440.27
514.60	55641.56
514.77	55798.37
514.95	55966.89
515.12	55763.26
515.29	56067.53
515.47	56528.62
515.64	56765.01
515.81	56353.08
515.99	55756.24
516.16	54178.72
516.33	51601.79
516.51	50003.20
516.68	49099.76
516.85	48376.53
517.03	49565.52
517.20	52404.59
517.37	54850.45
517.54	55884.97
517.72	55091.53
517.89	52638.65
518.06	50326.20
518.24	50775.58
518.41	53006.11
518.58	54440.86
518.75	54569.59
518.93	54721.72
519.10	54941.74
519.27	55407.50
519.45	55466.02
519.62	56144.77
519.79	56828.21
519.96	56076.90
520.14	55938.80
520.31	55021.31
520.48	54869.18
520.65	55374.73
520.83	56563.73
521.00	56774.37
521.17	56378.82
521.34	55791.35
521.52	56491.17
521.69	56947.57
521.86	57380.57
522.03	56722.88
522.20	55526.87
522.38	54520.44
522.55	54979.18
522.72	55419.20
522.89	55508.14
523.07	55847.52
523.24	56214.99
523.41	57155.88
523.58	57146.52
523.75	57755.06
523.92	57434.41
524.10	57532.71
524.27	57495.26
524.44	57226.10
524.61	57223.76
524.78	56765.01
524.96	56924.17
525.13	56825.87
525.30	57013.11
525.47	57502.28
525.64	57619.31
525.81	56573.09
525.98	55231.96
526.16	53684.87
526.33	53331.45
526.50	52439.70
526.67	51903.72
526.84	52851.64
527.01	53890.83
527.18	55147.70
527.36	55966.89
527.53	56512.23
527.70	56970.98
527.87	56315.63
528.04	55903.70
528.21	56470.11
528.38	57036.51
528.55	57670.80
528.72	58089.76
528.89	58071.03
529.07	57848.68
529.24	57109.07
529.41	56453.72
529.58	55917.74
529.75	56100.30
529.92	56378.82
530.09	57305.68
530.26	57464.83
530.43	57656.76
530.60	57848.68
530.77	58080.39
530.94	58244.23
531.11	57434.41
531.28	57338.44
531.46	56966.30
531.63	57284.61
531.80	57097.37
531.97	56563.73
532.14	55969.23
532.31	54695.98
532.48	54234.89
532.65	54162.34
532.82	55414.52
532.99	56137.75
533.16	56559.05
533.33	57347.81
533.50	56926.51
533.67	56521.60
533.84	56076.90
534.01	56301.59
534.18	56310.95
534.35	56643.30
534.52	56381.16
534.69	56626.92
534.86	56839.91
535.03	57272.91
535.20	57668.46
535.37	58152.95
535.54	57949.32
535.71	57719.95
535.88	57425.04
536.05	56622.24
536.22	56479.47
536.38	55849.86
536.55	55466.02
536.72	55096.21
536.89	55154.72
537.06	55945.83
537.23	56926.51
537.40	56933.53
537.57	56954.60
537.74	56680.75
537.91	56704.16
538.08	56615.22
538.25	56746.29
538.42	56994.39
538.59	56701.82
538.75	56200.94
538.92	55884.97
539.09	55690.71
539.26	55533.89
539.43	55444.95
539.60	55531.55
539.77	55545.59
539.94	55278.77
540.11	54703.00
540.28	54145.95
540.44	54171.70
540.61	54740.45
540.78	54923.01
540.95	55477.72
541.12	55627.51
541.29	55826.46
541.46	56243.07
541.62	56217.33
541.79	56055.83
541.96	55529.21
542.13	55639.22
542.30	55655.60
542.47	55777.31
542.63	55756.24
542.80	55274.09
542.97	55601.77
543.14	55388.78
543.31	55346.65
543.48	56114.34
543.64	56617.56
543.81	57078.64
543.98	57066.94
544.15	56074.55
544.32	55655.60
544.48	55676.66
544.65	56374.14
544.82	56484.15
544.99	56182.22
545.16	55648.58
545.32	55473.04
545.49	56554.36
545.66	56844.59
545.83	56207.97
546.00	55889.65
546.16	55370.05
546.33	55763.26
546.50	55751.56
546.67	56252.44
546.83	55849.86
547.00	55597.09
547.17	55107.91
547.34	54518.10
547.50	54543.84
547.67	54944.08
547.84	55023.65
548.00	55744.54
548.17	55964.55
548.34	55561.98
548.51	55559.64
548.67	55781.99
548.84	55934.12
549.01	55770.28
549.18	55482.40
549.34	55819.44
549.51	55807.73
549.68	55667.30
549.84	55243.66
550.01	55154.72
550.18	55395.80
550.34	55414.52
550.51	55393.46
550.68	55484.74
550.84	54890.24
551.01	54869.18
551.18	55187.49
551.34	55180.47
551.51	55657.94
551.68	55896.67
551.84	55730.50
552.01	55627.51
552.18	55407.50
552.34	54525.12
552.51	54426.82
552.68	54253.62
552.84	54688.96
553.01	55011.95
553.18	55044.72
553.34	55103.23
553.51	54983.86
553.67	55288.13
553.84	55884.97
554.01	55236.64
554.17	55131.32
554.34	55318.56
554.51	55501.12
554.67	55870.93
554.84	55529.21
555.00	55341.97
555.17	55213.24
555.33	55107.91
555.50	54955.78
555.67	54822.37
555.83	54805.98
556.00	54635.13
556.16	54356.60
556.33	54108.50
556.50	53846.36
556.66	54071.06
556.83	53684.87
556.99	54052.33
557.16	53731.68
557.32	54459.58
557.49	54564.91
557.65	54475.97
557.82	54281.70
557.98	54197.44
558.15	53839.34
558.32	53024.84
558.48	51948.19
558.65	52423.32
558.81	52863.34
558.98	53113.78
559.14	53242.51
559.31	53375.92
559.47	53467.20
559.64	53036.54
559.80	52528.64
559.97	52713.55
560.13	53284.64
560.30	54010.20
560.46	54557.89
560.63	54845.77
560.79	54813.01
560.96	54450.22
561.12	53249.53
561.29	52243.10
561.45	52559.07
561.61	53160.59
561.78	53502.31
561.94	53460.18
562.11	53223.78
562.27	53123.14
562.44	53776.15
562.60	53890.83
562.77	53883.81
562.93	53893.18
563.10	53488.26
563.26	53141.86
563.42	53052.92
563.59	53284.64
563.75	53268.25
563.92	53270.59
564.08	52940.58
564.24	53411.02
564.41	53495.28
564.57	53183.99
564.74	53052.92
564.90	52910.15
565.07	52910.15
565.23	52411.62
565.39	51660.30
565.56	51601.79
565.72	51138.36
565.88	51760.95
566.05	51714.14
566.21	51882.66
566.38	52044.15
566.54	52308.63
566.70	52542.69
566.87	53006.11
567.03	53059.94
567.19	53310.38
567.36	52760.36
567.52	52750.99
567.68	52339.06
567.85	51868.61
568.01	51454.34
568.17	50754.52
568.34	50953.46
568.50	51267.09
568.66	51061.13
568.83	51463.70
568.99	51751.59
569.15	51950.53
569.32	51814.78
569.48	51407.53
569.64	51058.79
569.81	50782.60
569.97	50880.91
570.13	50454.93
570.30	50099.17
570.46	49525.74
570.62	48898.47
570.78	48863.36
570.95	49581.91
571.11	50265.34
571.27	50649.19
571.43	50864.52
571.60	50901.97
571.76	51257.73
571.92	51402.85
572.09	51461.36
572.25	51693.07
572.41	51657.96
572.57	51660.30
572.74	51278.80
572.90	51143.05
573.06	50911.33
573.22	51208.58
573.38	51075.17
573.55	50955.80
573.71	51250.71
573.87	51016.66
574.03	50892.61
574.20	50920.70
574.36	50487.70
574.52	50630.47
574.68	49783.19
574.84	49584.25
575.01	49125.50
575.17	49235.51
575.33	49574.89
575.49	50047.68
575.65	50246.62
575.82	49717.66
575.98	49476.58
576.14	49727.02
576.30	50188.11
576.46	50387.05
576.62	50396.42
576.79	50153.00
576.95	49738.72
577.11	49776.17
577.27	50148.32
577.43	49785.54
577.59	49425.09
577.75	49090.40
577.92	48311.00
578.08	47983.32
578.24	48039.50
578.40	48416.32
578.56	48608.25
578.72	48449.09
578.88	49015.50
579.04	48751.02
579.21	48914.86
579.37	49371.26
579.53	49209.76
579.69	49366.58
579.85	49598.29
580.01	49633.40
580.17	48809.53
580.33	48428.02
580.49	48914.86
580.65	49499.99
580.82	49020.18
580.98	49249.55
581.14	49308.07
581.30	49406.37
581.46	48849.32
581.62	49483.61
581.78	49666.17
581.94	49272.96
582.10	49448.50
582.26	49649.78
582.42	49738.72
582.58	49516.37
582.74	49591.27
582.90	49940.01
583.06	49537.44
583.22	49352.54
583.38	49059.97
583.54	49001.46
583.70	49155.93
583.86	49059.97
584.02	48982.73
584.18	48821.23
584.34	48774.42
584.50	48683.14
584.66	49050.61
584.82	48172.91
584.98	48488.88
585.14	47695.44
585.30	46841.14
