SpectraSuite Data File
++++++++++++++++++++++++++++++++++++
Date: Mon Oct 07 14:53:49 GMT-05:00 2013
User: price-jones
Dark Spectrum Present: No
Reference Spectrum Present: No
Number of Sampled Component Spectra: 1
Spectrometers: USB2+H05261
Integration Time (usec): 100000 (USB2+H05261)
Spectra Averaged: 1 (USB2+H05261)
Boxcar Smoothing: 0 (USB2+H05261)
Correct for Electrical Dark: No (USB2+H05261)
Strobe/Lamp Enabled: No (USB2+H05261)
Correct for Detector Non-linearity: No (USB2+H05261)
Correct for Stray Light: No (USB2+H05261)
Number of Pixels in Processed Spectrum: 2048
>>>>>Begin Processed Spectral Data<<<<<
365.73	0.00
365.92	0.00
366.12	0.00
366.32	0.00
366.52	0.00
366.72	0.00
366.91	0.00
367.11	0.00
367.31	0.00
367.51	0.00
367.70	0.00
367.90	0.00
368.10	0.00
368.30	0.00
368.49	0.00
368.69	0.00
368.89	0.00
369.09	0.00
369.28	0.00
369.48	0.00
369.68	0.00
369.87	0.00
370.07	0.00
370.27	0.00
370.47	514.92
370.66	2799.28
370.86	3265.05
371.06	3620.81
371.25	3644.21
371.45	3323.56
371.65	3023.97
371.84	2593.31
372.04	2902.26
372.24	3199.51
372.44	3400.80
372.63	3260.37
372.83	3045.04
373.03	2967.80
373.22	2523.10
373.42	2616.72
373.62	3227.60
373.81	3321.22
374.01	3314.20
374.21	3068.44
374.40	2759.49
374.60	2911.63
374.79	3316.54
374.99	3826.78
375.19	4194.24
375.38	4241.05
375.58	3976.57
375.78	3826.78
375.97	4053.81
376.17	4028.06
376.37	3934.44
376.56	4117.00
376.76	4358.08
376.95	4727.88
377.15	4926.83
377.35	5046.20
377.54	5252.16
377.74	5511.96
377.93	5612.60
378.13	5500.26
378.33	5078.96
378.52	4741.93
378.72	4395.53
378.91	4430.63
379.11	4299.56
379.31	4297.22
379.50	3962.53
379.70	4479.79
379.89	5008.75
380.09	5371.53
380.28	5296.63
380.48	5448.77
380.68	5172.58
380.87	5195.99
381.07	4676.39
381.26	4617.88
381.46	4229.35
381.65	3978.91
381.85	3904.01
382.04	3693.37
382.24	3566.98
382.43	3328.24
382.63	3234.62
382.83	3260.37
383.02	3375.05
383.22	3316.54
383.41	3236.96
383.61	3606.77
383.80	4028.06
384.00	4512.55
384.19	5146.84
384.39	5198.33
384.58	5322.38
384.78	5224.08
384.97	5233.44
385.17	5121.09
385.36	4725.54
385.56	4514.89
385.75	4559.36
385.95	5165.56
386.14	5416.00
386.34	5614.95
386.53	5465.15
386.72	4999.38
386.92	5111.73
387.11	5214.71
387.31	5518.98
387.50	5479.19
387.70	5116.41
387.89	5212.37
388.09	5315.36
388.28	5298.97
388.48	5322.38
388.67	5696.86
388.86	6249.23
389.06	6640.10
389.25	7124.59
389.45	7126.93
389.64	7185.44
389.84	6979.48
390.03	6970.12
390.22	6803.94
390.42	7103.53
390.61	7463.97
390.81	7941.44
391.00	8318.26
391.19	8351.03
391.39	7985.91
391.58	7515.46
391.78	7016.93
391.97	6850.75
392.16	6223.48
392.36	5827.93
392.55	4692.77
392.75	3735.50
392.94	3192.49
393.13	3045.04
393.33	3508.46
393.52	4500.85
393.71	5575.16
393.91	6258.59
394.10	6703.29
394.29	7407.80
394.49	7964.84
394.68	8681.05
394.88	8615.51
395.07	9102.34
395.26	8992.34
395.46	8688.07
395.65	8266.77
395.84	7396.09
396.04	6157.95
396.23	4964.28
396.42	4177.86
396.62	3927.42
396.81	4793.42
397.00	5977.73
397.19	7410.14
397.39	8807.44
397.58	9804.50
397.77	10387.30
397.97	10888.17
398.16	10843.70
398.35	11190.10
398.55	11522.46
398.74	12250.36
398.93	12519.53
399.12	12170.79
399.32	11868.86
399.51	12070.14
399.70	13027.42
399.90	12566.34
400.09	12865.92
400.28	12601.44
400.47	12903.37
400.67	13362.12
400.86	13575.11
401.05	13816.18
401.24	13830.23
401.44	13949.59
401.63	14052.58
401.82	14167.26
402.01	14113.43
402.21	14277.27
402.40	14310.04
402.59	13872.36
402.78	13406.59
402.97	12922.10
403.17	13427.65
403.36	14139.18
403.55	14743.03
403.74	15009.86
403.93	14478.55
404.13	13004.02
404.32	13027.42
404.51	13565.74
404.70	14675.16
404.89	14635.37
405.09	14239.82
405.28	13802.14
405.47	13645.32
405.66	13680.43
405.85	13476.80
406.05	13343.39
406.24	13202.96
406.43	13860.65
406.62	14487.92
406.81	14698.56
407.00	13987.04
407.20	13727.24
407.39	14005.77
407.58	14490.26
407.77	14972.41
407.96	15562.22
408.15	15616.05
408.34	15744.78
408.54	16446.94
408.73	16624.83
408.92	16128.63
409.11	15733.08
409.30	15042.62
409.49	14087.68
409.68	13111.68
409.87	12608.47
410.07	13605.53
410.26	14661.12
410.45	15974.16
410.64	16215.23
410.83	16568.65
411.02	17018.04
411.21	17572.74
411.40	17261.45
411.59	17411.25
411.78	17263.79
411.98	17245.07
412.17	17261.45
412.36	16901.01
412.55	17221.66
412.74	16809.73
412.93	16376.73
413.12	16573.33
413.31	17813.82
413.50	18204.69
413.69	18583.85
413.88	17570.40
414.07	17207.62
414.26	17671.04
414.45	18033.83
414.64	18080.64
414.83	18157.88
415.02	18012.76
415.22	17696.79
415.41	18249.16
415.60	18787.48
415.79	19660.50
415.98	20102.86
416.17	20306.49
416.36	19749.44
416.55	19527.09
416.74	18565.13
416.93	17994.04
417.12	18085.32
417.31	18253.84
417.50	18501.93
417.69	19541.13
417.88	19190.05
418.07	18740.67
418.26	18682.16
418.45	19112.81
418.64	19414.74
418.83	20379.04
419.02	20091.16
419.21	19932.00
419.39	18836.63
419.58	18059.57
419.77	18050.21
419.96	19143.24
420.15	19885.19
420.34	20493.73
420.53	21275.47
420.72	21654.64
420.91	21394.84
421.10	21006.31
421.29	21125.68
421.48	20194.14
421.67	21647.61
421.86	20814.38
422.05	19557.52
422.24	17582.10
422.43	17057.82
422.61	18635.35
422.80	20252.66
422.99	20507.77
423.18	19814.98
423.37	19337.51
423.56	19503.68
423.75	19616.03
423.94	20037.33
424.13	19307.08
424.32	19243.88
424.50	19335.17
424.69	19122.18
424.88	19400.70
425.07	18972.38
425.26	19419.42
425.45	18743.01
425.64	18345.12
425.83	18167.24
426.01	19686.25
426.20	19946.05
426.39	19955.41
426.58	18544.06
426.77	16886.97
426.96	16706.74
427.15	16854.20
427.33	18625.98
427.52	19208.78
427.71	19379.64
427.90	19192.39
428.09	18867.06
428.28	18473.85
428.46	17937.87
428.65	17855.95
428.84	17898.08
429.03	18457.46
429.22	17486.14
429.40	16395.45
429.59	14904.53
429.78	13202.96
429.97	13158.49
430.16	13432.33
430.34	13296.58
430.53	13572.77
430.72	13572.77
430.91	15105.82
431.10	17813.82
431.28	20980.56
431.47	22852.99
431.66	23035.55
431.85	21092.91
432.03	19499.00
432.22	18506.62
432.41	19145.58
432.60	21193.55
432.79	22401.27
432.97	22726.60
433.16	22106.36
433.35	20343.94
433.54	18160.22
433.72	17336.35
433.91	17441.67
434.10	19747.10
434.28	21380.79
434.47	22321.69
434.66	21816.13
434.85	21289.51
435.03	21036.74
435.22	21837.20
435.41	23323.44
435.59	22838.95
435.78	23482.59
435.97	24458.60
436.16	24034.96
436.34	23782.18
436.53	23183.01
436.72	23515.36
436.90	22057.21
437.09	22155.51
437.28	21731.87
437.46	22434.03
437.65	22618.94
437.84	20943.11
438.02	19049.62
438.21	18733.65
438.40	20018.60
438.58	21802.09
438.77	22490.21
438.96	22249.13
439.14	23599.62
439.33	24168.37
439.52	24369.66
439.70	23992.83
439.89	23709.63
440.08	22721.92
440.26	22466.80
440.45	23503.66
440.63	24903.30
440.82	26415.29
441.01	26246.77
441.19	25502.48
441.38	25977.61
441.57	26930.20
441.75	27267.24
441.94	27660.45
442.12	27131.49
442.31	27988.13
442.50	27730.67
442.68	27459.16
442.87	27260.22
443.05	26757.00
443.24	26927.86
443.43	27840.67
443.61	28201.11
443.80	28439.85
443.98	26719.56
444.17	26859.99
444.35	28893.91
444.54	28566.24
444.73	28678.58
444.91	27414.69
445.10	26630.62
445.28	25336.30
445.47	25151.40
445.65	25179.48
445.84	25778.66
446.02	26918.50
446.21	27346.82
446.39	26869.35
446.58	27510.66
446.77	27953.02
446.95	28268.99
447.14	28875.19
447.32	29092.86
447.51	28833.06
447.69	27522.36
447.88	27538.74
448.06	27985.79
448.25	28268.99
448.43	28802.63
448.62	27744.71
448.80	28144.94
448.99	28341.55
449.17	28559.22
449.36	28032.60
449.54	29563.31
449.73	29563.31
449.91	30008.01
450.10	31220.41
450.28	31409.99
450.46	31243.81
450.65	31288.28
450.83	30646.97
451.02	30410.58
451.20	30253.76
451.39	30335.68
451.57	29638.20
451.76	29933.11
451.94	29500.11
452.13	29357.34
452.31	27777.48
452.49	26611.89
452.68	26703.17
452.86	27054.25
453.05	27255.54
453.23	28577.94
453.42	29006.26
453.60	29420.53
453.78	29867.58
453.97	29188.82
454.15	29355.00
454.34	28835.40
454.52	28905.62
454.70	28432.83
454.89	28980.51
455.07	28861.15
455.26	29303.51
455.44	30232.70
455.62	30796.77
455.81	31182.96
455.99	30911.46
456.17	30646.97
456.36	30384.83
456.54	31536.38
456.73	31590.21
456.91	31906.18
457.09	31880.44
457.28	32708.99
457.46	31512.97
457.64	31140.83
457.83	30319.30
458.01	29542.24
458.19	30286.53
458.38	30696.13
458.56	31775.11
458.74	31180.62
458.93	31143.17
459.11	30782.73
459.29	30618.89
459.48	30614.21
459.66	30738.26
459.84	30965.29
460.03	31496.59
460.21	30941.88
460.39	32147.26
460.57	31878.10
460.76	32940.70
460.94	32271.31
461.12	31938.95
461.31	32240.88
461.49	31964.70
461.67	31936.61
461.85	33230.93
462.04	33092.83
462.22	33331.57
462.40	32781.54
462.59	32690.26
462.77	32716.01
462.95	32444.51
463.13	32243.22
463.32	31981.08
463.50	31945.97
463.68	32292.37
463.86	31948.31
464.05	31412.33
464.23	30845.92
464.41	30995.71
464.59	30436.33
464.78	32397.70
464.96	31770.43
465.14	31599.57
465.32	32002.14
465.50	32561.53
465.69	33652.22
465.87	32474.93
466.05	31728.30
466.23	30232.70
466.41	29647.57
466.60	30478.46
466.78	30490.16
466.96	31700.22
467.14	31676.81
467.32	32369.61
467.51	32051.30
467.69	30576.76
467.87	31168.91
468.05	31732.98
468.23	31770.43
468.41	31964.70
468.60	31541.06
468.78	32250.24
468.96	31330.41
469.14	32535.79
469.32	32484.30
469.50	31016.78
469.69	31386.58
469.87	30878.69
470.05	30714.85
470.23	31051.89
470.41	30778.04
470.59	31428.71
470.77	31552.76
470.95	32217.47
471.14	32201.09
471.32	32706.65
471.50	34639.93
471.68	34204.59
471.86	34600.14
472.04	34866.96
472.22	35037.82
472.40	33455.62
472.58	33240.29
472.77	32603.66
472.95	33333.91
473.13	34015.01
473.31	32917.29
473.49	33479.02
473.67	34078.20
473.85	34019.69
474.03	35447.41
474.21	35047.18
474.39	35433.37
474.57	35615.93
474.75	35562.10
474.93	35337.41
475.12	34621.20
475.30	34588.44
475.48	34859.94
475.66	35260.17
475.84	35187.61
476.02	34941.86
476.20	34117.99
476.38	34485.45
476.56	35931.90
476.74	36421.08
476.92	36589.59
477.10	36730.03
477.28	38003.28
477.46	38024.34
477.64	38415.21
477.82	38557.99
478.00	38562.67
478.18	37982.21
478.36	37816.04
478.54	37951.79
478.72	38426.92
478.90	39330.36
479.08	40444.46
479.26	40545.10
479.44	40521.69
479.62	40397.65
479.80	40435.10
479.98	40439.78
480.16	40884.48
480.34	40528.72
480.52	40739.36
480.70	41289.39
480.88	40837.67
481.06	41930.70
481.24	42270.08
481.41	42827.12
481.59	43601.84
481.77	43306.93
481.95	42569.66
482.13	42604.77
482.31	42602.43
482.49	43037.77
482.67	43232.04
482.85	43613.54
483.03	43929.51
483.21	44201.02
483.39	44271.23
483.57	43669.72
483.74	43206.29
483.92	43957.60
484.10	43494.18
484.28	45045.95
484.46	45312.77
484.64	45308.09
484.82	44701.89
485.00	44098.03
485.18	43634.61
485.35	42391.78
485.53	39072.90
485.71	35438.05
485.89	35337.41
486.07	36893.86
486.25	40584.89
486.43	42234.97
486.61	42955.85
486.78	43246.08
486.96	43030.75
487.14	45069.36
487.32	45722.37
487.50	46887.95
487.68	47896.72
487.85	48074.60
488.03	48512.28
488.21	47892.04
488.39	47229.67
488.57	46518.15
488.75	45799.60
488.92	47306.91
489.10	49474.24
489.28	51065.81
489.46	51634.56
489.64	51639.24
489.81	51833.50
489.99	51129.00
490.17	51573.70
490.35	51828.82
490.53	51297.52
490.70	50876.22
490.88	50724.09
491.06	51571.36
491.24	51566.68
491.41	50660.90
491.59	48830.60
491.77	47702.46
491.95	49221.47
492.13	50438.54
492.30	51840.53
492.48	52673.76
492.66	53308.04
492.84	53282.30
493.01	52992.07
493.19	52392.89
493.37	52259.48
493.54	51877.97
493.72	52376.51
493.90	53600.61
494.08	54412.77
494.25	54890.24
494.43	54831.73
494.61	55030.68
494.79	55470.70
494.96	54976.84
495.14	54408.09
495.32	53408.68
495.49	52554.39
495.67	53677.85
495.85	55246.00
496.02	55643.90
496.20	55536.23
496.38	54934.71
496.55	54810.67
496.73	55559.64
496.91	55573.68
497.09	56207.97
497.26	56109.66
497.44	55711.77
497.62	55311.54
497.79	54695.98
497.97	53354.85
498.14	53291.66
498.32	54485.33
498.50	55531.55
498.67	55934.12
498.85	55831.14
499.03	55990.30
499.20	56371.80
499.38	56301.59
499.56	55985.61
499.73	55784.33
499.91	55128.98
500.08	54548.53
500.26	54188.08
500.44	54396.39
500.61	55068.12
500.79	54892.58
500.97	54560.23
501.14	54384.69
501.32	54365.96
501.49	54204.47
501.67	54459.58
501.84	55327.92
502.02	55391.12
502.20	55547.93
502.37	55749.22
502.55	56023.06
502.72	56610.54
502.90	56835.23
503.07	56645.65
503.25	56172.86
503.43	55281.11
503.60	54810.67
503.78	53888.49
503.95	54377.67
504.13	55725.81
504.30	56701.82
504.48	56252.44
504.65	56076.90
504.83	56081.58
505.01	56900.76
505.18	57064.60
505.36	57673.14
505.53	57757.40
505.71	57979.75
505.88	57928.26
506.06	57207.37
506.23	57153.54
506.41	56582.45
506.58	56879.70
506.76	57008.43
506.93	56685.43
507.11	56554.36
507.28	56743.95
507.46	56477.13
507.63	55793.69
507.81	55384.10
507.98	55987.95
508.16	56694.80
508.33	56959.28
508.50	57286.95
508.68	57811.23
508.85	58045.29
509.03	58040.60
509.20	58152.95
509.38	57303.34
509.55	56509.89
509.73	56477.13
509.90	57303.34
510.08	57219.08
510.25	57120.77
510.42	57151.20
510.60	56949.92
510.77	57286.95
510.95	57846.34
511.12	57914.22
511.30	58302.74
511.47	58375.30
511.64	58445.52
511.82	58206.78
511.99	57413.34
512.17	56940.55
512.34	56633.94
512.51	56800.12
512.69	57017.79
512.86	56963.96
513.04	57530.37
513.21	57422.70
513.38	57230.78
513.56	56465.42
513.73	55716.45
513.90	56404.57
514.08	56196.26
514.25	56580.11
514.43	56975.66
514.60	56807.14
514.77	56970.98
514.95	57216.74
515.12	57132.48
515.29	57104.39
515.47	57860.38
515.64	57935.28
515.81	57703.57
515.99	56982.68
516.16	55409.84
516.33	53008.45
516.51	51578.39
516.68	50679.62
516.85	50485.36
517.03	50637.49
517.20	53539.75
517.37	55831.14
517.54	57240.14
517.72	56645.65
517.89	54234.89
518.06	51697.75
518.24	52102.67
518.41	54609.38
518.58	55655.60
518.75	55941.14
518.93	56135.41
519.10	55796.03
519.27	56226.69
519.45	56680.75
519.62	57537.39
519.79	57743.36
519.96	57275.25
520.14	56811.82
520.31	56266.48
520.48	56100.30
520.65	56603.52
520.83	57495.26
521.00	57911.88
521.17	57682.50
521.34	57059.92
521.52	57167.58
521.69	57921.24
521.86	58440.84
522.03	58192.74
522.20	56662.03
522.38	55746.88
522.55	55781.99
522.72	56605.86
522.89	56694.80
523.07	56713.52
523.24	56914.81
523.41	57907.19
523.58	58220.83
523.75	58644.46
523.92	58623.40
524.10	58379.98
524.27	58361.26
524.44	58054.65
524.61	58071.03
524.78	57975.07
524.96	57619.31
525.13	58049.97
525.30	58181.04
525.47	58403.39
525.64	58532.12
525.81	57652.08
525.98	56069.87
526.16	54915.99
526.33	54157.66
526.50	53867.43
526.67	53223.78
526.84	54190.42
527.01	54859.82
527.18	55929.44
527.36	56921.83
527.53	57661.44
527.70	58064.01
527.87	57247.16
528.04	57045.88
528.21	57581.86
528.38	58209.12
528.55	58653.82
528.72	58740.42
528.89	59058.74
529.07	58798.94
529.24	57965.71
529.41	57492.92
529.58	57041.20
529.75	56884.38
529.92	57579.52
530.09	57792.51
530.26	58314.45
530.43	58693.61
530.60	58724.04
530.77	58862.13
530.94	58836.39
531.11	58459.56
531.28	57914.22
531.46	58071.03
531.63	58035.92
531.80	58145.93
531.97	57708.25
532.14	56699.48
532.31	55805.39
532.48	55103.23
532.65	55196.85
532.82	56189.24
532.99	57247.16
533.16	57565.48
533.33	58082.73
533.50	57900.17
533.67	57202.69
533.84	56783.74
534.01	57027.15
534.18	57057.58
534.35	57336.10
534.52	57366.53
534.69	57696.55
534.86	57874.43
535.03	58071.03
535.20	58337.85
535.37	58897.24
535.54	58845.75
535.71	58494.67
535.88	58368.28
536.05	57574.84
536.22	57364.19
536.38	56821.19
536.55	56317.97
536.72	56144.77
536.89	56032.42
537.06	56444.36
537.23	57600.58
537.40	57813.57
537.57	57687.18
537.74	57722.29
537.91	57567.82
538.08	57308.02
538.25	57621.65
538.42	57654.42
538.59	57509.30
538.75	56823.53
538.92	56835.23
539.09	56664.37
539.26	56186.90
539.43	56102.64
539.60	56395.21
539.77	56671.39
539.94	56247.75
540.11	55587.72
540.28	54808.32
540.44	55007.27
540.61	55386.44
540.78	55714.11
540.95	56074.55
541.12	56605.86
541.29	56535.64
541.46	56978.00
541.62	56978.00
541.79	57153.54
541.96	56214.99
542.13	56037.11
542.30	56320.31
542.47	56816.50
542.63	56444.36
542.80	56413.93
542.97	56395.21
543.14	56341.38
543.31	56165.84
543.48	56858.63
543.64	57521.01
543.81	58007.84
543.98	57572.50
544.15	57048.22
544.32	56488.83
544.48	56416.27
544.65	56924.17
544.82	57471.85
544.99	56844.59
545.16	56612.88
545.32	56275.84
545.49	57209.71
545.66	57448.45
545.83	57190.99
546.00	56886.72
546.16	56458.40
546.33	56596.49
546.50	56296.91
546.67	56996.73
546.83	56530.96
547.00	56732.25
547.17	55945.83
547.34	55344.31
547.50	55194.51
547.67	55704.75
547.84	55880.29
548.00	56069.87
548.17	56406.91
548.34	56212.65
548.51	56367.12
548.67	56439.68
548.84	56552.02
549.01	56528.62
549.18	56608.20
549.34	56303.93
549.51	56430.32
549.68	56353.08
549.84	56095.62
550.01	55856.88
550.18	55817.10
550.34	55817.10
550.51	56130.73
550.68	56067.53
550.84	55573.68
551.01	55576.02
551.18	55608.79
551.34	55950.51
551.51	56357.76
551.68	56563.73
551.84	56622.24
552.01	56243.07
552.18	56250.09
552.34	55566.66
552.51	54937.05
552.68	54995.57
552.84	55398.14
553.01	55608.79
553.18	55765.60
553.34	55697.73
553.51	55828.80
553.67	56123.71
553.84	56310.95
554.01	56095.62
554.17	55681.34
554.34	56006.68
554.51	55882.63
554.67	56537.98
554.84	56083.92
555.00	55950.51
555.17	55571.34
555.33	55636.87
555.50	55613.47
555.67	55611.13
555.83	55072.81
556.00	55208.56
556.16	55384.10
556.33	54745.13
556.50	54728.75
556.66	54817.69
556.83	54019.56
556.99	54267.66
557.16	54576.61
557.32	54864.50
557.49	55175.79
557.65	55143.02
557.82	54995.57
557.98	54754.49
558.15	54562.57
558.32	53432.09
558.48	52404.59
558.65	52828.23
558.81	53209.74
558.98	53518.69
559.14	53729.34
559.31	53991.48
559.47	53989.14
559.64	53413.37
559.80	53221.44
559.97	53265.91
560.13	53602.95
560.30	54691.30
560.46	54988.55
560.63	55557.30
560.79	55409.84
560.96	54822.37
561.12	53839.34
561.29	52987.39
561.45	52949.94
561.61	53448.47
561.78	54192.76
561.94	53663.80
562.11	53352.51
562.27	53734.02
562.44	53942.33
562.60	54265.32
562.77	54358.94
562.93	54468.95
563.10	54178.72
563.26	53544.44
563.42	53687.21
563.59	53478.90
563.75	53436.77
563.92	53694.23
564.08	53385.28
564.24	53560.82
564.41	53895.52
564.57	53741.04
564.74	53385.28
564.90	53633.38
565.07	53130.16
565.23	52617.58
565.39	52399.91
565.56	51751.59
565.72	51732.86
565.88	52055.85
566.05	52182.24
566.21	52683.12
566.38	52612.90
566.54	52858.66
566.70	53268.25
566.87	53666.14
567.03	53682.53
567.19	53277.61
567.36	53502.31
567.52	53081.01
567.68	52961.64
567.85	52332.04
568.01	51718.82
568.17	51491.79
568.34	51358.38
568.50	51430.93
568.66	51419.23
568.83	51915.42
568.99	52189.27
569.15	52479.49
569.32	52226.71
569.48	52086.28
569.64	51782.01
569.81	51463.70
569.97	51157.09
570.13	51276.46
570.30	50646.85
570.46	50190.45
570.62	49694.25
570.78	48856.34
570.95	49918.95
571.11	50515.78
571.27	51157.09
571.43	51110.28
571.60	51199.22
571.76	51430.93
571.92	52205.65
572.09	51990.32
572.25	52161.18
572.41	51903.72
572.57	51906.06
572.74	51842.87
572.90	51346.67
573.06	51498.81
573.22	51590.09
573.38	51622.86
573.55	51292.84
573.71	51545.62
573.87	51131.34
574.03	51239.01
574.20	51515.19
574.36	51112.62
574.52	50625.79
574.68	50410.46
574.84	50019.59
575.01	49436.80
575.17	49523.40
575.33	49776.17
575.49	50209.17
575.65	50513.44
575.82	50220.87
575.98	49731.70
576.14	50117.89
576.30	50288.75
576.46	50586.00
576.62	50426.84
576.79	50277.05
576.95	49893.20
577.11	50162.36
577.27	50143.64
577.43	50054.70
577.59	49687.23
577.75	49420.41
577.92	48626.97
578.08	48753.36
578.24	48303.98
578.40	49181.68
578.56	49120.82
578.72	48985.07
578.88	49411.05
579.04	49148.91
579.21	49347.86
579.37	49446.16
579.53	49584.25
579.69	49890.86
579.85	49577.23
580.01	49694.25
580.17	49317.43
580.33	49045.93
580.49	49289.34
580.65	49357.22
580.82	49745.75
580.98	49745.75
581.14	49574.89
581.30	49399.35
581.46	49256.57
581.62	49855.75
581.78	49801.92
581.94	49893.20
582.10	49942.35
582.26	49879.16
582.42	49930.65
582.58	49982.14
582.74	49780.85
582.90	49844.05
583.06	49698.94
583.22	49453.18
583.38	49418.07
583.54	49158.27
583.70	49041.24
583.86	49029.54
584.02	48905.49
584.18	49296.36
584.34	48692.50
584.50	49177.00
584.66	48959.33
584.82	48385.89
584.98	48463.13
585.14	48144.82
585.30	47004.98
