SpectraSuite Data File
++++++++++++++++++++++++++++++++++++
Date: Mon Oct 07 14:55:01 GMT-05:00 2013
User: price-jones
Dark Spectrum Present: No
Reference Spectrum Present: No
Number of Sampled Component Spectra: 1
Spectrometers: USB2+H05261
Integration Time (usec): 10000 (USB2+H05261)
Spectra Averaged: 1 (USB2+H05261)
Boxcar Smoothing: 0 (USB2+H05261)
Correct for Electrical Dark: No (USB2+H05261)
Strobe/Lamp Enabled: No (USB2+H05261)
Correct for Detector Non-linearity: No (USB2+H05261)
Correct for Stray Light: No (USB2+H05261)
Number of Pixels in Processed Spectrum: 2048
>>>>>Begin Processed Spectral Data<<<<<
365.73	0.00
365.92	0.00
366.12	0.00
366.32	0.00
366.52	0.00
366.72	0.00
366.91	0.00
367.11	0.00
367.31	0.00
367.51	0.00
367.70	0.00
367.90	0.00
368.10	0.00
368.30	0.00
368.49	0.00
368.69	0.00
368.89	0.00
369.09	0.00
369.28	0.00
369.48	0.00
369.68	0.00
369.87	0.00
370.07	0.00
370.27	0.00
370.47	341.72
370.66	2349.90
370.86	2729.06
371.06	2963.12
371.25	2984.18
371.45	2684.59
371.65	2427.14
371.84	2349.90
372.04	2548.84
372.24	2846.09
372.44	2892.90
372.63	2827.37
372.83	2523.10
373.03	2284.36
373.22	2207.13
373.42	2401.39
373.62	2743.11
373.81	2869.50
374.01	2738.43
374.21	2541.82
374.40	2331.17
374.60	2523.10
374.79	2970.14
374.99	3361.01
375.19	3473.36
375.38	3368.03
375.58	3227.60
375.78	3187.81
375.97	3309.52
376.17	3375.05
376.37	3459.31
376.56	3494.42
376.76	3754.22
376.95	3978.91
377.15	4208.28
377.35	4360.42
377.54	4573.41
377.74	4758.31
377.93	4664.69
378.13	4451.70
378.33	4294.88
378.52	3927.42
378.72	3817.41
378.91	3801.03
379.11	3679.32
379.31	3524.85
379.50	3478.04
379.70	3885.29
379.89	4329.99
380.09	4479.79
380.28	4676.39
380.48	4617.88
380.68	4599.15
380.87	4266.80
381.07	3840.82
381.26	3840.82
381.46	3213.56
381.65	3473.36
381.85	3288.45
382.04	2986.52
382.24	2878.86
382.43	2740.77
382.63	2715.02
382.83	2703.32
383.02	2717.36
383.22	2733.75
383.41	2738.43
383.61	3026.31
383.80	3641.87
384.00	4049.13
384.19	4505.53
384.39	4615.54
384.58	4449.36
384.78	4442.34
384.97	4524.26
385.17	4145.09
385.36	3976.57
385.56	3786.99
385.75	4222.33
385.95	4603.83
386.14	4858.95
386.34	4777.03
386.53	4517.23
386.72	4231.69
386.92	4381.48
387.11	4706.82
387.31	4739.58
387.50	4674.05
387.70	4547.66
387.89	4594.47
388.09	4568.73
388.28	4535.96
388.48	4748.95
388.67	5032.15
388.86	5474.51
389.06	5853.68
389.25	6176.67
389.45	6356.90
389.64	6267.95
389.84	6092.41
390.03	5954.32
390.22	6141.57
390.42	6471.58
390.61	6841.39
390.81	7166.72
391.00	7304.81
391.19	7206.51
391.39	6876.49
391.58	6525.41
391.78	6179.01
391.97	5940.28
392.16	5303.65
392.36	4943.21
392.55	3758.90
392.75	2995.89
392.94	2569.91
393.13	2579.27
393.33	3262.71
393.52	4292.54
393.71	5144.50
393.91	5647.71
394.10	6120.50
394.29	6857.77
394.49	7286.09
394.68	7723.77
394.88	7803.35
395.07	7925.05
395.26	7854.84
395.46	7557.59
395.65	7012.24
395.84	6069.01
396.04	4968.96
396.23	3995.29
396.42	3398.46
396.62	3559.95
396.81	4362.76
397.00	5767.08
397.19	6918.62
397.39	8222.30
397.58	8952.55
397.77	9483.85
397.97	9745.99
398.16	9799.82
398.35	10382.62
398.55	10534.75
398.74	10970.09
398.93	11162.01
399.12	10824.98
399.32	10574.54
399.51	11077.76
399.70	11719.06
399.90	11353.94
400.09	11302.45
400.28	11140.95
400.47	11538.84
400.67	12009.29
400.86	12262.07
401.05	12336.96
401.24	12233.98
401.44	12594.42
401.63	12711.45
401.82	12917.42
402.01	12388.46
402.21	12776.98
402.40	12716.13
402.59	11910.99
402.78	11522.46
402.97	11585.65
403.17	12482.08
403.36	13095.30
403.55	13305.95
403.74	13439.36
403.93	12477.40
404.13	11604.38
404.32	11700.34
404.51	12451.65
404.70	12854.22
404.89	12924.44
405.09	12924.44
405.28	12343.99
405.47	12596.76
405.66	12683.36
405.85	12079.50
406.05	11803.32
406.24	12313.56
406.43	12477.40
406.62	12961.89
406.81	13083.59
407.00	12704.43
407.20	12292.49
407.39	12587.40
407.58	13158.49
407.77	13891.08
407.96	14244.50
408.15	14511.32
408.34	14314.72
408.54	14764.10
408.73	15250.93
408.92	14623.67
409.11	14150.88
409.30	13425.31
409.49	12613.15
409.68	11885.24
409.87	11817.36
410.07	12568.68
410.26	13551.70
410.45	14490.26
410.64	14546.43
410.83	15323.49
411.02	15609.03
411.21	15908.62
411.40	15742.44
411.59	15981.18
411.78	15978.84
411.98	15913.30
412.17	15819.68
412.36	15742.44
412.55	15410.09
412.74	15159.65
412.93	15199.44
413.12	15545.84
413.31	17172.51
413.50	16922.07
413.69	17053.14
413.88	15983.52
414.07	16065.44
414.26	16217.57
414.45	16744.19
414.64	16446.94
414.83	16631.85
415.02	16297.15
415.22	16486.73
415.41	16964.20
415.60	17666.36
415.79	18214.05
415.98	18464.49
416.17	18391.93
416.36	17916.80
416.55	17544.66
416.74	16957.18
416.93	16629.51
417.12	17034.42
417.31	16961.86
417.50	17413.59
417.69	17736.58
417.88	17626.57
418.07	17301.24
418.26	17551.68
418.45	17605.51
418.64	18291.29
418.83	19234.52
419.02	18534.70
419.21	17919.14
419.39	17425.29
419.58	16847.18
419.77	17062.51
419.96	18291.29
420.15	19016.85
420.34	19421.77
420.53	19941.36
420.72	20271.38
420.91	19702.63
421.10	19538.79
421.29	19295.38
421.48	18843.65
421.67	19754.12
421.86	18740.67
422.05	17481.46
422.24	16107.57
422.43	16559.29
422.61	18628.32
422.80	19349.21
422.99	18867.06
423.18	18473.85
423.37	18352.14
423.56	18422.36
423.75	18773.44
423.94	19176.01
424.13	18274.90
424.32	17984.68
424.50	18174.26
424.69	18281.92
424.88	18174.26
425.07	18211.71
425.26	18253.84
425.45	17544.66
425.64	17413.59
425.83	17542.32
426.01	18200.01
426.20	18892.80
426.39	18534.70
426.58	17301.24
426.77	15985.86
426.96	16154.38
427.15	16470.35
427.33	17935.53
427.52	18452.78
427.71	18590.88
427.90	18192.98
428.09	17785.73
428.28	17294.22
428.46	16992.29
428.65	16664.61
428.84	17296.56
429.03	17202.94
429.22	16196.51
429.40	15051.99
429.59	14008.11
429.78	12507.82
429.97	12882.31
430.16	12662.30
430.34	12996.99
430.53	12968.91
430.72	13977.68
430.91	15049.64
431.10	18082.98
431.28	20467.98
431.47	22153.17
431.66	21544.63
431.85	19459.21
432.03	17771.69
432.22	17750.62
432.41	19393.68
432.60	20821.41
432.79	21467.39
432.97	21764.64
433.16	20589.69
433.35	18679.82
433.54	16713.77
433.72	16540.57
433.91	17366.78
434.10	19634.75
434.28	20622.46
434.47	21476.76
434.66	20718.42
434.85	20395.43
435.03	20985.24
435.22	20931.41
435.41	22101.68
435.59	22513.61
435.78	22562.76
435.97	23213.43
436.16	23431.10
436.34	22782.77
436.53	22038.48
436.72	22249.13
436.90	21277.81
437.09	21362.07
437.28	21406.54
437.46	21776.34
437.65	20947.79
437.84	19468.58
438.02	18590.88
438.21	18633.00
438.40	19236.86
438.58	21177.17
438.77	21600.80
438.96	22368.50
439.14	23438.12
439.33	23377.27
439.52	23653.45
439.70	22876.40
439.89	22111.04
440.08	21862.94
440.26	22492.55
440.45	23014.49
440.63	24748.82
440.82	25425.24
441.01	24554.56
441.19	24877.55
441.38	25858.24
441.57	26178.89
441.75	26508.91
441.94	26595.51
442.12	26370.82
442.31	27311.71
442.50	26754.66
442.68	26277.19
442.87	26525.29
443.05	25771.64
443.24	26621.25
443.43	27227.45
443.61	27541.08
443.80	27262.56
443.98	26803.82
444.17	26429.33
444.35	27735.35
444.54	28222.18
444.73	26897.44
444.91	25919.09
445.10	25399.49
445.28	24863.51
445.47	24144.97
445.65	23988.15
445.84	25343.32
446.02	25961.22
446.21	26562.74
446.39	26469.12
446.58	26934.88
446.77	27555.13
446.95	27402.99
447.14	28360.27
447.32	28699.65
447.51	28194.09
447.69	26986.38
447.88	26979.36
448.06	27384.27
448.25	28091.11
448.43	27630.02
448.62	27356.18
448.80	27246.18
448.99	27573.85
449.17	27332.78
449.36	27810.25
449.54	28833.06
449.73	29408.83
449.91	29450.96
450.10	30361.43
450.28	30455.05
450.46	30740.60
450.65	30438.67
450.83	29809.06
451.02	29736.51
451.20	29628.84
451.39	29839.49
451.57	29535.22
451.76	29565.65
451.94	29230.95
452.13	28077.07
452.31	26731.26
452.49	25729.51
452.68	26480.82
452.86	26647.00
453.05	27255.54
453.23	28121.54
453.42	28659.86
453.60	29558.63
453.78	29404.15
453.97	29032.00
454.15	28994.56
454.34	27728.33
454.52	28046.64
454.70	27615.98
454.89	28156.64
455.07	28341.55
455.26	28851.78
455.44	29692.04
455.62	30038.44
455.81	30323.98
455.99	29778.64
456.17	29612.46
456.36	30899.75
456.54	31044.87
456.73	30866.98
456.91	31007.42
457.09	31161.89
457.28	32205.77
457.46	30747.62
457.64	30115.67
457.83	29537.56
458.01	29345.64
458.19	30761.66
458.38	30878.69
458.56	31395.95
458.74	31122.10
458.93	29900.34
459.11	30171.85
459.29	30209.29
459.48	30707.83
459.66	30132.06
459.84	30424.62
460.03	30504.20
460.21	31239.13
460.39	31840.65
460.57	31257.85
460.76	31721.28
460.94	31941.29
461.12	32051.30
461.31	31842.99
461.49	31864.05
461.67	32030.23
461.85	32690.26
462.04	32680.90
462.22	32470.25
462.40	32439.82
462.59	31833.63
462.77	32404.72
462.95	32526.42
463.13	32383.65
463.32	31611.28
463.50	31637.02
463.68	31519.99
463.86	31777.45
464.05	30906.77
464.23	30412.92
464.41	30487.82
464.59	30099.29
464.78	31665.11
464.96	30558.03
465.14	30230.36
465.32	32308.76
465.50	32811.97
465.69	33823.08
465.87	32650.47
466.05	32044.27
466.23	30316.96
466.41	29305.85
466.60	30265.47
466.78	30073.54
466.96	30455.05
467.14	31234.45
467.32	31220.41
467.51	31807.88
467.69	29975.24
467.87	31171.25
468.05	31531.70
468.23	31707.24
468.41	31725.96
468.60	31885.12
468.78	32533.45
468.96	31903.84
469.14	32467.91
469.32	32252.58
469.50	30600.16
469.69	31077.63
469.87	30639.95
470.05	30611.87
470.23	30466.75
470.41	30852.94
470.59	30759.32
470.77	30918.48
470.95	31800.86
471.14	32538.13
471.32	32606.00
471.50	34080.54
471.68	34398.85
471.86	34656.31
472.04	34190.55
472.22	34206.93
472.40	33008.58
472.58	32753.46
472.77	32863.46
472.95	33104.54
473.13	34356.72
473.31	33120.92
473.49	33251.99
473.67	34022.03
473.85	34550.99
474.03	35990.42
474.21	35625.29
474.39	35938.93
474.57	35941.27
474.75	36261.92
474.93	35227.40
475.12	34506.52
475.30	34574.39
475.48	34504.18
475.66	34916.11
475.84	34642.27
476.02	34972.28
476.20	34422.26
476.38	34890.37
476.56	35922.54
476.74	36605.98
476.92	37078.77
477.10	36999.19
477.28	38288.82
477.46	38164.78
477.64	38862.26
477.82	38387.13
478.00	39157.16
478.18	37909.66
478.36	37621.77
478.54	37860.51
478.72	38646.93
478.90	40278.28
479.08	41390.03
479.26	40999.16
479.44	41329.18
479.62	40840.01
479.80	41212.15
479.98	41064.70
480.16	40921.93
480.34	40657.45
480.52	41371.31
480.70	41319.82
480.88	40844.69
481.06	41610.04
481.24	42555.62
481.41	43648.65
481.59	44634.02
481.77	42759.25
481.95	42595.41
482.13	42941.81
482.31	43328.00
482.49	44378.90
482.67	43761.00
482.85	43765.68
483.03	43665.03
483.21	44432.73
483.39	44947.65
483.57	44430.39
483.74	43679.08
483.92	44018.46
484.10	44149.53
484.28	44472.52
484.46	44741.68
484.64	45886.20
484.82	44985.10
485.00	44278.25
485.18	43751.63
485.35	41776.22
485.53	36561.51
485.71	34171.82
485.89	35351.45
486.07	38000.94
486.25	40133.17
486.43	42593.07
486.61	43707.16
486.78	42422.21
486.96	44257.19
487.14	44837.64
487.32	46490.06
487.50	47196.90
487.68	48311.00
487.85	49137.21
488.03	48481.86
488.21	47775.02
488.39	47512.88
488.57	46237.28
488.75	46092.17
488.92	47585.43
489.10	50129.59
489.28	50616.43
489.46	52486.51
489.64	51660.30
489.81	52215.01
489.99	51660.30
490.17	51398.16
490.35	51697.75
490.53	51260.07
490.70	51487.10
490.88	51126.66
491.06	52135.43
491.24	52797.80
491.41	51444.98
491.59	49429.77
491.77	49177.00
491.95	50239.60
492.13	52170.54
492.30	52374.17
492.48	53694.23
492.66	53586.57
492.84	53113.78
493.01	53305.70
493.19	52940.58
493.37	52317.99
493.54	52750.99
493.72	53736.36
493.90	54485.33
494.08	54787.26
494.25	55147.70
494.43	55657.94
494.61	56041.79
494.79	55744.54
494.96	55936.46
495.14	55430.91
495.32	54042.97
495.49	54110.85
495.67	55084.51
495.85	56025.40
496.02	56484.15
496.20	55959.87
496.38	55461.33
496.55	55620.49
496.73	56374.14
496.91	56622.24
497.09	56802.46
497.26	57064.60
497.44	56559.05
497.62	55440.27
497.79	55054.08
497.97	53851.05
498.14	54752.15
498.32	55650.92
498.50	55959.87
498.67	55891.99
498.85	56133.07
499.03	56683.09
499.20	56814.16
499.38	56128.39
499.56	55487.08
499.73	55749.22
499.91	55800.71
500.08	54794.28
500.26	54475.97
500.44	55510.49
500.61	56018.38
500.79	55426.23
500.97	55519.85
501.14	54717.04
501.32	54181.06
501.49	54424.48
501.67	55185.15
501.84	55381.76
502.02	56090.94
502.20	56423.29
502.37	56257.12
502.55	56802.46
502.72	57403.98
502.90	57797.19
503.07	57301.00
503.25	56350.74
503.43	55332.60
503.60	54958.12
503.78	54864.50
503.95	55576.02
504.13	56519.26
504.30	57467.17
504.48	56753.31
504.65	56697.14
504.83	56994.39
505.01	57542.07
505.18	57750.38
505.36	58389.34
505.53	58267.64
505.71	58000.82
505.88	58433.81
506.06	57977.41
506.23	57755.06
506.41	57394.62
506.58	57591.22
506.76	57649.74
506.93	56900.76
507.11	57064.60
507.28	57109.07
507.46	56474.79
507.63	56662.03
507.81	56076.90
507.98	56526.28
508.16	57776.12
508.33	58164.65
508.50	57860.38
508.68	58433.81
508.85	58415.09
509.03	59121.93
509.20	58436.16
509.38	57654.42
509.55	57881.45
509.73	57645.05
509.90	57787.83
510.08	58021.88
510.25	57670.80
510.42	57298.65
510.60	57696.55
510.77	58071.03
510.95	58138.91
511.12	58660.85
511.30	59337.26
511.47	59735.15
511.64	59178.10
511.82	59337.26
511.99	57865.06
512.17	57991.45
512.34	57406.32
512.51	57799.53
512.69	58202.10
512.86	57687.18
513.04	57542.07
513.21	57406.32
513.38	56779.06
513.56	56537.98
513.73	55990.30
513.90	57476.54
514.08	57015.45
514.25	57181.63
514.43	57476.54
514.60	57399.30
514.77	57886.13
514.95	57865.06
515.12	57602.92
515.29	58181.04
515.47	58724.04
515.64	58625.74
515.81	58204.44
515.99	56975.66
516.16	55351.33
516.33	53209.74
516.51	52893.77
516.68	51873.29
516.85	50506.42
517.03	51852.23
517.20	55056.42
517.37	57277.59
517.54	57846.34
517.72	56823.53
517.89	53549.12
518.06	51894.36
518.24	53446.13
518.41	55407.50
518.58	56816.50
518.75	56743.95
518.93	56692.46
519.10	56442.02
519.27	57352.49
519.45	57806.55
519.62	58436.16
519.79	58269.98
519.96	57958.69
520.14	57652.08
520.31	56603.52
520.48	56633.94
520.65	57401.64
520.83	58871.49
521.00	58171.67
521.17	57570.16
521.34	58232.53
521.52	58918.31
521.69	58714.68
521.86	59047.04
522.03	58398.71
522.20	57080.98
522.38	56097.96
522.55	56767.35
522.72	56942.89
522.89	56870.34
523.07	57771.44
523.24	58614.04
523.41	58887.88
523.58	59231.94
523.75	59238.96
523.92	59264.70
524.10	58974.48
524.27	58670.21
524.44	58190.40
524.61	57546.75
524.78	58277.00
524.96	58464.24
525.13	58522.76
525.30	59344.28
525.47	59437.90
525.64	59243.64
525.81	58211.46
525.98	56247.75
526.16	54920.67
526.33	55075.15
526.50	54532.14
526.67	54813.01
526.84	55760.92
527.01	56683.09
527.18	57080.98
527.36	57652.08
527.53	58728.72
527.70	57958.69
527.87	56769.69
528.04	57675.48
528.21	58401.05
528.38	58618.72
528.55	60051.12
528.72	59667.28
528.89	59056.40
529.07	59133.63
529.24	57815.91
529.41	57614.63
529.58	57860.38
529.75	58489.99
529.92	58937.03
530.09	58693.61
530.26	59213.21
530.43	59861.54
530.60	59271.73
530.77	59615.79
530.94	59908.35
531.11	59126.61
531.28	58908.94
531.46	59051.72
531.63	58834.05
531.80	58604.67
531.97	58312.11
532.14	58159.97
532.31	56516.92
532.48	55899.01
532.65	56528.62
532.82	57013.11
532.99	58850.43
533.16	58827.02
533.33	58965.12
533.50	58777.87
533.67	58391.68
533.84	58241.89
534.01	58335.51
534.18	58337.85
534.35	58234.87
534.52	57677.82
534.69	58183.38
534.86	58820.00
535.03	59178.10
535.20	59365.35
535.37	60051.12
535.54	60142.41
535.71	59405.14
535.88	59447.27
536.05	58358.92
536.22	57687.18
536.38	57598.24
536.55	56980.34
536.72	56846.93
536.89	57396.96
537.06	57546.75
537.23	58031.24
537.40	57588.88
537.57	57680.16
537.74	57998.48
537.91	58017.20
538.08	57935.28
538.25	58401.05
538.42	58965.12
538.59	58489.99
538.75	57446.11
538.92	56860.97
539.09	57380.57
539.26	57354.83
539.43	57059.92
539.60	56818.84
539.77	57497.60
539.94	57418.02
540.11	56610.54
540.28	56128.39
540.44	56327.33
540.61	55938.80
540.78	56411.59
540.95	56924.17
541.12	57272.91
541.29	57790.17
541.46	57588.88
541.62	57855.70
541.79	57183.97
541.96	56697.14
542.13	57195.67
542.30	57205.03
542.47	57509.30
542.63	57200.35
542.80	56994.39
542.97	56257.12
543.14	56484.15
543.31	57242.48
543.48	57975.07
543.64	58089.76
543.81	58623.40
543.98	58820.00
544.15	57645.05
544.32	58066.35
544.48	57591.22
544.65	57183.97
544.82	57946.98
544.99	56858.63
545.16	56467.76
545.32	56715.86
545.49	57689.52
545.66	57827.62
545.83	57521.01
546.00	58028.90
546.16	57195.67
546.33	56907.79
546.50	57102.05
546.67	57867.40
546.83	57581.86
547.00	57581.86
547.17	55952.85
547.34	55423.89
547.50	55618.15
547.67	56385.85
547.84	57497.60
548.00	57633.35
548.17	57188.65
548.34	57581.86
548.51	57649.74
548.67	57478.88
548.84	57389.94
549.01	57710.59
549.18	57015.45
549.34	57317.38
549.51	57499.94
549.68	58026.56
549.84	57015.45
550.01	56413.93
550.18	56584.79
550.34	56629.26
550.51	56498.19
550.68	57233.12
550.84	57668.46
551.01	56626.92
551.18	56439.68
551.34	56303.93
551.51	57132.48
551.68	57244.82
551.84	57876.77
552.01	56996.73
552.18	56851.61
552.34	55786.67
552.51	55693.05
552.68	55414.52
552.84	56119.02
553.01	56020.72
553.18	56299.25
553.34	56645.65
553.51	56868.00
553.67	56797.78
553.84	57017.79
554.01	57387.60
554.17	56781.40
554.34	56533.30
554.51	56388.19
554.67	56030.08
554.84	56140.09
555.00	55693.05
555.17	56229.03
555.33	55966.89
555.50	55426.23
555.67	55840.50
555.83	56266.48
556.00	55531.55
556.16	55428.57
556.33	55313.88
556.50	55854.54
556.66	55393.46
556.83	54913.65
556.99	54663.21
557.16	55246.00
557.32	54937.05
557.49	55625.17
557.65	55657.94
557.82	56053.49
557.98	56179.88
558.15	55023.65
558.32	54188.08
558.48	53937.65
558.65	53563.16
558.81	53914.24
558.98	55304.52
559.14	55089.19
559.31	54915.99
559.47	54412.77
559.64	54614.06
559.80	53961.05
559.97	54417.46
560.13	55173.45
560.30	56416.27
560.46	56612.88
560.63	56917.15
560.79	56500.53
560.96	55835.82
561.12	54703.00
561.29	54651.51
561.45	54684.28
561.61	55779.65
561.78	54609.38
561.94	55119.62
562.11	54911.31
562.27	54101.48
562.44	55466.02
562.60	55627.51
562.77	55793.69
562.93	54845.77
563.10	55168.77
563.26	54958.12
563.42	55365.37
563.59	54930.03
563.75	54679.60
563.92	54323.83
564.08	54387.03
564.24	55402.82
564.41	54333.20
564.57	55557.30
564.74	55147.70
564.90	54475.97
565.07	53839.34
565.23	53172.29
565.39	52755.68
565.56	53233.14
565.72	53446.13
565.88	52685.46
566.05	54569.59
566.21	54185.74
566.38	54152.97
566.54	54948.76
566.70	55295.16
566.87	55119.62
567.03	54674.91
567.19	55976.25
567.36	55882.63
567.52	54017.22
567.68	53776.15
567.85	53066.97
568.01	53668.48
568.17	53401.66
568.34	53567.84
568.50	53542.10
568.66	52884.40
568.83	52907.81
568.99	52381.19
569.15	52683.12
569.32	52507.58
569.48	52594.18
569.64	52526.30
569.81	52924.19
569.97	52470.13
570.13	51529.23
570.30	50752.18
570.46	50894.95
570.62	50438.54
570.78	50827.07
570.95	51552.64
571.11	51838.18
571.27	51250.71
571.43	51983.30
571.60	51880.31
571.76	52657.37
571.92	52748.65
572.09	53055.26
572.25	52559.07
572.41	52664.39
572.57	52844.62
572.74	53443.79
572.90	54213.83
573.06	53984.46
573.22	53881.47
573.38	53654.44
573.55	54522.78
573.71	53057.60
573.87	53111.44
574.03	52882.06
574.20	52397.57
574.36	52376.51
574.52	51779.67
574.68	51679.03
574.84	51007.29
575.01	50815.37
575.17	50824.73
575.33	51400.50
575.49	51508.17
575.65	50644.51
575.82	50752.18
575.98	51791.37
576.14	52612.90
576.30	53008.45
576.46	51613.49
576.62	51019.00
576.79	51569.02
576.95	52055.85
577.11	51924.78
577.27	51723.50
577.43	51995.00
577.59	51573.70
577.75	50569.61
577.92	50417.48
578.08	50567.27
578.24	50405.78
578.40	50246.62
578.56	49635.74
578.72	49593.61
578.88	49820.64
579.04	50454.93
579.21	49930.65
579.37	50403.44
579.53	50700.68
579.69	49925.97
579.85	49710.64
580.01	50181.09
580.17	49514.03
580.33	51035.38
580.49	51334.97
580.65	49996.18
580.82	50703.03
580.98	51014.32
581.14	50740.47
581.30	50471.31
581.46	49916.61
581.62	50394.07
581.78	51508.17
581.94	51332.63
582.10	51295.18
582.26	51175.81
582.42	51033.04
582.58	50216.19
582.74	50033.63
582.90	50237.26
583.06	51213.26
583.22	50880.91
583.38	50993.25
583.54	50883.25
583.70	50948.78
583.86	51309.22
584.02	50103.85
584.18	50293.43
584.34	49652.12
584.50	49801.92
584.66	49911.92
584.82	49841.71
584.98	49752.77
585.14	48734.63
585.30	48945.28
