SpectraSuite Data File
++++++++++++++++++++++++++++++++++++
Date: Mon Oct 07 14:53:06 GMT-05:00 2013
User: price-jones
Dark Spectrum Present: No
Reference Spectrum Present: No
Number of Sampled Component Spectra: 1
Spectrometers: USB2+H05261
Integration Time (usec): 100000 (USB2+H05261)
Spectra Averaged: 1 (USB2+H05261)
Boxcar Smoothing: 0 (USB2+H05261)
Correct for Electrical Dark: No (USB2+H05261)
Strobe/Lamp Enabled: No (USB2+H05261)
Correct for Detector Non-linearity: No (USB2+H05261)
Correct for Stray Light: No (USB2+H05261)
Number of Pixels in Processed Spectrum: 2048
>>>>>Begin Processed Spectral Data<<<<<
365.73	0.00
365.92	0.00
366.12	0.00
366.32	0.00
366.52	0.00
366.72	0.00
366.91	0.00
367.11	0.00
367.31	0.00
367.51	0.00
367.70	0.00
367.90	0.00
368.10	0.00
368.30	0.00
368.49	0.00
368.69	0.00
368.89	0.00
369.09	0.00
369.28	0.00
369.48	0.00
369.68	0.00
369.87	0.00
370.07	0.00
370.27	0.00
370.47	470.45
370.66	2846.09
370.86	3372.71
371.06	3887.63
371.25	3749.54
371.45	3433.57
371.65	3253.34
371.84	2960.78
372.04	3028.65
372.24	3559.95
372.44	3534.21
372.63	3529.53
372.83	3332.92
373.03	2930.35
373.22	2747.79
373.42	2787.58
373.62	3309.52
373.81	3529.53
374.01	3454.63
374.21	3005.25
374.40	2993.55
374.60	3178.45
374.79	3520.17
374.99	3932.10
375.19	4311.27
375.38	4346.37
375.58	3971.89
375.78	4039.76
375.97	4135.73
376.17	4290.20
376.37	4098.28
376.56	4248.07
376.76	4500.85
376.95	4870.65
377.15	5184.29
377.35	5383.23
377.54	5561.11
377.74	5820.91
377.93	5678.14
378.13	5495.58
378.33	5317.70
378.52	4950.23
378.72	4550.00
378.91	4540.64
379.11	4442.34
379.31	4315.95
379.50	4346.37
379.70	4582.77
379.89	5135.14
380.09	5516.64
380.28	5638.35
380.48	5603.24
380.68	5423.02
380.87	5444.09
381.07	5069.60
381.26	4655.33
381.46	4353.40
381.65	4095.94
381.85	4063.17
382.04	3824.44
382.24	3595.06
382.43	3449.95
382.63	3515.48
382.83	3435.91
383.02	3506.12
383.22	3506.12
383.41	3510.80
383.61	3845.50
383.80	4257.43
384.00	4873.00
384.19	5315.36
384.39	5643.03
384.58	5584.52
384.78	5540.05
384.97	5490.90
385.17	5167.90
385.36	4858.95
385.56	4657.67
385.75	4919.81
385.95	5245.14
386.14	5802.19
386.34	5713.25
386.53	5640.69
386.72	5160.88
386.92	5366.85
387.11	5444.09
387.31	5795.17
387.50	5736.65
387.70	5605.58
387.89	5444.09
388.09	5572.82
388.28	5577.50
388.48	5664.10
388.67	5966.03
388.86	6597.97
389.06	7265.02
389.25	7363.33
389.45	7599.72
389.64	7431.20
389.84	7363.33
390.03	7190.13
390.22	7309.49
390.42	7590.36
390.61	7971.86
390.81	8421.25
391.00	8788.71
391.19	8779.35
391.39	8278.47
391.58	7906.33
391.78	7510.78
391.97	7248.64
392.16	6651.80
392.36	6106.46
392.55	4868.31
392.75	3971.89
392.94	3045.04
393.13	3166.74
393.33	3597.40
393.52	4966.62
393.71	5987.09
393.91	6581.59
394.10	7382.05
394.29	7805.69
394.49	8538.27
394.68	9184.26
394.88	9151.49
395.07	9474.49
395.26	9411.29
395.46	9001.70
395.65	8531.25
395.84	7620.78
396.04	6366.26
396.23	5256.84
396.42	4395.53
396.62	4301.90
396.81	4922.15
397.00	6389.66
397.19	7955.48
397.39	9254.48
397.58	10476.24
397.77	10860.09
397.97	11435.86
398.16	11702.68
398.35	11941.41
398.55	12222.28
398.74	12840.18
398.93	12882.31
399.12	12898.69
399.32	12444.63
399.51	12889.33
399.70	13453.40
399.90	13238.07
400.09	13605.53
400.28	13240.41
400.47	13394.89
400.67	14249.18
400.86	14518.34
401.05	14429.40
401.24	14628.35
401.44	14590.90
401.63	14530.05
401.82	15007.52
402.01	15040.28
402.21	15077.73
402.40	15330.51
402.59	14377.91
402.78	13898.10
402.97	13645.32
403.17	14033.85
403.36	15091.77
403.55	15503.71
403.74	16049.05
403.93	15101.14
404.13	13898.10
404.32	13673.41
404.51	14188.33
404.70	15428.81
404.89	15279.02
405.09	15176.03
405.28	14551.11
405.47	14930.28
405.66	14792.19
405.85	14237.48
406.05	13865.33
406.24	14225.78
406.43	14895.17
406.62	15269.66
406.81	15566.90
407.00	14892.83
407.20	14424.72
407.39	14572.18
407.58	15510.73
407.77	15985.86
407.96	16358.00
408.15	16306.51
408.34	16587.38
408.54	17399.54
408.73	17439.33
408.92	17041.44
409.11	16786.32
409.30	15573.92
409.49	14920.92
409.68	14099.39
409.87	13521.27
410.07	14434.08
410.26	15676.91
410.45	16720.79
410.64	16917.39
410.83	17598.49
411.02	17884.03
411.21	18494.91
411.40	18422.36
411.59	18663.43
411.78	18513.64
411.98	18237.45
412.17	18579.17
412.36	18029.15
412.55	18050.21
412.74	17830.20
412.93	17270.81
413.12	17392.52
413.31	19339.85
413.50	19414.74
413.69	19136.22
413.88	19030.90
414.07	18560.45
414.26	18485.55
414.45	19513.05
414.64	19611.35
414.83	19166.65
415.02	19058.98
415.22	19293.04
415.41	19271.97
415.60	19948.39
415.79	20753.53
415.98	21362.07
416.17	21333.98
416.36	20685.65
416.55	20388.41
416.74	19770.51
416.93	19171.33
417.12	19311.76
417.31	19323.46
417.50	19737.74
417.69	20367.34
417.88	20128.61
418.07	20039.67
418.26	19974.13
418.45	20051.37
418.64	21055.46
418.83	21528.25
419.02	21085.89
419.21	20786.30
419.39	19983.49
419.58	19154.94
419.77	19253.25
419.96	20437.56
420.15	21041.42
420.34	22003.38
420.53	22817.88
420.72	22860.01
420.91	22768.73
421.10	22457.44
421.29	22333.39
421.48	21752.94
421.67	22647.02
421.86	21825.50
422.05	20348.62
422.24	18466.83
422.43	18382.57
422.61	20194.14
422.80	22101.68
422.99	21778.68
423.18	21071.84
423.37	20524.16
423.56	20900.98
423.75	21282.49
423.94	21528.25
424.13	20491.39
424.32	20458.62
424.50	20847.15
424.69	20577.99
424.88	20407.13
425.07	20585.01
425.26	20173.08
425.45	19990.52
425.64	19789.23
425.83	19981.15
426.01	20950.14
426.20	21544.63
426.39	21247.38
426.58	19887.53
426.77	18448.10
426.96	17755.30
427.15	18143.83
427.33	19988.18
427.52	20608.42
427.71	20599.05
427.90	20603.74
428.09	20147.33
428.28	19655.82
428.46	18970.04
428.65	18670.45
428.84	19318.78
429.03	19386.66
429.22	18771.10
429.40	17633.60
429.59	16198.85
429.78	14169.60
429.97	14373.23
430.16	14476.21
430.34	14438.76
430.53	14335.78
430.72	14949.00
430.91	16332.26
431.10	19311.76
431.28	22501.91
431.47	24601.37
431.66	24702.01
431.85	22480.85
432.03	20580.33
432.22	19866.47
432.41	20800.34
432.60	23396.00
432.79	23843.04
432.97	24208.16
433.16	23929.64
433.35	21951.88
433.54	19503.68
433.72	18349.80
433.91	19267.29
434.10	21186.53
434.28	22782.77
434.47	23791.55
434.66	23424.08
434.85	23061.30
435.03	23091.73
435.22	23520.04
435.41	25247.36
435.59	24940.75
435.78	25118.63
435.97	25900.37
436.16	25926.11
436.34	25542.27
436.53	24746.48
436.72	25055.43
436.90	23707.29
437.09	23814.95
437.28	23412.38
437.46	24140.29
437.65	24304.12
437.84	22443.40
438.02	20458.62
438.21	20842.47
438.40	21738.90
438.58	23655.79
438.77	24395.40
438.96	24570.94
439.14	25539.93
439.33	25862.92
439.52	26157.83
439.70	25785.68
439.89	25326.94
440.08	24718.40
440.26	24627.12
440.45	25181.82
440.63	26991.06
440.82	28545.17
441.01	28215.16
441.19	27555.13
441.38	28032.60
441.57	29008.60
441.75	29607.78
441.94	30141.42
442.12	29305.85
442.31	30178.87
442.50	29750.55
442.68	29858.21
442.87	29415.85
443.05	28858.81
443.24	29219.25
443.43	30281.85
443.61	30459.73
443.80	30749.96
443.98	28877.53
444.17	29209.89
444.35	31068.27
444.54	31693.19
444.73	30792.09
444.91	29626.50
445.10	28325.16
445.28	27433.42
445.47	27075.32
445.65	27288.31
445.84	28011.53
446.02	28856.46
446.21	29139.67
446.39	29422.87
446.58	29933.11
446.77	30260.79
446.95	30721.87
447.14	31136.15
447.32	31709.58
447.51	31152.53
447.69	30038.44
447.88	29963.54
448.06	30085.25
448.25	30735.92
448.43	31065.93
448.62	30525.27
448.80	30094.61
448.99	30665.70
449.17	30771.02
449.36	30904.43
449.54	31761.07
449.73	32343.86
449.91	32802.61
450.10	33696.69
450.28	33996.28
450.46	33750.52
450.65	33607.75
450.83	33263.69
451.02	32734.73
451.20	32896.23
451.39	32746.44
451.57	32519.40
451.76	32739.41
451.94	32240.88
452.13	31772.77
452.31	30319.30
452.49	29177.12
452.68	29116.26
452.86	29219.25
453.05	29699.06
453.23	30752.30
453.42	31744.69
453.60	32116.83
453.78	32414.08
453.97	32149.60
454.15	31978.74
454.34	31393.61
454.52	31583.19
454.70	31002.74
454.89	31243.81
455.07	31433.39
455.26	31512.97
455.44	32971.13
455.62	33614.77
455.81	34066.50
455.99	33591.37
456.17	32980.49
456.36	33450.94
456.54	34494.82
456.73	34015.01
456.91	34885.68
457.09	35061.22
457.28	35761.05
457.46	34033.73
457.64	33787.97
457.83	33027.30
458.01	31938.95
458.19	32924.32
458.38	33195.82
458.56	34242.04
458.74	34333.32
458.93	33626.48
459.11	33385.40
459.29	33457.96
459.48	33680.31
459.66	33043.68
459.84	33729.46
460.03	33942.45
460.21	34160.12
460.39	34890.37
460.57	34565.03
460.76	35564.44
460.94	35470.82
461.12	34890.37
461.31	35182.93
461.49	35119.74
461.67	34511.20
461.85	36353.20
462.04	35639.34
462.22	36580.23
462.40	36259.58
462.59	36053.61
462.77	36070.00
462.95	35964.67
463.13	35377.20
463.32	35009.73
463.50	35164.21
463.68	34749.93
463.86	35131.44
464.05	34094.58
464.23	34132.03
464.41	33785.63
464.59	33195.82
464.78	34892.71
464.96	34668.02
465.14	34007.98
465.32	35225.06
465.50	36266.60
465.69	36259.58
465.87	35548.06
466.05	34838.87
466.23	33401.79
466.41	32723.03
466.60	33436.89
466.78	33642.86
466.96	34164.80
467.14	34506.52
467.32	34951.22
467.51	35419.33
467.69	33582.01
467.87	34153.10
468.05	35049.52
468.23	34930.16
468.41	34754.61
468.60	34740.57
468.78	35159.53
468.96	34836.53
469.14	35424.01
469.32	35534.01
469.50	34546.31
469.69	34609.50
469.87	33684.99
470.05	33766.91
470.23	33584.35
470.41	34164.80
470.59	34293.53
470.77	35028.46
470.95	35339.75
471.14	35505.93
471.32	35894.46
471.50	38057.11
471.68	38120.31
471.86	38178.82
472.04	38515.86
472.22	38539.26
472.40	36353.20
472.58	36039.57
472.77	36018.50
472.95	36442.14
473.13	37691.99
473.31	36460.87
473.49	36877.48
473.67	37574.96
473.85	37605.39
474.03	38532.24
474.21	38876.30
474.39	39030.77
474.57	39161.84
474.75	39388.88
474.93	39019.07
475.12	37605.39
475.30	38106.26
475.48	38380.10
475.66	38974.60
475.84	38609.48
476.02	38368.40
476.20	37467.30
476.38	38457.34
476.56	39744.64
476.74	39899.11
476.92	40502.97
477.10	40945.33
477.28	41937.72
477.46	41816.01
477.64	42478.38
477.82	42108.58
478.00	42361.36
478.18	41942.40
478.36	41495.36
478.54	41663.88
478.72	42291.14
478.90	42934.79
479.08	44219.74
479.26	44638.70
479.44	44648.06
479.62	44411.67
479.80	43765.68
479.98	44919.56
480.16	44823.60
480.34	44039.52
480.52	44470.18
480.70	44629.34
480.88	45415.76
481.06	46064.08
481.24	46546.23
481.41	46974.55
481.59	47690.76
481.77	47000.30
481.95	46543.89
482.13	46894.97
482.31	46447.93
482.49	46930.08
482.67	47164.14
482.85	47564.37
483.03	47824.17
483.21	48121.41
483.39	48465.47
483.57	47384.15
483.74	47412.23
483.92	47487.13
484.10	47615.86
484.28	48669.10
484.46	49279.98
484.64	49514.03
484.82	48669.10
485.00	48079.28
485.18	47290.52
485.35	46120.26
485.53	42506.47
485.71	39323.34
485.89	39196.95
486.07	41064.70
486.25	44383.58
486.43	46298.14
486.61	47351.38
486.78	46808.37
486.96	47728.20
487.14	49230.83
487.32	49490.63
487.50	51180.49
487.68	51744.56
487.85	52175.22
488.03	52165.86
488.21	51428.59
488.39	50717.07
488.57	50309.82
488.75	50014.91
488.92	51021.34
489.10	53439.11
489.28	54681.94
489.46	54981.52
489.64	54677.25
489.81	54899.61
489.99	54581.29
490.17	54754.49
490.35	54918.33
490.53	54419.80
490.70	54103.82
490.88	54220.85
491.06	55098.55
491.24	54937.05
491.41	53986.80
491.59	52472.47
491.77	51887.34
491.95	52954.62
492.13	53979.78
492.30	55428.57
492.48	56069.87
492.66	56556.70
492.84	56406.91
493.01	56116.68
493.19	55662.62
493.37	55248.35
493.54	54918.33
493.72	55920.08
493.90	56748.63
494.08	57401.64
494.25	57572.50
494.43	57937.62
494.61	58176.36
494.79	58314.45
494.96	58204.44
495.14	57357.17
495.32	56596.49
495.49	56109.66
495.67	57104.39
495.85	58227.85
496.02	58637.44
496.20	58536.80
496.38	58064.01
496.55	57946.98
496.73	58377.64
496.91	58513.39
497.09	59215.55
497.26	59316.20
497.44	58780.21
497.62	58192.74
497.79	57544.41
497.97	56390.53
498.14	56226.69
498.32	57932.94
498.50	58454.88
498.67	59103.21
498.85	58838.73
499.03	59054.06
499.20	59196.83
499.38	59065.76
499.56	59084.48
499.73	58480.63
499.91	58274.66
500.08	57932.94
500.26	57031.83
500.44	57757.40
500.61	58347.21
500.79	58049.97
500.97	57806.55
501.14	57689.52
501.32	57286.95
501.49	57286.95
501.67	57780.81
501.84	58094.44
502.02	58663.19
502.20	58728.72
502.37	58780.21
502.55	59014.27
502.72	59580.68
502.90	59742.17
503.07	59580.68
503.25	58995.54
503.43	58213.80
503.60	57879.11
503.78	57073.96
503.95	57853.36
504.13	58965.12
504.30	59667.28
504.48	59231.94
504.65	59157.04
504.83	59002.56
505.01	59812.39
505.18	60266.45
505.36	60608.17
505.53	60605.83
505.71	60774.35
505.88	60865.63
506.06	60509.87
506.23	60011.34
506.41	59962.18
506.58	60062.83
506.76	59798.35
506.93	59901.33
507.11	59730.47
507.28	59880.27
507.46	59365.35
507.63	58810.64
507.81	58578.93
507.98	58913.62
508.16	59676.64
508.33	59987.93
508.50	60505.19
508.68	60683.07
508.85	61190.97
509.03	61095.00
509.20	60832.86
509.38	60119.00
509.55	59606.42
509.73	59613.44
509.90	60149.43
510.08	60451.36
510.25	60385.82
510.42	60191.56
510.60	59924.74
510.77	60247.73
510.95	60914.78
511.12	61043.51
511.30	61307.99
511.47	61436.72
511.64	61544.39
511.82	61303.31
511.99	60308.58
512.17	59863.88
512.34	59798.35
512.51	59849.84
512.69	60090.91
512.86	60224.32
513.04	60383.48
513.21	60381.14
513.38	60011.34
513.56	59636.85
513.73	59086.82
513.90	59428.54
514.08	59646.21
514.25	59798.35
514.43	59873.24
514.60	59831.11
514.77	60161.13
514.95	60156.45
515.12	60062.83
515.29	60259.43
515.47	60795.42
515.64	60956.91
515.81	60486.46
515.99	60247.73
516.16	58604.67
516.33	56521.60
516.51	55386.44
516.68	54419.80
516.85	54265.32
517.03	54646.83
517.20	57263.55
517.37	59538.55
517.54	60388.16
517.72	59611.10
517.89	57387.60
518.06	55454.31
518.24	55819.44
518.41	57745.70
518.58	58820.00
518.75	59030.65
518.93	59480.03
519.10	58944.05
519.27	59552.59
519.45	59812.39
519.62	60404.55
519.79	60800.10
519.96	60568.38
520.14	60177.51
520.31	59316.20
520.48	59285.77
520.65	59690.68
520.83	60753.29
521.00	60844.57
521.17	60589.45
521.34	60121.34
521.52	60750.94
521.69	61024.79
521.86	61368.85
522.03	61207.35
522.20	59838.14
522.38	59112.57
522.55	59194.49
522.72	59777.28
522.89	59901.33
523.07	59987.93
523.24	60439.65
523.41	61190.97
523.58	61432.04
523.75	61790.14
523.92	61478.85
524.10	61722.27
524.27	61425.02
524.44	61387.57
524.61	61118.41
524.78	61111.39
524.96	61167.56
525.13	61071.60
525.30	61296.29
525.47	61666.09
525.64	61811.21
525.81	61062.24
525.98	59552.59
526.16	58452.54
526.33	57705.91
526.50	57427.38
526.67	57155.88
526.84	57724.63
527.01	58436.16
527.18	59465.99
527.36	60250.07
527.53	60910.10
527.70	61120.75
527.87	60706.47
528.04	60289.86
528.21	60879.67
528.38	61474.17
528.55	61907.17
528.72	62082.71
528.89	62389.32
529.07	61961.00
529.24	61523.32
529.41	60673.71
529.58	60086.23
529.75	60488.80
529.92	60846.91
530.09	61289.27
530.26	61623.96
530.43	61855.68
530.60	61876.74
530.77	62115.48
530.94	62230.16
531.11	61757.38
531.28	61518.64
531.46	61448.42
531.63	61375.87
531.80	61471.83
531.97	60615.19
532.14	60229.01
532.31	59206.19
532.48	58812.98
532.65	58756.81
532.82	59634.51
532.99	60612.85
533.16	60860.95
533.33	61460.13
533.50	61296.29
533.67	60596.47
533.84	60282.84
534.01	60594.13
534.18	60633.92
534.35	60870.31
534.52	60631.58
534.69	60973.30
534.86	61247.14
535.03	61623.96
535.20	61928.23
535.37	62136.54
535.54	62291.02
535.71	61935.26
535.88	61593.54
536.05	61113.73
536.22	60561.36
536.38	60189.22
536.55	59763.24
536.72	59545.57
536.89	59508.12
537.06	60217.30
537.23	61087.98
537.40	61254.16
537.57	61144.16
537.74	60987.34
537.91	61066.92
538.08	60947.55
538.25	61106.71
538.42	61258.84
538.59	60844.57
538.75	60289.86
538.92	60168.15
539.09	60107.30
539.26	60013.68
539.43	59737.49
539.60	59702.38
539.77	60034.74
539.94	60006.65
540.11	59124.27
540.28	58698.30
540.44	58899.58
540.61	58873.84
540.78	59157.04
540.95	59660.26
541.12	59880.27
541.29	60142.41
541.46	60601.15
541.62	60514.55
541.79	60317.95
541.96	59566.63
542.13	59798.35
542.30	60310.92
542.47	60243.05
542.63	60006.65
542.80	59739.83
542.97	60011.34
543.14	59957.50
543.31	59945.80
543.48	60580.09
543.64	61254.16
543.81	61462.47
543.98	60935.85
544.15	60465.40
544.32	60016.02
544.48	60193.90
544.65	60589.45
544.82	60954.57
544.99	60519.23
545.16	60037.08
545.32	60111.98
545.49	60835.20
545.66	60907.76
545.83	60669.03
546.00	60364.76
546.16	60128.36
546.33	60079.21
546.50	60170.49
546.67	60678.39
546.83	60161.13
547.00	60395.18
547.17	59625.15
547.34	59096.19
547.50	58995.54
547.67	59517.48
547.84	59444.93
548.00	59948.14
548.17	60324.97
548.34	60243.05
548.51	60278.16
548.67	60257.09
548.84	60348.37
549.01	60357.74
549.18	60123.68
549.34	60093.25
549.51	59999.63
549.68	60065.17
549.84	59756.22
550.01	59573.66
550.18	59554.93
550.34	59742.17
550.51	59777.28
550.68	59842.82
550.84	59199.17
551.01	59512.80
551.18	59143.00
551.34	59660.26
551.51	59849.84
551.68	60308.58
551.84	60303.90
552.01	60020.70
552.18	59983.25
552.34	59178.10
552.51	58878.52
552.68	58822.34
552.84	59339.60
553.01	59402.80
553.18	59271.73
553.34	59494.08
553.51	59629.83
553.67	59760.90
553.84	59868.56
554.01	59873.24
554.17	59629.83
554.34	59889.63
554.51	59906.01
554.67	60301.56
554.84	60044.10
555.00	59702.38
555.17	59494.08
555.33	59164.06
555.50	59292.79
555.67	59606.42
555.83	59309.18
556.00	59133.63
556.16	58883.20
556.33	58700.64
556.50	58712.34
556.66	58717.02
556.83	58241.89
556.99	58557.86
557.16	58534.46
557.32	58955.75
557.49	59037.67
557.65	59056.40
557.82	59042.35
557.98	58679.57
558.15	58459.56
558.32	57698.89
558.48	56978.00
558.65	57286.95
558.81	57591.22
558.98	57724.63
559.14	58017.20
559.31	58141.25
559.47	58183.38
559.64	57656.76
559.80	57542.07
559.97	57698.89
560.13	58068.69
560.30	58794.26
560.46	59147.68
560.63	59313.86
560.79	59559.61
560.96	59182.79
561.12	57939.96
561.29	57228.44
561.45	57322.06
561.61	57766.76
561.78	58141.25
561.94	58145.93
562.11	58092.10
562.27	57874.43
562.44	58267.64
562.60	58506.37
562.77	58532.12
562.93	58237.21
563.10	58433.81
563.26	57818.25
563.42	57930.60
563.59	57605.26
563.75	57668.46
563.92	57755.06
564.08	57736.34
564.24	58061.67
564.41	58159.97
564.57	58092.10
564.74	57614.63
564.90	57729.31
565.07	57530.37
565.23	57303.34
565.39	56528.62
565.56	56631.60
565.72	56367.12
565.88	56835.23
566.05	56598.83
566.21	57041.20
566.38	57109.07
566.54	57272.91
566.70	57530.37
566.87	57783.15
567.03	57804.21
567.19	58064.01
567.36	57715.27
567.52	57586.54
567.68	57357.17
567.85	56643.30
568.01	56332.01
568.17	56154.13
568.34	55976.25
568.50	56257.12
568.66	56343.72
568.83	56732.25
568.99	56615.22
569.15	56849.27
569.32	56608.20
569.48	56561.39
569.64	56259.46
569.81	56177.54
569.97	56154.13
570.13	55683.69
570.30	55536.23
570.46	55110.25
570.62	54836.41
570.78	54473.63
570.95	54824.71
571.11	55636.87
571.27	55676.66
571.43	55950.51
571.60	56231.37
571.76	56271.16
571.92	56776.72
572.09	56669.05
572.25	56622.24
572.41	56381.16
572.57	56662.03
572.74	56488.83
572.90	56334.35
573.06	56100.30
573.22	56329.67
573.38	56011.36
573.55	56175.20
573.71	56306.27
573.87	56261.80
574.03	55973.91
574.20	56079.24
574.36	55620.49
574.52	55590.06
574.68	55470.70
574.84	55269.41
575.01	54529.80
575.17	54597.68
575.33	55058.76
575.49	55079.83
575.65	55185.15
575.82	55175.79
575.98	54946.42
576.14	55178.13
576.30	55302.18
576.46	55384.10
576.62	55384.10
576.79	55370.05
576.95	55271.75
577.11	54925.35
577.27	55077.49
577.43	55196.85
577.59	54864.50
577.75	54279.36
577.92	53689.55
578.08	53514.01
578.24	53605.29
578.40	53947.01
578.56	54075.74
578.72	54415.11
578.88	54262.98
579.04	54665.55
579.21	54597.68
579.37	54705.34
579.53	54850.45
579.69	54703.00
579.85	55077.49
580.01	54789.60
580.17	54550.87
580.33	53916.58
580.49	54288.73
580.65	54735.77
580.82	54798.96
580.98	54710.02
581.14	54731.09
581.30	54794.28
581.46	54583.63
581.62	54880.88
581.78	54747.47
581.94	55056.42
582.10	55049.40
582.26	55140.68
582.42	54887.90
582.58	55061.10
582.74	54880.88
582.90	55054.08
583.06	54805.98
583.22	54843.43
583.38	54574.27
583.54	54513.42
583.70	54454.90
583.86	54581.29
584.02	54396.39
584.18	54351.92
584.34	54349.58
584.50	54452.56
584.66	54365.96
584.82	53801.89
584.98	54024.25
585.14	53396.98
585.30	52533.32
