SpectraSuite Data File
++++++++++++++++++++++++++++++++++++
Date: Mon Oct 07 14:53:23 GMT-05:00 2013
User: price-jones
Dark Spectrum Present: No
Reference Spectrum Present: No
Number of Sampled Component Spectra: 1
Spectrometers: USB2+H05261
Integration Time (usec): 100000 (USB2+H05261)
Spectra Averaged: 1 (USB2+H05261)
Boxcar Smoothing: 0 (USB2+H05261)
Correct for Electrical Dark: No (USB2+H05261)
Strobe/Lamp Enabled: No (USB2+H05261)
Correct for Detector Non-linearity: No (USB2+H05261)
Correct for Stray Light: No (USB2+H05261)
Number of Pixels in Processed Spectrum: 2048
>>>>>Begin Processed Spectral Data<<<<<
365.73	0.00
365.92	0.00
366.12	0.00
366.32	0.00
366.52	0.00
366.72	0.00
366.91	0.00
367.11	0.00
367.31	0.00
367.51	0.00
367.70	0.00
367.90	0.00
368.10	0.00
368.30	0.00
368.49	0.00
368.69	0.00
368.89	0.00
369.09	0.00
369.28	0.00
369.48	0.00
369.68	0.00
369.87	0.00
370.07	0.00
370.27	0.00
370.47	550.03
370.66	2890.56
370.86	3276.75
371.06	3611.45
371.25	3801.03
371.45	3407.82
371.65	3070.78
371.84	2944.39
372.04	3045.04
372.24	3234.62
372.44	3513.14
372.63	3384.41
372.83	3215.90
373.03	2843.75
373.22	2490.33
373.42	2789.92
373.62	3122.27
373.81	3410.16
374.01	3386.76
374.21	3094.19
374.40	2953.76
374.60	3047.38
374.79	3370.37
374.99	3918.06
375.19	4131.05
375.38	4184.88
375.58	4067.85
375.78	3969.55
375.97	4018.70
376.17	4126.36
376.37	4077.21
376.56	4311.27
376.76	4449.36
376.95	4781.71
377.15	5249.82
377.35	5357.49
377.54	5542.39
377.74	5511.96
377.93	5734.31
378.13	5654.73
378.33	5394.93
378.52	4945.55
378.72	4657.67
378.91	4652.98
379.11	4634.26
379.31	4332.33
379.50	4255.09
379.70	4624.90
379.89	5217.05
380.09	5542.39
380.28	5612.60
380.48	5500.26
380.68	5579.84
380.87	5345.78
381.07	4931.51
381.26	4465.74
381.46	4297.22
381.65	4152.11
381.85	4023.38
382.04	3918.06
382.24	3693.37
382.43	3318.88
382.63	3265.05
382.83	3410.16
383.02	3382.07
383.22	3377.39
383.41	3440.59
383.61	3627.83
383.80	4060.83
384.00	4730.22
384.19	5245.14
384.39	5575.16
384.58	5465.15
384.78	5383.23
384.97	5437.06
385.17	5214.71
385.36	4947.89
385.56	4585.11
385.75	4594.47
385.95	5301.31
386.14	5647.71
386.34	5666.44
386.53	5568.13
386.72	5109.39
386.92	5153.86
387.11	5502.60
387.31	5764.74
387.50	5708.57
387.70	5455.79
387.89	5420.68
388.09	5310.68
388.28	5507.28
388.48	5408.98
388.67	6010.50
388.86	6551.16
389.06	6874.15
389.25	7339.92
389.45	7510.78
389.64	7470.99
389.84	7384.39
390.03	7129.27
390.22	7255.66
390.42	7393.75
390.61	7936.76
390.81	8198.90
391.00	8470.40
391.19	8477.42
391.39	8074.85
391.58	7812.71
391.78	7283.75
391.97	7131.61
392.16	6640.10
392.36	5998.79
392.55	4868.31
392.75	3707.41
392.94	3155.04
393.13	3000.57
393.33	3698.05
393.52	4662.35
393.71	5701.54
393.91	6504.35
394.10	7005.22
394.29	7737.81
394.49	8217.62
394.68	9060.21
394.88	9057.87
395.07	9434.70
395.26	9275.54
395.46	9034.47
395.65	8645.94
395.84	7314.17
396.04	6237.53
396.23	5029.81
396.42	4236.37
396.62	4109.98
396.81	4699.80
397.00	6146.25
397.19	7705.04
397.39	9071.92
397.58	10111.11
397.77	10717.31
397.97	11002.86
398.16	11447.56
398.35	11616.08
398.55	12159.08
398.74	12554.63
398.93	12505.48
399.12	12739.54
399.32	12161.42
399.51	12498.46
399.70	13083.59
399.90	13383.18
400.09	13156.15
400.28	13085.94
400.47	13071.89
400.67	13933.21
400.86	14108.75
401.05	13987.04
401.24	14113.43
401.44	14263.22
401.63	14422.38
401.82	14359.19
402.01	14455.15
402.21	14630.69
402.40	14600.26
402.59	14321.74
402.78	13577.45
402.97	13336.37
403.17	13823.20
403.36	14541.75
403.55	15150.29
403.74	15405.41
403.93	14754.74
404.13	13762.35
404.32	13336.37
404.51	14099.39
404.70	14892.83
404.89	14988.79
405.09	14513.66
405.28	14317.06
405.47	14394.29
405.66	14267.91
405.85	13865.33
406.05	13631.28
406.24	13582.13
406.43	14342.80
406.62	14677.50
406.81	14803.89
407.00	14455.15
407.20	14068.96
407.39	14319.40
407.58	14721.97
407.77	15339.87
407.96	15782.23
408.15	16191.83
408.34	16140.33
408.54	16994.63
408.73	17151.45
408.92	16575.67
409.11	16311.19
409.30	15363.28
409.49	14670.48
409.68	13816.18
409.87	13528.30
410.07	14015.13
410.26	15264.97
410.45	16329.92
410.64	16299.49
410.83	16833.13
411.02	17247.41
411.21	18256.18
411.40	18003.40
411.59	18019.78
411.78	17809.14
411.98	17486.14
412.17	18090.00
412.36	17504.87
412.55	17521.25
412.74	17064.85
412.93	16814.41
413.12	16938.46
413.31	18679.82
413.50	18937.27
413.69	18939.62
413.88	18192.98
414.07	17481.46
414.26	18202.35
414.45	18892.80
414.64	18661.09
414.83	18930.25
415.02	18579.17
415.22	18721.95
415.41	18836.63
415.60	19330.48
415.79	20196.48
415.98	20788.64
416.17	20772.25
416.36	20222.23
416.55	20154.35
416.74	19211.12
416.93	18808.54
417.12	18738.33
417.31	18735.99
417.50	19264.95
417.69	19997.54
417.88	19829.02
418.07	19999.88
418.26	19358.57
418.45	19161.97
418.64	20109.88
418.83	20879.92
419.02	20475.01
419.21	20503.09
419.39	19583.26
419.58	18480.87
419.77	18721.95
419.96	19482.62
420.15	20695.02
420.34	21123.33
420.53	21986.99
420.72	22389.56
420.91	22005.72
421.10	21865.28
421.29	21792.73
421.48	21013.33
421.67	21994.01
421.86	21411.22
422.05	19826.68
422.24	17886.37
422.43	17408.90
422.61	19793.91
422.80	21216.96
422.99	21216.96
423.18	20245.63
423.37	20102.86
423.56	20264.36
423.75	20404.79
423.94	20725.44
424.13	19386.66
424.32	19803.27
424.50	19866.47
424.69	19758.80
424.88	19634.75
425.07	19484.96
425.26	19637.09
425.45	19428.79
425.64	19110.47
425.83	18885.78
426.01	20091.16
426.20	20704.38
426.39	20563.95
426.58	19250.91
426.77	17635.94
426.96	17060.16
427.15	17570.40
427.33	19346.87
427.52	20037.33
427.71	19974.13
427.90	19805.61
428.09	19590.28
428.28	19138.56
428.46	18654.07
428.65	18188.30
428.84	18586.19
429.03	19143.24
429.22	18003.40
429.40	17102.29
429.59	15459.24
429.78	13516.59
429.97	13642.98
430.16	13898.10
430.34	13774.05
430.53	13963.64
430.72	14438.76
430.91	15786.91
431.10	18764.07
431.28	21762.30
431.47	23384.29
431.66	23850.06
431.85	21673.36
432.03	20269.04
432.22	18707.90
432.41	19934.34
432.60	22073.59
432.79	22831.93
432.97	23470.89
433.16	22948.95
433.35	21266.11
433.54	18672.79
433.72	17483.80
433.91	18174.26
434.10	20456.28
434.28	21951.88
434.47	22984.06
434.66	22422.33
434.85	22253.81
435.03	21912.10
435.22	22539.36
435.41	23948.36
435.59	24247.95
435.78	24592.01
435.97	25095.22
436.16	25048.41
436.34	24641.16
436.53	24222.20
436.72	24313.48
436.90	22867.03
437.09	22874.06
437.28	22391.91
437.46	22764.05
437.65	22742.99
437.84	21617.19
438.02	19676.88
438.21	19641.78
438.40	20980.56
438.58	22466.80
438.77	22972.36
438.96	23438.12
439.14	24587.33
439.33	25118.63
439.52	25493.12
439.70	24524.13
439.89	24095.82
440.08	23538.77
440.26	23349.18
440.45	24114.54
440.63	25743.55
440.82	27402.99
441.01	26972.33
441.19	26274.85
441.38	27012.12
441.57	27882.80
441.75	28079.41
441.94	28400.06
442.12	28098.13
442.31	29289.46
442.50	28844.76
442.68	28652.84
442.87	28238.56
443.05	27707.26
443.24	27962.38
443.43	28627.09
443.61	29022.64
443.80	29593.73
443.98	27871.10
444.17	28046.64
444.35	29385.43
444.54	30396.54
444.73	29654.59
444.91	28582.62
445.10	27290.65
445.28	26094.63
445.47	25701.42
445.65	26122.72
445.84	26948.93
446.02	27681.52
446.21	28098.13
446.39	28091.11
446.58	28224.52
446.77	29184.14
446.95	29060.09
447.14	30000.99
447.32	30583.78
447.51	29731.83
447.69	28755.82
447.88	28025.57
448.06	28697.31
448.25	29476.71
448.43	29614.80
448.62	28732.42
448.80	28676.24
448.99	29355.00
449.17	29364.36
449.36	29266.06
449.54	30045.46
449.73	30932.52
449.91	31159.55
450.10	32126.19
450.28	32217.47
450.46	32170.66
450.65	32491.32
450.83	32222.16
451.02	31512.97
451.20	31253.17
451.39	30988.69
451.57	30864.64
451.76	31119.76
451.94	31197.00
452.13	30110.99
452.31	29179.46
452.49	27241.50
452.68	28086.43
452.86	27976.42
453.05	28575.60
453.23	29308.19
453.42	29993.97
453.60	30646.97
453.78	30766.34
453.97	30600.16
454.15	30300.58
454.34	29764.59
454.52	30005.67
454.70	29308.19
454.89	29752.89
455.07	29940.13
455.26	30178.87
455.44	31435.74
455.62	32261.94
455.81	32301.73
455.99	31978.74
456.17	31325.73
456.36	31672.13
456.54	32650.47
456.73	32744.09
456.91	32891.55
457.09	33163.05
457.28	33729.46
457.46	32465.57
457.64	32313.44
457.83	31615.96
458.01	30834.22
458.19	31562.12
458.38	31541.06
458.56	32699.62
458.74	32451.53
458.93	32070.02
459.11	31721.28
459.29	31585.53
459.48	32002.14
459.66	31632.34
459.84	32046.62
460.03	32407.06
460.21	32837.72
460.39	32966.45
460.57	33605.41
460.76	33682.65
460.94	33479.02
461.12	33062.41
461.31	33488.38
461.49	33083.47
461.67	33249.65
461.85	34167.14
462.04	33874.57
462.22	34850.58
462.40	33851.17
462.59	33860.53
462.77	34085.22
462.95	34010.32
463.13	33324.55
463.32	33537.54
463.50	32840.06
463.68	32891.55
463.86	32992.19
464.05	33048.36
464.23	32112.15
464.41	32385.99
464.59	31618.30
464.78	33177.09
464.96	32823.67
465.14	32385.99
465.32	33439.23
465.50	34218.63
465.69	33998.62
465.87	33717.76
466.05	32936.02
466.23	31646.38
466.41	30862.30
466.60	31557.44
466.78	31690.85
466.96	32247.90
467.14	32741.75
467.32	32748.78
467.51	33284.76
467.69	31536.38
467.87	32292.37
468.05	32659.84
468.23	32875.16
468.41	33017.94
468.60	32875.16
468.78	33261.35
468.96	32430.46
469.14	33825.42
469.32	33972.88
469.50	32395.35
469.69	32432.80
469.87	32063.00
470.05	32009.17
470.23	31683.83
470.41	32044.27
470.59	32283.01
470.77	33015.60
470.95	33457.96
471.14	33750.52
471.32	33923.72
471.50	36062.97
471.68	36025.53
471.86	36217.45
472.04	36407.03
472.22	36236.17
472.40	34286.51
472.58	34220.97
472.77	33670.95
472.95	34415.24
473.13	35552.74
473.31	34534.60
473.49	34979.31
473.67	35185.27
473.85	35704.87
474.03	36821.31
474.21	36517.04
474.39	36634.06
474.57	36950.04
474.75	37163.03
474.93	36706.62
475.12	36109.78
475.30	36027.87
475.48	36332.14
475.66	36547.47
475.84	36285.33
476.02	36219.79
476.20	35218.04
476.38	36376.61
476.56	36928.97
476.74	37776.25
476.92	37792.63
477.10	38426.92
477.28	39374.83
477.46	39409.94
477.64	40112.10
477.82	40208.06
478.00	39746.98
478.18	39346.75
478.36	39161.84
478.54	39440.37
478.72	39889.75
478.90	40676.17
479.08	41174.70
479.26	42417.53
479.44	41717.71
479.62	41570.25
479.80	41759.84
479.98	42101.56
480.16	42298.16
480.34	42019.64
480.52	42387.10
480.70	42417.53
480.88	42281.78
481.06	43416.94
481.24	43627.59
481.41	44238.47
481.59	45188.72
481.77	44739.34
481.95	44355.49
482.13	44114.42
482.31	44065.27
482.49	44706.57
482.67	44542.74
482.85	44980.42
483.03	45453.20
483.21	45837.05
483.39	45823.01
483.57	45523.42
483.74	44687.85
483.92	45052.97
484.10	45284.68
484.28	45977.48
484.46	46946.47
484.64	46726.46
484.82	46028.98
485.00	45572.57
485.18	45055.31
485.35	43491.83
485.53	40285.30
485.71	37125.58
485.89	36353.20
486.07	38073.49
486.25	41797.29
486.43	43988.03
486.61	44921.90
486.78	44079.31
486.96	44619.97
487.14	46564.96
487.32	47990.34
487.50	48470.15
487.68	49111.46
487.85	49844.05
488.03	49858.09
488.21	49317.43
488.39	48477.18
488.57	48224.40
488.75	47381.80
488.92	48598.88
489.10	51082.19
489.28	52587.16
489.46	53008.45
489.64	52783.76
489.81	53099.73
489.99	52657.37
490.17	52692.48
490.35	53038.88
490.53	52612.90
490.70	52107.35
490.88	51742.22
491.06	53123.14
491.24	52945.26
491.41	51885.00
491.59	50153.00
491.77	49464.88
491.95	50658.56
492.13	51793.71
492.30	53078.67
492.48	54218.51
492.66	54560.23
492.84	54616.40
493.01	54078.08
493.19	53698.91
493.37	53319.74
493.54	53151.23
493.72	53799.55
493.90	54574.27
494.08	55524.53
494.25	55590.06
494.43	55994.98
494.61	56392.87
494.79	56498.19
494.96	56285.20
495.14	55730.50
495.32	54527.46
495.49	54080.42
495.67	55262.39
495.85	56596.49
496.02	56875.02
496.20	56769.69
496.38	56207.97
496.55	55917.74
496.73	56446.70
496.91	56575.43
497.09	57212.06
497.26	57310.36
497.44	56844.59
497.62	56453.72
497.79	55522.19
497.97	54251.28
498.14	54873.86
498.32	55716.45
498.50	56542.66
498.67	57261.21
498.85	56947.57
499.03	57167.58
499.20	57174.61
499.38	57415.68
499.56	57188.65
499.73	56650.33
499.91	56444.36
500.08	56044.13
500.26	55379.42
500.44	55725.81
500.61	56561.39
500.79	56226.69
500.97	55707.09
501.14	55643.90
501.32	55510.49
501.49	55552.62
501.67	55627.51
501.84	56090.94
502.02	56516.92
502.20	56928.85
502.37	57233.12
502.55	56985.02
502.72	57600.58
502.90	58106.14
503.07	57862.72
503.25	57148.86
503.43	56409.25
503.60	55688.37
503.78	54918.33
503.95	55725.81
504.13	57169.93
504.30	57808.89
504.48	57738.68
504.65	57366.53
504.83	57518.67
505.01	57750.38
505.18	58094.44
505.36	58688.93
505.53	58836.39
505.71	58969.80
505.88	59161.72
506.06	58216.14
506.23	58298.06
506.41	57736.34
506.58	58110.82
506.76	58019.54
506.93	57886.13
507.11	57663.78
507.28	57968.05
507.46	57488.24
507.63	56807.14
507.81	56853.95
507.98	56846.93
508.16	57668.46
508.33	58192.74
508.50	58379.98
508.68	58791.92
508.85	59206.19
509.03	59114.91
509.20	58958.09
509.38	58358.92
509.55	57673.14
509.73	57808.89
509.90	58152.95
510.08	58742.77
510.25	58599.99
510.42	58110.82
510.60	58068.69
510.77	58419.77
510.95	59131.29
511.12	58983.84
511.30	59348.96
511.47	59821.75
511.64	59580.68
511.82	59269.39
511.99	58354.24
512.17	58145.93
512.34	57654.42
512.51	57806.55
512.69	57991.45
512.86	58152.95
513.04	58504.03
513.21	58548.50
513.38	58176.36
513.56	57722.29
513.73	57226.10
513.90	57343.12
514.08	57364.19
514.25	57764.42
514.43	58066.35
514.60	58045.29
514.77	58071.03
514.95	58403.39
515.12	58265.30
515.29	58206.78
515.47	59117.25
515.64	59044.69
515.81	58635.10
515.99	58047.63
516.16	56652.67
516.33	54429.16
516.51	53031.86
516.68	52053.51
516.85	51751.59
517.03	52144.80
517.20	54859.82
517.37	57305.68
517.54	58204.44
517.72	57682.50
517.89	55564.32
518.06	52994.41
518.24	53546.78
518.41	55430.91
518.58	56706.50
518.75	57148.86
518.93	57293.97
519.10	57350.15
519.27	57687.18
519.45	57729.31
519.62	58520.41
519.79	58782.55
519.96	58487.65
520.14	58248.91
520.31	57401.64
520.48	57563.14
520.65	57750.38
520.83	58511.05
521.00	59213.21
521.17	58585.95
521.34	58127.20
521.52	58487.65
521.69	59311.52
521.86	59671.96
522.03	59229.60
522.20	57900.17
522.38	57148.86
522.55	56942.89
522.72	57591.22
522.89	57776.12
523.07	58176.36
523.24	58599.99
523.41	59241.30
523.58	59419.18
523.75	59920.05
523.92	59697.70
524.10	59503.44
524.27	59475.35
524.44	59416.84
524.61	59264.70
524.78	59103.21
524.96	59203.85
525.13	58934.69
525.30	59166.40
525.47	59697.70
525.64	59627.49
525.81	58922.99
525.98	57448.45
526.16	56104.98
526.33	55306.86
526.50	55065.78
526.67	54817.69
526.84	55379.42
527.01	56458.40
527.18	57352.49
527.36	58026.56
527.53	58789.58
527.70	59135.98
527.87	58670.21
528.04	58103.80
528.21	58468.92
528.38	59220.23
528.55	59735.15
528.72	60081.55
528.89	60289.86
529.07	60154.11
529.24	59281.09
529.41	58770.85
529.58	58024.22
529.75	58227.85
529.92	58700.64
530.09	59126.61
530.26	59613.44
530.43	59791.33
530.60	59915.37
530.77	60053.47
530.94	60149.43
531.11	59767.92
531.28	59288.11
531.46	59028.31
531.63	59339.60
531.80	59353.65
531.97	58911.28
532.14	58071.03
532.31	57315.04
532.48	56500.53
532.65	56645.65
532.82	57361.85
532.99	58326.15
533.16	58810.64
533.33	59393.43
533.50	58906.60
533.67	58361.26
533.84	58155.29
534.01	58277.00
534.18	58595.31
534.35	58773.19
534.52	58597.65
534.69	58836.39
534.86	59152.36
535.03	59150.02
535.20	59629.83
535.37	60037.08
535.54	60055.81
535.71	59554.93
535.88	59297.47
536.05	58901.92
536.22	58387.00
536.38	58185.72
536.55	57806.55
536.72	57162.90
536.89	57165.24
537.06	58033.58
537.23	58649.14
537.40	59145.34
537.57	59173.42
537.74	58712.34
537.91	58967.46
538.08	58908.94
538.25	58901.92
538.42	59049.38
538.59	58607.01
538.75	58267.64
538.92	57677.82
539.09	57982.09
539.26	57726.97
539.43	57506.96
539.60	57401.64
539.77	57729.31
539.94	57570.16
540.11	56746.29
540.28	56303.93
540.44	56495.85
540.61	56823.53
540.78	56973.32
540.95	57315.04
541.12	57724.63
541.29	57897.83
541.46	58328.49
541.62	58382.32
541.79	57956.35
541.96	57303.34
542.13	57572.50
542.30	57834.64
542.47	57975.07
542.63	57591.22
542.80	57635.69
542.97	57930.60
543.14	57598.24
543.31	57464.83
543.48	58169.33
543.64	58852.77
543.81	58997.88
543.98	58990.86
544.15	58258.27
544.32	57457.81
544.48	57755.06
544.65	58227.85
544.82	58684.25
544.99	58253.59
545.16	57993.79
545.32	57642.71
545.49	58511.05
545.66	58831.71
545.83	58457.22
546.00	57879.11
546.16	57691.86
546.33	57790.17
546.50	57822.93
546.67	58291.04
546.83	57799.53
547.00	57741.02
547.17	57219.08
547.34	57050.56
547.50	56662.03
547.67	57006.09
547.84	57078.64
548.00	57560.79
548.17	57741.02
548.34	57724.63
548.51	57666.12
548.67	57848.68
548.84	57923.58
549.01	57715.27
549.18	57710.59
549.34	57619.31
549.51	57794.85
549.68	57563.14
549.84	57270.57
550.01	57385.25
550.18	57251.84
550.34	57345.47
550.51	57425.04
550.68	57483.56
550.84	56893.74
551.01	57144.18
551.18	57092.69
551.34	57167.58
551.51	57396.96
551.68	57907.19
551.84	57935.28
552.01	57605.26
552.18	57645.05
552.34	56664.37
552.51	56369.46
552.68	56184.56
552.84	56816.50
553.01	57069.28
553.18	57017.79
553.34	56982.68
553.51	57207.37
553.67	57439.09
553.84	57521.01
554.01	57139.50
554.17	57352.49
554.34	57366.53
554.51	57628.67
554.67	57841.66
554.84	57387.60
555.00	57106.73
555.17	56884.38
555.33	57078.64
555.50	57055.24
555.67	57155.88
555.83	56868.00
556.00	56413.93
556.16	56502.87
556.33	56214.99
556.50	55906.04
556.66	55660.28
556.83	55800.71
556.99	56203.28
557.16	56018.38
557.32	56456.06
557.49	56523.94
557.65	56458.40
557.82	56442.02
557.98	56254.78
558.15	55863.91
558.32	55035.36
558.48	54438.52
558.65	54522.78
558.81	54794.28
558.98	55011.95
559.14	55250.69
559.31	55440.27
559.47	55440.27
559.64	55103.23
559.80	54773.22
559.97	54859.82
560.13	55070.46
560.30	55978.59
560.46	56722.88
560.63	56650.33
560.79	56657.35
560.96	56243.07
561.12	55257.71
561.29	54363.62
561.45	54295.75
561.61	54852.80
561.78	55529.21
561.94	55519.85
562.11	55033.02
562.27	55173.45
562.44	55290.48
562.60	55877.95
562.77	55976.25
562.93	55889.65
563.10	55700.07
563.26	55164.09
563.42	55290.48
563.59	55093.87
563.75	55210.90
563.92	55079.83
564.08	54993.23
564.24	55372.39
564.41	55337.29
564.57	55079.83
564.74	55140.68
564.90	54927.69
565.07	54735.77
565.23	54518.10
565.39	53904.88
565.56	53581.88
565.72	53165.27
565.88	53759.76
566.05	53883.81
566.21	54155.32
566.38	54298.09
566.54	54412.77
566.70	54578.95
566.87	54939.39
567.03	55009.61
567.19	55276.43
567.36	54901.95
567.52	54468.95
567.68	54663.21
567.85	54321.49
568.01	53612.31
568.17	52884.40
568.34	53322.08
568.50	53226.12
568.66	53331.45
568.83	53563.16
568.99	53647.42
569.15	53930.62
569.32	54061.69
569.48	53544.44
569.64	53371.24
569.81	53230.80
569.97	53090.37
570.13	53113.78
570.30	52406.94
570.46	51990.32
570.62	51262.41
570.78	51601.79
570.95	51679.03
571.11	52533.32
571.27	52559.07
571.43	53001.43
571.60	53083.35
571.76	53350.17
571.92	53450.81
572.09	53680.19
572.25	53738.70
572.41	53579.54
572.57	53392.30
572.74	53471.88
572.90	52940.58
573.06	53048.24
573.22	53155.91
573.38	53230.80
573.55	53338.47
573.71	53195.70
573.87	53289.32
574.03	52942.92
574.20	53013.13
574.36	52533.32
574.52	52566.09
574.68	52325.02
574.84	52142.45
575.01	51395.82
575.17	51054.11
575.33	51742.22
575.49	51931.81
575.65	52261.82
575.82	51725.84
575.98	51620.52
576.14	52149.48
576.30	52273.52
576.46	52509.92
576.62	52109.69
576.79	52451.41
576.95	51360.72
577.11	51554.98
577.27	51987.98
577.43	52083.94
577.59	51309.22
577.75	51077.51
577.92	50483.01
578.08	50017.25
578.24	50096.83
578.40	50279.39
578.56	51023.68
578.72	50817.71
578.88	50820.05
579.04	51330.29
579.21	51271.78
579.37	51566.68
579.53	51512.85
579.69	51447.32
579.85	51564.34
580.01	51419.23
580.17	51079.85
580.33	50731.11
580.49	50635.15
580.65	51405.19
580.82	51327.95
580.98	51735.20
581.14	51138.36
581.30	51365.40
581.46	51222.62
581.62	51105.60
581.78	51327.95
581.94	51774.99
582.10	51700.09
582.26	51466.04
582.42	51477.74
582.58	51452.00
582.74	51629.88
582.90	51531.57
583.06	51849.89
583.22	51304.54
583.38	51110.28
583.54	51061.13
583.70	51241.35
583.86	51285.82
584.02	50831.75
584.18	51241.35
584.34	51103.26
584.50	50934.74
584.66	50934.74
584.82	50248.96
584.98	50387.05
585.14	49715.32
585.30	49310.41
