SpectraSuite Data File
++++++++++++++++++++++++++++++++++++
Date: Mon Oct 07 14:53:00 GMT-05:00 2013
User: price-jones
Dark Spectrum Present: No
Reference Spectrum Present: No
Number of Sampled Component Spectra: 1
Spectrometers: USB2+H05261
Integration Time (usec): 100000 (USB2+H05261)
Spectra Averaged: 1 (USB2+H05261)
Boxcar Smoothing: 0 (USB2+H05261)
Correct for Electrical Dark: No (USB2+H05261)
Strobe/Lamp Enabled: No (USB2+H05261)
Correct for Detector Non-linearity: No (USB2+H05261)
Correct for Stray Light: No (USB2+H05261)
Number of Pixels in Processed Spectrum: 2048
>>>>>Begin Processed Spectral Data<<<<<
365.73	0.00
365.92	0.00
366.12	0.00
366.32	0.00
366.52	0.00
366.72	0.00
366.91	0.00
367.11	0.00
367.31	0.00
367.51	0.00
367.70	0.00
367.90	0.00
368.10	0.00
368.30	0.00
368.49	0.00
368.69	0.00
368.89	0.00
369.09	0.00
369.28	0.00
369.48	0.00
369.68	0.00
369.87	0.00
370.07	0.00
370.27	0.00
370.47	599.18
370.66	3002.91
370.86	3424.20
371.06	3850.18
371.25	3735.50
371.45	3332.92
371.65	3073.12
371.84	2904.60
372.04	3068.44
372.24	3412.50
372.44	3632.51
372.63	3482.72
372.83	3311.86
373.03	2925.67
373.22	2703.32
373.42	2876.52
373.62	3150.36
373.81	3445.27
374.01	3438.25
374.21	3197.17
374.40	2874.18
374.60	3155.04
374.79	3417.18
374.99	4009.34
375.19	4362.76
375.38	4456.38
375.58	4142.75
375.78	4126.36
375.97	4011.68
376.17	4353.40
376.37	4145.09
376.56	4332.33
376.76	4629.58
376.95	4891.72
377.15	5341.10
377.35	5434.72
377.54	5589.20
377.74	5785.80
377.93	5785.80
378.13	5654.73
378.33	5441.75
378.52	5022.79
378.72	4896.40
378.91	4706.82
379.11	4491.49
379.31	4437.66
379.50	4440.00
379.70	4704.48
379.89	5174.92
380.09	5488.56
380.28	5755.38
380.48	5783.46
380.68	5612.60
380.87	5420.68
381.07	5050.88
381.26	4655.33
381.46	4369.78
381.65	4138.07
381.85	3990.61
382.04	3882.95
382.24	3634.85
382.43	3440.59
382.63	3337.60
382.83	3501.44
383.02	3510.80
383.22	3365.69
383.41	3506.12
383.61	3585.70
383.80	4231.69
384.00	4723.20
384.19	5551.75
384.39	5626.65
384.58	5654.73
384.78	5394.93
384.97	5516.64
385.17	5245.14
385.36	4957.25
385.56	4814.48
385.75	4898.74
385.95	5413.66
386.14	5790.49
386.34	5746.02
386.53	5502.60
386.72	5310.68
386.92	5261.52
387.11	5420.68
387.31	5696.86
387.50	5874.74
387.70	5542.39
387.89	5603.24
388.09	5556.43
388.28	5469.83
388.48	5526.00
388.67	6232.85
388.86	6626.06
389.06	6890.54
389.25	7386.73
389.45	7489.71
389.64	7386.73
389.84	7396.09
390.03	7145.66
390.22	7405.46
390.42	7698.02
390.61	8138.04
390.81	8631.90
391.00	8636.58
391.19	8711.47
391.39	8325.29
391.58	7892.29
391.78	7356.30
391.97	7241.62
392.16	6836.70
392.36	6015.18
392.55	5132.79
392.75	3712.09
392.94	3187.81
393.13	3185.47
393.33	3751.88
393.52	4807.46
393.71	5811.55
393.91	6567.54
394.10	7253.32
394.29	7850.16
394.49	8449.33
394.68	9231.07
394.88	9165.54
395.07	9406.61
395.26	9577.47
395.46	8922.12
395.65	8514.87
395.84	7405.46
396.04	6408.39
396.23	5067.26
396.42	4194.24
396.62	4191.90
396.81	4903.42
397.00	6382.64
397.19	7971.86
397.39	9137.45
397.58	10399.00
397.77	11012.22
397.97	11463.94
398.16	11609.06
398.35	12051.42
398.55	12278.45
398.74	12865.92
398.93	13118.70
399.12	12566.34
399.32	12252.70
399.51	12938.48
399.70	13696.82
399.90	13357.44
400.09	13528.30
400.28	13448.72
400.47	13488.51
400.67	13970.66
400.86	14293.65
401.05	14640.05
401.24	14759.42
401.44	14520.68
401.63	14794.53
401.82	14771.12
402.01	14759.42
402.21	15014.54
402.40	15089.43
402.59	14661.12
402.78	13909.80
402.97	13312.97
403.17	13956.61
403.36	15112.84
403.55	15606.69
403.74	15639.46
403.93	14857.72
404.13	13900.44
404.32	13699.16
404.51	14139.18
404.70	15435.83
404.89	15026.24
405.09	15082.41
405.28	14675.16
405.47	14485.58
405.66	14618.99
405.85	14143.86
406.05	13989.38
406.24	14111.09
406.43	14698.56
406.62	15183.06
406.81	15786.91
407.00	14759.42
407.20	14530.05
407.39	14342.80
407.58	15386.68
407.77	15985.86
407.96	16404.81
408.15	16678.66
408.34	16688.02
408.54	17465.08
408.73	17357.41
408.92	17029.74
409.11	16704.40
409.30	16018.63
409.49	14841.34
409.68	14033.85
409.87	13486.17
410.07	14391.95
410.26	15602.01
410.45	16556.95
410.64	16844.84
410.83	17528.27
411.02	17954.25
411.21	18604.92
411.40	18427.04
411.59	18324.05
411.78	18183.62
411.98	18237.45
412.17	18312.35
412.36	17947.23
412.55	18075.96
412.74	17518.91
412.93	17312.94
413.12	17516.57
413.31	19101.11
413.50	19211.12
413.69	19459.21
413.88	18787.48
414.07	18338.10
414.26	18640.03
414.45	19133.88
414.64	19087.07
414.83	19290.70
415.02	18820.25
415.22	18768.76
415.41	19358.57
415.60	19950.73
415.79	20744.17
415.98	21163.12
416.17	21310.58
416.36	20577.99
416.55	20353.30
416.74	19854.76
416.93	18827.27
417.12	19147.92
417.31	19316.44
417.50	19866.47
417.69	20573.31
417.88	20365.00
418.07	20175.42
418.26	19655.82
418.45	20112.22
418.64	20704.38
418.83	21500.16
419.02	21223.98
419.21	20835.45
419.39	20236.27
419.58	19513.05
419.77	19381.98
419.96	20196.48
420.15	20987.58
420.34	21699.11
420.53	22611.92
420.72	22810.86
420.91	22785.12
421.10	22527.66
421.29	22263.18
421.48	21198.23
421.67	22700.86
421.86	22143.81
422.05	20444.58
422.24	18504.28
422.43	18312.35
422.61	20442.24
422.80	21734.21
422.99	21734.21
423.18	21034.39
423.37	20503.09
423.56	20643.52
423.75	21170.15
423.94	21486.12
424.13	20219.89
424.32	20299.47
424.50	20493.73
424.69	20381.38
424.88	20339.26
425.07	20180.10
425.26	20339.26
425.45	19852.42
425.64	19585.60
425.83	20095.84
426.01	21102.27
426.20	21448.67
426.39	21432.29
426.58	19484.96
426.77	18059.57
426.96	17872.33
427.15	18139.15
427.33	19941.36
427.52	20414.15
427.71	20912.69
427.90	20655.23
428.09	20290.10
428.28	19929.66
428.46	19068.34
428.65	18686.84
428.84	19117.50
429.03	19829.02
429.22	18497.25
429.40	17390.18
429.59	15723.72
429.78	14286.63
429.97	14118.11
430.16	14384.93
430.34	14384.93
430.53	14434.08
430.72	14848.36
430.91	16315.87
431.10	19440.49
431.28	22595.53
431.47	24755.85
431.66	24467.96
431.85	22438.72
432.03	20673.95
432.22	19653.48
432.41	20823.75
432.60	22785.12
432.79	23721.33
432.97	24308.80
433.16	23543.45
433.35	21364.41
433.54	19440.49
433.72	18277.24
433.91	18995.79
434.10	21420.58
434.28	22860.01
434.47	23707.29
434.66	23302.37
434.85	23056.62
435.03	23063.64
435.22	23208.75
435.41	24624.78
435.59	24638.82
435.78	25060.12
435.97	25577.37
436.16	25820.79
436.34	25333.96
436.53	24758.19
436.72	25109.27
436.90	23388.97
437.09	23403.02
437.28	23513.02
437.46	24102.84
437.65	23974.11
437.84	22319.35
438.02	20561.61
438.21	20582.67
438.40	21687.40
438.58	23445.15
438.77	23969.43
438.96	24074.75
439.14	25481.41
439.33	25970.58
439.52	26373.16
439.70	25504.82
439.89	25163.10
440.08	24271.36
440.26	24161.35
440.45	25172.46
440.63	27026.17
440.82	28538.15
441.01	27852.38
441.19	27555.13
441.38	28102.81
441.57	28938.38
441.75	29207.55
441.94	29469.69
442.12	29338.62
442.31	30359.09
442.50	29776.30
442.68	29919.07
442.87	29268.40
443.05	28877.53
443.24	29352.66
443.43	29921.41
443.61	30602.50
443.80	30700.81
443.98	29097.54
444.17	29149.03
444.35	30991.03
444.54	30932.52
444.73	30579.10
444.91	29474.37
445.10	28259.63
445.28	27143.19
445.47	26654.02
445.65	26930.20
445.84	27536.40
446.02	29055.41
446.21	28819.02
446.39	29333.93
446.58	29762.25
446.77	30258.45
446.95	30335.68
447.14	30955.93
447.32	31772.77
447.51	30717.19
447.69	29750.55
447.88	29579.69
448.06	30153.12
448.25	30567.40
448.43	30852.94
448.62	30036.09
448.80	30141.42
448.99	30022.05
449.17	30684.42
449.36	30553.35
449.54	31861.71
449.73	32018.53
449.91	32779.20
450.10	33467.32
450.28	33659.24
450.46	33837.12
450.65	33589.03
450.83	33425.19
451.02	32758.14
451.20	32268.97
451.39	32327.48
451.57	32437.48
451.76	32182.37
451.94	31812.56
452.13	31737.66
452.31	30047.80
452.49	28624.75
452.68	29188.82
452.86	29373.72
453.05	29343.30
453.23	30438.67
453.42	31108.06
453.60	32086.40
453.78	32669.20
453.97	31564.46
454.15	32137.90
454.34	31208.70
454.52	31353.82
454.70	30934.86
454.89	31290.62
455.07	31391.26
455.26	31599.57
455.44	32683.24
455.62	33858.19
455.81	33558.60
455.99	33567.96
456.17	32811.97
456.36	32781.54
456.54	33954.15
456.73	34096.92
456.91	34139.05
457.09	34370.77
457.28	35489.54
457.46	33752.87
457.64	33624.14
457.83	32882.19
458.01	31805.54
458.19	32577.92
458.38	32788.56
458.56	34183.52
458.74	34220.97
458.93	33441.57
459.11	33139.65
459.29	33106.88
459.48	33514.13
459.66	32767.50
459.84	33802.02
460.03	34120.33
460.21	34183.52
460.39	34773.34
460.57	34735.89
460.76	34881.00
460.94	35452.09
461.12	34944.20
461.31	34906.75
461.49	34934.84
461.67	34941.86
461.85	35470.82
462.04	35618.27
462.22	36114.47
462.40	35831.26
462.59	35543.38
462.77	35920.20
462.95	35655.72
463.13	35477.84
463.32	34689.08
463.50	34850.58
463.68	34749.93
463.86	34691.42
464.05	34230.33
464.23	33663.93
464.41	33670.95
464.59	33209.86
464.78	34555.67
464.96	34572.05
465.14	33841.81
465.32	35072.93
465.50	35889.77
465.69	35732.96
465.87	35309.32
466.05	34181.18
466.23	32856.44
466.41	32306.41
466.60	33450.94
466.78	33502.43
466.96	33860.53
467.14	34440.98
467.32	34763.98
467.51	34993.35
467.69	33362.00
467.87	33968.19
468.05	34462.05
468.23	34590.78
468.41	34565.03
468.60	34740.57
468.78	35138.46
468.96	34583.76
469.14	35402.94
469.32	35150.17
469.50	34068.84
469.69	34185.86
469.87	33516.47
470.05	33504.77
470.23	33680.31
470.41	33745.84
470.59	34412.90
470.77	34345.02
470.95	35112.72
471.14	35711.89
471.32	35739.98
471.50	37577.30
471.68	37373.67
471.86	37589.00
472.04	37713.05
472.22	38333.29
472.40	36102.76
472.58	35882.75
472.77	35508.27
472.95	36467.89
473.13	37249.63
473.31	36505.34
473.49	36404.69
473.67	37029.62
473.85	37500.06
474.03	38394.15
474.21	37933.06
474.39	38862.26
474.57	39335.04
474.75	39068.22
474.93	38316.91
475.12	37354.95
475.30	38412.87
475.48	38080.52
475.66	38672.67
475.84	38087.54
476.02	37722.41
476.20	37085.79
476.38	38204.56
476.56	39505.90
476.74	39548.03
476.92	39931.88
477.10	40299.34
477.28	41572.60
477.46	41254.28
477.64	41909.63
477.82	42436.25
478.00	42225.60
478.18	41682.60
478.36	41219.17
478.54	41682.60
478.72	41579.62
478.90	43086.92
479.08	43746.95
479.26	44065.27
479.44	44219.74
479.62	43641.63
479.80	43920.15
479.98	44304.00
480.16	44191.65
480.34	43569.07
480.52	44339.11
480.70	44619.97
480.88	44746.36
481.06	45933.01
481.24	45776.20
481.41	46693.69
481.59	47445.00
481.77	47063.49
481.95	46038.34
482.13	46422.19
482.31	46127.28
482.49	47079.88
482.67	46836.46
482.85	47351.38
483.03	47758.63
483.21	47931.83
483.39	48282.91
483.57	47229.67
483.74	46738.16
483.92	47695.44
484.10	47540.96
484.28	48339.08
484.46	48617.61
484.64	49179.34
484.82	48175.25
485.00	47969.28
485.18	47164.14
485.35	45727.05
485.53	42202.20
485.71	38733.53
485.89	38611.82
486.07	40952.35
486.25	43962.28
486.43	46181.11
486.61	47075.19
486.78	46518.15
486.96	46894.97
487.14	48531.01
487.32	49411.05
487.50	50515.78
487.68	51501.15
487.85	51990.32
488.03	51742.22
488.21	51433.27
488.39	50426.84
488.57	49965.76
488.75	49450.84
488.92	50791.97
489.10	53153.57
489.28	54120.21
489.46	54904.29
489.64	54337.88
489.81	54862.16
489.99	54457.24
490.17	54087.44
490.35	54784.92
490.53	54358.94
490.70	54272.34
490.88	54078.08
491.06	54990.89
491.24	54782.58
491.41	54035.95
491.59	52088.62
491.77	51503.49
491.95	52809.51
492.13	53921.26
492.30	54796.62
492.48	56002.00
492.66	56081.58
492.84	56142.43
493.01	55870.93
493.19	55421.55
493.37	55199.19
493.54	54667.89
493.72	55681.34
493.90	56720.54
494.08	56879.70
494.25	57446.11
494.43	57577.18
494.61	58106.14
494.79	57881.45
494.96	57656.76
495.14	57244.82
495.32	56266.48
495.49	55751.56
495.67	57120.77
495.85	58024.22
496.02	58518.07
496.20	58113.16
496.38	57682.50
496.55	57780.81
496.73	58071.03
496.91	58361.26
497.09	58887.88
497.26	58908.94
497.44	58454.88
497.62	58052.31
497.79	57151.20
497.97	56072.21
498.14	56516.92
498.32	57387.60
498.50	58237.21
498.67	58646.80
498.85	58782.55
499.03	58862.13
499.20	59000.22
499.38	58983.84
499.56	58742.77
499.73	58286.36
499.91	57958.69
500.08	57691.86
500.26	56952.26
500.44	57387.60
500.61	58033.58
500.79	57925.92
500.97	57605.26
501.14	57450.79
501.32	57130.14
501.49	57165.24
501.67	57628.67
501.84	57991.45
502.02	58169.33
502.20	58550.84
502.37	58562.54
502.55	58630.42
502.72	59276.41
502.90	59690.68
503.07	59194.49
503.25	59047.04
503.43	58309.77
503.60	57418.02
503.78	56970.98
503.95	57368.87
504.13	58820.00
504.30	59536.21
504.48	59421.52
504.65	58859.79
504.83	58852.77
505.01	59774.94
505.18	59943.46
505.36	60350.71
505.53	60523.91
505.71	60589.45
505.88	60699.45
506.06	59915.37
506.23	59749.20
506.41	59632.17
506.58	59695.36
506.76	59643.87
506.93	59746.86
507.11	59487.06
507.28	59627.49
507.46	59201.51
507.63	58482.97
507.81	58361.26
507.98	58777.87
508.16	59348.96
508.33	59901.33
508.50	60144.75
508.68	60367.10
508.85	60963.93
509.03	60870.31
509.20	60676.05
509.38	59973.89
509.55	59421.52
509.73	59529.19
509.90	60079.21
510.08	60243.05
510.25	60226.66
510.42	59917.71
510.60	59810.05
510.77	60100.28
510.95	60673.71
511.12	60825.84
511.30	60919.46
511.47	61165.22
511.64	61006.06
511.82	60954.57
511.99	60151.77
512.17	59744.51
512.34	59458.97
512.51	59678.98
512.69	59920.05
512.86	59866.22
513.04	60343.69
513.21	60175.17
513.38	60018.36
513.56	59276.41
513.73	58915.96
513.90	59384.07
514.08	59213.21
514.25	59465.99
514.43	59613.44
514.60	59686.00
514.77	59929.42
514.95	60069.85
515.12	59959.84
515.29	60308.58
515.47	60694.77
515.64	60774.35
515.81	60296.88
515.99	59917.71
516.16	58244.23
516.33	56229.03
516.51	55222.60
516.68	54293.41
516.85	53778.49
517.03	54461.93
517.20	57027.15
517.37	58939.37
517.54	60053.47
517.72	59288.11
517.89	57263.55
518.06	54962.80
518.24	55671.98
518.41	57724.63
518.58	58672.55
518.75	59100.87
518.93	59014.27
519.10	58969.80
519.27	59414.50
519.45	59554.93
519.62	60308.58
519.79	60357.74
519.96	60402.21
520.14	59863.88
520.31	59128.95
520.48	59206.19
520.65	59489.40
520.83	60514.55
521.00	60755.63
521.17	60308.58
521.34	60203.26
521.52	60488.80
521.69	60919.46
521.86	61071.60
522.03	60825.84
522.20	59856.86
522.38	58834.05
522.55	59054.06
522.72	59435.56
522.89	59363.01
523.07	59786.64
523.24	60238.37
523.41	60949.89
523.58	61286.93
523.75	61513.96
523.92	61366.51
524.10	61296.29
524.27	61394.59
524.44	61106.71
524.61	60980.32
524.78	60823.50
524.96	60877.33
525.13	60935.85
525.30	61034.15
525.47	61296.29
525.64	61382.89
525.81	60645.62
525.98	59330.24
526.16	58087.42
526.33	57284.61
526.50	57200.35
526.67	56914.81
526.84	57631.01
527.01	58375.30
527.18	59274.07
527.36	59826.43
527.53	60647.96
527.70	60966.27
527.87	60577.75
528.04	60034.74
528.21	60514.55
528.38	61139.47
528.55	61373.53
528.72	62012.49
528.89	61972.70
529.07	61712.91
529.24	60973.30
529.41	60456.04
529.58	60083.89
529.75	60104.96
529.92	60598.81
530.09	61092.66
530.26	61418.00
530.43	61446.08
530.60	61635.67
530.77	61904.83
530.94	61872.06
531.11	61455.45
531.28	61059.90
531.46	61141.81
531.63	61010.74
531.80	61038.83
531.97	60687.75
532.14	59999.63
532.31	58878.52
532.48	58553.18
532.65	58450.20
532.82	59601.74
532.99	60161.13
533.16	60652.64
533.33	61022.45
533.50	60863.29
533.67	60236.03
533.84	60044.10
534.01	60172.83
534.18	60383.48
534.35	60575.40
534.52	60381.14
534.69	60945.21
534.86	60814.14
535.03	61329.06
535.20	61928.23
535.37	61979.73
535.54	61925.89
535.71	61642.69
535.88	61305.65
536.05	60739.24
536.22	60411.57
536.38	60170.49
536.55	59475.35
536.72	59208.53
536.89	59164.06
537.06	59950.48
537.23	60811.80
537.40	61003.72
537.57	60889.04
537.74	60842.23
537.91	60685.41
538.08	60736.90
538.25	60870.31
538.42	60970.96
538.59	60643.28
538.75	59882.61
538.92	60004.31
539.09	59498.76
539.26	59566.63
539.43	59463.65
539.60	59554.93
539.77	59758.56
539.94	59590.04
540.11	58885.54
540.28	58319.13
540.44	58422.11
540.61	58642.12
540.78	58946.39
540.95	59402.80
541.12	59627.49
541.29	60072.19
541.46	60062.83
541.62	60177.51
541.79	60287.52
541.96	59552.59
542.13	59751.54
542.30	59964.52
542.47	59966.87
542.63	59807.71
542.80	59461.31
542.97	59723.45
543.14	59510.46
543.31	59653.23
543.48	60289.86
543.64	60743.92
543.81	61071.60
543.98	60760.31
544.15	60301.56
544.32	59650.89
544.48	59924.74
544.65	60154.11
544.82	60427.95
544.99	60030.06
545.16	59945.80
545.32	59606.42
545.49	60467.74
545.66	60739.24
545.83	60221.98
546.00	59922.40
546.16	59760.90
546.33	59835.80
546.50	59924.74
546.67	60411.57
546.83	59880.27
547.00	59906.01
547.17	59248.32
547.34	58630.42
547.50	58578.93
547.67	59159.38
547.84	59203.85
548.00	59636.85
548.17	60025.38
548.34	59599.40
548.51	59969.21
548.67	60030.06
548.84	60020.70
549.01	59924.74
549.18	59896.65
549.34	59877.93
549.51	59889.63
549.68	59732.81
549.84	59306.83
550.01	59484.72
550.18	59304.49
550.34	59597.06
550.51	59477.69
550.68	59557.27
550.84	59077.46
551.01	59269.39
551.18	59105.55
551.34	59327.90
551.51	59590.04
551.68	60046.44
551.84	59931.76
552.01	59863.88
552.18	59721.11
552.34	58927.67
552.51	58700.64
552.68	58578.93
552.84	58925.33
553.01	59288.11
553.18	59276.41
553.34	59119.59
553.51	59098.53
553.67	59725.79
553.84	59707.07
554.01	59491.74
554.17	59587.70
554.34	59323.22
554.51	59515.14
554.67	59812.39
554.84	59770.26
555.00	59463.65
555.17	59131.29
555.33	59341.94
555.50	59278.75
555.67	59285.77
555.83	58918.31
556.00	58714.68
556.16	58798.94
556.33	58358.92
556.50	58419.77
556.66	58342.53
556.83	58073.37
556.99	58394.03
557.16	58344.87
557.32	58733.40
557.49	58684.25
557.65	58770.85
557.82	58665.53
557.98	58571.91
558.15	58068.69
558.32	57301.00
558.48	56741.61
558.65	56793.10
558.81	57336.10
558.98	57282.27
559.14	57574.84
559.31	57696.55
559.47	57621.65
559.64	57371.21
559.80	57167.58
559.97	57350.15
560.13	57647.39
560.30	58370.62
560.46	58925.33
560.63	58997.88
560.79	59110.23
560.96	58358.92
561.12	57677.82
561.29	56919.49
561.45	56940.55
561.61	57511.64
561.78	57954.00
561.94	57696.55
562.11	57647.39
562.27	57567.82
562.44	58089.76
562.60	57975.07
562.77	58370.62
562.93	58122.52
563.10	58059.33
563.26	57469.51
563.42	57511.64
563.59	57338.44
563.75	57420.36
563.92	57729.31
564.08	57549.09
564.24	57792.51
564.41	57722.29
564.57	57612.29
564.74	57553.77
564.90	57511.64
565.07	57198.01
565.23	56985.02
565.39	56376.48
565.56	56236.05
565.72	56072.21
565.88	56463.08
566.05	56612.88
566.21	56720.54
566.38	56823.53
566.54	56863.32
566.70	57141.84
566.87	57574.84
567.03	57415.68
567.19	57691.86
567.36	57464.83
567.52	57153.54
567.68	57069.28
567.85	56598.83
568.01	56278.18
568.17	55590.06
568.34	55807.73
568.50	55746.88
568.66	55763.26
568.83	56212.65
568.99	56268.82
569.15	56427.98
569.32	56388.19
569.48	56133.07
569.64	56341.38
569.81	55639.22
569.97	55810.07
570.13	55491.76
570.30	55086.85
570.46	54754.49
570.62	53951.69
570.78	54370.64
570.95	54464.27
571.11	55250.69
571.27	55512.83
571.43	55487.08
571.60	55948.17
571.76	56088.60
571.92	56217.33
572.09	56472.45
572.25	56058.17
572.41	56257.12
572.57	56123.71
572.74	55819.44
572.90	55833.48
573.06	55709.43
573.22	55641.56
573.38	55880.29
573.55	56060.51
573.71	56048.81
573.87	55924.76
574.03	55732.84
574.20	55770.28
574.36	55374.73
574.52	55203.88
574.68	54974.50
574.84	54735.77
575.01	54429.16
575.17	54536.82
575.33	54710.02
575.49	54965.14
575.65	55009.61
575.82	54918.33
575.98	54426.82
576.14	54646.83
576.30	54988.55
576.46	54923.01
576.62	55243.66
576.79	55023.65
576.95	54597.68
577.11	55000.25
577.27	54784.92
577.43	54934.71
577.59	54384.69
577.75	53942.33
577.92	53483.58
578.08	53216.76
578.24	53352.51
578.40	53506.99
578.56	53916.58
578.72	53888.49
578.88	54365.96
579.04	54389.37
579.21	54225.53
579.37	54340.22
579.53	54251.28
579.69	54387.03
579.85	54796.62
580.01	54401.07
580.17	53984.46
580.33	53616.99
580.49	53963.39
580.65	54291.07
580.82	54394.05
580.98	54251.28
581.14	54167.02
581.30	54511.08
581.46	54321.49
581.62	54602.36
581.78	54454.90
581.94	54726.41
582.10	54724.07
582.26	54684.28
582.42	54621.08
582.58	54574.27
582.74	54557.89
582.90	54642.15
583.06	54527.46
583.22	54349.58
583.38	54309.79
583.54	54284.04
583.70	54094.46
583.86	54321.49
584.02	54049.99
584.18	54433.84
584.34	54380.01
584.50	54003.18
584.66	53907.22
584.82	53584.22
584.98	53436.77
585.14	53045.90
585.30	52474.81
