SpectraSuite Data File
++++++++++++++++++++++++++++++++++++
Date: Mon Oct 07 14:53:09 GMT-05:00 2013
User: price-jones
Dark Spectrum Present: No
Reference Spectrum Present: No
Number of Sampled Component Spectra: 1
Spectrometers: USB2+H05261
Integration Time (usec): 100000 (USB2+H05261)
Spectra Averaged: 1 (USB2+H05261)
Boxcar Smoothing: 0 (USB2+H05261)
Correct for Electrical Dark: No (USB2+H05261)
Strobe/Lamp Enabled: No (USB2+H05261)
Correct for Detector Non-linearity: No (USB2+H05261)
Correct for Stray Light: No (USB2+H05261)
Number of Pixels in Processed Spectrum: 2048
>>>>>Begin Processed Spectral Data<<<<<
365.73	0.00
365.92	0.00
366.12	0.00
366.32	0.00
366.52	0.00
366.72	0.00
366.91	0.00
367.11	0.00
367.31	0.00
367.51	0.00
367.70	0.00
367.90	0.00
368.10	0.00
368.30	0.00
368.49	0.00
368.69	0.00
368.89	0.00
369.09	0.00
369.28	0.00
369.48	0.00
369.68	0.00
369.87	0.00
370.07	0.00
370.27	0.00
370.47	1390.28
370.66	6033.90
370.86	7103.53
371.06	7581.00
371.25	7508.44
371.45	6637.76
371.65	6024.54
371.84	5933.26
372.04	6162.63
372.24	6825.00
372.44	7129.27
372.63	6864.79
372.83	6317.11
373.03	5689.84
373.22	5338.76
373.42	5776.44
373.62	6436.47
373.81	6710.32
374.01	6607.33
374.21	5975.39
374.40	5650.05
374.60	5982.41
374.79	6829.68
374.99	7765.90
375.19	8255.07
375.38	8177.83
375.58	7742.49
375.78	7812.71
375.97	8049.10
376.17	7995.27
376.37	8238.69
376.56	8428.27
376.76	8943.19
376.95	9308.31
377.15	9987.07
377.35	10310.06
377.54	10803.91
377.74	11183.08
377.93	10909.24
378.13	10436.45
378.33	9956.64
378.52	9479.17
378.72	9071.92
378.91	8868.29
379.11	8503.17
379.31	8294.86
379.50	8648.28
379.70	9088.30
379.89	9797.48
380.09	10473.90
380.28	10785.19
380.48	10712.63
380.68	10473.90
380.87	10094.73
381.07	9334.06
381.26	8564.02
381.46	8287.84
381.65	7892.29
381.85	7719.09
382.04	7185.44
382.24	6808.62
382.43	6567.54
382.63	6443.49
382.83	6464.56
383.02	6534.78
383.22	6445.84
383.41	6560.52
383.61	6822.66
383.80	8081.87
384.00	9139.79
384.19	10181.33
384.39	10377.94
384.58	10471.56
384.78	10073.67
384.97	10239.84
385.17	9497.89
385.36	9020.42
385.56	8760.63
385.75	9231.07
385.95	10141.54
386.14	10773.49
386.34	10752.42
386.53	10040.90
386.72	9675.77
386.92	9865.36
387.11	10448.15
387.31	10525.39
387.50	10452.83
387.70	10228.14
387.89	10033.88
388.09	10029.20
388.28	10279.63
388.48	10420.06
388.67	11421.81
388.86	12351.01
389.06	12947.84
389.25	13769.37
389.45	13888.74
389.64	13764.69
389.84	13401.91
390.03	13514.25
390.22	13561.06
390.42	14001.08
390.61	14965.39
390.81	15793.94
391.00	15798.62
391.19	15838.41
391.39	15487.32
391.58	14132.15
391.78	13493.19
391.97	12968.91
392.16	12189.51
392.36	10899.87
392.55	8819.14
392.75	7026.29
392.94	5942.62
393.13	5792.83
393.33	6897.56
393.52	9135.11
393.71	10808.59
393.91	12086.53
394.10	13186.58
394.29	14532.39
394.49	15777.55
394.68	16893.99
394.88	16812.07
395.07	17249.75
395.26	17003.99
395.46	16465.67
395.65	15262.63
395.84	13336.37
396.04	11365.64
396.23	9158.52
396.42	7777.60
396.62	7772.92
396.81	9097.66
397.00	11496.71
397.19	14469.19
397.39	17092.93
397.58	18813.23
397.77	20280.74
397.97	20688.00
398.16	21010.99
398.35	21839.54
398.55	22082.95
398.74	23454.51
398.93	23728.35
399.12	23211.09
399.32	22597.87
399.51	23206.41
399.70	24535.84
399.90	24013.90
400.09	23765.80
400.28	24020.92
400.47	23917.93
400.67	25504.82
400.86	26075.91
401.05	25883.98
401.24	25998.67
401.44	26026.76
401.63	26588.49
401.82	26754.66
402.01	26677.43
402.21	26794.45
402.40	27040.21
402.59	26120.38
402.78	25025.01
402.97	24102.84
403.17	25362.04
403.36	26796.79
403.55	28027.92
403.74	27868.76
403.93	26670.40
404.13	24666.91
404.32	24554.56
404.51	25544.61
404.70	27428.74
404.89	27098.72
405.09	26560.40
405.28	25898.03
405.47	26464.44
405.66	25937.82
405.85	25535.24
406.05	25102.25
406.24	25350.34
406.43	26267.83
406.62	27417.04
406.81	27505.98
407.00	26162.51
407.20	25308.21
407.39	25832.49
407.58	26899.78
407.77	28306.44
407.96	29130.31
408.15	29509.47
408.34	29893.32
408.54	30623.57
408.73	30799.11
408.92	29975.24
409.11	29425.22
409.30	27931.95
409.49	26155.49
409.68	24723.08
409.87	24243.27
410.07	25811.43
410.26	27754.07
410.45	29347.98
410.64	30115.67
410.83	31072.95
411.02	31765.75
411.21	32699.62
411.40	32126.19
411.59	32439.82
411.78	32051.30
411.98	31810.22
412.17	32336.84
412.36	31995.12
412.55	31569.15
412.74	31016.78
412.93	30714.85
413.12	31337.43
413.31	33905.00
413.50	33912.02
413.69	34450.35
413.88	33151.35
414.07	32275.99
414.26	33284.76
414.45	34218.63
414.64	34043.09
414.83	33820.74
415.02	33067.09
415.22	33268.37
415.41	34050.11
415.60	35215.70
415.79	36465.55
415.98	36940.68
416.17	37074.09
416.36	36065.31
416.55	35463.80
416.74	34368.43
416.93	33212.20
417.12	33710.74
417.31	34256.08
417.50	34609.50
417.69	35321.02
417.88	35552.74
418.07	35096.33
418.26	34628.23
418.45	35103.35
418.64	36392.99
418.83	37614.75
419.02	36807.26
419.21	36554.49
419.39	34824.83
419.58	33429.87
419.77	33984.58
419.96	35086.97
420.15	37233.24
420.34	37563.26
420.53	39274.19
420.72	39634.63
420.91	39332.70
421.10	39091.63
421.29	38670.33
421.48	37200.47
421.67	39131.42
421.86	37951.79
422.05	35075.27
422.24	31709.58
422.43	32177.68
422.61	35185.27
422.80	37811.35
422.99	37558.58
423.18	36708.96
423.37	35622.95
423.56	36030.21
423.75	36790.88
423.94	37745.82
424.13	35342.09
424.32	35747.00
424.50	35990.42
424.69	35468.48
424.88	35646.36
425.07	35292.94
425.26	35548.06
425.45	35009.73
425.64	34658.65
425.83	34398.85
426.01	36304.05
426.20	37048.34
426.39	36605.98
426.58	34277.15
426.77	31522.34
426.96	30771.02
427.15	32137.90
427.33	34955.90
427.52	35782.11
427.71	36194.04
427.90	35442.73
428.09	34754.61
428.28	34312.25
428.46	33331.57
428.65	32673.88
428.84	33649.88
429.03	34047.77
429.22	31957.67
429.40	30450.37
429.59	27637.05
429.78	24652.86
429.97	24929.05
430.16	24816.70
430.34	25130.33
430.53	25083.52
430.72	26384.86
430.91	28769.86
431.10	34183.52
431.28	39552.71
431.47	42176.45
431.66	42131.98
431.85	37949.45
432.03	35374.86
432.22	34352.04
432.41	36498.31
432.60	39253.12
432.79	41273.01
432.97	41507.06
433.16	40612.98
433.35	36690.24
433.54	33249.65
433.72	32027.89
433.91	33266.03
434.10	36669.17
434.28	39533.99
434.47	41102.15
434.66	40320.41
434.85	39243.76
435.03	39042.48
435.22	40308.71
435.41	42223.26
435.59	42263.05
435.78	42946.49
435.97	43915.47
436.16	43910.79
436.34	43419.28
436.53	42469.02
436.72	43152.46
436.90	40797.88
437.09	40884.48
437.28	39601.86
437.46	41462.59
437.65	40528.72
437.84	38134.35
438.02	35211.02
438.21	35555.08
438.40	37610.07
438.58	40488.93
438.77	41436.84
438.96	41900.27
439.14	43147.78
439.33	43868.66
439.52	44877.43
439.70	43533.96
439.89	43042.45
440.08	41628.77
440.26	42162.41
440.45	43119.69
440.63	45661.51
440.82	47861.61
441.01	47159.45
441.19	46314.52
441.38	47213.29
441.57	48566.12
441.75	48889.11
441.94	48905.49
442.12	49069.33
442.31	49895.54
442.50	49574.89
442.68	49397.01
442.87	48648.03
443.05	48257.17
443.24	49036.56
443.43	49694.25
443.61	50160.02
443.80	50487.70
443.98	48603.56
444.17	48456.11
444.35	50487.70
444.54	50939.42
444.73	50396.42
444.91	48790.81
445.10	47826.51
445.28	46326.22
445.47	45544.48
445.65	46185.79
445.84	46677.30
446.02	48231.42
446.21	48402.28
446.39	48444.41
446.58	49762.13
446.77	49382.96
446.95	49820.64
447.14	51379.44
447.32	51529.23
447.51	50557.91
447.69	49022.52
447.88	49097.42
448.06	49148.91
448.25	50312.16
448.43	50548.55
448.62	49954.05
448.80	49537.44
448.99	50101.51
449.17	50204.49
449.36	50452.59
449.54	51353.69
449.73	51976.28
449.91	52418.64
450.10	53434.43
450.28	53549.12
450.46	53340.81
450.65	53614.65
450.83	53066.97
451.02	52657.37
451.20	52200.97
451.39	52303.95
451.57	52250.12
451.76	52362.46
451.94	51672.01
452.13	50890.27
452.31	49837.03
452.49	47917.79
452.68	48491.22
452.86	48432.71
453.05	48828.26
453.23	50206.83
453.42	50801.33
453.60	51409.87
453.78	51941.17
453.97	51505.83
454.15	51824.14
454.34	50784.94
454.52	51557.32
454.70	50508.76
454.89	50848.14
455.07	50913.67
455.26	51515.19
455.44	52708.86
455.62	53509.33
455.81	53205.06
455.99	53134.84
456.17	52903.13
456.36	52996.75
456.54	53675.51
456.73	53422.73
456.91	54298.09
457.09	54541.50
457.28	54738.11
457.46	53301.02
457.64	53183.99
457.83	52865.68
458.01	51826.48
458.19	52580.13
458.38	52947.60
458.56	53556.14
458.74	53336.13
458.93	53502.31
459.11	52926.53
459.29	52811.85
459.48	53085.69
459.66	52781.42
459.84	53050.58
460.03	53593.59
460.21	53659.12
460.39	54368.30
460.57	54656.19
460.76	54333.20
460.94	54824.71
461.12	54150.63
461.31	54351.92
461.49	54380.01
461.67	54391.71
461.85	55395.80
462.04	54958.12
462.22	55068.12
462.40	55196.85
462.59	55004.93
462.77	54979.18
462.95	55267.07
463.13	54686.62
463.32	54475.97
463.50	53944.67
463.68	54078.08
463.86	54534.48
464.05	53939.99
464.23	53441.45
464.41	53279.96
464.59	52601.20
464.78	54167.02
464.96	54028.93
465.14	53635.72
465.32	54625.76
465.50	55058.76
465.69	55304.52
465.87	54845.77
466.05	54129.57
466.23	52760.36
466.41	51749.24
466.60	53160.59
466.78	53057.60
466.96	53301.02
467.14	53937.65
467.32	54405.75
467.51	54553.21
467.69	53090.37
467.87	53633.38
468.05	53902.54
468.23	54124.89
468.41	54026.59
468.60	54174.04
468.78	54094.46
468.96	54096.80
469.14	54607.04
469.32	54749.81
469.50	53289.32
469.69	53673.16
469.87	52966.32
470.05	52762.70
470.23	53127.82
470.41	53312.72
470.59	53738.70
470.77	54087.44
470.95	54468.95
471.14	54885.56
471.32	54777.90
471.50	56158.81
471.68	56453.72
471.86	56530.96
472.04	56615.22
472.22	56732.25
472.40	55442.61
472.58	54974.50
472.77	54843.43
472.95	55709.43
473.13	55976.25
473.31	55372.39
473.49	55891.99
473.67	56491.17
473.85	56343.72
474.03	57024.81
474.21	57001.41
474.39	57130.14
474.57	57549.09
474.75	57558.45
474.93	57130.14
475.12	56512.23
475.30	56699.48
475.48	56662.03
475.66	57219.08
475.84	56549.68
476.02	56594.15
476.20	56182.22
476.38	56898.42
476.56	57408.66
476.74	57975.07
476.92	57764.42
477.10	58188.06
477.28	59084.48
477.46	59100.87
477.64	59248.32
477.82	59543.23
478.00	59496.42
478.18	58925.33
478.36	59152.36
478.54	59147.68
478.72	59157.04
478.90	59819.41
479.08	60463.06
479.26	60837.54
479.44	60446.68
479.62	60566.04
479.80	60355.39
479.98	60437.31
480.16	60830.52
480.34	60456.04
480.52	60626.90
480.70	60715.84
480.88	60935.85
481.06	61350.12
481.24	61638.01
481.41	62148.24
481.59	62679.55
481.77	62241.87
481.95	61813.55
482.13	61731.63
482.31	61911.85
482.49	62246.55
482.67	62038.24
482.85	62431.45
483.03	62817.64
483.21	63025.95
483.39	63035.31
483.57	62316.76
483.74	62092.07
483.92	62581.24
484.10	62578.90
484.28	63220.21
484.46	63494.05
484.64	63653.21
484.82	62937.01
485.00	62555.50
485.18	62026.54
485.35	61441.40
485.53	59400.46
485.71	57240.14
485.89	56959.28
486.07	58333.17
486.25	60355.39
486.43	61778.44
486.61	62134.20
486.78	62166.97
486.96	62363.57
487.14	63159.36
487.32	63671.93
487.50	64451.33
487.68	64933.48
487.85	65354.78
488.03	65258.82
488.21	64949.87
488.39	64477.08
488.57	64076.85
488.75	63943.44
488.92	64657.30
489.10	65535.00
489.28	65535.00
489.46	65535.00
489.64	65535.00
489.81	65535.00
489.99	65535.00
490.17	65535.00
490.35	65535.00
490.53	65535.00
490.70	65535.00
490.88	65535.00
491.06	65535.00
491.24	65535.00
491.41	65535.00
491.59	65535.00
491.77	65535.00
491.95	65535.00
492.13	65535.00
492.30	65535.00
492.48	65535.00
492.66	65535.00
492.84	65535.00
493.01	65535.00
493.19	65535.00
493.37	65535.00
493.54	65535.00
493.72	65535.00
493.90	65535.00
494.08	65535.00
494.25	65535.00
494.43	65535.00
494.61	65535.00
494.79	65535.00
494.96	65535.00
495.14	65535.00
495.32	65535.00
495.49	65535.00
495.67	65535.00
495.85	65535.00
496.02	65535.00
496.20	65535.00
496.38	65535.00
496.55	65535.00
496.73	65535.00
496.91	65535.00
497.09	65535.00
497.26	65535.00
497.44	65535.00
497.62	65535.00
497.79	65535.00
497.97	65535.00
498.14	65535.00
498.32	65535.00
498.50	65535.00
498.67	65535.00
498.85	65535.00
499.03	65535.00
499.20	65535.00
499.38	65535.00
499.56	65535.00
499.73	65535.00
499.91	65535.00
500.08	65535.00
500.26	65535.00
500.44	65535.00
500.61	65535.00
500.79	65535.00
500.97	65535.00
501.14	65535.00
501.32	65535.00
501.49	65535.00
501.67	65535.00
501.84	65535.00
502.02	65535.00
502.20	65535.00
502.37	65535.00
502.55	65535.00
502.72	65535.00
502.90	65535.00
503.07	65535.00
503.25	65535.00
503.43	65535.00
503.60	65535.00
503.78	65535.00
503.95	65535.00
504.13	65535.00
504.30	65535.00
504.48	65535.00
504.65	65535.00
504.83	65535.00
505.01	65535.00
505.18	65535.00
505.36	65535.00
505.53	65535.00
505.71	65535.00
505.88	65535.00
506.06	65535.00
506.23	65535.00
506.41	65535.00
506.58	65535.00
506.76	65535.00
506.93	65535.00
507.11	65535.00
507.28	65535.00
507.46	65535.00
507.63	65535.00
507.81	65535.00
507.98	65535.00
508.16	65535.00
508.33	65535.00
508.50	65535.00
508.68	65535.00
508.85	65535.00
509.03	65535.00
509.20	65535.00
509.38	65535.00
509.55	65535.00
509.73	65535.00
509.90	65535.00
510.08	65535.00
510.25	65535.00
510.42	65535.00
510.60	65535.00
510.77	65535.00
510.95	65535.00
511.12	65535.00
511.30	65535.00
511.47	65535.00
511.64	65535.00
511.82	65535.00
511.99	65535.00
512.17	65535.00
512.34	65535.00
512.51	65535.00
512.69	65535.00
512.86	65535.00
513.04	65535.00
513.21	65535.00
513.38	65535.00
513.56	65535.00
513.73	65535.00
513.90	65535.00
514.08	65535.00
514.25	65535.00
514.43	65535.00
514.60	65535.00
514.77	65535.00
514.95	65535.00
515.12	65535.00
515.29	65535.00
515.47	65535.00
515.64	65535.00
515.81	65535.00
515.99	65535.00
516.16	65535.00
516.33	65535.00
516.51	65535.00
516.68	65535.00
516.85	65535.00
517.03	65535.00
517.20	65535.00
517.37	65535.00
517.54	65535.00
517.72	65535.00
517.89	65535.00
518.06	65535.00
518.24	65535.00
518.41	65535.00
518.58	65535.00
518.75	65535.00
518.93	65535.00
519.10	65535.00
519.27	65535.00
519.45	65535.00
519.62	65535.00
519.79	65535.00
519.96	65535.00
520.14	65535.00
520.31	65535.00
520.48	65535.00
520.65	65535.00
520.83	65535.00
521.00	65535.00
521.17	65535.00
521.34	65535.00
521.52	65535.00
521.69	65535.00
521.86	65535.00
522.03	65535.00
522.20	65535.00
522.38	65535.00
522.55	65535.00
522.72	65535.00
522.89	65535.00
523.07	65535.00
523.24	65535.00
523.41	65535.00
523.58	65535.00
523.75	65535.00
523.92	65535.00
524.10	65535.00
524.27	65535.00
524.44	65535.00
524.61	65535.00
524.78	65535.00
524.96	65535.00
525.13	65535.00
525.30	65535.00
525.47	65535.00
525.64	65535.00
525.81	65535.00
525.98	65535.00
526.16	65535.00
526.33	65535.00
526.50	65535.00
526.67	65535.00
526.84	65535.00
527.01	65535.00
527.18	65535.00
527.36	65535.00
527.53	65535.00
527.70	65535.00
527.87	65535.00
528.04	65535.00
528.21	65535.00
528.38	65535.00
528.55	65535.00
528.72	65535.00
528.89	65535.00
529.07	65535.00
529.24	65535.00
529.41	65535.00
529.58	65535.00
529.75	65535.00
529.92	65535.00
530.09	65535.00
530.26	65535.00
530.43	65535.00
530.60	65535.00
530.77	65535.00
530.94	65535.00
531.11	65535.00
531.28	65535.00
531.46	65535.00
531.63	65535.00
531.80	65535.00
531.97	65535.00
532.14	65535.00
532.31	65535.00
532.48	65535.00
532.65	65535.00
532.82	65535.00
532.99	65535.00
533.16	65535.00
533.33	65535.00
533.50	65535.00
533.67	65535.00
533.84	65535.00
534.01	65535.00
534.18	65535.00
534.35	65535.00
534.52	65535.00
534.69	65535.00
534.86	65535.00
535.03	65535.00
535.20	65535.00
535.37	65535.00
535.54	65535.00
535.71	65535.00
535.88	65535.00
536.05	65535.00
536.22	65535.00
536.38	65535.00
536.55	65535.00
536.72	65535.00
536.89	65535.00
537.06	65535.00
537.23	65535.00
537.40	65535.00
537.57	65535.00
537.74	65535.00
537.91	65535.00
538.08	65535.00
538.25	65535.00
538.42	65535.00
538.59	65535.00
538.75	65535.00
538.92	65535.00
539.09	65535.00
539.26	65535.00
539.43	65535.00
539.60	65535.00
539.77	65535.00
539.94	65535.00
540.11	65535.00
540.28	65535.00
540.44	65535.00
540.61	65535.00
540.78	65535.00
540.95	65535.00
541.12	65535.00
541.29	65535.00
541.46	65535.00
541.62	65535.00
541.79	65535.00
541.96	65535.00
542.13	65535.00
542.30	65535.00
542.47	65535.00
542.63	65535.00
542.80	65535.00
542.97	65535.00
543.14	65535.00
543.31	65535.00
543.48	65535.00
543.64	65535.00
543.81	65535.00
543.98	65535.00
544.15	65535.00
544.32	65535.00
544.48	65535.00
544.65	65535.00
544.82	65535.00
544.99	65535.00
545.16	65535.00
545.32	65535.00
545.49	65535.00
545.66	65535.00
545.83	65535.00
546.00	65535.00
546.16	65535.00
546.33	65535.00
546.50	65535.00
546.67	65535.00
546.83	65535.00
547.00	65535.00
547.17	65535.00
547.34	65535.00
547.50	65535.00
547.67	65535.00
547.84	65535.00
548.00	65535.00
548.17	65535.00
548.34	65535.00
548.51	65535.00
548.67	65535.00
548.84	65535.00
549.01	65535.00
549.18	65535.00
549.34	65535.00
549.51	65535.00
549.68	65535.00
549.84	65535.00
550.01	65535.00
550.18	65535.00
550.34	65535.00
550.51	65535.00
550.68	65535.00
550.84	65535.00
551.01	65535.00
551.18	65535.00
551.34	65535.00
551.51	65535.00
551.68	65535.00
551.84	65535.00
552.01	65535.00
552.18	65535.00
552.34	65535.00
552.51	65535.00
552.68	65535.00
552.84	65535.00
553.01	65535.00
553.18	65535.00
553.34	65535.00
553.51	65535.00
553.67	65535.00
553.84	65535.00
554.01	65535.00
554.17	65535.00
554.34	65535.00
554.51	65535.00
554.67	65535.00
554.84	65535.00
555.00	65535.00
555.17	65535.00
555.33	65535.00
555.50	65535.00
555.67	65535.00
555.83	65535.00
556.00	65535.00
556.16	65535.00
556.33	65535.00
556.50	65535.00
556.66	65535.00
556.83	65535.00
556.99	65535.00
557.16	65535.00
557.32	65535.00
557.49	65535.00
557.65	65535.00
557.82	65535.00
557.98	65535.00
558.15	65535.00
558.32	65535.00
558.48	65535.00
558.65	65535.00
558.81	65535.00
558.98	65535.00
559.14	65535.00
559.31	65535.00
559.47	65535.00
559.64	65535.00
559.80	65535.00
559.97	65535.00
560.13	65535.00
560.30	65535.00
560.46	65535.00
560.63	65535.00
560.79	65535.00
560.96	65535.00
561.12	65535.00
561.29	65535.00
561.45	65535.00
561.61	65535.00
561.78	65535.00
561.94	65535.00
562.11	65535.00
562.27	65535.00
562.44	65535.00
562.60	65535.00
562.77	65535.00
562.93	65535.00
563.10	65535.00
563.26	65535.00
563.42	65535.00
563.59	65535.00
563.75	65535.00
563.92	65535.00
564.08	65535.00
564.24	65535.00
564.41	65535.00
564.57	65535.00
564.74	65535.00
564.90	65535.00
565.07	65535.00
565.23	65535.00
565.39	65535.00
565.56	65535.00
565.72	65535.00
565.88	65535.00
566.05	65535.00
566.21	65535.00
566.38	65535.00
566.54	65535.00
566.70	65535.00
566.87	65535.00
567.03	65535.00
567.19	65535.00
567.36	65535.00
567.52	65535.00
567.68	65535.00
567.85	65535.00
568.01	65535.00
568.17	65535.00
568.34	65535.00
568.50	65535.00
568.66	65535.00
568.83	65535.00
568.99	65535.00
569.15	65535.00
569.32	65535.00
569.48	65535.00
569.64	65535.00
569.81	65535.00
569.97	65535.00
570.13	65535.00
570.30	65535.00
570.46	65535.00
570.62	65535.00
570.78	65535.00
570.95	65535.00
571.11	65535.00
571.27	65535.00
571.43	65535.00
571.60	65535.00
571.76	65535.00
571.92	65535.00
572.09	65535.00
572.25	65535.00
572.41	65535.00
572.57	65535.00
572.74	65535.00
572.90	65535.00
573.06	65535.00
573.22	65535.00
573.38	65535.00
573.55	65535.00
573.71	65535.00
573.87	65535.00
574.03	65535.00
574.20	65535.00
574.36	65535.00
574.52	65535.00
574.68	65535.00
574.84	65535.00
575.01	65535.00
575.17	65535.00
575.33	65535.00
575.49	65535.00
575.65	65535.00
575.82	65535.00
575.98	65535.00
576.14	65535.00
576.30	65535.00
576.46	65535.00
576.62	65535.00
576.79	65535.00
576.95	65535.00
577.11	65535.00
577.27	65535.00
577.43	65535.00
577.59	65535.00
577.75	65535.00
577.92	65535.00
578.08	65535.00
578.24	65535.00
578.40	65535.00
578.56	65535.00
578.72	65535.00
578.88	65535.00
579.04	65535.00
579.21	65535.00
579.37	65535.00
579.53	65535.00
579.69	65535.00
579.85	65535.00
580.01	65535.00
580.17	65535.00
580.33	65535.00
580.49	65535.00
580.65	65535.00
580.82	65535.00
580.98	65535.00
581.14	65535.00
581.30	65535.00
581.46	65535.00
581.62	65535.00
581.78	65535.00
581.94	65535.00
582.10	65535.00
582.26	65535.00
582.42	65535.00
582.58	65535.00
582.74	65535.00
582.90	65535.00
583.06	65535.00
583.22	65535.00
583.38	65535.00
583.54	65535.00
583.70	65535.00
583.86	65535.00
584.02	65535.00
584.18	65535.00
584.34	65535.00
584.50	65535.00
584.66	65535.00
