SpectraSuite Data File
++++++++++++++++++++++++++++++++++++
Date: Mon Oct 07 14:53:54 GMT-05:00 2013
User: price-jones
Dark Spectrum Present: No
Reference Spectrum Present: No
Number of Sampled Component Spectra: 1
Spectrometers: USB2+H05261
Integration Time (usec): 100000 (USB2+H05261)
Spectra Averaged: 1 (USB2+H05261)
Boxcar Smoothing: 0 (USB2+H05261)
Correct for Electrical Dark: No (USB2+H05261)
Strobe/Lamp Enabled: No (USB2+H05261)
Correct for Detector Non-linearity: No (USB2+H05261)
Correct for Stray Light: No (USB2+H05261)
Number of Pixels in Processed Spectrum: 2048
>>>>>Begin Processed Spectral Data<<<<<
365.73	0.00
365.92	0.00
366.12	0.00
366.32	0.00
366.52	0.00
366.72	0.00
366.91	0.00
367.11	0.00
367.31	0.00
367.51	0.00
367.70	0.00
367.90	0.00
368.10	0.00
368.30	0.00
368.49	0.00
368.69	0.00
368.89	0.00
369.09	0.00
369.28	0.00
369.48	0.00
369.68	0.00
369.87	0.00
370.07	0.00
370.27	0.00
370.47	613.22
370.66	3061.42
370.86	3691.02
371.06	3861.88
371.25	4025.72
371.45	3564.64
371.65	3148.02
371.84	3070.78
372.04	3150.36
372.24	3515.48
372.44	3871.25
372.63	3597.40
372.83	3403.14
373.03	3124.62
373.22	2729.06
373.42	2832.05
373.62	3396.12
373.81	3726.13
374.01	3597.40
374.21	3332.92
374.40	3038.02
374.60	3159.72
374.79	3524.85
374.99	4105.30
375.19	4538.30
375.38	4383.82
375.58	4114.66
375.78	4147.43
375.97	4231.69
376.17	4533.62
376.37	4308.93
376.56	4369.78
376.76	4692.77
376.95	5078.96
377.15	5420.68
377.35	5687.50
377.54	5830.27
377.74	5849.00
377.93	5940.28
378.13	5865.38
378.33	5366.85
378.52	5221.74
378.72	4924.49
378.91	4805.12
379.11	4629.58
379.31	4561.70
379.50	4526.60
379.70	4964.28
379.89	5336.42
380.09	5643.03
380.28	5984.75
380.48	5731.97
380.68	5720.27
380.87	5760.06
381.07	5205.35
381.26	4903.42
381.46	4496.17
381.65	4280.84
381.85	4301.90
382.04	4032.74
382.24	3918.06
382.43	3655.92
382.63	3681.66
382.83	3410.16
383.02	3471.01
383.22	3452.29
383.41	3700.39
383.61	3922.74
383.80	4379.14
384.00	4828.53
384.19	5490.90
384.39	5881.77
384.58	5935.60
384.78	5748.36
384.97	5659.42
385.17	5420.68
385.36	5034.49
385.56	4903.42
385.75	5062.58
385.95	5612.60
386.14	5984.75
386.34	5975.39
386.53	5865.38
386.72	5238.12
386.92	5359.83
387.11	5652.39
387.31	6024.54
387.50	5743.67
387.70	5678.14
387.89	5516.64
388.09	5647.71
388.28	5713.25
388.48	5825.59
388.67	6143.91
388.86	6796.92
389.06	7234.60
389.25	7520.14
389.45	7744.83
389.64	7822.07
389.84	7501.42
390.03	7440.56
390.22	7377.37
390.42	7871.22
390.61	8271.45
390.81	8875.31
391.00	8994.68
391.19	9062.55
391.39	8552.32
391.58	7990.59
391.78	7662.91
391.97	7438.22
392.16	6780.53
392.36	6396.68
392.55	5085.98
392.75	3999.98
392.94	3323.56
393.13	3295.47
393.33	3751.88
393.52	4985.34
393.71	5970.71
393.91	6654.14
394.10	7325.88
394.29	8145.06
394.49	8685.73
394.68	9294.27
394.88	9659.39
395.07	9727.27
395.26	9781.10
395.46	9275.54
395.65	8688.07
395.84	7669.94
396.04	6661.16
396.23	5308.34
396.42	4458.72
396.62	4145.09
396.81	4994.70
397.00	6366.26
397.19	8042.08
397.39	9312.99
397.58	10672.84
397.77	11335.21
397.97	11826.73
398.16	11892.26
398.35	12276.11
398.55	12652.94
398.74	13018.06
398.93	13483.83
399.12	13128.06
399.32	12575.70
399.51	12868.27
399.70	13764.69
399.90	13741.29
400.09	13940.23
400.28	13511.91
400.47	13535.32
400.67	14286.63
400.86	14640.05
401.05	14766.44
401.24	14508.98
401.44	15309.44
401.63	15297.74
401.82	15206.46
402.01	15232.21
402.21	15051.99
402.40	15393.70
402.59	15073.05
402.78	14319.40
402.97	13977.68
403.17	14291.31
403.36	15494.35
403.55	15864.15
403.74	16238.64
403.93	15344.55
404.13	14298.33
404.32	13888.74
404.51	14384.93
404.70	15592.65
404.89	15695.63
405.09	15578.61
405.28	15129.22
405.47	14904.53
405.66	15044.96
405.85	14635.37
406.05	14038.53
406.24	14443.45
406.43	14946.66
406.62	15475.62
406.81	15569.24
407.00	14965.39
407.20	14518.34
407.39	14761.76
407.58	15374.98
407.77	15627.76
407.96	16325.24
408.15	16727.81
408.34	16861.22
408.54	17495.50
408.73	17673.39
408.92	17287.20
409.11	16901.01
409.30	16255.02
409.49	15161.99
409.68	14256.20
409.87	13612.56
410.07	14750.06
410.26	15786.91
410.45	16659.93
410.64	17181.87
410.83	17561.04
411.02	18092.34
411.21	18621.30
411.40	18368.52
411.59	18792.16
411.78	18363.84
411.98	18244.48
412.17	18541.72
412.36	17907.44
412.55	18494.91
412.74	17825.52
412.93	17521.25
413.12	17680.41
413.31	18991.11
413.50	19316.44
413.69	19721.35
413.88	19037.92
414.07	18338.10
414.26	18899.83
414.45	19342.19
414.64	19662.84
414.83	19641.78
415.02	19215.80
415.22	18913.87
415.41	19775.19
415.60	20252.66
415.79	21013.33
415.98	21474.42
416.17	21591.44
416.36	20872.90
416.55	20465.64
416.74	19936.68
416.93	19215.80
417.12	19047.28
417.31	19417.08
417.50	20081.80
417.69	20482.03
417.88	20500.75
418.07	20381.38
418.26	19969.45
418.45	19939.02
418.64	21067.16
418.83	21542.29
419.02	21413.56
419.21	21448.67
419.39	20449.26
419.58	19161.97
419.77	19515.39
419.96	20032.65
420.15	21214.62
420.34	21820.81
420.53	22602.55
420.72	23229.82
420.91	23016.83
421.10	22506.59
421.29	22431.69
421.48	21738.90
421.67	22848.31
421.86	21865.28
422.05	20606.08
422.24	18274.90
422.43	18368.52
422.61	20589.69
422.80	21951.88
422.99	22150.83
423.18	21312.92
423.37	20570.97
423.56	20695.02
423.75	20975.88
423.94	21502.50
424.13	20343.94
424.32	20608.42
424.50	20601.40
424.69	20159.03
424.88	20339.26
425.07	20205.84
425.26	20262.02
425.45	19742.42
425.64	19601.99
425.83	19658.16
426.01	21062.48
426.20	21303.56
426.39	21467.39
426.58	19630.07
426.77	18204.69
426.96	17640.62
427.15	18019.78
427.33	19545.81
427.52	20528.84
427.71	20437.56
427.90	20348.62
428.09	20114.56
428.28	19786.89
428.46	19199.41
428.65	18611.94
428.84	19367.93
429.03	19903.92
429.22	18436.40
429.40	17818.50
429.59	15943.73
429.78	13858.31
429.97	14368.55
430.16	14228.12
430.34	14448.13
430.53	14207.05
430.72	14501.96
430.91	16063.10
431.10	19197.07
431.28	22300.62
431.47	24210.50
431.66	24521.79
431.85	22211.68
432.03	20545.22
432.22	19506.02
432.41	20685.65
432.60	22504.25
432.79	23304.71
432.97	23927.30
433.16	23718.99
433.35	21577.40
433.54	19351.55
433.72	18045.53
433.91	18752.37
434.10	20650.55
434.28	22555.74
434.47	23697.92
434.66	23187.69
434.85	22740.64
435.03	22469.14
435.22	22977.04
435.41	24528.81
435.59	24519.45
435.78	24739.46
435.97	25703.76
436.16	25813.77
436.34	25156.08
436.53	24702.01
436.72	24893.94
436.90	23477.91
437.09	23711.97
437.28	22675.11
437.46	24013.90
437.65	23604.30
437.84	22104.02
438.02	20297.13
438.21	19983.49
438.40	21022.69
438.58	23227.48
438.77	23761.12
438.96	23906.23
439.14	24814.36
439.33	25394.81
439.52	25788.02
439.70	25216.93
439.89	24482.00
440.08	23910.91
440.26	23920.28
440.45	24559.24
440.63	26230.38
440.82	27793.86
441.01	27847.69
441.19	27168.94
441.38	27861.74
441.57	28664.54
441.75	29209.89
441.94	29200.52
442.12	29001.58
442.31	29338.62
442.50	29504.79
442.68	28975.83
442.87	28535.81
443.05	28226.86
443.24	28800.29
443.43	29467.34
443.61	29996.31
443.80	30066.52
443.98	28535.81
444.17	28428.15
444.35	30141.42
444.54	30684.42
444.73	30164.82
444.91	28982.85
445.10	27709.60
445.28	26745.30
445.47	26515.93
445.65	26618.91
445.84	27161.92
446.02	28151.96
446.21	28540.49
446.39	28428.15
446.58	28856.46
446.77	29439.26
446.95	29860.55
447.14	30651.66
447.32	31131.47
447.51	30185.89
447.69	29149.03
447.88	28545.17
448.06	29029.66
448.25	29748.21
448.43	30169.51
448.62	29502.45
448.80	29502.45
448.99	29680.33
449.17	29954.18
449.36	29834.81
449.54	31070.61
449.73	31365.52
449.91	31608.93
450.10	32786.22
450.28	32929.00
450.46	32725.37
450.65	32896.23
450.83	32683.24
451.02	31611.28
451.20	31990.44
451.39	31786.82
451.57	31119.76
451.76	31772.77
451.94	31477.86
452.13	30864.64
452.31	29439.26
452.49	27997.49
452.68	28418.78
452.86	28617.73
453.05	29017.96
453.23	29755.23
453.42	30403.56
453.60	31309.35
453.78	31407.65
453.97	31129.12
454.15	30866.98
454.34	30352.07
454.52	30810.81
454.70	29724.80
454.89	30169.51
455.07	30745.28
455.26	30899.75
455.44	31756.39
455.62	32706.65
455.81	32662.18
455.99	32346.20
456.17	31969.38
456.36	32503.02
456.54	33048.36
456.73	33092.83
456.91	33474.34
457.09	33191.14
457.28	34242.04
457.46	32992.19
457.64	32676.22
457.83	31929.59
458.01	30897.41
458.19	31868.73
458.38	31608.93
458.56	33390.08
458.74	32933.68
458.93	32369.61
459.11	32376.63
459.29	32123.85
459.48	32243.22
459.66	31878.10
459.84	32357.91
460.03	32603.66
460.21	32598.98
460.39	33425.19
460.57	33755.21
460.76	33834.78
460.94	34162.46
461.12	33638.18
461.31	33610.09
461.49	33481.36
461.67	33621.80
461.85	34958.24
462.04	34359.06
462.22	35145.48
462.40	34330.98
462.59	34497.16
462.77	34593.12
462.95	34653.97
463.13	34089.90
463.32	33811.38
463.50	33212.20
463.68	33457.96
463.86	33818.40
464.05	33191.14
464.23	32790.91
464.41	32772.18
464.59	31798.52
464.78	33675.63
464.96	33443.91
465.14	32788.56
465.32	33483.70
465.50	34724.19
465.69	34857.60
465.87	34017.35
466.05	33130.28
466.23	31892.14
466.41	30869.33
466.60	32226.84
466.78	31508.29
466.96	32994.53
467.14	32851.76
467.32	33235.61
467.51	33677.97
467.69	32180.03
467.87	32538.13
468.05	33048.36
468.23	32818.99
468.41	33366.68
468.60	33354.97
468.78	33809.04
468.96	33027.30
469.14	34059.48
469.32	34082.88
469.50	33015.60
469.69	32704.31
469.87	32428.12
470.05	32194.07
470.23	32264.28
470.41	32751.12
470.59	33172.41
470.77	32938.36
470.95	33450.94
471.14	33860.53
471.32	33893.30
471.50	35672.10
471.68	36348.52
471.86	35959.99
472.04	36676.19
472.22	36531.08
472.40	34979.31
472.58	34246.72
472.77	34129.69
472.95	34588.44
473.13	35447.41
473.31	34265.44
473.49	35044.84
473.67	35543.38
473.85	35821.90
474.03	36851.73
474.21	36266.60
474.39	37359.63
474.57	37930.72
474.75	37610.07
474.93	36980.46
475.12	36460.87
475.30	36187.02
475.48	36388.31
475.66	36587.25
475.84	36617.68
476.02	35938.93
476.20	35770.41
476.38	36116.81
476.56	37628.79
476.74	37832.42
476.92	37914.34
477.10	38745.23
477.28	39480.16
477.46	40037.20
477.64	40247.85
477.82	40327.43
478.00	40526.38
478.18	39938.90
478.36	39784.43
478.54	39739.96
478.72	40299.34
478.90	40811.92
479.08	41825.37
479.26	42265.39
479.44	42251.35
479.62	41902.61
479.80	41572.60
479.98	42227.95
480.16	42349.65
480.34	41830.05
480.52	42738.18
480.70	42562.64
480.88	42899.68
481.06	43026.07
481.24	43821.85
481.41	44538.05
481.59	45160.64
481.77	45125.53
481.95	44397.62
482.13	44030.16
482.31	44069.95
482.49	44851.69
482.67	44699.55
482.85	44737.00
483.03	45904.93
483.21	45977.48
483.39	45797.26
483.57	45062.33
483.74	45361.92
483.92	45317.45
484.10	45308.09
484.28	46618.79
484.46	46937.10
484.64	47136.05
484.82	46021.95
485.00	46101.53
485.18	44933.60
485.35	43845.26
485.53	40311.05
485.71	37687.31
485.89	36168.30
486.07	38574.37
486.25	41488.34
486.43	43950.58
486.61	44694.87
486.78	44465.50
486.96	44587.21
487.14	46600.07
487.32	47370.10
487.50	48371.85
487.68	49272.96
487.85	49942.35
488.03	49448.50
488.21	49279.98
488.39	48168.22
488.57	48189.29
488.75	47267.12
488.92	48722.93
489.10	50834.10
489.28	52617.58
489.46	52985.05
489.64	52559.07
489.81	53001.43
489.99	52301.61
490.17	52413.96
490.35	52821.21
490.53	52594.18
490.70	52301.61
490.88	51971.60
491.06	52842.27
491.24	53052.92
491.41	51800.74
491.59	50543.87
491.77	49385.30
491.95	50789.62
492.13	51468.38
492.30	52793.12
492.48	53815.94
492.66	54466.61
492.84	54644.49
493.01	54138.93
493.19	53549.12
493.37	53492.94
493.54	53092.71
493.72	53614.65
493.90	54894.92
494.08	55540.91
494.25	55873.27
494.43	55847.52
494.61	56135.41
494.79	56147.11
494.96	56198.60
495.14	55377.08
495.32	54490.01
495.49	53942.33
495.67	55030.68
495.85	56207.97
496.02	56790.76
496.20	56643.30
496.38	56147.11
496.55	55908.38
496.73	56442.02
496.91	56484.15
497.09	57031.83
497.26	57125.46
497.44	56736.93
497.62	56404.57
497.79	55468.36
497.97	54300.43
498.14	54162.34
498.32	55573.68
498.50	56430.32
498.67	56961.62
498.85	56746.29
499.03	57022.47
499.20	57317.38
499.38	57305.68
499.56	56931.19
499.73	56718.20
499.91	56303.93
500.08	55711.77
500.26	54962.80
500.44	55561.98
500.61	56051.15
500.79	56240.73
500.97	55501.12
501.14	55456.65
501.32	55327.92
501.49	55456.65
501.67	55571.34
501.84	56182.22
502.02	56442.02
502.20	56488.83
502.37	56816.50
502.55	56631.60
502.72	57366.53
502.90	57722.29
503.07	57528.03
503.25	57258.87
503.43	56317.97
503.60	55700.07
503.78	54805.98
503.95	55580.70
504.13	56722.88
504.30	57551.43
504.48	57432.07
504.65	57155.88
504.83	57209.71
505.01	57701.23
505.18	57895.49
505.36	58665.53
505.53	58674.89
505.71	58911.28
505.88	59014.27
506.06	58216.14
506.23	57958.69
506.41	57392.28
506.58	57993.79
506.76	57609.95
506.93	57883.79
507.11	57389.94
507.28	57659.10
507.46	57036.51
507.63	56720.54
507.81	56324.99
507.98	56467.76
508.16	57256.53
508.33	57932.94
508.50	58141.25
508.68	58749.79
508.85	58969.80
509.03	59091.51
509.20	58726.38
509.38	57977.41
509.55	57057.58
509.73	57345.47
509.90	58176.36
510.08	58340.19
510.25	58078.05
510.42	58159.97
510.60	57872.09
510.77	58096.78
510.95	58686.59
511.12	58817.66
511.30	59128.95
511.47	59503.44
511.64	59468.33
511.82	58946.39
511.99	58307.43
512.17	57904.85
512.34	57563.14
512.51	57626.33
512.69	57586.54
512.86	57982.09
513.04	58099.12
513.21	58117.84
513.38	57996.13
513.56	57551.43
513.73	56596.49
513.90	57036.51
514.08	57198.01
514.25	57158.22
514.43	57696.55
514.60	57659.10
514.77	57946.98
514.95	58031.24
515.12	57935.28
515.29	57991.45
515.47	58333.17
515.64	58717.02
515.81	58375.30
515.99	57925.92
516.16	56317.97
516.33	54190.42
516.51	52720.57
516.68	51657.96
516.85	51210.92
517.03	51632.22
517.20	54309.79
517.37	56807.14
517.54	57902.51
517.72	57586.54
517.89	55051.74
518.06	52528.64
518.24	53066.97
518.41	55079.83
518.58	56327.33
518.75	56842.25
518.93	56924.17
519.10	56837.57
519.27	57261.21
519.45	57315.04
519.62	58103.80
519.79	58438.50
519.96	58143.59
520.14	57925.92
520.31	56935.87
520.48	56945.23
520.65	57230.78
520.83	58061.67
521.00	58599.99
521.17	58234.87
521.34	57902.51
521.52	58223.17
521.69	58787.24
521.86	58843.41
522.03	58698.30
522.20	57839.32
522.38	56615.22
522.55	56584.79
522.72	57228.44
522.89	57481.22
523.07	57579.52
523.24	57865.06
523.41	58663.19
523.58	59021.29
523.75	59220.23
523.92	59355.99
524.10	59201.51
524.27	59203.85
524.44	59180.45
524.61	58672.55
524.78	58707.66
524.96	58592.97
525.13	58679.57
525.30	58761.49
525.47	59220.23
525.64	59007.25
525.81	58424.45
525.98	56999.07
526.16	55503.46
526.33	55054.08
526.50	54688.96
526.67	54129.57
526.84	54967.48
527.01	55917.74
527.18	56516.92
527.36	57523.35
527.53	58522.76
527.70	58574.25
527.87	58155.29
528.04	57631.01
528.21	58134.23
528.38	58731.06
528.55	59196.83
528.72	59561.95
528.89	59774.94
529.07	59606.42
529.24	58988.52
529.41	58136.57
529.58	57467.17
529.75	57745.70
529.92	58131.89
530.09	58637.44
530.26	59164.06
530.43	59159.38
530.60	59447.27
530.77	59543.23
530.94	59664.94
531.11	59187.47
531.28	58960.44
531.46	58665.53
531.63	58911.28
531.80	58803.62
531.97	58253.59
532.14	57305.68
532.31	56453.72
532.48	55894.33
532.65	55873.27
532.82	56683.09
532.99	57717.61
533.16	58211.46
533.33	58763.83
533.50	58534.46
533.67	57911.88
533.84	57469.51
534.01	57642.71
534.18	57813.57
534.35	58005.50
534.52	58075.71
534.69	58403.39
534.86	58553.18
535.03	58812.98
535.20	59278.75
535.37	59461.31
535.54	59664.94
535.71	59250.66
535.88	58899.58
536.05	58319.13
536.22	57743.36
536.38	57902.51
536.55	57083.33
536.72	56652.67
536.89	56500.53
537.06	57338.44
537.23	58291.04
537.40	58560.20
537.57	58454.88
537.74	58209.12
537.91	57975.07
538.08	58089.76
538.25	58262.96
538.42	58457.22
538.59	58181.04
538.75	57502.28
538.92	57464.83
539.09	57071.62
539.26	57083.33
539.43	56772.03
539.60	56924.17
539.77	56978.00
539.94	56900.76
540.11	56287.54
540.28	55817.10
540.44	55725.81
540.61	55999.66
540.78	56278.18
540.95	56636.28
541.12	56982.68
541.29	57411.00
541.46	57537.39
541.62	57612.29
541.79	57586.54
541.96	56917.15
542.13	56793.10
542.30	57195.67
542.47	57261.21
542.63	57017.79
542.80	56872.68
542.97	56942.89
543.14	56914.81
543.31	56896.08
543.48	57453.13
543.64	58164.65
543.81	58459.56
543.98	58267.64
544.15	57509.30
544.32	57034.17
544.48	56924.17
544.65	57324.40
544.82	58042.95
544.99	57666.12
545.16	57181.63
545.32	56802.46
545.49	57701.23
545.66	57991.45
545.83	57869.75
546.00	57272.91
546.16	56935.87
546.33	56912.47
546.50	56919.49
546.67	57422.70
546.83	57045.88
547.00	57235.46
547.17	56488.83
547.34	55779.65
547.50	55950.51
547.67	56339.04
547.84	56226.69
548.00	56746.29
548.17	57425.04
548.34	57228.44
548.51	57045.88
548.67	57043.54
548.84	57055.24
549.01	57263.55
549.18	57104.39
549.34	56914.81
549.51	57078.64
549.68	56954.60
549.84	56622.24
550.01	56509.89
550.18	56395.21
550.34	56402.23
550.51	56591.81
550.68	56795.44
550.84	56046.47
551.01	56287.54
551.18	56104.98
551.34	56601.18
551.51	56669.05
551.68	56910.13
551.84	57256.53
552.01	56863.32
552.18	56720.54
552.34	56126.05
552.51	55545.59
552.68	55365.37
552.84	56039.45
553.01	56161.15
553.18	55891.99
553.34	56313.29
553.51	56308.61
553.67	56718.20
553.84	56694.80
554.01	56622.24
554.17	56605.86
554.34	56472.45
554.51	56690.12
554.67	57102.05
554.84	56786.08
555.00	56308.61
555.17	56060.51
555.33	56128.39
555.50	56191.58
555.67	55877.95
555.83	55863.91
556.00	55803.05
556.16	55718.79
556.33	55208.56
556.50	55337.29
556.66	55168.77
556.83	54688.96
556.99	54911.31
557.16	55267.07
557.32	55480.06
557.49	55711.77
557.65	55664.96
557.82	55561.98
557.98	55381.76
558.15	54775.56
558.32	54127.23
558.48	53090.37
558.65	53560.82
558.81	53689.55
558.98	54248.94
559.14	54195.10
559.31	54424.48
559.47	54651.51
559.64	54174.04
559.80	53963.39
559.97	53792.53
560.13	54155.32
560.30	55267.07
560.46	55564.32
560.63	55948.17
560.79	56062.85
560.96	55388.78
561.12	54396.39
561.29	53504.65
561.45	53684.87
561.61	53986.80
561.78	54494.69
561.94	54309.79
562.11	54288.73
562.27	54038.29
562.44	54412.77
562.60	54838.75
562.77	54911.31
562.93	54988.55
563.10	54773.22
563.26	54204.47
563.42	54241.92
563.59	53925.94
563.75	54106.16
563.92	53895.52
564.08	54152.97
564.24	54241.92
564.41	54389.37
564.57	54145.95
564.74	54138.93
564.90	54089.78
565.07	53954.03
565.23	53270.59
565.39	53048.24
565.56	52673.76
565.72	52285.23
565.88	52898.45
566.05	53127.82
566.21	52971.00
566.38	53102.07
566.54	53420.39
566.70	53813.60
566.87	54110.85
567.03	54101.48
567.19	54197.44
567.36	53944.67
567.52	53532.73
567.68	53481.24
567.85	52971.00
568.01	52355.44
568.17	51906.06
568.34	51777.33
568.50	52025.43
568.66	52116.71
568.83	52446.72
568.99	52505.24
569.15	53013.13
569.32	52804.83
569.48	52296.93
569.64	52170.54
569.81	51938.83
569.97	51948.19
570.13	51676.69
570.30	51105.60
570.46	50908.99
570.62	50382.37
570.78	49916.61
570.95	50436.20
571.11	51290.50
571.27	51316.25
571.43	51735.20
571.60	51990.32
571.76	51931.81
571.92	52512.26
572.09	52622.26
572.25	52516.94
572.41	52397.57
572.57	52355.44
572.74	52486.51
572.90	51807.76
573.06	51856.91
573.22	52203.31
573.38	51732.86
573.55	52002.02
573.71	52112.03
573.87	52130.75
574.03	51475.40
574.20	51604.13
574.36	51140.71
574.52	51281.14
574.68	51002.61
574.84	50464.29
575.01	50415.14
575.17	49965.76
575.33	50518.12
575.49	50431.52
575.65	50918.35
575.82	50141.30
575.98	50305.13
576.14	50387.05
576.30	50749.84
576.46	50988.57
576.62	51285.82
576.79	50466.63
576.95	50171.72
577.11	50234.92
577.27	50583.66
577.43	50602.38
577.59	49881.50
577.75	50087.46
577.92	48973.37
578.08	48931.24
578.24	49113.80
578.40	49076.35
578.56	49242.53
578.72	49272.96
578.88	50047.68
579.04	49682.55
579.21	49834.69
579.37	50230.24
579.53	50202.15
579.69	50157.68
579.85	50113.21
580.01	49731.70
580.17	49460.20
580.33	49546.80
580.49	49518.71
580.65	49963.42
580.82	50106.19
580.98	50293.43
581.14	50003.20
581.30	49914.26
581.46	49830.01
581.62	50153.00
581.78	50461.95
581.94	50263.00
582.10	50384.71
582.26	50075.76
582.42	50227.90
582.58	50394.07
582.74	50064.06
582.90	50492.38
583.06	49879.16
583.22	49837.03
583.38	49918.95
583.54	49972.78
583.70	49839.37
583.86	49895.54
584.02	49925.97
584.18	49715.32
584.34	49504.67
584.50	49579.57
584.66	49296.36
584.82	49177.00
584.98	48949.96
585.14	48306.32
585.30	47873.32
