SpectraSuite Data File
++++++++++++++++++++++++++++++++++++
Date: Mon Oct 07 14:55:01 GMT-05:00 2013
User: price-jones
Dark Spectrum Present: No
Reference Spectrum Present: No
Number of Sampled Component Spectra: 1
Spectrometers: USB2+H05261
Integration Time (usec): 10000 (USB2+H05261)
Spectra Averaged: 1 (USB2+H05261)
Boxcar Smoothing: 0 (USB2+H05261)
Correct for Electrical Dark: No (USB2+H05261)
Strobe/Lamp Enabled: No (USB2+H05261)
Correct for Detector Non-linearity: No (USB2+H05261)
Correct for Stray Light: No (USB2+H05261)
Number of Pixels in Processed Spectrum: 2048
>>>>>Begin Processed Spectral Data<<<<<
365.73	0.00
365.92	0.00
366.12	0.00
366.32	0.00
366.52	0.00
366.72	0.00
366.91	0.00
367.11	0.00
367.31	0.00
367.51	0.00
367.70	0.00
367.90	0.00
368.10	0.00
368.30	0.00
368.49	0.00
368.69	0.00
368.89	0.00
369.09	0.00
369.28	0.00
369.48	0.00
369.68	0.00
369.87	0.00
370.07	0.00
370.27	0.00
370.47	374.49
370.66	2331.17
370.86	2801.62
371.06	2862.48
371.25	2932.69
371.45	2605.02
371.65	2370.96
371.84	2172.02
372.04	2387.35
372.24	2708.00
372.44	2686.94
372.63	2640.12
372.83	2401.39
373.03	2146.27
373.22	2033.93
373.42	2165.00
373.62	2534.80
373.81	2794.60
374.01	2637.78
374.21	2221.17
374.40	2235.21
374.60	2377.98
374.79	2754.81
374.99	3211.22
375.19	3241.64
375.38	3358.67
375.58	3077.80
375.78	3080.14
375.97	3124.62
376.17	3236.96
376.37	3222.92
376.56	3403.14
376.76	3665.28
376.95	3726.13
377.15	4163.81
377.35	4128.70
377.54	4297.22
377.74	4533.62
377.93	4332.33
378.13	4320.63
378.33	4049.13
378.52	3878.27
378.72	3625.49
378.91	3695.71
379.11	3454.63
379.31	3356.33
379.50	3419.52
379.70	3620.81
379.89	4264.46
380.09	4374.46
380.28	4498.51
380.48	4381.48
380.68	4334.67
380.87	4194.24
381.07	3726.13
381.26	3618.47
381.46	3393.78
381.65	3197.17
381.85	3103.55
382.04	2963.12
382.24	2675.23
382.43	2715.02
382.63	2773.53
382.83	2630.76
383.02	2588.63
383.22	2696.30
383.41	2771.19
383.61	2883.54
383.80	3428.88
384.00	3845.50
384.19	4299.56
384.39	4362.76
384.58	4491.49
384.78	4271.48
384.97	4264.46
385.17	4007.00
385.36	3796.35
385.56	3665.28
385.75	3995.29
385.95	4367.44
386.14	4535.96
386.34	4442.34
386.53	4255.09
386.72	4086.58
386.92	4060.83
387.11	4524.26
387.31	4554.68
387.50	4561.70
387.70	4327.65
387.89	4458.72
388.09	4304.25
388.28	4381.48
388.48	4505.53
388.67	4762.99
388.86	5401.96
389.06	5715.59
389.25	5895.81
389.45	6169.65
389.64	5806.87
389.84	5727.29
390.03	5764.74
390.22	5781.12
390.42	6031.56
390.61	6377.96
390.81	6967.77
391.00	6930.33
391.19	6743.08
391.39	6635.42
391.58	6143.91
391.78	5764.74
391.97	5746.02
392.16	5207.69
392.36	4681.07
392.55	3581.02
392.75	2839.07
392.94	2445.86
393.13	2583.95
393.33	3227.60
393.52	4109.98
393.71	4655.33
393.91	5369.19
394.10	5907.51
394.29	6476.26
394.49	6913.94
394.68	7449.93
394.88	7442.90
395.07	7705.04
395.26	7482.69
395.46	7400.77
395.65	6740.74
395.84	5724.95
396.04	4840.23
396.23	3920.40
396.42	3316.54
396.62	3478.04
396.81	4098.28
397.00	5352.81
397.19	6717.34
397.39	7903.99
397.58	8751.26
397.77	8999.36
397.97	9324.69
398.16	9495.55
398.35	9870.04
398.55	10132.18
398.74	10501.98
398.93	10406.02
399.12	10665.82
399.32	10319.42
399.51	10384.96
399.70	11091.80
399.90	10817.96
400.09	11082.44
400.28	10757.10
400.47	10991.16
400.67	11398.41
400.86	11683.95
401.05	11681.61
401.24	11655.87
401.44	12245.68
401.63	11999.93
401.82	11950.78
402.01	12086.53
402.21	12217.60
402.40	12006.95
402.59	11719.06
402.78	11063.71
402.97	11061.37
403.17	11857.15
403.36	12191.85
403.55	12926.78
403.74	13064.87
403.93	12058.44
404.13	11009.88
404.32	11082.44
404.51	11583.31
404.70	12528.89
404.89	12418.88
405.09	12170.79
405.28	11981.20
405.47	12063.12
405.66	11901.62
405.85	11620.76
406.05	11180.74
406.24	11494.37
406.43	12276.11
406.62	12425.90
406.81	12531.23
407.00	12063.12
407.20	11953.12
407.39	11836.09
407.58	12781.67
407.77	13387.86
407.96	13792.78
408.15	13806.82
408.34	13657.03
408.54	14537.07
408.73	14417.70
408.92	14204.71
409.11	13455.74
409.30	12865.92
409.49	11826.73
409.68	11485.01
409.87	11349.26
410.07	12493.78
410.26	13006.36
410.45	13458.08
410.64	14204.71
410.83	14572.18
411.02	14799.21
411.21	15131.56
411.40	15087.09
411.59	15468.60
411.78	14979.43
411.98	15096.46
412.17	14995.81
412.36	14895.17
412.55	15082.41
412.74	14693.88
412.93	14424.72
413.12	14876.44
413.31	16362.69
413.50	16091.18
413.69	16086.50
413.88	15304.76
414.07	15424.13
414.26	15602.01
414.45	16013.95
414.64	15917.98
414.83	15957.77
415.02	15522.43
415.22	15871.17
415.41	16809.73
415.60	16912.71
415.79	17481.46
415.98	17694.45
416.17	17734.24
416.36	17369.12
416.55	17018.04
416.74	16404.81
416.93	16053.73
417.12	16273.74
417.31	16458.65
417.50	16622.48
417.69	17123.36
417.88	16961.86
418.07	16828.45
418.26	16620.14
418.45	16865.90
418.64	17881.69
418.83	18384.91
419.02	17886.37
419.21	17666.36
419.39	16643.55
419.58	16346.30
419.77	16423.54
419.96	17472.10
420.15	18501.93
420.34	18916.21
420.53	19040.26
420.72	19452.19
420.91	18909.19
421.10	19054.30
421.29	18672.79
421.48	17759.98
421.67	18930.25
421.86	18331.08
422.05	16716.11
422.24	15384.34
422.43	15786.91
422.61	17675.73
422.80	18427.04
422.99	18190.64
423.18	17804.46
423.37	17256.77
423.56	18106.38
423.75	18071.28
423.94	18211.71
424.13	17123.36
424.32	17322.30
424.50	17345.71
424.69	17242.73
424.88	17401.88
425.07	17453.37
425.26	17729.56
425.45	16891.65
425.64	16688.02
425.83	16910.37
426.01	17834.88
426.20	18249.16
426.39	18043.19
426.58	16631.85
426.77	15536.48
426.96	15225.18
427.15	16243.32
427.33	17249.75
427.52	17696.79
427.71	17958.93
427.90	17579.76
428.09	17067.19
428.28	16781.64
428.46	16189.49
428.65	15733.08
428.84	16704.40
429.03	16491.41
429.22	15307.10
429.40	14494.94
429.59	13247.43
429.78	11754.17
429.97	12341.64
430.16	12355.69
430.34	12121.63
430.53	12367.39
430.72	13291.90
430.91	14853.04
431.10	17263.79
431.28	20107.54
431.47	21261.43
431.66	20547.56
431.85	18398.95
432.03	17207.62
432.22	17266.13
432.41	18696.20
432.60	19981.15
432.79	20713.74
432.97	20807.36
433.16	19814.98
433.35	17923.82
433.54	16161.40
433.72	15859.47
433.91	16814.41
434.10	18696.20
434.28	19791.57
434.47	20177.76
434.66	19697.95
434.85	19616.03
435.03	19978.81
435.22	20004.56
435.41	21263.77
435.59	21774.00
435.78	21600.80
435.97	22040.82
436.16	22141.47
436.34	21799.75
436.53	21317.60
436.72	21371.43
436.90	20538.20
437.09	20484.37
437.28	20208.19
437.46	20819.07
437.65	20182.44
437.84	18319.37
438.02	17729.56
438.21	17820.84
438.40	18717.26
438.58	20112.22
438.77	20924.39
438.96	20945.45
439.14	21947.20
439.33	22515.95
439.52	22380.20
439.70	21984.65
439.89	21336.32
440.08	20973.54
440.26	21518.89
440.45	22396.59
440.63	23704.95
440.82	24147.31
441.01	23328.12
441.19	23517.70
441.38	24685.63
441.57	25514.18
441.75	25467.37
441.94	26026.76
442.12	25111.61
442.31	26214.00
442.50	25645.25
442.68	24840.11
442.87	25481.41
443.05	24374.34
443.24	25802.07
443.43	25928.45
443.61	26363.79
443.80	26492.52
443.98	25362.04
444.17	25013.31
444.35	26160.17
444.54	27040.21
444.73	26216.34
444.91	24950.11
445.10	24184.76
445.28	23618.35
445.47	23175.98
445.65	23297.69
445.84	24271.36
446.02	24664.57
446.21	25078.84
446.39	25303.53
446.58	25383.11
446.77	26031.44
446.95	26569.76
447.14	27346.82
447.32	28182.39
447.51	26864.67
447.69	25944.84
447.88	25617.16
448.06	26625.93
448.25	26787.43
448.43	26443.37
448.62	26164.85
448.80	26038.46
448.99	26258.47
449.17	26206.98
449.36	26988.72
449.54	27669.81
449.73	28224.52
449.91	28381.34
450.10	29642.88
450.28	29481.39
450.46	29525.86
450.65	29434.58
450.83	28830.72
451.02	28910.30
451.20	28739.44
451.39	28687.95
451.57	28369.63
451.76	28739.44
451.94	27733.01
452.13	27147.87
452.31	25546.95
452.49	24594.35
452.68	25343.32
452.86	25668.66
453.05	26167.19
453.23	27159.58
453.42	27967.06
453.60	28039.62
453.78	28252.61
453.97	28393.04
454.15	27290.65
454.34	27094.04
454.52	26717.22
454.70	26745.30
454.89	27159.58
455.07	26960.63
455.26	28222.18
455.44	28755.82
455.62	29188.82
455.81	28723.05
455.99	29472.03
456.17	28657.52
456.36	29301.17
456.54	29883.96
456.73	29806.72
456.91	29699.06
457.09	29940.13
457.28	31206.36
457.46	29092.86
457.64	28816.68
457.83	28318.14
458.01	28313.46
458.19	29069.45
458.38	29661.61
458.56	30284.19
458.74	29970.56
458.93	29043.71
459.11	28645.82
459.29	28975.83
459.48	29303.51
459.66	28739.44
459.84	29027.32
460.03	29659.27
460.21	30099.29
460.39	30740.60
460.57	30401.22
460.76	30455.05
460.94	30658.68
461.12	30396.54
461.31	30806.13
461.49	31297.64
461.67	30955.93
461.85	31683.83
462.04	31419.35
462.22	31019.12
462.40	31009.76
462.59	30759.32
462.77	30998.06
462.95	31639.36
463.13	31194.66
463.32	30199.93
463.50	30274.83
463.68	30384.83
463.86	30817.83
464.05	30024.39
464.23	29216.91
464.41	29034.35
464.59	29055.41
464.78	30649.32
464.96	29713.10
465.14	29228.61
465.32	30916.14
465.50	31786.82
465.69	32608.34
465.87	31281.26
466.05	30122.69
466.23	28865.83
466.41	28465.60
466.60	28952.43
466.78	28671.56
466.96	29305.85
467.14	29755.23
467.32	29923.75
467.51	30443.35
467.69	28685.61
467.87	29771.61
468.05	30522.93
468.23	30780.39
468.41	30436.33
468.60	30780.39
468.78	31117.42
468.96	30937.20
469.14	31215.72
469.32	31271.90
469.50	29699.06
469.69	29816.08
469.87	29369.04
470.05	29053.07
470.23	29357.34
470.41	29804.38
470.59	29689.70
470.77	29509.47
470.95	30684.42
471.14	31007.42
471.32	31182.96
471.50	33081.13
471.68	32889.21
471.86	33345.61
472.04	33146.67
472.22	33242.63
472.40	31321.05
472.58	31632.34
472.77	31681.49
472.95	31789.16
473.13	33106.88
473.31	31676.81
473.49	32519.40
473.67	32713.67
473.85	33511.79
474.03	34274.80
474.21	34616.52
474.39	34412.90
474.57	34146.08
474.75	34857.60
474.93	34132.03
475.12	33628.82
475.30	33153.69
475.48	33053.05
475.66	33837.12
475.84	33401.79
476.02	33558.60
476.20	32730.05
476.38	33287.10
476.56	34359.06
476.74	34904.41
476.92	35735.30
477.10	35253.15
477.28	36329.80
477.46	36938.33
477.64	37411.12
477.82	37137.28
478.00	36910.25
478.18	36308.73
478.36	36545.12
478.54	36641.09
478.72	37535.17
478.90	38553.30
479.08	40114.44
479.26	39463.77
479.44	40051.25
479.62	39257.81
479.80	39618.25
479.98	38981.62
480.16	39873.37
480.34	38824.81
480.52	39875.71
480.70	39526.97
480.88	39569.10
481.06	40140.19
481.24	40933.63
481.41	41621.75
481.59	42579.03
481.77	41368.97
481.95	40818.94
482.13	41507.06
482.31	41947.08
482.49	42684.35
482.67	42192.84
482.85	41722.39
483.03	42288.80
483.21	42864.57
483.39	43548.01
483.57	42684.35
483.74	42232.63
483.92	42328.59
484.10	42581.37
484.28	42918.40
484.46	43049.47
484.64	44549.76
484.82	43246.08
485.00	42974.58
485.18	42398.80
485.35	40545.10
485.53	35714.23
485.71	33039.00
485.89	33666.27
486.07	36723.01
486.25	38672.67
486.43	41315.14
486.61	41741.11
486.78	41085.76
486.96	42883.30
487.14	43592.48
487.32	45214.47
487.50	45799.60
487.68	46635.17
487.85	47360.74
488.03	47009.66
488.21	46120.26
488.39	45680.24
488.57	44336.77
488.75	44474.86
488.92	46277.07
489.10	48552.07
489.28	49333.81
489.46	50817.71
489.64	49947.03
489.81	50387.05
489.99	50185.77
490.17	50218.53
490.35	50670.26
490.53	50000.86
490.70	50113.21
490.88	49736.38
491.06	51133.68
491.24	51346.67
491.41	49778.51
491.59	48299.30
491.77	47192.22
491.95	48732.29
492.13	50574.30
492.30	51655.62
492.48	52484.17
492.66	52341.40
492.84	51662.64
493.01	51943.51
493.19	51885.00
493.37	51400.50
493.54	51161.77
493.72	52545.03
493.90	53169.95
494.08	53684.87
494.25	53998.50
494.43	54152.97
494.61	54478.31
494.79	54506.40
494.96	54532.14
495.14	54155.32
495.32	52666.73
495.49	52849.30
495.67	53628.69
495.85	54703.00
496.02	55386.44
496.20	54611.72
496.38	54131.91
496.55	54274.68
496.73	55007.27
496.91	55538.57
497.09	55824.12
497.26	56481.81
497.44	55138.34
497.62	54017.22
497.79	53963.39
497.97	52528.64
498.14	53305.70
498.32	54323.83
498.50	55035.36
498.67	54691.30
498.85	54724.07
499.03	55203.88
499.20	55587.72
499.38	54745.13
499.56	54082.76
499.73	53961.05
499.91	54686.62
500.08	53537.41
500.26	53495.28
500.44	54227.87
500.61	55037.70
500.79	54293.41
500.97	54134.25
501.14	53366.55
501.32	52765.04
501.49	52884.40
501.67	53951.69
501.84	54595.34
502.02	54815.35
502.20	54995.57
502.37	54962.80
502.55	55524.53
502.72	56451.38
502.90	56519.26
503.07	56229.03
503.25	55173.45
503.43	54363.62
503.60	53684.87
503.78	53741.04
503.95	54614.06
504.13	55477.72
504.30	56451.38
504.48	55725.81
504.65	55945.83
504.83	55751.56
505.01	56282.86
505.18	56776.72
505.36	57481.22
505.53	57495.26
505.71	57106.73
505.88	57598.24
506.06	56816.50
506.23	56671.39
506.41	55994.98
506.58	56477.13
506.76	56821.19
506.93	56156.47
507.11	56086.26
507.28	56182.22
507.46	55065.78
507.63	55573.68
507.81	55136.00
507.98	55306.86
508.16	56573.09
508.33	56687.78
508.50	57062.26
508.68	57382.91
508.85	57352.49
509.03	57965.71
509.20	57663.78
509.38	56823.53
509.55	56868.00
509.73	56662.03
509.90	56495.85
510.08	56872.68
510.25	56449.04
510.42	56058.17
510.60	56720.54
510.77	57050.56
510.95	57495.26
511.12	57633.35
511.30	58522.76
511.47	58492.33
511.64	58220.83
511.82	58347.21
511.99	56720.54
512.17	56580.11
512.34	56224.35
512.51	56694.80
512.69	56856.29
512.86	56348.40
513.04	56755.65
513.21	56322.65
513.38	55955.19
513.56	55496.44
513.73	55014.29
513.90	56289.88
514.08	55824.12
514.25	56009.02
514.43	56427.98
514.60	56371.80
514.77	56605.86
514.95	56996.73
515.12	56647.99
515.29	57441.43
515.47	57670.80
515.64	57701.23
515.81	57249.50
515.99	55791.35
516.16	54094.46
516.33	51370.08
516.51	51449.66
516.68	50188.11
516.85	49104.44
517.03	50518.12
517.20	53825.30
517.37	56090.94
517.54	57041.20
517.72	55517.51
517.89	52912.49
518.06	50918.35
518.24	52406.94
518.41	54068.72
518.58	55498.78
518.75	55796.03
518.93	55267.07
519.10	55201.53
519.27	56271.16
519.45	56809.48
519.62	57303.34
519.79	57298.65
519.96	56849.27
520.14	56893.74
520.31	55557.30
520.48	55571.34
520.65	56640.96
520.83	57958.69
521.00	56968.64
521.17	56729.90
521.34	56811.82
521.52	58021.88
521.69	58042.95
521.86	58408.07
522.03	57626.33
522.20	56034.77
522.38	55194.51
522.55	55458.99
522.72	55526.87
522.89	55683.69
523.07	56664.37
523.24	57565.48
523.41	57614.63
523.58	58145.93
523.75	57855.70
523.92	58571.91
524.10	58103.80
524.27	57521.01
524.44	56917.15
524.61	56596.49
524.78	57183.97
524.96	57293.97
525.13	57502.28
525.30	58323.81
525.47	58562.54
525.64	58333.17
525.81	56863.32
525.98	55173.45
526.16	53691.89
526.33	54117.87
526.50	53373.58
526.67	53406.34
526.84	54433.84
527.01	55487.08
527.18	55913.06
527.36	56542.66
527.53	57453.13
527.70	57020.13
527.87	55625.17
528.04	56399.89
528.21	57301.00
528.38	57605.26
528.55	58834.05
528.72	58688.93
528.89	58164.65
529.07	58159.97
529.24	56783.74
529.41	56463.08
529.58	56781.40
529.75	57382.91
529.92	57909.53
530.09	57911.88
530.26	58143.59
530.43	58836.39
530.60	58482.97
530.77	58679.57
530.94	58946.39
531.11	58232.53
531.28	57778.46
531.46	57909.53
531.63	57883.79
531.80	57223.76
531.97	57284.61
532.14	56886.72
532.31	55470.70
532.48	54892.58
532.65	55253.03
532.82	55737.52
532.99	57631.01
533.16	57780.81
533.33	58089.76
533.50	57872.09
533.67	57085.67
533.84	57319.72
534.01	57394.62
534.18	57478.88
534.35	57146.52
534.52	56519.26
534.69	57209.71
534.86	57780.81
535.03	58150.61
535.20	58513.39
535.37	59128.95
535.54	59070.44
535.71	58307.43
535.88	58113.16
536.05	57106.73
536.22	56610.54
536.38	56423.29
536.55	56011.36
536.72	55721.13
536.89	56399.89
537.06	56615.22
537.23	57123.11
537.40	56594.15
537.57	56694.80
537.74	56708.84
537.91	56837.57
538.08	56788.42
538.25	57286.95
538.42	57797.19
538.59	57415.68
538.75	56509.89
538.92	55709.43
539.09	55999.66
539.26	56123.71
539.43	56095.62
539.60	55454.31
539.77	56362.44
539.94	56184.56
540.11	55594.74
540.28	55126.64
540.44	55330.26
540.61	54836.41
540.78	55248.35
540.95	55948.17
541.12	56179.88
541.29	56760.33
541.46	56472.45
541.62	56711.18
541.79	55838.16
541.96	55538.57
542.13	56126.05
542.30	56191.58
542.47	56336.69
542.63	56177.54
542.80	56065.19
542.97	54887.90
543.14	55592.40
543.31	56303.93
543.48	57083.33
543.64	57125.46
543.81	57701.23
543.98	57647.39
544.15	56708.84
544.32	56837.57
544.48	56750.97
544.65	55894.33
544.82	56835.23
544.99	55688.37
545.16	55421.55
545.32	55791.35
545.49	56655.01
545.66	56790.76
545.83	56378.82
546.00	56865.66
546.16	55873.27
546.33	55580.70
546.50	55910.72
546.67	56779.06
546.83	56334.35
547.00	56449.04
547.17	54983.86
547.34	54433.84
547.50	54328.52
547.67	55103.23
547.84	55976.25
548.00	56666.71
548.17	56200.94
548.34	56449.04
548.51	56633.94
548.67	56282.86
548.84	56243.07
549.01	56535.64
549.18	55973.91
549.34	55985.61
549.51	56449.04
549.68	57162.90
549.84	56104.98
550.01	55339.63
550.18	55564.32
550.34	55679.00
550.51	55451.97
550.68	56090.94
550.84	56589.47
551.01	55370.05
551.18	55552.62
551.34	55480.06
551.51	56076.90
551.68	56250.09
551.84	57176.95
552.01	56006.68
552.18	55877.95
552.34	54948.76
552.51	54220.85
552.68	54333.20
552.84	55428.57
553.01	55117.28
553.18	54990.89
553.34	55334.95
553.51	55557.30
553.67	55636.87
553.84	56030.08
554.01	56170.52
554.17	55721.13
554.34	55620.49
554.51	55503.46
554.67	55002.59
554.84	55255.37
555.00	54768.54
555.17	54958.12
555.33	54731.09
555.50	54150.63
555.67	54948.76
555.83	54789.60
556.00	54120.21
556.16	54176.38
556.33	54258.30
556.50	54801.30
556.66	54260.64
556.83	53867.43
556.99	53497.62
557.16	54092.12
557.32	53993.82
557.49	54864.50
557.65	54515.76
557.82	55386.44
557.98	54773.22
558.15	53876.79
558.32	53429.75
558.48	52706.52
558.65	52341.40
558.81	52912.49
558.98	53745.72
559.14	53448.47
559.31	53911.90
559.47	53558.48
559.64	53364.21
559.80	52505.24
559.97	53275.27
560.13	54026.59
560.30	54932.37
560.46	55128.98
560.63	55564.32
560.79	55531.55
560.96	54485.33
561.12	53682.53
561.29	53518.69
561.45	53951.69
561.61	54658.53
561.78	53521.03
561.94	53659.12
562.11	53539.75
562.27	52868.02
562.44	54253.62
562.60	54394.05
562.77	54356.60
562.93	53963.39
563.10	54183.40
563.26	53783.17
563.42	53911.90
563.59	53925.94
563.75	53457.84
563.92	53291.66
564.08	53464.86
564.24	54199.79
564.41	53137.18
564.57	54457.24
564.74	53666.14
564.90	53134.84
565.07	52542.69
565.23	51941.17
565.39	51274.12
565.56	51461.36
565.72	52746.31
565.88	51559.66
566.05	53607.63
566.21	52851.64
566.38	52856.32
566.54	53883.81
566.70	54391.71
566.87	53829.98
567.03	53794.87
567.19	54934.71
567.36	54742.79
567.52	53027.18
567.68	52643.33
567.85	51863.93
568.01	52594.18
568.17	52133.09
568.34	52603.54
568.50	51931.81
568.66	51578.39
568.83	51585.41
568.99	51295.18
569.15	51714.14
569.32	51147.73
569.48	51639.24
569.64	51459.02
569.81	51728.18
569.97	51384.12
570.13	50337.90
570.30	49411.05
570.46	49324.45
570.62	48898.47
570.78	49769.15
570.95	49790.22
571.11	50412.80
571.27	50094.49
571.43	50763.88
571.60	51016.66
571.76	51470.72
571.92	51419.23
572.09	51723.50
572.25	51236.67
572.41	51194.54
572.57	51444.98
572.74	52287.57
572.90	52727.59
573.06	52816.53
573.22	52317.99
573.38	52624.60
573.55	53347.83
573.71	52182.24
573.87	51751.59
574.03	51480.08
574.20	50850.48
574.36	50614.08
574.52	50745.15
574.68	50279.39
574.84	49389.98
575.01	49481.27
575.17	49415.73
575.33	50148.32
575.49	50246.62
575.65	48783.79
575.82	49741.06
575.98	50602.38
576.14	51117.30
576.30	51503.49
576.46	50417.48
576.62	49736.38
576.79	50031.29
576.95	50586.00
577.11	51047.08
577.27	50047.68
577.43	50326.20
577.59	49979.80
577.75	49455.52
577.92	49160.61
578.08	48912.52
578.24	49195.72
578.40	49064.65
578.56	48179.93
578.72	48189.29
578.88	48722.93
579.04	49160.61
579.21	48884.43
579.37	48973.37
579.53	49247.21
579.69	48786.13
579.85	48514.62
580.01	48987.41
580.17	48444.41
580.33	49324.45
580.49	50092.15
580.65	49036.56
580.82	49509.35
580.98	49446.16
581.14	49226.15
581.30	48849.32
581.46	48367.17
581.62	49202.74
581.78	50033.63
581.94	50625.79
582.10	49780.85
582.26	49944.69
582.42	50087.46
582.58	48952.30
582.74	48629.31
582.90	48907.83
583.06	49979.80
583.22	49162.95
583.38	49420.41
583.54	49752.77
583.70	49710.64
583.86	49642.76
584.02	48325.04
584.18	48531.01
584.34	48542.71
584.50	48268.87
584.66	48566.12
584.82	48149.50
584.98	48254.82
585.14	47117.32
585.30	47576.07
