SpectraSuite Data File
++++++++++++++++++++++++++++++++++++
Date: Mon Oct 07 14:53:11 GMT-05:00 2013
User: price-jones
Dark Spectrum Present: No
Reference Spectrum Present: No
Number of Sampled Component Spectra: 1
Spectrometers: USB2+H05261
Integration Time (usec): 100000 (USB2+H05261)
Spectra Averaged: 1 (USB2+H05261)
Boxcar Smoothing: 0 (USB2+H05261)
Correct for Electrical Dark: No (USB2+H05261)
Strobe/Lamp Enabled: No (USB2+H05261)
Correct for Detector Non-linearity: No (USB2+H05261)
Correct for Stray Light: No (USB2+H05261)
Number of Pixels in Processed Spectrum: 2048
>>>>>Begin Processed Spectral Data<<<<<
365.73	0.00
365.92	0.00
366.12	0.00
366.32	0.00
366.52	0.00
366.72	0.00
366.91	0.00
367.11	0.00
367.31	0.00
367.51	0.00
367.70	0.00
367.90	0.00
368.10	0.00
368.30	0.00
368.49	0.00
368.69	0.00
368.89	0.00
369.09	0.00
369.28	0.00
369.48	0.00
369.68	0.00
369.87	0.00
370.07	0.00
370.27	0.00
370.47	1132.82
370.66	5022.79
370.86	5928.58
371.06	6211.78
371.25	6331.15
371.45	5605.58
371.65	5107.05
371.84	5078.96
372.04	5053.22
372.24	5738.99
372.44	5921.56
372.63	5738.99
372.83	5411.32
373.03	4807.46
373.22	4418.93
373.42	4587.45
373.62	5444.09
373.81	5605.58
374.01	5680.48
374.21	5123.43
374.40	4737.24
374.60	5100.03
374.79	5914.53
374.99	6502.01
375.19	7042.67
375.38	6825.00
375.58	6586.27
375.78	6546.48
375.97	6710.32
376.17	6832.02
376.37	6825.00
376.56	7070.76
376.76	7496.74
376.95	7868.88
377.15	8578.06
377.35	8645.94
377.54	8954.89
377.74	9296.61
377.93	9338.74
378.13	8938.51
378.33	8365.07
378.52	7831.43
378.72	7784.62
378.91	7442.90
379.11	7351.62
379.31	6839.05
379.50	7157.36
379.70	7616.10
379.89	8236.35
380.09	8800.41
380.28	9081.28
380.48	9071.92
380.68	8985.32
380.87	8835.52
381.07	7847.82
381.26	7330.56
381.46	6935.01
381.65	6764.15
381.85	6455.20
382.04	6164.97
382.24	5856.02
382.43	5467.49
382.63	5423.02
382.83	5423.02
383.02	5406.64
383.22	5493.24
383.41	5621.97
383.61	5849.00
383.80	6881.18
384.00	7723.77
384.19	8526.57
384.39	8966.59
384.58	8891.70
384.78	8669.34
384.97	8601.47
385.17	8105.28
385.36	7805.69
385.56	7513.12
385.75	7918.03
385.95	8404.86
386.14	9116.39
386.34	8980.64
386.53	8765.31
386.72	8124.00
386.92	8269.11
387.11	8479.76
387.31	9046.17
387.50	8910.42
387.70	8702.11
387.89	8507.85
388.09	8461.04
388.28	8688.07
388.48	8812.12
388.67	9584.49
388.86	10354.53
389.06	10923.28
389.25	11454.58
389.45	11625.44
389.64	11644.17
389.84	11763.53
390.03	11461.60
390.22	11389.05
390.42	11861.84
390.61	12795.71
390.81	13563.40
391.00	13668.73
391.19	13270.84
391.39	13050.83
391.58	12201.21
391.78	11466.28
391.97	11059.03
392.16	10471.56
392.36	9083.62
392.55	7227.57
392.75	5830.27
392.94	5001.72
393.13	5116.41
393.33	6029.22
393.52	7864.20
393.71	9535.34
393.91	10394.32
394.10	11122.23
394.29	12496.12
394.49	13490.85
394.68	14410.68
394.88	14281.95
395.07	14616.65
395.26	14356.85
395.46	13846.61
395.65	12996.99
395.84	11218.19
396.04	9483.85
396.23	7899.31
396.42	6604.99
396.62	6633.08
396.81	7609.08
397.00	10029.20
397.19	12140.36
397.39	14331.10
397.58	16170.76
397.77	17006.33
397.97	17654.66
398.16	17853.61
398.35	18314.69
398.55	18960.68
398.74	19541.13
398.93	20306.49
399.12	19660.50
399.32	19122.18
399.51	19763.48
399.70	21034.39
399.90	20496.07
400.09	20393.09
400.28	20493.73
400.47	20409.47
400.67	21930.82
400.86	22040.82
401.05	22132.11
401.24	21774.00
401.44	22499.57
401.63	22429.35
401.82	22824.90
402.01	22408.29
402.21	22937.25
402.40	23012.15
402.59	22525.32
402.78	21408.88
402.97	20898.64
403.17	21790.39
403.36	23159.60
403.55	23761.12
403.74	24105.18
403.93	22562.76
404.13	21231.00
404.32	21231.00
404.51	21811.45
404.70	23564.51
404.89	23337.48
405.09	22977.04
405.28	22506.59
405.47	22078.27
405.66	22511.27
405.85	21558.67
406.05	21434.63
406.24	21326.96
406.43	22593.19
406.62	23068.32
406.81	23590.26
407.00	22284.24
407.20	21940.18
407.39	22349.78
407.58	23487.28
407.77	24065.39
407.96	24755.85
408.15	24966.49
408.34	25055.43
408.54	26590.83
408.73	26443.37
408.92	25949.52
409.11	25195.87
409.30	23810.27
409.49	22562.76
409.68	20905.66
409.87	20706.72
410.07	22373.18
410.26	23468.55
410.45	25043.73
410.64	25572.69
410.83	26483.16
411.02	26953.61
411.21	28041.96
411.40	27171.28
411.59	27768.12
411.78	27852.38
411.98	27234.47
412.17	27325.75
412.36	26946.59
412.55	26539.33
412.74	26335.71
412.93	25872.28
413.12	26888.07
413.31	29221.59
413.50	29053.07
413.69	29579.69
413.88	27840.67
414.07	27608.96
414.26	28446.87
414.45	28985.19
414.64	29050.73
414.83	29029.66
415.02	28591.98
415.22	28039.62
415.41	29322.23
415.60	29996.31
415.79	31241.47
415.98	31683.83
416.17	31735.32
416.36	31168.91
416.55	30108.65
416.74	29687.36
416.93	28374.31
417.12	29008.60
417.31	29315.21
417.50	29504.79
417.69	30401.22
417.88	30398.88
418.07	29907.37
418.26	29406.49
418.45	30267.81
418.64	31105.72
418.83	32397.70
419.02	31627.66
419.21	31512.97
419.39	29738.85
419.58	28856.46
419.77	29193.50
419.96	30185.89
420.15	31779.79
420.34	32212.79
420.53	33394.76
420.72	34117.99
420.91	34000.96
421.10	33376.04
421.29	33055.39
421.48	31948.31
421.67	33514.13
421.86	32512.38
422.05	29916.73
422.24	27185.32
422.43	27866.42
422.61	30609.53
422.80	32610.68
422.99	32739.41
423.18	31101.04
423.37	30881.03
423.56	30960.61
423.75	31777.45
423.94	32189.39
424.13	30551.01
424.32	30572.08
424.50	30672.72
424.69	30497.18
424.88	30380.15
425.07	30218.66
425.26	30176.53
425.45	30134.40
425.64	29525.86
425.83	29928.43
426.01	31342.11
426.20	31889.80
426.39	31929.59
426.58	28821.36
426.77	27084.68
426.96	26171.87
427.15	27693.22
427.33	29731.83
427.52	30740.60
427.71	30572.08
427.90	30085.25
428.09	29626.50
428.28	29352.66
428.46	28547.51
428.65	27847.69
428.84	28898.59
429.03	29242.65
429.22	27236.81
429.40	26111.02
429.59	23875.80
429.78	21048.44
429.97	21525.91
430.16	21291.85
430.34	21462.71
430.53	21495.48
430.72	22490.21
430.91	24697.33
431.10	29378.40
431.28	33869.89
431.47	36058.29
431.66	36098.08
431.85	32936.02
432.03	30333.34
432.22	29621.82
432.41	30897.41
432.60	34359.06
432.79	35304.64
432.97	35662.74
433.16	35016.75
433.35	31934.27
433.54	28947.75
433.72	27489.59
433.91	28559.22
434.10	31786.82
434.28	34092.24
434.47	35644.02
434.66	34607.16
434.85	33495.41
435.03	33970.54
435.22	34817.81
435.41	36034.89
435.59	36683.22
435.78	36950.04
435.97	38057.11
436.16	38218.61
436.34	37446.23
436.53	36704.28
436.72	36830.67
436.90	34883.34
437.09	35086.97
437.28	34471.41
437.46	35873.39
437.65	35047.18
437.84	33174.75
438.02	30309.94
438.21	30810.81
438.40	32556.85
438.58	34780.36
438.77	35456.78
438.96	36184.68
439.14	37329.20
439.33	38171.80
439.52	38646.93
439.70	37560.92
439.89	36706.62
440.08	35938.93
440.26	36294.69
440.45	37546.87
440.63	39384.19
440.82	41668.56
441.01	41420.46
441.19	41006.19
441.38	41340.88
441.57	42492.43
441.75	42843.51
441.94	43725.89
442.12	43210.97
442.31	43679.08
442.50	43119.69
442.68	42815.42
442.87	43096.28
443.05	42445.62
443.24	42775.63
443.43	43758.66
443.61	44577.84
443.80	44795.51
443.98	42485.40
444.17	42375.40
444.35	44783.81
444.54	44942.97
444.73	45027.23
444.91	42820.10
445.10	41277.69
445.28	39770.38
445.47	39566.76
445.65	40191.68
445.84	40575.53
446.02	41734.09
446.21	43147.78
446.39	42281.78
446.58	43281.19
446.77	44074.63
446.95	44641.04
447.14	45287.03
447.32	45844.07
447.51	45010.84
447.69	43136.07
447.88	43564.39
448.06	44142.50
448.25	44844.66
448.43	45006.16
448.62	44046.54
448.80	43931.86
448.99	44594.23
449.17	44788.49
449.36	44498.26
449.54	45853.44
449.73	46415.16
449.91	47082.22
450.10	48229.08
450.28	48589.52
450.46	48158.86
450.65	47938.85
450.83	47885.02
451.02	46845.82
451.20	46747.52
451.39	47002.64
451.57	46766.24
451.76	46916.04
451.94	46312.18
452.13	45846.41
452.31	44039.52
452.49	41867.50
452.68	42447.96
452.86	42848.19
453.05	43217.99
453.23	44603.59
453.42	45076.38
453.60	45670.87
453.78	46511.13
453.97	46354.31
454.15	46291.12
454.34	45483.63
454.52	45750.45
454.70	44402.30
454.89	45074.04
455.07	45628.74
455.26	45979.82
455.44	47973.96
455.62	48205.67
455.81	48275.89
455.99	48055.88
456.17	47344.36
456.36	47840.55
456.54	48870.39
456.73	48547.39
456.91	49095.08
457.09	49525.74
457.28	50024.27
457.46	48444.41
457.64	47924.81
457.83	47100.94
458.01	46464.32
458.19	47487.13
458.38	47594.79
458.56	48657.40
458.74	48631.65
458.93	48177.59
459.11	48222.06
459.29	47613.52
459.48	47320.95
459.66	47360.74
459.84	47711.82
460.03	48186.95
460.21	48245.46
460.39	49279.98
460.57	49436.80
460.76	50035.97
460.94	49968.10
461.12	49228.49
461.31	49525.74
461.49	49563.18
461.67	49516.37
461.85	50658.56
462.04	50604.72
462.22	50600.04
462.40	50309.82
462.59	50571.96
462.77	50314.50
462.95	50300.45
463.13	49977.46
463.32	49340.83
463.50	49066.99
463.68	49415.73
463.86	49846.39
464.05	49113.80
464.23	48093.33
464.41	48055.88
464.59	47143.07
464.78	49485.95
464.96	49081.03
465.14	48739.32
465.32	49649.78
465.50	50475.99
465.69	50745.15
465.87	49869.79
466.05	48477.18
466.23	47262.44
466.41	46192.81
466.60	47882.68
466.78	47526.92
466.96	48685.48
467.14	49181.68
467.32	49436.80
467.51	49270.62
467.69	47721.18
467.87	48243.12
468.05	48914.86
468.23	48978.05
468.41	49469.56
468.60	49013.16
468.78	49434.45
468.96	49305.73
469.14	49869.79
469.32	49654.47
469.50	48411.64
469.69	48105.03
469.87	48058.22
470.05	47988.00
470.23	47936.51
470.41	48013.75
470.59	48910.17
470.77	48779.10
470.95	49551.48
471.14	49865.11
471.32	50026.61
471.50	51597.11
471.68	51826.48
471.86	52149.48
472.04	52048.83
472.22	52200.97
472.40	50162.36
472.58	50433.86
472.77	50136.62
472.95	51068.15
473.13	51824.14
473.31	50803.67
473.49	50876.22
473.67	51861.59
473.85	51941.17
474.03	52739.29
474.21	52669.08
474.39	52980.37
474.57	52961.64
474.75	53324.43
474.93	52846.96
475.12	51812.44
475.30	52488.85
475.48	52442.04
475.66	52655.03
475.84	52388.21
476.02	52191.61
476.20	51522.21
476.38	52002.02
476.56	53235.48
476.74	53862.75
476.92	53815.94
477.10	54237.23
477.28	54993.23
477.46	55121.96
477.64	55173.45
477.82	55330.26
478.00	55767.94
478.18	55084.51
478.36	55047.06
478.54	54958.12
478.72	55253.03
478.90	56030.08
479.08	56699.48
479.26	57041.20
479.44	56797.78
479.62	56732.25
479.80	56788.42
479.98	56849.27
480.16	57050.56
480.34	56514.58
480.52	56816.50
480.70	57069.28
480.88	57111.41
481.06	57579.52
481.24	57881.45
481.41	58457.22
481.59	58951.07
481.77	58726.38
481.95	58110.82
482.13	58082.73
482.31	58269.98
482.49	58707.66
482.67	58623.40
482.85	58724.04
483.03	59044.69
483.21	59407.48
483.39	59353.65
483.57	58724.04
483.74	58869.15
483.92	58955.75
484.10	59288.11
484.28	59711.75
484.46	59901.33
484.64	60130.70
484.82	59554.93
485.00	59147.68
485.18	58522.76
485.35	57659.10
485.53	55641.56
485.71	53069.31
485.89	52989.73
486.07	54721.72
486.25	56811.82
486.43	58211.46
486.61	58539.14
486.78	58621.06
486.96	58937.03
487.14	59957.50
487.32	60371.78
487.50	61022.45
487.68	61443.74
487.85	61813.55
488.03	61853.34
488.21	61546.73
488.39	61041.17
488.57	60505.19
488.75	60537.96
488.92	61265.86
489.10	62925.30
489.28	63693.00
489.46	64111.95
489.64	63702.36
489.81	64025.35
489.99	63707.04
490.17	63891.94
490.35	64219.62
490.53	63814.71
490.70	63557.25
490.88	63622.78
491.06	64320.26
491.24	64371.75
491.41	63316.17
491.59	62391.66
491.77	62035.90
491.95	62719.34
492.13	63540.86
492.30	64385.80
492.48	65027.10
492.66	65272.86
492.84	65286.90
493.01	65080.94
493.19	64378.78
493.37	64360.05
493.54	64341.33
493.72	64928.80
493.90	65535.00
494.08	65535.00
494.25	65535.00
494.43	65535.00
494.61	65535.00
494.79	65535.00
494.96	65535.00
495.14	65535.00
495.32	65478.83
495.49	65298.61
495.67	65535.00
495.85	65535.00
496.02	65535.00
496.20	65535.00
496.38	65535.00
496.55	65535.00
496.73	65535.00
496.91	65535.00
497.09	65535.00
497.26	65535.00
497.44	65535.00
497.62	65535.00
497.79	65535.00
497.97	65535.00
498.14	65535.00
498.32	65535.00
498.50	65535.00
498.67	65535.00
498.85	65535.00
499.03	65535.00
499.20	65535.00
499.38	65535.00
499.56	65535.00
499.73	65535.00
499.91	65535.00
500.08	65535.00
500.26	65535.00
500.44	65535.00
500.61	65535.00
500.79	65535.00
500.97	65535.00
501.14	65535.00
501.32	65535.00
501.49	65535.00
501.67	65535.00
501.84	65535.00
502.02	65535.00
502.20	65535.00
502.37	65535.00
502.55	65535.00
502.72	65535.00
502.90	65535.00
503.07	65535.00
503.25	65535.00
503.43	65535.00
503.60	65535.00
503.78	65535.00
503.95	65535.00
504.13	65535.00
504.30	65535.00
504.48	65535.00
504.65	65535.00
504.83	65535.00
505.01	65535.00
505.18	65535.00
505.36	65535.00
505.53	65535.00
505.71	65535.00
505.88	65535.00
506.06	65535.00
506.23	65535.00
506.41	65535.00
506.58	65535.00
506.76	65535.00
506.93	65535.00
507.11	65535.00
507.28	65535.00
507.46	65535.00
507.63	65535.00
507.81	65535.00
507.98	65535.00
508.16	65535.00
508.33	65535.00
508.50	65535.00
508.68	65535.00
508.85	65535.00
509.03	65535.00
509.20	65535.00
509.38	65535.00
509.55	65535.00
509.73	65535.00
509.90	65535.00
510.08	65535.00
510.25	65535.00
510.42	65535.00
510.60	65535.00
510.77	65535.00
510.95	65535.00
511.12	65535.00
511.30	65535.00
511.47	65535.00
511.64	65535.00
511.82	65535.00
511.99	65535.00
512.17	65535.00
512.34	65535.00
512.51	65535.00
512.69	65535.00
512.86	65535.00
513.04	65535.00
513.21	65535.00
513.38	65535.00
513.56	65535.00
513.73	65535.00
513.90	65535.00
514.08	65535.00
514.25	65535.00
514.43	65535.00
514.60	65535.00
514.77	65535.00
514.95	65535.00
515.12	65535.00
515.29	65535.00
515.47	65535.00
515.64	65535.00
515.81	65535.00
515.99	65535.00
516.16	65535.00
516.33	65535.00
516.51	64793.05
516.68	63487.03
516.85	63182.76
517.03	63971.52
517.20	65535.00
517.37	65535.00
517.54	65535.00
517.72	65535.00
517.89	65535.00
518.06	65535.00
518.24	64954.55
518.41	65535.00
518.58	65535.00
518.75	65535.00
518.93	65535.00
519.10	65535.00
519.27	65535.00
519.45	65535.00
519.62	65535.00
519.79	65535.00
519.96	65535.00
520.14	65535.00
520.31	65535.00
520.48	65535.00
520.65	65535.00
520.83	65535.00
521.00	65535.00
521.17	65535.00
521.34	65535.00
521.52	65535.00
521.69	65535.00
521.86	65535.00
522.03	65535.00
522.20	65535.00
522.38	65535.00
522.55	65535.00
522.72	65535.00
522.89	65535.00
523.07	65535.00
523.24	65535.00
523.41	65535.00
523.58	65535.00
523.75	65535.00
523.92	65535.00
524.10	65535.00
524.27	65535.00
524.44	65535.00
524.61	65535.00
524.78	65535.00
524.96	65535.00
525.13	65535.00
525.30	65535.00
525.47	65535.00
525.64	65535.00
525.81	65535.00
525.98	65535.00
526.16	65535.00
526.33	65535.00
526.50	65535.00
526.67	65535.00
526.84	65535.00
527.01	65535.00
527.18	65535.00
527.36	65535.00
527.53	65535.00
527.70	65535.00
527.87	65535.00
528.04	65535.00
528.21	65535.00
528.38	65535.00
528.55	65535.00
528.72	65535.00
528.89	65535.00
529.07	65535.00
529.24	65535.00
529.41	65535.00
529.58	65535.00
529.75	65535.00
529.92	65535.00
530.09	65535.00
530.26	65535.00
530.43	65535.00
530.60	65535.00
530.77	65535.00
530.94	65535.00
531.11	65535.00
531.28	65535.00
531.46	65535.00
531.63	65535.00
531.80	65535.00
531.97	65535.00
532.14	65535.00
532.31	65535.00
532.48	65535.00
532.65	65535.00
532.82	65535.00
532.99	65535.00
533.16	65535.00
533.33	65535.00
533.50	65535.00
533.67	65535.00
533.84	65535.00
534.01	65535.00
534.18	65535.00
534.35	65535.00
534.52	65535.00
534.69	65535.00
534.86	65535.00
535.03	65535.00
535.20	65535.00
535.37	65535.00
535.54	65535.00
535.71	65535.00
535.88	65535.00
536.05	65535.00
536.22	65535.00
536.38	65535.00
536.55	65535.00
536.72	65535.00
536.89	65535.00
537.06	65535.00
537.23	65535.00
537.40	65535.00
537.57	65535.00
537.74	65535.00
537.91	65535.00
538.08	65535.00
538.25	65535.00
538.42	65535.00
538.59	65535.00
538.75	65535.00
538.92	65535.00
539.09	65535.00
539.26	65535.00
539.43	65535.00
539.60	65535.00
539.77	65535.00
539.94	65535.00
540.11	65535.00
540.28	65535.00
540.44	65535.00
540.61	65535.00
540.78	65535.00
540.95	65535.00
541.12	65535.00
541.29	65535.00
541.46	65535.00
541.62	65535.00
541.79	65535.00
541.96	65535.00
542.13	65535.00
542.30	65535.00
542.47	65535.00
542.63	65535.00
542.80	65535.00
542.97	65535.00
543.14	65535.00
543.31	65535.00
543.48	65535.00
543.64	65535.00
543.81	65535.00
543.98	65535.00
544.15	65535.00
544.32	65535.00
544.48	65535.00
544.65	65535.00
544.82	65535.00
544.99	65535.00
545.16	65535.00
545.32	65535.00
545.49	65535.00
545.66	65535.00
545.83	65535.00
546.00	65535.00
546.16	65535.00
546.33	65535.00
546.50	65535.00
546.67	65535.00
546.83	65535.00
547.00	65535.00
547.17	65535.00
547.34	65535.00
547.50	65535.00
547.67	65535.00
547.84	65535.00
548.00	65535.00
548.17	65535.00
548.34	65535.00
548.51	65535.00
548.67	65535.00
548.84	65535.00
549.01	65535.00
549.18	65535.00
549.34	65535.00
549.51	65535.00
549.68	65535.00
549.84	65535.00
550.01	65535.00
550.18	65535.00
550.34	65535.00
550.51	65535.00
550.68	65535.00
550.84	65535.00
551.01	65535.00
551.18	65535.00
551.34	65535.00
551.51	65535.00
551.68	65535.00
551.84	65535.00
552.01	65535.00
552.18	65535.00
552.34	65535.00
552.51	65535.00
552.68	65535.00
552.84	65535.00
553.01	65535.00
553.18	65535.00
553.34	65535.00
553.51	65535.00
553.67	65535.00
553.84	65535.00
554.01	65535.00
554.17	65535.00
554.34	65535.00
554.51	65535.00
554.67	65535.00
554.84	65535.00
555.00	65535.00
555.17	65535.00
555.33	65535.00
555.50	65535.00
555.67	65535.00
555.83	65535.00
556.00	65535.00
556.16	65535.00
556.33	65535.00
556.50	65535.00
556.66	65535.00
556.83	65535.00
556.99	65535.00
557.16	65535.00
557.32	65535.00
557.49	65535.00
557.65	65535.00
557.82	65535.00
557.98	65535.00
558.15	65535.00
558.32	65535.00
558.48	65535.00
558.65	65535.00
558.81	65535.00
558.98	65535.00
559.14	65535.00
559.31	65535.00
559.47	65535.00
559.64	65535.00
559.80	65535.00
559.97	65535.00
560.13	65535.00
560.30	65535.00
560.46	65535.00
560.63	65535.00
560.79	65535.00
560.96	65535.00
561.12	65535.00
561.29	65535.00
561.45	65535.00
561.61	65535.00
561.78	65535.00
561.94	65535.00
562.11	65535.00
562.27	65535.00
562.44	65535.00
562.60	65535.00
562.77	65535.00
562.93	65535.00
563.10	65535.00
563.26	65535.00
563.42	65535.00
563.59	65535.00
563.75	65535.00
563.92	65535.00
564.08	65535.00
564.24	65535.00
564.41	65535.00
564.57	65535.00
564.74	65535.00
564.90	65535.00
565.07	65535.00
565.23	65535.00
565.39	65272.86
565.56	65186.26
565.72	64874.97
565.88	65270.52
566.05	65277.54
566.21	65427.34
566.38	65535.00
566.54	65535.00
566.70	65535.00
566.87	65535.00
567.03	65535.00
567.19	65535.00
567.36	65535.00
567.52	65535.00
567.68	65535.00
567.85	65345.42
568.01	65080.94
568.17	64928.80
568.34	65041.15
568.50	65008.38
568.66	64935.82
568.83	65141.79
568.99	64984.97
569.15	65275.20
569.32	65509.25
569.48	65338.40
569.64	65305.63
569.81	64856.24
569.97	64741.56
570.13	64561.34
570.30	64310.90
570.46	64154.08
570.62	63613.42
570.78	63618.10
570.95	63664.91
571.11	64226.64
571.27	64432.61
571.43	64802.41
571.60	65020.08
571.76	65106.68
571.92	65256.48
572.09	65495.21
572.25	65258.82
572.41	65216.69
572.57	65123.07
572.74	65134.77
572.90	64797.73
573.06	64764.96
573.22	64963.91
573.38	65020.08
573.55	64963.91
573.71	65013.06
573.87	65087.96
574.03	64676.02
574.20	64636.23
574.36	64755.60
574.52	64484.10
574.68	64296.86
574.84	63941.10
575.01	63601.72
575.17	63480.01
575.33	63826.41
575.49	64058.12
575.65	64266.43
575.82	63898.97
575.98	63805.34
576.14	63896.62
576.30	63875.56
576.46	64367.07
576.62	64268.77
576.79	64104.93
576.95	64011.31
577.11	63987.91
577.27	64090.89
577.43	63901.31
577.59	63608.74
577.75	63339.58
577.92	62686.57
578.08	62567.20
578.24	62784.87
578.40	62911.26
578.56	63135.95
578.72	63110.20
578.88	63290.43
579.04	63388.73
579.21	63337.24
579.37	63477.67
579.53	63561.93
579.69	63538.52
579.85	63774.92
580.01	63398.09
580.17	63327.87
580.33	63171.06
580.49	63257.66
580.65	63372.34
580.82	63533.84
580.98	63571.29
581.14	63313.83
581.30	63465.97
581.46	63517.46
581.62	63721.08
581.78	63543.20
581.94	63730.45
582.10	63819.39
582.26	63791.30
582.42	63891.94
582.58	64074.51
582.74	63917.69
582.90	63948.12
583.06	63529.16
583.22	63489.37
583.38	63496.39
583.54	63718.74
583.70	63674.27
583.86	63501.07
584.02	63461.29
584.18	63674.27
584.34	63430.86
584.50	63318.51
584.66	63334.90
584.82	62869.13
