SpectraSuite Data File
++++++++++++++++++++++++++++++++++++
Date: Mon Oct 07 14:53:07 GMT-05:00 2013
User: price-jones
Dark Spectrum Present: No
Reference Spectrum Present: No
Number of Sampled Component Spectra: 1
Spectrometers: USB2+H05261
Integration Time (usec): 100000 (USB2+H05261)
Spectra Averaged: 1 (USB2+H05261)
Boxcar Smoothing: 0 (USB2+H05261)
Correct for Electrical Dark: No (USB2+H05261)
Strobe/Lamp Enabled: No (USB2+H05261)
Correct for Detector Non-linearity: No (USB2+H05261)
Correct for Stray Light: No (USB2+H05261)
Number of Pixels in Processed Spectrum: 2048
>>>>>Begin Processed Spectral Data<<<<<
365.73	0.00
365.92	0.00
366.12	0.00
366.32	0.00
366.52	0.00
366.72	0.00
366.91	0.00
367.11	0.00
367.31	0.00
367.51	0.00
367.70	0.00
367.90	0.00
368.10	0.00
368.30	0.00
368.49	0.00
368.69	0.00
368.89	0.00
369.09	0.00
369.28	0.00
369.48	0.00
369.68	0.00
369.87	0.00
370.07	0.00
370.27	0.00
370.47	521.94
370.66	2918.65
370.86	3428.88
371.06	3700.39
371.25	3644.21
371.45	3318.88
371.65	2881.20
371.84	2775.88
372.04	2979.50
372.24	3328.24
372.44	3534.21
372.63	3382.07
372.83	3089.51
373.03	2923.33
373.22	2509.05
373.42	2684.59
373.62	2979.50
373.81	3501.44
374.01	3398.46
374.21	3080.14
374.40	2778.22
374.60	3002.91
374.79	3332.92
374.99	3892.31
375.19	4173.18
375.38	4215.30
375.58	3974.23
375.78	3957.85
375.97	3995.29
376.17	4222.33
376.37	4035.08
376.56	4276.16
376.76	4416.59
376.95	4816.82
377.15	5032.15
377.35	5310.68
377.54	5383.23
377.74	5640.69
377.93	5535.37
378.13	5558.77
378.33	5214.71
378.52	4718.52
378.72	4732.56
378.91	4510.21
379.11	4252.75
379.31	4407.23
379.50	4236.37
379.70	4685.75
379.89	5055.56
380.09	5355.15
380.28	5699.20
380.48	5453.45
380.68	5305.99
380.87	5207.69
381.07	4865.97
381.26	4414.25
381.46	4191.90
381.65	4306.59
381.85	4091.26
382.04	3779.97
382.24	3538.89
382.43	3290.79
382.63	3239.30
382.83	3304.84
383.02	3447.61
383.22	3318.88
383.41	3304.84
383.61	3550.59
383.80	4187.22
384.00	4739.58
384.19	5294.29
384.39	5537.71
384.58	5444.09
384.78	5343.44
384.97	5378.55
385.17	5011.09
385.36	4844.91
385.56	4629.58
385.75	4816.82
385.95	5172.58
386.14	5818.57
386.34	5469.83
386.53	5376.21
386.72	5139.82
386.92	5130.45
387.11	5451.11
387.31	5715.59
387.50	5626.65
387.70	5343.44
387.89	5392.59
388.09	5408.98
388.28	5561.11
388.48	5465.15
388.67	5865.38
388.86	6569.88
389.06	6949.05
389.25	7377.37
389.45	7274.38
389.64	7339.92
389.84	7222.89
390.03	7070.76
390.22	7236.94
390.42	7456.95
390.61	7847.82
390.81	8461.04
391.00	8702.11
391.19	8102.93
391.39	8156.77
391.58	7688.66
391.78	7190.13
391.97	6860.11
392.16	6576.91
392.36	5877.09
392.55	4805.12
392.75	3871.25
392.94	3213.56
393.13	3173.77
393.33	3674.64
393.52	4681.07
393.71	5678.14
393.91	6438.81
394.10	7026.29
394.29	7719.09
394.49	8166.13
394.68	9001.70
394.88	8964.25
395.07	9528.32
395.26	9125.75
395.46	8980.64
395.65	8355.71
395.84	7368.01
396.04	6375.62
396.23	4933.85
396.42	4257.43
396.62	4168.49
396.81	4737.24
397.00	6090.07
397.19	7595.04
397.39	9046.17
397.58	10207.08
397.77	10895.19
397.97	11300.11
398.16	11290.74
398.35	11824.39
398.55	11915.67
398.74	12470.37
398.93	13081.25
399.12	12706.77
399.32	11817.36
399.51	12404.84
399.70	13427.65
399.90	12957.21
400.09	13305.95
400.28	12966.57
400.47	13062.53
400.67	13624.26
400.86	14176.62
401.05	14181.31
401.24	14340.46
401.44	14693.88
401.63	14523.02
401.82	14831.97
402.01	14586.22
402.21	14530.05
402.40	14663.46
402.59	14331.10
402.78	13844.27
402.97	13238.07
403.17	13666.39
403.36	14530.05
403.55	15119.86
403.74	15609.03
403.93	14878.79
404.13	13528.30
404.32	13476.80
404.51	14146.20
404.70	15089.43
404.89	14939.64
405.09	14831.97
405.28	14324.08
405.47	14298.33
405.66	14431.74
405.85	14045.55
406.05	13647.66
406.24	13928.53
406.43	14703.25
406.62	14616.65
406.81	15173.69
407.00	14581.54
407.20	14160.24
407.39	14314.72
407.58	15023.90
407.77	15578.61
407.96	15697.97
408.15	16315.87
408.34	16269.06
408.54	16940.80
408.73	17025.06
408.92	16833.13
409.11	16671.64
409.30	15487.32
409.49	14455.15
409.68	13467.44
409.87	13366.80
410.07	14200.03
410.26	15215.82
410.45	15925.00
410.64	16592.06
410.83	16975.91
411.02	17591.47
411.21	18298.31
411.40	18052.55
411.59	17891.06
411.78	17853.61
411.98	17701.47
412.17	18073.62
412.36	17680.41
412.55	17675.73
412.74	17280.18
412.93	17034.42
413.12	17209.96
413.31	18668.11
413.50	18801.52
413.69	19576.24
413.88	18530.02
414.07	18068.94
414.26	18405.97
414.45	18787.48
414.64	19021.53
414.83	19178.35
415.02	18293.63
415.22	18572.15
415.41	19185.37
415.60	19878.17
415.79	20322.87
415.98	20823.75
416.17	21050.78
416.36	20219.89
416.55	20004.56
416.74	19611.35
416.93	18789.82
417.12	18789.82
417.31	18836.63
417.50	19129.20
417.69	19894.55
417.88	20095.84
418.07	19845.40
418.26	19344.53
418.45	19695.61
418.64	20624.80
418.83	20798.00
419.02	20800.34
419.21	20589.69
419.39	19606.67
419.58	18764.07
419.77	18888.12
419.96	19885.19
420.15	20896.30
420.34	21287.17
420.53	22099.34
420.72	22618.94
420.91	22232.75
421.10	22085.30
421.29	21804.43
421.48	21195.89
421.67	22359.14
421.86	21619.53
422.05	19922.64
422.24	18036.17
422.43	17902.76
422.61	19662.84
422.80	21144.40
422.99	21460.37
423.18	20608.42
423.37	20121.59
423.56	20568.63
423.75	20704.38
423.94	21071.84
424.13	19969.45
424.32	20130.95
424.50	20596.71
424.69	19651.14
424.88	19819.66
425.07	19683.91
425.26	19744.76
425.45	19700.29
425.64	19438.15
425.83	19370.27
426.01	20486.71
426.20	21081.21
426.39	20879.92
426.58	19339.85
426.77	17834.88
426.96	17334.01
427.15	17968.29
427.33	19491.98
427.52	20224.57
427.71	20332.23
427.90	19807.95
428.09	19988.18
428.28	19487.30
428.46	18897.49
428.65	18520.66
428.84	19225.16
429.03	19281.33
429.22	18200.01
429.40	17315.28
429.59	15800.96
429.78	13755.33
429.97	13947.25
430.16	14010.45
430.34	14228.12
430.53	14068.96
430.72	14581.54
430.91	15873.51
431.10	19061.32
431.28	22302.96
431.47	24154.33
431.66	24224.54
431.85	21837.20
432.03	20271.38
432.22	19389.00
432.41	19913.28
432.60	22307.65
432.79	23594.94
432.97	23777.50
433.16	23513.02
433.35	21153.76
433.54	19183.03
433.72	17907.44
433.91	18501.93
434.10	20964.18
434.28	22464.46
434.47	23763.46
434.66	23183.01
434.85	22487.87
435.03	22349.78
435.22	23054.28
435.41	24687.97
435.59	24601.37
435.78	24435.19
435.97	24872.87
436.16	25434.60
436.34	25048.41
436.53	24601.37
436.72	24540.52
436.90	23229.82
437.09	22930.23
437.28	23061.30
437.46	23566.85
437.65	23491.96
437.84	22047.85
438.02	20067.75
438.21	19969.45
438.40	21200.57
438.58	23012.15
438.77	23543.45
438.96	23763.46
439.14	24835.42
439.33	25411.20
439.52	25734.19
439.70	25319.92
439.89	24753.51
440.08	24105.18
440.26	24016.24
440.45	25165.44
440.63	26579.12
440.82	27690.88
441.01	27290.65
441.19	27339.80
441.38	28023.23
441.57	28631.77
441.75	29240.31
441.94	29193.50
442.12	28950.09
442.31	29809.06
442.50	29434.58
442.68	29078.82
442.87	28961.79
443.05	28229.20
443.24	28783.91
443.43	29724.80
443.61	29610.12
443.80	30471.43
443.98	28631.77
444.17	28313.46
444.35	30480.80
444.54	30604.84
444.73	30071.20
444.91	28720.71
445.10	27894.50
445.28	26698.49
445.47	25979.95
445.65	26244.43
445.84	27351.50
446.02	28341.55
446.21	28627.09
446.39	28652.84
446.58	29383.09
446.77	29296.49
446.95	29745.87
447.14	30632.93
447.32	31395.95
447.51	30394.20
447.69	29294.14
447.88	29020.30
448.06	29549.26
448.25	30412.92
448.43	30331.00
448.62	29263.72
448.80	29656.93
448.99	30008.01
449.17	30052.48
449.36	30099.29
449.54	31407.65
449.73	31587.87
449.91	31857.03
450.10	32844.74
450.28	33539.88
450.46	33167.73
450.65	32877.51
450.83	32830.69
451.02	32004.49
451.20	31625.32
451.39	32079.38
451.57	31615.96
451.76	31817.24
451.94	31646.38
452.13	30953.58
452.31	29516.50
452.49	28044.30
452.68	29034.35
452.86	28748.80
453.05	29301.17
453.23	30108.65
453.42	30726.55
453.60	31531.70
453.78	31826.60
453.97	31211.04
454.15	31477.86
454.34	30377.81
454.52	30925.50
454.70	30518.25
454.89	30960.61
455.07	30623.57
455.26	31426.37
455.44	32332.16
455.62	33146.67
455.81	33123.26
455.99	32563.87
456.17	32449.19
456.36	32526.42
456.54	33926.07
456.73	33460.30
456.91	33993.94
457.09	34401.19
457.28	34452.69
457.46	33165.39
457.64	33312.84
457.83	32177.68
458.01	31311.69
458.19	32631.75
458.38	32666.86
458.56	33928.41
458.74	33387.74
458.93	32851.76
459.11	32964.10
459.29	32748.78
459.48	32973.47
459.66	32315.78
459.84	33261.35
460.03	33441.57
460.21	33411.15
460.39	34885.68
460.57	34462.05
460.76	34705.46
460.94	34679.72
461.12	34265.44
461.31	34487.79
461.49	34422.26
461.67	34670.36
461.85	35735.30
462.04	35012.07
462.22	35765.73
462.40	35299.96
462.59	35000.37
462.77	35014.41
462.95	34923.13
463.13	34773.34
463.32	34326.30
463.50	33692.01
463.68	34120.33
463.86	34553.33
464.05	33596.05
464.23	33221.56
464.41	32893.89
464.59	32559.19
464.78	34082.88
464.96	33755.21
465.14	33790.31
465.32	34749.93
465.50	35421.67
465.69	35955.31
465.87	35101.01
466.05	34157.78
466.23	32306.41
466.41	32041.93
466.60	32926.66
466.78	32804.95
466.96	33193.48
467.14	33970.54
467.32	34323.96
467.51	34080.54
467.69	32758.14
467.87	33612.43
468.05	33970.54
468.23	34007.98
468.41	34167.14
468.60	34089.90
468.78	34469.07
468.96	33975.22
469.14	34864.62
469.32	35040.16
469.50	33443.91
469.69	33546.90
469.87	33160.71
470.05	32896.23
470.23	32678.56
470.41	33434.55
470.59	33649.88
470.77	33684.99
470.95	34731.21
471.14	35133.78
471.32	34941.86
471.50	36811.95
471.68	37034.30
471.86	37525.81
472.04	37621.77
472.22	37394.74
472.40	35585.50
472.58	35438.05
472.77	35236.77
472.95	36086.38
473.13	36435.12
473.31	35548.06
473.49	35777.43
473.67	36416.40
473.85	37092.81
474.03	38047.75
474.21	38134.35
474.39	38263.08
474.57	38644.59
474.75	38267.76
474.93	38349.68
475.12	37223.88
475.30	36917.27
475.48	37378.36
475.66	38396.49
475.84	37986.89
476.02	37170.05
476.20	37067.06
476.38	37537.51
476.56	38979.28
476.74	39131.42
476.92	39505.90
477.10	39990.39
477.28	41270.67
477.46	41366.63
477.64	41628.77
477.82	41357.27
478.00	41624.09
478.18	41137.26
478.36	40996.82
478.54	41015.55
478.72	41083.42
478.90	41947.08
479.08	43103.31
479.26	43981.01
479.44	43503.54
479.62	43313.95
479.80	43262.46
479.98	43264.80
480.16	43913.13
480.34	43751.63
480.52	43660.35
480.70	43728.23
480.88	43917.81
481.06	44854.03
481.24	45411.07
481.41	46307.50
481.59	46794.33
481.77	46270.05
481.95	46176.43
482.13	45734.07
482.31	46080.47
482.49	46424.53
482.67	46429.21
482.85	46571.98
483.03	47342.02
483.21	47480.11
483.39	47114.98
483.57	46880.93
483.74	46370.69
483.92	46731.14
484.10	47004.98
484.28	47948.21
484.46	48296.95
484.64	48722.93
484.82	47798.42
485.00	47391.17
485.18	46445.59
485.35	45401.71
485.53	42263.05
485.71	38485.43
485.89	38284.14
486.07	40385.94
486.25	43688.44
486.43	45860.46
486.61	46499.42
486.78	46019.61
486.96	46361.33
487.14	48662.08
487.32	49076.35
487.50	50012.57
487.68	50852.82
487.85	51480.08
488.03	51367.74
488.21	50866.86
488.39	50113.21
488.57	49724.68
488.75	49535.10
488.92	50326.20
489.10	52640.99
489.28	53748.06
489.46	54555.55
489.64	54143.61
489.81	54358.94
489.99	54012.54
490.17	53874.45
490.35	54408.09
490.53	53834.66
490.70	53488.26
490.88	53591.25
491.06	54688.96
491.24	54375.33
491.41	53518.69
491.59	51966.91
491.77	51121.98
491.95	52280.55
492.13	53425.07
492.30	54581.29
492.48	55480.06
492.66	55950.51
492.84	55718.79
493.01	55592.40
493.19	54749.81
493.37	54695.98
493.54	54279.36
493.72	55192.17
493.90	56182.22
494.08	56647.99
494.25	57020.13
494.43	57301.00
494.61	57666.12
494.79	57776.12
494.96	57434.41
495.14	56921.83
495.32	55899.01
495.49	55552.62
495.67	56694.80
495.85	57787.83
496.02	57998.48
496.20	57949.32
496.38	57523.35
496.55	57312.70
496.73	57801.87
496.91	58019.54
497.09	58625.74
497.26	58489.99
497.44	58080.39
497.62	58035.92
497.79	57092.69
497.97	55686.03
498.14	55980.93
498.32	57073.96
498.50	57769.10
498.67	58232.53
498.85	58389.34
499.03	58344.87
499.20	58747.45
499.38	58518.07
499.56	58578.93
499.73	58033.58
499.91	57659.10
500.08	57373.55
500.26	56706.50
500.44	57165.24
500.61	57600.58
500.79	57308.02
500.97	57350.15
501.14	57146.52
501.32	56919.49
501.49	56935.87
501.67	57045.88
501.84	57619.31
502.02	57993.79
502.20	58082.73
502.37	58237.21
502.55	58291.04
502.72	58791.92
502.90	59351.30
503.07	59215.55
503.25	58555.52
503.43	57799.53
503.60	57141.84
503.78	56383.51
503.95	57085.67
504.13	58564.88
504.30	59091.51
504.48	58752.13
504.65	58560.20
504.83	58539.14
505.01	59386.41
505.18	59613.44
505.36	59945.80
505.53	60051.12
505.71	60519.23
505.88	60533.28
506.06	59875.58
506.23	59697.70
506.41	59150.02
506.58	59187.47
506.76	59299.81
506.93	59416.84
507.11	59128.95
507.28	59365.35
507.46	58864.47
507.63	58248.91
507.81	58204.44
507.98	58295.72
508.16	58948.73
508.33	59400.46
508.50	59913.03
508.68	60200.92
508.85	60402.21
509.03	60718.18
509.20	60374.12
509.38	59774.94
509.55	58838.73
509.73	59292.79
509.90	59618.13
510.08	59884.95
510.25	59854.52
510.42	59620.47
510.60	59426.20
510.77	59983.25
510.95	60285.18
511.12	60713.50
511.30	60772.01
511.47	60996.70
511.64	60865.63
511.82	60622.22
511.99	59751.54
512.17	59437.90
512.34	59044.69
512.51	59269.39
512.69	59409.82
512.86	59590.04
513.04	59999.63
513.21	59814.73
513.38	59676.64
513.56	59079.80
513.73	58473.60
513.90	58960.44
514.08	59100.87
514.25	59398.12
514.43	59531.53
514.60	59292.79
514.77	59554.93
514.95	60011.34
515.12	59487.06
515.29	59657.91
515.47	60243.05
515.64	60416.25
515.81	60285.18
515.99	59475.35
516.16	58262.96
516.33	56109.66
516.51	54897.27
516.68	53858.07
516.85	53315.06
517.03	54176.38
517.20	56821.19
517.37	58927.67
517.54	59800.69
517.72	59030.65
517.89	56879.70
518.06	54869.18
518.24	55210.90
518.41	57088.01
518.58	58365.94
518.75	58546.16
518.93	58876.18
519.10	58440.84
519.27	58862.13
519.45	59482.37
519.62	60203.26
519.79	60416.25
519.96	60076.87
520.14	59496.42
520.31	58960.44
520.48	58862.13
520.65	59386.41
520.83	60229.01
521.00	60418.59
521.17	60207.94
521.34	59824.09
521.52	60093.25
521.69	60713.50
521.86	61029.47
522.03	60598.81
522.20	59409.82
522.38	58632.76
522.55	58639.78
522.72	59196.83
522.89	59171.08
523.07	59601.74
523.24	59880.27
523.41	60622.22
523.58	60856.27
523.75	61305.65
523.92	61396.93
524.10	61270.54
524.27	60989.68
524.44	61120.75
524.61	60762.65
524.78	60697.11
524.96	60388.16
525.13	60554.34
525.30	60896.06
525.47	61226.07
525.64	61029.47
525.81	60425.61
525.98	59011.93
526.16	57565.48
526.33	57118.43
526.50	57097.37
526.67	56486.49
526.84	57221.42
527.01	57951.66
527.18	58848.09
527.36	59859.20
527.53	60706.47
527.70	60823.50
527.87	60058.15
528.04	59791.33
528.21	60240.71
528.38	60914.78
528.55	61359.48
528.72	61537.36
528.89	61829.93
529.07	61614.60
529.24	60764.99
529.41	60378.80
529.58	59725.79
529.75	59840.48
529.92	60247.73
530.09	60715.84
530.26	61137.13
530.43	61598.22
530.60	61605.24
530.77	61689.50
530.94	61694.18
531.11	61282.25
531.28	60900.74
531.46	60818.82
531.63	61043.51
531.80	60762.65
531.97	60289.86
532.14	59475.35
532.31	58667.87
532.48	58145.93
532.65	58298.06
532.82	59077.46
532.99	60023.04
533.16	60245.39
533.33	61017.77
533.50	60823.50
533.67	60069.85
533.84	59636.85
534.01	59985.59
534.18	60097.94
534.35	60278.16
534.52	60168.15
534.69	60374.12
534.86	60619.88
535.03	61010.74
535.20	61394.59
535.37	61605.24
535.54	61822.91
535.71	61333.74
535.88	61095.00
536.05	60404.55
536.22	60058.15
536.38	59859.20
536.55	59295.13
536.72	58770.85
536.89	59079.80
537.06	59791.33
537.23	60582.43
537.40	60615.19
537.57	60779.03
537.74	60474.76
537.91	60472.42
538.08	60306.24
538.25	60598.81
538.42	60783.71
538.59	60236.03
538.75	59863.88
538.92	59767.92
539.09	59409.82
539.26	59213.21
539.43	59105.55
539.60	59119.59
539.77	59407.48
539.94	59194.49
540.11	58408.07
540.28	58218.49
540.44	58365.94
540.61	58426.79
540.78	58794.26
540.95	59154.70
541.12	59639.19
541.29	59662.60
541.46	60079.21
541.62	59950.48
541.79	59922.40
541.96	59236.62
542.13	59355.99
542.30	59629.83
542.47	59592.38
542.63	59744.51
542.80	59196.83
542.97	59461.31
543.14	59318.54
543.31	59465.99
543.48	59906.01
543.64	60645.62
543.81	60879.67
543.98	60746.26
544.15	59948.14
544.32	59332.58
544.48	59643.87
544.65	60016.02
544.82	60212.62
544.99	59866.22
545.16	59465.99
545.32	59646.21
545.49	60271.14
545.66	60680.73
545.83	60179.85
546.00	59884.95
546.16	59512.80
546.33	59594.72
546.50	59622.81
546.67	60006.65
546.83	59646.21
547.00	59632.17
547.17	59133.63
547.34	58377.64
547.50	58571.91
547.67	58965.12
547.84	58990.86
548.00	59456.63
548.17	59882.61
548.34	59641.53
548.51	59632.17
548.67	59688.34
548.84	59716.43
549.01	59622.81
549.18	59625.15
549.34	59793.67
549.51	59709.41
549.68	59475.35
549.84	59245.98
550.01	59199.17
550.18	59194.49
550.34	59395.77
550.51	59299.81
550.68	59435.56
550.84	58815.32
551.01	58979.16
551.18	58953.41
551.34	59117.25
551.51	59405.14
551.68	59611.10
551.84	59700.04
552.01	59440.24
552.18	59374.71
552.34	58667.87
552.51	58185.72
552.68	58328.49
552.84	58857.45
553.01	59107.89
553.18	58658.51
553.34	59011.93
553.51	59220.23
553.67	59405.14
553.84	59351.30
554.01	59346.62
554.17	59168.74
554.34	59304.49
554.51	59409.82
554.67	59751.54
554.84	59573.66
555.00	58913.62
555.17	58913.62
555.33	58915.96
555.50	58976.82
555.67	58906.60
555.83	58714.68
556.00	58501.69
556.16	58354.24
556.33	58026.56
556.50	58099.12
556.66	58141.25
556.83	57937.62
556.99	57961.03
557.16	58164.65
557.32	58494.67
557.49	58504.03
557.65	58475.94
557.82	58525.10
557.98	57975.07
558.15	57986.77
558.32	57055.24
558.48	56123.71
558.65	56837.57
558.81	57183.97
558.98	57284.61
559.14	57352.49
559.31	57279.93
559.47	57354.83
559.64	57088.01
559.80	56924.17
559.97	56875.02
560.13	57502.28
560.30	58258.27
560.46	58789.58
560.63	58876.18
560.79	58951.07
560.96	58508.71
561.12	57382.91
561.29	56903.10
561.45	56746.29
561.61	57301.00
561.78	57733.99
561.94	57558.45
562.11	57345.47
562.27	57532.71
562.44	57579.52
562.60	58017.20
562.77	57867.40
562.93	57773.78
563.10	57710.59
563.26	57219.08
563.42	57525.69
563.59	57158.22
563.75	57350.15
563.92	57289.29
564.08	57289.29
564.24	57481.22
564.41	57352.49
564.57	57382.91
564.74	57425.04
564.90	57043.54
565.07	56856.29
565.23	56839.91
565.39	56200.94
565.56	56034.77
565.72	55760.92
565.88	56243.07
566.05	56097.96
566.21	56413.93
566.38	56484.15
566.54	56757.99
566.70	57158.22
566.87	57331.42
567.03	57120.77
567.19	57474.20
567.36	57183.97
567.52	56926.51
567.68	56645.65
567.85	56123.71
568.01	55807.73
568.17	55388.78
568.34	55386.44
568.50	55426.23
568.66	55669.64
568.83	56011.36
568.99	55842.84
569.15	56210.31
569.32	56353.08
569.48	55828.80
569.64	55784.33
569.81	55641.56
569.97	55494.10
570.13	55201.53
570.30	54583.63
570.46	54450.22
570.62	53818.28
570.78	53722.32
570.95	54206.81
571.11	54906.63
571.27	54974.50
571.43	55257.71
571.60	55646.24
571.76	55643.90
571.92	55852.20
572.09	55980.93
572.25	55936.46
572.41	56009.02
572.57	55950.51
572.74	55884.97
572.90	55402.82
573.06	55451.97
573.22	55693.05
573.38	55550.27
573.55	55334.95
573.71	55704.75
573.87	55641.56
574.03	55592.40
574.20	55732.84
574.36	54920.67
574.52	54698.32
574.68	54782.58
574.84	54246.60
575.01	54239.57
575.17	53759.76
575.33	54637.47
575.49	54665.55
575.65	54288.73
575.82	54482.99
575.98	54138.93
576.14	54625.76
576.30	54628.10
576.46	54773.22
576.62	54820.03
576.79	54941.74
576.95	54452.56
577.11	54354.26
577.27	54452.56
577.43	54595.34
577.59	54211.49
577.75	53846.36
577.92	53317.40
578.08	52903.13
578.24	52858.66
578.40	53434.43
578.56	53745.72
578.72	53668.48
578.88	53804.24
579.04	53986.80
579.21	54218.51
579.37	54068.72
579.53	54337.88
579.69	54204.47
579.85	54323.83
580.01	54026.59
580.17	53305.70
580.33	53549.12
580.49	53614.65
580.65	53829.98
580.82	54141.27
580.98	54185.74
581.14	54000.84
581.30	53698.91
581.46	53797.21
581.62	54321.49
581.78	54391.71
581.94	54218.51
582.10	54443.20
582.26	54419.80
582.42	54316.81
582.58	54770.88
582.74	54342.56
582.90	54148.29
583.06	54405.75
583.22	54047.65
583.38	54110.85
583.54	54234.89
583.70	54150.63
583.86	53963.39
584.02	53619.33
584.18	54106.16
584.34	53907.22
584.50	53815.94
584.66	53717.64
584.82	53116.12
584.98	53209.74
585.14	52853.98
585.30	52067.56
