SpectraSuite Data File
++++++++++++++++++++++++++++++++++++
Date: Mon Oct 07 14:55:03 GMT-05:00 2013
User: price-jones
Dark Spectrum Present: No
Reference Spectrum Present: No
Number of Sampled Component Spectra: 1
Spectrometers: USB2+H05261
Integration Time (usec): 10000 (USB2+H05261)
Spectra Averaged: 1 (USB2+H05261)
Boxcar Smoothing: 0 (USB2+H05261)
Correct for Electrical Dark: No (USB2+H05261)
Strobe/Lamp Enabled: No (USB2+H05261)
Correct for Detector Non-linearity: No (USB2+H05261)
Correct for Stray Light: No (USB2+H05261)
Number of Pixels in Processed Spectrum: 2048
>>>>>Begin Processed Spectral Data<<<<<
365.73	0.00
365.92	0.00
366.12	0.00
366.32	0.00
366.52	0.00
366.72	0.00
366.91	0.00
367.11	0.00
367.31	0.00
367.51	0.00
367.70	0.00
367.90	0.00
368.10	0.00
368.30	0.00
368.49	0.00
368.69	0.00
368.89	0.00
369.09	0.00
369.28	0.00
369.48	0.00
369.68	0.00
369.87	0.00
370.07	0.00
370.27	0.00
370.47	409.59
370.66	2759.49
370.86	3248.66
371.06	3384.41
371.25	3241.64
371.45	2967.80
371.65	2672.89
371.84	2583.95
372.04	2768.85
372.24	2862.48
372.44	3199.51
372.63	3239.30
372.83	2799.28
373.03	2583.95
373.22	2413.09
373.42	2654.17
373.62	3035.67
373.81	3061.42
374.01	3103.55
374.21	2703.32
374.40	2551.18
374.60	2794.60
374.79	3190.15
374.99	3756.56
375.19	3836.14
375.38	3868.91
375.58	3529.53
375.78	3672.30
375.97	3613.79
376.17	3630.17
376.37	3754.22
376.56	3815.07
376.76	4201.26
376.95	4568.73
377.15	4657.67
377.35	4915.12
377.54	5071.94
377.74	5350.46
377.93	5172.58
378.13	4966.62
378.33	4805.12
378.52	4339.35
378.72	4320.63
378.91	4227.01
379.11	4102.96
379.31	3941.46
379.50	3819.75
379.70	4224.67
379.89	4891.72
380.09	4999.38
380.28	5177.26
380.48	5118.75
380.68	4945.55
380.87	4781.71
381.07	4477.44
381.26	4053.81
381.46	3939.12
381.65	3751.88
381.85	3726.13
382.04	3496.76
382.24	3288.45
382.43	3229.94
382.63	3194.83
382.83	3007.59
383.02	3108.23
383.22	3082.49
383.41	3159.72
383.61	3393.78
383.80	3812.73
384.00	4489.15
384.19	4945.55
384.39	5125.77
384.58	5008.75
384.78	5071.94
384.97	4837.89
385.17	4631.92
385.36	4404.89
385.56	4372.12
385.75	4608.51
385.95	5011.09
386.14	5467.49
386.34	5252.16
386.53	4936.19
386.72	4674.05
386.92	5015.77
387.11	5179.61
387.31	5195.99
387.50	5329.40
387.70	4980.66
387.89	5060.24
388.09	5322.38
388.28	4997.04
388.48	5219.39
388.67	5771.76
388.86	6223.48
389.06	6551.16
389.25	6881.18
389.45	6806.28
389.64	6640.10
389.84	6703.29
390.03	6682.23
390.22	6885.86
390.42	7250.98
390.61	7552.91
390.81	8046.76
391.00	8009.31
391.19	8060.80
391.39	7686.32
391.58	7197.15
391.78	6881.18
391.97	6656.48
392.16	5961.34
392.36	5408.98
392.55	4140.41
392.75	3442.93
392.94	2848.43
393.13	2897.58
393.33	3850.18
393.52	4575.75
393.71	5694.52
393.91	6363.92
394.10	6876.49
394.29	7604.40
394.49	8156.77
394.68	8500.83
394.88	8571.04
395.07	8966.59
395.26	8718.50
395.46	8685.73
395.65	7829.09
395.84	6796.92
396.04	5551.75
396.23	4383.82
396.42	3859.54
396.62	3908.69
396.81	4929.17
397.00	6307.74
397.19	7588.02
397.39	8823.82
397.58	10029.20
397.77	10794.55
397.97	10927.96
398.16	10991.16
398.35	11356.28
398.55	11918.01
398.74	12194.19
398.93	12332.28
399.12	12294.83
399.32	11810.34
399.51	12084.19
399.70	13034.44
399.90	12594.42
400.09	12655.28
400.28	12308.88
400.47	12624.85
400.67	13406.59
400.86	13809.16
401.05	13788.10
401.24	13652.34
401.44	14050.24
401.63	13961.30
401.82	13980.02
402.01	13991.72
402.21	14347.48
402.40	13898.10
402.59	13462.76
402.78	12863.58
402.97	12800.39
403.17	13617.24
403.36	14485.58
403.55	14588.56
403.74	14707.93
403.93	14008.11
404.13	13015.72
404.32	12821.45
404.51	13909.80
404.70	14707.93
404.89	14679.84
405.09	14373.23
405.28	13750.65
405.47	14207.05
405.66	14113.43
405.85	13547.02
406.05	13458.08
406.24	13554.04
406.43	14120.45
406.62	14544.09
406.81	14656.43
407.00	14312.38
407.20	13834.91
407.39	14012.79
407.58	14998.15
407.77	15204.12
407.96	15756.49
408.15	16025.65
408.34	16109.91
408.54	16767.60
408.73	16755.90
408.92	16535.88
409.11	15761.17
409.30	14991.13
409.49	14127.47
409.68	13132.75
409.87	13327.01
410.07	14169.60
410.26	15026.24
410.45	16067.78
410.64	16505.46
410.83	17149.11
411.02	17472.10
411.21	17771.69
411.40	17619.55
411.59	17743.60
411.78	17837.22
411.98	17436.99
412.17	17563.38
412.36	17558.70
412.55	17675.73
412.74	16924.41
412.93	16786.32
413.12	17212.30
413.31	18963.02
413.50	19056.64
413.69	18661.09
413.88	18239.79
414.07	17853.61
414.26	18286.61
414.45	18726.63
414.64	18593.22
414.83	18242.14
415.02	18382.57
415.22	18398.95
415.41	18923.23
415.60	19782.21
415.79	20336.91
415.98	20526.50
416.17	20472.67
416.36	20123.93
416.55	20266.70
416.74	19168.99
416.93	18789.82
417.12	19108.13
417.31	18831.95
417.50	19386.66
417.69	20159.03
417.88	19889.87
418.07	19721.35
418.26	19426.45
418.45	19683.91
418.64	20620.12
418.83	21446.33
419.02	20828.43
419.21	20109.88
419.39	19309.42
419.58	18848.33
419.77	19309.42
419.96	20201.16
420.15	21125.68
420.34	21846.56
420.53	22169.55
420.72	22192.96
420.91	22099.34
421.10	21783.37
421.29	21706.13
421.48	21380.79
421.67	22382.54
421.86	21282.49
422.05	19534.11
422.24	17886.37
422.43	18757.05
422.61	20446.92
422.80	21610.17
422.99	21422.92
423.18	20847.15
423.37	20526.50
423.56	20849.49
423.75	21186.53
423.94	21289.51
424.13	19988.18
424.32	20208.19
424.50	20042.01
424.69	20247.97
424.88	20236.27
425.07	20393.09
425.26	20423.51
425.45	19618.37
425.64	19468.58
425.83	19761.14
426.01	21010.99
426.20	21474.42
426.39	20950.14
426.58	19573.90
426.77	17811.48
426.96	18033.83
427.15	18551.09
427.33	20240.95
427.52	20458.62
427.71	20882.26
427.90	20617.78
428.09	20159.03
428.28	19829.02
428.46	18757.05
428.65	18855.36
428.84	19389.00
429.03	19723.69
429.22	18277.24
429.40	16992.29
429.59	15552.86
429.78	14005.77
429.97	14300.67
430.16	14476.21
430.34	14267.91
430.53	14462.17
430.72	15253.27
430.91	17020.38
431.10	20397.77
431.28	23229.82
431.47	24570.94
431.66	23887.51
431.85	21731.87
432.03	20306.49
432.22	20252.66
432.41	21649.96
432.60	23110.45
432.79	24254.97
432.97	24121.56
433.16	23152.58
433.35	20704.38
433.54	19051.96
433.72	18581.51
433.91	19861.79
434.10	21792.73
434.28	22799.16
434.47	23899.21
434.66	23075.34
434.85	22635.32
435.03	23379.61
435.22	23660.48
435.41	24826.06
435.59	25282.47
435.78	25443.96
435.97	26340.39
436.16	25881.64
436.34	25544.61
436.53	24896.28
436.72	25584.40
436.90	23992.83
437.09	23824.31
437.28	23957.72
437.46	24456.26
437.65	23501.32
437.84	21745.92
438.02	20669.27
438.21	21111.63
438.40	21806.77
438.58	23564.51
438.77	24671.59
438.96	24648.18
439.14	25968.24
439.33	25949.52
439.52	26242.09
439.70	25734.19
439.89	25020.33
440.08	24666.91
440.26	25043.73
440.45	26345.07
440.63	27887.48
440.82	28411.76
441.01	27625.34
441.19	28105.15
441.38	28954.77
441.57	29844.17
441.75	29682.67
441.94	29755.23
442.12	29326.91
442.31	30616.55
442.50	30349.73
442.68	29457.98
442.87	29738.85
443.05	29188.82
443.24	29907.37
443.43	30646.97
443.61	31133.81
443.80	31234.45
443.98	30305.26
444.17	29851.19
444.35	31178.28
444.54	31672.13
444.73	30953.58
444.91	29879.28
445.10	28638.80
445.28	27889.82
445.47	27566.83
445.65	27276.60
445.84	28238.56
446.02	28779.23
446.21	29600.76
446.39	29654.59
446.58	30328.66
446.77	30946.56
446.95	30941.88
447.14	32400.04
447.32	32854.10
447.51	31728.30
447.69	30464.41
447.88	30424.62
448.06	30939.54
448.25	31332.75
448.43	31070.61
448.62	30412.92
448.80	30735.92
448.99	31016.78
449.17	31246.15
449.36	31639.36
449.54	32512.38
449.73	32973.47
449.91	33249.65
450.10	34455.03
450.28	34595.46
450.46	34731.21
450.65	34588.44
450.83	33666.27
451.02	33996.28
451.20	33404.13
451.39	33919.04
451.57	33457.96
451.76	33443.91
451.94	32465.57
452.13	31580.85
452.31	30153.12
452.49	29205.20
452.68	30160.14
452.86	30099.29
453.05	30293.55
453.23	31426.37
453.42	31971.72
453.60	33198.16
453.78	32886.87
453.97	33053.05
454.15	32247.90
454.34	31082.31
454.52	31330.41
454.70	31175.94
454.89	31515.31
455.07	31562.12
455.26	32694.94
455.44	33551.58
455.62	34096.92
455.81	34471.41
455.99	34342.68
456.17	33647.54
456.36	34618.86
456.54	34904.41
456.73	34520.56
456.91	35054.20
457.09	35866.37
457.28	36645.77
457.46	33984.58
457.64	34253.74
457.83	33472.00
458.01	33233.27
458.19	34361.40
458.38	34841.21
458.56	35241.45
458.74	34724.19
458.93	33759.89
459.11	33848.83
459.29	33654.56
459.48	34314.59
459.66	33811.38
459.84	34429.28
460.03	34101.61
460.21	35440.39
460.39	36353.20
460.57	35489.54
460.76	35835.94
460.94	35648.70
461.12	35824.24
461.31	35992.76
461.49	36608.32
461.67	36259.58
461.85	37471.98
462.04	36669.17
462.22	36725.35
462.40	36727.69
462.59	36383.63
462.77	36430.44
462.95	36584.91
463.13	36252.56
463.32	35599.55
463.50	35285.92
463.68	35531.67
463.86	36011.48
464.05	35056.54
464.23	34485.45
464.41	34450.35
464.59	33874.57
464.78	35522.31
464.96	34775.68
465.14	34623.54
465.32	36203.41
465.50	37450.91
465.69	37893.27
465.87	36617.68
466.05	35463.80
466.23	34457.37
466.41	33118.58
466.60	34267.78
466.78	34457.37
466.96	34438.64
467.14	35463.80
467.32	35398.26
467.51	35529.33
467.69	34019.69
467.87	35442.73
468.05	35917.86
468.23	36041.91
468.41	35924.88
468.60	35988.08
468.78	36301.71
468.96	35875.73
469.14	36353.20
469.32	36664.49
469.50	34478.43
469.69	35302.30
469.87	34370.77
470.05	34258.42
470.23	34494.82
470.41	35033.14
470.59	35447.41
470.77	35285.92
470.95	35704.87
471.14	36643.43
471.32	36863.44
471.50	38747.57
471.68	38990.98
471.86	39138.44
472.04	38703.10
472.22	38768.63
472.40	37144.30
472.58	37235.58
472.77	37244.94
472.95	37977.53
473.13	38927.79
473.31	37687.31
473.49	38029.02
473.67	38607.14
473.85	38925.45
474.03	40280.62
474.21	40793.20
474.39	40671.49
474.57	40467.86
474.75	40753.41
474.93	39728.25
475.12	38658.63
475.30	39704.85
475.48	39196.95
475.66	39828.90
475.84	39297.59
476.02	39234.40
476.20	38866.94
476.38	39697.83
476.56	40966.40
476.74	41235.56
476.92	41488.34
477.10	41509.40
477.28	43089.26
477.46	43283.53
477.64	43938.88
477.82	43538.65
478.00	43653.33
478.18	42897.34
478.36	42845.85
478.54	42630.52
478.72	43571.41
478.90	45059.99
479.08	46038.34
479.26	45673.21
479.44	46852.84
479.62	45808.96
479.80	46115.58
479.98	46017.27
480.16	46452.61
480.34	45500.01
480.52	46522.83
480.70	46146.00
480.88	46092.17
481.06	47023.70
481.24	47274.14
481.41	48624.63
481.59	49123.16
481.77	47693.10
481.95	47660.33
482.13	47899.06
482.31	48559.09
482.49	49364.24
482.67	48556.75
482.85	48828.26
483.03	48996.77
483.21	49736.38
483.39	49546.80
483.57	49195.72
483.74	49003.80
483.92	48727.61
484.10	49223.81
484.28	49605.31
484.46	49579.57
484.64	50901.97
484.82	49993.84
485.00	49446.16
485.18	48865.70
485.35	47093.92
485.53	41787.92
485.71	39054.18
485.89	40217.43
486.07	43178.20
486.25	45642.79
486.43	47988.00
486.61	48615.27
486.78	47650.97
486.96	49074.01
487.14	50206.83
487.32	51215.60
487.50	51887.34
487.68	53120.80
487.85	53083.35
488.03	53214.42
488.21	52102.67
488.39	51889.68
488.57	50232.58
488.75	50754.52
488.92	52112.03
489.10	54045.31
489.28	54710.02
489.46	55789.01
489.64	55426.23
489.81	55723.47
489.99	55580.70
490.17	55847.52
490.35	55941.14
490.53	55489.42
490.70	55173.45
490.88	54983.86
491.06	56229.03
491.24	56477.13
491.41	55360.69
491.59	54042.97
491.77	53483.58
491.95	54518.10
492.13	56062.85
492.30	56172.86
492.48	57453.13
492.66	57296.31
492.84	56947.57
493.01	56697.14
493.19	56268.82
493.37	56032.42
493.54	56264.14
493.72	57317.38
493.90	58047.63
494.08	58166.99
494.25	58532.12
494.43	58967.46
494.61	58986.18
494.79	59121.93
494.96	59292.79
495.14	58831.71
495.32	57198.01
495.49	57612.29
495.67	58827.02
495.85	59320.88
496.02	59910.69
496.20	59077.46
496.38	58911.28
496.55	58974.48
496.73	59468.33
496.91	59948.14
497.09	59838.14
497.26	60837.54
497.44	59700.04
497.62	58946.39
497.79	58506.37
497.97	57647.39
498.14	58384.66
498.32	59295.13
498.50	59409.82
498.67	59426.20
498.85	59290.45
499.03	59875.58
499.20	59971.55
499.38	59398.12
499.56	58901.92
499.73	58869.15
499.91	59054.06
500.08	58171.67
500.26	58028.90
500.44	58782.55
500.61	59150.02
500.79	58859.79
500.97	58731.06
501.14	58274.66
501.32	57478.88
501.49	58026.56
501.67	58663.19
501.84	58787.24
502.02	59091.51
502.20	59580.68
502.37	59414.50
502.55	59948.14
502.72	60823.50
502.90	61200.33
503.07	60563.70
503.25	59866.22
503.43	58976.82
503.60	58602.33
503.78	58590.63
503.95	59341.94
504.13	60041.76
504.30	60753.29
504.48	59969.21
504.65	60107.30
504.83	60243.05
505.01	60851.59
505.18	61125.43
505.36	61520.98
505.53	61649.71
505.71	61045.85
505.88	61968.02
506.06	61481.19
506.23	61095.00
506.41	60559.02
506.58	60743.92
506.76	60842.23
506.93	60266.45
507.11	60449.02
507.28	60610.51
507.46	59833.46
507.63	59962.18
507.81	59849.84
507.98	59955.16
508.16	60907.76
508.33	60994.36
508.50	61146.50
508.68	61565.45
508.85	62003.13
509.03	62094.41
509.20	61895.47
509.38	61092.66
509.55	61300.97
509.73	61050.53
509.90	61038.83
510.08	61324.38
510.25	60683.07
510.42	60479.44
510.60	60884.36
510.77	61535.02
510.95	61488.21
511.12	62045.26
511.30	62639.76
511.47	62838.70
511.64	62396.34
511.82	62422.09
511.99	61441.40
512.17	61263.52
512.34	60823.50
512.51	61401.61
512.69	61525.66
512.86	60867.97
513.04	61057.56
513.21	60800.10
513.38	60343.69
513.56	59674.30
513.73	59732.81
513.90	60734.56
514.08	60355.39
514.25	60467.74
514.43	60797.76
514.60	60804.78
514.77	61422.68
514.95	61364.17
515.12	61249.48
515.29	61843.98
515.47	62061.64
515.64	61979.73
515.81	61698.86
515.99	60788.39
516.16	59107.89
516.33	56774.37
516.51	56711.18
516.68	55543.25
516.85	54780.24
517.03	56067.53
517.20	58906.60
517.37	60491.15
517.54	61270.54
517.72	60273.48
517.89	57350.15
518.06	56004.34
518.24	56790.76
518.41	59231.94
518.58	60280.50
518.75	60404.55
518.93	59894.31
519.10	59772.60
519.27	60722.86
519.45	60961.59
519.62	61804.19
519.79	61787.80
519.96	61263.52
520.14	61083.30
520.31	60193.90
520.48	59948.14
520.65	61029.47
520.83	61895.47
521.00	61499.92
521.17	61258.84
521.34	61331.40
521.52	61794.82
521.69	62007.81
521.86	62372.94
522.03	61867.38
522.20	60530.93
522.38	59828.77
522.55	60488.80
522.72	60547.32
522.89	60301.56
523.07	61176.92
523.24	61687.16
523.41	62178.67
523.58	62300.38
523.75	62440.81
523.92	62719.34
524.10	62281.66
524.27	61965.68
524.44	61497.58
524.61	61188.63
524.78	61717.59
524.96	61708.22
525.13	61848.66
525.30	62426.77
525.47	62827.00
525.64	62628.05
525.81	61666.09
525.98	60231.35
526.16	58740.42
526.33	58841.07
526.50	58419.77
526.67	58508.71
526.84	59140.66
527.01	60203.26
527.18	60355.39
527.36	61057.56
527.53	61874.40
527.70	61481.19
527.87	60266.45
528.04	60954.57
528.21	61535.02
528.38	62078.03
528.55	62983.82
528.72	62674.87
528.89	62426.77
529.07	62548.48
529.24	61322.04
529.41	61265.86
529.58	61249.48
529.75	61935.26
529.92	61996.11
530.09	62398.68
530.26	62763.81
530.43	63117.23
530.60	62536.77
530.77	63070.42
530.94	63121.91
531.11	62447.83
531.28	62099.09
531.46	62115.48
531.63	62204.42
531.80	62024.20
531.97	61956.32
532.14	61591.20
532.31	59964.52
532.48	59475.35
532.65	59639.19
532.82	60313.26
532.99	62300.38
533.16	62274.63
533.33	62213.78
533.50	62085.05
533.67	61773.76
533.84	61518.64
534.01	61876.74
534.18	61457.79
534.35	61523.32
534.52	60924.14
534.69	61722.27
534.86	62148.24
535.03	62569.54
535.20	62602.31
535.37	63063.39
535.54	63252.98
535.71	62567.20
535.88	62798.91
536.05	61708.22
536.22	60954.57
536.38	61179.26
536.55	60746.26
536.72	60402.21
536.89	60889.04
537.06	61036.49
537.23	61361.82
537.40	61085.64
537.57	60996.70
537.74	61448.42
537.91	61495.24
538.08	61406.30
538.25	61879.08
538.42	62527.41
538.59	61961.00
538.75	61322.04
538.92	60287.52
539.09	60959.25
539.26	60711.16
539.43	60596.47
539.60	60374.12
539.77	61057.56
539.94	60603.49
540.11	59990.27
540.28	59693.02
540.44	59744.51
540.61	59597.06
540.78	60133.04
540.95	60547.32
541.12	60725.20
541.29	61305.65
541.46	60949.89
541.62	61490.55
541.79	60706.47
541.96	60240.71
542.13	60762.65
542.30	60544.98
542.47	60666.69
542.63	60814.14
542.80	60533.28
542.97	60313.26
543.14	60669.03
543.31	60666.69
543.48	61448.42
543.64	61726.95
543.81	62038.24
543.98	62047.60
544.15	61085.64
544.32	61499.92
544.48	61066.92
544.65	60692.43
544.82	61293.95
544.99	60470.08
545.16	60116.66
545.32	60390.50
545.49	61284.59
545.66	61326.72
545.83	60945.21
546.00	61123.09
546.16	60725.20
546.33	60596.47
546.50	60533.28
546.67	61277.57
546.83	60898.40
547.00	61148.84
547.17	59924.74
547.34	59178.10
547.50	59323.22
547.67	60116.66
547.84	60811.80
548.00	61230.75
548.17	60879.67
548.34	61162.88
548.51	60884.36
548.67	60748.60
548.84	60746.26
549.01	61041.17
549.18	60559.02
549.34	60711.16
549.51	61284.59
549.68	61429.70
549.84	60486.46
550.01	59671.96
550.18	59999.63
550.34	60107.30
550.51	60430.29
550.68	60743.92
550.84	60945.21
551.01	60226.66
551.18	59992.61
551.34	59896.65
551.51	60797.76
551.68	60865.63
551.84	61792.48
552.01	60732.22
552.18	60217.30
552.34	59561.95
552.51	59199.17
552.68	59203.85
552.84	59749.20
553.01	59742.17
553.18	59777.28
553.34	59955.16
553.51	60346.03
553.67	60449.02
553.84	60776.69
554.01	60982.66
554.17	60245.39
554.34	60420.93
554.51	60306.24
554.67	59814.73
554.84	59915.37
555.00	59552.59
555.17	59625.15
555.33	59461.31
555.50	59379.39
555.67	59915.37
555.83	59887.29
556.00	59175.76
556.16	59189.81
556.33	59210.87
556.50	59477.69
556.66	59229.60
556.83	59007.25
556.99	58628.08
557.16	59440.24
557.32	59189.81
557.49	59756.22
557.65	59477.69
557.82	59437.90
557.98	59854.52
558.15	58707.66
558.32	58489.99
558.48	57893.15
558.65	57755.06
558.81	57682.50
558.98	58726.38
559.14	58702.98
559.31	58604.67
559.47	58307.43
559.64	58518.07
559.80	57588.88
559.97	58382.32
560.13	58850.43
560.30	59955.16
560.46	60231.35
560.63	60446.68
560.79	60296.88
560.96	59353.65
561.12	58504.03
561.29	58417.43
561.45	58471.26
561.61	59449.61
561.78	58356.58
561.94	58693.61
562.11	58597.65
562.27	58213.80
562.44	59065.76
562.60	59040.01
562.77	59372.37
562.93	58955.75
563.10	58913.62
563.26	58932.35
563.42	59271.73
563.59	58782.55
563.75	58489.99
563.92	57872.09
564.08	58408.07
564.24	59035.33
564.41	58408.07
564.57	59341.94
564.74	59025.97
564.90	58504.03
565.07	57846.34
565.23	57268.23
565.39	56472.45
565.56	57088.01
565.72	57495.26
565.88	56947.57
566.05	58440.84
566.21	58164.65
566.38	58085.07
566.54	58859.79
566.70	59180.45
566.87	58812.98
567.03	58581.27
567.19	59444.93
567.36	59690.68
567.52	58447.86
567.68	57586.54
567.85	57312.70
568.01	57731.65
568.17	57729.31
568.34	57726.97
568.50	57139.50
568.66	56765.01
568.83	56795.44
568.99	56610.54
569.15	56938.21
569.32	56797.78
569.48	56875.02
569.64	57151.20
569.81	56905.44
569.97	56917.15
570.13	55784.33
570.30	55199.19
570.46	55000.25
570.62	54714.70
570.78	55337.29
570.95	55498.78
571.11	56341.38
571.27	55819.44
571.43	56301.59
571.60	56154.13
571.76	57034.17
571.92	57291.63
572.09	57485.90
572.25	56746.29
572.41	56912.47
572.57	56999.07
572.74	57352.49
572.90	58092.10
573.06	57806.55
573.22	57834.64
573.38	57743.36
573.55	58651.48
573.71	57331.42
573.87	56912.47
574.03	57172.27
574.20	56746.29
574.36	56367.12
574.52	56067.53
574.68	55910.72
574.84	55161.75
575.01	55402.82
575.17	55016.63
575.33	55725.81
575.49	55978.59
575.65	54953.44
575.82	55068.12
575.98	55496.44
576.14	56381.16
576.30	57006.09
576.46	55746.88
576.62	55683.69
576.79	55952.85
576.95	56097.96
577.11	56182.22
577.27	55927.10
577.43	56100.30
577.59	55781.99
577.75	55264.73
577.92	55079.83
578.08	55049.40
578.24	55157.06
578.40	55281.11
578.56	54202.13
578.72	54761.51
578.88	54892.58
579.04	55299.84
579.21	54766.20
579.37	54850.45
579.53	55428.57
579.69	54817.69
579.85	54635.13
580.01	54962.80
580.17	54204.47
580.33	55423.89
580.49	55482.40
580.65	54918.33
580.82	55316.22
580.98	55201.53
581.14	55255.37
581.30	54681.94
581.46	54323.83
581.62	55047.06
581.78	55664.96
581.94	55688.37
582.10	55700.07
582.26	55833.48
582.42	55758.58
582.58	55348.99
582.74	55084.51
582.90	54864.50
583.06	56116.68
583.22	55367.71
583.38	55489.42
583.54	55721.13
583.70	55489.42
583.86	55721.13
584.02	54384.69
584.18	54827.05
584.34	54363.62
584.50	54188.08
584.66	54461.93
584.82	54209.15
584.98	54326.17
585.14	53656.78
585.30	53619.33
