SpectraSuite Data File
++++++++++++++++++++++++++++++++++++
Date: Mon Oct 07 14:53:35 GMT-05:00 2013
User: price-jones
Dark Spectrum Present: No
Reference Spectrum Present: No
Number of Sampled Component Spectra: 1
Spectrometers: USB2+H05261
Integration Time (usec): 100000 (USB2+H05261)
Spectra Averaged: 1 (USB2+H05261)
Boxcar Smoothing: 0 (USB2+H05261)
Correct for Electrical Dark: No (USB2+H05261)
Strobe/Lamp Enabled: No (USB2+H05261)
Correct for Detector Non-linearity: No (USB2+H05261)
Correct for Stray Light: No (USB2+H05261)
Number of Pixels in Processed Spectrum: 2048
>>>>>Begin Processed Spectral Data<<<<<
365.73	0.00
365.92	0.00
366.12	0.00
366.32	0.00
366.52	0.00
366.72	0.00
366.91	0.00
367.11	0.00
367.31	0.00
367.51	0.00
367.70	0.00
367.90	0.00
368.10	0.00
368.30	0.00
368.49	0.00
368.69	0.00
368.89	0.00
369.09	0.00
369.28	0.00
369.48	0.00
369.68	0.00
369.87	0.00
370.07	0.00
370.27	0.00
370.47	657.69
370.66	3527.19
370.86	4053.81
371.06	4184.88
371.25	4287.86
371.45	3978.91
371.65	3571.66
371.84	3456.97
372.04	3576.34
372.24	4002.32
372.44	4112.32
372.63	3992.95
372.83	3782.31
373.03	3293.13
373.22	3019.29
373.42	3211.22
373.62	3772.94
373.81	4093.60
374.01	3967.21
374.21	3623.15
374.40	3506.12
374.60	3538.89
374.79	4025.72
374.99	4608.51
375.19	5090.67
375.38	5064.92
375.58	4781.71
375.78	4477.44
375.97	4826.18
376.17	5132.79
376.37	4961.94
376.56	5193.65
376.76	5348.12
376.95	5678.14
377.15	6118.16
377.35	6258.59
377.54	6661.16
377.74	6778.19
377.93	6820.32
378.13	6647.12
378.33	6235.19
378.52	5753.04
378.72	5568.13
378.91	5369.19
379.11	5305.99
379.31	5100.03
379.50	5027.47
379.70	5500.26
379.89	5914.53
380.09	6436.47
380.28	6712.66
380.48	6619.04
380.68	6656.48
380.87	6244.55
381.07	5856.02
381.26	5474.51
381.46	4929.17
381.65	5043.85
381.85	4758.31
382.04	4648.30
382.24	4250.41
382.43	3983.59
382.63	3845.50
382.83	3978.91
383.02	4035.08
383.22	4088.92
383.41	4109.98
383.61	4355.74
383.80	4849.59
384.00	5481.53
384.19	6221.14
384.39	6464.56
384.58	6609.67
384.78	6401.37
384.97	6518.39
385.17	6148.59
385.36	5694.52
385.56	5526.00
385.75	5624.31
385.95	6193.06
386.14	6759.47
386.34	6853.09
386.53	6340.51
386.72	5947.30
386.92	6239.87
387.11	6462.22
387.31	6787.55
387.50	6628.40
387.70	6389.66
387.89	6377.96
388.09	6338.17
388.28	6520.73
388.48	6520.73
388.67	7073.10
388.86	7756.54
389.06	8505.51
389.25	8851.91
389.45	8851.91
389.64	8854.25
389.84	8706.79
390.03	8425.93
390.22	8243.37
390.42	8929.14
390.61	9439.38
390.81	10150.90
391.00	9926.21
391.19	10178.99
391.39	9788.12
391.58	9369.16
391.78	8695.09
391.97	8549.98
392.16	7857.18
392.36	7037.99
392.55	5706.23
392.75	4615.54
392.94	3737.84
393.13	3714.43
393.33	4332.33
393.52	5521.32
393.71	6885.86
393.91	7609.08
394.10	8346.35
394.29	9280.22
394.49	9923.87
394.68	10553.48
394.88	10700.93
395.07	11122.23
395.26	11192.44
395.46	10789.87
395.65	10097.07
395.84	8887.01
396.04	7501.42
396.23	6073.69
396.42	5245.14
396.62	5029.81
396.81	5764.74
397.00	7414.82
397.19	9193.62
397.39	10843.70
397.58	12147.38
397.77	12842.52
397.97	13434.68
398.16	13542.34
398.35	14071.30
398.55	14630.69
398.74	14956.02
398.93	15393.70
399.12	15075.39
399.32	14146.20
399.51	14693.88
399.70	15878.19
399.90	15658.18
400.09	15719.04
400.28	15421.79
400.47	15550.52
400.67	16643.55
400.86	16765.26
401.05	16816.75
401.24	17111.66
401.44	17310.60
401.63	17348.05
401.82	17376.14
402.01	17523.59
402.21	17479.12
402.40	17523.59
402.59	17174.85
402.78	16290.13
402.97	16053.73
403.17	16702.06
403.36	17378.48
403.55	18293.63
403.74	18513.64
403.93	17834.88
404.13	16191.83
404.32	16018.63
404.51	16739.51
404.70	17785.73
404.89	17893.40
405.09	17678.07
405.28	17256.77
405.47	17397.20
405.66	16861.22
405.85	16678.66
406.05	16056.08
406.24	16582.70
406.43	17200.60
406.62	17926.16
406.81	17972.97
407.00	17345.71
407.20	16858.88
407.39	17111.66
407.58	17706.15
407.77	18441.08
407.96	19136.22
408.15	19262.61
408.34	19379.64
408.54	20060.73
408.73	20383.73
408.92	19894.55
409.11	19424.11
409.30	18672.79
409.49	17511.89
409.68	16280.77
409.87	15908.62
410.07	16791.00
410.26	17980.00
410.45	18995.79
410.64	19847.74
410.83	20210.53
411.02	20470.33
411.21	21731.87
411.40	21483.78
411.59	21390.16
411.78	20971.20
411.98	20861.19
412.17	21750.60
412.36	21135.04
412.55	21198.23
412.74	20432.88
412.93	20240.95
413.12	20189.46
413.31	22169.55
413.50	22632.98
413.69	22845.97
413.88	22345.09
414.07	21516.54
414.26	21383.13
414.45	22298.28
414.64	22593.19
414.83	22647.02
415.02	22033.80
415.22	22118.06
415.41	22738.30
415.60	23178.33
415.79	24154.33
415.98	24650.52
416.17	24886.92
416.36	24053.69
416.55	23992.83
416.74	23044.91
416.93	22272.54
417.12	22125.08
417.31	22642.34
417.50	23269.61
417.69	23908.57
417.88	23726.01
418.07	23632.39
418.26	23285.99
418.45	23218.11
418.64	24269.01
418.83	25092.88
419.02	24573.28
419.21	24439.87
419.39	23374.93
419.58	22246.79
419.77	22375.52
419.96	23496.64
420.15	24669.25
420.34	25387.79
420.53	26183.57
420.72	26813.18
420.91	26780.41
421.10	26291.24
421.29	25930.80
421.48	25055.43
421.67	26143.78
421.86	25514.18
422.05	24430.51
422.24	21394.84
422.43	21025.03
422.61	23711.97
422.80	25294.17
422.99	25458.01
423.18	24809.68
423.37	23985.81
423.56	23992.83
423.75	24746.48
423.94	25055.43
424.13	23456.85
424.32	23969.43
424.50	24027.94
424.69	23594.94
424.88	23349.18
425.07	23634.73
425.26	23845.38
425.45	23232.16
425.64	23023.85
425.83	22862.35
426.01	24245.61
426.20	24903.30
426.39	24737.12
426.58	23150.24
426.77	21493.14
426.96	20622.46
427.15	20992.26
427.33	23077.68
427.52	24023.26
427.71	24041.98
427.90	24030.28
428.09	23807.93
428.28	23243.86
428.46	22298.28
428.65	21944.86
428.84	22092.32
429.03	22946.61
429.22	21371.43
429.40	20732.47
429.59	18735.99
429.78	16388.43
429.97	16596.74
430.16	16587.38
430.34	16844.84
430.53	16692.70
430.72	16943.14
430.91	18845.99
431.10	22530.00
431.28	25982.29
431.47	28226.86
431.66	28608.37
431.85	25961.22
432.03	23852.40
432.22	23000.44
432.41	23578.56
432.60	26534.65
432.79	27667.47
432.97	28229.20
433.16	27896.85
433.35	25315.23
433.54	22649.36
433.72	21385.47
433.91	21982.31
434.10	24442.21
434.28	26265.49
434.47	27845.35
434.66	27159.58
434.85	26668.06
435.03	26127.40
435.22	26827.22
435.41	28821.36
435.59	28486.66
435.78	28992.22
435.97	30099.29
436.16	30012.69
436.34	29706.08
436.53	28395.38
436.72	29085.84
436.90	27300.01
437.09	27438.10
437.28	26864.67
437.46	28051.32
437.65	27892.16
437.84	25954.20
438.02	24095.82
438.21	23716.65
438.40	25057.78
438.58	26771.05
438.77	28105.15
438.96	28166.01
439.14	29254.36
439.33	30122.69
439.52	30586.12
439.70	29832.47
439.89	29090.52
440.08	28453.89
440.26	27967.06
440.45	28989.88
440.63	31122.10
440.82	32519.40
441.01	32744.09
441.19	31882.78
441.38	32577.92
441.57	33806.70
441.75	34115.65
441.94	34092.24
442.12	34052.45
442.31	34838.87
442.50	34611.84
442.68	34293.53
442.87	33565.62
443.05	33179.43
443.24	33993.94
443.43	34237.36
443.61	35026.12
443.80	36077.02
443.98	33631.16
444.17	33504.77
444.35	35637.00
444.54	35758.70
444.73	35672.10
444.91	34101.61
445.10	32826.01
445.28	31655.75
445.47	30759.32
445.65	31428.71
445.84	32215.13
446.02	33270.72
446.21	33717.76
446.39	34132.03
446.58	34040.75
446.77	34658.65
446.95	35000.37
447.14	36226.81
447.32	36697.26
447.51	35952.97
447.69	34773.34
447.88	33905.00
448.06	34703.12
448.25	35391.24
448.43	35625.29
448.62	34614.18
448.80	34766.32
448.99	35079.95
449.17	35325.71
449.36	35246.13
449.54	36781.52
449.73	36835.35
449.91	37471.98
450.10	38967.58
450.28	39089.29
450.46	38565.01
450.65	38976.94
450.83	38806.08
451.02	38227.97
451.20	37809.01
451.39	37376.01
451.57	37322.18
451.76	37511.77
451.94	36856.42
452.13	36428.10
452.31	35105.70
452.49	33174.75
452.68	33724.78
452.86	33640.52
453.05	33846.49
453.23	34913.77
453.42	35934.24
453.60	36650.45
453.78	37289.42
453.97	36858.76
454.15	36980.46
454.34	36023.19
454.52	36266.60
454.70	35299.96
454.89	35784.45
455.07	36556.83
455.26	36893.86
455.44	37731.78
455.62	38735.87
455.81	38955.88
455.99	38586.07
456.17	38211.59
456.36	37811.35
456.54	39077.58
456.73	39295.25
456.91	40065.29
457.09	40144.87
457.28	40680.85
457.46	39505.90
457.64	38511.17
457.83	37610.07
458.01	36903.23
458.19	38270.10
458.38	38096.90
458.56	39384.19
458.74	39318.66
458.93	38763.95
459.11	38132.01
459.29	38075.84
459.48	38761.61
459.66	38445.64
459.84	38897.36
460.03	39096.31
460.21	38920.77
460.39	39931.88
460.57	39936.56
460.76	40418.71
460.94	40669.15
461.12	39714.21
461.31	40172.96
461.49	40112.10
461.67	40020.82
461.85	41120.87
462.04	41029.59
462.22	41727.07
462.40	41081.08
462.59	40645.74
462.77	41165.34
462.95	40905.54
463.13	40442.12
463.32	40271.26
463.50	39632.29
463.68	39821.87
463.86	40023.16
464.05	39756.34
464.23	38642.24
464.41	38993.32
464.59	37570.28
464.78	39636.97
464.96	39796.13
465.14	39105.67
465.32	40121.46
465.50	40889.16
465.69	41750.48
465.87	40898.52
466.05	39615.91
466.23	38403.51
466.41	36854.08
466.60	38373.08
466.78	38050.09
466.96	38934.81
467.14	38904.38
467.32	40233.81
467.51	40308.71
467.69	38298.19
467.87	39683.78
468.05	39936.56
468.23	39342.06
468.41	40055.93
468.60	39976.35
468.78	40580.21
468.96	39438.03
469.14	40374.24
469.32	40875.12
469.50	39503.56
469.69	39096.31
469.87	38548.62
470.05	38600.12
470.23	38806.08
470.41	38916.09
470.59	39220.36
470.77	39215.68
470.95	40299.34
471.14	40500.63
471.32	40591.91
471.50	43044.79
471.68	43049.47
471.86	43473.11
472.04	43475.45
472.22	43524.60
472.40	41535.15
472.58	41120.87
472.77	40905.54
472.95	41834.74
473.13	42679.67
473.31	41366.63
473.49	41223.86
473.67	42855.21
473.85	43164.16
474.03	43962.28
474.21	43878.02
474.39	44673.81
474.57	44671.46
474.75	44769.77
474.93	43938.88
475.12	43107.99
475.30	43562.05
475.48	43075.22
475.66	44236.12
475.84	43849.94
476.02	43517.58
476.20	42637.54
476.38	43290.55
476.56	44605.93
476.74	45031.91
476.92	45041.27
477.10	45993.87
477.28	46937.10
477.46	47196.90
477.64	47550.32
477.82	47966.94
478.00	47496.49
478.18	46763.90
478.36	47126.69
478.54	47107.96
478.72	47477.77
478.90	48301.64
479.08	49612.34
479.26	49848.73
479.44	49371.26
479.62	48832.94
479.80	49378.28
479.98	49813.62
480.16	49907.24
480.34	49289.34
480.52	49865.11
480.70	50000.86
480.88	50064.06
481.06	50717.07
481.24	51103.26
481.41	51702.43
481.59	52210.33
481.77	52243.10
481.95	51566.68
482.13	51405.19
482.31	51543.28
482.49	51931.81
482.67	51744.56
482.85	52163.52
483.03	52200.97
483.21	52739.29
483.39	52814.19
483.57	52175.22
483.74	51990.32
483.92	52336.72
484.10	52486.51
484.28	53279.96
484.46	53588.91
484.64	53909.56
484.82	53338.47
485.00	52615.24
485.18	52123.73
485.35	51077.51
485.53	48205.67
485.71	44741.68
485.89	43796.10
486.07	45972.80
486.25	48964.01
486.43	51124.32
486.61	52172.88
486.78	51992.66
486.96	52081.60
487.14	53469.54
487.32	53888.49
487.50	54759.17
487.68	55412.18
487.85	56048.81
488.03	55674.32
488.21	55620.49
488.39	55077.49
488.57	54351.92
488.75	54415.11
488.92	54944.08
489.10	56612.88
489.28	57968.05
489.46	58389.34
489.64	58155.29
489.81	58614.04
489.99	58330.83
490.17	58185.72
490.35	58560.20
490.53	58188.06
490.70	57792.51
490.88	57586.54
491.06	58541.48
491.24	58316.79
491.41	57764.42
491.59	56418.61
491.77	55683.69
491.95	56774.37
492.13	57687.18
492.30	58506.37
492.48	59213.21
492.66	59568.97
492.84	59788.98
493.01	59496.42
493.19	59147.68
493.37	58747.45
493.54	58546.16
493.72	59032.99
493.90	59990.27
494.08	60601.15
494.25	60870.31
494.43	61062.24
494.61	61226.07
494.79	61439.06
494.96	61078.62
495.14	60650.30
495.32	59999.63
495.49	59208.53
495.67	60212.62
495.85	61329.06
496.02	61712.91
496.20	61560.77
496.38	61251.82
496.55	60996.70
496.73	61450.77
496.91	61574.81
497.09	62073.35
497.26	62298.04
497.44	61719.93
497.62	61467.15
497.79	60832.86
497.97	59585.36
498.14	59660.26
498.32	60720.52
498.50	61509.28
498.67	62085.05
498.85	61890.79
499.03	62134.20
499.20	62211.44
499.38	62251.23
499.56	62232.50
499.73	61661.41
499.91	61523.32
500.08	61045.85
500.26	60240.71
500.44	60772.01
500.61	61258.84
500.79	61188.63
500.97	60736.90
501.14	60835.20
501.32	60453.70
501.49	60500.51
501.67	60750.94
501.84	61329.06
502.02	61523.32
502.20	61827.59
502.37	61811.21
502.55	61951.64
502.72	62511.03
502.90	62660.82
503.07	62604.65
503.25	62312.08
503.43	61434.38
503.60	60746.26
503.78	60528.59
503.95	60708.82
504.13	61881.42
504.30	62798.91
504.48	62429.11
504.65	62078.03
504.83	62284.00
505.01	62735.72
505.18	62869.13
505.36	63636.83
505.53	63615.76
505.71	63744.49
505.88	63725.77
506.06	63311.49
506.23	63084.46
506.41	62569.54
506.58	63021.26
506.76	63002.54
506.93	62904.24
507.11	62740.40
507.28	62754.44
507.46	62419.75
507.63	61956.32
507.81	61560.77
507.98	61867.38
508.16	62632.74
508.33	62988.50
508.50	63271.70
508.68	63620.44
508.85	64001.95
509.03	63742.15
509.20	63875.56
509.38	63288.09
509.55	62468.90
509.73	62616.35
509.90	63138.29
510.08	63299.79
510.25	63337.24
510.42	62988.50
510.60	62993.18
510.77	63194.46
510.95	63784.28
511.12	63791.30
511.30	63941.10
511.47	64334.31
511.64	64306.22
511.82	63969.18
511.99	63288.09
512.17	62927.64
512.34	62340.17
512.51	62709.97
512.69	62857.43
512.86	63030.63
513.04	63278.72
513.21	63430.86
513.38	63124.25
513.56	62611.67
513.73	61968.02
513.90	62288.68
514.08	62300.38
514.25	62738.06
514.43	62724.02
514.60	62920.62
514.77	63138.29
514.95	63103.18
515.12	63002.54
515.29	63421.50
515.47	63592.36
515.64	63690.66
515.81	63379.37
515.99	62934.66
516.16	61769.08
516.33	59688.34
516.51	58454.88
516.68	57792.51
516.85	57607.61
517.03	58028.90
517.20	60076.87
517.37	62262.93
517.54	63126.59
517.72	62747.42
517.89	60594.13
518.06	58656.17
518.24	58576.59
518.41	60692.43
518.58	62005.47
518.75	62089.73
518.93	62176.33
519.10	61937.60
519.27	62372.94
519.45	62674.87
519.62	63327.87
519.79	63795.98
519.96	63496.39
520.14	62944.03
520.31	62333.15
520.48	62253.57
520.65	62721.68
520.83	63482.35
521.00	63781.94
521.17	63384.05
521.34	63316.17
521.52	63355.96
521.69	63936.41
521.86	64313.24
522.03	64107.27
522.20	63016.58
522.38	61946.96
522.55	62033.56
522.72	62415.07
522.89	62700.61
523.07	62904.24
523.24	63152.33
523.41	64015.99
523.58	64205.58
523.75	64577.72
523.92	64383.46
524.10	64432.61
524.27	64390.48
524.44	63987.91
524.61	64086.21
524.78	63861.52
524.96	63826.41
525.13	63693.00
525.30	64013.65
525.47	64495.80
525.64	64383.46
525.81	63781.94
525.98	62267.61
526.16	61207.35
526.33	60683.07
526.50	60292.20
526.67	60053.47
526.84	60540.30
527.01	61401.61
527.18	62162.29
527.36	62782.53
527.53	63512.78
527.70	63985.57
527.87	63657.89
528.04	63058.71
528.21	63416.82
528.38	63997.27
528.55	64573.04
528.72	64760.28
528.89	64872.63
529.07	64676.02
529.24	64015.99
529.41	63414.47
529.58	63025.95
529.75	63166.38
529.92	63508.10
530.09	64001.95
530.26	64463.03
530.43	64519.21
530.60	64568.36
530.77	64699.43
530.94	64949.87
531.11	64456.01
531.28	64437.29
531.46	63917.69
531.63	64074.51
531.80	64090.89
531.97	63634.48
532.14	62887.85
532.31	62138.88
532.48	61528.00
532.65	61539.71
532.82	62230.16
532.99	63201.49
533.16	63428.52
533.33	64090.89
533.50	63959.82
533.67	63374.69
533.84	62908.92
534.01	63112.55
534.18	63433.20
534.35	63498.73
534.52	63503.42
534.69	63751.51
534.86	63845.13
535.03	64008.97
535.20	64444.31
535.37	64760.28
535.54	64935.82
535.71	64526.23
535.88	64381.12
536.05	63781.94
536.22	63412.13
536.38	63128.93
536.55	62639.76
536.72	62293.36
536.89	62155.27
537.06	63091.48
537.23	63688.32
537.40	63807.68
537.57	63959.82
537.74	63788.96
537.91	63632.14
538.08	63491.71
538.25	63632.14
538.42	63690.66
538.59	63573.63
538.75	63131.27
538.92	62944.03
539.09	62733.38
539.26	62461.88
539.43	62606.99
539.60	62567.20
539.77	62693.59
539.94	62642.10
540.11	61867.38
540.28	61488.21
540.44	61483.53
540.61	61649.71
540.78	61766.74
540.95	62415.07
541.12	62838.70
541.29	62997.86
541.46	63051.69
541.62	63201.49
541.79	63044.67
541.96	62504.01
542.13	62452.51
542.30	62628.05
542.47	62986.16
542.63	62663.16
542.80	62592.95
542.97	62585.92
543.14	62649.12
543.31	62487.62
543.48	62981.48
543.64	63669.59
543.81	64072.17
543.98	63730.45
544.15	63227.23
544.32	62735.72
544.48	62756.78
544.65	63285.75
544.82	63536.18
544.99	62979.14
545.16	62831.68
545.32	62585.92
545.49	63402.77
545.66	63601.72
545.83	63229.57
546.00	62960.41
546.16	62592.95
546.33	62817.64
546.50	62770.83
546.67	63159.36
546.83	62831.68
547.00	62869.13
547.17	62204.42
547.34	61762.06
547.50	61815.89
547.67	62038.24
547.84	62122.50
548.00	62485.28
548.17	62880.83
548.34	62934.66
548.51	62747.42
548.67	62691.25
548.84	62705.29
549.01	62850.41
549.18	62702.95
549.34	62700.61
549.51	62948.71
549.68	62576.56
549.84	62291.02
550.01	62555.50
550.18	62258.25
550.34	62309.74
550.51	62344.85
550.68	62588.27
550.84	62110.80
551.01	62129.52
551.18	62099.09
551.34	62206.76
551.51	62808.28
551.68	62763.81
551.84	62848.06
552.01	62695.93
552.18	62496.98
552.34	61787.80
552.51	61406.30
552.68	61495.24
552.84	61904.83
553.01	62162.29
553.18	62129.52
553.34	62094.41
553.51	62300.38
553.67	62452.51
553.84	62663.16
554.01	62529.75
554.17	62281.66
554.34	62368.26
554.51	62372.94
554.67	62740.40
554.84	62623.37
555.00	62333.15
555.17	62173.99
555.33	62054.62
555.50	62141.22
555.67	61928.23
555.83	61829.93
556.00	61698.86
556.16	61708.22
556.33	61071.60
556.50	61310.33
556.66	61319.70
556.83	61078.62
556.99	61179.26
557.16	61282.25
557.32	61434.38
557.49	61675.46
557.65	61673.12
557.82	61586.52
557.98	61460.13
558.15	61195.65
558.32	60343.69
558.48	59599.40
558.65	59758.56
558.81	60001.97
558.98	60322.63
559.14	60427.95
559.31	60645.62
559.47	60807.12
559.64	60292.20
559.80	59955.16
559.97	60135.38
560.13	60678.39
560.30	61387.57
560.46	61778.44
560.63	61963.34
560.79	61860.36
560.96	61581.84
561.12	60516.89
561.29	59751.54
561.45	59934.10
561.61	60509.87
561.78	60624.56
561.94	60720.52
562.11	60523.91
562.27	60259.43
562.44	60643.28
562.60	60931.17
562.77	61251.82
562.93	61043.51
563.10	61071.60
563.26	60474.76
563.42	60526.25
563.59	60072.19
563.75	60594.13
563.92	60392.84
564.08	60418.59
564.24	60640.94
564.41	60477.10
564.57	60554.34
564.74	60287.52
564.90	60432.63
565.07	60140.07
565.23	59882.61
565.39	59435.56
565.56	59435.56
565.72	58890.22
565.88	59290.45
566.05	59288.11
566.21	59491.74
566.38	59702.38
566.54	59730.47
566.70	59957.50
566.87	60346.03
567.03	60439.65
567.19	60645.62
567.36	60221.98
567.52	59936.44
567.68	59877.93
567.85	59444.93
568.01	59105.55
568.17	58719.36
568.34	58714.68
568.50	58733.40
568.66	58728.72
568.83	59248.32
568.99	59400.46
569.15	59365.35
569.32	59337.26
569.48	59236.62
569.64	58972.14
569.81	58646.80
569.97	58585.95
570.13	58569.57
570.30	58291.04
570.46	57769.10
570.62	57497.60
570.78	57272.91
570.95	57619.31
571.11	58349.56
571.27	58417.43
571.43	58827.02
571.60	58754.47
571.76	58745.11
571.92	59157.04
572.09	59363.01
572.25	59276.41
572.41	59194.49
572.57	59030.65
572.74	59138.32
572.90	58571.91
573.06	58864.47
573.22	58766.17
573.38	58766.17
573.55	58674.89
573.71	58857.45
573.87	58869.15
574.03	58504.03
574.20	58649.14
574.36	58340.19
574.52	58431.47
574.68	58295.72
574.84	57883.79
575.01	57478.88
575.17	57375.89
575.33	57708.25
575.49	57844.00
575.65	58049.97
575.82	57623.99
575.98	57598.24
576.14	57897.83
576.30	58131.89
576.46	58150.61
576.62	58248.91
576.79	58054.65
576.95	57815.91
577.11	57544.41
577.27	57815.91
577.43	57773.78
577.59	57478.88
577.75	57190.99
577.92	56507.55
578.08	56598.83
578.24	56486.49
578.40	56818.84
578.56	57130.14
578.72	57069.28
578.88	57354.83
579.04	57099.71
579.21	57322.06
579.37	57495.26
579.53	57389.94
579.69	57546.75
579.85	57579.52
580.01	57694.21
580.17	57148.86
580.33	56921.83
580.49	57172.27
580.65	57310.36
580.82	57525.69
580.98	57401.64
581.14	57233.12
581.30	57544.41
581.46	57186.31
581.62	57420.36
581.78	57336.10
581.94	57851.02
582.10	57680.16
582.26	57539.73
582.42	57726.97
582.58	57745.70
582.74	57474.20
582.90	57712.93
583.06	57502.28
583.22	57380.57
583.38	57291.63
583.54	57357.17
583.70	57286.95
583.86	57453.13
584.02	57240.14
584.18	57055.24
584.34	57244.82
584.50	57216.74
584.66	57013.11
584.82	56821.19
584.98	56685.43
585.14	56217.33
