SpectraSuite Data File
++++++++++++++++++++++++++++++++++++
Date: Mon Oct 07 14:55:01 GMT-05:00 2013
User: price-jones
Dark Spectrum Present: No
Reference Spectrum Present: No
Number of Sampled Component Spectra: 1
Spectrometers: USB2+H05261
Integration Time (usec): 10000 (USB2+H05261)
Spectra Averaged: 1 (USB2+H05261)
Boxcar Smoothing: 0 (USB2+H05261)
Correct for Electrical Dark: No (USB2+H05261)
Strobe/Lamp Enabled: No (USB2+H05261)
Correct for Detector Non-linearity: No (USB2+H05261)
Correct for Stray Light: No (USB2+H05261)
Number of Pixels in Processed Spectrum: 2048
>>>>>Begin Processed Spectral Data<<<<<
365.73	0.00
365.92	0.00
366.12	0.00
366.32	0.00
366.52	0.00
366.72	0.00
366.91	0.00
367.11	0.00
367.31	0.00
367.51	0.00
367.70	0.00
367.90	0.00
368.10	0.00
368.30	0.00
368.49	0.00
368.69	0.00
368.89	0.00
369.09	0.00
369.28	0.00
369.48	0.00
369.68	0.00
369.87	0.00
370.07	0.00
370.27	0.00
370.47	315.97
370.66	2406.07
370.86	2883.54
371.06	3119.93
371.25	3023.97
371.45	2738.43
371.65	2415.43
371.84	2490.33
372.04	2464.58
372.24	2799.28
372.44	3002.91
372.63	2890.56
372.83	2480.97
373.03	2270.32
373.22	2099.46
373.42	2296.07
373.62	2679.91
373.81	2757.15
374.01	2764.17
374.21	2480.97
374.40	2291.38
374.60	2466.92
374.79	2913.97
374.99	3431.23
375.19	3466.33
375.38	3471.01
375.58	3332.92
375.78	3293.13
375.97	3206.53
376.17	3419.52
376.37	3382.07
376.56	3581.02
376.76	3667.62
376.95	3932.10
377.15	4273.82
377.35	4280.84
377.54	4514.89
377.74	4622.56
377.93	4758.31
378.13	4444.68
378.33	4203.60
378.52	3932.10
378.72	3892.31
378.91	3726.13
379.11	3801.03
379.31	3466.33
379.50	3468.67
379.70	3964.87
379.89	4205.94
380.09	4486.81
380.28	4603.83
380.48	4596.81
380.68	4477.44
380.87	4252.75
381.07	4124.02
381.26	3772.94
381.46	3531.87
381.65	3290.79
381.85	3141.00
382.04	3094.19
382.24	2857.79
382.43	2846.09
382.63	2633.10
382.83	2658.85
383.02	2686.94
383.22	2757.15
383.41	2871.84
383.61	3206.53
383.80	3606.77
384.00	3983.59
384.19	4472.76
384.39	4671.71
384.58	4447.02
384.78	4428.29
384.97	4479.79
385.17	4184.88
385.36	4067.85
385.56	3794.01
385.75	4053.81
385.95	4503.19
386.14	4812.14
386.34	4833.21
386.53	4542.98
386.72	4402.55
386.92	4290.20
387.11	4636.60
387.31	4704.48
387.50	4718.52
387.70	4568.73
387.89	4461.06
388.09	4496.17
388.28	4528.94
388.48	4887.04
388.67	5116.41
388.86	5444.09
389.06	5804.53
389.25	6148.59
389.45	6207.10
389.64	6307.74
389.84	5940.28
390.03	6118.16
390.22	6251.57
390.42	6352.21
390.61	6661.16
390.81	7162.04
391.00	7204.17
391.19	7185.44
391.39	6813.30
391.58	6504.35
391.78	6380.30
391.97	5947.30
392.16	5579.84
392.36	4758.31
392.55	3803.37
392.75	3000.57
392.94	2544.16
393.13	2682.25
393.33	3337.60
393.52	4163.81
393.71	4903.42
393.91	5673.46
394.10	6221.14
394.29	6766.49
394.49	7311.83
394.68	7838.45
394.88	7831.43
395.07	8077.19
395.26	7712.07
395.46	7330.56
395.65	6998.20
395.84	5930.92
396.04	4896.40
396.23	4102.96
396.42	3449.95
396.62	3386.76
396.81	4381.48
397.00	5530.69
397.19	6850.75
397.39	8152.09
397.58	9022.77
397.77	9565.77
397.97	9806.84
398.16	9762.37
398.35	10403.68
398.55	10551.14
398.74	10951.37
398.93	10932.64
399.12	11073.07
399.32	10534.75
399.51	10888.17
399.70	11737.79
399.90	11162.01
400.09	11246.27
400.28	11370.32
400.47	11576.29
400.67	12058.44
400.86	12067.80
401.05	12233.98
401.24	12072.48
401.44	12456.33
401.63	12711.45
401.82	12620.17
402.01	12489.10
402.21	12755.92
402.40	12589.74
402.59	12374.41
402.78	11826.73
402.97	11730.76
403.17	12173.13
403.36	12720.81
403.55	13202.96
403.74	13556.38
403.93	12638.89
404.13	11513.10
404.32	11398.41
404.51	12175.47
404.70	13092.96
404.89	13067.21
405.09	12980.61
405.28	12669.32
405.47	12608.47
405.66	12461.01
405.85	12336.96
406.05	11728.42
406.24	12189.51
406.43	12547.61
406.62	12685.70
406.81	13125.72
407.00	12465.69
407.20	12276.11
407.39	12564.00
407.58	13296.58
407.77	13778.73
407.96	13905.12
408.15	14462.17
408.34	14258.54
408.54	14831.97
408.73	14892.83
408.92	14611.96
409.11	14043.21
409.30	13371.48
409.49	12615.49
409.68	12091.21
409.87	11822.05
410.07	12725.49
410.26	13727.24
410.45	14080.66
410.64	14520.68
410.83	14831.97
411.02	15510.73
411.21	15541.16
411.40	15784.57
411.59	16074.80
411.78	15955.43
411.98	15693.29
412.17	15969.48
412.36	15941.39
412.55	15641.80
412.74	15262.63
412.93	15063.69
413.12	15421.79
413.31	16648.23
413.50	16856.54
413.69	17135.06
413.88	16060.76
414.07	15861.81
414.26	16535.88
414.45	16849.52
414.64	16844.84
414.83	16453.97
415.02	16456.31
415.22	16582.70
415.41	16837.81
415.60	17563.38
415.79	18155.54
415.98	18436.40
416.17	18192.98
416.36	17926.16
416.55	17862.97
416.74	16753.55
416.93	16940.80
417.12	16702.06
417.31	17137.40
417.50	17207.62
417.69	17525.93
417.88	17750.62
418.07	17490.82
418.26	17011.01
418.45	17600.83
418.64	18359.16
418.83	18944.30
419.02	18302.99
419.21	18001.06
419.39	17448.69
419.58	16643.55
419.77	17078.89
419.96	18050.21
420.15	18534.70
420.34	19304.74
420.53	19871.15
420.72	20049.03
420.91	19985.83
421.10	19503.68
421.29	19108.13
421.48	18850.67
421.67	19894.55
421.86	18576.83
422.05	16919.73
422.24	15772.87
422.43	16830.79
422.61	18501.93
422.80	19070.68
422.99	18541.72
423.18	17799.77
423.37	18040.85
423.56	18443.42
423.75	18857.70
423.94	18941.96
424.13	17958.93
424.32	18064.25
424.50	18090.00
424.69	18146.17
424.88	18153.20
425.07	18082.98
425.26	18239.79
425.45	17212.30
425.64	17392.52
425.83	17923.82
426.01	18618.96
426.20	18707.90
426.39	18324.05
426.58	17198.26
426.77	16023.31
426.96	16004.58
427.15	16435.24
427.33	18040.85
427.52	18298.31
427.71	18324.05
427.90	18136.81
428.09	17804.46
428.28	17596.15
428.46	16758.24
428.65	16793.34
428.84	17291.88
429.03	17336.35
429.22	16372.05
429.40	15077.73
429.59	13481.49
429.78	12514.84
429.97	12634.21
430.16	12643.57
430.34	12613.15
430.53	13139.77
430.72	13811.50
430.91	15300.08
431.10	17834.88
431.28	20706.72
431.47	21968.27
431.66	21919.12
431.85	19625.39
432.03	17987.02
432.22	17671.04
432.41	19300.06
432.60	20697.36
432.79	20922.05
432.97	21542.29
433.16	20718.42
433.35	18780.46
433.54	17212.30
433.72	16306.51
433.91	17415.93
434.10	19442.83
434.28	20535.86
434.47	21586.76
434.66	20776.94
434.85	20554.58
435.03	20645.87
435.22	20657.57
435.41	21874.65
435.59	22288.92
435.78	22604.89
435.97	23075.34
436.16	22813.20
436.34	22565.10
436.53	22045.51
436.72	22324.03
436.90	21018.01
437.09	21303.56
437.28	21097.59
437.46	21884.01
437.65	21097.59
437.84	19269.63
438.02	18312.35
438.21	18712.58
438.40	19559.86
438.58	20606.08
438.77	21631.23
438.96	21701.45
439.14	22808.52
439.33	23360.89
439.52	23606.64
439.70	22508.93
439.89	21453.35
440.08	21593.78
440.26	22157.85
440.45	22918.53
440.63	24222.20
440.82	25673.34
441.01	24496.05
441.19	24627.12
441.38	25544.61
441.57	26354.43
441.75	26274.85
441.94	26604.87
442.12	26356.77
442.31	26773.39
442.50	26368.48
442.68	26087.61
442.87	25979.95
443.05	25607.80
443.24	26230.38
443.43	26651.68
443.61	27199.37
443.80	27520.02
443.98	26504.23
444.17	25905.05
444.35	27552.79
444.54	28313.46
444.73	27377.25
444.91	25926.11
445.10	24966.49
445.28	24182.42
445.47	23651.11
445.65	24552.22
445.84	25261.40
446.02	26059.52
446.21	26214.00
446.39	26419.97
446.58	26637.64
446.77	27592.58
446.95	27454.48
447.14	28245.58
447.32	28210.48
447.51	27728.33
447.69	26909.14
447.88	26789.77
448.06	27080.00
448.25	27225.11
448.43	27543.42
448.62	27190.00
448.80	26890.41
448.99	27094.04
449.17	27550.45
449.36	27927.27
449.54	28395.38
449.73	28919.66
449.91	29165.42
450.10	30167.16
450.28	30132.06
450.46	30391.86
450.65	30333.34
450.83	30216.32
451.02	29263.72
451.20	29600.76
451.39	29670.97
451.57	29329.25
451.76	29233.29
451.94	28566.24
452.13	28388.36
452.31	26490.18
452.49	25659.29
452.68	25895.69
452.86	26691.47
453.05	26852.97
453.23	28196.43
453.42	28416.44
453.60	29226.27
453.78	29053.07
453.97	28687.95
454.15	28102.81
454.34	27644.07
454.52	27559.81
454.70	27665.13
454.89	28606.03
455.07	27955.36
455.26	28547.51
455.44	29429.90
455.62	30511.22
455.81	29708.42
455.99	29802.04
456.17	30525.27
456.36	31009.76
456.54	31201.68
456.73	30146.10
456.91	30862.30
457.09	30955.93
457.28	32020.87
457.46	30246.74
457.64	30080.56
457.83	29699.06
458.01	29088.18
458.19	30139.08
458.38	30321.64
458.56	30658.68
458.74	30941.88
458.93	30047.80
459.11	30050.14
459.29	29394.79
459.48	30113.33
459.66	29570.33
459.84	30134.40
460.03	30532.29
460.21	30876.35
460.39	31484.89
460.57	31033.16
460.76	31299.98
460.94	31704.90
461.12	31807.88
461.31	31859.37
461.49	31665.11
461.67	31910.86
461.85	32158.96
462.04	32439.82
462.22	32336.84
462.40	31772.77
462.59	31850.01
462.77	31976.40
462.95	31409.99
463.13	31463.82
463.32	31393.61
463.50	30656.34
463.68	31358.50
463.86	31620.64
464.05	30764.00
464.23	29780.98
464.41	30913.80
464.59	30103.97
464.78	31627.66
464.96	31398.29
465.14	30529.95
465.32	32016.19
465.50	33027.30
465.69	33078.79
465.87	32215.13
466.05	31147.85
466.23	29867.58
466.41	29685.01
466.60	30426.96
466.78	30192.91
466.96	30712.51
467.14	31358.50
467.32	31559.78
467.51	31438.08
467.69	29677.99
467.87	30796.77
468.05	31232.11
468.23	31290.62
468.41	31417.01
468.60	31241.47
468.78	31992.78
468.96	31330.41
469.14	31749.37
469.32	31426.37
469.50	30450.37
469.69	30831.88
469.87	30689.10
470.05	30497.18
470.23	30597.82
470.41	30604.84
470.59	31068.27
470.77	30852.94
470.95	31995.12
471.14	32542.81
471.32	32818.99
471.50	33876.91
471.68	34206.93
471.86	35063.57
472.04	34089.90
472.22	33984.58
472.40	32528.77
472.58	32788.56
472.77	32364.93
472.95	33095.18
473.13	33961.17
473.31	32528.77
473.49	32606.00
473.67	33813.72
473.85	33926.07
474.03	35541.03
474.21	35510.61
474.39	35849.99
474.57	35211.02
474.75	35763.39
474.93	35236.77
475.12	34567.37
475.30	34670.36
475.48	34026.71
475.66	33802.02
475.84	33736.48
476.02	34330.98
476.20	33738.82
476.38	34749.93
476.56	35580.82
476.74	36549.81
476.92	36484.27
477.10	36137.87
477.28	37116.22
477.46	37624.11
477.64	37687.31
477.82	38953.54
478.00	38567.35
478.18	37392.40
478.36	37174.73
478.54	37696.67
478.72	38234.99
478.90	39746.98
479.08	41427.48
479.26	41177.04
479.44	41214.49
479.62	40116.78
479.80	41284.71
479.98	40844.69
480.16	41258.96
480.34	40163.59
480.52	41663.88
480.70	41883.89
480.88	41326.84
481.06	42115.60
481.24	42513.49
481.41	42939.47
481.59	44147.18
481.77	42820.10
481.95	42080.49
482.13	42057.09
482.31	42803.72
482.49	43428.64
482.67	42820.10
482.85	42628.18
483.03	43234.38
483.21	44378.90
483.39	43983.35
483.57	43182.88
483.74	43070.54
483.92	44720.62
484.10	44142.50
484.28	44252.51
484.46	44083.99
484.64	45933.01
484.82	44919.56
485.00	43751.63
485.18	43557.37
485.35	40924.27
485.53	36423.42
485.71	34717.17
485.89	34906.75
486.07	36957.06
486.25	39906.13
486.43	42808.40
486.61	42469.02
486.78	42462.00
486.96	43618.22
487.14	45336.18
487.32	45652.15
487.50	46763.90
487.68	48044.18
487.85	48989.75
488.03	47707.14
488.21	47489.47
488.39	47122.01
488.57	45783.22
488.75	45734.07
488.92	47683.73
489.10	49834.69
489.28	50590.68
489.46	52184.58
489.64	51608.81
489.81	52011.38
489.99	51065.81
490.17	51374.76
490.35	51288.16
490.53	50946.44
490.70	50497.06
490.88	50438.54
491.06	51688.39
491.24	51856.91
491.41	50651.53
491.59	49057.63
491.77	48865.70
491.95	50480.67
492.13	52191.61
492.30	52456.09
492.48	53073.99
492.66	53848.71
492.84	52959.30
493.01	52985.05
493.19	52659.71
493.37	51950.53
493.54	52374.17
493.72	53647.42
493.90	53799.55
494.08	54281.70
494.25	54375.33
494.43	54649.17
494.61	55377.08
494.79	55540.91
494.96	55744.54
495.14	55084.51
495.32	53734.02
495.49	53944.67
495.67	55023.65
495.85	55805.39
496.02	56430.32
496.20	55973.91
496.38	55847.52
496.55	55360.69
496.73	56317.97
496.91	56243.07
497.09	56011.36
497.26	56549.68
497.44	55889.65
497.62	55292.82
497.79	54389.37
497.97	53525.71
498.14	54494.69
498.32	55650.92
498.50	55618.15
498.67	55735.18
498.85	55894.33
499.03	56750.97
499.20	57027.15
499.38	56456.06
499.56	55590.06
499.73	55725.81
499.91	55255.37
500.08	54630.44
500.26	54078.08
500.44	55143.02
500.61	55599.43
500.79	55028.34
500.97	55423.89
501.14	53918.92
501.32	53956.37
501.49	54415.11
501.67	54555.55
501.84	55147.70
502.02	55746.88
502.20	56222.01
502.37	56647.99
502.55	56378.82
502.72	57151.20
502.90	57169.93
503.07	57179.29
503.25	55704.75
503.43	55042.38
503.60	54600.02
503.78	54794.28
503.95	54628.10
504.13	56317.97
504.30	56762.67
504.48	56116.68
504.65	56177.54
504.83	56556.70
505.01	57036.51
505.18	57602.92
505.36	57778.46
505.53	57867.40
505.71	58253.59
505.88	58326.15
506.06	57542.07
506.23	57312.70
506.41	57148.86
506.58	57455.47
506.76	57631.01
506.93	56818.84
507.11	56603.52
507.28	56963.96
507.46	56376.48
507.63	56257.12
507.81	55510.49
507.98	56198.60
508.16	57396.96
508.33	57350.15
508.50	57804.21
508.68	58272.32
508.85	58199.76
509.03	58714.68
509.20	57811.23
509.38	56828.21
509.55	56713.52
509.73	56821.19
509.90	57371.21
510.08	57528.03
510.25	57027.15
510.42	57045.88
510.60	57382.91
510.77	57975.07
510.95	57860.38
511.12	58136.57
511.30	58817.66
511.47	59079.80
511.64	59063.42
511.82	58911.28
511.99	57876.77
512.17	57808.89
512.34	57249.50
512.51	57265.89
512.69	57755.06
512.86	57345.47
513.04	57612.29
513.21	57237.80
513.38	56437.34
513.56	56095.62
513.73	55737.52
513.90	56729.90
514.08	56547.34
514.25	56142.43
514.43	56933.53
514.60	57338.44
514.77	57530.37
514.95	57301.00
515.12	57448.45
515.29	58080.39
515.47	58574.25
515.64	57984.43
515.81	57799.53
515.99	56680.75
516.16	54946.42
516.33	52287.57
516.51	52556.73
516.68	50742.81
516.85	49808.94
517.03	52210.33
517.20	54602.36
517.37	56584.79
517.54	57565.48
517.72	56205.62
517.89	53371.24
518.06	51784.35
518.24	53478.90
518.41	55061.10
518.58	55884.97
518.75	56095.62
518.93	56130.73
519.10	55531.55
519.27	56734.59
519.45	57235.46
519.62	57553.77
519.79	57719.95
519.96	57380.57
520.14	57071.62
520.31	55789.01
520.48	56093.28
520.65	57078.64
520.83	57986.77
521.00	57811.23
521.17	57258.87
521.34	57326.74
521.52	58012.52
521.69	58075.71
521.86	58431.47
522.03	58225.51
522.20	56339.04
522.38	56023.06
522.55	56643.30
522.72	57069.28
522.89	56706.50
523.07	57525.69
523.24	57738.68
523.41	58913.62
523.58	59037.67
523.75	59372.37
523.92	58979.16
524.10	58424.45
524.27	58356.58
524.44	58101.46
524.61	57937.62
524.78	58312.11
524.96	58181.04
525.13	58326.15
525.30	59028.31
525.47	58932.35
525.64	58672.55
525.81	57836.98
525.98	55817.10
526.16	54756.83
526.33	55313.88
526.50	54431.50
526.67	54525.12
526.84	55077.49
527.01	56074.55
527.18	56699.48
527.36	57490.58
527.53	58592.97
527.70	57574.84
527.87	56493.51
528.04	57649.74
528.21	58117.84
528.38	58653.82
528.55	59433.22
528.72	59138.32
528.89	58876.18
529.07	58571.91
529.24	57366.53
529.41	57336.10
529.58	57329.08
529.75	58094.44
529.92	58576.59
530.09	58134.23
530.26	58731.06
530.43	59751.54
530.60	58571.91
530.77	59037.67
530.94	59306.83
531.11	58527.44
531.28	58791.92
531.46	58789.58
531.63	58672.55
531.80	58014.86
531.97	57382.91
532.14	57528.03
532.31	56074.55
532.48	55295.16
532.65	55721.13
532.82	56399.89
532.99	57958.69
533.16	58007.84
533.33	58169.33
533.50	58562.54
533.67	58520.41
533.84	57310.36
534.01	57717.61
534.18	58054.65
534.35	57888.47
534.52	57116.09
534.69	57818.25
534.86	58436.16
535.03	58546.16
535.20	58482.97
535.37	59473.01
535.54	59611.10
535.71	59208.53
535.88	59124.27
536.05	58145.93
536.22	57361.85
536.38	57118.43
536.55	56090.94
536.72	55810.07
536.89	56949.92
537.06	57010.77
537.23	57434.41
537.40	57715.27
537.57	57462.49
537.74	57841.66
537.91	57708.25
538.08	57490.58
538.25	57434.41
538.42	58354.24
538.59	57616.97
538.75	56748.63
538.92	56238.39
539.09	56720.54
539.26	56580.11
539.43	56598.83
539.60	56860.97
539.77	57406.32
539.94	57017.79
540.11	56156.47
540.28	55774.97
540.44	55341.97
540.61	55199.19
540.78	56069.87
540.95	56919.49
541.12	56896.08
541.29	57539.73
541.46	57602.92
541.62	57584.20
541.79	56788.42
541.96	55948.17
542.13	55952.85
542.30	56463.08
542.47	57066.94
542.63	56657.35
542.80	56481.81
542.97	55990.30
543.14	55969.23
543.31	55927.10
543.48	57523.35
543.64	57724.63
543.81	58651.48
543.98	58335.51
544.15	56676.07
544.32	57425.04
544.48	56851.61
544.65	56870.34
544.82	57584.20
544.99	56044.13
545.16	55611.13
545.32	56013.70
545.49	56748.63
545.66	56683.09
545.83	56828.21
546.00	57233.12
546.16	57038.86
546.33	56790.76
546.50	57041.20
546.67	57623.99
546.83	56603.52
547.00	56905.44
547.17	55987.95
547.34	54974.50
547.50	55311.54
547.67	56299.25
547.84	57073.96
548.00	57116.09
548.17	56750.97
548.34	57048.22
548.51	57263.55
548.67	57855.70
548.84	57418.02
549.01	57226.10
549.18	56647.99
549.34	56748.63
549.51	56947.57
549.68	56797.78
549.84	56498.19
550.01	56203.28
550.18	55711.77
550.34	55889.65
550.51	56360.10
550.68	56762.67
550.84	56673.73
551.01	55758.58
551.18	55814.76
551.34	55217.92
551.51	56437.34
551.68	56467.76
551.84	56622.24
552.01	56413.93
552.18	55889.65
552.34	55288.13
552.51	55330.26
552.68	55166.43
552.84	55402.82
553.01	55356.01
553.18	56566.07
553.34	56619.90
553.51	56381.16
553.67	56025.40
553.84	55751.56
554.01	56041.79
554.17	55494.10
554.34	56353.08
554.51	56238.39
554.67	55585.38
554.84	55318.56
555.00	55295.16
555.17	55547.93
555.33	55121.96
555.50	54703.00
555.67	55501.12
555.83	55571.34
556.00	55323.24
556.16	54691.30
556.33	54370.64
556.50	55082.17
556.66	55531.55
556.83	54684.28
556.99	54183.40
557.16	54712.36
557.32	54747.47
557.49	54901.95
557.65	54262.98
557.82	55348.99
557.98	55622.83
558.15	54389.37
558.32	53462.52
558.48	52945.26
558.65	52973.34
558.81	53404.00
558.98	54351.92
559.14	54593.00
559.31	54475.97
559.47	53731.68
559.64	53485.92
559.80	52938.24
559.97	53858.07
560.13	54831.73
560.30	55875.61
560.46	56030.08
560.63	56301.59
560.79	56013.70
560.96	55484.74
561.12	53890.83
561.29	53605.29
561.45	53595.93
561.61	55042.38
561.78	54096.80
561.94	54756.83
562.11	54843.43
562.27	53827.64
562.44	54518.10
562.60	54845.77
562.77	55201.53
562.93	53869.77
563.10	53947.01
563.26	53738.70
563.42	54873.86
563.59	53979.78
563.75	53766.79
563.92	53881.47
564.08	53216.76
564.24	54040.63
564.41	53427.41
564.57	54122.55
564.74	54054.67
564.90	53209.74
565.07	53485.92
565.23	52540.35
565.39	52055.85
565.56	52423.32
565.72	52912.49
565.88	51157.09
566.05	53698.91
566.21	53715.29
566.38	53469.54
566.54	53694.23
566.70	53811.26
566.87	53874.45
567.03	53256.55
567.19	54316.81
567.36	54466.61
567.52	53439.11
567.68	52966.32
567.85	51973.94
568.01	51983.30
568.17	52685.46
568.34	53481.24
568.50	52966.32
568.66	52987.39
568.83	52165.86
568.99	51901.38
569.15	52179.90
569.32	52811.85
569.48	51814.78
569.64	51664.99
569.81	51896.70
569.97	51730.52
570.13	50990.91
570.30	50562.59
570.46	49888.52
570.62	48788.47
570.78	49127.84
570.95	50443.23
571.11	50326.20
571.27	49607.65
571.43	50433.86
571.60	49965.76
571.76	51339.65
571.92	51503.49
572.09	52346.08
572.25	52317.99
572.41	53139.52
572.57	52547.37
572.74	52776.74
572.90	53563.16
573.06	52378.85
573.22	53109.10
573.38	52456.09
573.55	53703.59
573.71	52437.36
573.87	52587.16
574.03	52439.70
574.20	51676.69
574.36	51889.68
574.52	50960.48
574.68	50784.94
574.84	50045.33
575.01	50223.22
575.17	51129.00
575.33	50740.47
575.49	50955.80
575.65	50082.78
575.82	50679.62
575.98	50099.17
576.14	50831.75
576.30	51810.10
576.46	50340.24
576.62	50578.98
576.79	50333.22
576.95	50248.96
577.11	50857.50
577.27	50784.94
577.43	51388.80
577.59	49785.54
577.75	48655.06
577.92	48793.15
578.08	49291.68
578.24	50110.87
578.40	49720.00
578.56	48830.60
578.72	49212.10
578.88	49045.93
579.04	49820.64
579.21	48814.21
579.37	49684.89
579.53	50080.44
579.69	49287.00
579.85	49464.88
580.01	49434.45
580.17	49235.51
580.33	49907.24
580.49	50071.08
580.65	48142.48
580.82	49312.75
580.98	50134.28
581.14	50529.83
581.30	50141.30
581.46	49364.24
581.62	49689.57
581.78	50375.35
581.94	50857.50
582.10	50808.35
582.26	50637.49
582.42	50923.04
582.58	48839.96
582.74	49034.22
582.90	49256.57
583.06	49607.65
583.22	49748.09
583.38	49801.92
583.54	50312.16
583.70	50557.91
583.86	49794.90
584.02	49925.97
584.18	49244.87
584.34	48692.50
584.50	48184.61
584.66	48442.07
584.82	48531.01
584.98	48949.96
585.14	48348.45
585.30	48486.54
