SpectraSuite Data File
++++++++++++++++++++++++++++++++++++
Date: Mon Oct 07 14:53:37 GMT-05:00 2013
User: price-jones
Dark Spectrum Present: No
Reference Spectrum Present: No
Number of Sampled Component Spectra: 1
Spectrometers: USB2+H05261
Integration Time (usec): 100000 (USB2+H05261)
Spectra Averaged: 1 (USB2+H05261)
Boxcar Smoothing: 0 (USB2+H05261)
Correct for Electrical Dark: No (USB2+H05261)
Strobe/Lamp Enabled: No (USB2+H05261)
Correct for Detector Non-linearity: No (USB2+H05261)
Correct for Stray Light: No (USB2+H05261)
Number of Pixels in Processed Spectrum: 2048
>>>>>Begin Processed Spectral Data<<<<<
365.73	0.00
365.92	0.00
366.12	0.00
366.32	0.00
366.52	0.00
366.72	0.00
366.91	0.00
367.11	0.00
367.31	0.00
367.51	0.00
367.70	0.00
367.90	0.00
368.10	0.00
368.30	0.00
368.49	0.00
368.69	0.00
368.89	0.00
369.09	0.00
369.28	0.00
369.48	0.00
369.68	0.00
369.87	0.00
370.07	0.00
370.27	0.00
370.47	610.88
370.66	3176.11
370.86	3693.37
371.06	4114.66
371.25	4168.49
371.45	3808.05
371.65	3459.31
371.84	3211.22
372.04	3293.13
372.24	3709.75
372.44	3943.80
372.63	3779.97
372.83	3588.04
373.03	3183.13
373.22	2909.29
373.42	3047.38
373.62	3522.51
373.81	3840.82
374.01	3962.53
374.21	3494.42
374.40	3239.30
374.60	3372.71
374.79	3772.94
374.99	4315.95
375.19	4809.80
375.38	4681.07
375.58	4414.25
375.78	4311.27
375.97	4269.14
376.17	4676.39
376.37	4444.68
376.56	4844.91
376.76	4964.28
376.95	5247.48
377.15	5633.67
377.35	5785.80
377.54	6047.94
377.74	6239.87
377.93	6338.17
378.13	6333.49
378.33	6064.33
378.52	5481.53
378.72	5156.20
378.91	5177.26
379.11	4936.19
379.31	4784.06
379.50	4788.74
379.70	5125.77
379.89	5689.84
380.09	5818.57
380.28	6148.59
380.48	6186.04
380.68	6164.97
380.87	5816.23
381.07	5392.59
381.26	5146.84
381.46	4734.90
381.65	4594.47
381.85	4578.09
382.04	4334.67
382.24	3934.44
382.43	3721.45
382.63	3658.26
382.83	3829.12
383.02	3712.09
383.22	3761.24
383.41	3810.39
383.61	3875.93
383.80	4645.96
384.00	5224.08
384.19	5788.14
384.39	6157.95
384.58	6207.10
384.78	6071.35
384.97	6059.65
385.17	5572.82
385.36	5390.25
385.56	5057.90
385.75	5327.06
385.95	5905.17
386.14	6342.85
386.34	6160.29
386.53	6003.47
386.72	5689.84
386.92	5841.98
387.11	6115.82
387.31	6216.46
387.50	6216.46
387.70	6099.44
387.89	6038.58
388.09	6001.13
388.28	6017.52
388.48	6181.35
388.67	6534.78
388.86	7353.96
389.06	7730.79
389.25	8114.64
389.45	8271.45
389.64	8241.03
389.84	8252.73
390.03	8009.31
390.22	8088.89
390.42	8273.79
390.61	8741.90
390.81	9259.16
391.00	9640.67
391.19	9392.57
391.39	9102.34
391.58	8854.25
391.78	8093.57
391.97	7943.78
392.16	7461.63
392.36	6881.18
392.55	5411.32
392.75	4376.80
392.94	3463.99
393.13	3316.54
393.33	4107.64
393.52	5135.14
393.71	6396.68
393.91	7360.98
394.10	7730.79
394.29	8564.02
394.49	9446.40
394.68	10015.15
394.88	9980.04
395.07	10469.22
395.26	10303.04
395.46	10122.82
395.65	9254.48
395.84	8465.72
396.04	6946.71
396.23	5736.65
396.42	4753.63
396.62	4561.70
396.81	5151.52
397.00	6871.81
397.19	8524.23
397.39	10120.48
397.58	11325.85
397.77	12198.87
397.97	12629.53
398.16	12659.96
398.35	12896.35
398.55	13343.39
398.74	13933.21
398.93	14387.27
399.12	14347.48
399.32	13493.19
399.51	13865.33
399.70	14780.48
399.90	14485.58
400.09	14899.85
400.28	14546.43
400.47	14574.52
400.67	15651.16
400.86	15789.25
401.05	15948.41
401.24	15669.89
401.44	16386.09
401.63	16009.26
401.82	16287.79
402.01	16102.89
402.21	16713.77
402.40	16514.82
402.59	16102.89
402.78	15496.69
402.97	14953.68
403.17	15410.09
403.36	16067.78
403.55	16882.28
403.74	17511.89
403.93	16592.06
404.13	15578.61
404.32	14965.39
404.51	15569.24
404.70	17090.59
404.89	16943.14
405.09	16549.93
405.28	16196.51
405.47	16177.78
405.66	16142.67
405.85	15782.23
406.05	15000.49
406.24	15489.67
406.43	16386.09
406.62	16788.66
406.81	17088.25
407.00	15695.63
407.20	15679.25
407.39	16077.14
407.58	17062.51
407.77	17483.80
407.96	17898.08
408.15	17968.29
408.34	17982.34
408.54	18897.49
408.73	19044.94
408.92	18792.16
409.11	18188.30
409.30	17514.23
409.49	16456.31
409.68	15433.49
409.87	14801.55
410.07	15613.71
410.26	17043.78
410.45	18101.70
410.64	18544.06
410.83	19218.14
411.02	19667.52
411.21	20477.35
411.40	19875.83
411.59	20168.40
411.78	19983.49
411.98	19917.96
412.17	20332.23
412.36	19630.07
412.55	20116.90
412.74	19374.95
412.93	18972.38
413.12	19105.79
413.31	20765.23
413.50	20957.16
413.69	21352.71
413.88	21003.97
414.07	20233.93
414.26	20702.04
414.45	20786.30
414.64	21308.24
414.83	21221.64
415.02	20900.98
415.22	20617.78
415.41	21200.57
415.60	22015.08
415.79	22974.70
415.98	23201.73
416.17	23384.29
416.36	23047.26
416.55	22569.79
416.74	21909.75
416.93	21095.25
417.12	20718.42
417.31	21366.75
417.50	21729.53
417.69	22382.54
417.88	22204.66
418.07	21802.09
418.26	21792.73
418.45	21912.10
418.64	22710.22
418.83	23747.08
419.02	23379.61
419.21	23171.30
419.39	21951.88
419.58	20982.90
419.77	20936.09
419.96	22064.23
420.15	23386.63
420.34	23555.15
420.53	24659.88
420.72	24989.90
420.91	25020.33
421.10	24746.48
421.29	24655.20
421.48	23330.46
421.67	24678.61
421.86	24388.38
422.05	22628.30
422.24	20063.07
422.43	19838.38
422.61	21844.22
422.80	23887.51
422.99	23913.25
423.18	22958.31
423.37	22560.42
423.56	22553.40
423.75	22984.06
423.94	23651.11
424.13	22317.01
424.32	22345.09
424.50	22623.62
424.69	22026.78
424.88	22298.28
425.07	22396.59
425.26	22188.28
425.45	22136.79
425.64	21626.55
425.83	21432.29
426.01	22764.05
426.20	23431.10
426.39	23407.70
426.58	21666.34
426.77	19960.09
426.96	19599.65
427.15	20109.88
427.33	21376.11
427.52	22581.49
427.71	22295.94
427.90	21865.28
428.09	22230.41
428.28	21736.56
428.46	21081.21
428.65	20425.86
428.84	21205.25
429.03	21701.45
429.22	20306.49
429.40	19288.35
429.59	17624.23
429.78	15300.08
429.97	15311.78
430.16	15735.42
430.34	15941.39
430.53	16025.65
430.72	16053.73
430.91	17860.63
431.10	21167.80
431.28	24900.96
431.47	26611.89
431.66	27016.80
431.85	24910.32
432.03	22740.64
432.22	21687.40
432.41	22427.01
432.60	24680.95
432.79	25958.88
432.97	26565.08
433.16	26249.11
433.35	23880.49
433.54	21308.24
433.72	19971.79
433.91	20854.17
434.10	23138.54
434.28	24638.82
434.47	26118.04
434.66	25816.11
434.85	25165.44
435.03	24952.45
435.22	25207.57
435.41	27075.32
435.59	26799.13
435.78	27395.97
435.97	27983.44
436.16	28231.54
436.34	27473.21
436.53	27470.87
436.72	27438.10
436.90	25862.92
437.09	25879.30
437.28	25549.29
437.46	26251.45
437.65	26471.46
437.84	24807.34
438.02	22434.03
438.21	22448.08
438.40	23564.51
438.58	25853.56
438.77	26155.49
438.96	26426.99
439.14	27527.04
439.33	28215.16
439.52	28863.49
439.70	28580.28
439.89	27475.55
440.08	26604.87
440.26	26670.40
440.45	27372.57
440.63	28924.34
440.82	31112.74
441.01	30579.10
441.19	30099.29
441.38	30445.69
441.57	31728.30
441.75	32191.73
441.94	32369.61
442.12	31683.83
442.31	32863.46
442.50	32704.31
442.68	32275.99
442.87	31765.75
443.05	31711.92
443.24	31725.96
443.43	32421.10
443.61	32985.17
443.80	33329.23
443.98	31826.60
444.17	31814.90
444.35	33617.11
444.54	33773.93
444.73	33813.72
444.91	32224.50
445.10	31346.79
445.28	29748.21
445.47	29259.04
445.65	29198.18
445.84	30267.81
446.02	31239.13
446.21	31658.09
446.39	31969.38
446.58	32079.38
446.77	32725.37
446.95	33039.00
447.14	34073.52
447.32	34307.57
447.51	33809.04
447.69	32701.96
447.88	32051.30
448.06	32301.73
448.25	33315.19
448.43	33750.52
448.62	33160.71
448.80	32568.55
448.99	32893.89
449.17	33371.36
449.36	33439.23
449.54	34338.00
449.73	35185.27
449.91	35442.73
450.10	36694.92
450.28	36821.31
450.46	36643.43
450.65	36650.45
450.83	36392.99
451.02	35543.38
451.20	35754.02
451.39	35534.01
451.57	35026.12
451.76	35419.33
451.94	35126.76
452.13	34518.22
452.31	32519.40
452.49	31185.30
452.68	32037.25
452.86	31873.42
453.05	32161.30
453.23	33521.15
453.42	33743.50
453.60	34969.94
453.78	35171.23
453.97	34864.62
454.15	34689.08
454.34	33989.26
454.52	34464.39
454.70	33661.58
454.89	33771.59
455.07	34326.30
455.26	34169.48
455.44	35534.01
455.62	36409.37
455.81	36306.39
455.99	36507.68
456.17	36027.87
456.36	35622.95
456.54	36746.41
456.73	37507.08
456.91	37617.09
457.09	37418.14
457.28	38384.79
457.46	37099.83
457.64	36844.71
457.83	35793.81
458.01	34668.02
458.19	35866.37
458.38	35665.08
458.56	37195.79
458.74	37284.73
458.93	36140.21
459.11	36116.81
459.29	35697.85
459.48	36093.40
459.66	36451.50
459.84	36067.66
460.03	36725.35
460.21	36575.55
460.39	37687.31
460.57	37596.03
460.76	38389.47
460.94	38354.36
461.12	37544.53
461.31	37769.22
461.49	37942.42
461.67	37750.50
461.85	38803.74
462.04	38747.57
462.22	39236.74
462.40	38911.41
462.59	38581.39
462.77	38726.50
462.95	38593.09
463.13	38174.14
463.32	38277.12
463.50	37797.31
463.68	38103.92
463.86	38017.32
464.05	37453.25
464.23	36627.04
464.41	36196.38
464.59	35688.49
464.78	37675.60
464.96	37663.90
465.14	37083.45
465.32	37811.35
465.50	38993.32
465.69	39321.00
465.87	38272.44
466.05	37343.25
466.23	36093.40
466.41	34930.16
466.60	36121.49
466.78	35941.27
466.96	36528.74
467.14	37359.63
467.32	37565.60
467.51	37832.42
467.69	36074.68
467.87	36865.78
468.05	37347.93
468.23	37607.73
468.41	37539.85
468.60	37804.33
468.78	38162.43
468.96	37261.33
469.14	38464.36
469.32	38630.54
469.50	36886.84
469.69	36690.24
469.87	36641.09
470.05	36430.44
470.23	36498.31
470.41	36547.47
470.59	36847.05
470.77	37247.29
470.95	38089.88
471.14	38618.84
471.32	38724.16
471.50	40481.91
471.68	40580.21
471.86	40662.13
472.04	41067.04
472.22	41439.18
472.40	39641.65
472.58	38794.38
472.77	38520.54
472.95	39461.43
473.13	40479.57
473.31	39431.01
473.49	39728.25
473.67	39950.60
473.85	40741.71
474.03	41752.82
474.21	41530.47
474.39	41937.72
474.57	42412.85
474.75	42653.92
474.93	42073.47
475.12	41132.57
475.30	41045.97
475.48	41647.49
475.66	41811.33
475.84	41359.61
476.02	40648.08
476.20	40699.58
476.38	41170.02
476.56	42253.69
476.74	42499.45
476.92	43157.14
477.10	43908.45
477.28	45013.18
477.46	44816.58
477.64	45254.26
477.82	45315.11
478.00	45635.77
478.18	45052.97
478.36	44617.63
478.54	44715.93
478.72	44704.23
478.90	45839.39
479.08	47007.32
479.26	47920.13
479.44	47580.75
479.62	47019.02
479.80	47124.35
479.98	47627.56
480.16	47559.69
480.34	47061.15
480.52	47833.53
480.70	47758.63
480.88	47669.69
481.06	48772.08
481.24	48821.23
481.41	49727.02
481.59	50127.25
481.77	49808.94
481.95	49483.61
482.13	49418.07
482.31	49659.15
482.49	50319.18
482.67	49820.64
482.85	50068.74
483.03	50373.01
483.21	50946.44
483.39	51178.15
483.57	50344.92
483.74	50087.46
483.92	50347.26
484.10	50508.76
484.28	51000.27
484.46	51576.04
484.64	51742.22
484.82	51379.44
485.00	50773.24
485.18	50321.52
485.35	48718.25
485.53	45890.88
485.71	42249.01
485.89	41406.42
486.07	43356.08
486.25	46974.55
486.43	49102.10
486.61	50190.45
486.78	49764.47
486.96	49708.30
487.14	51676.69
487.32	52498.22
487.50	52750.99
487.68	53696.57
487.85	54143.61
488.03	54412.77
488.21	53769.13
488.39	53469.54
488.57	52772.06
488.75	52404.59
488.92	53284.64
489.10	55082.17
489.28	56116.68
489.46	56865.66
489.64	56727.56
489.81	57036.51
489.99	56507.55
490.17	56577.77
490.35	56985.02
490.53	56734.59
490.70	56460.74
490.88	56102.64
491.06	57020.13
491.24	56875.02
491.41	56051.15
491.59	55016.63
491.77	53975.09
491.95	55025.99
492.13	55978.59
492.30	56992.04
492.48	57829.96
492.66	58216.14
492.84	58202.10
493.01	57916.56
493.19	57499.94
493.37	57272.91
493.54	56942.89
493.72	57581.86
493.90	58410.41
494.08	59159.38
494.25	59379.39
494.43	59309.18
494.61	59814.73
494.79	60051.12
494.96	59742.17
495.14	59126.61
495.32	58389.34
495.49	57804.21
495.67	58855.11
495.85	60055.81
496.02	60257.09
496.20	60205.60
496.38	59798.35
496.55	59838.14
496.73	60076.87
496.91	60233.69
497.09	60968.61
497.26	60853.93
497.44	60467.74
497.62	59983.25
497.79	59503.44
497.97	58213.80
498.14	58120.18
498.32	59508.12
498.50	60107.30
498.67	60748.60
498.85	60439.65
499.03	60598.81
499.20	60774.35
499.38	60992.02
499.56	60779.03
499.73	60378.80
499.91	60046.44
500.08	59571.32
500.26	58770.85
500.44	59079.80
500.61	59898.99
500.79	59798.35
500.97	59550.25
501.14	59501.10
501.32	59208.53
501.49	59098.53
501.67	59386.41
501.84	59838.14
502.02	59990.27
502.20	60339.01
502.37	60381.14
502.55	60519.23
502.72	61200.33
502.90	61408.64
503.07	61134.79
503.25	60823.50
503.43	60025.38
503.60	59489.40
503.78	58869.15
503.95	59288.11
504.13	60484.12
504.30	61371.19
504.48	61155.86
504.65	60711.16
504.83	60786.05
505.01	61413.32
505.18	61628.65
505.36	62323.78
505.53	62258.25
505.71	62548.48
505.88	62494.64
506.06	62012.49
506.23	61712.91
506.41	61258.84
506.58	61574.81
506.76	61499.92
506.93	61464.81
507.11	61298.63
507.28	61549.07
507.46	61137.13
507.63	60521.57
507.81	60196.24
507.98	60554.34
508.16	61097.34
508.33	61605.24
508.50	61965.68
508.68	62253.57
508.85	62300.38
509.03	62489.96
509.20	62522.73
509.38	61827.59
509.55	61212.03
509.73	61310.33
509.90	61860.36
510.08	62246.55
510.25	61932.92
510.42	61694.18
510.60	61820.57
510.77	61890.79
510.95	62248.89
511.12	62436.13
511.30	62873.81
511.47	62944.03
511.64	62944.03
511.82	62756.78
511.99	62068.67
512.17	61661.41
512.34	61317.35
512.51	61343.10
512.69	61549.07
512.86	61567.79
513.04	62092.07
513.21	62073.35
513.38	61588.86
513.56	61226.07
513.73	60690.09
513.90	61003.72
514.08	60963.93
514.25	61263.52
514.43	61691.84
514.60	61511.62
514.77	61614.60
514.95	61755.03
515.12	61638.01
515.29	61759.72
515.47	62274.63
515.64	62518.05
515.81	62166.97
515.99	61633.33
516.16	60334.33
516.33	58321.47
516.51	56825.87
516.68	56282.86
516.85	56060.51
517.03	56369.46
517.20	58681.91
517.37	60823.50
517.54	61804.19
517.72	61410.98
517.89	59241.30
518.06	57092.69
518.24	57329.08
518.41	59264.70
518.58	60654.98
518.75	60647.96
518.93	60959.25
519.10	60612.85
519.27	60931.17
519.45	61240.12
519.62	62040.58
519.79	62094.41
519.96	61975.05
520.14	61790.14
520.31	61106.71
520.48	60879.67
520.65	61279.91
520.83	62096.75
521.00	62377.62
521.17	62099.09
521.34	61916.53
521.52	61972.70
521.69	62740.40
521.86	63039.99
522.03	62616.35
522.20	61394.59
522.38	60626.90
522.55	60678.39
522.72	61202.67
522.89	61305.65
523.07	61661.41
523.24	61708.22
523.41	62623.37
523.58	62838.70
523.75	63332.56
523.92	63079.78
524.10	63044.67
524.27	63157.02
524.44	62993.18
524.61	62658.48
524.78	62480.60
524.96	62471.24
525.13	62700.61
525.30	62632.74
525.47	63262.34
525.64	63196.80
525.81	62361.23
525.98	61160.54
526.16	59898.99
526.33	59330.24
526.50	58988.52
526.67	58712.34
526.84	59302.15
527.01	59959.84
527.18	60970.96
527.36	61577.15
527.53	62267.61
527.70	62749.76
527.87	62047.60
528.04	61607.58
528.21	62035.90
528.38	62665.50
528.55	63327.87
528.72	63496.39
528.89	63746.83
529.07	63370.00
529.24	62845.72
529.41	62171.65
529.58	61626.31
529.75	61567.79
529.92	62204.42
530.09	62674.87
530.26	62922.96
530.43	63161.70
530.60	63377.03
530.77	63458.94
530.94	63702.36
531.11	63187.44
531.28	62794.23
531.46	62829.34
531.63	62827.00
531.80	62731.04
531.97	62351.87
532.14	61740.99
532.31	60753.29
532.48	60247.73
532.65	60224.32
532.82	60837.54
532.99	62073.35
533.16	62279.31
533.33	62937.01
533.50	62595.29
533.67	62127.18
533.84	61497.58
534.01	61935.26
534.18	62094.41
534.35	62403.36
534.52	62075.69
534.69	62349.53
534.86	62644.44
535.03	62843.38
535.20	63227.23
535.37	63524.48
535.54	63613.42
535.71	63238.93
535.88	62990.84
536.05	62396.34
536.22	62059.30
536.38	61752.69
536.55	61371.19
536.72	60975.64
536.89	60790.73
537.06	61647.37
537.23	62466.56
537.40	62642.10
537.57	62621.03
537.74	62363.57
537.91	62410.38
538.08	62260.59
538.25	62244.21
538.42	62562.52
538.59	62550.82
538.75	61829.93
538.92	61661.41
539.09	61460.13
539.26	61233.10
539.43	61120.75
539.60	61202.67
539.77	61298.63
539.94	61279.91
540.11	60521.57
540.28	59910.69
540.44	60009.00
540.61	60271.14
540.78	60736.90
540.95	60992.02
541.12	61387.57
541.29	61506.94
541.46	61743.33
541.62	61818.23
541.79	61715.25
541.96	61240.12
542.13	61293.95
542.30	61474.17
542.47	61726.95
542.63	61441.40
542.80	60963.93
542.97	61174.58
543.14	61282.25
543.31	61188.63
543.48	61755.03
543.64	62569.54
543.81	62581.24
543.98	62520.39
544.15	61834.61
544.32	61516.30
544.48	61275.22
544.65	61949.30
544.82	62166.97
544.99	61755.03
545.16	61544.39
545.32	61392.25
545.49	61921.21
545.66	62401.02
545.83	62085.05
546.00	61549.07
546.16	61331.40
546.33	61614.60
546.50	61574.81
546.67	61839.29
546.83	61497.58
547.00	61539.71
547.17	60994.36
547.34	60470.08
547.50	60210.28
547.67	60823.50
547.84	60809.46
548.00	61146.50
548.17	61591.20
548.34	61511.62
548.51	61478.85
548.67	61570.13
548.84	61661.41
549.01	61616.94
549.18	61553.75
549.34	61471.83
549.51	61345.44
549.68	61322.04
549.84	61034.15
550.01	61095.00
550.18	60886.70
550.34	60877.33
550.51	61078.62
550.68	61167.56
550.84	60692.43
551.01	60608.17
551.18	60844.57
551.34	61139.47
551.51	61333.74
551.68	61509.28
551.84	61623.96
552.01	61340.76
552.18	61169.90
552.34	60552.00
552.51	60114.32
552.68	59950.48
552.84	60526.25
553.01	60746.26
553.18	60776.69
553.34	60856.27
553.51	60919.46
553.67	61038.83
553.84	61436.72
554.01	61144.16
554.17	60839.89
554.34	61233.10
554.51	61162.88
554.67	61221.39
554.84	61291.61
555.00	61036.49
555.17	60676.05
555.33	60931.17
555.50	60750.94
555.67	60566.04
555.83	60753.29
556.00	60287.52
556.16	60200.92
556.33	59966.87
556.50	59845.16
556.66	59856.86
556.83	59447.27
556.99	59718.77
557.16	59959.84
557.32	60271.14
557.49	60371.78
557.65	60207.94
557.82	60367.10
557.98	60140.07
558.15	59723.45
558.32	58948.73
558.48	58131.89
558.65	58529.78
558.81	58876.18
558.98	59049.38
559.14	59173.42
559.31	59489.40
559.47	59150.02
559.64	59000.22
559.80	58660.85
559.97	58684.25
560.13	59241.30
560.30	59814.73
560.46	60430.29
560.63	60687.75
560.79	60552.00
560.96	60346.03
561.12	59079.80
561.29	58227.85
561.45	58494.67
561.61	59056.40
561.78	59348.96
561.94	59374.71
562.11	59128.95
562.27	58965.12
562.44	59440.24
562.60	59669.62
562.77	59723.45
562.93	59763.24
563.10	59599.40
563.26	59201.51
563.42	59063.42
563.59	58958.09
563.75	59070.44
563.92	59049.38
564.08	58850.43
564.24	59171.08
564.41	59447.27
564.57	59253.00
564.74	59023.63
564.90	58934.69
565.07	58885.54
565.23	58440.84
565.39	58227.85
565.56	57916.56
565.72	57499.94
565.88	58038.26
566.05	57989.11
566.21	58234.87
566.38	58499.35
566.54	58548.50
566.70	58700.64
566.87	58934.69
567.03	59030.65
567.19	59229.60
567.36	58953.41
567.52	58834.05
567.68	58754.47
567.85	58042.95
568.01	57904.85
568.17	57247.16
568.34	57312.70
568.50	57427.38
568.66	57439.09
568.83	58000.82
568.99	57853.36
569.15	58078.05
569.32	58073.37
569.48	57839.32
569.64	57708.25
569.81	57408.66
569.97	57237.80
570.13	57532.71
570.30	56727.56
570.46	56343.72
570.62	56158.81
570.78	55686.03
570.95	55835.82
571.11	56769.69
571.27	56999.07
571.43	57148.86
571.60	57411.00
571.76	57614.63
571.92	57836.98
572.09	57968.05
572.25	57925.92
572.41	57986.77
572.57	57677.82
572.74	57914.22
572.90	57286.95
573.06	57403.98
573.22	57490.58
573.38	57478.88
573.55	57471.85
573.71	57638.03
573.87	57389.94
574.03	57258.87
574.20	57270.57
574.36	57193.33
574.52	56985.02
574.68	56851.61
574.84	56540.32
575.01	56126.05
575.17	55913.06
575.33	56285.20
575.49	56662.03
575.65	56547.34
575.82	56313.29
575.98	56205.62
576.14	56456.06
576.30	56598.83
576.46	56678.41
576.62	56933.53
576.79	56573.09
576.95	56339.04
577.11	56299.25
577.27	56416.27
577.43	56484.15
577.59	56156.47
577.75	55931.78
577.92	55255.37
578.08	55173.45
578.24	55084.51
578.40	55501.12
578.56	55594.74
578.72	55545.59
578.88	55533.89
579.04	55688.37
579.21	55856.88
579.37	55938.80
579.53	56214.99
579.69	55987.95
579.85	56280.52
580.01	56093.28
580.17	55561.98
580.33	55833.48
580.49	55664.96
580.65	56009.02
580.82	56119.02
580.98	56200.94
581.14	56044.13
581.30	55994.98
581.46	55906.04
581.62	56126.05
581.78	56086.26
581.94	56308.61
582.10	56467.76
582.26	56226.69
582.42	56126.05
582.58	56184.56
582.74	55987.95
582.90	56229.03
583.06	56245.41
583.22	55922.42
583.38	55896.67
583.54	55913.06
583.70	55817.10
583.86	55889.65
584.02	55767.94
584.18	55868.59
584.34	55730.50
584.50	55753.90
584.66	55629.85
584.82	55117.28
584.98	55341.97
585.14	54979.18
