SpectraSuite Data File
++++++++++++++++++++++++++++++++++++
Date: Mon Oct 07 14:54:58 GMT-05:00 2013
User: price-jones
Dark Spectrum Present: No
Reference Spectrum Present: No
Number of Sampled Component Spectra: 1
Spectrometers: USB2+H05261
Integration Time (usec): 10000 (USB2+H05261)
Spectra Averaged: 1 (USB2+H05261)
Boxcar Smoothing: 0 (USB2+H05261)
Correct for Electrical Dark: No (USB2+H05261)
Strobe/Lamp Enabled: No (USB2+H05261)
Correct for Detector Non-linearity: No (USB2+H05261)
Correct for Stray Light: No (USB2+H05261)
Number of Pixels in Processed Spectrum: 2048
>>>>>Begin Processed Spectral Data<<<<<
365.73	0.00
365.92	0.00
366.12	0.00
366.32	0.00
366.52	0.00
366.72	0.00
366.91	0.00
367.11	0.00
367.31	0.00
367.51	0.00
367.70	0.00
367.90	0.00
368.10	0.00
368.30	0.00
368.49	0.00
368.69	0.00
368.89	0.00
369.09	0.00
369.28	0.00
369.48	0.00
369.68	0.00
369.87	0.00
370.07	0.00
370.27	0.00
370.47	0.00
370.66	81.92
370.86	187.24
371.06	255.12
371.25	320.65
371.45	191.92
371.65	191.92
371.84	187.24
372.04	227.03
372.24	241.08
372.44	180.22
372.63	308.95
372.83	273.84
373.03	163.84
373.22	128.73
373.42	145.11
373.62	245.76
373.81	210.65
374.01	229.37
374.21	189.58
374.40	205.97
374.60	198.95
374.79	257.46
374.99	339.38
375.19	383.85
375.38	418.96
375.58	313.63
375.78	327.68
375.97	301.93
376.17	360.44
376.37	313.63
376.56	440.02
376.76	379.17
376.95	437.68
377.15	435.34
377.35	503.22
377.54	564.07
377.74	622.58
377.93	557.05
378.13	479.81
378.33	514.92
378.52	425.98
378.72	437.68
378.91	360.44
379.11	386.19
379.31	322.99
379.50	379.17
379.70	418.96
379.89	484.49
380.09	535.98
380.28	484.49
380.48	477.47
380.68	531.30
380.87	475.13
381.07	465.77
381.26	383.85
381.46	269.16
381.65	231.71
381.85	339.38
382.04	276.18
382.24	243.42
382.43	245.76
382.63	243.42
382.83	231.71
383.02	234.05
383.22	212.99
383.41	196.60
383.61	196.60
383.80	278.52
384.00	407.25
384.19	463.43
384.39	538.32
384.58	472.79
384.78	540.66
384.97	505.56
385.17	381.51
385.36	341.72
385.56	381.51
385.75	444.70
385.95	425.98
386.14	552.37
386.34	535.98
386.53	428.32
386.72	402.57
386.92	393.21
387.11	411.93
387.31	418.96
387.50	592.16
387.70	475.13
387.89	449.38
388.09	475.13
388.28	568.75
388.48	531.30
388.67	554.71
388.86	655.35
389.06	662.37
389.25	678.76
389.45	683.44
389.64	660.03
389.84	720.88
390.03	664.71
390.22	648.33
390.42	723.23
390.61	842.59
390.81	844.93
391.00	833.23
391.19	835.57
391.39	758.33
391.58	720.88
391.78	758.33
391.97	734.93
392.16	582.79
392.36	573.43
392.55	393.21
392.75	170.86
392.94	140.43
393.13	156.82
393.33	147.45
393.52	264.48
393.71	545.34
393.91	573.43
394.10	585.13
394.29	683.44
394.49	807.48
394.68	875.36
394.88	779.40
395.07	919.83
395.26	931.53
395.46	826.21
395.65	819.19
395.84	660.03
396.04	503.22
396.23	325.33
396.42	290.23
396.62	285.55
396.81	344.06
397.00	521.94
397.19	734.93
397.39	823.87
397.58	999.41
397.77	1050.90
397.97	1050.90
398.16	1277.93
398.35	1179.63
398.55	1212.40
398.74	1233.46
398.93	1322.40
399.12	1259.21
399.32	1214.74
399.51	1186.65
399.70	1504.96
399.90	1331.76
400.09	1397.30
400.28	1329.42
400.47	1357.51
400.67	1399.64
400.86	1528.37
401.05	1432.41
401.24	1448.79
401.44	1359.85
401.63	1369.21
401.82	1551.78
402.01	1535.39
402.21	1502.62
402.40	1474.54
402.59	1369.21
402.78	1430.07
402.97	1334.11
403.17	1362.19
403.36	1533.05
403.55	1540.07
403.74	1577.52
403.93	1451.13
404.13	1446.45
404.32	1338.79
404.51	1357.51
404.70	1657.10
404.89	1413.68
405.09	1593.90
405.28	1397.30
405.47	1516.67
405.66	1490.92
405.85	1401.98
406.05	1404.32
406.24	1521.35
406.43	1427.73
406.62	1549.43
406.81	1479.22
407.00	1420.71
407.20	1458.15
407.39	1334.11
407.58	1577.52
407.77	1610.29
407.96	1589.22
408.15	1671.14
408.34	1638.38
408.54	1776.47
408.73	1771.79
408.92	1563.48
409.11	1586.88
409.30	1631.35
409.49	1409.00
409.68	1350.49
409.87	1313.04
410.07	1453.47
410.26	1437.09
410.45	1605.61
410.64	1645.40
410.83	1781.15
411.02	1785.83
411.21	1813.92
411.40	1867.75
411.59	1811.57
411.78	1884.13
411.98	1923.92
412.17	1748.38
412.36	1830.30
412.55	1776.47
412.74	1675.82
412.93	1762.42
413.12	1769.44
413.31	1870.09
413.50	1888.81
413.69	1891.15
413.88	1940.30
414.07	1884.13
414.26	1785.83
414.45	1944.99
414.64	1930.94
414.83	1895.83
415.02	1881.79
415.22	1914.56
415.41	1923.92
415.60	1919.24
415.79	2029.24
415.98	2146.27
416.17	1966.05
416.36	2076.06
416.55	1944.99
416.74	1912.22
416.93	1907.54
417.12	1949.67
417.31	1912.22
417.50	1942.64
417.69	1977.75
417.88	1966.05
418.07	1973.07
418.26	2076.06
418.45	1837.32
418.64	2029.24
418.83	2052.65
419.02	2087.76
419.21	2017.54
419.39	1900.52
419.58	1823.28
419.77	1907.54
419.96	1961.37
420.15	2113.50
420.34	2167.34
420.53	2296.07
420.72	2314.79
420.91	2244.57
421.10	2181.38
421.29	2141.59
421.48	2080.74
421.67	2221.17
421.86	2172.02
422.05	2010.52
422.24	1699.23
422.43	1806.89
422.61	1968.39
422.80	2118.18
422.99	2176.70
423.18	2024.56
423.37	2059.67
423.56	1930.94
423.75	1984.77
423.94	1994.14
424.13	1954.35
424.32	1877.11
424.50	1944.99
424.69	1923.92
424.88	2118.18
425.07	1933.28
425.26	1891.15
425.45	1884.13
425.64	1820.94
425.83	1907.54
426.01	2005.84
426.20	2017.54
426.39	2012.86
426.58	1823.28
426.77	1720.29
426.96	1682.85
427.15	1729.66
427.33	1778.81
427.52	1907.54
427.71	1902.86
427.90	1853.70
428.09	1781.15
428.28	1837.32
428.46	1867.75
428.65	1767.10
428.84	1809.23
429.03	1877.11
429.22	1760.08
429.40	1593.90
429.59	1420.71
429.78	1259.21
429.97	1224.10
430.16	1322.40
430.34	1420.71
430.53	1317.72
430.72	1284.95
430.91	1500.28
431.10	1846.68
431.28	2146.27
431.47	2394.37
431.66	2380.32
431.85	2092.44
432.03	1977.75
432.22	1919.24
432.41	1865.41
432.60	2069.03
432.79	2188.40
432.97	2216.49
433.16	2197.76
433.35	1982.43
433.54	1771.79
433.72	1692.21
433.91	1771.79
434.10	1959.03
434.28	2160.31
434.47	2307.77
434.66	2230.53
434.85	2101.80
435.03	2080.74
435.22	2160.31
435.41	2396.71
435.59	2335.85
435.78	2298.41
435.97	2478.63
436.16	2277.34
436.34	2480.97
436.53	2258.62
436.72	2319.47
436.90	2169.68
437.09	2228.19
437.28	2017.54
437.46	2263.30
437.65	2275.00
437.84	2071.37
438.02	1790.51
438.21	1795.19
438.40	2136.91
438.58	2146.27
438.77	2155.63
438.96	2260.96
439.14	2368.62
439.33	2403.73
439.52	2513.74
439.70	2370.96
439.89	2310.11
440.08	2251.60
440.26	2326.49
440.45	2356.92
440.63	2509.05
440.82	2649.49
441.01	2597.99
441.19	2593.31
441.38	2574.59
441.57	2658.85
441.75	2782.90
441.94	2715.02
442.12	2825.03
442.31	2808.64
442.50	2733.75
442.68	2764.17
442.87	2562.89
443.05	2640.12
443.24	2621.40
443.43	2829.71
443.61	2750.13
443.80	2911.63
443.98	2726.72
444.17	2569.91
444.35	2853.11
444.54	2825.03
444.73	2862.48
444.91	2775.88
445.10	2616.72
445.28	2443.52
445.47	2579.27
445.65	2520.76
445.84	2455.22
446.02	2509.05
446.21	2754.81
446.39	2576.93
446.58	2759.49
446.77	2642.46
446.95	2731.41
447.14	2768.85
447.32	3042.70
447.51	2946.73
447.69	2757.15
447.88	2712.68
448.06	2775.88
448.25	2665.87
448.43	2916.31
448.62	2764.17
448.80	2710.34
448.99	2729.06
449.17	2745.45
449.36	2792.26
449.54	2822.69
449.73	2965.46
449.91	2881.20
450.10	3002.91
450.28	3112.91
450.46	3049.72
450.65	3056.74
450.83	3049.72
451.02	3042.70
451.20	3068.44
451.39	3019.29
451.57	3021.63
451.76	2963.12
451.94	2939.71
452.13	2944.39
452.31	2864.82
452.49	2567.57
452.68	2558.21
452.86	2686.94
453.05	2696.30
453.23	2726.72
453.42	2876.52
453.60	2953.76
453.78	2841.41
453.97	2843.75
454.15	2874.18
454.34	2736.09
454.52	2733.75
454.70	2820.35
454.89	2754.81
455.07	2764.17
455.26	2923.33
455.44	3049.72
455.62	3138.66
455.81	2995.89
455.99	2998.23
456.17	2939.71
456.36	2981.84
456.54	3012.27
456.73	3019.29
456.91	3122.27
457.09	3166.74
457.28	3162.06
457.46	3073.12
457.64	3016.95
457.83	2857.79
458.01	2871.84
458.19	2829.71
458.38	2867.16
458.56	3082.49
458.74	2956.10
458.93	3089.51
459.11	2963.12
459.29	2899.92
459.48	2979.50
459.66	2860.13
459.84	2984.18
460.03	2928.01
460.21	2953.76
460.39	3166.74
460.57	3094.19
460.76	3077.80
460.94	3087.17
461.12	3075.46
461.31	3176.11
461.49	3019.29
461.67	3169.09
461.85	3166.74
462.04	3089.51
462.22	3265.05
462.40	3096.53
462.59	3096.53
462.77	3192.49
462.95	3155.04
463.13	3122.27
463.32	3136.32
463.50	2988.86
463.68	2986.52
463.86	3133.98
464.05	2944.39
464.23	3042.70
464.41	2946.73
464.59	2956.10
464.78	2998.23
464.96	3012.27
465.14	2972.48
465.32	2981.84
465.50	3096.53
465.69	3180.79
465.87	3171.43
466.05	3059.08
466.23	2871.84
466.41	2888.22
466.60	2878.86
466.78	2909.29
466.96	2995.89
467.14	2904.60
467.32	3042.70
467.51	3023.97
467.69	2906.95
467.87	3028.65
468.05	3040.36
468.23	3056.74
468.41	3040.36
468.60	3157.38
468.78	3075.46
468.96	2920.99
469.14	3075.46
469.32	3082.49
469.50	2888.22
469.69	2881.20
469.87	2977.16
470.05	2904.60
470.23	2864.82
470.41	2869.50
470.59	3016.95
470.77	2967.80
470.95	3101.21
471.14	3049.72
471.32	3129.30
471.50	3215.90
471.68	3251.00
471.86	3342.28
472.04	3166.74
472.22	3307.18
472.40	3103.55
472.58	3030.99
472.77	3077.80
472.95	3145.68
473.13	3157.38
473.31	3110.57
473.49	3169.09
473.67	3234.62
473.85	3150.36
474.03	3318.88
474.21	3414.84
474.39	3274.41
474.57	3501.44
474.75	3447.61
474.93	3363.35
475.12	3129.30
475.30	3274.41
475.48	3197.17
475.66	3279.09
475.84	3243.98
476.02	3187.81
476.20	3169.09
476.38	3335.26
476.56	3375.05
476.74	3346.97
476.92	3468.67
477.10	3445.27
477.28	3454.63
477.46	3552.93
477.64	3686.34
477.82	3562.30
478.00	3723.79
478.18	3578.68
478.36	3550.59
478.54	3501.44
478.72	3597.40
478.90	3599.74
479.08	3702.73
479.26	3824.44
479.44	3904.01
479.62	3742.52
479.80	3782.31
479.98	3796.35
480.16	3864.22
480.34	3733.15
480.52	3964.87
480.70	3922.74
480.88	3801.03
481.06	3971.89
481.24	3922.74
481.41	4004.66
481.59	3981.25
481.77	4058.49
481.95	3974.23
482.13	4039.76
482.31	4009.34
482.49	4011.68
482.67	4058.49
482.85	4170.83
483.03	4212.96
483.21	4189.56
483.39	4145.09
483.57	4093.60
483.74	4112.32
483.92	4016.36
484.10	4173.18
484.28	4231.69
484.46	4119.34
484.64	4301.90
484.82	4163.81
485.00	4053.81
485.18	3936.78
485.35	3908.69
485.53	3627.83
485.71	3274.41
485.89	3267.39
486.07	3382.07
486.25	3695.71
486.43	4056.15
486.61	4028.06
486.78	4107.64
486.96	3859.54
487.14	4210.62
487.32	4245.73
487.50	4442.34
487.68	4526.60
487.85	4674.05
488.03	4645.96
488.21	4559.36
488.39	4374.46
488.57	4414.25
488.75	4278.50
488.92	4414.25
489.10	4772.35
489.28	4990.02
489.46	5121.09
489.64	4961.94
489.81	5172.58
489.99	4992.36
490.17	5055.56
490.35	5287.27
490.53	5057.90
490.70	4887.04
490.88	4877.68
491.06	5102.37
491.24	5043.85
491.41	4828.53
491.59	4711.50
491.77	4552.34
491.95	4760.65
492.13	4819.16
492.30	5085.98
492.48	5259.18
492.66	5366.85
492.84	5200.67
493.01	5317.70
493.19	5228.76
493.37	5221.74
493.54	5104.71
493.72	5193.65
493.90	5404.30
494.08	5418.34
494.25	5738.99
494.43	5521.32
494.61	5708.57
494.79	5694.52
494.96	5469.83
495.14	5568.13
495.32	5474.51
495.49	5170.24
495.67	5425.36
495.85	5753.04
496.02	5621.97
496.20	5692.18
496.38	5458.13
496.55	5668.78
496.73	5544.73
496.91	5493.24
497.09	5774.10
497.26	5846.66
497.44	5961.34
497.62	5636.01
497.79	5605.58
497.97	5385.57
498.14	5444.09
498.32	5441.75
498.50	5696.86
498.67	5940.28
498.85	5856.02
499.03	5856.02
499.20	5771.76
499.38	5830.27
499.56	5947.30
499.73	5816.23
499.91	5671.12
500.08	5535.37
500.26	5348.12
500.44	5392.59
500.61	5607.92
500.79	5528.35
500.97	5542.39
501.14	5554.09
501.32	5378.55
501.49	5549.41
501.67	5500.26
501.84	5542.39
502.02	5575.16
502.20	5628.99
502.37	5678.14
502.55	5799.85
502.72	6047.94
502.90	5832.62
503.07	5856.02
503.25	6038.58
503.43	5664.10
503.60	5476.85
503.78	5427.70
503.95	5378.55
504.13	5809.21
504.30	5954.32
504.48	5856.02
504.65	5783.46
504.83	5837.30
505.01	6045.60
505.18	6010.50
505.36	6033.90
505.53	6235.19
505.71	6104.12
505.88	5977.73
506.06	5977.73
506.23	6026.88
506.41	5867.72
506.58	6008.16
506.76	6001.13
506.93	6008.16
507.11	5813.89
507.28	6010.50
507.46	5823.25
507.63	5673.46
507.81	5626.65
507.98	5610.26
508.16	5767.08
508.33	5886.45
508.50	5963.68
508.68	6150.93
508.85	6394.34
509.03	6150.93
509.20	6080.71
509.38	6064.33
509.55	5874.74
509.73	5856.02
509.90	5998.79
510.08	5928.58
510.25	5998.79
510.42	5888.79
510.60	5738.99
510.77	6036.24
510.95	6078.37
511.12	6040.92
511.30	6157.95
511.47	6352.21
511.64	6298.38
511.82	6118.16
511.99	5942.62
512.17	5858.36
512.34	5769.42
512.51	5837.30
512.69	5825.59
512.86	6099.44
513.04	5923.90
513.21	6066.67
513.38	6022.20
513.56	5860.70
513.73	5638.35
513.90	5696.86
514.08	5584.52
514.25	5811.55
514.43	5823.25
514.60	5966.03
514.77	5827.93
514.95	5921.56
515.12	5827.93
515.29	5923.90
515.47	5980.07
515.64	6221.14
515.81	5839.64
515.99	5813.89
516.16	5530.69
516.33	5083.64
516.51	4842.57
516.68	4781.71
516.85	4685.75
517.03	4877.68
517.20	5146.84
517.37	5645.37
517.54	5849.00
517.72	5586.86
517.89	5362.17
518.06	4826.18
518.24	4980.66
518.41	5401.96
518.58	5692.18
518.75	5544.73
518.93	5607.92
519.10	5703.89
519.27	5680.48
519.45	5893.47
519.62	5912.19
519.79	6040.92
519.96	5942.62
520.14	5692.18
520.31	5727.29
520.48	5748.36
520.65	5692.18
520.83	5994.11
521.00	6012.84
521.17	5827.93
521.34	5804.53
521.52	5909.85
521.69	6066.67
521.86	6164.97
522.03	6155.61
522.20	5886.45
522.38	5589.20
522.55	5434.72
522.72	5813.89
522.89	5717.93
523.07	5762.40
523.24	5790.49
523.41	5933.26
523.58	6106.46
523.75	6164.97
523.92	6080.71
524.10	6160.29
524.27	6286.68
524.44	6083.05
524.61	6092.41
524.78	5921.56
524.96	6118.16
525.13	5987.09
525.30	6031.56
525.47	6265.61
525.64	6129.86
525.81	6078.37
525.98	5699.20
526.16	5355.15
526.33	5214.71
526.50	5203.01
526.67	5184.29
526.84	5149.18
527.01	5313.02
527.18	5441.75
527.36	5809.21
527.53	6010.50
527.70	6019.86
527.87	5888.79
528.04	5785.80
528.21	5980.07
528.38	6015.18
528.55	6104.12
528.72	6333.49
528.89	6406.05
529.07	6136.88
529.24	5849.00
529.41	5900.49
529.58	5708.57
529.75	5687.50
529.92	5975.39
530.09	5914.53
530.26	6099.44
530.43	6019.86
530.60	6169.65
530.77	6380.30
530.94	6296.04
531.11	6090.07
531.28	6017.52
531.46	6097.10
531.63	6069.01
531.80	6008.16
531.97	5781.12
532.14	5724.95
532.31	5558.77
532.48	5408.98
532.65	5369.19
532.82	5603.24
532.99	5813.89
533.16	5956.66
533.33	5937.94
533.50	5748.36
533.67	5912.19
533.84	5680.48
534.01	5832.62
534.18	5865.38
534.35	5804.53
534.52	5877.09
534.69	5893.47
534.86	6017.52
535.03	6106.46
535.20	6232.85
535.37	6190.72
535.54	6251.57
535.71	6076.03
535.88	6059.65
536.05	5940.28
536.22	5818.57
536.38	5610.26
536.55	5528.35
536.72	5434.72
536.89	5472.17
537.06	5710.91
537.23	5935.60
537.40	5851.34
537.57	5968.37
537.74	5715.59
537.91	5891.13
538.08	5891.13
538.25	5771.76
538.42	5919.21
538.59	5811.55
538.75	5626.65
538.92	5591.54
539.09	5668.78
539.26	5500.26
539.43	5401.96
539.60	5565.79
539.77	5544.73
539.94	5556.43
540.11	5509.62
540.28	5254.50
540.44	5219.39
540.61	5305.99
540.78	5338.76
540.95	5441.75
541.12	5650.05
541.29	5570.48
541.46	5636.01
541.62	5783.46
541.79	5589.20
541.96	5537.71
542.13	5556.43
542.30	5614.95
542.47	5715.59
542.63	5530.69
542.80	5593.88
542.97	5657.07
543.14	5458.13
543.31	5617.29
543.48	5652.39
543.64	5722.61
543.81	5841.98
543.98	5877.09
544.15	5713.25
544.32	5640.69
544.48	5460.47
544.65	5547.07
544.82	5813.89
544.99	5764.74
545.16	5748.36
545.32	5535.37
545.49	5741.33
545.66	5802.19
545.83	5645.37
546.00	5762.40
546.16	5504.94
546.33	5490.90
546.50	5692.18
546.67	5614.95
546.83	5687.50
547.00	5366.85
547.17	5399.62
547.34	5394.93
547.50	5392.59
547.67	5451.11
547.84	5343.44
548.00	5387.91
548.17	5603.24
548.34	5647.71
548.51	5659.42
548.67	5526.00
548.84	5628.99
549.01	5416.00
549.18	5413.66
549.34	5397.28
549.51	5563.45
549.68	5451.11
549.84	5586.86
550.01	5434.72
550.18	5472.17
550.34	5530.69
550.51	5544.73
550.68	5453.45
550.84	5352.81
551.01	5380.89
551.18	5282.59
551.34	5481.53
551.51	5467.49
551.68	5486.22
551.84	5434.72
552.01	5420.68
552.18	5366.85
552.34	5385.57
552.51	5317.70
552.68	5252.16
552.84	5338.76
553.01	5301.31
553.18	5404.30
553.34	5406.64
553.51	5364.51
553.67	5214.71
553.84	5338.76
554.01	5259.18
554.17	5357.49
554.34	5366.85
554.51	5441.75
554.67	5509.62
554.84	5394.93
555.00	5303.65
555.17	5177.26
555.33	5376.21
555.50	5371.53
555.67	5392.59
555.83	5193.65
556.00	5294.29
556.16	5228.76
556.33	5151.52
556.50	5004.07
556.66	5242.80
556.83	5025.13
556.99	4919.81
557.16	5177.26
557.32	5146.84
557.49	5221.74
557.65	5193.65
557.82	5172.58
557.98	5245.14
558.15	5071.94
558.32	4887.04
558.48	4791.08
558.65	4727.88
558.81	4877.68
558.98	4905.76
559.14	4943.21
559.31	4922.15
559.47	4947.89
559.64	4968.96
559.80	4945.55
559.97	4767.67
560.13	5025.13
560.30	5085.98
560.46	5284.93
560.63	5296.63
560.79	5268.55
560.96	5205.35
561.12	4875.34
561.29	4791.08
561.45	4847.25
561.61	4933.85
561.78	4833.21
561.94	4924.49
562.11	4961.94
562.27	5032.15
562.44	5053.22
562.60	5109.39
562.77	4992.36
562.93	5067.26
563.10	5062.58
563.26	4943.21
563.42	4770.01
563.59	4837.89
563.75	4805.12
563.92	5013.43
564.08	4910.44
564.24	4821.50
564.41	4889.38
564.57	4945.55
564.74	4723.20
564.90	4926.83
565.07	4812.14
565.23	4650.64
565.39	4610.86
565.56	4660.01
565.72	4648.30
565.88	4545.32
566.05	4514.89
566.21	4603.83
566.38	4786.40
566.54	4788.74
566.70	4851.93
566.87	4819.16
567.03	4884.70
567.19	4807.46
567.36	4868.31
567.52	4882.36
567.68	4683.41
567.85	4692.77
568.01	4718.52
568.17	4599.15
568.34	4489.15
568.50	4667.03
568.66	4449.36
568.83	4620.22
568.99	4692.77
569.15	4746.61
569.32	4615.54
569.48	4447.02
569.64	4507.87
569.81	4507.87
569.97	4428.29
570.13	4449.36
570.30	4374.46
570.46	4444.68
570.62	4348.72
570.78	4196.58
570.95	4283.18
571.11	4461.06
571.27	4386.16
571.43	4592.13
571.60	4517.23
571.76	4638.94
571.92	4676.39
572.09	4568.73
572.25	4599.15
572.41	4702.14
572.57	4608.51
572.74	4610.86
572.90	4622.56
573.06	4531.28
573.22	4592.13
573.38	4451.70
573.55	4510.21
573.71	4437.66
573.87	4507.87
574.03	4475.10
574.20	4517.23
574.36	4365.10
574.52	4393.19
574.68	4404.89
574.84	4322.97
575.01	4222.33
575.17	4311.27
575.33	4292.54
575.49	4304.25
575.65	4386.16
575.82	4414.25
575.98	4238.71
576.14	4273.82
576.30	4313.61
576.46	4491.49
576.62	4379.14
576.79	4285.52
576.95	4273.82
577.11	4264.46
577.27	4276.16
577.43	4329.99
577.59	4243.39
577.75	4238.71
577.92	4117.00
578.08	3992.95
578.24	3992.95
578.40	4133.39
578.56	4231.69
578.72	4255.09
578.88	4245.73
579.04	4294.88
579.21	4187.22
579.37	4161.47
579.53	4231.69
579.69	4285.52
579.85	4411.91
580.01	4271.48
580.17	4081.89
580.33	4227.01
580.49	4222.33
580.65	4067.85
580.82	4287.86
580.98	4133.39
581.14	4229.35
581.30	4231.69
581.46	4098.28
581.62	4135.73
581.78	4306.59
581.94	4210.62
582.10	4243.39
582.26	4344.03
582.42	4297.22
582.58	4250.41
582.74	4318.29
582.90	4367.44
583.06	4306.59
583.22	4255.09
583.38	4238.71
583.54	4236.37
583.70	4217.65
583.86	4339.35
584.02	4229.35
584.18	4077.21
584.34	4114.66
584.50	4180.20
584.66	4070.19
584.82	4070.19
584.98	4077.21
585.14	4021.04
585.30	3878.27
585.46	4014.02
585.62	3873.59
585.78	3812.73
585.94	3985.93
586.10	3967.21
586.26	4067.85
586.42	4149.77
586.58	4112.32
586.74	4095.94
586.90	4060.83
587.06	3983.59
587.22	3911.04
587.38	4039.76
587.54	4098.28
587.70	3950.82
587.86	3971.89
588.02	3894.65
588.18	3873.59
588.34	3702.73
588.49	3466.33
588.65	3351.65
588.81	3365.69
588.97	3283.77
589.13	3398.46
589.29	3279.09
589.45	3272.07
589.61	3552.93
589.77	3641.87
589.93	3733.15
590.08	3742.52
590.24	3751.88
590.40	3948.48
590.56	3782.31
590.72	3749.54
590.88	3812.73
591.04	3695.71
591.20	3653.58
591.35	3662.94
591.51	3805.71
591.67	3838.48
591.83	3754.22
591.99	3705.07
592.15	3740.18
592.31	3735.50
592.46	3737.84
592.62	3681.66
592.78	3679.32
592.94	3681.66
593.10	3688.68
593.26	3789.33
593.41	3747.20
593.57	3719.11
593.73	3658.26
593.89	3709.75
594.05	3585.70
594.20	3552.93
594.36	3496.76
594.52	3499.10
594.68	3501.44
594.84	3527.19
594.99	3522.51
595.15	3555.27
595.31	3550.59
595.47	3712.09
595.62	3686.34
595.78	3623.15
595.94	3641.87
596.10	3660.60
596.25	3531.87
596.41	3569.32
596.57	3620.81
596.73	3574.00
596.88	3609.11
597.04	3585.70
597.20	3508.46
597.36	3630.17
597.51	3641.87
597.67	3595.06
597.83	3576.34
597.99	3604.42
