SpectraSuite Data File
++++++++++++++++++++++++++++++++++++
Date: Mon Oct 07 14:54:57 GMT-05:00 2013
User: price-jones
Dark Spectrum Present: No
Reference Spectrum Present: No
Number of Sampled Component Spectra: 1
Spectrometers: USB2+H05261
Integration Time (usec): 10000 (USB2+H05261)
Spectra Averaged: 1 (USB2+H05261)
Boxcar Smoothing: 0 (USB2+H05261)
Correct for Electrical Dark: No (USB2+H05261)
Strobe/Lamp Enabled: No (USB2+H05261)
Correct for Detector Non-linearity: No (USB2+H05261)
Correct for Stray Light: No (USB2+H05261)
Number of Pixels in Processed Spectrum: 2048
>>>>>Begin Processed Spectral Data<<<<<
365.73	0.00
365.92	0.00
366.12	0.00
366.32	0.00
366.52	0.00
366.72	0.00
366.91	0.00
367.11	0.00
367.31	0.00
367.51	0.00
367.70	0.00
367.90	0.00
368.10	0.00
368.30	0.00
368.49	0.00
368.69	0.00
368.89	0.00
369.09	0.00
369.28	0.00
369.48	0.00
369.68	0.00
369.87	0.00
370.07	0.00
370.27	0.00
370.47	145.11
370.66	1387.94
370.86	1636.03
371.06	1739.02
371.25	1610.29
371.45	1465.18
371.65	1411.34
371.84	1355.17
372.04	1530.71
372.24	1558.80
372.44	1692.21
372.63	1614.97
372.83	1420.71
373.03	1315.38
373.22	1203.04
373.42	1284.95
373.62	1526.03
373.81	1652.42
374.01	1509.65
374.21	1420.71
374.40	1352.83
374.60	1458.15
374.79	1650.08
374.99	1919.24
375.19	1987.11
375.38	1921.58
375.58	1832.64
375.78	1806.89
375.97	1919.24
376.17	1834.98
376.37	1963.71
376.56	1989.46
376.76	2277.34
376.95	2272.66
377.15	2377.98
377.35	2399.05
377.54	2717.36
377.74	2677.57
377.93	2679.91
378.13	2551.18
378.33	2307.77
378.52	2167.34
378.72	2165.00
378.91	2167.34
379.11	2050.31
379.31	1982.43
379.50	1991.80
379.70	2282.02
379.89	2375.64
380.09	2597.99
380.28	2663.53
380.48	2740.77
380.68	2647.15
380.87	2429.48
381.07	2139.25
381.26	2090.10
381.46	1956.69
381.65	1823.28
381.85	1785.83
382.04	1743.70
382.24	1605.61
382.43	1607.95
382.63	1502.62
382.83	1542.41
383.02	1458.15
383.22	1638.38
383.41	1596.25
383.61	1802.21
383.80	2052.65
384.00	2291.38
384.19	2562.89
384.39	2614.38
384.58	2682.25
384.78	2605.02
384.97	2429.48
385.17	2300.75
385.36	2293.72
385.56	2176.70
385.75	2260.96
385.95	2544.16
386.14	2726.72
386.34	2614.38
386.53	2560.55
386.72	2422.45
386.92	2455.22
387.11	2626.08
387.31	2729.06
387.50	2649.49
387.70	2457.56
387.89	2516.08
388.09	2567.57
388.28	2518.42
388.48	2656.51
388.67	2869.50
388.86	3162.06
389.06	3295.47
389.25	3538.89
389.45	3487.40
389.64	3571.66
389.84	3403.14
390.03	3356.33
390.22	3337.60
390.42	3557.61
390.61	3819.75
390.81	3997.64
391.00	4126.36
391.19	3992.95
391.39	3878.27
391.58	3524.85
391.78	3433.57
391.97	3276.75
392.16	2949.08
392.36	2715.02
392.55	2076.06
392.75	1547.09
392.94	1371.55
393.13	1537.73
393.33	1827.96
393.52	2455.22
393.71	2752.47
393.91	3138.66
394.10	3438.25
394.29	3726.13
394.49	4021.04
394.68	4430.63
394.88	4456.38
395.07	4374.46
395.26	4320.63
395.46	4086.58
395.65	3791.67
395.84	3304.84
396.04	2698.64
396.23	2090.10
396.42	1860.73
396.62	1944.99
396.81	2361.60
397.00	3129.30
397.19	3705.07
397.39	4519.57
397.58	4767.67
397.77	5121.09
397.97	5348.12
398.16	5533.03
398.35	5643.03
398.55	5746.02
398.74	6150.93
398.93	6057.31
399.12	5996.45
399.32	5837.30
399.51	5998.79
399.70	6179.01
399.90	6279.66
400.09	5968.37
400.28	6363.92
400.47	6267.95
400.67	6586.27
400.86	6766.49
401.05	6836.70
401.24	6682.23
401.44	6743.08
401.63	6876.49
401.82	6979.48
402.01	6925.65
402.21	6944.37
402.40	7021.61
402.59	6663.51
402.78	6406.05
402.97	6497.33
403.17	6691.59
403.36	7124.59
403.55	7199.49
403.74	7232.26
403.93	6782.87
404.13	6380.30
404.32	6476.26
404.51	6871.81
404.70	6935.01
404.89	7157.36
405.09	6970.12
405.28	6942.03
405.47	6885.86
405.66	6857.77
405.85	6340.51
406.05	6434.13
406.24	6724.36
406.43	6813.30
406.62	6874.15
406.81	7035.65
407.00	6864.79
407.20	6473.92
407.39	6626.06
407.58	7178.42
407.77	7421.84
407.96	7480.35
408.15	7726.11
408.34	7627.81
408.54	8074.85
408.73	8023.36
408.92	7829.09
409.11	7599.72
409.30	6942.03
409.49	6799.26
409.68	6420.09
409.87	6595.63
410.07	6799.26
410.26	7037.99
410.45	7653.55
410.64	8109.96
410.83	8065.49
411.02	8428.27
411.21	8369.76
411.40	8449.33
411.59	8573.38
411.78	8414.23
411.98	8269.11
412.17	8388.48
412.36	8351.03
412.55	8287.84
412.74	7817.39
412.93	7803.35
413.12	7988.25
413.31	8758.28
413.50	8990.00
413.69	8849.57
413.88	8585.08
414.07	8582.74
414.26	8603.81
414.45	8915.10
414.64	8858.93
414.83	8910.42
415.02	8641.26
415.22	8652.96
415.41	8826.16
415.60	8990.00
415.79	9525.98
415.98	9743.65
416.17	9556.41
416.36	9453.42
416.55	9291.93
416.74	9011.06
416.93	8777.01
417.12	8777.01
417.31	8835.52
417.50	9018.08
417.69	9284.91
417.88	9207.67
418.07	8950.21
418.26	9181.92
418.45	9287.25
418.64	9767.06
418.83	9816.21
419.02	9675.77
419.21	9502.58
419.39	9146.81
419.58	8585.08
419.77	8947.87
419.96	9348.10
420.15	9778.76
420.34	10256.23
420.53	10644.76
420.72	10560.50
420.91	10225.80
421.10	9954.30
421.29	10155.58
421.48	9696.84
421.67	10136.86
421.86	9589.17
422.05	8847.22
422.24	8201.24
422.43	8650.62
422.61	9378.53
422.80	9748.33
422.99	10012.81
423.18	9310.65
423.37	9378.53
423.56	9600.88
423.75	9575.13
423.94	9830.25
424.13	9172.56
424.32	9212.35
424.50	9259.16
424.69	9364.48
424.88	9500.23
425.07	9210.01
425.26	9036.81
425.45	9111.71
425.64	9090.64
425.83	9270.86
426.01	9703.86
426.20	9781.10
426.39	9303.63
426.58	8737.22
426.77	8388.48
426.96	8194.22
427.15	8465.72
427.33	9125.75
427.52	9217.03
427.71	9371.50
427.90	8870.63
428.09	8854.25
428.28	8830.84
428.46	8395.50
428.65	8510.19
428.84	9006.38
429.03	8685.73
429.22	8163.79
429.40	7634.83
429.59	6939.69
429.78	6293.70
429.97	6424.77
430.16	6546.48
430.34	6120.50
430.53	6511.37
430.72	6951.39
430.91	7698.02
431.10	9043.83
431.28	10209.42
431.47	10729.02
431.66	10834.34
431.85	9626.62
432.03	8760.63
432.22	8912.76
432.41	9579.81
432.60	10197.71
432.79	10609.65
432.97	10871.79
433.16	10249.21
433.35	9298.95
433.54	8552.32
433.72	8308.90
433.91	8875.31
434.10	9600.88
434.28	10429.43
434.47	10714.97
434.66	10207.08
434.85	10434.11
435.03	10410.70
435.22	10394.32
435.41	10785.19
435.59	11042.65
435.78	11049.67
435.97	11349.26
436.16	11265.00
436.34	11300.11
436.53	10925.62
436.72	11138.61
436.90	10506.66
437.09	10527.73
437.28	10314.74
437.46	10516.03
437.65	10314.74
437.84	9404.27
438.02	9156.18
438.21	9453.42
438.40	9921.53
438.58	10253.89
438.77	10707.95
438.96	10675.18
439.14	11463.94
439.33	11288.40
439.52	11585.65
439.70	11250.96
439.89	10623.69
440.08	10764.12
440.26	11037.97
440.45	11122.23
440.63	11962.48
440.82	12559.31
441.01	12315.90
441.19	12023.33
441.38	12578.04
441.57	12762.94
441.75	12805.07
441.94	12922.10
442.12	12559.31
442.31	13114.02
442.50	13221.69
442.68	12943.16
442.87	12910.40
443.05	12585.06
443.24	13025.08
443.43	13011.04
443.61	13118.70
443.80	13528.30
443.98	12791.03
444.17	13186.58
444.35	13872.36
444.54	13687.45
444.73	13699.16
444.91	12828.48
445.10	12332.28
445.28	12147.38
445.47	11868.86
445.65	11854.81
445.84	12269.09
446.02	12730.17
446.21	12903.37
446.39	12882.31
446.58	13226.37
446.77	13490.85
446.95	13671.07
447.14	13621.92
447.32	13788.10
447.51	13528.30
447.69	13062.53
447.88	12702.09
448.06	12903.37
448.25	13380.84
448.43	13357.44
448.62	12954.87
448.80	13099.98
448.99	13200.62
449.17	13034.44
449.36	13261.48
449.54	13874.70
449.73	14061.94
449.91	14181.31
450.10	14511.32
450.28	14609.62
450.46	14312.38
450.65	14216.41
450.83	14303.01
451.02	14436.42
451.20	13912.14
451.39	13720.22
451.57	13736.60
451.76	13870.01
451.94	13673.41
452.13	13626.60
452.31	12819.11
452.49	12318.24
452.68	12622.51
452.86	12519.53
453.05	12854.22
453.23	13682.77
453.42	13802.14
453.60	13675.75
453.78	13710.86
453.97	13364.46
454.15	13434.68
454.34	12947.84
454.52	13350.42
454.70	13195.94
454.89	13362.12
455.07	13226.37
455.26	13745.97
455.44	14054.92
455.62	14230.46
455.81	14398.98
455.99	14122.79
456.17	14176.62
456.36	14190.67
456.54	14459.83
456.73	14553.45
456.91	14724.31
457.09	14604.94
457.28	15030.92
457.46	14743.03
457.64	14406.00
457.83	13547.02
458.01	13394.89
458.19	14029.17
458.38	14061.94
458.56	14373.23
458.74	14253.86
458.93	13923.85
459.11	14125.13
459.29	13933.21
459.48	13956.61
459.66	13736.60
459.84	14083.00
460.03	14349.82
460.21	14295.99
460.39	14855.38
460.57	14305.35
460.76	14726.65
460.94	14771.12
461.12	14560.47
461.31	14525.36
461.49	14874.10
461.67	14773.46
461.85	15461.58
462.04	15094.11
462.22	14794.53
462.40	14890.49
462.59	14581.54
462.77	14703.25
462.95	14834.32
463.13	15044.96
463.32	14574.52
463.50	14518.34
463.68	14668.14
463.86	14773.46
464.05	14553.45
464.23	13834.91
464.41	13980.02
464.59	13851.29
464.78	14230.46
464.96	14256.20
465.14	14167.26
465.32	14806.23
465.50	14820.27
465.69	15075.39
465.87	14565.15
466.05	14078.32
466.23	13532.98
466.41	13474.46
466.60	14373.23
466.78	14321.74
466.96	14003.43
467.14	14239.82
467.32	14633.03
467.51	14267.91
467.69	13671.07
467.87	14008.11
468.05	14080.66
468.23	14396.64
468.41	14253.86
468.60	14286.63
468.78	14401.32
468.96	14459.83
469.14	14937.30
469.32	14937.30
469.50	13900.44
469.69	13813.84
469.87	13558.72
470.05	13825.54
470.23	13862.99
470.41	14162.58
470.59	14111.09
470.77	14246.84
470.95	14071.30
471.14	14202.37
471.32	14609.62
471.50	15861.81
471.68	15594.99
471.86	15632.44
472.04	15508.39
472.22	15391.36
472.40	14827.29
472.58	15066.03
472.77	14794.53
472.95	14949.00
473.13	15325.83
473.31	15073.05
473.49	14843.68
473.67	15054.33
473.85	14909.21
474.03	15246.25
474.21	15536.48
474.39	15637.12
474.57	15426.47
474.75	15697.97
474.93	15917.98
475.12	15019.22
475.30	15492.01
475.48	15557.54
475.66	15690.95
475.84	15594.99
476.02	15445.20
476.20	15281.36
476.38	15346.89
476.56	15803.30
476.74	15943.73
476.92	16142.67
477.10	16346.30
477.28	16980.59
477.46	16526.52
477.64	17137.40
477.82	17146.76
478.00	17036.76
478.18	16783.98
478.36	16774.62
478.54	16379.07
478.72	17116.34
478.90	17710.83
479.08	17539.97
479.26	17965.95
479.44	17317.62
479.62	17738.92
479.80	17839.56
479.98	17762.33
480.16	17802.11
480.34	17900.42
480.52	17841.90
480.70	17685.09
480.88	17788.07
481.06	18602.58
481.24	19098.77
481.41	19227.50
481.59	19578.58
481.77	19066.00
481.95	18682.16
482.13	19290.70
482.31	18506.62
482.49	19307.08
482.67	18850.67
482.85	19126.86
483.03	19103.45
483.21	19609.01
483.39	19351.55
483.57	19267.29
483.74	19047.28
483.92	19002.81
484.10	19353.89
484.28	19618.37
484.46	19892.21
484.64	19503.68
484.82	19594.96
485.00	19545.81
485.18	18867.06
485.35	17944.89
485.53	15761.17
485.71	14944.32
485.89	15267.31
486.07	16486.73
486.25	17586.79
486.43	18305.33
486.61	18001.06
486.78	18284.26
486.96	18895.14
487.14	19623.05
487.32	20353.30
487.50	20629.48
487.68	20147.33
487.85	21083.55
488.03	20879.92
488.21	20519.48
488.39	19967.11
488.57	20074.77
488.75	20100.52
488.92	21160.78
489.10	22902.14
489.28	22927.89
489.46	23243.86
489.64	23833.68
489.81	23271.95
489.99	22759.37
490.17	23393.65
490.35	23683.88
490.53	22955.97
490.70	22623.62
490.88	22602.55
491.06	23697.92
491.24	23410.04
491.41	22097.00
491.59	21544.63
491.77	20882.26
491.95	21724.85
492.13	22221.05
492.30	23049.60
492.48	24409.45
492.66	24517.11
492.84	24130.92
493.01	24013.90
493.19	22953.63
493.37	22345.09
493.54	22745.33
493.72	23814.95
493.90	24463.28
494.08	24774.57
494.25	25582.06
494.43	26036.12
494.61	26635.30
494.79	26216.34
494.96	25933.14
495.14	24795.64
495.32	24126.24
495.49	24109.86
495.67	24620.10
495.85	26078.25
496.02	26274.85
496.20	26373.16
496.38	25790.36
496.55	25701.42
496.73	25970.58
496.91	25827.81
497.09	26534.65
497.26	26286.56
497.44	26366.13
497.62	25673.34
497.79	25095.22
497.97	24016.24
498.14	24142.63
498.32	25511.84
498.50	25315.23
498.67	26679.77
498.85	26040.80
499.03	25502.48
499.20	26363.79
499.38	26045.48
499.56	25287.15
499.73	25778.66
499.91	24790.95
500.08	24353.27
500.26	23894.53
500.44	24690.31
500.61	25535.24
500.79	25057.78
500.97	24655.20
501.14	24514.77
501.32	24250.29
501.49	23875.80
501.67	24793.29
501.84	25680.36
502.02	25317.57
502.20	25497.80
502.37	26089.95
502.55	26316.98
502.72	26544.02
502.90	27049.57
503.07	26295.92
503.25	26190.59
503.43	25450.99
503.60	24159.01
503.78	24056.03
503.95	24755.85
504.13	25694.40
504.30	26405.92
504.48	26787.43
504.65	25996.33
504.83	26214.00
505.01	25916.75
505.18	26295.92
505.36	27016.80
505.53	27482.57
505.71	27686.20
505.88	27887.48
506.06	27243.84
506.23	26536.99
506.41	26483.16
506.58	26707.85
506.76	26162.51
506.93	26148.46
507.11	25607.80
507.28	26078.25
507.46	25373.75
507.63	25450.99
507.81	24917.34
507.98	25919.09
508.16	26363.79
508.33	26267.83
508.50	25881.64
508.68	26630.62
508.85	27440.44
509.03	27311.71
509.20	26546.36
509.38	26036.12
509.55	25841.85
509.73	26553.38
509.90	26771.05
510.08	26251.45
510.25	25914.41
510.42	26118.04
510.60	26494.86
510.77	27318.73
510.95	27548.11
511.12	26724.24
511.30	27449.80
511.47	28243.24
511.64	27456.82
511.82	27342.14
511.99	26808.50
512.17	26263.15
512.34	26008.03
512.51	25958.88
512.69	25905.05
512.86	26277.19
513.04	26871.69
513.21	26244.43
513.38	26544.02
513.56	25298.85
513.73	24793.29
513.90	24254.97
514.08	25142.03
514.25	25469.71
514.43	26256.13
514.60	26431.67
514.77	26228.04
514.95	26230.38
515.12	25881.64
515.29	26555.72
515.47	26623.59
515.64	26644.66
515.81	26562.74
515.99	25605.46
516.16	23995.17
516.33	22291.26
516.51	21207.59
516.68	20411.81
516.85	20063.07
517.03	20753.53
517.20	22520.63
517.37	25034.37
517.54	24650.52
517.72	23838.36
517.89	22003.38
518.06	21476.76
518.24	22118.06
518.41	23159.60
518.58	24458.60
518.75	24374.34
518.93	24634.14
519.10	24437.53
519.27	24594.35
519.45	25163.10
519.62	25467.37
519.79	25977.61
519.96	25986.97
520.14	25177.14
520.31	25160.76
520.48	24594.35
520.65	24924.36
520.83	25912.07
521.00	25537.59
521.17	25385.45
521.34	24915.00
521.52	25177.14
521.69	25954.20
521.86	26274.85
522.03	25083.52
522.20	24737.12
522.38	23821.97
522.55	23690.90
522.72	24620.10
522.89	24280.72
523.07	24425.83
523.24	25235.66
523.41	25820.79
523.58	25942.50
523.75	25277.79
523.92	26555.72
524.10	26003.35
524.27	26366.13
524.44	26239.75
524.61	26529.97
524.78	26307.62
524.96	25710.78
525.13	26071.23
525.30	26396.56
525.47	26789.77
525.64	26562.74
525.81	24535.84
525.98	23824.31
526.16	21876.99
526.33	21956.57
526.50	22457.44
526.67	22183.60
526.84	22022.10
527.01	23449.83
527.18	24318.17
527.36	24746.48
527.53	26214.00
527.70	25123.31
527.87	24379.02
528.04	24280.72
528.21	25102.25
528.38	25371.41
528.55	26473.80
528.72	26235.06
528.89	26260.81
529.07	26377.84
529.24	24673.93
529.41	25504.82
529.58	24863.51
529.75	24584.99
529.92	24774.57
530.09	24929.05
530.26	24821.38
530.43	24643.50
530.60	25511.84
530.77	26272.51
530.94	26815.52
531.11	25895.69
531.28	25170.12
531.46	25261.40
531.63	25600.78
531.80	26092.29
531.97	24659.88
532.14	23438.12
532.31	22995.76
532.48	22480.85
532.65	22300.62
532.82	23147.90
532.99	24023.26
533.16	25308.21
533.33	25692.06
533.50	25394.81
533.67	24264.33
533.84	24512.43
534.01	24126.24
534.18	24278.38
534.35	24357.96
534.52	24224.54
534.69	24629.46
534.86	24844.79
535.03	25181.82
535.20	25523.54
535.37	25247.36
535.54	25631.21
535.71	24893.94
535.88	24657.54
536.05	24196.46
536.22	23765.80
536.38	22890.44
536.55	23690.90
536.72	23566.85
536.89	23807.93
537.06	24187.10
537.23	24058.37
537.40	24563.92
537.57	24416.47
537.74	23534.09
537.91	23985.81
538.08	24624.78
538.25	24673.93
538.42	24252.63
538.59	24423.49
538.75	24350.93
538.92	24065.39
539.09	23470.89
539.26	22759.37
539.43	22513.61
539.60	22314.67
539.77	22209.34
539.94	21893.37
540.11	21675.70
540.28	20950.14
540.44	21905.07
540.61	22221.05
540.78	22132.11
540.95	23658.14
541.12	22827.24
541.29	23477.91
541.46	23183.01
541.62	23112.79
541.79	22757.03
541.96	22602.55
542.13	23009.81
542.30	23073.00
542.47	23363.23
542.63	22583.83
542.80	22089.98
542.97	22277.22
543.14	22178.92
543.31	22143.81
543.48	23293.01
543.64	23843.04
543.81	23819.63
543.98	23489.62
544.15	23154.92
544.32	22438.72
544.48	23117.47
544.65	22279.56
544.82	22817.88
544.99	23201.73
545.16	22618.94
545.32	23201.73
545.49	23447.49
545.66	23592.60
545.83	22998.10
546.00	22850.65
546.16	22534.68
546.33	22806.18
546.50	23183.01
546.67	23260.24
546.83	22448.08
547.00	22408.29
547.17	22319.35
547.34	22108.70
547.50	21970.61
547.67	22017.42
547.84	21860.60
548.00	22328.71
548.17	22157.85
548.34	22108.70
548.51	22106.36
548.67	23360.89
548.84	23117.47
549.01	22857.67
549.18	22609.58
549.34	22635.32
549.51	22703.20
549.68	22663.41
549.84	22164.87
550.01	22359.14
550.18	21694.43
550.34	21467.39
550.51	21743.58
550.68	21291.85
550.84	20819.07
551.01	21060.14
551.18	21018.01
551.34	20718.42
551.51	21743.58
551.68	22431.69
551.84	21605.49
552.01	22148.49
552.18	21645.27
552.34	21443.99
552.51	21474.42
552.68	21963.59
552.84	21144.40
553.01	21212.28
553.18	22169.55
553.34	21984.65
553.51	21577.40
553.67	21460.37
553.84	22632.98
554.01	21923.80
554.17	21369.09
554.34	21759.96
554.51	22277.22
554.67	22251.47
554.84	21172.49
555.00	21626.55
555.17	21507.18
555.33	21546.97
555.50	21996.35
555.67	21722.51
555.83	22141.47
556.00	21401.86
556.16	21778.68
556.33	21067.16
556.50	21078.86
556.66	20538.20
556.83	20002.22
556.99	20255.00
557.16	20826.09
557.32	20985.24
557.49	20835.45
557.65	20945.45
557.82	19955.41
557.98	20018.60
558.15	20638.84
558.32	19822.00
558.48	19634.75
558.65	19482.62
558.81	19363.25
558.98	19882.85
559.14	19707.31
559.31	19819.66
559.47	19833.70
559.64	19503.68
559.80	20182.44
559.97	19592.62
560.13	20166.06
560.30	20444.58
560.46	20409.47
560.63	21135.04
560.79	21149.08
560.96	20079.46
561.12	19960.09
561.29	19447.51
561.45	19452.19
561.61	19370.27
561.78	19742.42
561.94	19157.28
562.11	19674.54
562.27	19658.16
562.44	20219.89
562.60	20325.21
562.77	20634.16
562.93	19775.19
563.10	19679.22
563.26	19733.06
563.42	19164.31
563.59	19082.39
563.75	19831.36
563.92	19447.51
564.08	19719.01
564.24	19683.91
564.41	18698.54
564.57	19253.25
564.74	18925.57
564.90	18824.93
565.07	18672.79
565.23	17984.68
565.39	18129.79
565.56	18593.22
565.72	18864.72
565.88	19129.20
566.05	18499.59
566.21	18637.69
566.38	18148.51
566.54	18637.69
566.70	18473.85
566.87	18869.40
567.03	19538.79
567.19	20154.35
567.36	18527.68
567.52	19190.05
567.68	18597.90
567.85	18541.72
568.01	18625.98
568.17	17991.70
568.34	17539.97
568.50	17928.50
568.66	17767.01
568.83	17785.73
568.99	18265.54
569.15	18497.25
569.32	18902.17
569.48	18604.92
569.64	17844.24
569.81	17497.84
569.97	17685.09
570.13	17708.49
570.30	17767.01
570.46	17167.83
570.62	16737.17
570.78	16013.95
570.95	16587.38
571.11	17036.76
571.27	17371.46
571.43	17291.88
571.60	17425.29
571.76	17399.54
571.92	17785.73
572.09	18031.49
572.25	17706.15
572.41	18412.99
572.57	18108.72
572.74	17900.42
572.90	17778.71
573.06	17865.31
573.22	17212.30
573.38	17252.09
573.55	16889.31
573.71	17242.73
573.87	17549.34
574.03	17462.74
574.20	17591.47
574.36	17448.69
574.52	17415.93
574.68	16765.26
574.84	16809.73
575.01	17022.72
575.17	17462.74
575.33	16617.80
575.49	16659.93
575.65	17114.00
575.82	17060.16
575.98	16439.92
576.14	16947.82
576.30	16521.84
576.46	16458.65
576.62	16992.29
576.79	16468.01
576.95	16102.89
577.11	16091.18
577.27	16182.46
577.43	16388.43
577.59	16002.24
577.75	16636.53
577.92	16414.18
578.08	16107.57
578.24	15843.09
578.40	15988.20
578.56	15934.37
578.72	15789.25
578.88	16695.04
579.04	16065.44
579.21	16262.04
579.37	16140.33
579.53	15953.09
579.69	15955.43
579.85	15585.63
580.01	16002.24
580.17	15756.49
580.33	16114.59
580.49	16231.62
580.65	16006.92
580.82	15880.53
580.98	16184.80
581.14	16063.10
581.30	16379.07
581.46	16262.04
581.62	16042.03
581.78	16098.20
581.94	16739.51
582.10	16233.96
582.26	15903.94
582.42	15967.13
582.58	16655.25
582.74	16484.39
582.90	16154.38
583.06	16528.86
583.22	16463.33
583.38	16348.64
583.54	16505.46
583.70	16376.73
583.86	16077.14
584.02	16250.34
584.18	15953.09
584.34	16107.57
584.50	16889.31
584.66	16444.60
584.82	16093.52
584.98	15803.30
585.14	15555.20
585.30	14899.85
585.46	14717.29
585.62	14801.55
585.78	15496.69
585.94	15180.71
586.10	15262.63
586.26	15641.80
586.42	15489.67
586.58	15637.12
586.74	14815.59
586.90	14958.36
587.06	14951.34
