SpectraSuite Data File
++++++++++++++++++++++++++++++++++++
Date: Mon Oct 07 14:55:02 GMT-05:00 2013
User: price-jones
Dark Spectrum Present: No
Reference Spectrum Present: No
Number of Sampled Component Spectra: 1
Spectrometers: USB2+H05261
Integration Time (usec): 10000 (USB2+H05261)
Spectra Averaged: 1 (USB2+H05261)
Boxcar Smoothing: 0 (USB2+H05261)
Correct for Electrical Dark: No (USB2+H05261)
Strobe/Lamp Enabled: No (USB2+H05261)
Correct for Detector Non-linearity: No (USB2+H05261)
Correct for Stray Light: No (USB2+H05261)
Number of Pixels in Processed Spectrum: 2048
>>>>>Begin Processed Spectral Data<<<<<
365.73	0.00
365.92	0.00
366.12	0.00
366.32	0.00
366.52	0.00
366.72	0.00
366.91	0.00
367.11	0.00
367.31	0.00
367.51	0.00
367.70	0.00
367.90	0.00
368.10	0.00
368.30	0.00
368.49	0.00
368.69	0.00
368.89	0.00
369.09	0.00
369.28	0.00
369.48	0.00
369.68	0.00
369.87	0.00
370.07	0.00
370.27	0.00
370.47	463.43
370.66	2820.35
370.86	3283.77
371.06	3433.57
371.25	3468.67
371.45	2977.16
371.65	2677.57
371.84	2675.23
372.04	2850.77
372.24	3068.44
372.44	3339.94
372.63	3178.45
372.83	2729.06
373.03	2373.30
373.22	2387.35
373.42	2686.94
373.62	3096.53
373.81	3126.96
374.01	3028.65
374.21	2787.58
374.40	2588.63
374.60	2822.69
374.79	3157.38
374.99	3754.22
375.19	3936.78
375.38	3955.51
375.58	3634.85
375.78	3658.26
375.97	3655.92
376.17	3740.18
376.37	3768.26
376.56	3803.37
376.76	4276.16
376.95	4578.09
377.15	4699.80
377.35	4875.34
377.54	5013.43
377.74	5334.08
377.93	5324.72
378.13	5013.43
378.33	4744.27
378.52	4395.53
378.72	4187.22
378.91	4147.43
379.11	4009.34
379.31	3934.44
379.50	4025.72
379.70	4386.16
379.89	4830.87
380.09	5011.09
380.28	5100.03
380.48	5210.03
380.68	4983.00
380.87	4856.61
381.07	4500.85
381.26	3948.48
381.46	3946.14
381.65	3794.01
381.85	3768.26
382.04	3595.06
382.24	3419.52
382.43	3190.15
382.63	3061.42
382.83	3054.40
383.02	3075.46
383.22	3133.98
383.41	3232.28
383.61	3463.99
383.80	3967.21
384.00	4617.88
384.19	5081.30
384.39	5184.29
384.58	5069.60
384.78	5022.79
384.97	4905.76
385.17	4617.88
385.36	4280.84
385.56	4322.97
385.75	4557.02
385.95	5102.37
386.14	5228.76
386.34	5355.15
386.53	4954.91
386.72	4664.69
386.92	4945.55
387.11	5256.84
387.31	5458.13
387.50	5338.76
387.70	5088.32
387.89	5179.61
388.09	5064.92
388.28	5088.32
388.48	5282.59
388.67	5685.16
388.86	6497.33
389.06	6604.99
389.25	6970.12
389.45	7138.63
389.64	6953.73
389.84	6773.51
390.03	6635.42
390.22	6815.64
390.42	7091.82
390.61	7655.89
390.81	8175.49
391.00	8145.06
391.19	8011.65
391.39	7712.07
391.58	7442.90
391.78	7087.14
391.97	6911.60
392.16	6202.42
392.36	5357.49
392.55	4248.07
392.75	3332.92
392.94	2850.77
393.13	3014.61
393.33	3824.44
393.52	4870.65
393.71	5659.42
393.91	6317.11
394.10	6899.90
394.29	7836.11
394.49	8351.03
394.68	8674.03
394.88	8931.48
395.07	9067.24
395.26	8805.10
395.46	8540.61
395.65	7777.60
395.84	6874.15
396.04	5533.03
396.23	4657.67
396.42	3901.67
396.62	3906.35
396.81	4812.14
397.00	6174.33
397.19	7805.69
397.39	9186.60
397.58	10108.77
397.77	10436.45
397.97	10984.13
398.16	11314.15
398.35	11417.13
398.55	11796.30
398.74	12453.99
398.93	12355.69
399.12	12177.81
399.32	11726.08
399.51	12308.88
399.70	12926.78
399.90	12636.55
400.09	12521.87
400.28	12482.08
400.47	12875.29
400.67	13596.17
400.86	13846.61
401.05	13965.98
401.24	13933.21
401.44	13996.40
401.63	14047.90
401.82	14064.28
402.01	14162.58
402.21	14148.54
402.40	14298.33
402.59	13717.88
402.78	12924.44
402.97	13212.32
403.17	13933.21
403.36	14539.41
403.55	15070.71
403.74	14991.13
403.93	14085.34
404.13	13156.15
404.32	13022.74
404.51	13933.21
404.70	14686.86
404.89	14630.69
405.09	14242.16
405.28	13708.52
405.47	14260.88
405.66	14331.10
405.85	13565.74
406.05	13486.17
406.24	13591.49
406.43	14469.19
406.62	14473.87
406.81	14855.38
407.00	14452.81
407.20	14160.24
407.39	14099.39
407.58	14956.02
407.77	15456.90
407.96	15880.53
408.15	16219.91
408.34	16299.49
408.54	16769.94
408.73	16788.66
408.92	16563.97
409.11	15807.98
409.30	15012.20
409.49	14148.54
409.68	13102.32
409.87	13071.89
410.07	14300.67
410.26	15019.22
410.45	16154.38
410.64	16437.58
410.83	17188.89
411.02	17291.88
411.21	18038.51
411.40	17701.47
411.59	18108.72
411.78	17628.92
411.98	17584.44
412.17	17907.44
412.36	17481.46
412.55	17745.94
412.74	16961.86
412.93	16919.73
413.12	17179.53
413.31	19115.16
413.50	19220.48
413.69	19255.59
413.88	18237.45
414.07	18122.77
414.26	18523.00
414.45	19049.62
414.64	18932.59
414.83	18642.37
415.02	18455.12
415.22	18506.62
415.41	19178.35
415.60	19639.44
415.79	20184.78
415.98	20718.42
416.17	20512.46
416.36	19807.95
416.55	19908.60
416.74	19051.96
416.93	18616.62
417.12	19150.26
417.31	19178.35
417.50	19499.00
417.69	20189.46
417.88	19541.13
418.07	19562.20
418.26	19447.51
418.45	19922.64
418.64	20769.91
418.83	21631.23
419.02	20926.73
419.21	20372.02
419.39	19737.74
419.58	18963.02
419.77	19323.46
419.96	20369.68
420.15	21165.46
420.34	21853.58
420.53	22221.05
420.72	22520.63
420.91	22761.71
421.10	22085.30
421.29	21884.01
421.48	21149.08
421.67	22663.41
421.86	21476.76
422.05	19274.31
422.24	18033.83
422.43	18930.25
422.61	20779.28
422.80	22052.53
422.99	21123.33
423.18	20486.71
423.37	20554.58
423.56	20718.42
423.75	21158.44
423.94	21738.90
424.13	20460.96
424.32	20634.16
424.50	20257.34
424.69	20477.35
424.88	20645.87
425.07	20311.17
425.26	20613.10
425.45	19653.48
425.64	19742.42
425.83	20081.80
426.01	21001.63
426.20	21298.88
426.39	21104.61
426.58	19414.74
426.77	17972.97
426.96	18099.36
427.15	18675.13
427.33	20264.36
427.52	20975.88
427.71	20608.42
427.90	20517.14
428.09	20362.66
428.28	19496.66
428.46	18948.98
428.65	18771.10
428.84	19381.98
429.03	19506.02
429.22	18593.22
429.40	17186.55
429.59	15311.78
429.78	14080.66
429.97	14466.85
430.16	14532.39
430.34	14478.55
430.53	14967.73
430.72	15435.83
430.91	17444.01
431.10	20266.70
431.28	23185.35
431.47	24933.73
431.66	24109.86
431.85	21832.52
432.03	20446.92
432.22	20086.48
432.41	21467.39
432.60	23285.99
432.79	24355.61
432.97	24432.85
433.16	23859.42
433.35	20933.75
433.54	19215.80
433.72	18775.78
433.91	19782.21
434.10	22192.96
434.28	23349.18
434.47	24332.21
434.66	23494.30
434.85	22817.88
435.03	23302.37
435.22	23707.29
435.41	24933.73
435.59	25502.48
435.78	25549.29
435.97	26176.55
436.16	26103.99
436.34	25523.54
436.53	25184.16
436.72	25167.78
436.90	23917.93
437.09	23751.76
437.28	23625.37
437.46	24545.20
437.65	23733.03
437.84	21675.70
438.02	20898.64
438.21	21212.28
438.40	21783.37
438.58	23700.26
438.77	24613.07
438.96	24760.53
439.14	25900.37
439.33	26101.65
439.52	27005.10
439.70	25752.91
439.89	24940.75
440.08	24620.10
440.26	24713.72
440.45	26127.40
440.63	28020.89
440.82	28137.92
441.01	27866.42
441.19	27644.07
441.38	28741.78
441.57	29614.80
441.75	29390.11
441.94	29823.11
442.12	29317.55
442.31	30588.46
442.50	30202.27
442.68	29958.86
442.87	29788.00
443.05	28957.11
443.24	30270.15
443.43	30464.41
443.61	30771.02
443.80	31459.14
443.98	30497.18
444.17	29862.90
444.35	30967.63
444.54	31555.10
444.73	31021.46
444.91	29556.28
445.10	28701.99
445.28	27637.05
445.47	27239.15
445.65	27817.27
445.84	28542.83
446.02	29022.64
446.21	29565.65
446.39	29919.07
446.58	30349.73
446.77	30831.88
446.95	31260.20
447.14	31847.67
447.32	32467.91
447.51	31508.29
447.69	30595.48
447.88	30218.66
448.06	30771.02
448.25	31311.69
448.43	30824.86
448.62	30625.91
448.80	30705.49
448.99	30866.98
449.17	31283.60
449.36	31756.39
449.54	32561.53
449.73	32776.86
449.91	33090.49
450.10	34319.28
450.28	34583.76
450.46	34710.14
450.65	34218.63
450.83	33860.53
451.02	33689.67
451.20	33415.83
451.39	34054.79
451.57	33113.90
451.76	33464.98
451.94	32418.76
452.13	31611.28
452.31	30122.69
452.49	29240.31
452.68	29956.52
452.86	30223.34
453.05	30764.00
453.23	31974.06
453.42	32280.67
453.60	33111.56
453.78	32924.32
453.97	32926.66
454.15	32402.38
454.34	31529.36
454.52	31440.42
454.70	31466.16
454.89	32032.57
455.07	32004.49
455.26	32512.38
455.44	33542.22
455.62	34204.59
455.81	33773.93
455.99	34352.04
456.17	34246.72
456.36	34979.31
456.54	35086.97
456.73	34473.75
456.91	35012.07
457.09	35529.33
457.28	36245.54
457.46	34405.88
457.64	34403.53
457.83	33462.64
458.01	33081.13
458.19	34330.98
458.38	35145.48
458.56	35353.79
458.74	34794.40
458.93	34125.01
459.11	33497.75
459.29	33743.50
459.48	34347.36
459.66	33944.79
459.84	33778.61
460.03	34558.01
460.21	35655.72
460.39	36095.74
460.57	35424.01
460.76	35852.33
460.94	36175.32
461.12	35948.29
461.31	35871.05
461.49	36292.35
461.67	36533.42
461.85	37315.16
462.04	36694.92
462.22	36601.30
462.40	36226.81
462.59	35819.56
462.77	36224.47
462.95	36201.07
463.13	36231.49
463.32	35339.75
463.50	35309.32
463.68	35447.41
463.86	35952.97
464.05	34944.20
464.23	34213.95
464.41	34459.71
464.59	34316.93
464.78	35611.25
464.96	35026.12
465.14	34359.06
465.32	35983.40
465.50	37301.12
465.69	38204.56
465.87	36697.26
466.05	35477.84
466.23	34405.88
466.41	33156.03
466.60	34632.91
466.78	34426.94
466.96	34548.65
467.14	35545.72
467.32	35398.26
467.51	35800.83
467.69	33825.42
467.87	35335.07
468.05	35503.59
468.23	35615.93
468.41	35702.53
468.60	35908.50
468.78	36425.76
468.96	36048.93
469.14	36615.34
469.32	36437.46
469.50	34696.10
469.69	35061.22
469.87	35023.78
470.05	34213.95
470.23	34572.05
470.41	34859.94
470.59	35416.99
470.77	35189.95
470.95	36098.08
471.14	36472.57
471.32	36943.02
471.50	38785.02
471.68	38614.16
471.86	39428.66
472.04	38433.94
472.22	38787.36
472.40	37872.21
472.58	37104.51
472.77	37069.40
472.95	37581.98
473.13	38885.66
473.31	37551.56
473.49	37099.83
473.67	38267.76
473.85	39276.53
474.03	40488.93
474.21	40669.15
474.39	40992.14
474.57	40266.58
474.75	40893.84
474.93	40189.34
475.12	38815.44
475.30	39482.50
475.48	38572.03
475.66	39112.69
475.84	38902.04
476.02	39435.69
476.20	38778.00
476.38	39466.11
476.56	40751.07
476.74	41296.41
476.92	41401.74
477.10	41212.15
477.28	42927.77
477.46	42930.11
477.64	43264.80
477.82	43775.04
478.00	43831.21
478.18	42670.31
478.36	42223.26
478.54	42667.97
478.72	43482.47
478.90	45151.27
479.08	46120.26
479.26	46082.81
479.44	46838.80
479.62	45546.82
479.80	46373.03
479.98	46209.20
480.16	46806.03
480.34	45415.76
480.52	46822.42
480.70	46848.16
480.88	47035.41
481.06	47084.56
481.24	47447.34
481.41	48596.54
481.59	49102.10
481.77	47969.28
481.95	47536.28
482.13	47929.49
482.31	48170.57
482.49	48924.22
482.67	48088.65
482.85	48844.64
483.03	48882.09
483.21	49720.00
483.39	49659.15
483.57	48917.20
483.74	49352.54
483.92	49392.33
484.10	49006.14
484.28	48924.22
484.46	49649.78
484.64	50841.12
484.82	49886.18
485.00	49137.21
485.18	48858.68
485.35	46445.59
485.53	41137.26
485.71	39199.29
485.89	39828.90
486.07	43484.81
486.25	45546.82
486.43	47826.51
486.61	48200.99
486.78	47536.28
486.96	49017.84
487.14	50138.96
487.32	50752.18
487.50	51693.07
487.68	53219.10
487.85	53958.71
488.03	52870.36
488.21	52165.86
488.39	51999.68
488.57	50777.92
488.75	50817.71
488.92	52292.25
489.10	54087.44
489.28	54782.58
489.46	55945.83
489.64	55798.37
489.81	55861.57
489.99	55128.98
490.17	55372.39
490.35	55594.74
490.53	55192.17
490.70	55014.29
490.88	54578.95
491.06	55779.65
491.24	56151.79
491.41	55021.31
491.59	53535.07
491.77	53530.39
491.95	54789.60
492.13	56009.02
492.30	56229.03
492.48	56793.10
492.66	57443.77
492.84	56896.08
493.01	56692.46
493.19	56676.07
493.37	56086.26
493.54	56451.38
493.72	57305.68
493.90	57677.82
494.08	58038.26
494.25	58127.20
494.43	58859.79
494.61	59065.76
494.79	59098.53
494.96	59344.28
495.14	58838.73
495.32	57579.52
495.49	57595.90
495.67	58691.27
495.85	59498.76
496.02	59882.61
496.20	59257.68
496.38	58983.84
496.55	59089.16
496.73	59543.23
496.91	59906.01
497.09	59732.81
497.26	60217.30
497.44	59742.17
497.62	58969.80
497.79	58307.43
497.97	57462.49
498.14	58288.70
498.32	59355.99
498.50	59545.57
498.67	59384.07
498.85	59407.48
499.03	59959.84
499.20	60273.48
499.38	59650.89
499.56	59042.35
499.73	59072.78
499.91	59028.31
500.08	58195.08
500.26	57895.49
500.44	58808.30
500.61	59145.34
500.79	58796.60
500.97	58932.35
501.14	58202.10
501.32	57502.28
501.49	58047.63
501.67	58766.17
501.84	58653.82
502.02	59161.72
502.20	60001.97
502.37	59887.29
502.55	60116.66
502.72	60643.28
502.90	60907.76
503.07	60418.59
503.25	59648.55
503.43	58663.19
503.60	58431.47
503.78	58443.18
503.95	58937.03
504.13	59976.23
504.30	60343.69
504.48	59629.83
504.65	59987.93
504.83	59983.25
505.01	60992.02
505.18	61029.47
505.36	61310.33
505.53	61446.08
505.71	61289.27
505.88	61818.23
506.06	61167.56
506.23	61071.60
506.41	60687.75
506.58	61162.88
506.76	60711.16
506.93	60154.11
507.11	60214.96
507.28	60416.25
507.46	59618.13
507.63	60013.68
507.81	59295.13
507.98	59863.88
508.16	60907.76
508.33	60844.57
508.50	61095.00
508.68	61722.27
508.85	61783.12
509.03	61975.05
509.20	61549.07
509.38	60619.88
509.55	60603.49
509.73	60860.95
509.90	60893.72
510.08	61134.79
510.25	60479.44
510.42	60645.62
510.60	60985.00
510.77	61256.50
510.95	61443.74
511.12	61670.78
511.30	62298.04
511.47	62705.29
511.64	62328.47
511.82	62288.68
511.99	61436.72
512.17	61216.71
512.34	60692.43
512.51	60851.59
512.69	61378.21
512.86	60498.17
513.04	61216.71
513.21	60535.62
513.38	59983.25
513.56	59557.27
513.73	59348.96
513.90	60411.57
514.08	60268.79
514.25	60231.35
514.43	60629.24
514.60	60935.85
514.77	60989.68
514.95	61165.22
515.12	60970.96
515.29	61499.92
515.47	61975.05
515.64	61755.03
515.81	61331.40
515.99	60465.40
516.16	58670.21
516.33	56725.22
516.51	56631.60
516.68	55271.75
516.85	54555.55
517.03	56451.38
517.20	58546.16
517.37	60589.45
517.54	61310.33
517.72	59901.33
517.89	56879.70
518.06	55695.39
518.24	57006.09
518.41	58953.41
518.58	60095.60
518.75	60205.60
518.93	60060.49
519.10	59367.69
519.27	60582.43
519.45	60992.02
519.62	61357.14
519.79	61605.24
519.96	60910.10
520.14	60760.31
520.31	59576.00
520.48	59889.63
520.65	60573.06
520.83	61867.38
521.00	61544.39
521.17	61043.51
521.34	61146.50
521.52	61441.40
521.69	61771.42
521.86	62183.35
522.03	61635.67
522.20	60413.91
522.38	60060.49
522.55	60320.29
522.72	60685.41
522.89	60273.48
523.07	61034.15
523.24	61712.91
523.41	62157.61
523.58	62588.27
523.75	62599.97
523.92	62227.82
524.10	62014.83
524.27	61787.80
524.44	61769.08
524.61	61279.91
524.78	61565.45
524.96	61696.52
525.13	61673.12
525.30	62262.93
525.47	62487.62
525.64	62386.98
525.81	61572.47
525.98	59952.82
526.16	58798.94
526.33	59044.69
526.50	58302.74
526.67	58337.85
526.84	58897.24
527.01	59711.75
527.18	60051.12
527.36	60982.66
527.53	61979.73
527.70	61432.04
527.87	60264.11
528.04	61207.35
528.21	61602.90
528.38	62246.55
528.55	63103.18
528.72	62679.55
528.89	62340.17
529.07	62307.40
529.24	61118.41
529.41	61083.30
529.58	60945.21
529.75	61841.63
529.92	61982.07
530.09	61876.74
530.26	62363.57
530.43	63236.59
530.60	62096.75
530.77	62871.47
530.94	63208.51
531.11	61832.27
531.28	62152.93
531.46	62211.44
531.63	62262.93
531.80	61902.49
531.97	61272.88
532.14	61333.74
532.31	59763.24
532.48	59323.22
532.65	59374.71
532.82	60196.24
532.99	61843.98
533.16	61876.74
533.33	62066.33
533.50	62110.80
533.67	61752.69
533.84	61275.22
534.01	61684.82
534.18	61635.67
534.35	61551.41
534.52	60802.44
534.69	61336.08
534.86	61939.94
535.03	62492.30
535.20	62347.19
535.37	63000.20
535.54	62974.45
535.71	62855.09
535.88	62705.29
536.05	61581.84
536.22	61038.83
536.38	60992.02
536.55	60381.14
536.72	60039.42
536.89	60811.80
537.06	60617.53
537.23	61118.41
537.40	61052.87
537.57	60800.10
537.74	61221.39
537.91	61392.25
538.08	61668.44
538.25	61443.74
538.42	62412.73
538.59	61801.85
538.75	61172.24
538.92	60205.60
539.09	60687.75
539.26	60685.41
539.43	60411.57
539.60	60126.02
539.77	60982.66
539.94	60397.52
540.11	59704.73
540.28	59831.11
540.44	59660.26
540.61	59454.29
540.78	59824.09
540.95	60505.19
541.12	60453.70
541.29	61062.24
541.46	61038.83
541.62	61413.32
541.79	60601.15
541.96	60189.22
542.13	60367.10
542.30	60292.20
542.47	60767.33
542.63	60722.86
542.80	60582.43
542.97	60027.72
543.14	60006.65
543.31	60280.50
543.48	61043.51
543.64	61441.40
543.81	62136.54
543.98	62007.81
544.15	60622.22
544.32	61263.52
544.48	60769.67
544.65	60736.90
544.82	61305.65
544.99	59992.61
545.16	59739.83
545.32	60046.44
545.49	60786.05
545.66	60816.48
545.83	60722.86
546.00	61062.24
546.16	60858.61
546.33	60537.96
546.50	60697.11
546.67	61235.44
546.83	60444.33
547.00	61041.17
547.17	59910.69
547.34	59037.67
547.50	59103.21
547.67	59826.43
547.84	60807.12
548.00	60877.33
548.17	60495.83
548.34	60715.84
548.51	60823.50
548.67	60828.18
548.84	60900.74
549.01	60987.34
549.18	60547.32
549.34	60612.85
549.51	61017.77
549.68	61050.53
549.84	60121.34
550.01	59800.69
550.18	59693.02
550.34	59842.82
550.51	60133.04
550.68	60788.39
550.84	60638.60
551.01	59662.60
551.18	59667.28
551.34	59365.35
551.51	60416.25
551.68	60446.68
551.84	61132.45
552.01	60418.59
552.18	60076.87
552.34	59412.16
552.51	59140.66
552.68	59040.01
552.84	59456.63
553.01	59508.12
553.18	59938.78
553.34	60023.04
553.51	60135.38
553.67	60196.24
553.84	60161.13
554.01	60498.17
554.17	59798.35
554.34	60217.30
554.51	59983.25
554.67	59161.72
554.84	59332.58
555.00	59302.15
555.17	59243.64
555.33	59260.02
555.50	58911.28
555.67	59405.14
555.83	59540.89
556.00	59175.76
556.16	59173.42
556.33	58838.73
556.50	59068.10
556.66	59056.40
556.83	58728.72
556.99	58436.16
557.16	59049.38
557.32	58639.78
557.49	58990.86
557.65	58735.74
557.82	59320.88
557.98	59669.62
558.15	58274.66
558.32	57827.62
558.48	57408.66
558.65	57343.12
558.81	57621.65
558.98	58592.97
559.14	58862.13
559.31	58567.23
559.47	58064.01
559.64	58089.76
559.80	57389.94
559.97	58272.32
560.13	58773.19
560.30	59728.13
560.46	60189.22
560.63	60236.03
560.79	60053.47
560.96	59341.94
561.12	58314.45
561.29	57853.36
561.45	57886.13
561.61	59002.56
561.78	57998.48
561.94	58677.23
562.11	58775.53
562.27	58017.20
562.44	58934.69
562.60	59278.75
562.77	59203.85
562.93	58218.49
563.10	58461.90
563.26	58506.37
563.42	59002.56
563.59	58443.18
563.75	58169.33
563.92	57787.83
564.08	57523.35
564.24	58590.63
564.41	57928.26
564.57	58796.60
564.74	58344.87
564.90	57921.24
565.07	57801.87
565.23	56863.32
565.39	56456.06
565.56	56933.53
565.72	57183.97
565.88	56275.84
566.05	57862.72
566.21	58227.85
566.38	57914.22
566.54	57986.77
566.70	58651.48
566.87	58410.41
567.03	57872.09
567.19	58749.79
567.36	59178.10
567.52	57736.34
567.68	57223.76
567.85	56839.91
568.01	57200.35
568.17	57237.80
568.34	57221.42
568.50	56856.29
568.66	56718.20
568.83	56591.81
568.99	56465.42
569.15	56645.65
569.32	56507.55
569.48	56633.94
569.64	56516.92
569.81	56219.67
569.97	56266.48
570.13	55327.92
570.30	55058.76
570.46	54688.96
570.62	53937.65
570.78	54578.95
570.95	55206.22
571.11	55606.45
571.27	55086.85
571.43	55468.36
571.60	55358.35
571.76	56254.78
571.92	56484.15
572.09	56978.00
572.25	56690.12
572.41	56811.82
572.57	56823.53
572.74	57062.26
572.90	57935.28
573.06	57387.60
573.22	57460.15
573.38	57017.79
573.55	58277.00
573.71	56856.29
573.87	56844.59
574.03	56882.04
574.20	56413.93
574.36	56324.99
574.52	55690.71
574.68	55683.69
574.84	54789.60
575.01	55037.70
575.17	55047.06
575.33	55547.93
575.49	55693.05
575.65	54536.82
575.82	54932.37
575.98	55021.31
576.14	56011.36
576.30	56605.86
576.46	55407.50
576.62	55246.00
576.79	55384.10
576.95	55690.71
577.11	55868.59
577.27	55697.73
577.43	55920.08
577.59	55136.00
577.75	54302.77
577.92	54387.03
578.08	54759.17
578.24	54822.37
578.40	54962.80
578.56	53743.38
578.72	54471.29
578.88	54279.36
579.04	54660.87
579.21	54466.61
579.37	54494.69
579.53	55133.66
579.69	54485.33
579.85	54049.99
580.01	54277.02
580.17	53813.60
580.33	54834.07
580.49	55173.45
580.65	53837.00
580.82	54593.00
580.98	55194.51
581.14	55372.39
581.30	54967.48
581.46	54522.78
581.62	54717.04
581.78	55442.61
581.94	55337.29
582.10	55447.29
582.26	55512.83
582.42	55121.96
582.58	54316.81
582.74	54424.48
582.90	54485.33
583.06	55007.27
583.22	55042.38
583.38	54848.11
583.54	55473.04
583.70	55379.42
583.86	55260.05
584.02	54262.98
584.18	54122.55
584.34	53895.52
584.50	53579.54
584.66	54131.91
584.82	53951.69
584.98	54078.08
585.14	53411.02
585.30	53820.62
