SpectraSuite Data File
++++++++++++++++++++++++++++++++++++
Date: Mon Oct 07 14:54:58 GMT-05:00 2013
User: price-jones
Dark Spectrum Present: No
Reference Spectrum Present: No
Number of Sampled Component Spectra: 1
Spectrometers: USB2+H05261
Integration Time (usec): 10000 (USB2+H05261)
Spectra Averaged: 1 (USB2+H05261)
Boxcar Smoothing: 0 (USB2+H05261)
Correct for Electrical Dark: No (USB2+H05261)
Strobe/Lamp Enabled: No (USB2+H05261)
Correct for Detector Non-linearity: No (USB2+H05261)
Correct for Stray Light: No (USB2+H05261)
Number of Pixels in Processed Spectrum: 2048
>>>>>Begin Processed Spectral Data<<<<<
365.73	0.00
365.92	0.00
366.12	0.00
366.32	0.00
366.52	0.00
366.72	0.00
366.91	0.00
367.11	0.00
367.31	0.00
367.51	0.00
367.70	0.00
367.90	0.00
368.10	0.00
368.30	0.00
368.49	0.00
368.69	0.00
368.89	0.00
369.09	0.00
369.28	0.00
369.48	0.00
369.68	0.00
369.87	0.00
370.07	0.00
370.27	0.00
370.47	180.22
370.66	1409.00
370.86	1671.14
371.06	1797.53
371.25	1764.76
371.45	1526.03
371.65	1479.22
371.84	1383.26
372.04	1556.46
372.24	1610.29
372.44	1739.02
372.63	1633.69
372.83	1523.69
373.03	1322.40
373.22	1177.29
373.42	1355.17
373.62	1607.95
373.81	1664.12
374.01	1526.03
374.21	1378.58
374.40	1245.16
374.60	1483.90
374.79	1720.29
374.99	1947.33
375.19	1968.39
375.38	2085.42
375.58	1968.39
375.78	1853.70
375.97	1909.88
376.17	1970.73
376.37	1987.11
376.56	2120.53
376.76	2312.45
376.95	2356.92
377.15	2382.67
377.35	2555.86
377.54	2747.79
377.74	2789.92
377.93	2712.68
378.13	2703.32
378.33	2338.20
378.52	2218.83
378.72	2239.89
378.91	2246.91
379.11	2155.63
379.31	1963.71
379.50	2047.97
379.70	2190.74
379.89	2539.48
380.09	2630.76
380.28	2733.75
380.48	2726.72
380.68	2644.81
380.87	2485.65
381.07	2317.13
381.26	2155.63
381.46	2001.16
381.65	1989.46
381.85	1809.23
382.04	1774.13
382.24	1603.27
382.43	1668.80
382.63	1497.94
382.83	1619.65
383.02	1535.39
383.22	1624.33
383.41	1603.27
383.61	1797.53
383.80	2134.57
384.00	2298.41
384.19	2658.85
384.39	2684.59
384.58	2656.51
384.78	2654.17
384.97	2572.25
385.17	2422.45
385.36	2380.32
385.56	2237.55
385.75	2497.35
385.95	2630.76
386.14	2771.19
386.34	2782.90
386.53	2490.33
386.72	2506.71
386.92	2626.08
387.11	2602.68
387.31	2722.04
387.50	2761.83
387.70	2708.00
387.89	2616.72
388.09	2487.99
388.28	2560.55
388.48	2637.78
388.67	2920.99
388.86	3204.19
389.06	3611.45
389.25	3508.46
389.45	3655.92
389.64	3618.47
389.84	3583.36
390.03	3485.06
390.22	3534.21
390.42	3695.71
390.61	4007.00
390.81	4173.18
391.00	4140.41
391.19	4236.37
391.39	4028.06
391.58	3651.24
391.78	3438.25
391.97	3424.20
392.16	3211.22
392.36	2757.15
392.55	2132.23
392.75	1626.67
392.94	1540.07
393.13	1493.26
393.33	1860.73
393.52	2436.50
393.71	2867.16
393.91	3300.16
394.10	3693.37
394.29	4042.11
394.49	4227.01
394.68	4461.06
394.88	4395.53
395.07	4568.73
395.26	4461.06
395.46	4407.23
395.65	4072.53
395.84	3475.70
396.04	2867.16
396.23	2263.30
396.42	1973.07
396.62	2033.93
396.81	2483.31
397.00	3169.09
397.19	3960.19
397.39	4737.24
397.58	5128.11
397.77	5331.74
397.97	5577.50
398.16	5540.05
398.35	5959.00
398.55	5884.11
398.74	6057.31
398.93	6181.35
399.12	6040.92
399.32	6090.07
399.51	6284.34
399.70	6693.93
399.90	6377.96
400.09	6420.09
400.28	6520.73
400.47	6693.93
400.67	6815.64
400.86	6988.84
401.05	6810.96
401.24	6998.20
401.44	7089.48
401.63	7098.84
401.82	7258.00
402.01	7138.63
402.21	7274.38
402.40	7356.30
402.59	6967.77
402.78	6612.01
402.97	6546.48
403.17	6766.49
403.36	7389.07
403.55	7653.55
403.74	7562.27
403.93	6970.12
404.13	6600.31
404.32	6754.79
404.51	7000.54
404.70	7564.61
404.89	7398.43
405.09	7262.68
405.28	7030.97
405.47	7187.79
405.66	7138.63
405.85	6623.72
406.05	6698.61
406.24	6876.49
406.43	7080.12
406.62	7339.92
406.81	7311.83
407.00	7040.33
407.20	6843.73
407.39	7021.61
407.58	7377.37
407.77	7613.76
407.96	7878.24
408.15	8049.10
408.34	8065.49
408.54	8486.78
408.73	8484.44
408.92	8182.51
409.11	7712.07
409.30	7452.27
409.49	6946.71
409.68	6850.75
409.87	6911.60
410.07	7169.06
410.26	7424.18
410.45	8051.44
410.64	8140.38
410.83	8524.23
411.02	8723.18
411.21	9039.15
411.40	8931.48
411.59	8723.18
411.78	8713.81
411.98	8769.99
412.17	8753.60
412.36	8596.79
412.55	8624.87
412.74	8507.85
412.93	8311.24
413.12	8692.75
413.31	9341.08
413.50	9268.52
413.69	9275.54
413.88	8910.42
414.07	8688.07
414.26	9249.80
414.45	9261.50
414.64	9451.08
414.83	9348.10
415.02	9055.53
415.22	9336.40
415.41	9357.46
415.60	9554.07
415.79	10190.69
415.98	10312.40
416.17	9893.44
416.36	9589.17
416.55	9619.60
416.74	9217.03
416.93	9135.11
417.12	9181.92
417.31	9130.43
417.50	9699.18
417.69	9731.95
417.88	9764.72
418.07	9596.20
418.26	9254.48
418.45	9640.67
418.64	10136.86
418.83	10204.74
419.02	9935.57
419.21	9933.23
419.39	9345.76
419.58	9055.53
419.77	9303.63
419.96	9554.07
420.15	10260.91
420.34	10523.05
420.53	10656.46
420.72	10925.62
420.91	10967.75
421.10	10633.05
421.29	10689.23
421.48	10139.20
421.67	10714.97
421.86	10232.82
422.05	9341.08
422.24	8788.71
422.43	9048.51
422.61	10068.98
422.80	10216.44
422.99	10073.67
423.18	10010.47
423.37	9818.55
423.56	9820.89
423.75	10134.52
423.94	10303.04
424.13	9624.28
424.32	9633.64
424.50	9661.73
424.69	9795.14
424.88	9734.29
425.07	9509.60
425.26	9462.79
425.45	9298.95
425.64	9537.68
425.83	9792.80
426.01	10368.57
426.20	10279.63
426.39	9736.63
426.58	9128.09
426.77	8535.93
426.96	8393.16
427.15	8814.46
427.33	9439.38
427.52	9898.13
427.71	9743.65
427.90	9378.53
428.09	9432.36
428.28	9600.88
428.46	9184.26
428.65	9146.81
428.84	9371.50
429.03	9366.82
429.22	8549.98
429.40	8203.58
429.59	7421.84
429.78	6689.25
429.97	6761.81
430.16	6555.84
430.34	6633.08
430.53	6658.82
430.72	7019.27
430.91	8086.55
431.10	9530.66
431.28	10862.43
431.47	11536.50
431.66	11482.67
431.85	10272.61
432.03	9348.10
432.22	9469.81
432.41	10036.22
432.60	10757.10
432.79	11262.66
432.97	11290.74
433.16	10698.59
433.35	9956.64
433.54	8982.98
433.72	8737.22
433.91	9350.44
434.10	10218.78
434.28	10682.20
434.47	11154.99
434.66	10839.02
434.85	10721.99
435.03	10916.26
435.22	11197.12
435.41	11529.48
435.59	11672.25
435.78	11681.61
435.97	12304.20
436.16	12035.03
436.34	11908.65
436.53	11861.84
436.72	11613.74
436.90	10834.34
437.09	11040.31
437.28	11091.80
437.46	11386.71
437.65	10930.30
437.84	10251.55
438.02	9902.81
438.21	9961.32
438.40	10466.88
438.58	10754.76
438.77	11105.84
438.96	11192.44
439.14	11871.20
439.33	11936.73
439.52	12226.96
439.70	12072.48
439.89	11344.58
440.08	11351.60
440.26	11585.65
440.45	11833.75
440.63	12645.91
440.82	13544.68
441.01	12950.18
441.19	12936.14
441.38	13268.50
441.57	13348.08
441.75	13675.75
441.94	13926.19
442.12	13549.36
442.31	14101.73
442.50	13944.91
442.68	13713.20
442.87	13731.92
443.05	13528.30
443.24	13982.36
443.43	13884.06
443.61	13858.31
443.80	14387.27
443.98	13582.13
444.17	14075.98
444.35	14534.73
444.54	14815.59
444.73	14499.62
444.91	13741.29
445.10	13163.17
445.28	12561.66
445.47	12620.17
445.65	12524.21
445.84	13158.49
446.02	13387.86
446.21	13610.22
446.39	13874.70
446.58	13947.25
446.77	14160.24
446.95	14314.72
447.14	14370.89
447.32	14724.31
447.51	14487.92
447.69	13741.29
447.88	13811.50
448.06	13827.88
448.25	14260.88
448.43	14036.19
448.62	13624.26
448.80	13425.31
448.99	13855.97
449.17	14176.62
449.36	14099.39
449.54	14558.13
449.73	15070.71
449.91	15126.88
450.10	15309.44
450.28	15566.90
450.46	15110.50
450.65	15288.38
450.83	15005.17
451.02	15176.03
451.20	14834.32
451.39	14572.18
451.57	14754.74
451.76	14871.76
451.94	14562.81
452.13	14576.86
452.31	13675.75
452.49	13165.51
452.68	13682.77
452.86	13462.76
453.05	13811.50
453.23	14406.00
453.42	14504.30
453.60	14541.75
453.78	14766.44
453.97	14321.74
454.15	14473.87
454.34	14277.27
454.52	14183.65
454.70	13958.96
454.89	14183.65
455.07	14298.33
455.26	14464.51
455.44	14839.00
455.62	15342.21
455.81	15316.47
455.99	14977.09
456.17	15220.50
456.36	15197.10
456.54	15704.99
456.73	15573.92
456.91	15667.55
457.09	16266.72
457.28	15843.09
457.46	15400.72
457.64	15499.03
457.83	14736.01
458.01	14813.25
458.19	14998.15
458.38	14932.62
458.56	15173.69
458.74	15440.51
458.93	15267.31
459.11	15028.58
459.29	14707.93
459.48	14897.51
459.66	14633.03
459.84	14953.68
460.03	15712.02
460.21	15456.90
460.39	15730.74
460.57	16044.37
460.76	15798.62
460.94	16042.03
461.12	15927.35
461.31	15967.13
461.49	16365.03
461.67	15838.41
461.85	16060.76
462.04	16046.71
462.22	16205.87
462.40	15976.50
462.59	15939.05
462.77	15805.64
462.95	16051.39
463.13	15981.18
463.32	15899.26
463.50	15578.61
463.68	15943.73
463.86	16046.71
464.05	15786.91
464.23	14960.70
464.41	15028.58
464.59	14604.94
464.78	15557.54
464.96	15412.43
465.14	15199.44
465.32	15807.98
465.50	15971.82
465.69	16292.47
465.87	16020.97
466.05	15103.48
466.23	14817.93
466.41	14904.53
466.60	15452.22
466.78	15220.50
466.96	15037.94
467.14	15143.27
467.32	15520.09
467.51	15473.28
467.69	14775.80
467.87	15318.81
468.05	15314.13
468.23	15424.13
468.41	15510.73
468.60	15805.64
468.78	15480.30
468.96	15489.67
469.14	16020.97
469.32	15873.51
469.50	15272.00
469.69	15161.99
469.87	14724.31
470.05	15138.58
470.23	15105.82
470.41	15484.98
470.59	15290.72
470.77	15662.86
470.95	15655.84
471.14	15971.82
471.32	15939.05
471.50	16938.46
471.68	17060.16
471.86	17165.49
472.04	16957.18
472.22	16769.94
472.40	16233.96
472.58	16491.41
472.77	15658.18
472.95	16191.83
473.13	16568.65
473.31	16210.55
473.49	16325.24
473.67	16568.65
473.85	16449.28
474.03	16802.71
474.21	16826.11
474.39	16994.63
474.57	16950.16
474.75	17460.40
474.93	17231.02
475.12	16957.18
475.30	17020.38
475.48	16992.29
475.66	17135.06
475.84	17008.67
476.02	17022.72
476.20	16688.02
476.38	17116.34
476.56	17366.78
476.74	17572.74
476.92	17750.62
477.10	17689.77
477.28	18501.93
477.46	18520.66
477.64	18298.31
477.82	18546.40
478.00	18771.10
478.18	18504.28
478.36	18415.34
478.54	17860.63
478.72	18757.05
478.90	19412.40
479.08	19253.25
479.26	19470.92
479.44	19075.37
479.62	19531.77
479.80	19627.73
479.98	19491.98
480.16	19803.27
480.34	19826.68
480.52	19370.27
480.70	20063.07
480.88	19735.40
481.06	20367.34
481.24	20666.93
481.41	21085.89
481.59	21383.13
481.77	21025.03
481.95	20500.75
482.13	21039.08
482.31	20301.81
482.49	21439.31
482.67	20720.76
482.85	20940.77
483.03	20858.85
483.21	21451.01
483.39	21294.19
483.57	21303.56
483.74	21247.38
483.92	21324.62
484.10	21436.97
484.28	21738.90
484.46	21825.50
484.64	21514.20
484.82	21474.42
485.00	21003.97
485.18	20421.17
485.35	19990.52
485.53	17575.08
485.71	16388.43
485.89	17088.25
486.07	18162.56
486.25	19410.06
486.43	20205.84
486.61	20098.18
486.78	20128.61
486.96	20725.44
487.14	21458.03
487.32	22181.26
487.50	22497.23
487.68	22115.72
487.85	23058.96
488.03	23384.29
488.21	22405.95
488.39	21710.81
488.57	22258.49
488.75	22384.88
488.92	23482.59
489.10	25034.37
489.28	25364.39
489.46	25926.11
489.64	26529.97
489.81	26508.91
489.99	25305.87
490.17	26094.63
490.35	26450.39
490.53	25509.50
490.70	25088.20
490.88	25570.35
491.06	26181.23
491.24	26101.65
491.41	24746.48
491.59	23985.81
491.77	23433.44
491.95	24320.51
492.13	25413.54
492.30	26015.05
492.48	27470.87
492.66	27332.78
492.84	26380.18
493.01	26443.37
493.19	25539.93
493.37	25343.32
493.54	25525.88
493.72	26291.24
493.90	27597.26
494.08	27910.89
494.25	28470.28
494.43	28851.78
494.61	29404.15
494.79	29619.48
494.96	29013.28
495.14	27810.25
495.32	26733.60
495.49	26515.93
495.67	27358.52
495.85	29062.43
496.02	29076.48
496.20	29228.61
496.38	29617.14
496.55	28732.42
496.73	29202.86
496.91	29003.92
497.09	29343.30
497.26	29537.56
497.44	29635.86
497.62	29319.89
497.79	28456.23
497.97	27035.53
498.14	27646.41
498.32	28589.64
498.50	28926.68
498.67	29579.69
498.85	29053.07
499.03	28826.04
499.20	29668.63
499.38	29277.76
499.56	28657.52
499.73	28341.55
499.91	28079.41
500.08	27744.71
500.26	27042.55
500.44	27728.33
500.61	28840.08
500.79	28006.85
500.97	27590.24
501.14	27424.06
501.32	27157.24
501.49	26974.67
501.67	27754.07
501.84	28987.53
502.02	28727.74
502.20	28601.35
502.37	29537.56
502.55	29443.94
502.72	29682.67
502.90	30738.26
503.07	29771.61
503.25	29043.71
503.43	28517.09
503.60	27557.47
503.78	27129.15
503.95	27997.49
504.13	28999.24
504.30	30085.25
504.48	30199.93
504.65	29294.14
504.83	29247.33
505.01	29413.51
505.18	29825.45
505.36	31094.02
505.53	31257.85
505.71	31225.09
505.88	31325.73
506.06	31262.54
506.23	29996.31
506.41	29886.30
506.58	30249.08
506.76	29495.43
506.93	30132.06
507.11	28460.91
507.28	29511.81
507.46	29214.57
507.63	28973.49
507.81	28266.65
507.98	28891.57
508.16	29806.72
508.33	30525.27
508.50	30253.76
508.68	31103.38
508.85	31686.17
509.03	30932.52
509.20	30288.87
509.38	29701.40
509.55	29549.26
509.73	30230.36
509.90	30555.69
510.08	29546.92
510.25	29563.31
510.42	29467.34
510.60	29764.59
510.77	30494.84
510.95	31229.77
511.12	30213.98
511.30	30532.29
511.47	31519.99
511.64	30941.88
511.82	31168.91
511.99	30267.81
512.17	30253.76
512.34	29851.19
512.51	28961.79
512.69	29652.25
512.86	30450.37
513.04	30625.91
513.21	30366.11
513.38	30213.98
513.56	29247.33
513.73	28161.33
513.90	28147.28
514.08	28854.12
514.25	29848.85
514.43	29750.55
514.60	29823.11
514.77	29806.72
514.95	29935.45
515.12	29624.16
515.29	30265.47
515.47	30902.09
515.64	30316.96
515.81	30611.87
515.99	29642.88
516.16	27234.47
516.33	25443.96
516.51	24133.26
516.68	23793.89
516.85	22817.88
517.03	23985.81
517.20	26314.64
517.37	28936.04
517.54	28432.83
517.72	27232.13
517.89	25788.02
518.06	24931.39
518.24	25783.34
518.41	26972.33
518.58	27938.97
518.75	28079.41
518.93	28371.97
519.10	28526.45
519.27	28514.75
519.45	28982.85
519.62	29998.65
519.79	30377.81
519.96	29759.91
520.14	29205.20
520.31	28746.46
520.48	28573.26
520.65	29029.66
520.83	29514.16
521.00	29216.91
521.17	28814.34
521.34	28769.86
521.52	29139.67
521.69	30012.69
521.86	30061.84
522.03	28872.85
522.20	28631.77
522.38	27473.21
522.55	27449.80
522.72	28395.38
522.89	28023.23
523.07	28781.57
523.24	29188.82
523.41	29937.79
523.58	30029.07
523.75	29663.95
523.92	30361.43
524.10	30450.37
524.27	30487.82
524.44	30092.27
524.61	30656.34
524.78	30588.46
524.96	30242.06
525.13	30129.72
525.30	31101.04
525.47	31194.66
525.64	30654.00
525.81	28987.53
525.98	27042.55
526.16	25963.56
526.33	25855.90
526.50	26003.35
526.67	26244.43
526.84	25909.73
527.01	27353.84
527.18	28444.53
527.36	28753.48
527.53	30405.90
527.70	29514.16
527.87	28339.21
528.04	27634.71
528.21	29481.39
528.38	29455.64
528.55	31072.95
528.72	30639.95
528.89	30738.26
529.07	30522.93
529.24	29053.07
529.41	29212.23
529.58	28723.05
529.75	28669.22
529.92	28978.17
530.09	29167.76
530.26	29851.19
530.43	28800.29
530.60	29998.65
530.77	30527.61
530.94	31166.57
531.11	29855.87
531.28	29605.44
531.46	29645.23
531.63	30267.81
531.80	30651.66
531.97	29205.20
532.14	27679.18
532.31	26948.93
532.48	25905.05
532.65	26146.12
532.82	27225.11
532.99	28173.03
533.16	29677.99
533.33	30438.67
533.50	29949.50
533.67	28776.89
533.84	28830.72
534.01	28481.98
534.18	28924.34
534.35	28664.54
534.52	29020.30
534.69	29184.14
534.86	28723.05
535.03	29373.72
535.20	30040.78
535.37	30169.51
535.54	30251.42
535.71	29336.27
535.88	29184.14
536.05	28526.45
536.22	28304.10
536.38	27344.48
536.55	28109.83
536.72	27431.08
536.89	27894.50
537.06	28425.81
537.23	29003.92
537.40	28903.28
537.57	28381.34
537.74	27920.25
537.91	28233.88
538.08	29263.72
538.25	29394.79
538.42	28524.11
538.59	28952.43
538.75	28905.62
538.92	28268.99
539.09	27667.47
539.26	26675.09
539.43	26232.72
539.60	26838.92
539.77	26565.08
539.94	25891.01
540.11	25326.94
540.28	24823.72
540.44	25734.19
540.61	26164.85
540.78	26553.38
540.95	27651.09
541.12	26918.50
541.29	28196.43
541.46	27232.13
541.62	27089.36
541.79	26651.68
541.96	26326.35
542.13	27419.38
542.30	27711.94
542.47	27578.53
542.63	26998.08
542.80	26199.96
542.97	26183.57
543.14	26132.08
543.31	26658.70
543.48	27948.34
543.64	27894.50
543.81	28851.78
543.98	27707.26
544.15	27496.61
544.32	26785.09
544.48	27630.02
544.65	26593.17
544.82	26759.34
544.99	27201.71
545.16	26583.80
545.32	27693.22
545.49	27889.82
545.66	27873.44
545.83	27241.50
546.00	26904.46
546.16	26986.38
546.33	26647.00
546.50	27445.12
546.67	27063.61
546.83	27080.00
547.00	26581.46
547.17	26265.49
547.34	26457.42
547.50	25898.03
547.67	26396.56
547.84	26394.22
548.00	26771.05
548.17	26010.37
548.34	26218.68
548.51	25909.73
548.67	28034.94
548.84	27047.23
549.01	27161.92
549.18	27157.24
549.34	27660.45
549.51	27442.78
549.68	27063.61
549.84	26274.85
550.01	26726.58
550.18	25832.49
550.34	25685.04
550.51	25919.09
550.68	25500.14
550.84	24687.97
551.01	25153.74
551.18	24542.86
551.34	24961.81
551.51	25823.13
551.68	26960.63
551.84	26394.22
552.01	26160.17
552.18	26106.34
552.34	25584.40
552.51	25511.84
552.68	26300.60
552.84	25757.60
553.01	25743.55
553.18	26724.24
553.34	26904.46
553.51	26199.96
553.67	25954.20
553.84	27276.60
554.01	26948.93
554.17	25511.84
554.34	25923.77
554.51	26941.91
554.67	26642.32
554.84	25851.22
555.00	25874.62
555.17	25809.09
555.33	25771.64
555.50	26590.83
555.67	26263.15
555.83	26359.11
556.00	26087.61
556.16	25827.81
556.33	24907.98
556.50	25357.36
556.66	24711.38
556.83	24074.75
556.99	24577.97
557.16	24945.43
557.32	25174.80
557.49	25055.43
557.65	25020.33
557.82	24098.16
557.98	24418.81
558.15	25427.58
558.32	24292.42
558.48	23489.62
558.65	22986.40
558.81	23124.49
558.98	23641.75
559.14	23868.78
559.31	24680.95
559.47	24182.42
559.64	23707.29
559.80	24446.90
559.97	24037.30
560.13	24526.47
560.30	24786.27
560.46	24748.82
560.63	25039.05
560.79	25294.17
560.96	24716.06
561.12	24098.16
561.29	23704.95
561.45	23564.51
561.61	23248.54
561.78	23817.29
561.94	23833.68
562.11	23421.74
562.27	23513.02
562.44	24596.69
562.60	24081.77
562.77	24161.35
562.93	23571.54
563.10	23960.06
563.26	23360.89
563.42	22927.89
563.59	22750.01
563.75	23845.38
563.92	23784.52
564.08	23222.80
564.24	23044.91
564.41	22534.68
564.57	23381.95
564.74	22583.83
564.90	22452.76
565.07	22104.02
565.23	21757.62
565.39	21736.56
565.56	22726.60
565.72	22249.13
565.88	22897.46
566.05	22324.03
566.21	22637.66
566.38	22094.66
566.54	22153.17
566.70	22295.94
566.87	22789.80
567.03	23800.91
567.19	23679.20
567.36	22635.32
567.52	23307.05
567.68	22705.54
567.85	22499.57
568.01	23175.98
568.17	21872.31
568.34	21046.10
568.50	21488.46
568.66	21666.34
568.83	21881.67
568.99	22265.52
569.15	22703.20
569.32	22534.68
569.48	22319.35
569.64	21640.59
569.81	21113.97
569.97	21324.62
570.13	21504.84
570.30	21184.19
570.46	20933.75
570.62	19871.15
570.78	19580.92
570.95	20004.56
571.11	20720.76
571.27	20868.22
571.43	21001.63
571.60	21362.07
571.76	21518.89
571.92	21671.02
572.09	21942.52
572.25	21682.72
572.41	22604.89
572.57	22197.64
572.74	21362.07
572.90	21603.14
573.06	21563.36
573.22	21249.72
573.38	21109.29
573.55	20570.97
573.71	21223.98
573.87	21317.60
574.03	21350.37
574.20	20999.29
574.36	21025.03
574.52	21085.89
574.68	20479.69
574.84	20659.91
575.01	20900.98
575.17	21120.99
575.33	20603.74
575.49	20381.38
575.65	20432.88
575.82	20276.06
575.98	20362.66
576.14	20655.23
576.30	20435.22
576.46	19796.25
576.62	20346.28
576.79	20212.87
576.95	19662.84
577.11	19747.10
577.27	19807.95
577.43	19672.20
577.59	19454.53
577.75	20159.03
577.92	19447.51
578.08	19534.11
578.24	19293.04
578.40	19576.24
578.56	19702.63
578.72	19442.83
578.88	20306.49
579.04	19548.15
579.21	19440.49
579.37	19749.44
579.53	19449.85
579.69	18700.88
579.85	18920.89
580.01	19094.09
580.17	19211.12
580.33	19424.11
580.49	19524.75
580.65	19585.60
580.82	19520.07
580.98	19557.52
581.14	19370.27
581.30	19988.18
581.46	19601.99
581.62	19508.37
581.78	19983.49
581.94	20491.39
582.10	19924.98
582.26	19620.71
582.42	19831.36
582.58	20634.16
582.74	19873.49
582.90	19564.54
583.06	19974.13
583.22	19901.58
583.38	20116.90
583.54	19812.63
583.70	19845.40
583.86	19822.00
584.02	19843.06
584.18	19669.86
584.34	19847.74
584.50	20641.18
584.66	20128.61
584.82	19339.85
584.98	19351.55
585.14	18967.70
585.30	18279.58
585.46	18015.10
585.62	18054.89
585.78	18558.11
585.94	18710.24
586.10	19353.89
586.26	18939.62
586.42	18855.36
586.58	19105.79
586.74	18539.38
586.90	18389.59
