SpectraSuite Data File
++++++++++++++++++++++++++++++++++++
Date: Mon Oct 07 14:53:09 GMT-05:00 2013
User: price-jones
Dark Spectrum Present: No
Reference Spectrum Present: No
Number of Sampled Component Spectra: 1
Spectrometers: USB2+H05261
Integration Time (usec): 100000 (USB2+H05261)
Spectra Averaged: 1 (USB2+H05261)
Boxcar Smoothing: 0 (USB2+H05261)
Correct for Electrical Dark: No (USB2+H05261)
Strobe/Lamp Enabled: No (USB2+H05261)
Correct for Detector Non-linearity: No (USB2+H05261)
Correct for Stray Light: No (USB2+H05261)
Number of Pixels in Processed Spectrum: 2048
>>>>>Begin Processed Spectral Data<<<<<
365.73	0.00
365.92	0.00
366.12	0.00
366.32	0.00
366.52	0.00
366.72	0.00
366.91	0.00
367.11	0.00
367.31	0.00
367.51	0.00
367.70	0.00
367.90	0.00
368.10	0.00
368.30	0.00
368.49	0.00
368.69	0.00
368.89	0.00
369.09	0.00
369.28	0.00
369.48	0.00
369.68	0.00
369.87	0.00
370.07	0.00
370.27	0.00
370.47	692.80
370.66	3660.60
370.86	4112.32
371.06	4554.68
371.25	4526.60
371.45	4159.13
371.65	3742.52
371.84	3543.57
372.04	3613.79
372.24	4009.34
372.44	4290.20
372.63	4173.18
372.83	3918.06
373.03	3487.40
373.22	3187.81
373.42	3447.61
373.62	3871.25
373.81	4175.52
374.01	4170.83
374.21	3850.18
374.40	3468.67
374.60	3578.68
374.79	4051.47
374.99	4891.72
375.19	4938.53
375.38	5217.05
375.58	4765.33
375.78	4732.56
375.97	4983.00
376.17	4999.38
376.37	4898.74
376.56	5111.73
376.76	5572.82
376.95	5701.54
377.15	6230.51
377.35	6452.86
377.54	6607.33
377.74	6729.04
377.93	6888.20
378.13	6684.57
378.33	6328.81
378.52	5881.77
378.72	5657.07
378.91	5444.09
379.11	5425.36
379.31	5130.45
379.50	5121.09
379.70	5563.45
379.89	6129.86
380.09	6574.56
380.28	6616.69
380.48	6810.96
380.68	6595.63
380.87	6335.83
381.07	5994.11
381.26	5420.68
381.46	5268.55
381.65	4952.57
381.85	5064.92
382.04	4461.06
382.24	4315.95
382.43	4238.71
382.63	4044.45
382.83	3964.87
383.02	4011.68
383.22	3995.29
383.41	4107.64
383.61	4414.25
383.80	4994.70
384.00	5584.52
384.19	6370.94
384.39	6623.72
384.58	6590.95
384.78	6487.96
384.97	6506.69
385.17	6164.97
385.36	5940.28
385.56	5575.16
385.75	5811.55
385.95	6342.85
386.14	6733.72
386.34	6799.26
386.53	6499.67
386.72	6132.20
386.92	6272.64
387.11	6511.37
387.31	6745.42
387.50	6747.76
387.70	6368.60
387.89	6619.04
388.09	6469.24
388.28	6532.44
388.48	6565.20
388.67	7349.28
388.86	7756.54
389.06	8348.69
389.25	8718.50
389.45	9102.34
389.64	8573.38
389.84	8589.77
390.03	8671.68
390.22	8744.24
390.42	8863.61
390.61	9551.73
390.81	10012.81
391.00	10354.53
391.19	10071.33
391.39	9802.16
391.58	9179.58
391.78	8706.79
391.97	8505.51
392.16	7943.78
392.36	7115.23
392.55	5645.37
392.75	4526.60
392.94	3794.01
393.13	3698.05
393.33	4521.92
393.52	5575.16
393.71	6848.41
393.91	7995.27
394.10	8341.67
394.29	9275.54
394.49	9865.36
394.68	10714.97
394.88	10523.05
395.07	11215.85
395.26	10878.81
395.46	10553.48
395.65	10071.33
395.84	8716.16
396.04	7438.22
396.23	5989.43
396.42	5226.42
396.62	4947.89
396.81	5877.09
397.00	7178.42
397.19	9294.27
397.39	10771.15
397.58	12142.70
397.77	12945.50
397.97	13331.69
398.16	13378.50
398.35	14141.52
398.55	14724.31
398.74	14876.44
398.93	15112.84
399.12	15201.78
399.32	14436.42
399.51	14736.01
399.70	15733.08
399.90	15728.40
400.09	15789.25
400.28	15524.77
400.47	15747.12
400.67	16318.22
400.86	16875.26
401.05	17130.38
401.24	16987.61
401.44	17247.41
401.63	17252.09
401.82	17528.27
402.01	17397.20
402.21	17366.78
402.40	17872.33
402.59	17106.98
402.78	16465.67
402.97	15667.55
403.17	16624.83
403.36	17394.86
403.55	17905.10
403.74	18614.28
403.93	17451.03
404.13	16187.14
404.32	16035.01
404.51	16556.95
404.70	18153.20
404.89	17933.18
405.09	17687.43
405.28	17256.77
405.47	17013.35
405.66	17116.34
405.85	16879.94
406.05	16215.23
406.24	16388.43
406.43	17032.08
406.62	17825.52
406.81	17813.82
407.00	17207.62
407.20	16954.84
407.39	16996.97
407.58	17858.29
407.77	18445.76
407.96	18965.36
408.15	19414.74
408.34	19585.60
408.54	20292.44
408.73	20325.21
408.92	19981.15
409.11	19356.23
409.30	18551.09
409.49	17216.98
409.68	16070.12
409.87	15925.00
410.07	16826.11
410.26	18155.54
410.45	19363.25
410.64	19719.01
410.83	20250.32
411.02	20950.14
411.21	21678.04
411.40	21460.37
411.59	21315.26
411.78	21561.02
411.98	20922.05
412.17	21612.51
412.36	21172.49
412.55	21081.21
412.74	20582.67
412.93	20219.89
413.12	20231.59
413.31	22787.46
413.50	22632.98
413.69	23082.36
413.88	21654.64
414.07	21476.76
414.26	21661.66
414.45	22295.94
414.64	22396.59
414.83	22614.26
415.02	21998.70
415.22	22232.75
415.41	22670.43
415.60	23496.64
415.79	24348.59
415.98	24657.54
416.17	25097.56
416.36	24299.44
416.55	23726.01
416.74	23054.28
416.93	22352.12
417.12	22202.32
417.31	22766.39
417.50	23042.57
417.69	23693.24
417.88	23751.76
418.07	23599.62
418.26	23185.35
418.45	23449.83
418.64	24449.24
418.83	24814.36
419.02	24699.67
419.21	24531.15
419.39	23498.98
419.58	22387.22
419.77	22326.37
419.96	23197.05
420.15	24772.23
420.34	25624.18
420.53	26277.19
420.72	26782.75
420.91	26080.59
421.10	25841.85
421.29	25972.92
421.48	25249.70
421.67	26396.56
421.86	25493.12
422.05	23995.17
422.24	21282.49
422.43	21378.45
422.61	23391.31
422.80	25310.55
422.99	25362.04
423.18	24355.61
423.37	23929.64
423.56	24390.72
423.75	24372.00
423.94	25223.95
424.13	23536.43
424.32	23960.06
424.50	23770.48
424.69	23723.67
424.88	23756.44
425.07	23728.35
425.26	23564.51
425.45	23152.58
425.64	23084.70
425.83	23138.54
426.01	24407.11
426.20	25041.39
426.39	24842.45
426.58	22963.00
426.77	21053.12
426.96	20390.75
427.15	21256.75
427.33	23307.05
427.52	24147.31
427.71	23941.34
427.90	23929.64
428.09	23784.52
428.28	23248.54
428.46	22155.51
428.65	21834.86
428.84	22625.96
429.03	22740.64
429.22	21694.43
429.40	20311.17
429.59	18523.00
429.78	16346.30
429.97	16580.36
430.16	16947.82
430.34	16805.05
430.53	16699.72
430.72	17413.59
430.91	19054.30
431.10	22448.08
431.28	26581.46
431.47	28320.48
431.66	28727.74
431.85	26251.45
432.03	24072.41
432.22	23211.09
432.41	23910.91
432.60	26597.85
432.79	27754.07
432.97	28191.75
433.16	27353.84
433.35	25109.27
433.54	22675.11
433.72	21497.82
433.91	22125.08
434.10	24826.06
434.28	26534.65
434.47	27817.27
434.66	27304.69
434.85	26670.40
435.03	26581.46
435.22	26878.71
435.41	28936.04
435.59	28959.45
435.78	29244.99
435.97	30085.25
436.16	30085.25
436.34	29703.74
436.53	29104.56
436.72	29261.38
436.90	27697.90
437.09	27426.40
437.28	26965.31
437.46	28233.88
437.65	27903.87
437.84	25799.73
438.02	23969.43
438.21	23693.24
438.40	25317.57
438.58	27023.83
438.77	27955.36
438.96	28112.17
439.14	29518.84
439.33	29961.20
439.52	31007.42
439.70	29825.45
439.89	29184.14
440.08	28442.19
440.26	28311.12
440.45	29457.98
440.63	31388.92
440.82	33006.23
441.01	32430.46
441.19	32601.32
441.38	32851.76
441.57	33820.74
441.75	34305.23
441.94	34616.52
442.12	34286.51
442.31	34768.66
442.50	34689.08
442.68	34167.14
442.87	33895.64
443.05	33427.53
443.24	34101.61
443.43	35061.22
443.61	35456.78
443.80	35456.78
443.98	33607.75
444.17	33706.05
444.35	35941.27
444.54	36109.78
444.73	35871.05
444.91	34038.41
445.10	32737.07
445.28	31618.30
445.47	31297.64
445.65	31412.33
445.84	32229.18
446.02	33401.79
446.21	34174.16
446.39	33858.19
446.58	34705.46
446.77	35299.96
446.95	35306.98
447.14	35786.79
447.32	37233.24
447.51	36016.16
447.69	34480.77
447.88	33846.49
448.06	34904.41
448.25	35538.69
448.43	36444.48
448.62	35030.80
448.80	34808.45
448.99	35229.74
449.17	35475.50
449.36	35934.24
449.54	36552.15
449.73	37479.00
449.91	38113.28
450.10	39070.56
450.28	38998.01
450.46	38937.15
450.65	38871.62
450.83	38438.62
451.02	37607.73
451.20	37567.94
451.39	37930.72
451.57	37811.35
451.76	36938.33
451.94	37060.04
452.13	36758.11
452.31	34941.86
452.49	33420.51
452.68	33780.95
452.86	33649.88
453.05	34305.23
453.23	35611.25
453.42	36383.63
453.60	37008.55
453.78	37598.37
453.97	36971.10
454.15	37001.53
454.34	36432.78
454.52	37099.83
454.70	35353.79
454.89	36067.66
455.07	36098.08
455.26	36896.20
455.44	37919.02
455.62	38948.85
455.81	39440.37
455.99	38532.24
456.17	38209.25
456.36	38541.60
456.54	39758.68
456.73	39463.77
456.91	40154.23
457.09	39866.34
457.28	40627.02
457.46	39365.47
457.64	38958.22
457.83	38270.10
458.01	37064.72
458.19	38452.66
458.38	38607.14
458.56	39573.78
458.74	39323.34
458.93	38808.42
459.11	38707.78
459.29	38653.95
459.48	38810.76
459.66	38307.55
459.84	38508.83
460.03	39643.99
460.21	39381.85
460.39	40507.65
460.57	40261.90
460.76	40378.92
460.94	40538.08
461.12	39831.24
461.31	40762.77
461.49	40605.95
461.67	40594.25
461.85	41951.76
462.04	41469.61
462.22	41570.25
462.40	41394.71
462.59	40994.48
462.77	41464.93
462.95	41394.71
463.13	40889.16
463.32	40397.65
463.50	40446.80
463.68	40233.81
463.86	40617.66
464.05	40055.93
464.23	38714.80
464.41	38792.04
464.59	38656.29
464.78	40446.80
464.96	40149.55
465.14	39798.47
465.32	40769.79
465.50	41432.16
465.69	41965.81
465.87	41511.74
466.05	39934.22
466.23	38415.21
466.41	37603.05
466.60	38939.49
466.78	38380.10
466.96	39281.21
467.14	39955.29
467.32	40435.10
467.51	40509.99
467.69	38981.62
467.87	39496.54
468.05	40322.75
468.23	40130.83
468.41	40135.51
468.60	40685.53
468.78	40790.86
468.96	40355.52
469.14	40781.49
469.32	41401.74
469.50	39313.98
469.69	39704.85
469.87	39007.37
470.05	38899.70
470.23	39035.45
470.41	39538.67
470.59	39976.35
470.77	40236.15
470.95	41092.79
471.14	41177.04
471.32	41420.46
471.50	43365.45
471.68	43456.73
471.86	43243.74
472.04	43894.41
472.22	43842.92
472.40	42026.66
472.58	42134.32
472.77	41383.01
472.95	42129.64
473.13	43187.56
473.31	41888.57
473.49	41975.17
473.67	43438.00
473.85	43697.80
474.03	44425.71
474.21	44603.59
474.39	44854.03
474.57	45146.59
474.75	44870.41
474.93	44776.79
475.12	43768.02
475.30	43782.06
475.48	43999.73
475.66	44591.89
475.84	43913.13
476.02	43140.75
476.20	43353.74
476.38	43695.46
476.56	44608.27
476.74	45769.18
476.92	46005.57
477.10	46761.56
477.28	47753.95
477.46	47791.40
477.64	48156.52
477.82	48170.57
478.00	48236.10
478.18	47847.57
478.36	47775.02
478.54	47646.29
478.72	47786.72
478.90	48765.06
479.08	49588.93
479.26	50330.88
479.44	49813.62
479.62	49696.59
479.80	49787.88
479.98	50047.68
480.16	50951.12
480.34	49698.94
480.52	50267.69
480.70	50593.02
480.88	50658.56
481.06	51402.85
481.24	51594.77
481.41	52114.37
481.59	52914.83
481.77	52369.49
481.95	51875.63
482.13	51892.02
482.31	52086.28
482.49	52444.38
482.67	52388.21
482.85	52736.95
483.03	53261.23
483.21	53361.87
483.39	53392.30
483.57	52851.64
483.74	52617.58
483.92	52851.64
484.10	52858.66
484.28	53474.22
484.46	54113.19
484.64	54340.22
484.82	53352.51
485.00	53020.16
485.18	52598.86
485.35	51529.23
485.53	48575.48
485.71	44931.26
485.89	44877.43
486.07	46852.84
486.25	49783.19
486.43	51838.18
486.61	52191.61
486.78	52179.90
486.96	52317.99
487.14	53881.47
487.32	54375.33
487.50	55297.50
487.68	55955.19
487.85	56271.16
488.03	56348.40
488.21	55936.46
488.39	55299.84
488.57	54817.69
488.75	54578.95
488.92	55620.49
489.10	57467.17
489.28	58272.32
489.46	58965.12
489.64	58403.39
489.81	58908.94
489.99	58529.78
490.17	58506.37
490.35	59171.08
490.53	58326.15
490.70	58302.74
490.88	58347.21
491.06	58995.54
491.24	58918.31
491.41	58033.58
491.59	56739.27
491.77	56165.84
491.95	57055.24
492.13	57956.35
492.30	59058.74
492.48	59831.11
492.66	60107.30
492.84	60130.70
493.01	59994.95
493.19	59482.37
493.37	59189.81
493.54	58831.71
493.72	59660.26
493.90	60446.68
494.08	61038.83
494.25	61317.35
494.43	61361.82
494.61	61836.95
494.79	61820.57
494.96	61518.64
495.14	60989.68
495.32	60151.77
495.49	59777.28
495.67	60912.44
495.85	61975.05
496.02	62384.64
496.20	62028.88
496.38	61661.41
496.55	61694.18
496.73	62026.54
496.91	61989.09
497.09	62628.05
497.26	62602.31
497.44	62279.31
497.62	61825.25
497.79	61197.99
497.97	60116.66
498.14	60327.31
498.32	61322.04
498.50	61946.96
498.67	62436.13
498.85	62443.15
499.03	62614.01
499.20	62667.84
499.38	62555.50
499.56	62562.52
499.73	62078.03
499.91	61806.53
500.08	61464.81
500.26	60865.63
500.44	61406.30
500.61	61963.34
500.79	61577.15
500.97	61249.48
501.14	61179.26
501.32	61146.50
501.49	61022.45
501.67	61265.86
501.84	61801.85
502.02	61935.26
502.20	62499.33
502.37	62365.91
502.55	62438.47
502.72	62841.04
502.90	63274.04
503.07	63096.16
503.25	62761.47
503.43	62054.62
503.60	61532.68
503.78	60706.47
503.95	61073.94
504.13	62541.45
504.30	63208.51
504.48	62880.83
504.65	62733.38
504.83	62672.52
505.01	63374.69
505.18	63578.31
505.36	64214.94
505.53	64151.74
505.71	64329.62
505.88	64465.38
506.06	63735.13
506.23	63529.16
506.41	63309.15
506.58	63494.05
506.76	63325.53
506.93	63538.52
507.11	63086.80
507.28	63339.58
507.46	62866.79
507.63	62326.13
507.81	62260.59
507.98	62550.82
508.16	63023.61
508.33	63491.71
508.50	63795.98
508.68	64147.06
508.85	64448.99
509.03	64416.22
509.20	64383.46
509.38	63599.38
509.55	63037.65
509.73	63267.02
509.90	63433.20
510.08	63943.44
510.25	63838.11
510.42	63643.85
510.60	63552.57
510.77	63845.13
510.95	64385.80
511.12	64381.12
511.30	64715.81
511.47	64961.57
511.64	64872.63
511.82	64554.32
511.99	63793.64
512.17	63461.29
512.34	63107.86
512.51	63400.43
512.69	63524.48
512.86	63412.13
513.04	63828.75
513.21	63999.61
513.38	63529.16
513.56	63070.42
513.73	62571.88
513.90	63004.88
514.08	62986.16
514.25	63243.62
514.43	63405.11
514.60	63374.69
514.77	63714.06
514.95	63604.06
515.12	63653.21
515.29	63852.15
515.47	64128.34
515.64	64629.21
515.81	64123.66
515.99	63557.25
516.16	62251.23
516.33	60383.48
516.51	59311.52
516.68	58415.09
516.85	57970.39
517.03	58614.04
517.20	60851.59
517.37	63007.22
517.54	63735.13
517.72	63325.53
517.89	60987.34
518.06	59086.82
518.24	59662.60
518.41	61556.09
518.58	62447.83
518.75	62511.03
518.93	62794.23
519.10	62667.84
519.27	63231.91
519.45	63344.26
519.62	64055.78
519.79	64231.32
519.96	64182.17
520.14	63676.61
520.31	63035.31
520.48	62960.41
520.65	63257.66
520.83	64161.11
521.00	64374.09
521.17	64107.27
521.34	63877.90
521.52	64245.36
521.69	64505.16
521.86	64949.87
522.03	64596.45
522.20	63386.39
522.38	62719.34
522.55	62731.04
522.72	63091.48
522.89	63402.77
523.07	63781.94
523.24	63735.13
523.41	64781.35
523.58	64982.63
523.75	65181.58
523.92	65069.23
524.10	65174.56
524.27	65020.08
524.44	64762.62
524.61	64750.92
524.78	64657.30
524.96	64561.34
525.13	64493.46
525.30	64769.64
525.47	65293.92
525.64	65066.89
525.81	64313.24
525.98	63295.11
526.16	61811.21
526.33	61284.59
526.50	61111.39
526.67	60860.95
526.84	61380.55
527.01	62089.73
527.18	62937.01
527.36	63568.95
527.53	64441.97
527.70	64584.74
527.87	64109.61
528.04	63622.78
528.21	64303.88
528.38	64865.61
528.55	65176.90
528.72	65413.29
528.89	65535.00
529.07	65331.37
529.24	64856.24
529.41	64196.21
529.58	63735.13
529.75	63915.35
529.92	64285.15
530.09	64626.87
530.26	65057.53
530.43	65429.68
530.60	65394.57
530.77	65504.57
530.94	65535.00
531.11	65064.55
531.28	64907.74
531.46	64851.56
531.63	64896.03
531.80	64626.87
531.97	64243.02
532.14	63746.83
532.31	62866.79
532.48	62232.50
532.65	62440.81
532.82	63004.88
532.99	64053.44
533.16	64418.56
533.33	64921.78
533.50	64652.62
533.67	64046.42
533.84	63763.21
534.01	63920.03
534.18	64046.42
534.35	64317.92
534.52	64086.21
534.69	64420.90
534.86	64704.11
535.03	64954.55
535.20	65317.33
535.37	65535.00
535.54	65504.57
535.71	65127.75
535.88	64994.34
536.05	64441.97
536.22	64086.21
536.38	63739.81
536.55	63381.71
536.72	62948.71
536.89	62960.41
537.06	63772.58
537.23	64409.20
537.40	64676.02
537.57	64793.05
537.74	64441.97
537.91	64313.24
538.08	64334.31
538.25	64423.25
538.42	64568.36
538.59	64448.99
538.75	63929.39
538.92	63653.21
539.09	63573.63
539.26	63484.69
539.43	63206.17
539.60	63203.83
539.77	63594.70
539.94	63407.45
540.11	62520.39
540.28	62209.10
540.44	62260.59
540.61	62658.48
540.78	62759.12
540.95	63044.67
541.12	63395.75
541.29	63730.45
541.46	63866.20
541.62	63929.39
541.79	63868.54
541.96	63241.28
542.13	63215.53
542.30	63697.68
542.47	63744.49
542.63	63735.13
542.80	63400.43
542.97	63557.25
543.14	63299.79
543.31	63543.20
543.48	63716.40
543.64	64596.45
543.81	64856.24
543.98	64582.40
544.15	63866.20
544.32	63470.65
544.48	63538.52
544.65	64121.32
544.82	64301.54
544.99	63994.93
545.16	63618.10
545.32	63545.54
545.49	64168.13
545.66	64474.74
545.83	63985.57
546.00	63498.73
546.16	63468.31
546.33	63594.70
546.50	63704.70
546.67	64058.12
546.83	63639.17
547.00	63613.42
547.17	63086.80
547.34	62672.52
547.50	62717.00
547.67	62887.85
547.84	63000.20
548.00	63447.24
548.17	63753.85
548.34	63716.40
548.51	63718.74
548.67	63641.51
548.84	63765.56
549.01	63662.57
549.18	63627.46
549.34	63662.57
549.51	63517.46
549.68	63306.81
549.84	63398.09
550.01	63278.72
550.18	62965.09
550.34	63236.59
550.51	63318.51
550.68	63318.51
550.84	62911.26
551.01	63028.29
551.18	62929.98
551.34	63030.63
551.51	63189.78
551.68	63805.34
551.84	63700.02
552.01	63355.96
552.18	63381.71
552.34	62583.58
552.51	62564.86
552.68	62354.21
552.84	62803.59
553.01	62929.98
553.18	62941.69
553.34	63082.12
553.51	63061.05
553.67	63381.71
553.84	63526.82
554.01	63384.05
554.17	63208.51
554.34	63042.33
554.51	63388.73
554.67	63863.86
554.84	63449.58
555.00	63297.45
555.17	63000.20
555.33	62883.17
555.50	62990.84
555.67	63056.37
555.83	62773.17
556.00	62658.48
556.16	62365.91
556.33	62251.23
556.50	62293.36
556.66	62344.85
556.83	62143.56
556.99	61909.51
557.16	62129.52
557.32	62632.74
557.49	62782.53
557.65	62433.79
557.82	62482.94
557.98	62347.19
558.15	62040.58
558.32	61350.12
558.48	60706.47
558.65	60886.70
558.81	61141.81
558.98	61385.23
559.14	61602.90
559.31	61719.93
559.47	61647.37
559.64	61497.58
559.80	61043.51
559.97	61190.97
560.13	61542.05
560.30	62197.40
560.46	62588.27
560.63	62960.41
560.79	62892.54
560.96	62651.46
561.12	61546.73
561.29	60811.80
561.45	61015.43
561.61	61502.26
561.78	61862.70
561.94	61577.15
562.11	61609.92
562.27	61408.64
562.44	61689.50
562.60	62061.64
562.77	62176.33
562.93	62000.79
563.10	62010.15
563.26	61497.58
563.42	61764.40
563.59	61394.59
563.75	61375.87
563.92	61303.31
564.08	61422.68
564.24	61593.54
564.41	61691.84
564.57	61516.30
564.74	61495.24
564.90	61443.74
565.07	61216.71
565.23	60816.48
565.39	60444.33
565.56	60212.62
565.72	60044.10
565.88	60615.19
566.05	60402.21
566.21	60734.56
566.38	60952.23
566.54	60882.02
566.70	61186.28
566.87	61462.47
567.03	61443.74
567.19	61623.96
567.36	61256.50
567.52	61331.40
567.68	60926.49
567.85	60392.84
568.01	60144.75
568.17	59943.46
568.34	59913.03
568.50	59903.67
568.66	59962.18
568.83	60179.85
568.99	60334.33
569.15	60530.93
569.32	60486.46
569.48	60355.39
569.64	59941.12
569.81	59847.50
569.97	60041.76
570.13	59641.53
570.30	59295.13
570.46	58974.48
570.62	58581.27
570.78	58614.04
570.95	58714.68
571.11	59400.46
571.27	59559.61
571.43	59791.33
571.60	60060.49
571.76	60186.88
571.92	60317.95
572.09	60350.71
572.25	60374.12
572.41	60413.91
572.57	60257.09
572.74	60233.69
572.90	59948.14
573.06	59721.11
573.22	59870.90
573.38	60030.06
573.55	60128.36
573.71	59992.61
573.87	60055.81
574.03	59805.37
574.20	59903.67
574.36	59604.08
574.52	59515.14
574.68	59245.98
574.84	58705.32
575.01	58532.12
575.17	58576.59
575.33	58831.71
575.49	58920.65
575.65	59384.07
575.82	59002.56
575.98	58791.92
576.14	59154.70
576.30	59140.66
576.46	59512.80
576.62	59157.04
576.79	59416.84
576.95	58852.77
577.11	58894.90
577.27	59065.76
577.43	59152.36
577.59	58511.05
577.75	58185.72
577.92	57822.93
578.08	57567.82
578.24	57719.95
578.40	57977.41
578.56	58225.51
578.72	58244.23
578.88	58410.41
579.04	58756.81
579.21	58712.34
579.37	58541.48
579.53	58602.33
579.69	58674.89
579.85	58810.64
580.01	58901.92
580.17	58298.06
580.33	58220.83
580.49	58291.04
580.65	58532.12
580.82	58789.58
580.98	58639.78
581.14	58590.63
581.30	58452.54
581.46	58688.93
581.62	58695.95
581.78	58698.30
581.94	58901.92
582.10	59018.95
582.26	58782.55
582.42	58768.51
582.58	58782.55
582.74	58775.53
582.90	59028.31
583.06	58808.30
583.22	58719.36
583.38	58752.13
583.54	58745.11
583.70	58546.16
583.86	58356.58
584.02	58272.32
584.18	58628.08
584.34	58190.40
584.50	58192.74
584.66	58412.75
584.82	57977.41
584.98	57883.79
585.14	57675.48
