SpectraSuite Data File
++++++++++++++++++++++++++++++++++++
Date: Mon Oct 07 14:53:12 GMT-05:00 2013
User: price-jones
Dark Spectrum Present: No
Reference Spectrum Present: No
Number of Sampled Component Spectra: 1
Spectrometers: USB2+H05261
Integration Time (usec): 100000 (USB2+H05261)
Spectra Averaged: 1 (USB2+H05261)
Boxcar Smoothing: 0 (USB2+H05261)
Correct for Electrical Dark: No (USB2+H05261)
Strobe/Lamp Enabled: No (USB2+H05261)
Correct for Detector Non-linearity: No (USB2+H05261)
Correct for Stray Light: No (USB2+H05261)
Number of Pixels in Processed Spectrum: 2048
>>>>>Begin Processed Spectral Data<<<<<
365.73	0.00
365.92	0.00
366.12	0.00
366.32	0.00
366.52	0.00
366.72	0.00
366.91	0.00
367.11	0.00
367.31	0.00
367.51	0.00
367.70	0.00
367.90	0.00
368.10	0.00
368.30	0.00
368.49	0.00
368.69	0.00
368.89	0.00
369.09	0.00
369.28	0.00
369.48	0.00
369.68	0.00
369.87	0.00
370.07	0.00
370.27	0.00
370.47	1860.73
370.66	8381.46
370.86	9371.50
371.06	10174.31
371.25	10139.20
371.45	9139.79
371.65	8208.26
371.84	7873.56
372.04	8547.64
372.24	9219.37
372.44	9355.12
372.63	9247.46
372.83	8400.18
373.03	7613.76
373.22	7236.94
373.42	7894.63
373.62	8865.95
373.81	9137.45
374.01	8821.48
374.21	8248.05
374.40	7892.29
374.60	8208.26
374.79	9507.26
374.99	10757.10
375.19	11440.54
375.38	11295.43
375.58	10761.78
375.78	10511.35
375.97	10630.71
376.17	10934.98
376.37	11087.12
376.56	11463.94
376.76	11999.93
376.95	12856.56
377.15	13898.10
377.35	14497.28
377.54	14618.99
377.74	15279.02
377.93	15281.36
378.13	14310.04
378.33	13682.77
378.52	13011.04
378.72	12287.81
378.91	12030.35
379.11	11674.59
379.31	11321.17
379.50	11639.48
379.70	12891.67
379.89	14235.14
380.09	14668.14
380.28	15021.56
380.48	14738.35
380.68	14799.21
380.87	14314.72
381.07	13048.49
381.26	11861.84
381.46	11279.04
381.65	10939.66
381.85	10794.55
382.04	9949.62
382.24	9617.26
382.43	9090.64
382.63	9137.45
382.83	9036.81
383.02	8905.74
383.22	9071.92
383.41	9338.74
383.61	9912.17
383.80	11433.52
384.00	13149.13
384.19	14359.19
384.39	14824.95
384.58	14778.14
384.78	14193.01
384.97	14111.09
385.17	13455.74
385.36	12774.64
385.56	12341.64
385.75	13172.54
385.95	14490.26
386.14	15089.43
386.34	15262.63
386.53	14333.44
386.72	13607.87
386.92	13891.08
387.11	14593.24
387.31	15122.20
387.50	14974.75
387.70	14457.49
387.89	14387.27
388.09	14616.65
388.28	14483.24
388.48	15187.74
388.67	16248.00
388.86	17898.08
389.06	18930.25
389.25	19683.91
389.45	19817.32
389.64	19410.06
389.84	19281.33
390.03	19122.18
390.22	19204.10
390.42	20098.18
390.61	21277.81
390.81	22504.25
391.00	23274.29
391.19	22431.69
391.39	21539.95
391.58	20250.32
391.78	19367.93
391.97	18572.15
392.16	17364.43
392.36	15241.57
392.55	12306.54
392.75	9722.59
392.94	8116.98
393.13	8676.37
393.33	10345.17
393.52	13184.24
393.71	15810.32
393.91	17652.32
394.10	19087.07
394.29	20957.16
394.49	22569.79
394.68	24175.39
394.88	24018.58
395.07	25116.29
395.26	24472.64
395.46	23498.98
395.65	22019.76
395.84	19143.24
396.04	16182.46
396.23	12807.41
396.42	11112.86
396.62	11496.71
396.81	13717.88
397.00	17200.60
397.19	21205.25
397.39	24889.26
397.58	27505.98
397.77	28744.12
397.97	29422.87
398.16	30651.66
398.35	31791.50
398.55	32643.45
398.74	33694.35
398.93	34288.85
399.12	33507.11
399.32	32322.80
399.51	33799.68
399.70	35583.16
399.90	34684.40
400.09	34759.30
400.28	34862.28
400.47	35646.36
400.67	37223.88
400.86	37937.74
401.05	37996.26
401.24	37675.60
401.44	37734.12
401.63	38883.32
401.82	38546.28
402.01	38422.23
402.21	39133.76
402.40	39105.67
402.59	37535.17
402.78	36503.00
402.97	35859.35
403.17	37846.46
403.36	39475.48
403.55	40449.14
403.74	41158.32
403.93	38057.11
404.13	35845.30
404.32	36051.27
404.51	37598.37
404.70	39742.30
404.89	40065.29
405.09	39236.74
405.28	38012.64
405.47	37944.76
405.66	37883.91
405.85	36788.54
406.05	36170.64
406.24	37156.00
406.43	38667.99
406.62	39859.32
406.81	39634.63
407.00	38328.61
407.20	37446.23
407.39	38113.28
407.58	39856.98
407.77	41446.21
407.96	42555.62
408.15	42920.74
408.34	43480.13
408.54	45064.67
408.73	45034.25
408.92	43756.32
409.11	42967.55
409.30	40622.34
409.49	38382.45
409.68	35962.33
409.87	36133.19
410.07	38885.66
410.26	41235.56
410.45	43035.43
410.64	44121.44
410.83	45607.68
411.02	46309.84
411.21	47122.01
411.40	46541.55
411.59	46997.96
411.78	47253.08
411.98	46686.67
412.17	47363.08
412.36	45411.07
412.55	46155.36
412.74	45193.40
412.93	44987.44
413.12	46052.38
413.31	49443.82
413.50	49270.62
413.69	49668.51
413.88	48090.99
414.07	46976.89
414.26	47938.85
414.45	49153.59
414.64	48842.30
414.83	48760.38
415.02	48289.93
415.22	48767.40
415.41	49319.77
415.60	50564.93
415.79	52020.75
415.98	52189.27
416.17	52013.73
416.36	51449.66
416.55	50967.51
416.74	49750.43
416.93	48786.13
417.12	49064.65
417.31	49492.97
417.50	49932.99
417.69	50923.04
417.88	51044.74
418.07	50583.66
418.26	50312.16
418.45	50438.54
418.64	52081.60
418.83	53006.11
419.02	52425.66
419.21	51367.74
419.39	50766.22
419.58	48928.90
419.77	49399.35
419.96	51077.51
420.15	52704.18
420.34	53069.31
420.53	54190.42
420.72	54578.95
420.91	54578.95
421.10	53815.94
421.29	53799.55
421.48	53043.56
421.67	54396.39
421.86	53195.70
422.05	50167.04
422.24	47452.02
422.43	47908.43
422.61	51360.72
422.80	53137.18
422.99	53155.91
423.18	52081.60
423.37	52041.81
423.56	52074.58
423.75	52453.75
423.94	53436.77
424.13	51557.32
424.32	51496.47
424.50	51650.94
424.69	51657.96
424.88	51496.47
425.07	51533.92
425.26	50836.44
425.45	50525.14
425.64	50291.09
425.83	50951.12
426.01	52526.30
426.20	52718.23
426.39	52554.39
426.58	49790.22
426.77	46969.87
426.96	46064.08
427.15	48048.86
427.33	51103.26
427.52	51721.16
427.71	51765.63
427.90	51079.85
428.09	50696.00
428.28	50054.70
428.46	48921.88
428.65	48428.02
428.84	49757.45
429.03	49846.39
429.22	47299.89
429.40	44835.30
429.59	41478.97
429.78	37280.05
429.97	38738.21
430.16	38600.12
430.34	38314.57
430.53	38092.22
430.72	40203.38
430.91	44329.75
431.10	50398.76
431.28	54997.91
431.47	57034.17
431.66	56589.47
431.85	53443.79
432.03	51606.47
432.22	51239.01
432.41	52889.09
432.60	55030.68
432.79	55978.59
432.97	56526.28
433.16	55538.57
433.35	52718.23
433.54	49371.26
433.72	48098.01
433.91	49785.54
434.10	53340.81
434.28	55290.48
434.47	56292.22
434.66	55484.74
434.85	54695.98
435.03	54859.82
435.22	55503.46
435.41	56832.89
435.59	56828.21
435.78	57581.86
435.97	58045.29
436.16	57986.77
436.34	57787.83
436.53	57219.08
436.72	57518.67
436.90	55739.86
437.09	55854.54
437.28	55695.39
437.46	56727.56
437.65	56032.42
437.84	53712.95
438.02	52046.49
438.21	52779.08
438.40	53759.76
438.58	56034.77
438.77	56584.79
438.96	56842.25
439.14	57954.00
439.33	58347.21
439.52	58756.81
439.70	58166.99
439.89	57418.02
440.08	56690.12
440.26	56921.83
440.45	58024.22
440.63	59512.80
440.82	60441.99
441.01	60355.39
441.19	59976.23
441.38	60463.06
441.57	61153.52
441.75	61242.46
441.94	61680.14
442.12	61244.80
442.31	62085.05
442.50	61738.65
442.68	61499.92
442.87	61190.97
443.05	60863.29
443.24	61773.76
443.43	62103.77
443.61	62274.63
443.80	62770.83
443.98	61137.13
444.17	61413.32
444.35	62731.04
444.54	62812.96
444.73	62805.94
444.91	61396.93
445.10	60591.79
445.28	59955.16
445.47	59606.42
445.65	59695.36
445.84	60434.97
446.02	60879.67
446.21	61361.82
446.39	61385.23
446.58	62068.67
446.77	62101.43
446.95	62782.53
447.14	62960.41
447.32	63351.28
447.51	62822.32
447.69	61946.96
447.88	61794.82
448.06	62162.29
448.25	62663.16
448.43	62810.62
448.62	62415.07
448.80	62197.40
448.99	62644.44
449.17	62532.09
449.36	62803.59
449.54	63592.36
449.73	63707.04
449.91	64346.01
450.10	64903.06
450.28	64694.75
450.46	64788.37
450.65	64935.82
450.83	64535.59
451.02	64027.70
451.20	63805.34
451.39	64200.89
451.57	64341.33
451.76	64034.72
451.94	63491.71
452.13	62990.84
452.31	62138.88
452.49	61109.05
452.68	61464.81
452.86	61593.54
453.05	62115.48
453.23	62812.96
453.42	63161.70
453.60	63728.11
453.78	63653.21
453.97	63557.25
454.15	63690.66
454.34	63194.46
454.52	63501.07
454.70	63035.31
454.89	63166.38
455.07	63398.09
455.26	63763.21
455.44	64598.79
455.62	64907.74
455.81	65162.85
455.99	64624.53
456.17	64774.33
456.36	64589.42
456.54	65242.43
456.73	65394.57
456.91	65535.00
457.09	65535.00
457.28	65535.00
457.46	64968.59
457.64	64975.61
457.83	64402.18
458.01	64001.95
458.19	64652.62
458.38	64697.09
458.56	65233.07
458.74	65172.22
458.93	64905.40
459.11	64921.78
459.29	64767.30
459.48	64683.04
459.66	64388.14
459.84	64774.33
460.03	64945.18
460.21	64814.12
460.39	65535.00
460.57	65535.00
460.76	65535.00
460.94	65535.00
461.12	65535.00
461.31	65535.00
461.49	65535.00
461.67	65535.00
461.85	65535.00
462.04	65535.00
462.22	65535.00
462.40	65535.00
462.59	65535.00
462.77	65535.00
462.95	65535.00
463.13	65535.00
463.32	65535.00
463.50	65535.00
463.68	65535.00
463.86	65535.00
464.05	65535.00
464.23	65179.24
464.41	64811.77
464.59	64823.48
464.78	65535.00
464.96	65488.19
465.14	65490.53
465.32	65535.00
465.50	65535.00
465.69	65535.00
465.87	65535.00
466.05	65535.00
466.23	64559.00
466.41	64425.59
466.60	65226.05
466.78	64823.48
466.96	65186.26
467.14	65464.78
467.32	65535.00
467.51	65535.00
467.69	64685.39
467.87	65209.67
468.05	65535.00
468.23	65535.00
468.41	65535.00
468.60	65535.00
468.78	65535.00
468.96	65535.00
469.14	65535.00
469.32	65535.00
469.50	65410.95
469.69	65469.46
469.87	65031.78
470.05	65209.67
470.23	65251.80
470.41	65272.86
470.59	65535.00
470.77	65535.00
470.95	65535.00
471.14	65535.00
471.32	65535.00
471.50	65535.00
471.68	65535.00
471.86	65535.00
472.04	65535.00
472.22	65535.00
472.40	65535.00
472.58	65535.00
472.77	65535.00
472.95	65535.00
473.13	65535.00
473.31	65535.00
473.49	65535.00
473.67	65535.00
473.85	65535.00
474.03	65535.00
474.21	65535.00
474.39	65535.00
474.57	65535.00
474.75	65535.00
474.93	65535.00
475.12	65535.00
475.30	65535.00
475.48	65535.00
475.66	65535.00
475.84	65535.00
476.02	65535.00
476.20	65535.00
476.38	65535.00
476.56	65535.00
476.74	65535.00
476.92	65535.00
477.10	65535.00
477.28	65535.00
477.46	65535.00
477.64	65535.00
477.82	65535.00
478.00	65535.00
478.18	65535.00
478.36	65535.00
478.54	65535.00
478.72	65535.00
478.90	65535.00
479.08	65535.00
479.26	65535.00
479.44	65535.00
479.62	65535.00
479.80	65535.00
479.98	65535.00
480.16	65535.00
480.34	65535.00
480.52	65535.00
480.70	65535.00
480.88	65535.00
481.06	65535.00
481.24	65535.00
481.41	65535.00
481.59	65535.00
481.77	65535.00
481.95	65535.00
482.13	65535.00
482.31	65535.00
482.49	65535.00
482.67	65535.00
482.85	65535.00
483.03	65535.00
483.21	65535.00
483.39	65535.00
483.57	65535.00
483.74	65535.00
483.92	65535.00
484.10	65535.00
484.28	65535.00
484.46	65535.00
484.64	65535.00
484.82	65535.00
485.00	65535.00
485.18	65535.00
485.35	65535.00
485.53	65535.00
485.71	65535.00
485.89	65535.00
486.07	65535.00
486.25	65535.00
486.43	65535.00
486.61	65535.00
486.78	65535.00
486.96	65535.00
487.14	65535.00
487.32	65535.00
487.50	65535.00
487.68	65535.00
487.85	65535.00
488.03	65535.00
488.21	65535.00
488.39	65535.00
488.57	65535.00
488.75	65535.00
488.92	65535.00
489.10	65535.00
489.28	65535.00
489.46	65535.00
489.64	65535.00
489.81	65535.00
489.99	65535.00
490.17	65535.00
490.35	65535.00
490.53	65535.00
490.70	65535.00
490.88	65535.00
491.06	65535.00
491.24	65535.00
491.41	65535.00
491.59	65535.00
491.77	65535.00
491.95	65535.00
492.13	65535.00
492.30	65535.00
492.48	65535.00
492.66	65535.00
492.84	65535.00
493.01	65535.00
493.19	65535.00
493.37	65535.00
493.54	65535.00
493.72	65535.00
493.90	65535.00
494.08	65535.00
494.25	65535.00
494.43	65535.00
494.61	65535.00
494.79	65535.00
494.96	65535.00
495.14	65535.00
495.32	65535.00
495.49	65535.00
495.67	65535.00
495.85	65535.00
496.02	65535.00
496.20	65535.00
496.38	65535.00
496.55	65535.00
496.73	65535.00
496.91	65535.00
497.09	65535.00
497.26	65535.00
497.44	65535.00
497.62	65535.00
497.79	65535.00
497.97	65535.00
498.14	65535.00
498.32	65535.00
498.50	65535.00
498.67	65535.00
498.85	65535.00
499.03	65535.00
499.20	65535.00
499.38	65535.00
499.56	65535.00
499.73	65535.00
499.91	65535.00
500.08	65535.00
500.26	65535.00
500.44	65535.00
500.61	65535.00
500.79	65535.00
500.97	65535.00
501.14	65535.00
501.32	65535.00
501.49	65535.00
501.67	65535.00
501.84	65535.00
502.02	65535.00
502.20	65535.00
502.37	65535.00
502.55	65535.00
502.72	65535.00
502.90	65535.00
503.07	65535.00
503.25	65535.00
503.43	65535.00
503.60	65535.00
503.78	65535.00
503.95	65535.00
504.13	65535.00
504.30	65535.00
504.48	65535.00
504.65	65535.00
504.83	65535.00
505.01	65535.00
505.18	65535.00
505.36	65535.00
505.53	65535.00
505.71	65535.00
505.88	65535.00
506.06	65535.00
506.23	65535.00
506.41	65535.00
506.58	65535.00
506.76	65535.00
506.93	65535.00
507.11	65535.00
507.28	65535.00
507.46	65535.00
507.63	65535.00
507.81	65535.00
507.98	65535.00
508.16	65535.00
508.33	65535.00
508.50	65535.00
508.68	65535.00
508.85	65535.00
509.03	65535.00
509.20	65535.00
509.38	65535.00
509.55	65535.00
509.73	65535.00
509.90	65535.00
510.08	65535.00
510.25	65535.00
510.42	65535.00
510.60	65535.00
510.77	65535.00
510.95	65535.00
511.12	65535.00
511.30	65535.00
511.47	65535.00
511.64	65535.00
511.82	65535.00
511.99	65535.00
512.17	65535.00
512.34	65535.00
512.51	65535.00
512.69	65535.00
512.86	65535.00
513.04	65535.00
513.21	65535.00
513.38	65535.00
513.56	65535.00
513.73	65535.00
513.90	65535.00
514.08	65535.00
514.25	65535.00
514.43	65535.00
514.60	65535.00
514.77	65535.00
514.95	65535.00
515.12	65535.00
515.29	65535.00
515.47	65535.00
515.64	65535.00
515.81	65535.00
515.99	65535.00
516.16	65535.00
516.33	65535.00
516.51	65535.00
516.68	65535.00
516.85	65535.00
517.03	65535.00
517.20	65535.00
517.37	65535.00
517.54	65535.00
517.72	65535.00
517.89	65535.00
518.06	65535.00
518.24	65535.00
518.41	65535.00
518.58	65535.00
518.75	65535.00
518.93	65535.00
519.10	65535.00
519.27	65535.00
519.45	65535.00
519.62	65535.00
519.79	65535.00
519.96	65535.00
520.14	65535.00
520.31	65535.00
520.48	65535.00
520.65	65535.00
520.83	65535.00
521.00	65535.00
521.17	65535.00
521.34	65535.00
521.52	65535.00
521.69	65535.00
521.86	65535.00
522.03	65535.00
522.20	65535.00
522.38	65535.00
522.55	65535.00
522.72	65535.00
522.89	65535.00
523.07	65535.00
523.24	65535.00
523.41	65535.00
523.58	65535.00
523.75	65535.00
523.92	65535.00
524.10	65535.00
524.27	65535.00
524.44	65535.00
524.61	65535.00
524.78	65535.00
524.96	65535.00
525.13	65535.00
525.30	65535.00
525.47	65535.00
525.64	65535.00
525.81	65535.00
525.98	65535.00
526.16	65535.00
526.33	65535.00
526.50	65535.00
526.67	65535.00
526.84	65535.00
527.01	65535.00
527.18	65535.00
527.36	65535.00
527.53	65535.00
527.70	65535.00
527.87	65535.00
528.04	65535.00
528.21	65535.00
528.38	65535.00
528.55	65535.00
528.72	65535.00
528.89	65535.00
529.07	65535.00
529.24	65535.00
529.41	65535.00
529.58	65535.00
529.75	65535.00
529.92	65535.00
530.09	65535.00
530.26	65535.00
530.43	65535.00
530.60	65535.00
530.77	65535.00
530.94	65535.00
531.11	65535.00
531.28	65535.00
531.46	65535.00
531.63	65535.00
531.80	65535.00
531.97	65535.00
532.14	65535.00
532.31	65535.00
532.48	65535.00
532.65	65535.00
532.82	65535.00
532.99	65535.00
533.16	65535.00
533.33	65535.00
533.50	65535.00
533.67	65535.00
533.84	65535.00
534.01	65535.00
534.18	65535.00
534.35	65535.00
534.52	65535.00
534.69	65535.00
534.86	65535.00
535.03	65535.00
535.20	65535.00
535.37	65535.00
535.54	65535.00
535.71	65535.00
535.88	65535.00
536.05	65535.00
536.22	65535.00
536.38	65535.00
536.55	65535.00
536.72	65535.00
536.89	65535.00
537.06	65535.00
537.23	65535.00
537.40	65535.00
537.57	65535.00
537.74	65535.00
537.91	65535.00
538.08	65535.00
538.25	65535.00
538.42	65535.00
538.59	65535.00
538.75	65535.00
538.92	65535.00
539.09	65535.00
539.26	65535.00
539.43	65535.00
539.60	65535.00
539.77	65535.00
539.94	65535.00
540.11	65535.00
540.28	65535.00
540.44	65535.00
540.61	65535.00
540.78	65535.00
540.95	65535.00
541.12	65535.00
541.29	65535.00
541.46	65535.00
541.62	65535.00
541.79	65535.00
541.96	65535.00
542.13	65535.00
542.30	65535.00
542.47	65535.00
542.63	65535.00
542.80	65535.00
542.97	65535.00
543.14	65535.00
543.31	65535.00
543.48	65535.00
543.64	65535.00
543.81	65535.00
543.98	65535.00
544.15	65535.00
544.32	65535.00
544.48	65535.00
544.65	65535.00
544.82	65535.00
544.99	65535.00
545.16	65535.00
545.32	65535.00
545.49	65535.00
545.66	65535.00
545.83	65535.00
546.00	65535.00
546.16	65535.00
546.33	65535.00
546.50	65535.00
546.67	65535.00
546.83	65535.00
547.00	65535.00
547.17	65535.00
547.34	65535.00
547.50	65535.00
547.67	65535.00
547.84	65535.00
548.00	65535.00
548.17	65535.00
548.34	65535.00
548.51	65535.00
548.67	65535.00
548.84	65535.00
549.01	65535.00
549.18	65535.00
549.34	65535.00
549.51	65535.00
549.68	65535.00
549.84	65535.00
550.01	65535.00
550.18	65535.00
550.34	65535.00
550.51	65535.00
550.68	65535.00
550.84	65535.00
551.01	65535.00
551.18	65535.00
551.34	65535.00
551.51	65535.00
551.68	65535.00
551.84	65535.00
552.01	65535.00
552.18	65535.00
552.34	65535.00
552.51	65535.00
552.68	65535.00
552.84	65535.00
553.01	65535.00
553.18	65535.00
553.34	65535.00
553.51	65535.00
553.67	65535.00
553.84	65535.00
554.01	65535.00
554.17	65535.00
554.34	65535.00
554.51	65535.00
554.67	65535.00
554.84	65535.00
555.00	65535.00
555.17	65535.00
555.33	65535.00
555.50	65535.00
555.67	65535.00
555.83	65535.00
556.00	65535.00
556.16	65535.00
556.33	65535.00
556.50	65535.00
556.66	65535.00
556.83	65535.00
556.99	65535.00
557.16	65535.00
557.32	65535.00
557.49	65535.00
557.65	65535.00
557.82	65535.00
557.98	65535.00
558.15	65535.00
558.32	65535.00
558.48	65535.00
558.65	65535.00
558.81	65535.00
558.98	65535.00
559.14	65535.00
559.31	65535.00
559.47	65535.00
559.64	65535.00
559.80	65535.00
559.97	65535.00
560.13	65535.00
560.30	65535.00
560.46	65535.00
560.63	65535.00
560.79	65535.00
560.96	65535.00
561.12	65535.00
561.29	65535.00
561.45	65535.00
561.61	65535.00
561.78	65535.00
561.94	65535.00
562.11	65535.00
562.27	65535.00
562.44	65535.00
562.60	65535.00
562.77	65535.00
562.93	65535.00
563.10	65535.00
563.26	65535.00
563.42	65535.00
563.59	65535.00
563.75	65535.00
563.92	65535.00
564.08	65535.00
564.24	65535.00
564.41	65535.00
564.57	65535.00
564.74	65535.00
564.90	65535.00
565.07	65535.00
565.23	65535.00
565.39	65535.00
565.56	65535.00
565.72	65535.00
565.88	65535.00
566.05	65535.00
566.21	65535.00
566.38	65535.00
566.54	65535.00
566.70	65535.00
566.87	65535.00
567.03	65535.00
567.19	65535.00
567.36	65535.00
567.52	65535.00
567.68	65535.00
567.85	65535.00
568.01	65535.00
568.17	65535.00
568.34	65535.00
568.50	65535.00
568.66	65535.00
568.83	65535.00
568.99	65535.00
569.15	65535.00
569.32	65535.00
569.48	65535.00
569.64	65535.00
569.81	65535.00
569.97	65535.00
570.13	65535.00
570.30	65535.00
570.46	65535.00
570.62	65535.00
570.78	65535.00
570.95	65535.00
571.11	65535.00
571.27	65535.00
571.43	65535.00
571.60	65535.00
571.76	65535.00
571.92	65535.00
572.09	65535.00
572.25	65535.00
572.41	65535.00
572.57	65535.00
572.74	65535.00
572.90	65535.00
573.06	65535.00
573.22	65535.00
573.38	65535.00
573.55	65535.00
573.71	65535.00
573.87	65535.00
574.03	65535.00
574.20	65535.00
574.36	65535.00
574.52	65535.00
574.68	65535.00
574.84	65535.00
575.01	65535.00
575.17	65535.00
575.33	65535.00
575.49	65535.00
575.65	65535.00
575.82	65535.00
575.98	65535.00
576.14	65535.00
576.30	65535.00
576.46	65535.00
576.62	65535.00
576.79	65535.00
576.95	65535.00
577.11	65535.00
577.27	65535.00
577.43	65535.00
577.59	65535.00
577.75	65535.00
577.92	65535.00
578.08	65535.00
578.24	65535.00
578.40	65535.00
578.56	65535.00
578.72	65535.00
578.88	65535.00
579.04	65535.00
579.21	65535.00
579.37	65535.00
579.53	65535.00
579.69	65535.00
579.85	65535.00
580.01	65535.00
580.17	65535.00
580.33	65535.00
580.49	65535.00
580.65	65535.00
580.82	65535.00
580.98	65535.00
581.14	65535.00
581.30	65535.00
581.46	65535.00
581.62	65535.00
581.78	65535.00
581.94	65535.00
582.10	65535.00
582.26	65535.00
582.42	65535.00
582.58	65535.00
582.74	65535.00
582.90	65535.00
583.06	65535.00
583.22	65535.00
583.38	65535.00
583.54	65535.00
583.70	65535.00
583.86	65535.00
584.02	65535.00
584.18	65535.00
