SpectraSuite Data File
++++++++++++++++++++++++++++++++++++
Date: Mon Oct 07 14:55:02 GMT-05:00 2013
User: price-jones
Dark Spectrum Present: No
Reference Spectrum Present: No
Number of Sampled Component Spectra: 1
Spectrometers: USB2+H05261
Integration Time (usec): 10000 (USB2+H05261)
Spectra Averaged: 1 (USB2+H05261)
Boxcar Smoothing: 0 (USB2+H05261)
Correct for Electrical Dark: No (USB2+H05261)
Strobe/Lamp Enabled: No (USB2+H05261)
Correct for Detector Non-linearity: No (USB2+H05261)
Correct for Stray Light: No (USB2+H05261)
Number of Pixels in Processed Spectrum: 2048
>>>>>Begin Processed Spectral Data<<<<<
365.73	0.00
365.92	0.00
366.12	0.00
366.32	0.00
366.52	0.00
366.72	0.00
366.91	0.00
367.11	0.00
367.31	0.00
367.51	0.00
367.70	0.00
367.90	0.00
368.10	0.00
368.30	0.00
368.49	0.00
368.69	0.00
368.89	0.00
369.09	0.00
369.28	0.00
369.48	0.00
369.68	0.00
369.87	0.00
370.07	0.00
370.27	0.00
370.47	484.49
370.66	2658.85
370.86	3143.34
371.06	3426.54
371.25	3337.60
371.45	3049.72
371.65	2715.02
371.84	2607.36
372.04	2857.79
372.24	3243.98
372.44	3239.30
372.63	3059.08
372.83	2909.29
373.03	2438.84
373.22	2495.01
373.42	2815.66
373.62	2979.50
373.81	3152.70
374.01	3162.06
374.21	2675.23
374.40	2523.10
374.60	2829.71
374.79	3412.50
374.99	3772.94
375.19	3974.23
375.38	3796.35
375.58	3625.49
375.78	3681.66
375.97	3695.71
376.17	3702.73
376.37	3906.35
376.56	3906.35
376.76	4283.18
376.95	4545.32
377.15	4746.61
377.35	4919.81
377.54	5191.31
377.74	5231.10
377.93	5558.77
378.13	5062.58
378.33	4690.43
378.52	4360.42
378.72	4231.69
378.91	4217.65
379.11	4133.39
379.31	3887.63
379.50	4023.38
379.70	4432.97
379.89	4800.44
380.09	4940.87
380.28	5177.26
380.48	5139.82
380.68	5062.58
380.87	4940.87
381.07	4533.62
381.26	4079.55
381.46	4058.49
381.65	3796.35
381.85	3723.79
382.04	3548.25
382.24	3236.96
382.43	3314.20
382.63	3075.46
382.83	2909.29
383.02	2958.44
383.22	3066.10
383.41	3368.03
383.61	3527.19
383.80	3920.40
384.00	4451.70
384.19	5032.15
384.39	5310.68
384.58	5186.63
384.78	4959.60
384.97	4880.02
385.17	4610.86
385.36	4355.74
385.56	4280.84
385.75	4793.42
385.95	5060.24
386.14	5448.77
386.34	5291.95
386.53	5076.62
386.72	4807.46
386.92	4968.96
387.11	5296.63
387.31	5378.55
387.50	5205.35
387.70	5231.10
387.89	5144.50
388.09	4985.34
388.28	5032.15
388.48	5228.76
388.67	5736.65
388.86	6162.63
389.06	6604.99
389.25	7110.55
389.45	7080.12
389.64	6827.34
389.84	6878.83
390.03	6785.21
390.22	6839.05
390.42	7250.98
390.61	7482.69
390.81	8081.87
391.00	8116.98
391.19	7981.23
391.39	7896.97
391.58	7080.12
391.78	6874.15
391.97	6848.41
392.16	6359.24
392.36	5376.21
392.55	4311.27
392.75	3323.56
392.94	2768.85
393.13	3030.99
393.33	3796.35
393.52	4901.08
393.71	5722.61
393.91	6356.90
394.10	7061.40
394.29	7632.49
394.49	8135.70
394.68	8870.63
394.88	8786.37
395.07	8854.25
395.26	8779.35
395.46	8575.72
395.65	7932.08
395.84	6745.42
396.04	5511.96
396.23	4475.10
396.42	3817.41
396.62	3978.91
396.81	4964.28
397.00	6188.38
397.19	7859.52
397.39	9270.86
397.58	10080.69
397.77	10413.04
397.97	10867.11
398.16	11129.25
398.35	11602.04
398.55	11908.65
398.74	12243.34
398.93	12430.59
399.12	12119.29
399.32	11707.36
399.51	12105.25
399.70	13027.42
399.90	12683.36
400.09	12634.21
400.28	12765.28
400.47	12870.61
400.67	13745.97
400.86	13886.40
401.05	14047.90
401.24	14010.45
401.44	14427.06
401.63	14279.61
401.82	14061.94
402.01	13879.38
402.21	14307.69
402.40	14324.08
402.59	13776.39
402.78	13294.24
402.97	13069.55
403.17	13944.91
403.36	14691.54
403.55	14813.25
403.74	15126.88
403.93	14324.08
404.13	13053.17
404.32	13355.10
404.51	13951.93
404.70	14888.15
404.89	14590.90
405.09	14319.40
405.28	14242.16
405.47	14216.41
405.66	13998.74
405.85	13841.93
406.05	13256.79
406.24	13933.21
406.43	14347.48
406.62	14710.27
406.81	15047.30
407.00	14494.94
407.20	14185.99
407.39	14448.13
407.58	15066.03
407.77	15602.01
407.96	15983.52
408.15	16280.77
408.34	16388.43
408.54	16858.88
408.73	16849.52
408.92	16538.23
409.11	15925.00
409.30	15136.24
409.49	14029.17
409.68	13479.15
409.87	13341.05
410.07	14518.34
410.26	15489.67
410.45	16264.38
410.64	16676.32
410.83	17053.14
411.02	17188.89
411.21	17862.97
411.40	17469.76
411.59	18230.43
411.78	17862.97
411.98	18150.85
412.17	17963.61
412.36	17673.39
412.55	17668.70
412.74	17097.61
412.93	17181.87
413.12	17652.32
413.31	18977.06
413.50	18956.00
413.69	19098.77
413.88	18375.55
414.07	18073.62
414.26	18398.95
414.45	18799.18
414.64	18724.29
414.83	18899.83
415.02	18398.95
415.22	18551.09
415.41	19194.73
415.60	19976.47
415.79	20545.22
415.98	20599.05
416.17	20386.07
416.36	20357.98
416.55	20032.65
416.74	18857.70
416.93	18768.76
417.12	19000.47
417.31	19014.51
417.50	19604.33
417.69	20318.19
417.88	19714.33
418.07	19819.66
418.26	19541.13
418.45	19997.54
418.64	21207.59
418.83	21671.02
419.02	20936.09
419.21	20238.61
419.39	19782.21
419.58	18691.52
419.77	19208.78
419.96	20357.98
420.15	21256.75
420.34	21848.90
420.53	22298.28
420.72	22518.29
420.91	22647.02
421.10	22171.89
421.29	21923.80
421.48	21483.78
421.67	22434.03
421.86	21303.56
422.05	19522.41
422.24	18087.66
422.43	18782.80
422.61	21006.31
422.80	21652.30
422.99	21212.28
423.18	20503.09
423.37	20680.97
423.56	20783.96
423.75	21273.13
423.94	21626.55
424.13	20362.66
424.32	20439.90
424.50	20219.89
424.69	20678.63
424.88	20538.20
425.07	20606.08
425.26	20788.64
425.45	19976.47
425.64	19695.61
425.83	19988.18
426.01	21177.17
426.20	21525.91
426.39	21144.40
426.58	19400.70
426.77	18317.03
426.96	18239.79
427.15	18881.10
427.33	20477.35
427.52	20692.68
427.71	20884.60
427.90	20489.05
428.09	20458.62
428.28	19784.55
428.46	19077.71
428.65	18946.64
428.84	20053.71
429.03	19646.46
429.22	18195.32
429.40	17544.66
429.59	15789.25
429.78	13846.61
429.97	14293.65
430.16	14293.65
430.34	14298.33
430.53	15000.49
430.72	15484.98
430.91	17310.60
431.10	20493.73
431.28	23337.48
431.47	24982.88
431.66	24554.56
431.85	21893.37
432.03	20486.71
432.22	20325.21
432.41	21834.86
432.60	23302.37
432.79	24168.37
432.97	24552.22
433.16	23515.36
433.35	21476.76
433.54	19183.03
433.72	19035.58
433.91	19810.29
434.10	22300.62
434.28	23599.62
434.47	24144.97
434.66	23381.95
434.85	22977.04
435.03	23814.95
435.22	23590.26
435.41	24816.70
435.59	25692.06
435.78	25891.01
435.97	26096.97
436.16	26047.82
436.34	25523.54
436.53	25165.44
436.72	25163.10
436.90	24151.99
437.09	24058.37
437.28	23328.12
437.46	24744.14
437.65	23510.68
437.84	21884.01
438.02	21041.42
438.21	20823.75
438.40	22178.92
438.58	23620.69
438.77	24435.19
438.96	24898.62
439.14	26199.96
439.33	26246.77
439.52	26677.43
439.70	25724.83
439.89	24889.26
440.08	24683.29
440.26	25046.07
440.45	26319.32
440.63	27840.67
440.82	28650.50
441.01	27796.20
441.19	28163.67
441.38	29032.00
441.57	30061.84
441.75	30000.99
441.94	30195.25
442.12	30232.70
442.31	30976.99
442.50	30471.43
442.68	29729.48
442.87	29830.13
443.05	29160.73
443.24	30141.42
443.43	30857.62
443.61	30953.58
443.80	31302.32
443.98	30143.76
444.17	29706.08
444.35	31063.59
444.54	31819.58
444.73	30998.06
444.91	29773.95
445.10	28636.45
445.28	28259.63
445.47	27580.87
445.65	27651.09
445.84	28627.09
446.02	29488.41
446.21	30225.68
446.39	29968.22
446.58	30543.99
446.77	31353.82
446.95	31541.06
447.14	32287.69
447.32	32587.28
447.51	32011.51
447.69	30625.91
447.88	30588.46
448.06	31143.17
448.25	31768.09
448.43	31028.48
448.62	30838.90
448.80	30637.61
448.99	30806.13
449.17	31653.40
449.36	32070.02
449.54	32692.60
449.73	33364.34
449.91	33741.16
450.10	34733.55
450.28	34834.19
450.46	34866.96
450.65	34621.20
450.83	34576.73
451.02	33993.94
451.20	33809.04
451.39	33919.04
451.57	33483.70
451.76	33434.55
451.94	32746.44
452.13	31845.33
452.31	30553.35
452.49	29001.58
452.68	30171.85
452.86	30319.30
453.05	30761.66
453.23	32297.05
453.42	32348.54
453.60	33221.56
453.78	33291.78
453.97	33188.80
454.15	32610.68
454.34	31606.59
454.52	31470.84
454.70	31395.95
454.89	32374.29
455.07	32400.04
455.26	32861.12
455.44	33787.97
455.62	34476.09
455.81	34586.10
455.99	33954.15
456.17	34438.64
456.36	35103.35
456.54	35309.32
456.73	34635.25
456.91	35377.20
457.09	35180.59
457.28	36643.43
457.46	34579.07
457.64	34216.29
457.83	33823.08
458.01	33542.22
458.19	34492.47
458.38	35243.79
458.56	35653.38
458.74	35178.25
458.93	34513.54
459.11	34082.88
459.29	34057.14
459.48	34850.58
459.66	33853.51
459.84	34125.01
460.03	34239.70
460.21	35522.31
460.39	36320.43
460.57	35477.84
460.76	35672.10
460.94	36381.29
461.12	36123.83
461.31	36151.91
461.49	36872.80
461.67	35983.40
461.85	37553.90
462.04	36737.05
462.22	37003.87
462.40	37062.38
462.59	36261.92
462.77	36636.41
462.95	36580.23
463.13	36451.50
463.32	35892.12
463.50	35559.76
463.68	35936.59
463.86	36278.30
464.05	34824.83
464.23	34010.32
464.41	34476.09
464.59	34677.38
464.78	36172.98
464.96	35182.93
465.14	34218.63
465.32	36601.30
465.50	37240.26
465.69	38546.28
465.87	36446.82
466.05	35728.28
466.23	34134.37
466.41	33331.57
466.60	34801.43
466.78	34431.62
466.96	34628.23
467.14	35964.67
467.32	35344.43
467.51	35442.73
467.69	34164.80
467.87	35435.71
468.05	36074.68
468.23	35723.60
468.41	36147.23
468.60	36060.63
468.78	35990.42
468.96	36510.02
469.14	36762.79
469.32	36989.83
469.50	34824.83
469.69	35400.60
469.87	34817.81
470.05	34417.58
470.23	34532.26
470.41	34801.43
470.59	35674.45
470.77	35758.70
470.95	35983.40
471.14	37148.98
471.32	36818.97
471.50	39246.10
471.68	39138.44
471.86	39491.86
472.04	38962.90
472.22	39447.39
472.40	37720.07
472.58	37207.50
472.77	37572.62
472.95	37907.32
473.13	39150.14
473.31	37057.70
473.49	37792.63
473.67	38424.57
473.85	39248.44
474.03	40994.48
474.21	40985.12
474.39	41057.68
474.57	40477.22
474.75	41212.15
474.93	40002.10
475.12	38883.32
475.30	39489.52
475.48	38934.81
475.66	39871.03
475.84	38824.81
476.02	39648.68
476.20	38768.63
476.38	39910.82
476.56	40807.24
476.74	41312.80
476.92	41691.96
477.10	41535.15
477.28	43192.25
477.46	43079.90
477.64	43566.73
477.82	44226.76
478.00	44034.84
478.18	43175.86
478.36	42293.48
478.54	43257.78
478.72	43688.44
478.90	45418.10
479.08	46555.60
479.26	46148.34
479.44	46763.90
479.62	46068.76
479.80	46401.12
479.98	45839.39
480.16	46838.80
480.34	45600.66
480.52	47547.98
480.70	47061.15
480.88	46616.45
481.06	47157.11
481.24	48009.07
481.41	48727.61
481.59	49420.41
481.77	48128.44
481.95	47639.26
482.13	47683.73
482.31	48554.41
482.49	49380.62
482.67	48470.15
482.85	48830.60
483.03	48666.76
483.21	49958.73
483.39	49757.45
483.57	48966.35
483.74	49090.40
483.92	49476.58
484.10	49001.46
484.28	49525.74
484.46	49729.36
484.64	51061.13
484.82	50326.20
485.00	49720.00
485.18	48875.07
485.35	46597.73
485.53	41687.28
485.71	39222.70
485.89	40273.60
486.07	43620.56
486.25	45324.47
486.43	47976.30
486.61	48463.13
486.78	47889.70
486.96	49256.57
487.14	50239.60
487.32	51065.81
487.50	51962.23
487.68	53081.01
487.85	53553.80
488.03	52800.15
488.21	52062.88
488.39	52053.51
488.57	50457.27
488.75	50911.33
488.92	52472.47
489.10	54220.85
489.28	54667.89
489.46	56088.60
489.64	55639.22
489.81	55973.91
489.99	55299.84
490.17	55430.91
490.35	55847.52
490.53	55341.97
490.70	55206.22
490.88	54925.35
491.06	55899.01
491.24	56509.89
491.41	55213.24
491.59	53759.76
491.77	53776.15
491.95	54885.56
492.13	55917.74
492.30	56397.55
492.48	57193.33
492.66	57312.70
492.84	57095.03
493.01	57043.54
493.19	56788.42
493.37	56353.08
493.54	56456.06
493.72	57698.89
493.90	57836.98
494.08	58295.72
494.25	58255.93
494.43	58906.60
494.61	59473.01
494.79	59072.78
494.96	59365.35
495.14	58803.62
495.32	57497.60
495.49	57942.30
495.67	59070.44
495.85	59646.21
496.02	60243.05
496.20	59496.42
496.38	59089.16
496.55	59185.13
496.73	59737.49
496.91	59898.99
497.09	59777.28
497.26	60566.04
497.44	59779.62
497.62	59105.55
497.79	58452.54
497.97	57703.57
498.14	58071.03
498.32	59421.52
498.50	59494.08
498.67	59377.05
498.85	59536.21
499.03	60186.88
499.20	60207.94
499.38	59964.52
499.56	59159.38
499.73	59168.74
499.91	59054.06
500.08	58164.65
500.26	58295.72
500.44	58798.94
500.61	59285.77
500.79	58951.07
500.97	59086.82
501.14	58213.80
501.32	57771.44
501.49	58054.65
501.67	58878.52
501.84	58752.13
502.02	59442.59
502.20	59952.82
502.37	59966.87
502.55	60111.98
502.72	60711.16
502.90	60935.85
503.07	60783.71
503.25	59751.54
503.43	58754.47
503.60	58520.41
503.78	58665.53
503.95	59070.44
504.13	60149.43
504.30	60374.12
504.48	59969.21
504.65	60203.26
504.83	60285.18
505.01	61020.11
505.18	61031.81
505.36	61614.60
505.53	61551.41
505.71	61586.52
505.88	61881.42
506.06	61123.09
506.23	60992.02
506.41	60996.70
506.58	60931.17
506.76	61052.87
506.93	60221.98
507.11	60331.99
507.28	60736.90
507.46	59983.25
507.63	60114.32
507.81	59484.72
507.98	60147.09
508.16	61048.19
508.33	61045.85
508.50	61127.77
508.68	61846.32
508.85	62042.92
509.03	62391.66
509.20	61705.88
509.38	60748.60
509.55	60947.55
509.73	61207.35
509.90	61132.45
510.08	61303.31
510.25	60711.16
510.42	60652.64
510.60	61031.81
510.77	61399.27
510.95	61350.12
511.12	61839.29
511.30	62686.57
511.47	62752.10
511.64	62429.11
511.82	62422.09
511.99	61324.38
512.17	61502.26
512.34	60652.64
512.51	61036.49
512.69	61647.37
512.86	60992.02
513.04	61413.32
513.21	60753.29
513.38	60402.21
513.56	59678.98
513.73	59468.33
513.90	60512.21
514.08	60355.39
514.25	60486.46
514.43	60823.50
514.60	60970.96
514.77	61293.95
514.95	61263.52
515.12	61448.42
515.29	61556.09
515.47	61975.05
515.64	62092.07
515.81	61689.50
515.99	60481.78
516.16	59014.27
516.33	56949.92
516.51	56907.79
516.68	55475.38
516.85	54773.22
517.03	56456.06
517.20	58749.79
517.37	60547.32
517.54	61226.07
517.72	60051.12
517.89	57368.87
518.06	55824.12
518.24	57001.41
518.41	59168.74
518.58	60196.24
518.75	60074.53
518.93	59978.57
519.10	59791.33
519.27	60638.60
519.45	61006.06
519.62	61649.71
519.79	61638.01
519.96	61233.10
520.14	61001.38
520.31	59807.71
520.48	59824.09
520.65	60989.68
520.83	61998.45
521.00	61827.59
521.17	61162.88
521.34	61062.24
521.52	61818.23
521.69	62068.67
521.86	62171.65
522.03	61961.00
522.20	60498.17
522.38	59962.18
522.55	60615.19
522.72	60842.23
522.89	60144.75
523.07	61212.03
523.24	61757.38
523.41	62337.83
523.58	62754.44
523.75	62709.97
523.92	62599.97
524.10	62417.41
524.27	62075.69
524.44	61787.80
524.61	61167.56
524.78	61916.53
524.96	61757.38
525.13	61766.74
525.30	62471.24
525.47	62948.71
525.64	62557.84
525.81	61614.60
525.98	59779.62
526.16	58859.79
526.33	59011.93
526.50	58361.26
526.67	58422.11
526.84	59117.25
527.01	59973.89
527.18	60329.65
527.36	61130.11
527.53	61984.41
527.70	61474.17
527.87	60645.62
528.04	61324.38
528.21	61755.03
528.38	62054.62
528.55	63077.44
528.72	62906.58
528.89	62372.94
529.07	62422.09
529.24	61366.51
529.41	61214.37
529.58	61041.17
529.75	61937.60
529.92	62143.56
530.09	62042.92
530.26	62803.59
530.43	63337.24
530.60	62436.13
530.77	62901.90
530.94	63220.21
531.11	62094.41
531.28	62173.99
531.46	62340.17
531.63	62365.91
531.80	61956.32
531.97	61598.22
532.14	61528.00
532.31	60011.34
532.48	59402.80
532.65	59835.80
532.82	60327.31
532.99	62092.07
533.16	62063.99
533.33	62213.78
533.50	62232.50
533.67	61979.73
533.84	61471.83
534.01	61696.52
534.18	61663.75
534.35	61408.64
534.52	60851.59
534.69	61626.31
534.86	62045.26
535.03	62305.06
535.20	62340.17
535.37	63215.53
535.54	63255.32
535.71	62871.47
535.88	62939.35
536.05	61867.38
536.22	61001.38
536.38	61130.11
536.55	60521.57
536.72	60172.83
536.89	60823.50
537.06	60856.27
537.23	61418.00
537.40	61223.73
537.57	60912.44
537.74	61602.90
537.91	61605.24
538.08	61478.85
538.25	61633.33
538.42	62525.07
538.59	62054.62
538.75	61111.39
538.92	60467.74
539.09	60891.38
539.26	60727.54
539.43	60575.40
539.60	60231.35
539.77	61197.99
539.94	60748.60
540.11	60140.07
540.28	59732.81
540.44	59662.60
540.61	59739.83
540.78	60058.15
540.95	60505.19
541.12	60793.07
541.29	61186.28
541.46	61020.11
541.62	61579.49
541.79	60823.50
541.96	60320.29
542.13	60481.78
542.30	60285.18
542.47	60804.78
542.63	60802.44
542.80	60743.92
542.97	60100.28
543.14	60062.83
543.31	60453.70
543.48	61413.32
543.64	61567.79
543.81	62199.74
543.98	62162.29
544.15	60989.68
544.32	61378.21
544.48	60823.50
544.65	61022.45
544.82	61464.81
544.99	60111.98
545.16	59910.69
545.32	60439.65
545.49	60753.29
545.66	60935.85
545.83	60989.68
546.00	61293.95
546.16	60732.22
546.33	60666.69
546.50	60725.20
546.67	61422.68
546.83	61043.51
547.00	61221.39
547.17	59695.36
547.34	59241.30
547.50	59124.27
547.67	60156.45
547.84	61006.06
548.00	60977.98
548.17	60718.18
548.34	60891.38
548.51	61221.39
548.67	61071.60
548.84	60949.89
549.01	61265.86
549.18	60877.33
549.34	60797.76
549.51	61111.39
549.68	61261.18
549.84	60535.62
550.01	59891.97
550.18	59985.59
550.34	60058.15
550.51	60439.65
550.68	60795.42
550.84	60823.50
551.01	59772.60
551.18	59894.31
551.34	59538.55
551.51	60685.41
551.68	60835.20
551.84	61038.83
552.01	60563.70
552.18	60205.60
552.34	59678.98
552.51	59355.99
552.68	59309.18
552.84	59494.08
553.01	59547.91
553.18	59978.57
553.34	59884.95
553.51	60158.79
553.67	60362.42
553.84	60264.11
554.01	60561.36
554.17	59987.93
554.34	60179.85
554.51	60236.03
554.67	59482.37
554.84	59810.05
555.00	59351.30
555.17	59224.92
555.33	59271.73
555.50	59084.48
555.67	59718.77
555.83	59845.16
556.00	59381.73
556.16	59138.32
556.33	58972.14
556.50	59276.41
556.66	59257.68
556.83	58899.58
556.99	58749.79
557.16	59152.36
557.32	58827.02
557.49	59283.43
557.65	59009.59
557.82	59613.44
557.98	59671.96
558.15	58527.44
558.32	57900.17
558.48	57464.83
558.65	57478.88
558.81	57848.68
558.98	58691.27
559.14	58925.33
559.31	58866.81
559.47	58293.38
559.64	58433.81
559.80	57645.05
559.97	58391.68
560.13	58824.68
560.30	59969.21
560.46	60095.60
560.63	60423.27
560.79	60250.07
560.96	59463.65
561.12	58403.39
561.29	58375.30
561.45	58204.44
561.61	59128.95
561.78	58415.09
561.94	58588.29
562.11	58808.30
562.27	58068.69
562.44	59168.74
562.60	59409.82
562.77	59290.45
562.93	58628.08
563.10	58499.35
563.26	58595.31
563.42	58962.78
563.59	58494.67
563.75	58429.13
563.92	58234.87
564.08	57858.04
564.24	58635.10
564.41	57977.41
564.57	59253.00
564.74	58667.87
564.90	58305.09
565.07	57888.47
565.23	57104.39
565.39	56760.33
565.56	57090.35
565.72	57497.60
565.88	56149.45
566.05	58124.86
566.21	58344.87
566.38	57881.45
566.54	58138.91
566.70	58759.15
566.87	58567.23
567.03	57942.30
567.19	59201.51
567.36	59332.58
567.52	57989.11
567.68	57415.68
567.85	57146.52
568.01	57439.09
568.17	57200.35
568.34	57523.35
568.50	57106.73
568.66	57034.17
568.83	56774.37
568.99	56514.58
569.15	56910.13
569.32	56800.12
569.48	56919.49
569.64	56802.46
569.81	56678.41
569.97	56451.38
570.13	55693.05
570.30	55356.01
570.46	54794.28
570.62	54326.17
570.78	54649.17
570.95	55466.02
571.11	55599.43
571.27	55384.10
571.43	55594.74
571.60	55487.08
571.76	56444.36
571.92	56856.29
572.09	57366.53
572.25	56612.88
572.41	56900.76
572.57	56779.06
572.74	57097.37
572.90	58106.14
573.06	57371.21
573.22	57336.10
573.38	57336.10
573.55	58372.96
573.71	57017.79
573.87	56839.91
574.03	57069.28
574.20	56676.07
574.36	56622.24
574.52	55669.64
574.68	55646.24
574.84	55079.83
575.01	55199.19
575.17	55337.29
575.33	55667.30
575.49	55842.84
575.65	54813.01
575.82	54932.37
575.98	55337.29
576.14	56521.60
576.30	57158.22
576.46	55482.40
576.62	55426.23
576.79	55819.44
576.95	55828.80
577.11	56317.97
577.27	55730.50
577.43	55941.14
577.59	55796.03
577.75	54511.08
577.92	54452.56
578.08	54908.97
578.24	55042.38
578.40	55173.45
578.56	54277.02
578.72	54656.19
578.88	54330.86
579.04	54899.61
579.21	54555.55
579.37	54756.83
579.53	55152.38
579.69	54567.25
579.85	54354.26
580.01	54717.04
580.17	54120.21
580.33	55171.11
580.49	55391.12
580.65	54251.28
580.82	54911.31
580.98	55416.86
581.14	55133.66
581.30	54773.22
581.46	54536.82
581.62	54775.56
581.78	55854.54
581.94	55686.03
582.10	55679.00
582.26	55641.56
582.42	55494.10
582.58	54749.81
582.74	54841.09
582.90	54679.60
583.06	55154.72
583.22	55313.88
583.38	55117.28
583.54	55545.59
583.70	55550.27
583.86	55444.95
584.02	54777.90
584.18	54712.36
584.34	54298.09
584.50	53986.80
584.66	54466.61
584.82	54035.95
584.98	54253.62
585.14	53787.85
585.30	53829.98
