SpectraSuite Data File
++++++++++++++++++++++++++++++++++++
Date: Mon Oct 07 14:53:26 GMT-05:00 2013
User: price-jones
Dark Spectrum Present: No
Reference Spectrum Present: No
Number of Sampled Component Spectra: 1
Spectrometers: USB2+H05261
Integration Time (usec): 100000 (USB2+H05261)
Spectra Averaged: 1 (USB2+H05261)
Boxcar Smoothing: 0 (USB2+H05261)
Correct for Electrical Dark: No (USB2+H05261)
Strobe/Lamp Enabled: No (USB2+H05261)
Correct for Detector Non-linearity: No (USB2+H05261)
Correct for Stray Light: No (USB2+H05261)
Number of Pixels in Processed Spectrum: 2048
>>>>>Begin Processed Spectral Data<<<<<
365.73	0.00
365.92	0.00
366.12	0.00
366.32	0.00
366.52	0.00
366.72	0.00
366.91	0.00
367.11	0.00
367.31	0.00
367.51	0.00
367.70	0.00
367.90	0.00
368.10	0.00
368.30	0.00
368.49	0.00
368.69	0.00
368.89	0.00
369.09	0.00
369.28	0.00
369.48	0.00
369.68	0.00
369.87	0.00
370.07	0.00
370.27	0.00
370.47	505.56
370.66	2902.26
370.86	3515.48
371.06	3791.67
371.25	3702.73
371.45	3414.84
371.65	3234.62
371.84	2780.56
372.04	3061.42
372.24	3297.81
372.44	3599.74
372.63	3475.70
372.83	3262.71
373.03	2883.54
373.22	2635.44
373.42	2822.69
373.62	3077.80
373.81	3445.27
374.01	3508.46
374.21	3082.49
374.40	2871.84
374.60	3049.72
374.79	3557.61
374.99	3999.98
375.19	4238.71
375.38	4337.01
375.58	4107.64
375.78	3939.12
375.97	4009.34
376.17	4138.07
376.37	4117.00
376.56	4432.97
376.76	4475.10
376.95	4784.06
377.15	5212.37
377.35	5570.48
377.54	5542.39
377.74	5603.24
377.93	5561.11
378.13	5526.00
378.33	5432.38
378.52	4905.76
378.72	4704.48
378.91	4723.20
379.11	4461.06
379.31	4280.84
379.50	4337.01
379.70	4645.96
379.89	5226.42
380.09	5387.91
380.28	5659.42
380.48	5547.07
380.68	5537.71
380.87	5408.98
381.07	5020.45
381.26	4681.07
381.46	4201.26
381.65	4149.77
381.85	4063.17
382.04	3791.67
382.24	3765.92
382.43	3566.98
382.63	3431.23
382.83	3438.25
383.02	3342.28
383.22	3353.99
383.41	3524.85
383.61	3627.83
383.80	4369.78
384.00	4699.80
384.19	5366.85
384.39	5624.31
384.58	5614.95
384.78	5486.22
384.97	5479.19
385.17	5193.65
385.36	4943.21
385.56	4542.98
385.75	4896.40
385.95	5245.14
386.14	5799.85
386.34	5771.76
386.53	5610.26
386.72	5123.43
386.92	5107.05
387.11	5249.82
387.31	5652.39
387.50	5678.14
387.70	5523.66
387.89	5336.42
388.09	5582.18
388.28	5636.01
388.48	5511.96
388.67	6069.01
388.86	6612.01
389.06	7101.19
389.25	7344.60
389.45	7370.35
389.64	7372.69
389.84	7393.75
390.03	7178.42
390.22	7323.54
390.42	7487.37
390.61	8093.57
390.81	8454.02
391.00	8739.56
391.19	8631.90
391.39	8264.43
391.58	7840.79
391.78	7616.10
391.97	7183.10
392.16	6745.42
392.36	6200.08
392.55	4856.61
392.75	3920.40
392.94	3180.79
393.13	3166.74
393.33	3632.51
393.52	4685.75
393.71	5874.74
393.91	6487.96
394.10	7042.67
394.29	7880.58
394.49	8210.60
394.68	9188.94
394.88	9067.24
395.07	9359.80
395.26	9305.97
395.46	9195.96
395.65	8517.21
395.84	7590.36
396.04	6160.29
396.23	5156.20
396.42	4252.75
396.62	4049.13
396.81	4791.08
397.00	6162.63
397.19	7534.18
397.39	9135.11
397.58	10281.97
397.77	11009.88
397.97	11543.52
398.16	11536.50
398.35	11990.56
398.55	12170.79
398.74	12596.76
398.93	13123.38
399.12	12613.15
399.32	12229.30
399.51	12739.54
399.70	13284.88
399.90	13296.58
400.09	13317.65
400.28	13109.34
400.47	13369.14
400.67	14045.55
400.86	14478.55
401.05	14228.12
401.24	14471.53
401.44	14691.54
401.63	14649.41
401.82	14817.93
402.01	14789.85
402.21	14855.38
402.40	14857.72
402.59	14370.89
402.78	14003.43
402.97	13453.40
403.17	13881.72
403.36	14766.44
403.55	15440.51
403.74	15452.22
403.93	14881.13
404.13	13631.28
404.32	13408.93
404.51	13820.86
404.70	15147.95
404.89	15396.04
405.09	15133.90
405.28	14501.96
405.47	14478.55
405.66	14637.71
405.85	14164.92
406.05	13647.66
406.24	13965.98
406.43	14644.73
406.62	15054.33
406.81	15161.99
407.00	14604.94
407.20	14148.54
407.39	14380.25
407.58	15241.57
407.77	15445.20
407.96	15927.35
408.15	16257.36
408.34	16542.91
408.54	17235.70
408.73	17062.51
408.92	17170.17
409.11	16650.57
409.30	15524.77
409.49	14806.23
409.68	13951.93
409.87	13600.85
410.07	14001.08
410.26	15501.37
410.45	16245.66
410.64	16786.32
410.83	17092.93
411.02	17500.19
411.21	18471.51
411.40	18237.45
411.59	18621.30
411.78	17977.65
411.98	17776.37
412.17	17984.68
412.36	17888.71
412.55	18043.19
412.74	17502.53
412.93	17432.31
413.12	17268.47
413.31	18759.39
413.50	19054.30
413.69	19597.31
413.88	18553.43
414.07	18167.24
414.26	18052.55
414.45	18822.59
414.64	19131.54
414.83	19131.54
415.02	18714.92
415.22	18539.38
415.41	18848.33
415.60	19782.21
415.79	20341.60
415.98	20865.88
416.17	21186.53
416.36	20276.06
416.55	20224.57
416.74	19398.36
416.93	18611.94
417.12	18972.38
417.31	19398.36
417.50	19545.81
417.69	20098.18
417.88	20123.93
418.07	19814.98
418.26	19021.53
418.45	19747.10
418.64	20306.49
418.83	21055.46
419.02	20856.51
419.21	20720.76
419.39	20034.99
419.58	18789.82
419.77	18780.46
419.96	19697.95
420.15	20882.26
420.34	21432.29
420.53	22120.40
420.72	22387.22
420.91	22352.12
421.10	22237.43
421.29	21621.87
421.48	21179.51
421.67	22192.96
421.86	21530.59
422.05	20435.22
422.24	18136.81
422.43	17582.10
422.61	19786.89
422.80	21090.57
422.99	21586.76
423.18	20849.49
423.37	20290.10
423.56	20498.41
423.75	20620.12
423.94	21132.70
424.13	19894.55
424.32	20046.69
424.50	20156.69
424.69	20051.37
424.88	20152.01
425.07	19990.52
425.26	19843.06
425.45	19709.65
425.64	19531.77
425.83	19253.25
426.01	20505.43
426.20	20718.42
426.39	20463.30
426.58	19391.34
426.77	17914.46
426.96	17231.02
427.15	17867.65
427.33	19215.80
427.52	20107.54
427.71	20308.83
427.90	19906.26
428.09	19873.49
428.28	19583.26
428.46	19068.34
428.65	18394.27
428.84	18820.25
429.03	19250.91
429.22	18408.31
429.40	17504.87
429.59	15524.77
429.78	13673.41
429.97	13919.17
430.16	13935.55
430.34	14188.33
430.53	14024.49
430.72	14438.76
430.91	16023.31
431.10	18637.69
431.28	22417.65
431.47	23548.13
431.66	24273.70
431.85	22059.55
432.03	20088.82
432.22	19225.16
432.41	20467.98
432.60	22408.29
432.79	22733.62
432.97	24086.45
433.16	23515.36
433.35	21465.05
433.54	19260.27
433.72	18026.81
433.91	18597.90
434.10	20837.79
434.28	22026.78
434.47	23159.60
434.66	23021.51
434.85	22391.91
435.03	22375.52
435.22	22787.46
435.41	24421.15
435.59	24046.66
435.78	24364.98
435.97	24678.61
436.16	25422.90
436.34	24968.84
436.53	24606.05
436.72	24542.86
436.90	23065.98
437.09	22927.89
437.28	22953.63
437.46	23520.04
437.65	23494.30
437.84	21872.31
438.02	20009.24
438.21	19791.57
438.40	20886.94
438.58	22773.41
438.77	23398.34
438.96	23810.27
439.14	24423.49
439.33	25242.68
439.52	25376.09
439.70	25193.53
439.89	24343.91
440.08	23836.02
440.26	23590.26
440.45	24786.27
440.63	26008.03
440.82	27501.29
441.01	27019.14
441.19	27225.11
441.38	27417.04
441.57	28268.99
441.75	28814.34
441.94	29034.35
442.12	28367.29
442.31	29369.04
442.50	29029.66
442.68	28634.11
442.87	28533.47
443.05	28250.27
443.24	28247.93
443.43	28952.43
443.61	29694.38
443.80	30326.32
443.98	28039.62
444.17	28252.61
444.35	30169.51
444.54	30192.91
444.73	30089.93
444.91	28606.03
445.10	27850.03
445.28	26445.71
445.47	26068.89
445.65	26188.25
445.84	26902.12
446.02	28423.47
446.21	28402.40
446.39	28606.03
446.58	28847.10
446.77	28847.10
446.95	29467.34
447.14	30288.87
447.32	30684.42
447.51	30160.14
447.69	29074.13
447.88	28802.63
448.06	29244.99
448.25	29703.74
448.43	30267.81
448.62	29013.28
448.80	29043.71
448.99	29429.90
449.17	29762.25
449.36	29741.19
449.54	30513.56
449.73	31180.62
449.91	31468.50
450.10	32652.81
450.28	32655.15
450.46	32790.91
450.65	32790.91
450.83	32425.78
451.02	31775.11
451.20	31730.64
451.39	31468.50
451.57	31498.93
451.76	31672.13
451.94	31304.67
452.13	30621.23
452.31	29153.71
452.49	27871.10
452.68	28332.18
452.86	28460.91
453.05	28926.68
453.23	29851.19
453.42	30071.20
453.60	31061.25
453.78	31302.32
453.97	31082.31
454.15	30668.04
454.34	30382.49
454.52	30441.01
454.70	29549.26
454.89	30333.34
455.07	30338.02
455.26	30939.54
455.44	31936.61
455.62	32889.21
455.81	32577.92
455.99	32542.81
456.17	31826.60
456.36	31908.52
456.54	32882.19
456.73	33090.49
456.91	33612.43
457.09	33811.38
457.28	34031.39
457.46	32994.53
457.64	32629.41
457.83	31936.61
458.01	30913.80
458.19	32210.45
458.38	32144.92
458.56	33268.37
458.74	33116.24
458.93	32383.65
459.11	32287.69
459.29	32170.66
459.48	32198.75
459.66	32095.77
459.84	32636.43
460.03	33287.10
460.21	33010.92
460.39	33586.69
460.57	33727.12
460.76	34003.30
460.94	34188.21
461.12	33722.44
461.31	34054.79
461.49	33832.44
461.67	33745.84
461.85	34703.12
462.04	34583.76
462.22	35133.78
462.40	34749.93
462.59	34174.16
462.77	34190.55
462.95	34663.33
463.13	34092.24
463.32	33476.68
463.50	33607.75
463.68	33755.21
463.86	33605.41
464.05	33284.76
464.23	32669.20
464.41	32077.04
464.59	31723.62
464.78	33701.37
464.96	33350.29
465.14	32865.80
465.32	33965.85
465.50	34829.51
465.69	35082.29
465.87	34031.39
466.05	33544.56
466.23	31948.31
466.41	31271.90
466.60	32107.47
466.78	32250.24
466.96	32847.08
467.14	33212.20
467.32	33724.78
467.51	34199.91
467.69	32404.72
467.87	32858.78
468.05	33137.30
468.23	33504.77
468.41	33319.87
468.60	33584.35
468.78	33778.61
468.96	33509.45
469.14	33703.71
469.32	33897.98
469.50	32704.31
469.69	33158.37
469.87	32804.95
470.05	32287.69
470.23	32774.52
470.41	32325.14
470.59	32680.90
470.77	33139.65
470.95	33759.89
471.14	34134.37
471.32	34366.09
471.50	36168.30
471.68	36259.58
471.86	36362.56
472.04	36889.18
472.22	36664.49
472.40	34923.13
472.58	34820.15
472.77	34361.40
472.95	35150.17
473.13	35732.96
473.31	34899.73
473.49	35306.98
473.67	35882.75
473.85	36175.32
474.03	37193.45
474.21	37130.26
474.39	37734.12
474.57	37935.40
474.75	37731.78
474.93	37258.99
475.12	36732.37
475.30	36205.75
475.48	36308.73
475.66	37322.18
475.84	36840.03
476.02	36428.10
476.20	35936.59
476.38	36776.84
476.56	37535.17
476.74	37827.74
476.92	38370.74
477.10	39227.38
477.28	40285.30
477.46	39559.73
477.64	40254.87
477.82	40512.33
478.00	41144.28
478.18	39856.98
478.36	39849.96
478.54	40212.74
478.72	40390.62
478.90	41359.61
479.08	42153.05
479.26	42719.46
479.44	42693.71
479.62	42579.03
479.80	42263.05
479.98	42639.88
480.16	42721.80
480.34	42373.06
480.52	42817.76
480.70	42939.47
480.88	42838.83
481.06	43791.42
481.24	44219.74
481.41	44842.32
481.59	45710.66
481.77	45265.96
481.95	44619.97
482.13	44399.96
482.31	44739.34
482.49	45228.51
482.67	45415.76
482.85	45661.51
483.03	46059.40
483.21	46562.62
483.39	46333.24
483.57	45478.95
483.74	45820.67
483.92	45535.12
484.10	45818.33
484.28	46873.91
484.46	47229.67
484.64	47604.16
484.82	46873.91
485.00	46167.07
485.18	45525.76
485.35	44119.10
485.53	40856.39
485.71	37523.47
485.89	37092.81
486.07	39206.31
486.25	42490.09
486.43	44322.72
486.61	45390.01
486.78	44971.05
486.96	45722.37
487.14	47449.68
487.32	47512.88
487.50	48774.42
487.68	49691.91
487.85	50590.68
488.03	50356.63
488.21	49918.95
488.39	49296.36
488.57	48252.48
488.75	48119.07
488.92	49132.53
489.10	51683.71
489.28	52502.90
489.46	53528.05
489.64	53099.73
489.81	53607.63
489.99	53214.42
490.17	52966.32
490.35	53811.26
490.53	52952.28
490.70	52734.61
490.88	52561.41
491.06	53514.01
491.24	53481.24
491.41	52547.37
491.59	50742.81
491.77	50103.85
491.95	51234.33
492.13	52528.64
492.30	53525.71
492.48	54426.82
492.66	54646.83
492.84	54953.44
493.01	54789.60
493.19	54192.76
493.37	53860.41
493.54	53628.69
493.72	53961.05
493.90	55391.12
494.08	56051.15
494.25	56137.75
494.43	56453.72
494.61	56999.07
494.79	56849.27
494.96	56472.45
495.14	55803.05
495.32	55033.02
495.49	54513.42
495.67	55496.44
495.85	56837.57
496.02	57324.40
496.20	57244.82
496.38	56608.20
496.55	56566.07
496.73	56980.34
496.91	57099.71
497.09	57750.38
497.26	57757.40
497.44	57272.91
497.62	56655.01
497.79	55955.19
497.97	54958.12
498.14	54859.82
498.32	56210.31
498.50	57324.40
498.67	57570.16
498.85	57284.61
499.03	57616.97
499.20	57792.51
499.38	57813.57
499.56	57675.48
499.73	56970.98
499.91	56891.40
500.08	56474.79
500.26	55561.98
500.44	56144.77
500.61	56849.27
500.79	56568.41
500.97	56093.28
501.14	55920.08
501.32	55800.71
501.49	55889.65
501.67	56303.93
501.84	56633.94
502.02	56919.49
502.20	57333.76
502.37	57464.83
502.55	57628.67
502.72	58033.58
502.90	58466.58
503.07	58045.29
503.25	57673.14
503.43	56776.72
503.60	56285.20
503.78	55487.08
503.95	56210.31
504.13	57502.28
504.30	58218.49
504.48	58190.40
504.65	57867.40
504.83	57848.68
505.01	58185.72
505.18	58817.66
505.36	59367.69
505.53	59297.47
505.71	59299.81
505.88	59480.03
506.06	58974.48
506.23	58646.80
506.41	58307.43
506.58	58585.95
506.76	58370.62
506.93	58197.42
507.11	58274.66
507.28	58239.55
507.46	57944.64
507.63	57359.51
507.81	57301.00
507.98	57415.68
508.16	58007.84
508.33	58457.22
508.50	58899.58
508.68	59178.10
508.85	59585.36
509.03	59571.32
509.20	59578.34
509.38	58749.79
509.55	57858.04
509.73	58206.78
509.90	58824.68
510.08	58962.78
510.25	58981.50
510.42	58475.94
510.60	58539.14
510.77	58784.90
510.95	59267.05
511.12	59503.44
511.30	59870.90
511.47	59920.05
511.64	59980.91
511.82	59784.30
511.99	58883.20
512.17	58394.03
512.34	58190.40
512.51	58204.44
512.69	58450.20
512.86	58616.38
513.04	59093.85
513.21	59075.12
513.38	58541.48
513.56	57928.26
513.73	57652.08
513.90	57731.65
514.08	58033.58
514.25	58078.05
514.43	58585.95
514.60	58389.34
514.77	58717.02
514.95	58583.61
515.12	58534.46
515.29	58677.23
515.47	59143.00
515.64	59664.94
515.81	59131.29
515.99	58583.61
516.16	57308.02
516.33	54965.14
516.51	53626.35
516.68	52598.86
516.85	52388.21
517.03	52556.73
517.20	55363.03
517.37	57888.47
517.54	58754.47
517.72	58248.91
517.89	55760.92
518.06	53401.66
518.24	53925.94
518.41	55945.83
518.58	57286.95
518.75	57556.11
518.93	57619.31
519.10	57354.83
519.27	58391.68
519.45	58361.26
519.62	58930.01
519.79	59231.94
519.96	59000.22
520.14	58646.80
520.31	57893.15
520.48	57736.34
520.65	58136.57
520.83	59030.65
521.00	59391.09
521.17	58986.18
521.34	58712.34
521.52	58894.90
521.69	59524.50
521.86	59861.54
522.03	59753.88
522.20	58475.94
522.38	57485.90
522.55	57469.51
522.72	58267.64
522.89	58052.31
523.07	58482.97
523.24	58616.38
523.41	59540.89
523.58	59702.38
523.75	60133.04
523.92	60221.98
524.10	59903.67
524.27	60067.51
524.44	59854.52
524.61	59580.68
524.78	59360.67
524.96	59358.33
525.13	59463.65
525.30	59746.86
525.47	60104.96
525.64	60088.57
525.81	59213.21
525.98	58026.56
526.16	56669.05
526.33	55847.52
526.50	55702.41
526.67	55260.05
526.84	55772.63
527.01	56935.87
527.18	57563.14
527.36	58499.35
527.53	59332.58
527.70	59700.04
527.87	59077.46
528.04	58506.37
528.21	58915.96
528.38	59662.60
528.55	60278.16
528.72	60441.99
528.89	60645.62
529.07	60210.28
529.24	59608.76
529.41	59201.51
529.58	58684.25
529.75	58944.05
529.92	59114.91
530.09	59426.20
530.26	60179.85
530.43	60369.44
530.60	60303.90
530.77	60399.86
530.94	60519.23
531.11	60278.16
531.28	59817.07
531.46	59669.62
531.63	59693.02
531.80	59632.17
531.97	59135.98
532.14	58571.91
532.31	57481.22
532.48	57055.24
532.65	57055.24
532.82	57853.36
532.99	58810.64
533.16	59185.13
533.33	59814.73
533.50	59451.95
533.67	58845.75
533.84	58485.31
534.01	58841.07
534.18	58822.34
534.35	59215.55
534.52	59091.51
534.69	59185.13
534.86	59547.91
535.03	59854.52
535.20	60175.17
535.37	60299.22
535.54	60556.68
535.71	60168.15
535.88	59889.63
536.05	59374.71
536.22	58960.44
536.38	58585.95
536.55	58040.60
536.72	57834.64
536.89	57563.14
537.06	58405.73
537.23	59456.63
537.40	59414.50
537.57	59526.84
537.74	59250.66
537.91	59224.92
538.08	59330.24
538.25	59159.38
538.42	58997.88
538.59	59203.85
538.75	58387.00
538.92	58471.26
539.09	58251.25
539.26	58150.61
539.43	57715.27
539.60	58010.18
539.77	58234.87
539.94	58099.12
540.11	57315.04
540.28	56640.96
540.44	56989.70
540.61	57181.63
540.78	57359.51
540.95	57862.72
541.12	57951.66
541.29	58394.03
541.46	58829.37
541.62	58738.08
541.79	58581.27
541.96	58064.01
542.13	57883.79
542.30	58239.55
542.47	58511.05
542.63	58368.28
542.80	57986.77
542.97	57944.64
543.14	58230.19
543.31	58087.42
543.48	58569.57
543.64	59363.01
543.81	59580.68
543.98	59306.83
544.15	58784.90
544.32	58122.52
544.48	58176.36
544.65	58834.05
544.82	58948.73
544.99	58644.46
545.16	58471.26
545.32	58124.86
545.49	58810.64
545.66	59388.75
545.83	58908.94
546.00	58485.31
546.16	58445.52
546.33	58131.89
546.50	58382.32
546.67	58562.54
546.83	58000.82
547.00	58225.51
547.17	57729.31
547.34	57036.51
547.50	57137.16
547.67	57640.37
547.84	57703.57
548.00	57818.25
548.17	58298.06
548.34	58141.25
548.51	58178.70
548.67	58197.42
548.84	58127.20
549.01	58110.82
549.18	58291.04
549.34	58047.63
549.51	58110.82
549.68	58010.18
549.84	57689.52
550.01	57769.10
550.18	57647.39
550.34	57703.57
550.51	57881.45
550.68	57806.55
550.84	57195.67
551.01	57434.41
551.18	57499.94
551.34	57558.45
551.51	57879.11
551.68	58351.90
551.84	58337.85
552.01	58054.65
552.18	58028.90
552.34	57319.72
552.51	56947.57
552.68	56919.49
552.84	57169.93
553.01	57792.51
553.18	57333.76
553.34	57453.13
553.51	57626.33
553.67	58075.71
553.84	58005.50
554.01	57904.85
554.17	57792.51
554.34	57677.82
554.51	57778.46
554.67	58197.42
554.84	57932.94
555.00	57712.93
555.17	57336.10
555.33	57322.06
555.50	57401.64
555.67	57284.61
555.83	57223.76
556.00	56783.74
556.16	56938.21
556.33	56446.70
556.50	56388.19
556.66	56601.18
556.83	56385.85
556.99	56472.45
557.16	56612.88
557.32	56846.93
557.49	56722.88
557.65	56788.42
557.82	56797.78
557.98	56671.39
558.15	56512.23
558.32	55725.81
558.48	54630.44
558.65	55096.21
558.81	55348.99
558.98	55341.97
559.14	55718.79
559.31	56055.83
559.47	55798.37
559.64	55524.53
559.80	55400.48
559.97	55166.43
560.13	55824.12
560.30	56474.79
560.46	57020.13
560.63	57158.22
560.79	57413.34
560.96	56683.09
561.12	55798.37
561.29	54958.12
561.45	55098.55
561.61	55533.89
561.78	55941.14
561.94	55796.03
562.11	55835.82
562.27	55707.09
562.44	56212.65
562.60	56390.53
562.77	56481.81
562.93	56395.21
563.10	56296.91
563.26	55676.66
563.42	55716.45
563.59	55458.99
563.75	55484.74
563.92	55374.73
564.08	55515.17
564.24	55845.18
564.41	55903.70
564.57	55849.86
564.74	55559.64
564.90	55660.28
565.07	55320.90
565.23	55061.10
565.39	54412.77
565.56	54246.60
565.72	53834.66
565.88	54396.39
566.05	54333.20
566.21	54653.85
566.38	54925.35
566.54	55023.65
566.70	55433.25
566.87	55339.63
567.03	55700.07
567.19	55709.43
567.36	55491.76
567.52	55210.90
567.68	54887.90
567.85	54536.82
568.01	54164.68
568.17	53837.00
568.34	53488.26
568.50	53631.04
568.66	53659.12
568.83	54188.08
568.99	54155.32
569.15	54733.43
569.32	54389.37
569.48	53921.26
569.64	53965.73
569.81	53467.20
569.97	53427.41
570.13	53551.46
570.30	53127.82
570.46	52659.71
570.62	52367.15
570.78	51962.23
570.95	52261.82
571.11	53214.42
571.27	53371.24
571.43	53535.07
571.60	53989.14
571.76	54014.88
571.92	54281.70
572.09	54459.58
572.25	54445.54
572.41	53963.39
572.57	54293.41
572.74	54169.36
572.90	53539.75
573.06	53450.81
573.22	53841.68
573.38	53528.05
573.55	53506.99
573.71	53820.62
573.87	53743.38
574.03	53712.95
574.20	53427.41
574.36	52959.30
574.52	53144.20
574.68	52961.64
574.84	52463.11
575.01	52069.90
575.17	51922.44
575.33	52151.82
575.49	52509.92
575.65	52802.49
575.82	52325.02
575.98	52076.92
576.14	52631.63
576.30	52971.00
576.46	52900.79
576.62	52818.87
576.79	52456.09
576.95	52406.94
577.11	52350.76
577.27	52610.56
577.43	52591.84
577.59	52109.69
577.75	51938.83
577.92	51098.58
578.08	51281.14
578.24	51063.47
578.40	51299.86
578.56	51386.46
578.72	51421.57
578.88	51849.89
579.04	51943.51
579.21	52032.45
579.37	51929.47
579.53	52516.94
579.69	52011.38
579.85	52322.68
580.01	52107.35
580.17	51653.28
580.33	51618.17
580.49	51597.11
580.65	51767.97
580.82	52140.11
580.98	52151.82
581.14	51950.53
581.30	52044.15
581.46	52034.79
581.62	52107.35
581.78	51936.49
581.94	52402.25
582.10	52294.59
582.26	52371.83
582.42	52231.40
582.58	52268.84
582.74	51978.62
582.90	52350.76
583.06	52376.51
583.22	52034.79
583.38	51798.40
583.54	51547.96
583.70	51505.83
583.86	51887.34
584.02	51873.29
584.18	52006.70
584.34	51461.36
584.50	51519.87
584.66	51449.66
584.82	51377.10
584.98	50843.46
585.14	50604.72
585.30	49923.63
