SpectraSuite Data File
++++++++++++++++++++++++++++++++++++
Date: Mon Oct 07 14:53:57 GMT-05:00 2013
User: price-jones
Dark Spectrum Present: No
Reference Spectrum Present: No
Number of Sampled Component Spectra: 1
Spectrometers: USB2+H05261
Integration Time (usec): 100000 (USB2+H05261)
Spectra Averaged: 1 (USB2+H05261)
Boxcar Smoothing: 0 (USB2+H05261)
Correct for Electrical Dark: No (USB2+H05261)
Strobe/Lamp Enabled: No (USB2+H05261)
Correct for Detector Non-linearity: No (USB2+H05261)
Correct for Stray Light: No (USB2+H05261)
Number of Pixels in Processed Spectrum: 2048
>>>>>Begin Processed Spectral Data<<<<<
365.73	0.00
365.92	0.00
366.12	0.00
366.32	0.00
366.52	0.00
366.72	0.00
366.91	0.00
367.11	0.00
367.31	0.00
367.51	0.00
367.70	0.00
367.90	0.00
368.10	0.00
368.30	0.00
368.49	0.00
368.69	0.00
368.89	0.00
369.09	0.00
369.28	0.00
369.48	0.00
369.68	0.00
369.87	0.00
370.07	0.00
370.27	0.00
370.47	1287.29
370.66	5558.77
370.86	6691.59
371.06	6918.62
371.25	7030.97
371.45	6279.66
371.65	5682.82
371.84	5399.62
372.04	5816.23
372.24	6298.38
372.44	6499.67
372.63	6392.00
372.83	6057.31
373.03	5188.97
373.22	5004.07
373.42	5273.23
373.62	5884.11
373.81	6328.81
374.01	6267.95
374.21	5668.78
374.40	5338.76
374.60	5441.75
374.79	6394.34
374.99	7213.53
375.19	7571.63
375.38	7466.31
375.58	7101.19
375.78	7007.56
375.97	7052.03
376.17	7400.77
376.37	7501.42
376.56	7609.08
376.76	8046.76
376.95	8723.18
377.15	9039.15
377.35	9600.88
377.54	9696.84
377.74	9951.96
377.93	10209.42
378.13	9872.38
378.33	9373.85
378.52	8627.21
378.72	8210.60
378.91	8304.22
379.11	7843.14
379.31	7714.41
379.50	7674.62
379.70	8355.71
379.89	9107.02
380.09	9518.96
380.28	9757.69
380.48	9790.46
380.68	9568.11
380.87	9549.39
381.07	8690.41
381.26	7948.46
381.46	7517.80
381.65	7269.70
381.85	7150.34
382.04	6595.63
382.24	6298.38
382.43	5809.21
382.63	5811.55
382.83	5865.38
383.02	5818.57
383.22	5877.09
383.41	5755.38
383.61	6265.61
383.80	7335.24
384.00	8149.75
384.19	9200.65
384.39	9554.07
384.58	9432.36
384.78	9217.03
384.97	8943.19
385.17	8484.44
385.36	8271.45
385.56	7712.07
385.75	8278.47
385.95	9034.47
386.14	9579.81
386.34	9650.03
386.53	9132.77
386.72	8624.87
386.92	8809.78
387.11	9001.70
387.31	9504.92
387.50	9397.25
387.70	8985.32
387.89	9095.32
388.09	9085.96
388.28	9149.15
388.48	9301.29
388.67	9877.06
388.86	10750.08
389.06	11688.64
389.25	12264.41
389.45	12561.66
389.64	12112.27
389.84	11999.93
390.03	11798.64
390.22	11990.56
390.42	12444.63
390.61	13029.76
390.81	14118.11
391.00	13987.04
391.19	13921.51
391.39	13357.44
391.58	12711.45
391.78	12030.35
391.97	11445.22
392.16	10874.13
392.36	9708.54
392.55	7698.02
392.75	6286.68
392.94	5163.22
393.13	5158.54
393.33	6157.95
393.52	7871.22
393.71	9525.98
393.91	10712.63
394.10	11419.47
394.29	12718.47
394.49	13703.84
394.68	14628.35
394.88	14707.93
395.07	15140.93
395.26	14766.44
395.46	14288.97
395.65	13521.27
395.84	11946.09
396.04	9968.34
396.23	8224.64
396.42	6874.15
396.62	6626.06
396.81	7833.77
397.00	9975.36
397.19	12465.69
397.39	14801.55
397.58	16683.34
397.77	17474.44
397.97	17905.10
398.16	18398.95
398.35	18869.40
398.55	19480.28
398.74	20549.90
398.93	20908.01
399.12	20357.98
399.32	19431.13
399.51	20016.26
399.70	21298.88
399.90	21191.21
400.09	21029.71
400.28	20783.96
400.47	21209.93
400.67	21731.87
400.86	22324.03
401.05	22590.85
401.24	22714.90
401.44	23119.81
401.63	23033.21
401.82	23063.64
402.01	23007.47
402.21	23178.33
402.40	23367.91
402.59	22548.72
402.78	21373.77
402.97	20947.79
403.17	22136.79
403.36	23225.14
403.55	24203.48
403.74	24538.18
403.93	23065.98
404.13	21387.82
404.32	21125.68
404.51	22230.41
404.70	23456.85
404.89	23653.45
405.09	23475.57
405.28	22707.88
405.47	22356.80
405.66	22293.60
405.85	21961.25
406.05	21099.93
406.24	21659.32
406.43	22445.74
406.62	23281.31
406.81	23576.22
407.00	22419.99
407.20	21781.03
407.39	22129.77
407.58	23208.75
407.77	24210.50
407.96	25130.33
408.15	25036.71
408.34	25378.43
408.54	26436.35
408.73	26354.43
408.92	26146.12
409.11	25078.84
409.30	23735.37
409.49	22574.47
409.68	21207.59
409.87	20727.78
410.07	21687.40
410.26	23510.68
410.45	24847.13
410.64	25699.08
410.83	26209.32
411.02	26845.94
411.21	27960.04
411.40	27089.36
411.59	27445.12
411.78	27426.40
411.98	27229.79
412.17	27627.68
412.36	27166.60
412.55	27182.98
412.74	26408.26
412.93	25921.43
413.12	26209.32
413.31	28690.29
413.50	28980.51
413.69	29219.25
413.88	28308.78
414.07	27442.78
414.26	27660.45
414.45	28835.40
414.64	28769.86
414.83	28875.19
415.02	28250.27
415.22	28201.11
415.41	28678.58
415.60	30050.14
415.79	31269.56
415.98	31541.06
416.17	31510.63
416.36	30747.62
416.55	30026.73
416.74	29132.65
416.93	28346.23
417.12	28526.45
417.31	28627.09
417.50	29202.86
417.69	30162.48
417.88	30202.27
418.07	29722.46
418.26	29319.89
418.45	29846.51
418.64	30670.38
418.83	31545.74
419.02	31407.65
419.21	30920.82
419.39	29567.99
419.58	28407.08
419.77	28388.36
419.96	29383.09
420.15	30934.86
420.34	32414.08
420.53	32526.42
420.72	34183.52
420.91	33701.37
421.10	33041.34
421.29	32851.76
421.48	31419.35
421.67	33383.06
421.86	32189.39
422.05	30314.62
422.24	26951.27
422.43	26572.10
422.61	29619.48
422.80	31711.92
422.99	31810.22
423.18	31040.18
423.37	30050.14
423.56	30321.64
423.75	30604.84
423.94	31555.10
424.13	29572.67
424.32	30050.14
424.50	30132.06
424.69	29605.44
424.88	30017.37
425.07	29771.61
425.26	29479.05
425.45	29399.47
425.64	28594.32
425.83	28816.68
426.01	30534.63
426.20	31297.64
426.39	30829.54
426.58	29113.92
426.77	26803.82
426.96	25443.96
427.15	26820.20
427.33	29235.63
427.52	29914.39
427.71	30118.01
427.90	29453.30
428.09	29188.82
428.28	28954.77
428.46	27892.16
428.65	27105.74
428.84	27857.06
429.03	28327.50
429.22	26948.93
429.40	25249.70
429.59	22965.34
429.78	20217.55
429.97	20552.24
430.16	20641.18
430.34	20971.20
430.53	20556.93
430.72	21539.95
430.91	23861.76
431.10	27754.07
431.28	32479.61
431.47	35257.83
431.66	35264.85
431.85	32116.83
432.03	29476.71
432.22	28479.64
432.41	29930.77
432.60	32952.40
432.79	34075.86
432.97	35009.73
433.16	33940.11
433.35	31136.15
433.54	28187.07
433.72	26419.97
433.91	27620.66
434.10	30518.25
434.28	32304.07
434.47	34061.82
434.66	32933.68
434.85	32767.50
435.03	32439.82
435.22	33539.88
435.41	35159.53
435.59	35250.81
435.78	35438.05
435.97	36910.25
436.16	36968.76
436.34	35896.80
436.53	35566.78
436.72	35583.16
436.90	33572.64
437.09	33823.08
437.28	33053.05
437.46	34047.77
437.65	34015.01
437.84	31789.16
438.02	29479.05
438.21	29172.44
438.40	30764.00
438.58	33099.86
438.77	33795.00
438.96	34550.99
439.14	36140.21
439.33	36414.05
439.52	37322.18
439.70	36442.14
439.89	35541.03
440.08	35058.88
440.26	34139.05
440.45	35321.02
440.63	37703.69
440.82	39786.77
441.01	39168.87
441.19	38625.86
441.38	39625.27
441.57	40587.23
441.75	41607.70
441.94	41780.90
442.12	41233.22
442.31	41930.70
442.50	41851.12
442.68	41446.21
442.87	40737.02
443.05	40254.87
443.24	40935.97
443.43	42007.94
443.61	42534.56
443.80	42864.57
443.98	40608.29
444.17	40385.94
444.35	42857.55
444.54	43316.29
444.73	42899.68
444.91	40851.71
445.10	39550.37
445.28	38206.90
445.47	37464.96
445.65	37942.42
445.84	39089.29
446.02	39945.92
446.21	40322.75
446.39	40465.52
446.58	40928.95
446.77	41773.88
446.95	41675.58
447.14	42979.26
447.32	43580.78
447.51	42784.99
447.69	41010.87
447.88	40884.48
448.06	41392.37
448.25	42253.69
448.43	42574.34
448.62	41298.75
448.80	41457.91
448.99	41558.55
449.17	42272.42
449.36	41750.48
449.54	43540.99
449.73	43999.73
449.91	44568.48
450.10	45408.73
450.28	46244.30
450.46	45808.96
450.65	46026.63
450.83	45352.56
451.02	44905.52
451.20	44601.25
451.39	44170.59
451.57	44062.93
451.76	44161.23
451.94	43915.47
452.13	43353.74
452.31	41497.70
452.49	39522.29
452.68	40158.91
452.86	39983.37
453.05	40638.72
453.23	42059.43
453.42	42707.76
453.60	43735.25
453.78	43761.00
453.97	43543.33
454.15	43536.30
454.34	42450.30
454.52	43047.13
454.70	41900.27
454.89	42244.33
455.07	42665.63
455.26	43360.76
455.44	44907.86
455.62	45212.13
455.81	45591.30
455.99	45184.04
456.17	44636.36
456.36	44938.29
456.54	46246.65
456.73	46014.93
456.91	46827.10
457.09	47096.26
457.28	47515.22
457.46	45670.87
457.64	45567.89
457.83	44259.53
458.01	43545.67
458.19	44509.97
458.38	44732.32
458.56	46433.89
458.74	45558.53
458.93	45172.34
459.11	45148.93
459.29	44793.17
459.48	44692.53
459.66	44921.90
459.84	45069.36
460.03	45965.78
460.21	45612.36
460.39	46209.20
460.57	46960.51
460.76	46927.74
460.94	46962.85
461.12	46298.14
461.31	46366.01
461.49	46461.97
461.67	46443.25
461.85	48149.50
462.04	47562.03
462.22	48196.31
462.40	47313.93
462.59	47154.77
462.77	47421.59
462.95	47051.79
463.13	46756.88
463.32	46579.00
463.50	46597.73
463.68	46370.69
463.86	46164.73
464.05	45666.19
464.23	45038.93
464.41	44449.11
464.59	43856.96
464.78	45790.24
464.96	45595.98
465.14	45633.42
465.32	46501.76
465.50	47470.75
465.69	47760.97
465.87	46813.05
466.05	45970.46
466.23	44404.64
466.41	43461.41
466.60	44580.18
466.78	44250.17
466.96	45329.16
467.14	45570.23
467.32	46239.62
467.51	45755.13
467.69	44238.47
467.87	44910.20
468.05	45752.79
468.23	45785.56
468.41	45773.86
468.60	45914.29
468.78	46429.21
468.96	45790.24
469.14	46747.52
469.32	46408.14
469.50	45471.93
469.69	45254.26
469.87	44542.74
470.05	44247.83
470.23	44414.01
470.41	44421.03
470.59	45275.32
470.77	45581.93
470.95	46216.22
471.14	46508.79
471.32	46328.56
471.50	48631.65
471.68	48531.01
471.86	49230.83
472.04	49340.83
472.22	49301.04
472.40	47267.12
472.58	46941.78
472.77	46600.07
472.95	47351.38
473.13	48538.03
473.31	47349.04
473.49	47697.78
473.67	48612.93
473.85	48582.50
474.03	49254.23
474.21	49399.35
474.39	49670.85
474.57	49755.11
474.75	50014.91
474.93	49530.42
475.12	48659.74
475.30	48912.52
475.48	48992.09
475.66	49448.50
475.84	49272.96
476.02	48868.05
476.20	48222.06
476.38	48690.16
476.56	49720.00
476.74	50230.24
476.92	50555.57
477.10	51159.43
477.28	51955.21
477.46	52296.93
477.64	52292.25
477.82	52322.68
478.00	52390.55
478.18	51952.87
478.36	51763.29
478.54	51873.29
478.72	52329.70
478.90	52875.04
479.08	53923.60
479.26	54167.02
479.44	54089.78
479.62	54094.46
479.80	53860.41
479.98	53895.52
480.16	54209.15
480.34	53876.79
480.52	54174.04
480.70	54426.82
480.88	54284.04
481.06	55124.30
481.24	55131.32
481.41	55669.64
481.59	55994.98
481.77	55922.42
481.95	55510.49
482.13	55229.62
482.31	55718.79
482.49	55854.54
482.67	55735.18
482.85	55934.12
483.03	56545.00
483.21	56444.36
483.39	56666.71
483.57	56137.75
483.74	55831.14
483.92	56264.14
484.10	56119.02
484.28	56811.82
484.46	57036.51
484.64	57607.61
484.82	56765.01
485.00	56395.21
485.18	56053.49
485.35	55077.49
485.53	52680.78
485.71	49511.69
485.89	49104.44
486.07	51098.58
486.25	53776.15
486.43	55302.18
486.61	55854.54
486.78	55760.92
486.96	55693.05
487.14	56982.68
487.32	57289.29
487.50	58178.70
487.68	58815.32
487.85	59241.30
488.03	59208.53
488.21	58937.03
488.39	58461.90
488.57	57801.87
488.75	57670.80
488.92	58508.71
489.10	60221.98
489.28	60982.66
489.46	61476.51
489.64	61256.50
489.81	61476.51
489.99	61027.13
490.17	61118.41
490.35	61506.94
490.53	61151.18
490.70	60872.65
490.88	60690.09
491.06	61361.82
491.24	61439.06
491.41	60753.29
491.59	59590.04
491.77	59100.87
491.95	59613.44
492.13	60514.55
492.30	61448.42
492.48	62255.91
492.66	62323.78
492.84	62532.09
493.01	62396.34
493.19	61921.21
493.37	61836.95
493.54	61368.85
493.72	61993.77
493.90	62848.06
494.08	63554.91
494.25	63625.12
494.43	63936.41
494.61	63957.48
494.79	64004.29
494.96	63938.75
495.14	63299.79
495.32	62674.87
495.49	62248.89
495.67	63042.33
495.85	63976.20
496.02	64563.68
496.20	64355.37
496.38	64088.55
496.55	63667.25
496.73	64264.09
496.91	64287.49
497.09	64788.37
497.26	64896.03
497.44	64570.70
497.62	63994.93
497.79	63423.84
497.97	62398.68
498.14	62569.54
498.32	63416.82
498.50	64044.08
498.67	64654.96
498.85	64341.33
499.03	64678.36
499.20	64823.48
499.38	64832.84
499.56	64664.32
499.73	64088.55
499.91	64048.76
500.08	63543.20
500.26	63047.01
500.44	63416.82
500.61	63854.50
500.79	63765.56
500.97	63395.75
501.14	63327.87
501.32	63391.07
501.49	63334.90
501.67	63482.35
501.84	63870.88
502.02	64133.02
502.20	64346.01
502.37	64441.97
502.55	64481.76
502.72	64886.67
502.90	65403.93
503.07	65090.30
503.25	64650.28
503.43	63945.78
503.60	63245.96
503.78	62646.78
503.95	63093.82
504.13	64570.70
504.30	65190.94
504.48	65013.06
504.65	64631.55
504.83	64720.49
505.01	65291.58
505.18	65385.21
505.36	65535.00
505.53	65535.00
505.71	65535.00
505.88	65535.00
506.06	65535.00
506.23	65303.29
506.41	65223.71
506.58	65427.34
506.76	65324.35
506.93	65219.03
507.11	64919.44
507.28	64870.29
507.46	64456.01
507.63	64219.62
507.81	64128.34
507.98	64378.78
508.16	64884.33
508.33	65263.50
508.50	65535.00
508.68	65535.00
508.85	65535.00
509.03	65535.00
509.20	65535.00
509.38	65535.00
509.55	64889.01
509.73	64884.33
509.90	65476.49
510.08	65535.00
510.25	65481.17
510.42	65268.18
510.60	65357.12
510.77	65401.59
510.95	65535.00
511.12	65535.00
511.30	65535.00
511.47	65535.00
511.64	65535.00
511.82	65535.00
511.99	65535.00
512.17	65382.87
512.34	64931.14
512.51	65176.90
512.69	65155.83
512.86	65394.57
513.04	65535.00
513.21	65535.00
513.38	65347.76
513.56	64762.62
513.73	64479.42
513.90	64338.99
514.08	64521.55
514.25	64706.45
514.43	64851.56
514.60	64914.76
514.77	65230.73
514.95	65240.09
515.12	65216.69
515.29	65354.78
515.47	65535.00
515.64	65535.00
515.81	65535.00
515.99	65153.49
516.16	64039.40
516.33	62204.42
516.51	60874.99
516.68	60151.77
516.85	59976.23
517.03	60271.14
517.20	62478.26
517.37	64385.80
517.54	65352.44
517.72	64874.97
517.89	62869.13
518.06	60959.25
518.24	61380.55
518.41	62962.75
518.58	64083.87
518.75	64371.75
518.93	64357.71
519.10	64287.49
519.27	64626.87
519.45	64603.47
519.62	65413.29
519.79	65535.00
519.96	65535.00
520.14	65261.16
520.31	64434.95
520.48	64406.86
520.65	64706.45
520.83	65535.00
521.00	65535.00
521.17	65535.00
521.34	65200.30
521.52	65535.00
521.69	65535.00
521.86	65535.00
522.03	65535.00
522.20	65251.80
522.38	63990.25
522.55	64058.12
522.72	64711.13
522.89	64846.88
523.07	64917.10
523.24	65155.83
523.41	65535.00
523.58	65535.00
523.75	65535.00
523.92	65535.00
524.10	65535.00
524.27	65535.00
524.44	65535.00
524.61	65535.00
524.78	65535.00
524.96	65535.00
525.13	65535.00
525.30	65535.00
525.47	65535.00
525.64	65535.00
525.81	65535.00
525.98	64423.25
526.16	63168.72
526.33	62457.20
526.50	62379.96
526.67	62094.41
526.84	62564.86
527.01	63405.11
527.18	64250.05
527.36	65003.70
527.53	65535.00
527.70	65535.00
527.87	65499.89
528.04	64963.91
528.21	65429.68
528.38	65535.00
528.55	65535.00
528.72	65535.00
528.89	65535.00
529.07	65535.00
529.24	65535.00
529.41	65535.00
529.58	65059.87
529.75	65094.98
529.92	65535.00
530.09	65535.00
530.26	65535.00
530.43	65535.00
530.60	65535.00
530.77	65535.00
530.94	65535.00
531.11	65535.00
531.28	65535.00
531.46	65535.00
531.63	65535.00
531.80	65535.00
531.97	65535.00
532.14	65001.36
532.31	64004.29
532.48	63451.92
532.65	63416.82
532.82	64182.17
532.99	65127.75
533.16	65457.76
533.33	65535.00
533.50	65535.00
533.67	65160.51
533.84	64816.46
534.01	64889.01
534.18	65102.00
534.35	65242.43
534.52	65326.69
534.69	65504.57
534.86	65535.00
535.03	65535.00
535.20	65535.00
535.37	65535.00
535.54	65535.00
535.71	65535.00
535.88	65535.00
536.05	65380.52
536.22	65265.84
536.38	64891.35
536.55	64551.98
536.72	63952.80
536.89	63936.41
537.06	64844.54
537.23	65387.55
537.40	65434.36
537.57	65382.87
537.74	65338.40
537.91	65403.93
538.08	65535.00
538.25	65415.63
538.42	65417.97
538.59	65481.17
538.75	64786.03
538.92	64526.23
539.09	64549.63
539.26	64240.68
539.43	64200.89
539.60	64320.26
539.77	64364.73
539.94	64111.95
540.11	63519.80
540.28	63138.29
540.44	63063.39
540.61	63341.92
540.78	63599.38
540.95	63985.57
541.12	64254.73
541.29	64390.48
541.46	64556.66
541.62	64769.64
541.79	64601.13
541.96	64224.30
542.13	64182.17
542.30	64526.23
542.47	64577.72
542.63	64346.01
542.80	64226.64
542.97	64254.73
543.14	64034.72
543.31	64212.60
543.48	64863.27
543.64	65401.59
543.81	65535.00
543.98	65535.00
544.15	64769.64
544.32	64416.22
544.48	64378.78
544.65	64811.77
544.82	64994.34
544.99	64666.66
545.16	64381.12
545.32	64212.60
545.49	64741.56
545.66	65212.01
545.83	64839.86
546.00	64537.93
546.16	64243.02
546.33	64338.99
546.50	64264.09
546.67	64809.43
546.83	64271.11
547.00	64432.61
547.17	63791.30
547.34	63370.00
547.50	63330.22
547.67	63803.00
547.84	63831.09
548.00	64228.98
548.17	64502.82
548.34	64214.94
548.51	64383.46
548.67	64383.46
548.84	64484.10
549.01	64367.07
549.18	64353.03
549.34	64114.29
549.51	64301.54
549.68	64156.42
549.84	63948.12
550.01	63894.28
550.18	63751.51
550.34	63824.07
550.51	63950.46
550.68	64060.46
550.84	63582.99
551.01	63777.26
551.18	63730.45
551.34	63917.69
551.51	64303.88
551.68	64369.41
551.84	64107.27
552.01	64278.13
552.18	63887.26
552.34	63290.43
552.51	63023.61
552.68	63157.02
552.84	63685.98
553.01	63863.86
553.18	63655.55
553.34	63671.93
553.51	63891.94
553.67	63913.01
553.84	64240.68
554.01	63842.79
554.17	63714.06
554.34	63898.97
554.51	64135.36
554.67	64371.75
554.84	64140.04
555.00	63751.51
555.17	63636.83
555.33	63444.90
555.50	63501.07
555.67	63594.70
555.83	63561.93
556.00	63152.33
556.16	63217.87
556.33	62951.05
556.50	62693.59
556.66	62852.75
556.83	62480.60
556.99	62471.24
557.16	62693.59
557.32	62815.30
557.49	63098.50
557.65	62972.11
557.82	63103.18
557.98	63000.20
558.15	62679.55
558.32	62003.13
558.48	61368.85
558.65	61462.47
558.81	61499.92
558.98	61834.61
559.14	62110.80
559.31	62014.83
559.47	62021.86
559.64	61923.55
559.80	61544.39
559.97	61733.97
560.13	61879.08
560.30	63032.97
560.46	63295.11
560.63	63463.63
560.79	63351.28
560.96	62981.48
561.12	62157.61
561.29	61481.19
561.45	61649.71
561.61	61998.45
561.78	62246.55
561.94	62024.20
562.11	61694.18
562.27	61757.38
562.44	62279.31
562.60	62440.81
562.77	62389.32
562.93	62440.81
563.10	62412.73
563.26	62038.24
563.42	62061.64
563.59	61579.49
563.75	61689.50
563.92	61956.32
564.08	61769.08
564.24	62080.37
564.41	62035.90
564.57	62148.24
564.74	61998.45
564.90	61979.73
565.07	61771.42
565.23	61209.69
565.39	60905.42
565.56	60528.59
565.72	60364.76
565.88	60753.29
566.05	60708.82
566.21	61022.45
566.38	61230.75
566.54	61130.11
566.70	61614.60
566.87	61841.63
567.03	61698.86
567.19	61977.39
567.36	61595.88
567.52	61621.62
567.68	61378.21
567.85	60889.04
568.01	60575.40
568.17	60137.72
568.34	60219.64
568.50	60191.56
568.66	60388.16
568.83	60376.46
568.99	60547.32
569.15	60874.99
569.32	60587.11
569.48	60362.42
569.64	60289.86
569.81	60055.81
569.97	60095.60
570.13	59870.90
570.30	59767.92
570.46	59363.01
570.62	58979.16
570.78	58871.49
570.95	59150.02
571.11	59498.76
571.27	59765.58
571.43	59819.41
571.60	60168.15
571.76	60474.76
571.92	60580.09
572.09	60706.47
572.25	60788.39
572.41	60650.30
572.57	60294.54
572.74	60561.36
572.90	60151.77
573.06	60107.30
573.22	60285.18
573.38	60343.69
573.55	60067.51
573.71	60229.01
573.87	60212.62
574.03	60186.88
574.20	60001.97
574.36	59760.90
574.52	59737.49
574.68	59444.93
574.84	59423.86
575.01	59068.10
575.17	58782.55
575.33	58941.71
575.49	59367.69
575.65	59337.26
575.82	59150.02
575.98	58887.88
576.14	59215.55
576.30	59423.86
576.46	59498.76
576.62	59327.90
576.79	59339.60
576.95	59154.70
577.11	58988.52
577.27	59178.10
577.43	59421.52
577.59	58812.98
577.75	58312.11
577.92	58054.65
578.08	57820.59
578.24	57841.66
578.40	58330.83
578.56	58473.60
578.72	58471.26
578.88	58632.76
579.04	58702.98
579.21	58855.11
579.37	58756.81
579.53	58962.78
579.69	59025.97
579.85	58990.86
580.01	58595.31
580.17	58431.47
580.33	58286.36
580.49	58497.01
580.65	58855.11
580.82	58960.44
580.98	58635.10
581.14	58845.75
581.30	58803.62
581.46	58504.03
581.62	58969.80
581.78	58930.01
581.94	58838.73
582.10	58925.33
582.26	59011.93
582.42	58850.43
582.58	58934.69
582.74	58564.88
582.90	58749.79
583.06	58733.40
583.22	58585.95
583.38	58473.60
583.54	58504.03
583.70	58401.05
583.86	58461.90
584.02	58169.33
584.18	58426.79
584.34	58394.03
584.50	58335.51
584.66	58269.98
584.82	57717.61
