SpectraSuite Data File
++++++++++++++++++++++++++++++++++++
Date: Mon Oct 07 14:52:54 GMT-05:00 2013
User: price-jones
Dark Spectrum Present: No
Reference Spectrum Present: No
Number of Sampled Component Spectra: 1
Spectrometers: USB2+H05261
Integration Time (usec): 100000 (USB2+H05261)
Spectra Averaged: 1 (USB2+H05261)
Boxcar Smoothing: 0 (USB2+H05261)
Correct for Electrical Dark: No (USB2+H05261)
Strobe/Lamp Enabled: No (USB2+H05261)
Correct for Detector Non-linearity: No (USB2+H05261)
Correct for Stray Light: No (USB2+H05261)
Number of Pixels in Processed Spectrum: 2048
>>>>>Begin Processed Spectral Data<<<<<
365.73	0.00
365.92	0.00
366.12	0.00
366.32	0.00
366.52	0.00
366.72	0.00
366.91	0.00
367.11	0.00
367.31	0.00
367.51	0.00
367.70	0.00
367.90	0.00
368.10	0.00
368.30	0.00
368.49	0.00
368.69	0.00
368.89	0.00
369.09	0.00
369.28	0.00
369.48	0.00
369.68	0.00
369.87	0.00
370.07	0.00
370.27	0.00
370.47	603.86
370.66	2930.35
370.86	3595.06
371.06	3763.58
371.25	3784.65
371.45	3323.56
371.65	3171.43
371.84	3023.97
372.04	3075.46
372.24	3398.46
372.44	3557.61
372.63	3548.25
372.83	3243.98
373.03	3005.25
373.22	2785.24
373.42	2864.82
373.62	3096.53
373.81	3517.83
374.01	3592.72
374.21	3251.00
374.40	2958.44
374.60	3131.64
374.79	3529.53
374.99	4051.47
375.19	4360.42
375.38	4243.39
375.58	4077.21
375.78	4070.19
375.97	4119.34
376.17	4285.52
376.37	4248.07
376.56	4409.57
376.76	4507.87
376.95	4917.47
377.15	5186.63
377.35	5448.77
377.54	5666.44
377.74	5804.53
377.93	6047.94
378.13	5813.89
378.33	5305.99
378.52	4997.04
378.72	4774.69
378.91	4641.28
379.11	4437.66
379.31	4479.79
379.50	4339.35
379.70	4805.12
379.89	5233.44
380.09	5600.90
380.28	5783.46
380.48	5790.49
380.68	5568.13
380.87	5355.15
381.07	4884.70
381.26	4557.02
381.46	4292.54
381.65	4156.79
381.85	4154.45
382.04	3896.99
382.24	3627.83
382.43	3405.48
382.63	3375.05
382.83	3405.48
383.02	3400.80
383.22	3370.37
383.41	3529.53
383.61	3824.44
383.80	4365.10
384.00	4770.01
384.19	5488.56
384.39	5636.01
384.58	5640.69
384.78	5497.92
384.97	5399.62
385.17	5226.42
385.36	5055.56
385.56	4603.83
385.75	4816.82
385.95	5465.15
386.14	5853.68
386.34	5879.43
386.53	5680.48
386.72	5158.54
386.92	5205.35
387.11	5521.32
387.31	5825.59
387.50	5563.45
387.70	5467.49
387.89	5423.02
388.09	5495.58
388.28	5664.10
388.48	5685.16
388.67	6031.56
388.86	6668.19
389.06	7119.91
389.25	7459.29
389.45	7683.98
389.64	7592.70
389.84	7389.07
390.03	7403.11
390.22	7265.02
390.42	7604.40
390.61	8149.75
390.81	8638.92
391.00	8498.49
391.19	8755.94
391.39	8365.07
391.58	7756.54
391.78	7421.84
391.97	7307.15
392.16	6705.63
392.36	5951.98
392.55	4887.04
392.75	3899.33
392.94	3251.00
393.13	3255.69
393.33	3822.09
393.52	4868.31
393.71	6008.16
393.91	6878.83
394.10	7389.07
394.29	7831.43
394.49	8400.18
394.68	9092.98
394.88	9219.37
395.07	9549.39
395.26	9540.02
395.46	9174.90
395.65	8493.80
395.84	7370.35
396.04	6349.87
396.23	5188.97
396.42	4212.96
396.62	4346.37
396.81	5097.69
397.00	6230.51
397.19	8016.33
397.39	9364.48
397.58	10527.73
397.77	11129.25
397.97	11529.48
398.16	11733.11
398.35	12147.38
398.55	12318.24
398.74	12610.81
398.93	13153.81
399.12	13067.21
399.32	12430.59
399.51	12645.91
399.70	13853.63
399.90	13488.51
400.09	13654.69
400.28	13259.13
400.47	13348.08
400.67	14197.69
400.86	14155.56
401.05	14518.34
401.24	14698.56
401.44	14607.28
401.63	14731.33
401.82	14705.59
402.01	14773.46
402.21	15059.01
402.40	15044.96
402.59	14710.27
402.78	13881.72
402.97	13970.66
403.17	14312.38
403.36	15257.95
403.55	15545.84
403.74	15889.90
403.93	15023.90
404.13	14043.21
404.32	13872.36
404.51	14368.55
404.70	15293.06
404.89	15461.58
405.09	15152.63
405.28	14588.56
405.47	14710.27
405.66	14487.92
405.85	14108.75
406.05	13809.16
406.24	14148.54
406.43	14562.81
406.62	15037.94
406.81	15398.38
407.00	14846.02
407.20	14478.55
407.39	14597.92
407.58	15396.04
407.77	15840.75
407.96	16350.98
408.15	16812.07
408.34	16566.31
408.54	17231.02
408.73	17617.21
408.92	17142.08
409.11	16755.90
409.30	15917.98
409.49	14972.41
409.68	13846.61
409.87	13867.67
410.07	14214.07
410.26	15693.29
410.45	16479.71
410.64	17186.55
410.83	17703.81
411.02	17820.84
411.21	18888.12
411.40	18476.19
411.59	18675.13
411.78	18508.96
411.98	17989.36
412.17	18476.19
412.36	17809.14
412.55	18200.01
412.74	17455.72
412.93	17439.33
413.12	17551.68
413.31	19337.51
413.50	19641.78
413.69	19800.93
413.88	18979.40
414.07	18633.00
414.26	18789.82
414.45	19456.87
414.64	19517.73
414.83	19318.78
415.02	19016.85
415.22	19164.31
415.41	19667.52
415.60	20027.96
415.79	20781.62
415.98	21483.78
416.17	21483.78
416.36	20795.66
416.55	20826.09
416.74	19700.29
416.93	19218.14
417.12	19442.83
417.31	19365.59
417.50	19953.07
417.69	20470.33
417.88	20645.87
418.07	20196.48
418.26	20013.92
418.45	20257.34
418.64	21020.35
418.83	21631.23
419.02	21291.85
419.21	21221.64
419.39	20133.29
419.58	19260.27
419.77	19538.79
419.96	19929.66
420.15	21195.89
420.34	22185.94
420.53	22829.59
420.72	23026.19
420.91	22881.08
421.10	22473.82
421.29	22338.07
421.48	21745.92
421.67	22712.56
421.86	22136.79
422.05	20561.61
422.24	18492.57
422.43	18277.24
422.61	20257.34
422.80	22010.40
422.99	21741.24
423.18	21153.76
423.37	20730.12
423.56	20830.77
423.75	20980.56
423.94	21752.94
424.13	20790.98
424.32	20739.49
424.50	20856.51
424.69	20397.77
424.88	20650.55
425.07	20559.27
425.26	20627.14
425.45	20056.05
425.64	19882.85
425.83	19903.92
426.01	21214.62
426.20	21774.00
426.39	21350.37
426.58	19744.76
426.77	18270.22
426.96	18033.83
427.15	18438.74
427.33	20166.06
427.52	20662.25
427.71	20795.66
427.90	20355.64
428.09	20648.21
428.28	19840.72
428.46	19262.61
428.65	18834.29
428.84	19700.29
429.03	19978.81
429.22	18520.66
429.40	17495.50
429.59	16074.80
429.78	14204.71
429.97	14256.20
430.16	14637.71
430.34	14721.97
430.53	14270.25
430.72	14806.23
430.91	16556.95
431.10	19389.00
431.28	22841.29
431.47	24713.72
431.66	24592.01
431.85	22384.88
432.03	20753.53
432.22	20484.37
432.41	20982.90
432.60	23122.15
432.79	23817.29
432.97	24533.50
433.16	23866.44
433.35	21633.57
433.54	19522.41
433.72	18611.94
433.91	19126.86
434.10	21270.79
434.28	22590.85
434.47	23910.91
434.66	23496.64
434.85	22984.06
435.03	23065.98
435.22	23442.81
435.41	25404.17
435.59	24907.98
435.78	25340.98
435.97	26024.42
436.16	26309.96
436.34	25399.49
436.53	25071.82
436.72	24950.11
436.90	23990.49
437.09	23875.80
437.28	23660.48
437.46	24217.52
437.65	24147.31
437.84	22621.28
438.02	20608.42
438.21	20783.96
438.40	21933.16
438.58	23690.90
438.77	24121.56
438.96	24264.33
439.14	25560.99
439.33	26059.52
439.52	26431.67
439.70	26120.38
439.89	25331.62
440.08	24737.12
440.26	24662.22
440.45	25708.44
440.63	27381.93
440.82	28947.75
441.01	28074.73
441.19	27819.61
441.38	28620.07
441.57	29315.21
441.75	29895.66
441.94	29846.51
442.12	29741.19
442.31	30363.77
442.50	30094.61
442.68	29961.20
442.87	29340.96
443.05	29116.26
443.24	29331.59
443.43	30520.59
443.61	31042.53
443.80	31236.79
443.98	29490.75
444.17	29476.71
444.35	30806.13
444.54	31562.12
444.73	31119.76
444.91	29523.52
445.10	28865.83
445.28	27604.28
445.47	27140.85
445.65	27786.84
445.84	28369.63
446.02	28924.34
446.21	29582.03
446.39	29537.56
446.58	29902.68
446.77	30253.76
446.95	30766.34
447.14	31796.18
447.32	31962.36
447.51	31480.21
447.69	30548.67
447.88	30181.21
448.06	30094.61
448.25	31061.25
448.43	31180.62
448.62	30838.90
448.80	30096.95
448.99	30740.60
449.17	30845.92
449.36	31166.57
449.54	31976.40
449.73	32407.06
449.91	32882.19
450.10	33745.84
450.28	34440.98
450.46	34452.69
450.65	33804.36
450.83	33820.74
451.02	33024.96
451.20	32975.81
451.39	32987.51
451.57	32594.30
451.76	32781.54
451.94	32437.48
452.13	31842.99
452.31	30398.88
452.49	29120.95
452.68	29832.47
452.86	29668.63
453.05	30017.37
453.23	30677.40
453.42	31880.44
453.60	32285.35
453.78	32474.93
453.97	32198.75
454.15	32460.89
454.34	31704.90
454.52	31789.16
454.70	31154.87
454.89	31311.69
455.07	31756.39
455.26	32306.41
455.44	33916.70
455.62	33956.49
455.81	33680.31
455.99	33869.89
456.17	33397.10
456.36	33574.98
456.54	34448.00
456.73	34396.51
456.91	34876.32
457.09	35079.95
457.28	35803.17
457.46	34155.44
457.64	33986.92
457.83	33319.87
458.01	32610.68
458.19	33399.44
458.38	33378.38
458.56	34668.02
458.74	34726.53
458.93	33528.17
459.11	33523.49
459.29	33706.05
459.48	33516.47
459.66	33907.34
459.84	33813.72
460.03	34073.52
460.21	34520.56
460.39	35297.62
460.57	35297.62
460.76	36084.04
460.94	35693.17
461.12	35171.23
461.31	35281.24
461.49	35454.44
461.67	35569.12
461.85	36568.53
462.04	36095.74
462.22	36907.91
462.40	35791.47
462.59	36058.29
462.77	36219.79
462.95	36194.04
463.13	35398.26
463.32	35405.28
463.50	35321.02
463.68	35330.39
463.86	35702.53
464.05	34946.54
464.23	33645.20
464.41	33923.72
464.59	33532.86
464.78	35398.26
464.96	35091.65
465.14	34314.59
465.32	35648.70
465.50	36463.21
465.69	36968.76
465.87	35587.85
466.05	35091.65
466.23	33259.01
466.41	32795.59
466.60	33874.57
466.78	33617.11
466.96	34492.47
467.14	35056.54
467.32	34918.45
467.51	35285.92
467.69	33888.62
467.87	34600.14
468.05	35199.32
468.23	35332.73
468.41	35365.49
468.60	35711.89
468.78	35321.02
468.96	35047.18
469.14	36091.06
469.32	35814.88
469.50	34534.60
469.69	34513.54
469.87	34103.95
470.05	33961.17
470.23	34361.40
470.41	34333.32
470.59	34658.65
470.77	35037.82
470.95	35819.56
471.14	35777.43
471.32	35775.09
471.50	37853.48
471.68	38401.17
471.86	38717.14
472.04	38906.73
472.22	38419.89
472.40	37006.21
472.58	36552.15
472.77	36187.02
472.95	36470.23
473.13	37806.67
473.31	36940.68
473.49	37071.75
473.67	37476.66
473.85	38258.40
474.03	39124.40
474.21	39129.08
474.39	39360.79
474.57	39519.95
474.75	39447.39
474.93	39363.13
475.12	38263.08
475.30	38513.52
475.48	38565.01
475.66	39463.77
475.84	38710.12
476.02	38410.53
476.20	38007.96
476.38	38478.41
476.56	39852.30
476.74	40320.41
476.92	40645.74
477.10	41113.85
477.28	41832.39
477.46	42263.05
477.64	42445.62
477.82	42630.52
478.00	42808.40
478.18	42174.11
478.36	41914.31
478.54	42195.18
478.72	42436.25
478.90	43606.52
479.08	44678.49
479.26	44694.87
479.44	45102.12
479.62	44847.00
479.80	44603.59
479.98	44889.13
480.16	44708.91
480.34	44409.32
480.52	45172.34
480.70	45572.57
480.88	45085.74
481.06	46410.48
481.24	46478.36
481.41	47000.30
481.59	47990.34
481.77	47777.36
481.95	46909.02
482.13	47173.50
482.31	46813.05
482.49	47683.73
482.67	47189.88
482.85	47491.81
483.03	48402.28
483.21	48467.81
483.39	48570.80
483.57	47831.19
483.74	47665.01
483.92	47929.49
484.10	48065.24
484.28	48879.75
484.46	49668.51
484.64	49614.68
484.82	48851.66
485.00	48439.73
485.18	48088.65
485.35	46220.90
485.53	43442.68
485.71	39587.82
485.89	39267.17
486.07	41722.39
486.25	45375.97
486.43	46726.46
486.61	47351.38
486.78	47611.18
486.96	47812.46
487.14	49514.03
487.32	50183.43
487.50	50721.75
487.68	52034.79
487.85	52233.74
488.03	52158.84
488.21	51669.67
488.39	51168.79
488.57	50417.48
488.75	50183.43
488.92	51344.33
489.10	53614.65
489.28	54595.34
489.46	55049.40
489.64	54941.74
489.81	55220.26
489.99	54705.34
490.17	54899.61
490.35	55407.50
490.53	54988.55
490.70	54396.39
490.88	54330.86
491.06	55234.30
491.24	55374.73
491.41	54124.89
491.59	52631.63
491.77	52088.62
491.95	53235.48
492.13	54417.46
492.30	55484.74
492.48	56315.63
492.66	56722.88
492.84	56470.11
493.01	56313.29
493.19	55863.91
493.37	55615.81
493.54	55295.16
493.72	56062.85
493.90	57092.69
494.08	57546.75
494.25	57822.93
494.43	58108.48
494.61	58482.97
494.79	58625.74
494.96	58379.98
495.14	57623.99
495.32	56992.04
495.49	56332.01
495.67	57333.76
495.85	58663.19
496.02	58920.65
496.20	58660.85
496.38	58291.04
496.55	58152.95
496.73	58707.66
496.91	58817.66
497.09	59231.94
497.26	59465.99
497.44	58815.32
497.62	58372.96
497.79	57621.65
497.97	56760.33
498.14	56779.06
498.32	57818.25
498.50	58422.11
498.67	59133.63
498.85	59065.76
499.03	59145.34
499.20	59573.66
499.38	59636.85
499.56	59245.98
499.73	58731.06
499.91	58431.47
500.08	57991.45
500.26	57549.09
500.44	57935.28
500.61	58499.35
500.79	58326.15
500.97	57977.41
501.14	57874.43
501.32	57818.25
501.49	57794.85
501.67	57698.89
501.84	58494.67
502.02	58686.59
502.20	58852.77
502.37	59091.51
502.55	59032.99
502.72	59723.45
502.90	60088.57
503.07	59662.60
503.25	59379.39
503.43	58347.21
503.60	58092.10
503.78	57567.82
503.95	57703.57
504.13	59110.23
504.30	59966.87
504.48	59788.98
504.65	59248.32
504.83	59281.09
505.01	59941.12
505.18	60463.06
505.36	60757.97
505.53	60690.09
505.71	61057.56
505.88	61020.11
506.06	60336.67
506.23	60191.56
506.41	59882.61
506.58	59938.78
506.76	60219.64
506.93	60072.19
507.11	59875.58
507.28	59877.93
507.46	59517.48
507.63	59217.89
507.81	58941.71
507.98	59147.68
508.16	59896.65
508.33	60104.96
508.50	60577.75
508.68	60767.33
508.85	61258.84
509.03	61123.09
509.20	61130.11
509.38	60547.32
509.55	59751.54
509.73	60037.08
509.90	60406.89
510.08	60650.30
510.25	60530.93
510.42	60079.21
510.60	60381.14
510.77	60647.96
510.95	61212.03
511.12	61186.28
511.30	61371.19
511.47	61656.73
511.64	61612.26
511.82	61240.12
511.99	60458.38
512.17	60268.79
512.34	60016.02
512.51	60065.17
512.69	60217.30
512.86	60221.98
513.04	60631.58
513.21	60640.94
513.38	60301.56
513.56	59973.89
513.73	59313.86
513.90	59547.91
514.08	59653.23
514.25	60004.31
514.43	60121.34
514.60	60257.09
514.77	60308.58
514.95	60339.01
515.12	60147.09
515.29	60577.75
515.47	61066.92
515.64	61097.34
515.81	60821.16
515.99	60123.68
516.16	58775.53
516.33	56708.84
516.51	55480.06
516.68	54740.45
516.85	54593.00
517.03	54906.63
517.20	57513.98
517.37	59711.75
517.54	60537.96
517.72	59695.36
517.89	57497.60
518.06	55407.50
518.24	56168.18
518.41	58094.44
518.58	58841.07
518.75	59426.20
518.93	59454.29
519.10	59395.77
519.27	59845.16
519.45	60111.98
519.62	60755.63
519.79	61095.00
519.96	60671.37
520.14	60240.71
520.31	59456.63
520.48	59451.95
520.65	59976.23
520.83	60968.61
521.00	61165.22
521.17	60769.67
521.34	60711.16
521.52	60650.30
521.69	61333.74
521.86	61684.82
522.03	61261.18
522.20	60229.01
522.38	59311.52
522.55	59440.24
522.72	59920.05
522.89	59957.50
523.07	60186.88
523.24	60692.43
523.41	61354.80
523.58	61560.77
523.75	61822.91
523.92	61928.23
524.10	61797.16
524.27	61801.85
524.44	61712.91
524.61	61474.17
524.78	61361.82
524.96	61310.33
525.13	61331.40
525.30	61602.90
525.47	61909.51
525.64	61544.39
525.81	61123.09
525.98	59817.07
526.16	58475.94
526.33	58071.03
526.50	57656.76
526.67	57331.42
526.84	57998.48
527.01	58679.57
527.18	59690.68
527.36	60306.24
527.53	61179.26
527.70	61483.53
527.87	60720.52
528.04	60432.63
528.21	60966.27
528.38	61504.60
528.55	62019.52
528.72	62087.39
528.89	62405.70
529.07	62176.33
529.24	61499.92
529.41	60835.20
529.58	60275.82
529.75	60725.20
529.92	60968.61
530.09	61298.63
530.26	61776.10
530.43	62136.54
530.60	62129.52
530.77	62089.73
530.94	62417.41
531.11	62073.35
531.28	61581.84
531.46	61324.38
531.63	61609.92
531.80	61612.26
531.97	61066.92
532.14	60437.31
532.31	59124.27
532.48	58965.12
532.65	59070.44
532.82	59814.73
532.99	60804.78
533.16	61275.22
533.33	61530.34
533.50	61331.40
533.67	60715.84
533.84	60505.19
534.01	60603.49
534.18	60734.56
534.35	60940.53
534.52	60844.57
534.69	61106.71
534.86	61247.14
535.03	61544.39
535.20	62019.52
535.37	62209.10
535.54	62274.63
535.71	62103.77
535.88	61834.61
536.05	61350.12
536.22	60781.37
536.38	60540.30
536.55	60144.75
536.72	59678.98
536.89	59643.87
537.06	60519.23
537.23	61176.92
537.40	61420.34
537.57	61457.79
537.74	61034.15
537.91	61015.43
538.08	61003.72
538.25	61233.10
538.42	61343.10
538.59	61219.05
538.75	60432.63
538.92	60360.08
539.09	60130.70
539.26	59941.12
539.43	59842.82
539.60	60093.25
539.77	60268.79
539.94	60072.19
540.11	59393.43
540.28	58995.54
540.44	58925.33
540.61	59199.17
540.78	59241.30
540.95	59695.36
541.12	60032.40
541.29	60341.35
541.46	60870.31
541.62	60481.78
541.79	60488.80
541.96	60074.53
542.13	60027.72
542.30	60196.24
542.47	60252.41
542.63	60151.77
542.80	60025.38
542.97	60086.23
543.14	59924.74
543.31	60147.09
543.48	60287.52
543.64	61392.25
543.81	61584.18
543.98	61221.39
544.15	60633.92
544.32	60240.71
544.48	60397.52
544.65	60699.45
544.82	60928.83
544.99	60601.15
545.16	60186.88
545.32	60212.62
545.49	60874.99
545.66	61329.06
545.83	60755.63
546.00	60519.23
546.16	60278.16
546.33	60261.77
546.50	60331.99
546.67	60530.93
546.83	60280.50
547.00	60238.37
547.17	59707.07
547.34	59070.44
547.50	59150.02
547.67	59653.23
547.84	59580.68
548.00	59873.24
548.17	60346.03
548.34	60427.95
548.51	60306.24
548.67	60303.90
548.84	60282.84
549.01	60282.84
549.18	60371.78
549.34	60079.21
549.51	60252.41
549.68	60044.10
549.84	59725.79
550.01	59709.41
550.18	59765.58
550.34	59774.94
550.51	59810.05
550.68	60259.43
550.84	59489.40
551.01	59618.13
551.18	59643.87
551.34	59611.10
551.51	59838.14
551.68	60289.86
551.84	60334.33
552.01	60097.94
552.18	59941.12
552.34	59384.07
552.51	59007.25
552.68	59203.85
552.84	59402.80
553.01	59657.91
553.18	59568.97
553.34	59470.67
553.51	59709.41
553.67	60104.96
553.84	60086.23
554.01	59938.78
554.17	59737.49
554.34	59901.33
554.51	60158.79
554.67	60449.02
554.84	59966.87
555.00	59573.66
555.17	59594.72
555.33	59489.40
555.50	59489.40
555.67	59524.50
555.83	59430.88
556.00	59213.21
556.16	59061.08
556.33	58927.67
556.50	58777.87
556.66	58728.72
556.83	58438.50
556.99	58646.80
557.16	58796.60
557.32	58979.16
557.49	59274.07
557.65	58892.56
557.82	59267.05
557.98	58672.55
558.15	58330.83
558.32	57642.71
558.48	57139.50
558.65	57389.94
558.81	57425.04
558.98	57832.30
559.14	57893.15
559.31	58056.99
559.47	58040.60
559.64	57771.44
559.80	57755.06
559.97	57530.37
560.13	58166.99
560.30	58796.60
560.46	59089.16
560.63	59412.16
560.79	59451.95
560.96	59082.14
561.12	58059.33
561.29	57422.70
561.45	57492.92
561.61	58087.42
561.78	58277.00
561.94	58188.06
562.11	58239.55
562.27	58108.48
562.44	58113.16
562.60	58375.30
562.77	58756.81
562.93	58677.23
563.10	58602.33
563.26	58038.26
563.42	57932.94
563.59	57755.06
563.75	57923.58
563.92	57972.73
564.08	57825.28
564.24	58056.99
564.41	58192.74
564.57	58089.76
564.74	57846.34
564.90	57769.10
565.07	57673.14
565.23	57265.89
565.39	56844.59
565.56	56643.30
565.72	56404.57
565.88	56860.97
566.05	56856.29
566.21	56947.57
566.38	57443.77
566.54	57371.21
566.70	57497.60
566.87	57764.42
567.03	57862.72
567.19	57733.99
567.36	57829.96
567.52	57588.88
567.68	57247.16
567.85	56853.95
568.01	56680.75
568.17	56093.28
568.34	56196.26
568.50	56069.87
568.66	56580.11
568.83	56683.09
568.99	56568.41
569.15	56750.97
569.32	57029.49
569.48	56217.33
569.64	56144.77
569.81	56062.85
569.97	56053.49
570.13	56074.55
570.30	55510.49
570.46	54932.37
570.62	54787.26
570.78	54700.66
570.95	54843.43
571.11	55671.98
571.27	55529.21
571.43	55987.95
571.60	56250.09
571.76	56425.64
571.92	56823.53
572.09	56900.76
572.25	56332.01
572.41	56640.96
572.57	56666.71
572.74	56474.79
572.90	56264.14
573.06	56123.71
573.22	56212.65
573.38	56156.47
573.55	56184.56
573.71	56250.09
573.87	56058.17
574.03	56006.68
574.20	56037.11
574.36	55365.37
574.52	55789.01
574.68	55489.42
574.84	54915.99
575.01	54721.72
575.17	54553.21
575.33	54824.71
575.49	55278.77
575.65	55327.92
575.82	54962.80
575.98	54756.83
576.14	55199.19
576.30	55454.31
576.46	55327.92
576.62	55458.99
576.79	55463.67
576.95	55136.00
577.11	55061.10
577.27	55157.06
577.43	55203.88
577.59	54518.10
577.75	54408.09
577.92	53764.45
578.08	53570.18
578.24	53549.12
578.40	53996.16
578.56	54529.80
578.72	54405.75
578.88	54897.27
579.04	54794.28
579.21	54838.75
579.37	54756.83
579.53	54859.82
579.69	54820.03
579.85	54820.03
580.01	54855.14
580.17	54295.75
580.33	54101.48
580.49	54314.47
580.65	54738.11
580.82	54885.56
580.98	54763.85
581.14	54649.17
581.30	54834.07
581.46	54695.98
581.62	54855.14
581.78	54796.62
581.94	54932.37
582.10	55016.63
582.26	55185.15
582.42	55025.99
582.58	55124.30
582.74	54918.33
582.90	55330.26
583.06	55058.76
583.22	54862.16
583.38	54731.09
583.54	54630.44
583.70	54223.19
583.86	54679.60
584.02	54511.08
584.18	54698.32
584.34	54635.13
584.50	54319.15
584.66	54277.02
584.82	53862.75
584.98	53982.12
585.14	53368.90
585.30	52570.77
