SpectraSuite Data File
++++++++++++++++++++++++++++++++++++
Date: Mon Oct 07 14:53:11 GMT-05:00 2013
User: price-jones
Dark Spectrum Present: No
Reference Spectrum Present: No
Number of Sampled Component Spectra: 1
Spectrometers: USB2+H05261
Integration Time (usec): 100000 (USB2+H05261)
Spectra Averaged: 1 (USB2+H05261)
Boxcar Smoothing: 0 (USB2+H05261)
Correct for Electrical Dark: No (USB2+H05261)
Strobe/Lamp Enabled: No (USB2+H05261)
Correct for Detector Non-linearity: No (USB2+H05261)
Correct for Stray Light: No (USB2+H05261)
Number of Pixels in Processed Spectrum: 2048
>>>>>Begin Processed Spectral Data<<<<<
365.73	0.00
365.92	0.00
366.12	0.00
366.32	0.00
366.52	0.00
366.72	0.00
366.91	0.00
367.11	0.00
367.31	0.00
367.51	0.00
367.70	0.00
367.90	0.00
368.10	0.00
368.30	0.00
368.49	0.00
368.69	0.00
368.89	0.00
369.09	0.00
369.28	0.00
369.48	0.00
369.68	0.00
369.87	0.00
370.07	0.00
370.27	0.00
370.47	940.90
370.66	4121.68
370.86	4933.85
371.06	5401.96
371.25	5263.86
371.45	4716.18
371.65	4306.59
371.84	4016.36
372.04	4266.80
372.24	4678.73
372.44	4828.53
372.63	4938.53
372.83	4512.55
373.03	4084.23
373.22	3639.53
373.42	4009.34
373.62	4655.33
373.81	4957.25
374.01	4903.42
374.21	4273.82
374.40	4109.98
374.60	4262.12
374.79	4844.91
374.99	5661.76
375.19	6022.20
375.38	5966.03
375.58	5607.92
375.78	5568.13
375.97	5603.24
376.17	5706.23
376.37	5680.48
376.56	6050.28
376.76	6167.31
376.95	6686.91
377.15	6899.90
377.35	7328.22
377.54	7854.84
377.74	7812.71
377.93	7765.90
378.13	7524.82
378.33	7180.76
378.52	6691.59
378.72	6471.58
378.91	6272.64
379.11	6164.97
379.31	5940.28
379.50	5984.75
379.70	6415.41
379.89	7009.90
380.09	7611.42
380.28	7712.07
380.48	7485.03
380.68	7499.08
380.87	7258.00
381.07	6644.78
381.26	6221.14
381.46	5797.51
381.65	5717.93
381.85	5481.53
382.04	5282.59
382.24	4987.68
382.43	4622.56
382.63	4610.86
382.83	4777.03
383.02	4650.64
383.22	4706.82
383.41	4699.80
383.61	4999.38
383.80	5657.07
384.00	6450.52
384.19	7438.22
384.39	7485.03
384.58	7625.47
384.78	7552.91
384.97	7225.23
385.17	6850.75
385.36	6429.45
385.56	6370.94
385.75	6579.25
385.95	7279.07
386.14	7939.10
386.34	7637.17
386.53	7328.22
386.72	7199.49
386.92	6986.50
387.11	7382.05
387.31	7854.84
387.50	7623.12
387.70	7590.36
387.89	7246.30
388.09	7215.87
388.28	7302.47
388.48	7585.68
388.67	8156.77
388.86	8912.76
389.06	9582.15
389.25	9781.10
389.45	9888.76
389.64	9905.15
389.84	9717.90
390.03	9645.35
390.22	9682.80
390.42	10200.05
390.61	10693.91
390.81	11337.56
391.00	11707.36
391.19	11370.32
391.39	10881.15
391.58	10417.72
391.78	9745.99
391.97	9408.95
392.16	8812.12
392.36	7978.89
392.55	6410.73
392.75	5186.63
392.94	4290.20
393.13	4259.78
393.33	5090.67
393.52	6420.09
393.71	7854.84
393.91	8840.20
394.10	9413.63
394.29	10223.46
394.49	11555.22
394.68	12098.23
394.88	12098.23
395.07	12631.87
395.26	12437.61
395.46	12231.64
395.65	11262.66
395.84	9921.53
396.04	8226.98
396.23	6738.40
396.42	5614.95
396.62	5528.35
396.81	6593.29
397.00	8245.71
397.19	10403.68
397.39	12189.51
397.58	13666.39
397.77	14590.90
397.97	15108.16
398.16	15272.00
398.35	15999.90
398.55	16297.15
398.74	16903.35
398.93	17231.02
399.12	16893.99
399.32	16570.99
399.51	16849.52
399.70	17907.44
399.90	17563.38
400.09	17687.43
400.28	17584.44
400.47	17642.96
400.67	18616.62
400.86	18813.23
401.05	18897.49
401.24	19349.21
401.44	19716.67
401.63	19274.31
401.82	19545.81
402.01	19445.17
402.21	19679.22
402.40	19702.63
402.59	19089.41
402.78	18214.05
402.97	18122.77
403.17	18574.49
403.36	19613.69
403.55	20287.76
403.74	20896.30
403.93	19606.67
404.13	17855.95
404.32	18118.09
404.51	18817.91
404.70	20077.12
404.89	20051.37
405.09	19906.26
405.28	19204.10
405.47	19229.84
405.66	19213.46
405.85	18679.82
406.05	18160.22
406.24	18518.32
406.43	19227.50
406.62	19690.93
406.81	20044.35
407.00	19381.98
407.20	18871.74
407.39	18953.66
407.58	19831.36
407.77	20350.96
407.96	21385.47
408.15	21270.79
408.34	21553.99
408.54	22670.43
408.73	22731.28
408.92	22232.75
409.11	21804.43
409.30	20617.78
409.49	19337.51
409.68	18043.19
409.87	17673.39
410.07	19197.07
410.26	20215.21
410.45	21813.79
410.64	22010.40
410.83	22988.74
411.02	23122.15
411.21	24362.64
411.40	23744.73
411.59	23913.25
411.78	23410.04
411.98	23735.37
412.17	24159.01
412.36	23297.69
412.55	23243.86
412.74	23030.87
412.93	22436.38
413.12	23194.71
413.31	24615.41
413.50	25142.03
413.69	25308.21
413.88	24547.54
414.07	23873.46
414.26	24247.95
414.45	25064.80
414.64	25186.50
414.83	25348.00
415.02	24655.20
415.22	24526.47
415.41	25458.01
415.60	25982.29
415.79	27000.42
415.98	27332.78
416.17	27407.67
416.36	26967.65
416.55	26494.86
416.74	25795.04
416.93	24720.74
417.12	24840.11
417.31	25497.80
417.50	25703.76
417.69	26181.23
417.88	26244.43
418.07	25972.92
418.26	25579.71
418.45	25935.48
418.64	27105.74
418.83	27784.50
419.02	27103.40
419.21	27117.45
419.39	26001.01
419.58	24442.21
419.77	24870.53
419.96	26223.36
420.15	27463.85
420.34	28109.83
420.53	29270.74
420.72	29523.52
420.91	29380.74
421.10	28973.49
421.29	28591.98
421.48	27901.53
421.67	29347.98
421.86	28084.09
422.05	26518.27
422.24	23669.84
422.43	23843.04
422.61	25869.94
422.80	27927.27
422.99	27887.48
423.18	27302.35
423.37	26773.39
423.56	26808.50
423.75	26948.93
423.94	27789.18
424.13	26473.80
424.32	26728.92
424.50	26541.68
424.69	26106.34
424.88	26518.27
425.07	26450.39
425.26	26246.77
425.45	25752.91
425.64	25432.26
425.83	25549.29
426.01	27154.90
426.20	27648.75
426.39	27295.33
426.58	25376.09
426.77	23566.85
426.96	22860.01
427.15	23894.53
427.33	25837.17
427.52	26721.90
427.71	26625.93
427.90	26321.66
428.09	25713.13
428.28	25088.20
428.46	24795.64
428.65	24257.31
428.84	25069.48
429.03	25528.22
429.22	23620.69
429.40	22230.41
429.59	20662.25
429.78	18317.03
429.97	18480.87
430.16	18431.72
430.34	18647.05
430.53	18548.75
430.72	19227.50
430.91	21607.83
431.10	25432.26
431.28	29612.46
431.47	31723.62
431.66	31627.66
431.85	29167.76
432.03	26394.22
432.22	25610.14
432.41	26562.74
432.60	29488.41
432.79	30534.63
432.97	30995.71
433.16	30553.35
433.35	27683.86
433.54	24751.17
433.72	23393.65
433.91	24446.90
434.10	27597.26
434.28	29923.75
434.47	31051.89
434.66	30122.69
434.85	29413.51
435.03	29242.65
435.22	30265.47
435.41	31850.01
435.59	32037.25
435.78	32217.47
435.97	33163.05
436.16	33553.92
436.34	32844.74
436.53	32006.83
436.72	31866.39
436.90	30377.81
437.09	30253.76
437.28	30019.71
437.46	31222.75
437.65	30522.93
437.84	28519.43
438.02	26515.93
438.21	26759.34
438.40	28156.64
438.58	29979.92
438.77	30869.33
438.96	31166.57
439.14	32753.46
439.33	33490.73
439.52	33633.50
439.70	32720.69
439.89	32283.01
440.08	31304.67
440.26	31683.83
440.45	32598.98
440.63	34710.14
440.82	36257.24
441.01	35777.43
441.19	35325.71
441.38	36044.25
441.57	37497.72
441.75	37909.66
441.94	37904.98
442.12	37207.50
442.31	38209.25
442.50	38234.99
442.68	38103.92
442.87	37511.77
443.05	37062.38
443.24	37476.66
443.43	37860.51
443.61	38796.72
443.80	39580.80
443.98	37464.96
444.17	37565.60
444.35	39398.24
444.54	39765.70
444.73	39475.48
444.91	37963.49
445.10	36191.70
445.28	34845.90
445.47	34195.23
445.65	34759.30
445.84	36037.23
446.02	36570.87
446.21	36966.42
446.39	37572.62
446.58	37972.85
446.77	38314.57
446.95	38611.82
447.14	39945.92
447.32	40432.75
447.51	39697.83
447.69	37914.34
447.88	37818.38
448.06	38380.10
448.25	39210.99
448.43	39058.86
448.62	38990.98
448.80	38440.96
448.99	38719.48
449.17	38953.54
449.36	39346.75
449.54	40318.07
449.73	40847.03
449.91	41441.53
450.10	42665.63
450.28	43000.32
450.46	42494.77
450.65	42761.59
450.83	42536.90
451.02	41462.59
451.20	41516.42
451.39	41675.58
451.57	41193.43
451.76	41221.52
451.94	40559.14
452.13	40617.66
452.31	38342.66
452.49	36870.46
452.68	37322.18
452.86	37862.85
453.05	37830.08
453.23	39100.99
453.42	39887.41
453.60	40671.49
453.78	41205.13
453.97	40573.19
454.15	40760.43
454.34	39777.40
454.52	40336.79
454.70	39456.75
454.89	39651.02
455.07	40229.13
455.26	40425.73
455.44	42129.64
455.62	42642.22
455.81	43154.80
455.99	42349.65
456.17	42120.28
456.36	42265.39
456.54	43042.45
456.73	43407.58
456.91	43793.76
457.09	44676.15
457.28	44818.92
457.46	43007.34
457.64	42852.87
457.83	41553.87
458.01	40797.88
458.19	42057.09
458.38	42426.89
458.56	43105.65
458.74	42794.36
458.93	42616.47
459.11	42452.64
459.29	42087.51
459.48	42384.76
459.66	41975.17
459.84	42890.32
460.03	43262.46
460.21	42897.34
460.39	44484.22
460.57	44512.31
460.76	44505.29
460.94	44786.15
461.12	44369.54
461.31	44060.58
461.49	44252.51
461.67	43971.64
461.85	45600.66
462.04	45055.31
462.22	45478.95
462.40	45287.03
462.59	45198.09
462.77	45277.66
462.95	45284.68
463.13	44755.72
463.32	44163.57
463.50	43971.64
463.68	43913.13
463.86	43913.13
464.05	43971.64
464.23	42609.45
464.41	42546.26
464.59	41755.16
464.78	44006.75
464.96	43889.73
465.14	43222.67
465.32	44472.52
465.50	45670.87
465.69	45954.08
465.87	44493.58
466.05	43880.36
466.23	41614.72
466.41	41291.73
466.60	42169.43
466.78	42108.58
466.96	43044.79
467.14	44088.67
467.32	44662.10
467.51	44708.91
467.69	42349.65
467.87	43351.40
468.05	43646.31
468.23	43892.07
468.41	43868.66
468.60	43861.64
468.78	44437.41
468.96	43625.25
469.14	44629.34
469.32	45052.97
469.50	42988.62
469.69	43344.38
469.87	42869.25
470.05	42738.18
470.23	42866.91
470.41	43196.93
470.59	43299.91
470.77	43997.39
470.95	44563.80
471.14	44987.44
471.32	45045.95
471.50	47012.00
471.68	47119.66
471.86	47569.05
472.04	47824.17
472.22	47405.21
472.40	45907.27
472.58	45467.25
472.77	45146.59
472.95	46050.04
473.13	46787.31
473.31	45448.52
473.49	46036.00
473.67	47260.10
473.85	47051.79
474.03	48093.33
474.21	47929.49
474.39	48804.85
474.57	49034.22
474.75	48507.60
474.93	48273.55
475.12	47688.42
475.30	48041.84
475.48	47529.26
475.66	48020.77
475.84	47657.99
476.02	47615.86
476.20	46862.21
476.38	47571.39
476.56	48910.17
476.74	49652.12
476.92	49677.87
477.10	50138.96
477.28	50859.84
477.46	50988.57
477.64	51323.27
477.82	51384.12
478.00	51454.34
478.18	50864.52
478.36	50784.94
478.54	51250.71
478.72	51391.14
478.90	51964.57
479.08	52931.22
479.26	53380.60
479.44	53216.76
479.62	52816.53
479.80	52844.62
479.98	53031.86
480.16	53057.60
480.34	52954.62
480.52	53176.97
480.70	53670.82
480.88	53448.47
481.06	54164.68
481.24	54520.44
481.41	54997.91
481.59	55356.01
481.77	55147.70
481.95	54721.72
482.13	54742.79
482.31	54901.95
482.49	55201.53
482.67	55166.43
482.85	55231.96
483.03	55648.58
483.21	56261.80
483.39	56151.79
483.57	55578.36
483.74	55040.04
483.92	55620.49
484.10	55571.34
484.28	56191.58
484.46	56486.49
484.64	56769.69
484.82	56004.34
485.00	55957.53
485.18	55220.26
485.35	54260.64
485.53	51760.95
485.71	48643.35
485.89	48247.80
486.07	50155.34
486.25	52961.64
486.43	54604.70
486.61	55068.12
486.78	55014.29
486.96	55353.67
487.14	56339.04
487.32	56928.85
487.50	57609.95
487.68	58426.79
487.85	58803.62
488.03	58623.40
488.21	58499.35
488.39	57785.49
488.57	57460.15
488.75	57279.93
488.92	58007.84
489.10	59756.22
489.28	60514.55
489.46	61148.84
489.64	60898.40
489.81	61076.28
489.99	60935.85
490.17	60973.30
490.35	61242.46
490.53	60687.75
490.70	60514.55
490.88	60654.98
491.06	61202.67
491.24	61113.73
491.41	60231.35
491.59	59449.61
491.77	58590.63
491.95	59583.02
492.13	60289.86
492.30	61125.43
492.48	62054.62
492.66	62213.78
492.84	62515.71
493.01	62136.54
493.19	61778.44
493.37	61380.55
493.54	61254.16
493.72	61780.78
493.90	62752.10
494.08	63140.63
494.25	63512.78
494.43	63561.93
494.61	64025.35
494.79	63969.18
494.96	63800.66
495.14	63117.23
495.32	62326.13
495.49	61979.73
495.67	62986.16
495.85	64051.10
496.02	64390.48
496.20	64037.06
496.38	63760.87
496.55	63772.58
496.73	64086.21
496.91	64135.36
497.09	64643.26
497.26	64858.59
497.44	64463.03
497.62	63910.67
497.79	63278.72
497.97	62258.25
498.14	62597.63
498.32	63477.67
498.50	64259.41
498.67	64622.19
498.85	64418.56
499.03	64568.36
499.20	65003.70
499.38	64926.46
499.56	64800.07
499.73	64282.81
499.91	63962.16
500.08	63585.33
500.26	63021.26
500.44	63475.33
500.61	63983.22
500.79	63571.29
500.97	63442.56
501.14	63456.60
501.32	63164.04
501.49	63379.37
501.67	63604.06
501.84	64095.57
502.02	64322.60
502.20	64392.82
502.37	64591.76
502.55	64633.89
502.72	65195.62
502.90	65333.71
503.07	65230.73
503.25	64736.88
503.43	64161.11
503.60	63412.13
503.78	62808.28
503.95	63564.27
504.13	64739.22
504.30	65111.36
504.48	65027.10
504.65	64872.63
504.83	64910.08
505.01	65478.83
505.18	65535.00
505.36	65535.00
505.53	65535.00
505.71	65535.00
505.88	65535.00
506.06	65535.00
506.23	65535.00
506.41	65410.95
506.58	65535.00
506.76	65408.61
506.93	65535.00
507.11	65176.90
507.28	65474.15
507.46	65160.51
507.63	64556.66
507.81	64303.88
507.98	64584.74
508.16	65188.60
508.33	65535.00
508.50	65535.00
508.68	65535.00
508.85	65535.00
509.03	65535.00
509.20	65535.00
509.38	65535.00
509.55	65169.88
509.73	65326.69
509.90	65535.00
510.08	65535.00
510.25	65535.00
510.42	65535.00
510.60	65535.00
510.77	65535.00
510.95	65535.00
511.12	65535.00
511.30	65535.00
511.47	65535.00
511.64	65535.00
511.82	65535.00
511.99	65535.00
512.17	65535.00
512.34	65401.59
512.51	65462.44
512.69	65535.00
512.86	65535.00
513.04	65535.00
513.21	65535.00
513.38	65535.00
513.56	65221.37
513.73	64790.71
513.90	65020.08
514.08	65102.00
514.25	65385.21
514.43	65535.00
514.60	65535.00
514.77	65535.00
514.95	65535.00
515.12	65535.00
515.29	65535.00
515.47	65535.00
515.64	65535.00
515.81	65535.00
515.99	65535.00
516.16	64348.35
516.33	62532.09
516.51	61343.10
516.68	60533.28
516.85	60364.76
517.03	61064.58
517.20	63257.66
517.37	65069.23
517.54	65535.00
517.72	65298.61
517.89	63234.25
518.06	61099.68
518.24	61918.87
518.41	63707.04
518.58	64472.40
518.75	64807.09
518.93	64736.88
519.10	64734.54
519.27	65099.66
519.45	65535.00
519.62	65535.00
519.79	65535.00
519.96	65535.00
520.14	65535.00
520.31	65123.07
520.48	65092.64
520.65	65436.70
520.83	65535.00
521.00	65535.00
521.17	65535.00
521.34	65535.00
521.52	65535.00
521.69	65535.00
521.86	65535.00
522.03	65535.00
522.20	65535.00
522.38	64690.07
522.55	64905.40
522.72	65242.43
522.89	65392.23
523.07	65535.00
523.24	65535.00
523.41	65535.00
523.58	65535.00
523.75	65535.00
523.92	65535.00
524.10	65535.00
524.27	65535.00
524.44	65535.00
524.61	65535.00
524.78	65535.00
524.96	65535.00
525.13	65535.00
525.30	65535.00
525.47	65535.00
525.64	65535.00
525.81	65535.00
525.98	65535.00
526.16	64053.44
526.33	63566.61
526.50	63096.16
526.67	62939.35
526.84	63690.66
527.01	64465.38
527.18	65111.36
527.36	65535.00
527.53	65535.00
527.70	65535.00
527.87	65535.00
528.04	65535.00
528.21	65535.00
528.38	65535.00
528.55	65535.00
528.72	65535.00
528.89	65535.00
529.07	65535.00
529.24	65535.00
529.41	65535.00
529.58	65535.00
529.75	65535.00
529.92	65535.00
530.09	65535.00
530.26	65535.00
530.43	65535.00
530.60	65535.00
530.77	65535.00
530.94	65535.00
531.11	65535.00
531.28	65535.00
531.46	65535.00
531.63	65535.00
531.80	65535.00
531.97	65535.00
532.14	65535.00
532.31	64968.59
532.48	64158.76
532.65	64647.94
532.82	65291.58
532.99	65535.00
533.16	65535.00
533.33	65535.00
533.50	65535.00
533.67	65535.00
533.84	65535.00
534.01	65535.00
534.18	65535.00
534.35	65535.00
534.52	65535.00
534.69	65535.00
534.86	65535.00
535.03	65535.00
535.20	65535.00
535.37	65535.00
535.54	65535.00
535.71	65535.00
535.88	65535.00
536.05	65535.00
536.22	65535.00
536.38	65535.00
536.55	65535.00
536.72	65048.17
536.89	64970.93
537.06	65535.00
537.23	65535.00
537.40	65535.00
537.57	65535.00
537.74	65535.00
537.91	65535.00
538.08	65535.00
538.25	65535.00
538.42	65535.00
538.59	65535.00
538.75	65535.00
538.92	65535.00
539.09	65535.00
539.26	65495.21
539.43	65336.05
539.60	65535.00
539.77	65535.00
539.94	65497.55
540.11	64559.00
540.28	64252.39
540.44	64568.36
540.61	64781.35
540.78	64928.80
540.95	65265.84
541.12	65429.68
541.29	65535.00
541.46	65535.00
541.62	65535.00
541.79	65535.00
541.96	65359.46
542.13	65535.00
542.30	65535.00
542.47	65535.00
542.63	65535.00
542.80	65406.27
542.97	65535.00
543.14	65284.56
543.31	65464.78
543.48	65535.00
543.64	65535.00
543.81	65535.00
543.98	65535.00
544.15	65535.00
544.32	65535.00
544.48	65535.00
544.65	65535.00
544.82	65535.00
544.99	65535.00
545.16	65535.00
545.32	65535.00
545.49	65535.00
545.66	65535.00
545.83	65535.00
546.00	65535.00
546.16	65535.00
546.33	65535.00
546.50	65535.00
546.67	65535.00
546.83	65535.00
547.00	65535.00
547.17	65291.58
547.34	64739.22
547.50	64591.76
547.67	65048.17
547.84	65048.17
548.00	65535.00
548.17	65535.00
548.34	65535.00
548.51	65535.00
548.67	65535.00
548.84	65535.00
549.01	65535.00
549.18	65535.00
549.34	65469.46
549.51	65535.00
549.68	65474.15
549.84	65219.03
550.01	65319.67
550.18	65254.14
550.34	65296.27
550.51	65457.76
550.68	65434.36
550.84	64910.08
551.01	65214.35
551.18	64989.66
551.34	65237.75
551.51	65443.72
551.68	65535.00
551.84	65535.00
552.01	65439.04
552.18	65446.06
552.34	64619.85
552.51	64568.36
552.68	64367.07
552.84	64884.33
553.01	65041.15
553.18	65104.34
553.34	65015.40
553.51	65286.90
553.67	65403.93
553.84	65535.00
554.01	65317.33
554.17	65233.07
554.34	65214.35
554.51	65357.12
554.67	65535.00
554.84	65422.65
555.00	65139.45
555.17	65183.92
555.33	65146.47
555.50	65015.40
555.67	64994.34
555.83	64762.62
556.00	64666.66
556.16	64622.19
556.33	64362.39
556.50	64261.75
556.66	64364.73
556.83	64161.11
556.99	64158.76
557.16	64264.09
557.32	64498.14
557.49	64598.79
557.65	64589.42
557.82	64633.89
557.98	64603.47
558.15	64083.87
558.32	63398.09
558.48	62681.89
558.65	63070.42
558.81	63360.64
558.98	63550.23
559.14	63803.00
559.31	63791.30
559.47	63810.03
559.64	63393.41
559.80	63187.44
559.97	63213.19
560.13	63786.62
560.30	64430.27
560.46	64917.10
560.63	65045.83
560.79	65106.68
560.96	64624.53
561.12	63700.02
561.29	63000.20
561.45	63208.51
561.61	63627.46
561.78	64018.33
561.94	63667.25
562.11	63613.42
562.27	63704.70
562.44	63821.73
562.60	64093.23
562.77	64694.75
562.93	64184.51
563.10	64039.40
563.26	63676.61
563.42	63791.30
563.59	63601.72
563.75	63599.38
563.92	63723.43
564.08	63770.24
564.24	63903.65
564.41	63910.67
564.57	63849.81
564.74	63575.97
564.90	63426.18
565.07	63299.79
565.23	63220.21
565.39	62548.48
565.56	62363.57
565.72	62272.29
565.88	62639.76
566.05	62621.03
566.21	62768.49
566.38	63002.54
566.54	62983.82
566.70	63257.66
566.87	63559.59
567.03	63629.80
567.19	63767.90
567.36	63496.39
567.52	63353.62
567.68	62983.82
567.85	62705.29
568.01	62494.64
568.17	62197.40
568.34	62042.92
568.50	62073.35
568.66	62120.16
568.83	62337.83
568.99	62401.02
569.15	62616.35
569.32	62649.12
569.48	62541.45
569.64	62309.74
569.81	62155.27
569.97	62115.48
570.13	62026.54
570.30	61528.00
570.46	61371.19
570.62	61036.49
570.78	60804.78
570.95	60935.85
571.11	61579.49
571.27	61626.31
571.43	61946.96
571.60	62335.49
571.76	62183.35
571.92	62511.03
572.09	62536.77
572.25	62599.97
572.41	62653.80
572.57	62216.12
572.74	62592.95
572.90	62061.64
573.06	62155.27
573.22	62335.49
573.38	62202.08
573.55	62052.28
573.71	62309.74
573.87	62185.69
574.03	62190.37
574.20	62052.28
574.36	61909.51
574.52	61755.03
574.68	61502.26
574.84	61186.28
575.01	60678.39
575.17	60800.10
575.33	61078.62
575.49	61352.46
575.65	61586.52
575.82	61284.59
575.98	60842.23
576.14	61209.69
576.30	61380.55
576.46	61492.89
576.62	61310.33
576.79	61497.58
576.95	61403.95
577.11	61132.45
577.27	61237.78
577.43	61354.80
577.59	60720.52
577.75	60441.99
577.92	60048.78
578.08	59873.24
578.24	60135.38
578.40	60151.77
578.56	60420.93
578.72	60528.59
578.88	60582.43
579.04	60722.86
579.21	60942.87
579.37	60821.16
579.53	60919.46
579.69	60800.10
579.85	61109.05
580.01	60736.90
580.17	60523.91
580.33	60385.82
580.49	60711.16
580.65	60872.65
580.82	60989.68
580.98	60779.03
581.14	60722.86
581.30	60825.84
581.46	60809.46
581.62	61092.66
581.78	60903.08
581.94	61034.15
582.10	61197.99
582.26	61167.56
582.42	61169.90
582.58	61193.31
582.74	61127.77
582.90	61310.33
583.06	61221.39
583.22	60715.84
583.38	60619.88
583.54	60832.86
583.70	60612.85
583.86	60779.03
584.02	60757.97
584.18	60882.02
584.34	60732.22
584.50	60610.51
584.66	60542.64
584.82	60275.82
584.98	60285.18
