SpectraSuite Data File
++++++++++++++++++++++++++++++++++++
Date: Mon Oct 07 14:53:02 GMT-05:00 2013
User: price-jones
Dark Spectrum Present: No
Reference Spectrum Present: No
Number of Sampled Component Spectra: 1
Spectrometers: USB2+H05261
Integration Time (usec): 100000 (USB2+H05261)
Spectra Averaged: 1 (USB2+H05261)
Boxcar Smoothing: 0 (USB2+H05261)
Correct for Electrical Dark: No (USB2+H05261)
Strobe/Lamp Enabled: No (USB2+H05261)
Correct for Detector Non-linearity: No (USB2+H05261)
Correct for Stray Light: No (USB2+H05261)
Number of Pixels in Processed Spectrum: 2048
>>>>>Begin Processed Spectral Data<<<<<
365.73	0.00
365.92	0.00
366.12	0.00
366.32	0.00
366.52	0.00
366.72	0.00
366.91	0.00
367.11	0.00
367.31	0.00
367.51	0.00
367.70	0.00
367.90	0.00
368.10	0.00
368.30	0.00
368.49	0.00
368.69	0.00
368.89	0.00
369.09	0.00
369.28	0.00
369.48	0.00
369.68	0.00
369.87	0.00
370.07	0.00
370.27	0.00
370.47	451.72
370.66	2780.56
370.86	3255.69
371.06	3508.46
371.25	3588.04
371.45	3115.25
371.65	2892.90
371.84	2759.49
372.04	2878.86
372.24	3236.96
372.44	3372.71
372.63	3272.07
372.83	3091.85
373.03	2712.68
373.22	2539.48
373.42	2541.82
373.62	3019.29
373.81	3342.28
374.01	3473.36
374.21	2951.42
374.40	2736.09
374.60	2986.52
374.79	3201.85
374.99	3810.39
375.19	4049.13
375.38	4142.75
375.58	3934.44
375.78	3665.28
375.97	3789.33
376.17	3892.31
376.37	3845.50
376.56	4086.58
376.76	4259.78
376.95	4496.17
377.15	4833.21
377.35	5018.11
377.54	5203.01
377.74	5423.02
377.93	5408.98
378.13	5224.08
378.33	5046.20
378.52	4519.57
378.72	4421.27
378.91	4322.97
379.11	4241.05
379.31	4112.32
379.50	4004.66
379.70	4437.66
379.89	4931.51
380.09	5097.69
380.28	5238.12
380.48	5334.08
380.68	5181.95
380.87	5022.79
381.07	4655.33
381.26	4255.09
381.46	3990.61
381.65	3857.20
381.85	3859.54
382.04	3592.72
382.24	3424.20
382.43	3218.24
382.63	3080.14
382.83	3108.23
383.02	3176.11
383.22	3281.43
383.41	3194.83
383.61	3337.60
383.80	3847.84
384.00	4557.02
384.19	5001.72
384.39	5149.18
384.58	5240.46
384.78	5186.63
384.97	5100.03
385.17	4830.87
385.36	4664.69
385.56	4479.79
385.75	4573.41
385.95	4973.64
386.14	5448.77
386.34	5317.70
386.53	5158.54
386.72	4830.87
386.92	4940.87
387.11	5097.69
387.31	5376.21
387.50	5268.55
387.70	5102.37
387.89	5027.47
388.09	4985.34
388.28	5188.97
388.48	5160.88
388.67	5682.82
388.86	6197.74
389.06	6647.12
389.25	6820.32
389.45	6951.39
389.64	6995.86
389.84	6839.05
390.03	6750.10
390.22	6752.45
390.42	7094.16
390.61	7442.90
390.81	7974.21
391.00	8156.77
391.19	8112.30
391.39	8053.78
391.58	7433.54
391.78	6956.07
391.97	6710.32
392.16	6228.17
392.36	5675.80
392.55	4587.45
392.75	3674.64
392.94	2916.31
393.13	2911.63
393.33	3571.66
393.52	4557.02
393.71	5507.28
393.91	6289.02
394.10	6700.95
394.29	7325.88
394.49	7990.59
394.68	8444.65
394.88	8423.59
395.07	8774.67
395.26	8652.96
395.46	8535.93
395.65	8016.33
395.84	7068.42
396.04	5748.36
396.23	4821.50
396.42	4044.45
396.62	3866.56
396.81	4573.41
397.00	5746.02
397.19	7225.23
397.39	8683.39
397.58	9640.67
397.77	10345.17
397.97	10628.37
398.16	10649.44
398.35	11063.71
398.55	11447.56
398.74	11901.62
398.93	12145.04
399.12	11943.75
399.32	11618.42
399.51	11747.15
399.70	12503.14
399.90	12498.46
400.09	12484.42
400.28	12446.97
400.47	12292.49
400.67	12875.29
400.86	13575.11
401.05	13607.87
401.24	13614.90
401.44	14005.77
401.63	13570.43
401.82	13902.78
402.01	13820.86
402.21	13891.08
402.40	14155.56
402.59	13441.70
402.78	13048.49
402.97	12634.21
403.17	13125.72
403.36	13951.93
403.55	14293.65
403.74	14803.89
403.93	13703.84
404.13	12943.16
404.32	12723.15
404.51	13366.80
404.70	14176.62
404.89	14256.20
405.09	13973.00
405.28	13589.15
405.47	13509.57
405.66	13530.64
405.85	13195.94
406.05	12762.94
406.24	12947.84
406.43	13696.82
406.62	14050.24
406.81	14218.75
407.00	13591.49
407.20	13277.86
407.39	13439.36
407.58	14113.43
407.77	14567.49
407.96	15260.29
408.15	15435.83
408.34	15314.13
408.54	16084.16
408.73	15908.62
408.92	16060.76
409.11	15639.46
409.30	14703.25
409.49	13902.78
409.68	12896.35
409.87	12599.10
410.07	13425.31
410.26	14757.08
410.45	15110.50
410.64	16016.29
410.83	16400.13
411.02	16610.78
411.21	17219.32
411.40	16896.33
411.59	16926.75
411.78	16760.58
411.98	16535.88
412.17	17050.80
412.36	16669.30
412.55	16837.81
412.74	16395.45
412.93	15999.90
413.12	16238.64
413.31	17561.04
413.50	17741.26
413.69	18361.50
413.88	17516.57
414.07	17153.79
414.26	17418.27
414.45	18045.53
414.64	17937.87
414.83	17895.74
415.02	17259.11
415.22	17844.24
415.41	17734.24
415.60	18778.12
415.79	18946.64
415.98	19728.38
416.17	19882.85
416.36	19014.51
416.55	19000.47
416.74	18338.10
416.93	17614.87
417.12	17823.18
417.31	18036.17
417.50	18492.57
417.69	19061.32
417.88	18857.70
418.07	18604.92
418.26	18387.25
418.45	18574.49
418.64	19213.46
418.83	19875.83
419.02	19536.45
419.21	19466.24
419.39	18335.76
419.58	17865.31
419.77	17961.27
419.96	18668.11
420.15	19707.31
420.34	20238.61
420.53	20685.65
420.72	21336.32
420.91	20854.17
421.10	20594.37
421.29	20699.70
421.48	20126.27
421.67	20863.54
421.86	20236.27
422.05	18827.27
422.24	16889.31
422.43	17013.35
422.61	18836.63
422.80	20147.33
422.99	20147.33
423.18	19412.40
423.37	19122.18
423.56	19239.20
423.75	19405.38
423.94	19985.83
424.13	18845.99
424.32	18941.96
424.50	18927.91
424.69	18686.84
424.88	18855.36
425.07	18682.16
425.26	18815.57
425.45	18499.59
425.64	18354.48
425.83	18230.43
426.01	19651.14
426.20	19934.34
426.39	19822.00
426.58	18104.04
426.77	16781.64
426.96	16437.58
427.15	17062.51
427.33	18560.45
427.52	19037.92
427.71	19023.87
427.90	18855.36
428.09	18635.35
428.28	18424.70
428.46	17401.88
428.65	17184.21
428.84	17813.82
429.03	18066.60
429.22	16992.29
429.40	16219.91
429.59	14761.76
429.78	13025.08
429.97	13111.68
430.16	13369.14
430.34	13387.86
430.53	13472.12
430.72	13631.28
430.91	15159.65
431.10	17989.36
431.28	21074.18
431.47	22609.58
431.66	22635.32
431.85	20648.21
432.03	19269.63
432.22	18515.98
432.41	19190.05
432.60	21238.02
432.79	22111.04
432.97	22228.07
433.16	21958.91
433.35	19943.70
433.54	17869.99
433.72	17069.53
433.91	17696.79
434.10	19702.63
434.28	21296.53
434.47	21989.33
434.66	21687.40
434.85	21142.06
435.03	20999.29
435.22	21738.90
435.41	22890.44
435.59	22614.26
435.78	23161.94
435.97	23529.41
436.16	23894.53
436.34	23293.01
436.53	23112.79
436.72	22920.87
436.90	21919.12
437.09	21809.11
437.28	21539.95
437.46	22120.40
437.65	22202.32
437.84	20683.31
438.02	18941.96
438.21	18927.91
438.40	20072.43
438.58	21635.91
438.77	22052.53
438.96	22272.54
439.14	23234.50
439.33	23641.75
439.52	24498.39
439.70	23796.23
439.89	23370.25
440.08	22586.17
440.26	22548.72
440.45	23077.68
440.63	25104.59
440.82	26242.09
441.01	25858.24
441.19	25296.51
441.38	26085.27
441.57	26848.29
441.75	27159.58
441.94	27314.05
442.12	27182.98
442.31	27845.35
442.50	27796.20
442.68	27014.46
442.87	27063.61
443.05	26235.06
443.24	26923.18
443.43	28058.34
443.61	27864.08
443.80	28463.25
443.98	27040.21
444.17	26677.43
444.35	28261.97
444.54	28938.38
444.73	28503.04
444.91	26969.99
445.10	26415.29
445.28	25163.10
445.47	24723.08
445.65	25200.55
445.84	25940.16
446.02	26600.19
446.21	27007.44
446.39	26899.78
446.58	27435.76
446.77	27988.13
446.95	27948.34
447.14	28989.88
447.32	29312.87
447.51	28552.20
447.69	27524.70
447.88	27367.88
448.06	27758.75
448.25	28240.90
448.43	28383.68
448.62	28086.43
448.80	27517.68
448.99	27777.48
449.17	27922.59
449.36	28126.22
449.54	29153.71
449.73	29755.23
449.91	29902.68
450.10	30881.03
450.28	31323.39
450.46	30953.58
450.65	31189.98
450.83	30668.04
451.02	30345.05
451.20	29745.87
451.39	29970.56
451.57	30082.91
451.76	30305.26
451.94	29633.52
452.13	28858.81
452.31	28135.58
452.49	26441.03
452.68	26892.76
452.86	27082.34
453.05	26948.93
453.23	28276.01
453.42	28835.40
453.60	29626.50
453.78	29624.16
453.97	29509.47
454.15	29303.51
454.34	28856.46
454.52	29144.35
454.70	28531.13
454.89	28617.73
455.07	28912.64
455.26	29303.51
455.44	30555.69
455.62	30621.23
455.81	31480.21
455.99	30677.40
456.17	30331.00
456.36	30742.94
456.54	31253.17
456.73	31253.17
456.91	31805.54
457.09	32224.50
457.28	32591.96
457.46	31264.88
457.64	31234.45
457.83	30352.07
458.01	29607.78
458.19	30071.20
458.38	30525.27
458.56	31178.28
458.74	31063.59
458.93	31030.82
459.11	30775.70
459.29	30419.94
459.48	30974.65
459.66	30609.53
459.84	31260.20
460.03	31171.25
460.21	31267.22
460.39	32570.90
460.57	32283.01
460.76	32400.04
460.94	32580.26
461.12	32081.72
461.31	32048.96
461.49	32128.53
461.67	32130.87
461.85	33186.46
462.04	33013.26
462.22	33270.72
462.40	33008.58
462.59	32666.86
462.77	32914.95
462.95	32982.83
463.13	32753.46
463.32	32521.74
463.50	32187.05
463.68	31967.04
463.86	32163.64
464.05	31667.45
464.23	31105.72
464.41	30775.70
464.59	30412.92
464.78	32168.32
464.96	31903.84
465.14	31489.57
465.32	32507.70
465.50	32917.29
465.69	33474.34
465.87	32996.87
466.05	31653.40
466.23	30394.20
466.41	29682.67
466.60	30885.71
466.78	30579.10
466.96	31164.23
467.14	31496.59
467.32	31674.47
467.51	32088.74
467.69	30892.73
467.87	31519.99
468.05	32023.21
468.23	32048.96
468.41	32173.00
468.60	32240.88
468.78	32070.02
468.96	31910.86
469.14	32884.53
469.32	32479.61
469.50	31552.76
469.69	31695.53
469.87	31145.51
470.05	30728.89
470.23	30689.10
470.41	31189.98
470.59	31534.04
470.77	31850.01
470.95	32357.91
471.14	32720.69
471.32	32926.66
471.50	34623.54
471.68	34885.68
471.86	34754.61
472.04	34646.95
472.22	34852.92
472.40	33277.74
472.58	33582.01
472.77	32861.12
472.95	33797.34
473.13	34541.63
473.31	33839.47
473.49	34045.43
473.67	34396.51
473.85	34735.89
474.03	35323.36
474.21	35950.63
474.39	35873.39
474.57	36472.57
474.75	35894.46
474.93	35805.52
475.12	34766.32
475.30	34862.28
475.48	35201.66
475.66	35618.27
475.84	35543.38
476.02	34660.99
476.20	34419.92
476.38	35110.38
476.56	36327.45
476.74	36781.52
476.92	36931.31
477.10	37144.30
477.28	38211.59
477.46	38569.69
477.64	38635.22
477.82	39185.25
478.00	39274.19
478.18	38375.42
478.36	38265.42
478.54	38426.92
478.72	38440.96
478.90	39735.27
479.08	40502.97
479.26	41347.90
479.44	41067.04
479.62	40737.02
479.80	40980.44
479.98	40814.26
480.16	41443.87
480.34	40765.11
480.52	41401.74
480.70	41441.53
480.88	41551.53
481.06	42244.33
481.24	42543.92
481.41	43302.25
481.59	43768.02
481.77	43676.74
481.95	42733.50
482.13	43288.21
482.31	42990.96
482.49	43878.02
482.67	43281.19
482.85	43704.82
483.03	44718.28
483.21	45071.70
483.39	44589.55
483.57	44376.56
483.74	43718.87
483.92	44189.31
484.10	44409.32
484.28	45310.43
484.46	45663.85
484.64	45729.39
484.82	45151.27
485.00	44170.59
485.18	43650.99
485.35	42726.48
485.53	39571.44
485.71	36182.34
485.89	36006.80
486.07	37736.46
486.25	40730.00
486.43	42909.04
486.61	43435.66
486.78	43751.63
486.96	44306.34
487.14	45668.53
487.32	45947.06
487.50	47676.71
487.68	48458.45
487.85	48797.83
488.03	48725.27
488.21	48472.49
488.39	47281.16
488.57	46806.03
488.75	46370.69
488.92	48488.88
489.10	50211.51
489.28	51613.49
489.46	52671.42
489.64	51697.75
489.81	52458.43
489.99	51735.20
490.17	51793.71
490.35	52266.50
490.53	51667.33
490.70	51735.20
490.88	51501.15
491.06	52200.97
491.24	52603.54
491.41	50885.59
491.59	49572.55
491.77	48769.74
491.95	50148.32
492.13	51175.81
492.30	52446.72
492.48	53631.04
492.66	54220.85
492.84	53755.08
493.01	53483.58
493.19	53073.99
493.37	52729.93
493.54	52322.68
493.72	53441.45
493.90	54148.29
494.08	54965.14
494.25	55206.22
494.43	55442.61
494.61	55716.45
494.79	56002.00
494.96	55753.90
495.14	54866.84
495.32	53968.07
495.49	53593.59
495.67	54576.61
495.85	55828.80
496.02	56207.97
496.20	55924.76
496.38	55569.00
496.55	55449.63
496.73	55889.65
496.91	56158.81
497.09	56961.62
497.26	56757.99
497.44	56376.48
497.62	55601.77
497.79	55187.49
497.97	53804.24
498.14	54171.70
498.32	55466.02
498.50	55903.70
498.67	56678.41
498.85	56451.38
499.03	56704.16
499.20	57052.90
499.38	57010.77
499.56	56521.60
499.73	56086.26
499.91	55786.67
500.08	55323.24
500.26	54632.78
500.44	55154.72
500.61	55992.64
500.79	55466.02
500.97	55295.16
501.14	55128.98
501.32	54913.65
501.49	54930.03
501.67	55281.11
501.84	56006.68
502.02	55992.64
502.20	56561.39
502.37	56435.00
502.55	56505.21
502.72	57066.94
502.90	57773.78
503.07	56978.00
503.25	56753.31
503.43	55856.88
503.60	55306.86
503.78	54862.16
503.95	55201.53
504.13	56685.43
504.30	57317.38
504.48	57268.23
504.65	56479.47
504.83	57055.24
505.01	57574.84
505.18	57785.49
505.36	58508.71
505.53	58553.18
505.71	58913.62
505.88	58773.19
506.06	57925.92
506.23	57668.46
506.41	57516.32
506.58	57621.65
506.76	57565.48
506.93	57661.44
507.11	57382.91
507.28	57586.54
507.46	56989.70
507.63	56406.91
507.81	56327.33
507.98	56687.78
508.16	57301.00
508.33	57745.70
508.50	58197.42
508.68	58370.62
508.85	58672.55
509.03	58894.90
509.20	58712.34
509.38	57902.51
509.55	57457.81
509.73	57305.68
509.90	57869.75
510.08	58202.10
510.25	57883.79
510.42	57825.28
510.60	57883.79
510.77	58075.71
510.95	58759.15
511.12	58742.77
511.30	59025.97
511.47	59449.61
511.64	59154.70
511.82	58805.96
511.99	58106.14
512.17	57668.46
512.34	57387.60
512.51	57406.32
512.69	57530.37
512.86	57661.44
513.04	58209.12
513.21	58054.65
513.38	57839.32
513.56	57233.12
513.73	56790.76
513.90	57141.84
514.08	57071.62
514.25	57298.65
514.43	57483.56
514.60	57797.19
514.77	57820.59
514.95	57836.98
515.12	57733.99
515.29	58110.82
515.47	58595.31
515.64	58845.75
515.81	58262.96
515.99	57724.63
516.16	56193.92
516.33	53872.11
516.51	52734.61
516.68	51566.68
516.85	50990.91
517.03	51760.95
517.20	54845.77
517.37	56872.68
517.54	58066.35
517.72	57315.04
517.89	54850.45
518.06	52622.26
518.24	53181.65
518.41	55199.19
518.58	56612.88
518.75	56694.80
518.93	56980.34
519.10	56755.65
519.27	57268.23
519.45	57570.16
519.62	58251.25
519.79	58588.29
519.96	58403.39
520.14	57815.91
520.31	57148.86
520.48	57095.03
520.65	57427.38
520.83	58522.76
521.00	58539.14
521.17	58494.67
521.34	57968.05
521.52	58295.72
521.69	58892.56
521.86	58995.54
522.03	58719.36
522.20	57499.94
522.38	56757.99
522.55	56882.04
522.72	57453.13
522.89	57516.32
523.07	57743.36
523.24	58188.06
523.41	58901.92
523.58	59098.53
523.75	59664.94
523.92	59353.65
524.10	59278.75
524.27	59245.98
524.44	59147.68
524.61	59054.06
524.78	58824.68
524.96	58663.19
525.13	58920.65
525.30	58918.31
525.47	59643.87
525.64	59491.74
525.81	58534.46
525.98	57132.48
526.16	55856.88
526.33	55253.03
526.50	54845.77
526.67	54534.48
526.84	55466.02
527.01	56102.64
527.18	57036.51
527.36	57879.11
527.53	58522.76
527.70	58803.62
527.87	58440.84
528.04	58028.90
528.21	58447.86
528.38	59119.59
528.55	59693.02
528.72	59863.88
528.89	60009.00
529.07	59641.53
529.24	59047.04
529.41	58501.69
529.58	58157.63
529.75	58138.91
529.92	58621.06
530.09	58864.47
530.26	59419.18
530.43	59557.27
530.60	59697.70
530.77	59725.79
530.94	60023.04
531.11	59480.03
531.28	59063.42
531.46	58997.88
531.63	59084.48
531.80	59058.74
531.97	58497.01
532.14	57776.12
532.31	56938.21
532.48	56418.61
532.65	56385.85
532.82	57495.26
532.99	58361.26
533.16	58574.25
533.33	59264.70
533.50	58995.54
533.67	58401.05
533.84	58061.67
534.01	58293.38
534.18	58464.24
534.35	58511.05
534.52	58492.33
534.69	58546.16
534.86	58937.03
535.03	59494.08
535.20	59700.04
535.37	59856.86
535.54	60011.34
535.71	59503.44
535.88	59192.15
536.05	58688.93
536.22	58213.80
536.38	57975.07
536.55	57471.85
536.72	56669.05
536.89	56933.53
537.06	57986.77
537.23	58796.60
537.40	58843.41
537.57	58904.26
537.74	58721.70
537.91	58681.91
538.08	58466.58
538.25	58623.40
538.42	58908.94
538.59	58539.14
538.75	57844.00
538.92	57696.55
539.09	57757.40
539.26	57649.74
539.43	57190.99
539.60	57389.94
539.77	57612.29
539.94	57373.55
540.11	56678.41
540.28	56275.84
540.44	56299.25
540.61	56722.88
540.78	56900.76
540.95	57226.10
541.12	57766.76
541.29	57956.35
541.46	58206.78
541.62	58138.91
541.79	58066.35
541.96	57375.89
542.13	57570.16
542.30	57731.65
542.47	57965.71
542.63	57485.90
542.80	57469.51
542.97	57539.73
543.14	57783.15
543.31	57633.35
543.48	58092.10
543.64	58766.17
543.81	59021.29
543.98	58562.54
544.15	58291.04
544.32	57387.60
544.48	57684.84
544.65	58277.00
544.82	58471.26
544.99	57977.41
545.16	57776.12
545.32	57726.97
545.49	58459.56
545.66	58543.82
545.83	58195.08
546.00	58155.29
546.16	57666.12
546.33	57649.74
546.50	57780.81
546.67	58262.96
546.83	57890.81
547.00	57726.97
547.17	57174.61
547.34	56694.80
547.50	56673.73
547.67	57296.31
547.84	57153.54
548.00	57762.08
548.17	58181.04
548.34	57804.21
548.51	57403.98
548.67	57745.70
548.84	57832.30
549.01	57820.59
549.18	57752.72
549.34	57731.65
549.51	57867.40
549.68	57600.58
549.84	57406.32
550.01	57359.51
550.18	57214.40
550.34	57125.46
550.51	57134.82
550.68	57378.23
550.84	56999.07
551.01	57064.60
551.18	56931.19
551.34	57324.40
551.51	57719.95
551.68	57827.62
551.84	57865.06
552.01	57659.10
552.18	57485.90
552.34	56556.70
552.51	56465.42
552.68	56259.46
552.84	56940.55
553.01	57298.65
553.18	56999.07
553.34	57031.83
553.51	57034.17
553.67	57408.66
553.84	57408.66
554.01	57282.27
554.17	57137.16
554.34	57338.44
554.51	57506.96
554.67	57982.09
554.84	57724.63
555.00	57212.06
555.17	57198.01
555.33	56802.46
555.50	56928.85
555.67	57090.35
555.83	57116.09
556.00	56479.47
556.16	56460.74
556.33	56018.38
556.50	56151.79
556.66	56165.84
556.83	55564.32
556.99	56149.45
557.16	55884.97
557.32	56353.08
557.49	56427.98
557.65	56439.68
557.82	56556.70
557.98	56217.33
558.15	55870.93
558.32	55168.77
558.48	54295.75
558.65	54824.71
558.81	55009.61
558.98	55264.73
559.14	55339.63
559.31	55449.63
559.47	55398.14
559.64	55133.66
559.80	54632.78
559.97	54754.49
560.13	55323.24
560.30	56151.79
560.46	56818.84
560.63	56898.42
560.79	56659.69
560.96	56451.38
561.12	55489.42
561.29	54611.72
561.45	54958.12
561.61	55208.56
561.78	55760.92
561.94	55433.25
562.11	55297.50
562.27	55332.60
562.44	55636.87
562.60	56126.05
562.77	56006.68
562.93	55894.33
563.10	55931.78
563.26	55454.31
563.42	55344.31
563.59	55306.86
563.75	55168.77
563.92	55409.84
564.08	55318.56
564.24	55489.42
564.41	55498.78
564.57	55440.27
564.74	55344.31
564.90	55103.23
565.07	54817.69
565.23	54438.52
565.39	54094.46
565.56	54157.66
565.72	53682.53
565.88	53867.43
566.05	54031.27
566.21	54410.43
566.38	54239.57
566.54	54740.45
566.70	54770.88
566.87	55320.90
567.03	54925.35
567.19	55213.24
567.36	55192.17
567.52	54948.76
567.68	54700.66
567.85	54042.97
568.01	53523.37
568.17	53155.91
568.34	53289.32
568.50	53155.91
568.66	53354.85
568.83	53888.49
568.99	53818.28
569.15	54021.90
569.32	53951.69
569.48	53792.53
569.64	53673.16
569.81	53471.88
569.97	53212.08
570.13	53186.33
570.30	52945.26
570.46	52289.91
570.62	51777.33
570.78	51779.67
570.95	52114.37
571.11	52437.36
571.27	53132.50
571.43	53052.92
571.60	53411.02
571.76	53549.12
571.92	54124.89
572.09	53872.11
572.25	54031.27
572.41	53855.73
572.57	53829.98
572.74	53731.68
572.90	53516.35
573.06	53464.86
573.22	53509.33
573.38	53886.15
573.55	53214.42
573.71	53698.91
573.87	53228.46
574.03	53286.98
574.20	53605.29
574.36	52624.60
574.52	52968.66
574.68	52760.36
574.84	52128.41
575.01	51924.78
575.17	51899.04
575.33	51817.12
575.49	52493.54
575.65	52376.51
575.82	52182.24
575.98	51875.63
576.14	52411.62
576.30	52584.82
576.46	52488.85
576.62	52392.89
576.79	52535.66
576.95	52453.75
577.11	51987.98
577.27	52107.35
577.43	52100.32
577.59	51620.52
577.75	51295.18
577.92	50639.83
578.08	50670.26
578.24	50820.05
578.40	51215.60
578.56	51093.89
578.72	51126.66
578.88	51288.16
579.04	51463.70
579.21	51899.04
579.37	51620.52
579.53	51732.86
579.69	52119.05
579.85	52048.83
580.01	51854.57
580.17	51070.49
580.33	51091.55
580.49	51437.95
580.65	51985.64
580.82	52219.69
580.98	51641.58
581.14	51746.90
581.30	51770.31
581.46	51260.07
581.62	51601.79
581.78	51688.39
581.94	52257.14
582.10	52348.42
582.26	52083.94
582.42	52016.07
582.58	51873.29
582.74	51941.17
582.90	51746.90
583.06	52037.13
583.22	51782.01
583.38	51793.71
583.54	51688.39
583.70	51639.24
583.86	51585.41
584.02	51578.39
584.18	51662.64
584.34	51632.22
584.50	51309.22
584.66	51227.31
584.82	50976.87
584.98	50761.54
585.14	50375.35
585.30	49684.89
