SpectraSuite Data File
++++++++++++++++++++++++++++++++++++
Date: Mon Oct 07 14:53:43 GMT-05:00 2013
User: price-jones
Dark Spectrum Present: No
Reference Spectrum Present: No
Number of Sampled Component Spectra: 1
Spectrometers: USB2+H05261
Integration Time (usec): 100000 (USB2+H05261)
Spectra Averaged: 1 (USB2+H05261)
Boxcar Smoothing: 0 (USB2+H05261)
Correct for Electrical Dark: No (USB2+H05261)
Strobe/Lamp Enabled: No (USB2+H05261)
Correct for Detector Non-linearity: No (USB2+H05261)
Correct for Stray Light: No (USB2+H05261)
Number of Pixels in Processed Spectrum: 2048
>>>>>Begin Processed Spectral Data<<<<<
365.73	0.00
365.92	0.00
366.12	0.00
366.32	0.00
366.52	0.00
366.72	0.00
366.91	0.00
367.11	0.00
367.31	0.00
367.51	0.00
367.70	0.00
367.90	0.00
368.10	0.00
368.30	0.00
368.49	0.00
368.69	0.00
368.89	0.00
369.09	0.00
369.28	0.00
369.48	0.00
369.68	0.00
369.87	0.00
370.07	0.00
370.27	0.00
370.47	662.37
370.66	3314.20
370.86	4060.83
371.06	4386.16
371.25	4491.49
371.45	3946.14
371.65	3566.98
371.84	3370.37
372.04	3716.77
372.24	3967.21
372.44	4154.45
372.63	4088.92
372.83	3875.93
373.03	3492.08
373.22	3162.06
373.42	3297.81
373.62	3679.32
373.81	4133.39
374.01	4056.15
374.21	3749.54
374.40	3417.18
374.60	3590.38
374.79	3871.25
374.99	4475.10
375.19	5013.43
375.38	4968.96
375.58	4711.50
375.78	4681.07
375.97	4788.74
376.17	4915.12
376.37	5032.15
376.56	5018.11
376.76	5329.40
376.95	5596.22
377.15	6078.37
377.35	6443.49
377.54	6644.78
377.74	6801.60
377.93	6740.74
378.13	6684.57
378.33	6296.04
378.52	5895.81
378.72	5570.48
378.91	5362.17
379.11	5369.19
379.31	5085.98
379.50	5041.51
379.70	5549.41
379.89	6155.61
380.09	6221.14
380.28	6759.47
380.48	6630.74
380.68	6595.63
380.87	6518.39
381.07	5928.58
381.26	5486.22
381.46	5132.79
381.65	4945.55
381.85	4762.99
382.04	4592.13
382.24	4283.18
382.43	4042.11
382.63	3995.29
382.83	4109.98
383.02	4070.19
383.22	3943.80
383.41	4084.23
383.61	4297.22
383.80	4917.47
384.00	5465.15
384.19	6186.04
384.39	6684.57
384.58	6656.48
384.78	6436.47
384.97	6394.34
385.17	6099.44
385.36	5778.78
385.56	5465.15
385.75	5577.50
385.95	6258.59
386.14	6892.88
386.34	6724.36
386.53	6396.68
386.72	6092.41
386.92	6153.27
387.11	6441.15
387.31	6932.67
387.50	6733.72
387.70	6464.56
387.89	6429.45
388.09	6427.11
388.28	6438.81
388.48	6656.48
388.67	7030.97
388.86	7793.98
389.06	8191.88
389.25	8688.07
389.45	8805.10
389.64	8784.03
389.84	8622.53
390.03	8531.25
390.22	8582.74
390.42	8807.44
390.61	9530.66
390.81	10001.11
391.00	10296.02
391.19	10017.49
391.39	9827.91
391.58	9387.89
391.78	8720.84
391.97	8449.33
392.16	7693.34
392.36	7239.28
392.55	5844.32
392.75	4685.75
392.94	3880.61
393.13	3761.24
393.33	4301.90
393.52	5680.48
393.71	6956.07
393.91	7822.07
394.10	8437.63
394.29	9217.03
394.49	9834.93
394.68	10684.55
394.88	10539.43
395.07	11019.24
395.26	10855.40
395.46	10703.27
395.65	10101.75
395.84	8868.29
396.04	7478.01
396.23	6162.63
396.42	5170.24
396.62	4877.68
396.81	5736.65
397.00	7054.37
397.19	9090.64
397.39	10562.84
397.58	12271.43
397.77	12812.09
397.97	13434.68
398.16	13359.78
398.35	14274.93
398.55	14221.10
398.74	15096.46
398.93	15229.87
399.12	14991.13
399.32	14403.66
399.51	15063.69
399.70	16006.92
399.90	15885.22
400.09	15859.47
400.28	15594.99
400.47	15929.69
400.67	16374.39
400.86	16924.41
401.05	17135.06
401.24	17137.40
401.44	17383.16
401.63	17366.78
401.82	17240.39
402.01	17383.16
402.21	17603.17
402.40	17647.64
402.59	17263.79
402.78	15988.20
402.97	15983.52
403.17	16580.36
403.36	17125.70
403.55	18155.54
403.74	18396.61
403.93	17404.22
404.13	16095.86
404.32	15936.71
404.51	16465.67
404.70	17846.58
404.89	18094.68
405.09	17624.23
405.28	17256.77
405.47	17081.23
405.66	17106.98
405.85	16718.45
406.05	16453.97
406.24	16482.05
406.43	17043.78
406.62	17348.05
406.81	17921.48
407.00	17364.43
407.20	16833.13
407.39	17123.36
407.58	18017.44
407.77	18523.00
407.96	19112.81
408.15	19407.72
408.34	19403.04
408.54	20255.00
408.73	20479.69
408.92	19976.47
409.11	19421.77
409.30	18604.92
409.49	17322.30
409.68	16463.33
409.87	15845.43
410.07	16601.42
410.26	18038.51
410.45	19112.81
410.64	20231.59
410.83	20308.83
411.02	20765.23
411.21	21577.40
411.40	21589.10
411.59	21638.25
411.78	21055.46
411.98	21102.27
412.17	21736.56
412.36	20961.84
412.55	21029.71
412.74	20718.42
412.93	20390.75
413.12	20498.41
413.31	22043.17
413.50	22349.78
413.69	22714.90
413.88	22279.56
414.07	21432.29
414.26	21771.66
414.45	22424.67
414.64	22476.16
414.83	22457.44
415.02	21865.28
415.22	22029.12
415.41	22785.12
415.60	23484.94
415.79	24215.18
415.98	25144.38
416.17	25022.67
416.36	24285.40
416.55	23941.34
416.74	23510.68
416.93	22625.96
417.12	22256.15
417.31	22649.36
417.50	23103.43
417.69	23857.08
417.88	23606.64
418.07	23538.77
418.26	23098.75
418.45	23520.04
418.64	24053.69
418.83	24821.38
419.02	24332.21
419.21	24507.75
419.39	23278.97
419.58	22419.99
419.77	22590.85
419.96	23323.44
420.15	24570.94
420.34	25439.28
420.53	26331.03
420.72	26558.06
420.91	26478.48
421.10	26153.15
421.29	25759.94
421.48	25060.12
421.67	26494.86
421.86	25546.95
422.05	24170.71
422.24	21551.65
422.43	21233.34
422.61	23618.35
422.80	25142.03
422.99	25289.49
423.18	24704.35
423.37	23711.97
423.56	24304.12
423.75	24367.32
423.94	24865.85
424.13	23646.43
424.32	23988.15
424.50	23857.08
424.69	23487.28
424.88	23590.26
425.07	24107.52
425.26	23557.49
425.45	23580.90
425.64	23014.49
425.83	22738.30
426.01	24233.91
426.20	24577.97
426.39	25053.09
426.58	22923.21
426.77	21488.46
426.96	20198.82
427.15	20954.82
427.33	23070.66
427.52	23939.00
427.71	24032.62
427.90	23569.19
428.09	23445.15
428.28	23075.34
428.46	22562.76
428.65	21797.41
428.84	22139.13
429.03	23033.21
429.22	21682.72
429.40	20599.05
429.59	18841.31
429.78	16233.96
429.97	16489.07
430.16	16716.11
430.34	16765.26
430.53	16699.72
430.72	17308.26
430.91	18892.80
431.10	21876.99
431.28	26054.84
431.47	28184.73
431.66	28837.74
431.85	26008.03
432.03	24121.56
432.22	22892.78
432.41	23768.14
432.60	26546.36
432.79	27419.38
432.97	28694.97
433.16	27620.66
433.35	25556.31
433.54	22806.18
433.72	21104.61
433.91	21949.54
434.10	24535.84
434.28	26218.68
434.47	27304.69
434.66	27480.23
434.85	26593.17
435.03	26469.12
435.22	26948.93
435.41	28999.24
435.59	28685.61
435.78	29177.12
435.97	29846.51
436.16	30057.16
436.34	29355.00
436.53	29017.96
436.72	29134.99
436.90	27789.18
437.09	27290.65
437.28	27033.19
437.46	28098.13
437.65	27819.61
437.84	26071.23
438.02	23576.22
438.21	23480.25
438.40	24943.09
438.58	27292.99
438.77	27618.32
438.96	27910.89
439.14	29514.16
439.33	30045.46
439.52	30281.85
439.70	29359.68
439.89	28940.72
440.08	28114.52
440.26	28402.40
440.45	28856.46
440.63	31042.53
440.82	32568.55
441.01	32189.39
441.19	32189.39
441.38	31842.99
441.57	33301.14
441.75	34251.40
441.94	34536.94
442.12	33734.14
442.31	34714.83
442.50	34745.25
442.68	34260.76
442.87	34167.14
443.05	33317.53
443.24	33759.89
443.43	34122.67
443.61	35049.52
443.80	35866.37
443.98	33600.73
444.17	33596.05
444.35	35461.46
444.54	35852.33
444.73	35667.42
444.91	34478.43
445.10	33207.52
445.28	31920.23
445.47	30986.35
445.65	31470.84
445.84	32187.05
446.02	33455.62
446.21	33846.49
446.39	33820.74
446.58	34171.82
446.77	34700.78
446.95	35206.34
447.14	36268.94
447.32	36919.61
447.51	35651.04
447.69	34328.64
447.88	33558.60
448.06	34239.70
448.25	35126.76
448.43	35828.92
448.62	34864.62
448.80	34321.62
448.99	34899.73
449.17	35164.21
449.36	34948.88
449.54	36397.67
449.73	36701.94
449.91	37244.94
450.10	38630.54
450.28	39250.78
450.46	38525.22
450.65	38651.61
450.83	38597.77
451.02	37605.39
451.20	37703.69
451.39	37684.97
451.57	37322.18
451.76	37067.06
451.94	37006.21
452.13	36690.24
452.31	34955.90
452.49	32788.56
452.68	33268.37
452.86	33024.96
453.05	34155.44
453.23	35232.08
453.42	35765.73
453.60	36865.78
453.78	37048.34
453.97	36861.10
454.15	36987.49
454.34	36025.53
454.52	36229.15
454.70	35571.46
454.89	35737.64
455.07	35835.94
455.26	36605.98
455.44	37546.87
455.62	38223.29
455.81	38309.89
455.99	38557.99
456.17	37694.33
456.36	37844.12
456.54	38726.50
456.73	38967.58
456.91	39782.09
457.09	39606.55
457.28	40353.18
457.46	38710.12
457.64	38756.93
457.83	37647.52
458.01	37024.93
458.19	37179.41
458.38	38300.53
458.56	39461.43
458.74	38972.26
458.93	38876.30
459.11	38359.04
459.29	37907.32
459.48	38202.22
459.66	37963.49
459.84	38684.37
460.03	39131.42
460.21	38855.23
460.39	39791.45
460.57	39702.51
460.76	40526.38
460.94	40297.00
461.12	39667.40
461.31	39779.74
461.49	39840.60
461.67	39667.40
461.85	41104.49
462.04	40793.20
462.22	40957.03
462.40	40526.38
462.59	40816.60
462.77	40706.60
462.95	40486.59
463.13	40760.43
463.32	39786.77
463.50	39683.78
463.68	39810.17
463.86	39676.76
464.05	39405.26
464.23	38546.28
464.41	38363.72
464.59	37778.59
464.78	39786.77
464.96	39531.65
465.14	38616.50
465.32	40123.80
465.50	40842.35
465.69	41654.51
465.87	40739.36
466.05	39353.77
466.23	37893.27
466.41	36945.36
466.60	38429.26
466.78	38188.18
466.96	38787.36
467.14	39061.20
467.32	39285.89
467.51	40147.21
467.69	37663.90
467.87	38377.76
468.05	39688.46
468.23	39985.71
468.41	40004.44
468.60	39601.86
468.78	40039.54
468.96	39667.40
469.14	40568.51
469.32	40769.79
469.50	38916.09
469.69	39077.58
469.87	38637.56
470.05	38174.14
470.23	38532.24
470.41	38822.47
470.59	39388.88
470.77	39407.60
470.95	40261.90
471.14	40498.29
471.32	40552.12
471.50	42473.70
471.68	42555.62
471.86	42780.31
472.04	43360.76
472.22	43543.33
472.40	41787.92
472.58	40928.95
472.77	40479.57
472.95	41504.72
473.13	42408.17
473.31	41273.01
473.49	41776.22
473.67	42707.76
473.85	42923.08
474.03	43810.15
474.21	43807.81
474.39	44268.89
474.57	44362.51
474.75	44477.20
474.93	43934.20
475.12	43203.95
475.30	43122.03
475.48	43393.53
475.66	43592.48
475.84	43484.81
476.02	42953.51
476.20	42328.59
476.38	43131.39
476.56	44336.77
476.74	44673.81
476.92	45343.20
477.10	45881.52
477.28	46728.80
477.46	47042.43
477.64	47566.71
477.82	47540.96
478.00	47592.45
478.18	46609.43
478.36	46969.87
478.54	46899.65
478.72	47119.66
478.90	47995.03
479.08	48917.20
479.26	49780.85
479.44	49551.48
479.62	49275.30
479.80	49106.78
479.98	49801.92
480.16	49727.02
480.34	49177.00
480.52	50045.33
480.70	49951.71
480.88	49937.67
481.06	50686.64
481.24	50930.06
481.41	51646.26
481.59	51840.53
481.77	51648.60
481.95	51400.50
482.13	50871.54
482.31	51330.29
482.49	51859.25
482.67	51571.36
482.85	52051.17
483.03	52526.30
483.21	52736.95
483.39	52846.96
483.57	52030.11
483.74	51903.72
483.92	52027.77
484.10	51786.69
484.28	53095.05
484.46	53148.88
484.64	53595.93
484.82	53109.10
485.00	52542.69
485.18	52025.43
485.35	50845.80
485.53	48119.07
485.71	44189.31
485.89	43466.09
486.07	45694.28
486.25	49059.97
486.43	50913.67
486.61	51648.60
486.78	51688.39
486.96	51903.72
487.14	53069.31
487.32	53652.10
487.50	54625.76
487.68	55405.16
487.85	55777.31
488.03	55725.81
488.21	55519.85
488.39	54990.89
488.57	54260.64
488.75	54028.93
488.92	54749.81
489.10	56491.17
489.28	57719.95
489.46	58417.43
489.64	58071.03
489.81	58379.98
489.99	57893.15
490.17	57928.26
490.35	58370.62
490.53	58007.84
490.70	57771.44
490.88	57483.56
491.06	58515.73
491.24	58527.44
491.41	57668.46
491.59	56048.81
491.77	55213.24
491.95	56542.66
492.13	57237.80
492.30	58457.22
492.48	59262.36
492.66	59533.87
492.84	59489.40
493.01	59192.15
493.19	59030.65
493.37	58637.44
493.54	58368.28
493.72	59018.95
493.90	59557.27
494.08	60374.12
494.25	60636.26
494.43	60605.83
494.61	61155.86
494.79	61226.07
494.96	60849.25
495.14	60322.63
495.32	59763.24
495.49	59051.72
495.67	59915.37
495.85	61132.45
496.02	61509.28
496.20	61446.08
496.38	61181.60
496.55	60884.36
496.73	61588.86
496.91	61485.87
497.09	61965.68
497.26	62176.33
497.44	61689.50
497.62	61448.42
497.79	60631.58
497.97	59468.33
498.14	59664.94
498.32	60441.99
498.50	61347.78
498.67	62075.69
498.85	61719.93
499.03	61902.49
499.20	62024.20
499.38	62162.29
499.56	61984.41
499.73	61630.99
499.91	61265.86
500.08	60729.88
500.26	60161.13
500.44	60654.98
500.61	61261.18
500.79	61095.00
500.97	60669.03
501.14	60526.25
501.32	60390.50
501.49	60346.03
501.67	60652.64
501.84	61038.83
502.02	61286.93
502.20	61724.61
502.37	61881.42
502.55	61694.18
502.72	62190.37
502.90	62632.74
503.07	62300.38
503.25	62181.01
503.43	61347.78
503.60	60853.93
503.78	60268.79
503.95	60463.06
504.13	61937.60
504.30	62433.79
504.48	62293.36
504.65	62080.37
504.83	62003.13
505.01	62660.82
505.18	62995.52
505.36	63575.97
505.53	63554.91
505.71	63702.36
505.88	63714.06
506.06	63234.25
506.23	63096.16
506.41	62625.71
506.58	62789.55
506.76	62695.93
506.93	62812.96
507.11	62459.54
507.28	62632.74
507.46	62195.06
507.63	61602.90
507.81	61542.05
507.98	61733.97
508.16	62377.62
508.33	62752.10
508.50	63241.28
508.68	63451.92
508.85	63756.19
509.03	63903.65
509.20	63730.45
509.38	63152.33
509.55	62391.66
509.73	62394.00
509.90	62803.59
510.08	63288.09
510.25	63091.48
510.42	62878.49
510.60	62850.41
510.77	63096.16
510.95	63604.06
511.12	63721.08
511.30	63866.20
511.47	64170.47
511.64	64116.64
511.82	63819.39
511.99	63000.20
512.17	62897.22
512.34	62602.31
512.51	62719.34
512.69	62808.28
512.86	62635.08
513.04	63192.12
513.21	63229.57
513.38	62864.45
513.56	62475.92
513.73	61921.21
513.90	62298.04
514.08	62195.06
514.25	62504.01
514.43	62489.96
514.60	62663.16
514.77	62808.28
514.95	62869.13
515.12	62855.09
515.29	63002.54
515.47	63543.20
515.64	63690.66
515.81	63353.62
515.99	62831.68
516.16	61565.45
516.33	59636.85
516.51	58274.66
516.68	57977.41
516.85	57382.91
517.03	57780.81
517.20	59877.93
517.37	62101.43
517.54	63047.01
517.72	62578.90
517.89	60474.76
518.06	58492.33
518.24	58482.97
518.41	60374.12
518.58	61778.44
518.75	61949.30
518.93	62049.94
519.10	61907.17
519.27	62340.17
519.45	62504.01
519.62	62997.86
519.79	63531.50
519.96	63412.13
520.14	62960.41
520.31	62178.67
520.48	62003.13
520.65	62529.75
520.83	63236.59
521.00	63627.46
521.17	63421.50
521.34	63035.31
521.52	63330.22
521.69	63718.74
521.86	64205.58
522.03	63856.84
522.20	62974.45
522.38	61708.22
522.55	61602.90
522.72	62464.22
522.89	62548.48
523.07	62745.08
523.24	63103.18
523.41	63608.74
523.58	64243.02
523.75	64498.14
523.92	64266.43
524.10	64027.70
524.27	64161.11
524.44	63868.54
524.61	63950.46
524.78	63810.03
524.96	63634.48
525.13	63756.19
525.30	63819.39
525.47	64254.73
525.64	64198.55
525.81	63449.58
525.98	62358.89
526.16	60975.64
526.33	60652.64
526.50	60090.91
526.67	59774.94
526.84	60348.37
527.01	61455.45
527.18	61904.83
527.36	62672.52
527.53	63634.48
527.70	63920.03
527.87	63327.87
528.04	62958.07
528.21	63304.47
528.38	63938.75
528.55	64336.65
528.72	64505.16
528.89	64867.95
529.07	64495.80
529.24	64081.53
529.41	63419.16
529.58	62883.17
529.75	62997.86
529.92	63454.26
530.09	63821.73
530.26	64210.26
530.43	64413.88
530.60	64528.57
530.77	64488.78
530.94	64669.00
531.11	64184.51
531.28	63980.88
531.46	63749.17
531.63	63992.59
531.80	63798.32
531.97	63435.54
532.14	62787.21
532.31	62017.17
532.48	61270.54
532.65	61490.55
532.82	62092.07
532.99	63391.07
533.16	63248.30
533.33	63877.90
533.50	63831.09
533.67	63269.36
533.84	62782.53
534.01	63180.42
534.18	63238.93
534.35	63435.54
534.52	63180.42
534.69	63510.44
534.86	63767.90
535.03	64090.89
535.20	64353.03
535.37	64720.49
535.54	64701.77
535.71	64397.50
535.88	64224.30
536.05	63554.91
536.22	63159.36
536.38	63079.78
536.55	62642.10
536.72	62106.12
536.89	62000.79
537.06	62834.02
537.23	63430.86
537.40	63454.26
537.57	63484.69
537.74	63451.92
537.91	63442.56
538.08	63381.71
538.25	63554.91
538.42	63615.76
538.59	63594.70
538.75	62798.91
538.92	62665.50
539.09	62515.71
539.26	62351.87
539.43	62166.97
539.60	62337.83
539.77	62475.92
539.94	62412.73
540.11	61740.99
540.28	61244.80
540.44	61375.87
540.61	61740.99
540.78	61785.46
540.95	62157.61
541.12	62459.54
541.29	62611.67
541.46	62932.32
541.62	63089.14
541.79	62892.54
541.96	62466.56
542.13	62377.62
542.30	62698.27
542.47	62761.47
542.63	62506.35
542.80	62274.63
542.97	62602.31
543.14	62349.53
543.31	62293.36
543.48	62831.68
543.64	63458.94
543.81	63854.50
543.98	63655.55
544.15	63070.42
544.32	62464.22
544.48	62426.77
544.65	62988.50
544.82	63409.79
544.99	63004.88
545.16	62777.85
545.32	62340.17
545.49	63011.90
545.66	63278.72
545.83	63224.89
546.00	62712.31
546.16	62614.01
546.33	62445.49
546.50	62606.99
546.67	63065.73
546.83	62511.03
547.00	62709.97
547.17	61984.41
547.34	61586.52
547.50	61591.20
547.67	61766.74
547.84	61928.23
548.00	62251.23
548.17	62873.81
548.34	62410.38
548.51	62567.20
548.67	62567.20
548.84	62770.83
549.01	62628.05
549.18	62379.96
549.34	62365.91
549.51	62592.95
549.68	62429.11
549.84	62115.48
550.01	62227.82
550.18	61895.47
550.34	62035.90
550.51	62164.63
550.68	62316.76
550.84	61703.54
551.01	62007.81
551.18	61841.63
551.34	62052.28
551.51	62316.76
551.68	62592.95
551.84	62763.81
552.01	62646.78
552.18	62333.15
552.34	61488.21
552.51	61446.08
552.68	61174.58
552.84	61752.69
553.01	62003.13
553.18	61834.61
553.34	61923.55
553.51	62049.94
553.67	62281.66
553.84	62433.79
554.01	62450.17
554.17	62106.12
554.34	62127.18
554.51	62171.65
554.67	62443.15
554.84	62218.46
555.00	62040.58
555.17	61939.94
555.33	61668.44
555.50	61993.77
555.67	61883.76
555.83	61921.21
556.00	61413.32
556.16	61528.00
556.33	61127.77
556.50	60975.64
556.66	60928.83
556.83	60676.05
556.99	60931.17
557.16	61050.53
557.32	61240.12
557.49	61457.79
557.65	61642.69
557.82	61403.95
557.98	61446.08
558.15	60919.46
558.32	60172.83
558.48	59414.50
558.65	59931.76
558.81	59826.43
558.98	60266.45
559.14	60287.52
559.31	60350.71
559.47	60537.96
559.64	60086.23
559.80	59826.43
559.97	59985.59
560.13	60182.19
560.30	61097.34
560.46	61518.64
560.63	61738.65
560.79	61771.42
560.96	61272.88
561.12	60477.10
561.29	59667.28
561.45	59632.17
561.61	60142.41
561.78	60460.72
561.94	60374.12
562.11	60371.78
562.27	60310.92
562.44	60507.53
562.60	60783.71
562.77	61078.62
562.93	60935.85
563.10	60832.86
563.26	60334.33
563.42	60303.90
563.59	60074.53
563.75	60140.07
563.92	60364.76
564.08	60210.28
564.24	60495.83
564.41	60104.96
564.57	60252.41
564.74	60210.28
564.90	60119.00
565.07	60009.00
565.23	59648.55
565.39	59159.38
565.56	59084.48
565.72	58841.07
565.88	59283.43
566.05	59229.60
566.21	59484.72
566.38	59751.54
566.54	59454.29
566.70	59891.97
566.87	60126.02
567.03	60116.66
567.19	60439.65
567.36	59948.14
567.52	59908.35
567.68	59873.24
567.85	59206.19
568.01	58878.52
568.17	58562.54
568.34	58529.78
568.50	58658.51
568.66	58721.70
568.83	59023.63
568.99	59025.97
569.15	59229.60
569.32	59243.64
569.48	58901.92
569.64	59021.29
569.81	58482.97
569.97	58482.97
570.13	58513.39
570.30	57916.56
570.46	57623.99
570.62	57289.29
570.78	57130.14
570.95	57317.38
571.11	57764.42
571.27	58162.31
571.43	58365.94
571.60	58431.47
571.76	58658.51
571.92	58824.68
572.09	59154.70
572.25	59035.33
572.41	59147.68
572.57	58908.94
572.74	58864.47
572.90	58459.56
573.06	58623.40
573.22	58447.86
573.38	58592.97
573.55	58347.21
573.71	58611.70
573.87	58534.46
574.03	58403.39
574.20	58576.59
574.36	58340.19
574.52	58174.02
574.68	57893.15
574.84	57504.62
575.01	57080.98
575.17	57186.31
575.33	57207.37
575.49	57326.74
575.65	57769.10
575.82	57441.43
575.98	57319.72
576.14	57619.31
576.30	57881.45
576.46	57965.71
576.62	57794.85
576.79	57593.56
576.95	57682.50
577.11	57612.29
577.27	57574.84
577.43	57839.32
577.59	57085.67
577.75	56879.70
577.92	56346.06
578.08	56374.14
578.24	56289.88
578.40	56488.83
578.56	56795.44
578.72	56811.82
578.88	56954.60
579.04	57361.85
579.21	57202.69
579.37	57118.43
579.53	57448.45
579.69	57235.46
579.85	57368.87
580.01	57291.63
580.17	56954.60
580.33	56765.01
580.49	57064.60
580.65	57139.50
580.82	57354.83
580.98	57029.49
581.14	57179.29
581.30	57371.21
581.46	57132.48
581.62	57233.12
581.78	57476.54
581.94	57413.34
582.10	57207.37
582.26	57518.67
582.42	57247.16
582.58	57064.60
582.74	57478.88
582.90	57408.66
583.06	57345.47
583.22	57214.40
583.38	57228.44
583.54	57085.67
583.70	57183.97
583.86	57240.14
584.02	56853.95
584.18	57003.75
584.34	56816.50
584.50	56921.83
584.66	56776.72
584.82	56271.16
584.98	56332.01
585.14	56009.02
