SpectraSuite Data File
++++++++++++++++++++++++++++++++++++
Date: Mon Oct 07 14:53:37 GMT-05:00 2013
User: price-jones
Dark Spectrum Present: No
Reference Spectrum Present: No
Number of Sampled Component Spectra: 1
Spectrometers: USB2+H05261
Integration Time (usec): 100000 (USB2+H05261)
Spectra Averaged: 1 (USB2+H05261)
Boxcar Smoothing: 0 (USB2+H05261)
Correct for Electrical Dark: No (USB2+H05261)
Strobe/Lamp Enabled: No (USB2+H05261)
Correct for Detector Non-linearity: No (USB2+H05261)
Correct for Stray Light: No (USB2+H05261)
Number of Pixels in Processed Spectrum: 2048
>>>>>Begin Processed Spectral Data<<<<<
365.73	0.00
365.92	0.00
366.12	0.00
366.32	0.00
366.52	0.00
366.72	0.00
366.91	0.00
367.11	0.00
367.31	0.00
367.51	0.00
367.70	0.00
367.90	0.00
368.10	0.00
368.30	0.00
368.49	0.00
368.69	0.00
368.89	0.00
369.09	0.00
369.28	0.00
369.48	0.00
369.68	0.00
369.87	0.00
370.07	0.00
370.27	0.00
370.47	690.46
370.66	3515.48
370.86	4166.15
371.06	4568.73
371.25	4531.28
371.45	4161.47
371.65	3829.12
371.84	3534.21
372.04	3761.24
372.24	4147.43
372.44	4182.54
372.63	4290.20
372.83	3992.95
373.03	3461.65
373.22	3286.11
373.42	3356.33
373.62	3840.82
373.81	4273.82
374.01	4386.16
374.21	3880.61
374.40	3566.98
374.60	3698.05
374.79	4086.58
374.99	4835.55
375.19	5221.74
375.38	5210.03
375.58	4947.89
375.78	4732.56
375.97	4924.49
376.17	5039.17
376.37	5130.45
376.56	5128.11
376.76	5593.88
376.95	5881.77
377.15	6310.08
377.35	6473.92
377.54	6860.11
377.74	6878.83
377.93	6878.83
378.13	6888.20
378.33	6637.76
378.52	6078.37
378.72	5748.36
378.91	5654.73
379.11	5530.69
379.31	5245.14
379.50	5247.48
379.70	5722.61
379.89	6143.91
380.09	6464.56
380.28	6813.30
380.48	6778.19
380.68	6511.37
380.87	6513.71
381.07	6150.93
381.26	5722.61
381.46	5296.63
381.65	5172.58
381.85	5093.01
382.04	4765.33
382.24	4428.29
382.43	4175.52
382.63	4138.07
382.83	4152.11
383.02	4294.88
383.22	4238.71
383.41	4287.86
383.61	4491.49
383.80	5064.92
384.00	5680.48
384.19	6230.51
384.39	6778.19
384.58	6810.96
384.78	6754.79
384.97	6555.84
385.17	6246.89
385.36	5865.38
385.56	5542.39
385.75	5853.68
385.95	6366.26
386.14	6995.86
386.34	7131.61
386.53	6670.53
386.72	6349.87
386.92	6286.68
387.11	6775.85
387.31	6965.43
387.50	6937.35
387.70	6724.36
387.89	6530.09
388.09	6771.17
388.28	6637.76
388.48	6719.68
388.67	7215.87
388.86	7927.39
389.06	8566.36
389.25	9071.92
389.45	9245.12
389.64	9008.72
389.84	8936.17
390.03	8868.29
390.22	8835.52
390.42	9067.24
390.61	9554.07
390.81	10263.25
391.00	10656.46
391.19	10370.91
391.39	10104.09
391.58	9556.41
391.78	9109.36
391.97	8634.24
392.16	7920.37
392.36	7442.90
392.55	6043.26
392.75	4758.31
392.94	3882.95
393.13	3758.90
393.33	4582.77
393.52	5811.55
393.71	7049.69
393.91	8063.15
394.10	8636.58
394.29	9483.85
394.49	10167.29
394.68	11044.99
394.88	11080.10
395.07	11623.10
395.26	11377.34
395.46	11154.99
395.65	10277.29
395.84	9076.60
396.04	7669.94
396.23	6202.42
396.42	5128.11
396.62	4863.63
396.81	5743.67
397.00	7473.33
397.19	9413.63
397.39	11241.59
397.58	12664.64
397.77	13193.60
397.97	13530.64
398.16	14228.12
398.35	14387.27
398.55	14991.13
398.74	15772.87
398.93	16102.89
399.12	15845.43
399.32	14895.17
399.51	15602.01
399.70	16482.05
399.90	16273.74
400.09	16355.66
400.28	16252.68
400.47	16444.60
400.67	17018.04
400.86	17689.77
401.05	17539.97
401.24	17453.37
401.44	17593.81
401.63	17851.27
401.82	17675.73
402.01	17970.63
402.21	18157.88
402.40	18274.90
402.59	17818.50
402.78	16980.59
402.97	16238.64
403.17	16842.50
403.36	17972.97
403.55	18843.65
403.74	19183.03
403.93	18328.74
404.13	16851.86
404.32	16535.88
404.51	17219.32
404.70	18899.83
404.89	18221.07
405.09	18118.09
405.28	17774.03
405.47	17607.85
405.66	17909.78
405.85	17156.13
406.05	16542.91
406.24	17071.87
406.43	17731.90
406.62	18403.63
406.81	18888.12
407.00	17792.75
407.20	17284.86
407.39	17212.30
407.58	18448.10
407.77	19061.32
407.96	19728.38
408.15	19964.77
408.34	19866.47
408.54	20828.43
408.73	21067.16
408.92	20561.61
409.11	20109.88
409.30	19248.57
409.49	17949.57
409.68	17132.72
409.87	16453.97
410.07	17544.66
410.26	18803.86
410.45	19861.79
410.64	20404.79
410.83	20924.39
411.02	21514.20
411.21	22501.91
411.40	22038.48
411.59	22338.07
411.78	21963.59
411.98	22010.40
412.17	22394.25
412.36	21694.43
412.55	21994.01
412.74	21425.26
412.93	20732.47
413.12	21123.33
413.31	23000.44
413.50	22974.70
413.69	23559.83
413.88	22995.76
414.07	22218.71
414.26	22490.21
414.45	23515.36
414.64	23431.10
414.83	23468.55
415.02	22911.50
415.22	22707.88
415.41	22977.04
415.60	24194.12
415.79	25074.16
415.98	25703.76
416.17	25736.53
416.36	25223.95
416.55	24645.84
416.74	23840.70
416.93	23438.12
417.12	23131.51
417.31	23388.97
417.50	23939.00
417.69	24753.51
417.88	24678.61
418.07	24210.50
418.26	24025.60
418.45	23971.77
418.64	25025.01
418.83	25991.65
419.02	25448.64
419.21	25553.97
419.39	24098.16
419.58	23105.77
419.77	22888.10
419.96	23969.43
420.15	25413.54
420.34	26164.85
420.53	27103.40
420.72	27632.36
420.91	27325.75
421.10	27037.87
421.29	26728.92
421.48	25696.74
421.67	27187.66
421.86	26319.32
422.05	25034.37
422.24	22473.82
422.43	21715.49
422.61	24180.07
422.80	26574.44
422.99	26478.48
423.18	25254.38
423.37	24861.17
423.56	24690.31
423.75	25092.88
423.94	26319.32
424.13	24393.06
424.32	24868.19
424.50	24833.08
424.69	24297.10
424.88	24428.17
425.07	24500.73
425.26	24383.70
425.45	24067.73
425.64	23843.04
425.83	23700.26
426.01	25383.11
426.20	25748.23
426.39	25846.54
426.58	23838.36
426.77	21933.16
426.96	21336.32
427.15	21748.26
427.33	23817.29
427.52	24931.39
427.71	24947.77
427.90	24702.01
428.09	24252.63
428.28	24009.22
428.46	23007.47
428.65	22815.54
428.84	22862.35
429.03	23599.62
429.22	22295.94
429.40	21436.97
429.59	19264.95
429.78	17050.80
429.97	16989.95
430.16	17502.53
430.34	17488.48
430.53	17090.59
430.72	17947.23
430.91	19424.11
431.10	22878.74
431.28	27154.90
431.47	29486.07
431.66	29593.73
431.85	27206.39
432.03	24940.75
432.22	23747.08
432.41	24657.54
432.60	27388.95
432.79	28154.30
432.97	28706.67
433.16	28795.61
433.35	26331.03
433.54	23503.66
433.72	21919.12
433.91	22335.73
434.10	25202.89
434.28	27035.53
434.47	28379.00
434.66	27910.89
434.85	27608.96
435.03	27417.04
435.22	28210.48
435.41	29596.07
435.59	29879.28
435.78	30221.00
435.97	30815.49
436.16	31482.55
436.34	31243.81
436.53	29963.54
436.72	29881.62
436.90	28383.68
437.09	28376.66
437.28	27915.57
437.46	28556.88
437.65	28877.53
437.84	27239.15
438.02	24779.25
438.21	24610.73
438.40	26008.03
438.58	27871.10
438.77	28666.88
438.96	28882.21
439.14	30239.72
439.33	31379.56
439.52	31470.84
439.70	30799.11
439.89	29947.15
440.08	29907.37
440.26	29116.26
440.45	30206.95
440.63	32158.96
440.82	34071.18
441.01	33558.60
441.19	33170.07
441.38	33429.87
441.57	34824.83
441.75	35168.89
441.94	35613.59
442.12	35222.72
442.31	36023.19
442.50	35407.62
442.68	35505.93
442.87	34614.18
443.05	34199.91
443.24	35035.48
443.43	35468.48
443.61	36280.64
443.80	36383.63
443.98	35047.18
444.17	34717.17
444.35	37106.85
444.54	37654.54
444.73	37310.48
444.91	35110.38
445.10	34270.12
445.28	32488.98
445.47	32109.81
445.65	32659.84
445.84	33113.90
446.02	34543.97
446.21	34656.31
446.39	34941.86
446.58	35721.26
446.77	35945.95
446.95	36685.56
447.14	37549.21
447.32	37872.21
447.51	36788.54
447.69	35871.05
447.88	35072.93
448.06	35505.93
448.25	36641.09
448.43	36947.70
448.62	36245.54
448.80	35906.16
448.99	36404.69
449.17	36673.85
449.36	36556.83
449.54	37691.99
449.73	38550.96
449.91	38550.96
450.10	39559.73
450.28	40154.23
450.46	39725.91
450.65	40357.86
450.83	39643.99
451.02	38824.81
451.20	38541.60
451.39	38672.67
451.57	38675.01
451.76	38546.28
451.94	38185.84
452.13	37574.96
452.31	35908.50
452.49	34139.05
452.68	34892.71
452.86	35290.60
453.05	35473.16
453.23	36257.24
453.42	37235.58
453.60	37951.79
453.78	38260.74
453.97	38052.43
454.15	38127.33
454.34	37343.25
454.52	37605.39
454.70	36666.83
454.89	36811.95
455.07	37062.38
455.26	37989.24
455.44	39075.24
455.62	39784.43
455.81	39604.20
455.99	39744.64
456.17	39318.66
456.36	39683.78
456.54	40737.02
456.73	40194.02
456.91	41053.00
457.09	41242.58
457.28	41949.42
457.46	40755.75
457.64	40261.90
457.83	39313.98
458.01	38153.07
458.19	39012.05
458.38	39068.22
458.56	40465.52
458.74	40383.60
458.93	39564.42
459.11	39599.52
459.29	39283.55
459.48	39597.18
459.66	39140.78
459.84	39746.98
460.03	40313.39
460.21	40350.84
460.39	41212.15
460.57	41186.41
460.76	41691.96
460.94	41766.86
461.12	40959.38
461.31	41385.35
461.49	41544.51
461.67	41212.15
461.85	42286.46
462.04	42209.22
462.22	42700.73
462.40	42480.72
462.59	42394.12
462.77	42176.45
462.95	42389.44
463.13	42178.79
463.32	41268.33
463.50	41067.04
463.68	41184.07
463.86	41474.29
464.05	40947.67
464.23	39849.96
464.41	39833.58
464.59	39199.29
464.78	41130.23
464.96	41041.29
465.14	40383.60
465.32	41546.85
465.50	42735.84
465.69	42632.86
465.87	42085.17
466.05	41319.82
466.23	39051.84
466.41	38363.72
466.60	39618.25
466.78	39903.79
466.96	39990.39
467.14	40767.45
467.32	41443.87
467.51	41436.84
467.69	39321.00
467.87	40463.18
468.05	41106.83
468.23	41137.26
468.41	40992.14
468.60	40821.28
468.78	41514.08
468.96	40952.35
469.14	41720.05
469.32	42160.07
469.50	40650.42
469.69	40879.80
469.87	39746.98
470.05	39641.65
470.23	39746.98
470.41	39903.79
470.59	40802.56
470.77	40479.57
470.95	41361.95
471.14	41706.01
471.32	42185.82
471.50	44018.46
471.68	44369.54
471.86	44737.00
472.04	44596.57
472.22	44760.40
472.40	42925.42
472.58	42660.94
472.77	41736.43
472.95	42815.42
473.13	44261.87
473.31	42639.88
473.49	43229.69
473.67	43517.58
473.85	43985.69
474.03	45312.77
474.21	45308.09
474.39	45883.86
474.57	46101.53
474.75	46000.89
474.93	45439.16
475.12	44662.10
475.30	44809.56
475.48	44442.09
475.66	45528.10
475.84	44598.91
476.02	44596.57
476.20	44121.44
476.38	44811.90
476.56	45947.06
476.74	46653.90
476.92	46555.60
477.10	47398.19
477.28	48449.09
477.46	48395.26
477.64	48736.98
477.82	48535.69
478.00	48982.73
478.18	48336.74
478.36	48369.51
478.54	48264.19
478.72	48633.99
478.90	49504.67
479.08	50490.04
479.26	50908.99
479.44	50892.61
479.62	50595.36
479.80	50356.63
479.98	50611.74
480.16	50780.26
480.34	50398.76
480.52	51049.42
480.70	51000.27
480.88	51522.21
481.06	51835.84
481.24	51774.99
481.41	52713.55
481.59	53001.43
481.77	53298.68
481.95	52601.20
482.13	52409.28
482.31	52491.19
482.49	53088.03
482.67	52591.84
482.85	52982.71
483.03	53696.57
483.21	53972.75
483.39	53666.14
483.57	53251.87
483.74	53139.52
483.92	53174.63
484.10	53301.02
484.28	53778.49
484.46	54431.50
484.64	54848.11
484.82	53991.48
485.00	53624.01
485.18	53043.56
485.35	52170.54
485.53	49474.24
485.71	45930.67
485.89	44994.46
486.07	46850.50
486.25	50335.56
486.43	52296.93
486.61	52912.49
486.78	52870.36
486.96	53132.50
487.14	54206.81
487.32	54752.15
487.50	55793.69
487.68	56310.95
487.85	56643.30
488.03	56781.40
488.21	56537.98
488.39	56072.21
488.57	55327.92
488.75	55264.73
488.92	55910.72
489.10	57656.76
489.28	58810.64
489.46	59327.90
489.64	59018.95
489.81	59487.06
489.99	59004.91
490.17	58918.31
490.35	59145.34
490.53	58986.18
490.70	58663.19
490.88	58494.67
491.06	59217.89
491.24	59255.34
491.41	58623.40
491.59	57205.03
491.77	56587.13
491.95	57368.87
492.13	58391.68
492.30	59316.20
492.48	60123.68
492.66	60643.28
492.84	60378.80
493.01	60278.16
493.19	59856.86
493.37	59559.61
493.54	59243.64
493.72	59842.82
493.90	60865.63
494.08	61539.71
494.25	61684.82
494.43	61647.37
494.61	61979.73
494.79	62323.78
494.96	61930.58
495.14	61300.97
495.32	60479.44
495.49	59945.80
495.67	60835.20
495.85	62010.15
496.02	62583.58
496.20	62496.98
496.38	62141.22
496.55	61853.34
496.73	62227.82
496.91	62433.79
497.09	62993.18
497.26	63011.90
497.44	62574.22
497.62	62284.00
497.79	61588.86
497.97	60495.83
498.14	60559.02
498.32	61591.20
498.50	62335.49
498.67	62653.80
498.85	62616.35
499.03	62803.59
499.20	63009.56
499.38	63229.57
499.56	63039.99
499.73	62496.98
499.91	62279.31
500.08	61909.51
500.26	61249.48
500.44	61504.60
500.61	62099.09
500.79	61874.40
500.97	61630.99
501.14	61474.17
501.32	61153.52
501.49	61422.68
501.67	61696.52
501.84	62024.20
502.02	62159.95
502.20	62368.26
502.37	62649.12
502.55	62747.42
502.72	63175.74
502.90	63381.71
503.07	63292.77
503.25	62972.11
503.43	62204.42
503.60	61916.53
503.78	61050.53
503.95	61450.77
504.13	62740.40
504.30	63454.26
504.48	63295.11
504.65	63002.54
504.83	62993.18
505.01	63648.53
505.18	63774.92
505.36	64397.50
505.53	64451.33
505.71	64767.30
505.88	64580.06
506.06	64210.26
506.23	63877.90
506.41	63409.79
506.58	63655.55
506.76	63606.40
506.93	63746.83
507.11	63262.34
507.28	63463.63
507.46	63339.58
507.63	62731.04
507.81	62405.70
507.98	62686.57
508.16	63395.75
508.33	63777.26
508.50	64030.04
508.68	64381.12
508.85	64554.32
509.03	64615.17
509.20	64537.93
509.38	64086.21
509.55	63358.30
509.73	63414.47
509.90	63828.75
510.08	64184.51
510.25	63884.92
510.42	63779.60
510.60	63840.45
510.77	63903.65
510.95	64568.36
511.12	64495.80
511.30	64872.63
511.47	65200.30
511.64	65071.57
511.82	64697.09
511.99	64065.14
512.17	63800.66
512.34	63391.07
512.51	63711.72
512.69	63597.04
512.86	63905.99
513.04	64250.05
513.21	64236.00
513.38	63812.37
513.56	63433.20
513.73	62927.64
513.90	63096.16
514.08	63100.84
514.25	63491.71
514.43	63627.46
514.60	63613.42
514.77	63835.77
514.95	63756.19
515.12	63763.21
515.29	64154.08
515.47	64420.90
515.64	64671.34
515.81	64371.75
515.99	63627.46
516.16	62557.84
516.33	60500.51
516.51	59524.50
516.68	58623.40
516.85	58328.49
517.03	58684.25
517.20	60662.00
517.37	63061.05
517.54	63896.62
517.72	63554.91
517.89	61422.68
518.06	59355.99
518.24	59400.46
518.41	61560.77
518.58	62433.79
518.75	62782.53
518.93	62983.82
519.10	62866.79
519.27	63341.92
519.45	63309.15
519.62	64156.42
519.79	64371.75
519.96	64137.70
520.14	63941.10
520.31	63180.42
520.48	63039.99
520.65	63341.92
520.83	64177.49
521.00	64587.08
521.17	64224.30
521.34	63887.26
521.52	64135.36
521.69	64708.79
521.86	64984.97
522.03	64708.79
522.20	63896.62
522.38	62754.44
522.55	62506.35
522.72	63327.87
522.89	63477.67
523.07	63472.99
523.24	63922.37
523.41	64575.38
523.58	65062.21
523.75	65453.08
523.92	65233.07
524.10	65169.88
524.27	65083.28
524.44	65085.62
524.61	64708.79
524.78	64706.45
524.96	64715.81
525.13	64661.98
525.30	64680.70
525.47	65237.75
525.64	65097.32
525.81	64657.30
525.98	63370.00
526.16	62122.50
526.33	61261.18
526.50	61123.09
526.67	60886.70
526.84	61432.04
527.01	62204.42
527.18	63016.58
527.36	63707.04
527.53	64523.89
527.70	64776.67
527.87	64228.98
528.04	63707.04
528.21	64320.26
528.38	64676.02
528.55	65265.84
528.72	65527.98
528.89	65535.00
529.07	65535.00
529.24	64797.73
529.41	64385.80
529.58	63781.94
529.75	63842.79
529.92	64392.82
530.09	64661.98
530.26	65069.23
530.43	65371.16
530.60	65415.63
530.77	65535.00
530.94	65535.00
531.11	65268.18
531.28	64942.84
531.46	64933.48
531.63	64987.31
531.80	64853.90
531.97	64451.33
532.14	63788.96
532.31	62841.04
532.48	62307.40
532.65	62319.10
532.82	63047.01
532.99	64144.72
533.16	64516.87
533.33	64867.95
533.50	64680.70
533.67	64280.47
533.84	63725.77
534.01	63931.73
534.18	63920.03
534.35	64376.43
534.52	64137.70
534.69	64491.12
534.86	64626.87
535.03	64680.70
535.20	65364.14
535.37	65513.94
535.54	65535.00
535.71	65443.72
535.88	65244.77
536.05	64495.80
536.22	64196.21
536.38	63767.90
536.55	63568.95
536.72	63178.08
536.89	62901.90
537.06	63636.83
537.23	64530.91
537.40	64629.21
537.57	64729.86
537.74	64619.85
537.91	64423.25
538.08	64441.97
538.25	64441.97
538.42	64484.10
538.59	64423.25
538.75	63882.58
538.92	63519.80
539.09	63468.31
539.26	63341.92
539.43	63103.18
539.60	63164.04
539.77	63526.82
539.94	63316.17
540.11	62599.97
540.28	62321.44
540.44	62152.93
540.61	62492.30
540.78	62672.52
540.95	63037.65
541.12	63561.93
541.29	63707.04
541.46	63931.73
541.62	63962.16
541.79	63784.28
541.96	63145.31
542.13	63325.53
542.30	63407.45
542.47	63781.94
542.63	63454.26
542.80	63288.09
542.97	63538.52
543.14	63255.32
543.31	63283.40
543.48	63728.11
543.64	64367.07
543.81	64671.34
543.98	64556.66
544.15	64090.89
544.32	63416.82
544.48	63524.48
544.65	63807.68
544.82	64212.60
544.99	63927.05
545.16	63664.91
545.32	63201.49
545.49	63987.91
545.66	64608.15
545.83	64060.46
546.00	63765.56
546.16	63524.48
546.33	63587.67
546.50	63660.23
546.67	63924.71
546.83	63594.70
547.00	63669.59
547.17	62934.66
547.34	62513.37
547.50	62618.69
547.67	62958.07
547.84	63058.71
548.00	63171.06
548.17	63847.47
548.34	63721.08
548.51	63604.06
548.67	63554.91
548.84	63543.20
549.01	63571.29
549.18	63508.10
549.34	63290.43
549.51	63386.39
549.68	63559.59
549.84	63203.83
550.01	63075.10
550.18	63009.56
550.34	63119.57
550.51	63222.55
550.68	63044.67
550.84	62740.40
551.01	62876.15
551.18	62794.23
551.34	63135.95
551.51	63311.49
551.68	63737.47
551.84	63575.97
552.01	63337.24
552.18	63412.13
552.34	62749.76
552.51	62330.81
552.68	62113.14
552.84	62855.09
553.01	62937.01
553.18	62677.21
553.34	62866.79
553.51	62915.94
553.67	63103.18
553.84	63327.87
554.01	63283.40
554.17	63037.65
554.34	63112.55
554.51	63391.07
554.67	63465.97
554.84	63482.35
555.00	62848.06
555.17	62752.10
555.33	62827.00
555.50	62733.38
555.67	62922.96
555.83	62695.93
556.00	62415.07
556.16	62447.83
556.33	61953.98
556.50	61839.29
556.66	62103.77
556.83	61832.27
556.99	62017.17
557.16	62101.43
557.32	62312.08
557.49	62529.75
557.65	62394.00
557.82	62372.94
557.98	62300.38
558.15	61900.15
558.32	61357.14
558.48	60495.83
558.65	60411.57
558.81	60966.27
558.98	61109.05
559.14	61504.60
559.31	61387.57
559.47	61506.94
559.64	61230.75
559.80	61190.97
559.97	60985.00
560.13	61300.97
560.30	62080.37
560.46	62487.62
560.63	62649.12
560.79	62679.55
560.96	62342.51
561.12	61537.36
561.29	60769.67
561.45	60647.96
561.61	61389.91
561.78	61469.49
561.94	61490.55
562.11	61256.50
562.27	61132.45
562.44	61497.58
562.60	61656.73
562.77	62045.26
562.93	61862.70
563.10	61708.22
563.26	61338.42
563.42	61483.53
563.59	61188.63
563.75	61214.37
563.92	61251.82
564.08	61153.52
564.24	61530.34
564.41	61336.08
564.57	61476.51
564.74	61352.46
564.90	61097.34
565.07	61169.90
565.23	60521.57
565.39	60315.61
565.56	60119.00
565.72	59903.67
565.88	60086.23
566.05	60245.39
566.21	60275.82
566.38	60708.82
566.54	60659.66
566.70	61043.51
566.87	61188.63
567.03	61202.67
567.19	61439.06
567.36	61083.30
567.52	60907.76
567.68	60713.50
567.85	60257.09
568.01	60126.02
568.17	59686.00
568.34	59632.17
568.50	59449.61
568.66	59777.28
568.83	59908.35
568.99	60252.41
569.15	60154.11
569.32	60191.56
569.48	59856.86
569.64	59824.09
569.81	59615.79
569.97	59501.10
570.13	59400.46
570.30	59199.17
570.46	58962.78
570.62	58415.09
570.78	58454.88
570.95	58447.86
571.11	59196.83
571.27	59374.71
571.43	59381.73
571.60	59821.75
571.76	59709.41
571.92	60128.36
572.09	60280.50
572.25	60168.15
572.41	60083.89
572.57	59990.27
572.74	60001.97
572.90	59571.32
573.06	59648.55
573.22	59650.89
573.38	59695.36
573.55	59576.00
573.71	59917.71
573.87	59601.74
574.03	59561.95
574.20	59533.87
574.36	59241.30
574.52	59313.86
574.68	59250.66
574.84	58869.15
575.01	58330.83
575.17	58248.91
575.33	58452.54
575.49	58728.72
575.65	58693.61
575.82	58679.57
575.98	58454.88
576.14	58824.68
576.30	58988.52
576.46	58899.58
576.62	58939.37
576.79	58822.34
576.95	58822.34
577.11	58410.41
577.27	58686.59
577.43	58742.77
577.59	58466.58
577.75	58141.25
577.92	57682.50
578.08	57387.60
578.24	57549.09
578.40	57790.17
578.56	57832.30
578.72	58092.10
578.88	58361.26
579.04	57832.30
579.21	58309.77
579.37	58475.94
579.53	58375.30
579.69	58335.51
579.85	58443.18
580.01	58447.86
580.17	58124.86
580.33	58087.42
580.49	58096.78
580.65	58286.36
580.82	58223.17
580.98	58354.24
581.14	58216.14
581.30	58607.01
581.46	58178.70
581.62	58499.35
581.78	58515.73
581.94	58522.76
582.10	58468.92
582.26	58541.48
582.42	58450.20
582.58	58426.79
582.74	58459.56
582.90	58459.56
583.06	58534.46
583.22	58342.53
583.38	58138.91
583.54	58045.29
583.70	58012.52
583.86	58195.08
584.02	57975.07
584.18	58314.45
584.34	57937.62
584.50	57853.36
584.66	58024.22
584.82	57584.20
584.98	57460.15
585.14	57382.91
