SpectraSuite Data File
++++++++++++++++++++++++++++++++++++
Date: Mon Oct 07 14:55:32 GMT-05:00 2013
User: price-jones
Dark Spectrum Present: No
Reference Spectrum Present: No
Number of Sampled Component Spectra: 1
Spectrometers: USB2+H05261
Integration Time (usec): 1000000 (USB2+H05261)
Spectra Averaged: 1 (USB2+H05261)
Boxcar Smoothing: 0 (USB2+H05261)
Correct for Electrical Dark: No (USB2+H05261)
Strobe/Lamp Enabled: No (USB2+H05261)
Correct for Detector Non-linearity: No (USB2+H05261)
Correct for Stray Light: No (USB2+H05261)
Number of Pixels in Processed Spectrum: 2048
>>>>>Begin Processed Spectral Data<<<<<
365.73	0.00
365.92	0.00
366.12	0.00
366.32	0.00
366.52	0.00
366.72	145.11
366.91	0.00
367.11	149.79
367.31	51.49
367.51	212.99
367.70	187.24
367.90	381.51
368.10	168.52
368.30	227.03
368.49	0.00
368.69	416.62
368.89	227.03
369.09	0.00
369.28	168.52
369.48	0.00
369.68	58.51
369.87	182.56
370.07	25.75
370.27	475.13
370.47	2356.92
370.66	7709.72
370.86	9289.59
371.06	10349.85
371.25	10565.18
371.45	9233.41
371.65	8505.51
371.84	7751.85
372.04	7854.84
372.24	9004.04
372.44	9291.93
372.63	9132.77
372.83	8959.57
373.03	7742.49
373.22	6815.64
373.42	7442.90
373.62	8404.86
373.81	9153.84
374.01	9235.75
374.21	8627.21
374.40	7740.15
374.60	8245.71
374.79	8901.06
374.99	10155.58
375.19	11108.18
375.38	11150.31
375.58	10363.89
375.78	10480.92
375.97	10586.24
376.17	11485.01
376.37	10759.44
376.56	11218.19
376.76	11737.79
376.95	12266.75
377.15	13291.90
377.35	13694.47
377.54	14026.83
377.74	14398.98
377.93	14597.92
378.13	14132.15
378.33	13973.00
378.52	12418.88
378.72	12325.26
378.91	12088.87
379.11	11318.83
379.31	11023.92
379.50	10923.28
379.70	11999.93
379.89	13238.07
380.09	13895.76
380.28	14012.79
380.48	14087.68
380.68	13778.73
380.87	13458.08
381.07	12676.34
381.26	12147.38
381.46	11257.98
381.65	10761.78
381.85	10197.71
382.04	10071.33
382.24	9378.53
382.43	9020.42
382.63	8657.64
382.83	8695.09
383.02	8905.74
383.22	9006.38
383.41	8744.24
383.61	9322.35
383.80	10848.38
384.00	11868.86
384.19	12994.65
384.39	13811.50
384.58	13792.78
384.78	13481.49
384.97	13303.60
385.17	12723.15
385.36	12114.61
385.56	11637.14
385.75	11887.58
385.95	12908.05
386.14	14235.14
386.34	14270.25
386.53	13385.52
386.72	12346.33
386.92	12798.05
387.11	13376.16
387.31	14174.28
387.50	13621.92
387.70	12950.18
387.89	13062.53
388.09	12992.31
388.28	13036.78
388.48	13149.13
388.67	14630.69
388.86	15632.44
389.06	16643.55
389.25	17334.01
389.45	17902.76
389.64	17453.37
389.84	17659.34
390.03	17362.09
390.22	17069.53
390.42	17701.47
390.61	18672.79
390.81	19679.22
391.00	20245.63
391.19	20175.42
391.39	19288.35
391.58	18237.45
391.78	17352.73
391.97	16795.68
392.16	15620.74
392.36	14750.06
392.55	11793.96
392.75	9242.78
392.94	7744.83
393.13	7803.35
393.33	8711.47
393.52	10993.50
393.71	14193.01
393.91	15349.23
394.10	15885.22
394.29	17926.16
394.49	19131.54
394.68	21125.68
394.88	21104.61
395.07	21586.76
395.26	21195.89
395.46	20402.45
395.65	19662.84
395.84	17362.09
396.04	15496.69
396.23	12355.69
396.42	10169.63
396.62	9888.76
396.81	11391.39
397.00	14237.48
397.19	17682.75
397.39	20580.33
397.58	23323.44
397.77	24552.22
397.97	25549.29
398.16	25340.98
398.35	26787.43
398.55	27339.80
398.74	28196.43
398.93	29022.64
399.12	28011.53
399.32	27491.93
399.51	28135.58
399.70	29834.81
399.90	29614.80
400.09	29493.09
400.28	29434.58
400.47	29399.47
400.67	31035.50
400.86	31211.04
401.05	31234.45
401.24	32102.79
401.44	32215.13
401.63	32147.26
401.82	32388.33
402.01	32074.70
402.21	32694.94
402.40	32837.72
402.59	31814.90
402.78	30443.35
402.97	29659.27
403.17	30761.66
403.36	32156.62
403.55	33387.74
403.74	33745.84
403.93	32814.31
404.13	30717.19
404.32	29392.45
404.51	31281.26
404.70	33483.70
404.89	32987.51
405.09	32823.67
405.28	31393.61
405.47	31119.76
405.66	31718.94
405.85	30761.66
406.05	30066.52
406.24	30143.76
406.43	31847.67
406.62	33057.73
406.81	33612.43
407.00	31665.11
407.20	30993.37
407.39	31271.90
407.58	32346.20
407.77	33565.62
407.96	35150.17
408.15	35220.38
408.34	35070.59
408.54	36196.38
408.73	36577.89
408.92	36512.36
409.11	35644.02
409.30	33689.67
409.49	31101.04
409.68	29886.30
409.87	28659.86
410.07	29867.58
410.26	32861.12
410.45	34873.98
410.64	35260.17
410.83	36318.09
411.02	36903.23
411.21	38436.28
411.40	38328.61
411.59	38005.62
411.78	37977.53
411.98	37191.11
412.17	37900.29
412.36	37354.95
412.55	37193.45
412.74	36474.91
412.93	36170.64
413.12	35779.77
413.31	39964.65
413.50	39742.30
413.69	40381.26
413.88	39072.90
414.07	37813.70
414.26	38403.51
414.45	39468.45
414.64	39770.38
414.83	39779.74
415.02	38820.13
415.22	38923.11
415.41	40313.39
415.60	40123.80
415.79	41947.08
415.98	43332.68
416.17	43133.73
416.36	41823.03
416.55	41633.45
416.74	40517.01
416.93	38995.67
417.12	39171.21
417.31	39494.20
417.50	40299.34
417.69	41893.25
417.88	41322.16
418.07	40540.42
418.26	40048.91
418.45	40350.84
418.64	42330.93
418.83	43346.72
419.02	42625.84
419.21	42127.30
419.39	40547.44
419.58	38548.62
419.77	38562.67
419.96	40687.87
420.15	42471.36
420.34	43484.81
420.53	44570.82
420.72	45090.42
420.91	45141.91
421.10	44556.78
421.29	43772.70
421.48	42768.61
421.67	44746.36
421.86	43299.91
422.05	41837.08
422.24	37041.32
422.43	36510.02
422.61	40027.84
422.80	43384.17
422.99	42803.72
423.18	41893.25
423.37	41111.51
423.56	41233.22
423.75	41797.29
423.94	41921.34
424.13	40027.84
424.32	40329.77
424.50	40559.14
424.69	39700.17
424.88	40964.06
425.07	40318.07
425.26	39768.04
425.45	40137.85
425.64	38948.85
425.83	38958.22
426.01	41163.00
426.20	42319.23
426.39	41713.03
426.58	39199.29
426.77	35988.08
426.96	35215.70
427.15	36037.23
427.33	38831.83
427.52	40634.04
427.71	40622.34
427.90	39950.60
428.09	39353.77
428.28	38735.87
428.46	37340.91
428.65	37359.63
428.84	37745.82
429.03	39330.36
429.22	36495.97
429.40	34916.11
429.59	31501.27
429.78	28376.66
429.97	28027.92
430.16	28484.32
430.34	28893.91
430.53	28313.46
430.72	28943.06
430.91	32751.12
431.10	37022.59
431.28	43468.43
431.47	46291.12
431.66	46508.79
431.85	42754.57
432.03	39999.76
432.22	38958.22
432.41	39559.73
432.60	43945.90
432.79	44694.87
432.97	45965.78
433.16	45265.96
433.35	41603.02
433.54	37797.31
433.72	35388.90
433.91	36844.71
434.10	40765.11
434.28	43276.51
434.47	44921.90
434.66	45375.97
434.85	43721.21
435.03	43810.15
435.22	46412.82
435.41	49366.58
435.59	49331.47
435.78	48144.82
435.97	48903.15
436.16	48231.42
436.34	47662.67
436.53	46838.80
436.72	47339.68
436.90	44779.13
437.09	44708.91
437.28	43828.87
437.46	45474.27
437.65	45151.27
437.84	42469.02
438.02	39157.16
438.21	39304.62
438.40	41289.39
438.58	44304.00
438.77	44982.76
438.96	45303.41
439.14	46749.86
439.33	47716.50
439.52	48598.88
439.70	47028.38
439.89	47082.22
440.08	45776.20
440.26	45287.03
440.45	46979.23
440.63	48449.09
440.82	50384.71
441.01	50230.24
441.19	49345.51
441.38	50071.08
441.57	51283.48
441.75	52266.50
441.94	51964.57
442.12	51756.27
442.31	52250.12
442.50	52116.71
442.68	51571.36
442.87	51562.00
443.05	51028.36
443.24	51304.54
443.43	52081.60
443.61	53041.22
443.80	53081.01
443.98	50885.59
444.17	51129.00
444.35	53113.78
444.54	53230.80
444.73	52945.26
444.91	52203.31
445.10	50394.07
445.28	49237.85
445.47	48566.12
445.65	49167.63
445.84	49787.88
446.02	50831.75
446.21	51341.99
446.39	51262.41
446.58	51178.15
446.77	52105.01
446.95	52109.69
447.14	52996.75
447.32	54326.17
447.51	52816.53
447.69	51920.10
447.88	51297.52
448.06	52238.42
448.25	52720.57
448.43	52779.08
448.62	52112.03
448.80	51978.62
448.99	52219.69
449.17	52041.81
449.36	52222.03
449.54	53598.27
449.73	53530.39
449.91	54047.65
450.10	54796.62
450.28	55346.65
450.46	55377.08
450.65	55192.17
450.83	54763.85
451.02	54068.72
451.20	53853.39
451.39	54223.19
451.57	53928.28
451.76	53993.82
451.94	53256.55
452.13	52449.06
452.31	51927.13
452.49	49792.56
452.68	50204.49
452.86	50468.97
453.05	50845.80
453.23	51838.18
453.42	51920.10
453.60	53499.97
453.78	53827.64
453.97	52952.28
454.15	52842.27
454.34	52177.56
454.52	52523.96
454.70	51966.91
454.89	52428.00
455.07	52418.64
455.26	52875.04
455.44	53970.41
455.62	54578.95
455.81	54759.17
455.99	54490.01
456.17	54239.57
456.36	53930.62
456.54	55346.65
456.73	54993.23
456.91	55325.58
457.09	55739.86
457.28	55948.17
457.46	54768.54
457.64	54585.97
457.83	53282.30
458.01	52898.45
458.19	53502.31
458.38	53727.00
458.56	55079.83
458.74	54532.14
458.93	53954.03
459.11	54202.13
459.29	53584.22
459.48	54195.10
459.66	53916.58
459.84	54319.15
460.03	55126.64
460.21	54087.44
460.39	55152.38
460.57	55047.06
460.76	55435.59
460.94	55430.91
461.12	55119.62
461.31	55159.41
461.49	55168.77
461.67	55236.64
461.85	55419.20
462.04	55601.77
462.22	56247.75
462.40	55674.32
462.59	55840.50
462.77	55587.72
462.95	55842.84
463.13	55187.49
463.32	55276.43
463.50	54770.88
463.68	54969.82
463.86	55009.61
464.05	54623.42
464.23	53914.24
464.41	53710.61
464.59	53008.45
464.78	54623.42
464.96	54480.65
465.14	54415.11
465.32	55028.34
465.50	55887.31
465.69	55543.25
465.87	55290.48
466.05	54735.77
466.23	53415.71
466.41	52582.48
466.60	53413.37
466.78	53291.66
466.96	53956.37
467.14	54178.72
467.32	54883.22
467.51	54665.55
467.69	53109.10
467.87	54391.71
468.05	54241.92
468.23	54623.42
468.41	54578.95
468.60	54363.62
468.78	54883.22
468.96	54522.78
469.14	55133.66
469.32	54965.14
469.50	53549.12
469.69	53869.77
469.87	53619.33
470.05	53242.51
470.23	53396.98
470.41	53591.25
470.59	54087.44
470.77	53792.53
470.95	54274.68
471.14	55009.61
471.32	54805.98
471.50	56559.05
471.68	56657.35
471.86	56004.34
472.04	56575.43
472.22	56697.14
472.40	55435.59
472.58	54948.76
472.77	54787.26
472.95	55629.85
473.13	56292.22
473.31	55421.55
473.49	55384.10
473.67	55859.23
473.85	56472.45
474.03	57139.50
474.21	56449.04
474.39	57457.81
474.57	57343.12
474.75	57202.69
474.93	56617.56
475.12	55983.27
475.30	56020.72
475.48	56348.40
475.66	56891.40
475.84	56554.36
476.02	56072.21
476.20	55791.35
476.38	56427.98
476.56	56734.59
476.74	57057.58
476.92	57656.76
477.10	57897.83
477.28	58569.57
477.46	58534.46
477.64	58326.15
477.82	58878.52
478.00	59103.21
478.18	58391.68
478.36	58651.48
478.54	58695.95
478.72	58834.05
478.90	59185.13
479.08	59922.40
479.26	60004.31
479.44	60037.08
479.62	59606.42
479.80	60051.12
479.98	59887.29
480.16	60320.29
480.34	60299.22
480.52	60184.54
480.70	60633.92
480.88	60540.30
481.06	60802.44
481.24	61015.43
481.41	61436.72
481.59	62173.99
481.77	61907.17
481.95	61296.29
482.13	61504.60
482.31	61155.86
482.49	61874.40
482.67	61577.15
482.85	61808.87
483.03	61911.85
483.21	62438.47
483.39	62445.49
483.57	61822.91
483.74	61254.16
483.92	61893.13
484.10	61148.84
484.28	62110.80
484.46	62649.12
484.64	62955.73
484.82	62403.36
485.00	61883.76
485.18	61563.11
485.35	60809.46
485.53	58791.92
485.71	57209.71
485.89	56154.13
486.07	57895.49
486.25	59824.09
486.43	61338.42
486.61	61422.68
486.78	61331.40
486.96	61202.67
487.14	62534.43
487.32	63016.58
487.50	63646.19
487.68	63852.15
487.85	64039.40
488.03	64493.46
488.21	64278.13
488.39	63798.32
488.57	63061.05
488.75	63000.20
488.92	64135.36
489.10	65420.31
489.28	65535.00
489.46	65535.00
489.64	65535.00
489.81	65535.00
489.99	65535.00
490.17	65535.00
490.35	65535.00
490.53	65535.00
490.70	65307.97
490.88	65420.31
491.06	65535.00
491.24	65535.00
491.41	65535.00
491.59	64654.96
491.77	64165.79
491.95	64851.56
492.13	65429.68
492.30	65535.00
492.48	65535.00
492.66	65535.00
492.84	65535.00
493.01	65535.00
493.19	65535.00
493.37	65535.00
493.54	65535.00
493.72	65535.00
493.90	65535.00
494.08	65535.00
494.25	65535.00
494.43	65535.00
494.61	65535.00
494.79	65535.00
494.96	65535.00
495.14	65535.00
495.32	65535.00
495.49	65535.00
495.67	65535.00
495.85	65535.00
496.02	65535.00
496.20	65535.00
496.38	65535.00
496.55	65535.00
496.73	65535.00
496.91	65535.00
497.09	65535.00
497.26	65535.00
497.44	65535.00
497.62	65535.00
497.79	65535.00
497.97	65535.00
498.14	65535.00
498.32	65535.00
498.50	65535.00
498.67	65535.00
498.85	65535.00
499.03	65535.00
499.20	65535.00
499.38	65535.00
499.56	65535.00
499.73	65535.00
499.91	65535.00
500.08	65535.00
500.26	65535.00
500.44	65535.00
500.61	65535.00
500.79	65535.00
500.97	65535.00
501.14	65535.00
501.32	65535.00
501.49	65535.00
501.67	65535.00
501.84	65535.00
502.02	65535.00
502.20	65535.00
502.37	65535.00
502.55	65535.00
502.72	65535.00
502.90	65535.00
503.07	65535.00
503.25	65535.00
503.43	65535.00
503.60	65535.00
503.78	65535.00
503.95	65535.00
504.13	65535.00
504.30	65535.00
504.48	65535.00
504.65	65535.00
504.83	65535.00
505.01	65535.00
505.18	65535.00
505.36	65535.00
505.53	65535.00
505.71	65535.00
505.88	65535.00
506.06	65535.00
506.23	65535.00
506.41	65535.00
506.58	65535.00
506.76	65535.00
506.93	65535.00
507.11	65535.00
507.28	65535.00
507.46	65535.00
507.63	65535.00
507.81	65535.00
507.98	65535.00
508.16	65535.00
508.33	65535.00
508.50	65535.00
508.68	65535.00
508.85	65535.00
509.03	65535.00
509.20	65535.00
509.38	65535.00
509.55	65535.00
509.73	65535.00
509.90	65535.00
510.08	65535.00
510.25	65535.00
510.42	65535.00
510.60	65535.00
510.77	65535.00
510.95	65535.00
511.12	65535.00
511.30	65535.00
511.47	65535.00
511.64	65535.00
511.82	65535.00
511.99	65535.00
512.17	65535.00
512.34	65535.00
512.51	65535.00
512.69	65535.00
512.86	65535.00
513.04	65535.00
513.21	65535.00
513.38	65535.00
513.56	65535.00
513.73	65535.00
513.90	65535.00
514.08	65535.00
514.25	65535.00
514.43	65535.00
514.60	65535.00
514.77	65535.00
514.95	65535.00
515.12	65535.00
515.29	65535.00
515.47	65535.00
515.64	65535.00
515.81	65535.00
515.99	65535.00
516.16	65535.00
516.33	65535.00
516.51	65535.00
516.68	65535.00
516.85	65097.32
517.03	65237.75
517.20	65535.00
517.37	65535.00
517.54	65535.00
517.72	65535.00
517.89	65535.00
518.06	65535.00
518.24	65535.00
518.41	65535.00
518.58	65535.00
518.75	65535.00
518.93	65535.00
519.10	65535.00
519.27	65535.00
519.45	65535.00
519.62	65535.00
519.79	65535.00
519.96	65535.00
520.14	65535.00
520.31	65535.00
520.48	65535.00
520.65	65535.00
520.83	65535.00
521.00	65535.00
521.17	65535.00
521.34	65535.00
521.52	65535.00
521.69	65535.00
521.86	65535.00
522.03	65535.00
522.20	65535.00
522.38	65535.00
522.55	65535.00
522.72	65535.00
522.89	65535.00
523.07	65535.00
523.24	65535.00
523.41	65535.00
523.58	65535.00
523.75	65535.00
523.92	65535.00
524.10	65535.00
524.27	65535.00
524.44	65535.00
524.61	65535.00
524.78	65535.00
524.96	65535.00
525.13	65535.00
525.30	65535.00
525.47	65535.00
525.64	65535.00
525.81	65535.00
525.98	65535.00
526.16	65535.00
526.33	65535.00
526.50	65535.00
526.67	65535.00
526.84	65535.00
527.01	65535.00
527.18	65535.00
527.36	65535.00
527.53	65535.00
527.70	65535.00
527.87	65535.00
528.04	65535.00
528.21	65535.00
528.38	65535.00
528.55	65535.00
528.72	65535.00
528.89	65535.00
529.07	65535.00
529.24	65535.00
529.41	65535.00
529.58	65535.00
529.75	65535.00
529.92	65535.00
530.09	65535.00
530.26	65535.00
530.43	65535.00
530.60	65535.00
530.77	65535.00
530.94	65535.00
531.11	65535.00
531.28	65535.00
531.46	65535.00
531.63	65535.00
531.80	65535.00
531.97	65535.00
532.14	65535.00
532.31	65535.00
532.48	65535.00
532.65	65535.00
532.82	65535.00
532.99	65535.00
533.16	65535.00
533.33	65535.00
533.50	65535.00
533.67	65535.00
533.84	65535.00
534.01	65535.00
534.18	65535.00
534.35	65535.00
534.52	65535.00
534.69	65535.00
534.86	65535.00
535.03	65535.00
535.20	65535.00
535.37	65535.00
535.54	65535.00
535.71	65535.00
535.88	65535.00
536.05	65535.00
536.22	65535.00
536.38	65535.00
536.55	65535.00
536.72	65535.00
536.89	65535.00
537.06	65535.00
537.23	65535.00
537.40	65535.00
537.57	65535.00
537.74	65535.00
537.91	65535.00
538.08	65535.00
538.25	65535.00
538.42	65535.00
538.59	65535.00
538.75	65535.00
538.92	65535.00
539.09	65535.00
539.26	65535.00
539.43	65535.00
539.60	65535.00
539.77	65535.00
539.94	65535.00
540.11	65535.00
540.28	65535.00
540.44	65535.00
540.61	65535.00
540.78	65535.00
540.95	65535.00
541.12	65535.00
541.29	65535.00
541.46	65535.00
541.62	65535.00
541.79	65535.00
541.96	65535.00
542.13	65535.00
542.30	65535.00
542.47	65535.00
542.63	65535.00
542.80	65535.00
542.97	65535.00
543.14	65535.00
543.31	65535.00
543.48	65535.00
543.64	65535.00
543.81	65535.00
543.98	65535.00
544.15	65535.00
544.32	65535.00
544.48	65535.00
544.65	65535.00
544.82	65535.00
544.99	65535.00
545.16	65535.00
545.32	65535.00
545.49	65535.00
545.66	65535.00
545.83	65535.00
546.00	65535.00
546.16	65535.00
546.33	65535.00
546.50	65535.00
546.67	65535.00
546.83	65535.00
547.00	65535.00
547.17	65535.00
547.34	65535.00
547.50	65535.00
547.67	65535.00
547.84	65535.00
548.00	65535.00
548.17	65535.00
548.34	65535.00
548.51	65535.00
548.67	65535.00
548.84	65535.00
549.01	65535.00
549.18	65535.00
549.34	65535.00
549.51	65535.00
549.68	65535.00
549.84	65535.00
550.01	65535.00
550.18	65535.00
550.34	65535.00
550.51	65535.00
550.68	65535.00
550.84	65535.00
551.01	65535.00
551.18	65535.00
551.34	65535.00
551.51	65535.00
551.68	65535.00
551.84	65535.00
552.01	65535.00
552.18	65535.00
552.34	65535.00
552.51	65535.00
552.68	65535.00
552.84	65535.00
553.01	65535.00
553.18	65535.00
553.34	65535.00
553.51	65535.00
553.67	65535.00
553.84	65535.00
554.01	65535.00
554.17	65535.00
554.34	65535.00
554.51	65535.00
554.67	65535.00
554.84	65535.00
555.00	65535.00
555.17	65535.00
555.33	65535.00
555.50	65535.00
555.67	65535.00
555.83	65535.00
556.00	65535.00
556.16	65535.00
556.33	65535.00
556.50	65535.00
556.66	65535.00
556.83	65535.00
556.99	65535.00
557.16	65535.00
557.32	65535.00
557.49	65535.00
557.65	65535.00
557.82	65535.00
557.98	65535.00
558.15	65535.00
558.32	65535.00
558.48	65535.00
558.65	65535.00
558.81	65535.00
558.98	65535.00
559.14	65535.00
559.31	65535.00
559.47	65535.00
559.64	65535.00
559.80	65535.00
559.97	65535.00
560.13	65535.00
560.30	65535.00
560.46	65535.00
560.63	65535.00
560.79	65535.00
560.96	65535.00
561.12	65535.00
561.29	65535.00
561.45	65535.00
561.61	65535.00
561.78	65535.00
561.94	65535.00
562.11	65535.00
562.27	65535.00
562.44	65535.00
562.60	65535.00
562.77	65535.00
562.93	65535.00
563.10	65535.00
563.26	65535.00
563.42	65535.00
563.59	65535.00
563.75	65535.00
563.92	65535.00
564.08	65535.00
564.24	65535.00
564.41	65535.00
564.57	65535.00
564.74	65535.00
564.90	65535.00
565.07	65535.00
565.23	65535.00
565.39	65535.00
565.56	65408.61
565.72	65443.72
565.88	65535.00
566.05	65535.00
566.21	65535.00
566.38	65535.00
566.54	65535.00
566.70	65535.00
566.87	65535.00
567.03	65535.00
567.19	65535.00
567.36	65535.00
567.52	65535.00
567.68	65535.00
567.85	65450.74
568.01	65223.71
568.17	65043.49
568.34	65064.55
568.50	65031.78
568.66	65167.54
568.83	65535.00
568.99	65237.75
569.15	65535.00
569.32	65258.82
569.48	65331.37
569.64	65116.04
569.81	64650.28
569.97	64657.30
570.13	64615.17
570.30	64392.82
570.46	64121.32
570.62	63547.89
570.78	63480.01
570.95	63505.76
571.11	64116.64
571.27	64500.48
571.43	64451.33
571.60	64926.46
571.76	64575.38
571.92	65111.36
572.09	65535.00
572.25	65324.35
572.41	65209.67
572.57	64919.44
572.74	65378.18
572.90	64783.69
573.06	64722.83
573.22	64631.55
573.38	64912.42
573.55	64790.71
573.71	64982.63
573.87	65010.72
574.03	64481.76
574.20	64783.69
574.36	64544.95
574.52	64413.88
574.68	63997.27
574.84	64097.91
575.01	63484.69
575.17	63419.16
575.33	63793.64
575.49	64086.21
575.65	64083.87
575.82	64001.95
575.98	63917.69
576.14	63880.24
576.30	64154.08
576.46	64551.98
576.62	64568.36
576.79	64336.65
576.95	64048.76
577.11	63920.03
577.27	64008.97
577.43	64261.75
577.59	63456.60
577.75	63611.08
577.92	62700.61
578.08	62342.51
578.24	62803.59
578.40	63281.06
578.56	63388.73
578.72	63671.93
578.88	63838.11
579.04	63227.23
579.21	63697.68
579.37	63484.69
579.53	63772.58
579.69	63552.57
579.85	63653.21
580.01	63437.88
580.17	63063.39
580.33	62920.62
580.49	63327.87
580.65	63290.43
580.82	63786.62
580.98	63100.84
581.14	63531.50
581.30	63779.60
581.46	63344.26
581.62	63992.59
581.78	63220.21
581.94	64001.95
582.10	63554.91
582.26	63863.86
582.42	63678.96
582.58	63950.46
582.74	63454.26
582.90	63922.37
583.06	63629.80
583.22	63299.79
583.38	63391.07
583.54	63749.17
583.70	63641.51
583.86	63468.31
