SpectraSuite Data File
++++++++++++++++++++++++++++++++++++
Date: Mon Oct 07 14:54:58 GMT-05:00 2013
User: price-jones
Dark Spectrum Present: No
Reference Spectrum Present: No
Number of Sampled Component Spectra: 1
Spectrometers: USB2+H05261
Integration Time (usec): 10000 (USB2+H05261)
Spectra Averaged: 1 (USB2+H05261)
Boxcar Smoothing: 0 (USB2+H05261)
Correct for Electrical Dark: No (USB2+H05261)
Strobe/Lamp Enabled: No (USB2+H05261)
Correct for Detector Non-linearity: No (USB2+H05261)
Correct for Stray Light: No (USB2+H05261)
Number of Pixels in Processed Spectrum: 2048
>>>>>Begin Processed Spectral Data<<<<<
365.73	0.00
365.92	0.00
366.12	0.00
366.32	0.00
366.52	0.00
366.72	0.00
366.91	0.00
367.11	0.00
367.31	0.00
367.51	0.00
367.70	0.00
367.90	0.00
368.10	0.00
368.30	0.00
368.49	0.00
368.69	0.00
368.89	0.00
369.09	0.00
369.28	0.00
369.48	0.00
369.68	0.00
369.87	0.00
370.07	0.00
370.27	0.00
370.47	133.41
370.66	1404.32
370.86	1715.61
371.06	1788.17
371.25	1706.25
371.45	1626.67
371.65	1366.87
371.84	1320.06
372.04	1516.67
372.24	1755.40
372.44	1722.63
372.63	1645.40
372.83	1500.28
373.03	1303.68
373.22	1317.72
373.42	1401.98
373.62	1666.46
373.81	1619.65
374.01	1603.27
374.21	1451.13
374.40	1413.68
374.60	1526.03
374.79	1748.38
374.99	1921.58
375.19	2101.80
375.38	2031.58
375.58	1937.96
375.78	1823.28
375.97	1923.92
376.17	2040.95
376.37	1928.60
376.56	2101.80
376.76	2368.62
376.95	2443.52
377.15	2415.43
377.35	2665.87
377.54	2904.60
377.74	2906.95
377.93	2757.15
378.13	2738.43
378.33	2459.90
378.52	2298.41
378.72	2214.15
378.91	2314.79
379.11	2214.15
379.31	2136.91
379.50	2167.34
379.70	2275.00
379.89	2565.23
380.09	2689.28
380.28	2913.97
380.48	2782.90
380.68	2679.91
380.87	2600.34
381.07	2420.11
381.26	2150.95
381.46	1989.46
381.65	2005.84
381.85	1893.49
382.04	1774.13
382.24	1689.87
382.43	1612.63
382.63	1614.97
382.83	1675.82
383.02	1614.97
383.22	1556.46
383.41	1554.12
383.61	1802.21
383.80	2090.10
384.00	2464.58
384.19	2621.40
384.39	2782.90
384.58	2803.96
384.78	2576.93
384.97	2612.04
385.17	2408.41
385.36	2307.77
385.56	2183.72
385.75	2349.90
385.95	2583.95
386.14	2813.32
386.34	2757.15
386.53	2595.65
386.72	2499.69
386.92	2597.99
387.11	2761.83
387.31	2829.71
387.50	2785.24
387.70	2740.77
387.89	2534.80
388.09	2633.10
388.28	2736.09
388.48	2796.94
388.67	3075.46
388.86	3421.86
389.06	3393.78
389.25	3754.22
389.45	3669.96
389.64	3660.60
389.84	3686.34
390.03	3522.51
390.22	3595.06
390.42	3866.56
390.61	4114.66
390.81	4449.36
391.00	4339.35
391.19	4074.87
391.39	4135.73
391.58	3854.86
391.78	3655.92
391.97	3281.43
392.16	3117.59
392.36	2803.96
392.55	2165.00
392.75	1764.76
392.94	1458.15
393.13	1544.75
393.33	1952.01
393.52	2492.67
393.71	2909.29
393.91	3251.00
394.10	3737.84
394.29	3964.87
394.49	4262.12
394.68	4582.77
394.88	4444.68
395.07	4788.74
395.26	4634.26
395.46	4369.78
395.65	4105.30
395.84	3349.31
396.04	2876.52
396.23	2291.38
396.42	1914.56
396.62	2045.63
396.81	2679.91
397.00	3379.73
397.19	4131.05
397.39	4826.18
397.58	5191.31
397.77	5469.83
397.97	5724.95
398.16	5685.16
398.35	5900.49
398.55	6242.21
398.74	6230.51
398.93	6499.67
399.12	6345.19
399.32	6111.14
399.51	6326.47
399.70	6782.87
399.90	6567.54
400.09	6504.35
400.28	6710.32
400.47	6773.51
400.67	7040.33
400.86	7171.40
401.05	7077.78
401.24	7059.06
401.44	7339.92
401.63	7253.32
401.82	7304.81
402.01	7466.31
402.21	7641.85
402.40	7229.91
402.59	7105.87
402.78	6869.47
402.97	6586.27
403.17	7080.12
403.36	7487.37
403.55	7604.40
403.74	7543.55
403.93	7215.87
404.13	6689.25
404.32	6853.09
404.51	7241.62
404.70	7496.74
404.89	7482.69
405.09	7501.42
405.28	7122.25
405.47	7349.28
405.66	7115.23
405.85	7042.67
406.05	6663.51
406.24	7070.76
406.43	7293.11
406.62	7372.69
406.81	7508.44
407.00	7150.34
407.20	6897.56
407.39	7136.29
407.58	7489.71
407.77	7747.17
407.96	7964.84
408.15	8187.19
408.34	8383.80
408.54	8542.96
408.73	8596.79
408.92	8294.86
409.11	8231.66
409.30	7665.25
409.49	7276.73
409.68	6829.68
409.87	6736.06
410.07	7356.30
410.26	7691.00
410.45	8067.83
410.64	8386.14
410.83	8603.81
411.02	8823.82
411.21	9420.66
411.40	9027.45
411.59	8814.46
411.78	8868.29
411.98	8854.25
412.17	9097.66
412.36	8744.24
412.55	8762.97
412.74	8636.58
412.93	8594.45
413.12	8762.97
413.31	9331.72
413.50	9490.87
413.69	9584.49
413.88	9055.53
414.07	8964.25
414.26	9355.12
414.45	9488.53
414.64	9607.90
414.83	9500.23
415.02	9355.12
415.22	9245.12
415.41	9802.16
415.60	9762.37
415.79	10314.74
415.98	10401.34
416.17	10136.86
416.36	9912.17
416.55	9781.10
416.74	9373.85
416.93	9195.96
417.12	9341.08
417.31	9549.39
417.50	9619.60
417.69	10040.90
417.88	9907.49
418.07	9804.50
418.26	9710.88
418.45	9933.23
418.64	10391.98
418.83	10640.08
419.02	10239.84
419.21	10050.26
419.39	9645.35
419.58	9114.05
419.77	9673.43
419.96	9947.28
420.15	10494.96
420.34	10754.76
420.53	11077.76
420.72	11080.10
420.91	11012.22
421.10	10874.13
421.29	10993.50
421.48	10274.95
421.67	10956.05
421.86	10476.24
422.05	9628.96
422.24	8861.27
422.43	9067.24
422.61	9994.09
422.80	10487.94
422.99	10319.42
423.18	10195.37
423.37	9921.53
423.56	10249.21
423.75	10457.51
423.94	10686.89
424.13	10061.96
424.32	9867.70
424.50	9893.44
424.69	9872.38
424.88	10064.30
425.07	10005.79
425.26	9806.84
425.45	9650.03
425.64	9729.61
425.83	9994.09
426.01	10237.50
426.20	10274.95
426.39	10174.31
426.58	9294.27
426.77	8835.52
426.96	8711.47
427.15	9109.36
427.33	9870.04
427.52	10113.45
427.71	10125.16
427.90	9645.35
428.09	9795.14
428.28	9479.17
428.46	9355.12
428.65	9263.84
428.84	9359.80
429.03	9516.62
429.22	8765.31
429.40	8238.69
429.59	7564.61
429.78	6817.98
429.97	6768.83
430.16	6780.53
430.34	6642.44
430.53	6942.03
430.72	7283.75
430.91	8304.22
431.10	9572.79
431.28	10953.71
431.47	11658.21
431.66	11562.25
431.85	10401.34
432.03	9689.82
432.22	9792.80
432.41	10518.37
432.60	11194.78
432.79	11463.94
432.97	11712.04
433.16	11248.61
433.35	10057.28
433.54	9114.05
433.72	9121.07
433.91	9558.75
434.10	10595.61
434.28	11169.04
434.47	11351.60
434.66	11152.65
434.85	11049.67
435.03	11143.29
435.22	11440.54
435.41	11999.93
435.59	11686.29
435.78	12152.06
435.97	12093.55
436.16	12278.45
436.34	12318.24
436.53	11859.49
436.72	12037.38
436.90	11094.14
437.09	11475.65
437.28	11218.19
437.46	11442.88
437.65	11417.13
437.84	10380.28
438.02	9935.57
438.21	10068.98
438.40	10569.86
438.58	11239.25
438.77	11325.85
438.96	11592.67
439.14	12273.77
439.33	12236.32
439.52	12489.10
439.70	12215.26
439.89	11707.36
440.08	11651.19
440.26	11871.20
440.45	12088.87
440.63	13151.47
440.82	13642.98
441.01	13114.02
441.19	13343.39
441.38	13577.45
441.57	14019.81
441.75	13687.45
441.94	13926.19
442.12	13982.36
442.31	14415.36
442.50	14366.21
442.68	14141.52
442.87	13839.59
443.05	13895.76
443.24	14391.95
443.43	14239.82
443.61	14078.32
443.80	14782.82
443.98	14129.81
444.17	14265.57
444.35	14923.26
444.54	14810.91
444.73	14703.25
444.91	14162.58
445.10	13394.89
445.28	13219.35
445.47	12842.52
445.65	12765.28
445.84	13584.47
446.02	13610.22
446.21	13804.48
446.39	14078.32
446.58	14185.99
446.77	14941.98
446.95	14871.76
447.14	15042.62
447.32	15115.18
447.51	14464.51
447.69	14141.52
447.88	14017.47
448.06	14223.44
448.25	14406.00
448.43	14665.80
448.62	14288.97
448.80	13752.99
448.99	14361.53
449.17	14352.16
449.36	14593.24
449.54	14906.87
449.73	15428.81
449.91	15288.38
450.10	15981.18
450.28	15953.09
450.46	15822.02
450.65	15538.82
450.83	15669.89
451.02	15524.77
451.20	15337.53
451.39	15002.83
451.57	15140.93
451.76	15044.96
451.94	15051.99
452.13	14820.27
452.31	13823.20
452.49	13507.23
452.68	13757.67
452.86	13874.70
453.05	13970.66
453.23	14530.05
453.42	14979.43
453.60	15136.24
453.78	15105.82
453.97	14923.26
454.15	14857.72
454.34	14532.39
454.52	14874.10
454.70	14445.79
454.89	14295.99
455.07	14789.85
455.26	15227.53
455.44	15426.47
455.62	15487.32
455.81	16009.26
455.99	15295.40
456.17	15730.74
456.36	15662.86
456.54	15887.56
456.73	15999.90
456.91	16262.04
457.09	16191.83
457.28	16524.18
457.46	15676.91
457.64	15939.05
457.83	15229.87
458.01	15133.90
458.19	15763.51
458.38	15562.22
458.56	15562.22
458.74	15812.66
458.93	15536.48
459.11	15183.06
459.29	15353.91
459.48	15557.54
459.66	14988.79
459.84	15297.74
460.03	16105.23
460.21	15791.59
460.39	16229.27
460.57	16210.55
460.76	16210.55
460.94	16358.00
461.12	16002.24
461.31	16149.70
461.49	16444.60
461.67	16428.22
461.85	17027.40
462.04	16919.73
462.22	16751.21
462.40	16856.54
462.59	16343.96
462.77	16224.59
462.95	16341.62
463.13	16819.09
463.32	16559.29
463.50	15765.85
463.68	16130.97
463.86	16315.87
464.05	16053.73
464.23	15353.91
464.41	15283.70
464.59	15159.65
464.78	15693.29
464.96	15658.18
465.14	15604.35
465.32	16224.59
465.50	16652.91
465.69	16568.65
465.87	16325.24
466.05	15751.81
466.23	15351.57
466.41	15257.95
466.60	15826.70
466.78	15510.73
466.96	15482.64
467.14	15665.21
467.32	15836.06
467.51	15810.32
467.69	15316.47
467.87	15651.16
468.05	15974.16
468.23	15735.42
468.41	15805.64
468.60	15791.59
468.78	15772.87
468.96	15976.50
469.14	16173.10
469.32	16369.71
469.50	15407.75
469.69	15295.40
469.87	15272.00
470.05	15506.05
470.23	15524.77
470.41	15868.83
470.59	15887.56
470.77	15510.73
470.95	15922.66
471.14	16287.79
471.32	16360.34
471.50	17474.44
471.68	17406.56
471.86	17371.46
472.04	17352.73
472.22	17310.60
472.40	16339.28
472.58	16594.40
472.77	16294.81
472.95	16898.67
473.13	17146.76
473.31	16760.58
473.49	16985.27
473.67	16870.58
473.85	16959.52
474.03	17067.19
474.21	17153.79
474.39	17579.76
474.57	17291.88
474.75	17687.43
474.93	17628.92
475.12	17308.26
475.30	17383.16
475.48	17429.97
475.66	17575.08
475.84	17371.46
476.02	17509.55
476.20	17160.81
476.38	17537.63
476.56	17823.18
476.74	18139.15
476.92	18434.06
477.10	18202.35
477.28	18864.72
477.46	18970.04
477.64	18764.07
477.82	18724.29
478.00	19201.76
478.18	18834.29
478.36	18672.79
478.54	18534.70
478.72	18726.63
478.90	19887.53
479.08	19859.45
479.26	20191.80
479.44	19501.34
479.62	19845.40
479.80	20545.22
479.98	20175.42
480.16	20236.27
480.34	20688.00
480.52	20187.12
480.70	20114.56
480.88	20475.01
481.06	20945.45
481.24	20994.61
481.41	22064.23
481.59	22097.00
481.77	21233.34
481.95	20739.49
482.13	21362.07
482.31	20975.88
482.49	21734.21
482.67	21198.23
482.85	21177.17
483.03	21378.45
483.21	21928.48
483.39	21996.35
483.57	21621.87
483.74	21837.20
483.92	21502.50
484.10	22085.30
484.28	22242.11
484.46	22445.74
484.64	21951.88
484.82	22338.07
485.00	22001.04
485.18	20954.82
485.35	20432.88
485.53	18099.36
485.71	16996.97
485.89	17376.14
486.07	18420.02
486.25	20044.35
486.43	20823.75
486.61	20439.90
486.78	20650.55
486.96	21319.94
487.14	22195.30
487.32	22852.99
487.50	23054.28
487.68	22831.93
487.85	24088.79
488.03	23796.23
488.21	23379.61
488.39	22640.00
488.57	23108.11
488.75	23065.98
488.92	23880.49
489.10	25701.42
489.28	26314.64
489.46	26874.03
489.64	27236.81
489.81	26759.34
489.99	26127.40
490.17	26370.82
490.35	26827.22
490.53	26050.16
490.70	25804.41
490.88	26515.93
491.06	26785.09
491.24	26934.88
491.41	25469.71
491.59	24629.46
491.77	23838.36
491.95	25095.22
492.13	25448.64
492.30	26391.88
492.48	27665.13
492.66	28112.17
492.84	27466.19
493.01	26859.99
493.19	26593.17
493.37	25436.94
493.54	26155.49
493.72	27016.80
493.90	27833.65
494.08	28496.02
494.25	29467.34
494.43	29579.69
494.61	30125.04
494.79	30228.02
494.96	29607.78
495.14	28489.00
495.32	27906.21
495.49	27508.32
495.67	28437.51
495.85	30031.41
496.02	30178.87
496.20	30742.94
496.38	29780.98
496.55	29589.05
496.73	29977.58
496.91	29883.96
497.09	30120.35
497.26	30197.59
497.44	30691.44
497.62	30082.91
497.79	28828.38
497.97	27934.29
498.14	28156.64
498.32	29027.32
498.50	29771.61
498.67	30632.93
498.85	30073.54
499.03	29401.81
499.20	30129.72
499.38	29795.02
499.56	29188.82
499.73	29263.72
499.91	28816.68
500.08	28212.82
500.26	27906.21
500.44	28643.48
500.61	29621.82
500.79	28430.49
500.97	28322.82
501.14	28470.28
501.32	28107.49
501.49	27538.74
501.67	28561.56
501.84	29710.76
502.02	29385.43
502.20	29486.07
502.37	30408.24
502.55	30448.03
502.72	30850.60
502.90	31206.36
503.07	30546.33
503.25	30672.72
503.43	29237.97
503.60	28292.40
503.78	27704.92
503.95	29078.82
504.13	29560.97
504.30	30668.04
504.48	31302.32
504.65	30553.35
504.83	30375.47
505.01	30625.91
505.18	30426.96
505.36	31957.67
505.53	31913.20
505.71	32308.76
505.88	32107.47
506.06	32105.13
506.23	31168.91
506.41	30656.34
506.58	31344.45
506.76	30389.52
506.93	31477.86
507.11	29457.98
507.28	30366.11
507.46	30073.54
507.63	29525.86
507.81	28917.32
507.98	29518.84
508.16	30663.36
508.33	31204.02
508.50	30684.42
508.68	31962.36
508.85	32292.37
509.03	31442.76
509.20	30328.66
509.38	30590.80
509.55	30342.70
509.73	30953.58
509.90	31632.34
510.08	30707.83
510.25	30110.99
510.42	30316.96
510.60	30338.02
510.77	31927.25
510.95	31920.23
511.12	31218.07
511.30	31873.42
511.47	32517.06
511.64	31632.34
511.82	31758.73
511.99	31044.87
512.17	31241.47
512.34	30937.20
512.51	30101.63
512.69	30630.59
512.86	30913.80
513.04	31295.30
513.21	31246.15
513.38	31124.44
513.56	30019.71
513.73	29556.28
513.90	28903.28
514.08	29401.81
514.25	30300.58
514.43	30661.02
514.60	30932.52
514.77	30595.48
514.95	30897.41
515.12	30724.21
515.29	31384.24
515.47	31519.99
515.64	30962.95
515.81	31281.26
515.99	30803.79
516.16	27953.02
516.33	26061.87
516.51	25083.52
516.68	24357.96
516.85	23662.82
517.03	24540.52
517.20	27112.77
517.37	29467.34
517.54	29158.39
517.72	28048.98
517.89	26436.35
518.06	25717.81
518.24	26700.83
518.41	27496.61
518.58	28807.31
518.75	28723.05
518.93	29134.99
519.10	28849.44
519.27	29376.06
519.45	29916.73
519.62	31000.40
519.79	31098.70
519.96	31065.93
520.14	29982.26
520.31	29160.73
520.48	29118.60
520.65	29710.76
520.83	30338.02
521.00	29977.58
521.17	30024.39
521.34	29872.26
521.52	30132.06
521.69	30778.04
521.86	31267.22
522.03	29993.97
522.20	29408.83
522.38	28308.78
522.55	28877.53
522.72	29502.45
522.89	28973.49
523.07	29343.30
523.24	30326.32
523.41	31182.96
523.58	30705.49
523.75	30377.81
523.92	31456.80
524.10	31199.34
524.27	31468.50
524.44	30967.63
524.61	31740.00
524.78	31440.42
524.96	30890.39
525.13	31079.97
525.30	31880.44
525.47	32418.76
525.64	31527.02
525.81	29872.26
525.98	28020.89
526.16	27087.02
526.33	26991.06
526.50	26691.47
526.67	26904.46
526.84	26897.44
527.01	28474.96
527.18	29235.63
527.36	29717.78
527.53	31049.55
527.70	30312.28
527.87	28847.10
528.04	29095.20
528.21	29998.65
528.38	30668.04
528.55	31655.75
528.72	31672.13
528.89	31187.64
529.07	31627.66
529.24	30101.63
529.41	30216.32
529.58	29654.59
529.75	29446.28
529.92	30185.89
530.09	30110.99
530.26	31061.25
530.43	29825.45
530.60	31164.23
530.77	31157.21
530.94	32315.78
531.11	30824.86
531.28	30897.41
531.46	30059.50
531.63	31482.55
531.80	31405.31
531.97	30082.91
532.14	28552.20
532.31	27534.06
532.48	26747.64
532.65	27419.38
532.82	28107.49
532.99	29209.89
533.16	30644.63
533.33	31606.59
533.50	30831.88
533.67	29720.12
533.84	29750.55
534.01	29593.73
534.18	29916.73
534.35	29317.55
534.52	29647.57
534.69	30045.46
534.86	29710.76
535.03	30183.55
535.20	30768.68
535.37	30820.17
535.54	31229.77
535.71	30263.13
535.88	30235.04
536.05	29319.89
536.22	29235.63
536.38	29048.39
536.55	29371.38
536.72	28840.08
536.89	28847.10
537.06	29862.90
537.23	29652.25
537.40	29404.15
537.57	29535.22
537.74	28755.82
537.91	28760.50
538.08	30164.82
538.25	30071.20
538.42	29111.58
538.59	29806.72
538.75	29535.22
538.92	29523.52
539.09	28713.69
539.26	27845.35
539.43	27580.87
539.60	27557.47
539.77	27276.60
539.94	27042.55
540.11	26038.46
540.28	26071.23
540.44	26946.59
540.61	27103.40
540.78	27199.37
540.95	28645.82
541.12	27749.39
541.29	29340.96
541.46	28346.23
541.62	28416.44
541.79	27166.60
541.96	27175.96
542.13	28531.13
542.30	28643.48
542.47	28198.77
542.63	27882.80
542.80	27049.57
542.97	27243.84
543.14	27082.34
543.31	27051.91
543.48	28474.96
543.64	28538.15
543.81	29867.58
543.98	28730.08
544.15	27974.08
544.32	27552.79
544.48	28449.21
544.65	27674.49
544.82	27955.36
544.99	28147.28
545.16	28189.41
545.32	28603.69
545.49	28840.08
545.66	28313.46
545.83	28100.47
546.00	28137.92
546.16	27950.68
546.33	27761.09
546.50	28559.22
546.67	27805.56
546.83	27662.79
547.00	27452.14
547.17	26899.78
547.34	27346.82
547.50	27339.80
547.67	27220.43
547.84	27154.90
548.00	27564.49
548.17	27110.43
548.34	27049.57
548.51	27070.64
548.67	28261.97
548.84	28238.56
549.01	28266.65
549.18	28294.74
549.34	28779.23
549.51	28662.20
549.68	28074.73
549.84	27440.44
550.01	27342.14
550.18	26808.50
550.34	26726.58
550.51	26724.24
550.68	26361.45
550.84	25256.72
551.01	25654.61
551.18	25886.32
551.34	25472.05
551.51	26696.15
551.68	27868.76
551.84	26768.71
552.01	27608.96
552.18	26794.45
552.34	26380.18
552.51	26199.96
552.68	27283.62
552.84	26527.63
553.01	26178.89
553.18	27693.22
553.34	27126.81
553.51	27068.30
553.67	26787.43
553.84	27924.93
554.01	27730.67
554.17	26192.94
554.34	26775.73
554.51	27721.30
554.67	27620.66
554.84	26787.43
555.00	26618.91
555.17	26515.93
555.33	26249.11
555.50	27309.37
555.67	27051.91
555.83	27072.98
556.00	26544.02
556.16	26647.00
556.33	26103.99
556.50	26008.03
556.66	25132.67
556.83	24926.71
556.99	25589.08
557.16	25551.63
557.32	25626.53
557.49	25724.83
557.65	25837.17
557.82	25088.20
557.98	25301.19
558.15	25654.61
558.32	25261.40
558.48	24205.82
558.65	23543.45
558.81	23896.87
558.98	24203.48
559.14	25053.09
559.31	25446.30
559.47	24769.89
559.64	24437.53
559.80	25252.04
559.97	24929.05
560.13	25450.99
560.30	25549.29
560.46	25525.88
560.63	25954.20
560.79	26197.62
560.96	25427.58
561.12	24781.59
561.29	24774.57
561.45	24313.48
561.61	24311.14
561.78	24622.44
561.94	24655.20
562.11	24034.96
562.27	24774.57
562.44	24938.41
562.60	24922.02
562.77	25163.10
562.93	24851.81
563.10	24697.33
563.26	24400.08
563.42	23791.55
563.59	23592.60
563.75	24809.68
563.92	24154.33
564.08	24341.57
564.24	24294.76
564.41	23445.15
564.57	23833.68
564.74	23433.44
564.90	23421.74
565.07	23225.14
565.23	22480.85
565.39	22211.68
565.56	24034.96
565.72	23487.28
565.88	23917.93
566.05	23131.51
566.21	23372.59
566.38	23234.50
566.54	22920.87
566.70	22796.82
566.87	23381.95
567.03	24477.32
567.19	25408.86
567.36	23253.22
567.52	23864.10
567.68	23721.33
567.85	23473.23
568.01	23723.67
568.17	22499.57
568.34	21731.87
568.50	21867.63
568.66	22375.52
568.83	22586.17
568.99	23044.91
569.15	23403.02
569.32	23349.18
569.48	22960.66
569.64	22115.72
569.81	21699.11
569.97	22356.80
570.13	22286.58
570.30	21771.66
570.46	21436.97
570.62	20865.88
570.78	20149.67
570.95	20528.84
571.11	21451.01
571.27	21390.16
571.43	21745.92
571.60	22511.27
571.76	22106.36
571.92	22721.92
572.09	22916.19
572.25	22457.44
572.41	23105.77
572.57	23040.23
572.74	22157.85
572.90	22244.45
573.06	22111.04
573.22	22057.21
573.38	22127.42
573.55	21153.76
573.71	21954.22
573.87	21797.41
574.03	22024.44
574.20	21839.54
574.36	21656.98
574.52	21631.23
574.68	21177.17
574.84	21118.65
575.01	21406.54
575.17	21324.62
575.33	21172.49
575.49	20781.62
575.65	21441.65
575.82	21282.49
575.98	20744.17
576.14	21664.00
576.30	20769.91
576.46	20512.46
576.62	21338.66
576.79	20783.96
576.95	20088.82
577.11	20437.56
577.27	20128.61
577.43	20493.73
577.59	20198.82
577.75	20929.07
577.92	19941.36
578.08	19875.83
578.24	19995.20
578.40	20067.75
578.56	20196.48
578.72	20159.03
578.88	20744.17
579.04	20428.20
579.21	20449.26
579.37	20547.56
579.53	19894.55
579.69	19943.70
579.85	19866.47
580.01	19772.85
580.17	20004.56
580.33	20098.18
580.49	20088.82
580.65	19852.42
580.82	20144.99
580.98	20575.65
581.14	20144.99
581.30	21130.36
581.46	20442.24
581.62	20278.40
581.78	20152.01
581.94	21015.67
582.10	20566.29
582.26	20332.23
582.42	20556.93
582.58	21546.97
582.74	20652.89
582.90	20500.75
583.06	20573.31
583.22	20425.86
583.38	20711.40
583.54	20781.62
583.70	20482.03
583.86	20629.48
584.02	20467.98
584.18	20208.19
584.34	20493.73
584.50	21076.52
584.66	20697.36
584.82	20533.52
584.98	20152.01
585.14	19910.94
585.30	18979.40
585.46	19054.30
585.62	18111.07
585.78	19126.86
585.94	19183.03
586.10	20081.80
586.26	19545.81
586.42	19550.49
586.58	19517.73
586.74	19145.58
