SpectraSuite Data File
++++++++++++++++++++++++++++++++++++
Date: Mon Oct 07 14:53:15 GMT-05:00 2013
User: price-jones
Dark Spectrum Present: No
Reference Spectrum Present: No
Number of Sampled Component Spectra: 1
Spectrometers: USB2+H05261
Integration Time (usec): 100000 (USB2+H05261)
Spectra Averaged: 1 (USB2+H05261)
Boxcar Smoothing: 0 (USB2+H05261)
Correct for Electrical Dark: No (USB2+H05261)
Strobe/Lamp Enabled: No (USB2+H05261)
Correct for Detector Non-linearity: No (USB2+H05261)
Correct for Stray Light: No (USB2+H05261)
Number of Pixels in Processed Spectrum: 2048
>>>>>Begin Processed Spectral Data<<<<<
365.73	0.00
365.92	0.00
366.12	0.00
366.32	0.00
366.52	0.00
366.72	0.00
366.91	0.00
367.11	0.00
367.31	0.00
367.51	0.00
367.70	0.00
367.90	0.00
368.10	0.00
368.30	0.00
368.49	0.00
368.69	0.00
368.89	0.00
369.09	0.00
369.28	0.00
369.48	0.00
369.68	0.00
369.87	0.00
370.07	0.00
370.27	0.00
370.47	617.90
370.66	3183.13
370.86	3655.92
371.06	4100.62
371.25	4290.20
371.45	3651.24
371.65	3267.39
371.84	3145.68
372.04	3377.39
372.24	3676.98
372.44	3751.88
372.63	3669.96
372.83	3433.57
373.03	3049.72
373.22	2832.05
373.42	2974.82
373.62	3564.64
373.81	3728.47
374.01	3686.34
374.21	3370.37
374.40	3002.91
374.60	3421.86
374.79	3552.93
374.99	4271.48
375.19	4758.31
375.38	4505.53
375.58	4273.82
375.78	4339.35
375.97	4465.74
376.17	4411.91
376.37	4503.19
376.56	4683.41
376.76	4912.78
376.95	5142.16
377.15	5540.05
377.35	5757.72
377.54	5984.75
377.74	6258.59
377.93	6099.44
378.13	5944.96
378.33	5626.65
378.52	5163.22
378.72	5069.60
378.91	4985.34
379.11	4891.72
379.31	4617.88
379.50	4648.30
379.70	5041.51
379.89	5624.31
380.09	5916.87
380.28	6076.03
380.48	5916.87
380.68	5898.15
380.87	5809.21
381.07	5270.89
381.26	4931.51
381.46	4681.07
381.65	4479.79
381.85	4505.53
382.04	4238.71
382.24	3742.52
382.43	3667.62
382.63	3562.30
382.83	3517.83
383.02	3751.88
383.22	3648.90
383.41	3637.19
383.61	3925.08
383.80	4444.68
384.00	5032.15
384.19	5753.04
384.39	5818.57
384.58	5893.47
384.78	5837.30
384.97	5827.93
385.17	5572.82
385.36	5128.11
385.56	4910.44
385.75	5203.01
385.95	5664.10
386.14	6188.38
386.34	6022.20
386.53	5741.33
386.72	5530.69
386.92	5600.90
387.11	5872.40
387.31	6094.76
387.50	6090.07
387.70	5689.84
387.89	5734.31
388.09	5776.44
388.28	6092.41
388.48	5886.45
388.67	6363.92
388.86	7068.42
389.06	7541.21
389.25	7850.16
389.45	7981.23
389.64	7892.29
389.84	7901.65
390.03	7765.90
390.22	7719.09
390.42	7985.91
390.61	8634.24
390.81	9043.83
391.00	9153.84
391.19	9174.90
391.39	8847.22
391.58	8208.26
391.78	7742.49
391.97	7555.25
392.16	7131.61
392.36	6427.11
392.55	5081.30
392.75	4180.20
392.94	3421.86
393.13	3201.85
393.33	4067.85
393.52	4978.32
393.71	6331.15
393.91	6951.39
394.10	7777.60
394.29	8528.91
394.49	9090.64
394.68	9806.84
394.88	9549.39
395.07	10139.20
395.26	9912.17
395.46	9598.54
395.65	9013.40
395.84	7985.91
396.04	6689.25
396.23	5313.02
396.42	4521.92
396.62	4493.83
396.81	5186.63
397.00	6750.10
397.19	8259.75
397.39	9867.70
397.58	10843.70
397.77	11742.47
397.97	12194.19
398.16	12163.76
398.35	12959.55
398.55	13118.70
398.74	13575.11
398.93	13907.46
399.12	13767.03
399.32	13289.56
399.51	13453.40
399.70	14169.60
399.90	14293.65
400.09	14078.32
400.28	14015.13
400.47	14193.01
400.67	14801.55
400.86	15272.00
401.05	15073.05
401.24	15316.47
401.44	15515.41
401.63	15433.49
401.82	15709.68
402.01	15681.59
402.21	15922.66
402.40	15946.07
402.59	15433.49
402.78	14876.44
402.97	14396.64
403.17	15033.26
403.36	15981.18
403.55	16271.40
403.74	16751.21
403.93	15868.83
404.13	14871.76
404.32	14464.51
404.51	15204.12
404.70	16472.69
404.89	16226.93
405.09	16107.57
405.28	15550.52
405.47	15585.63
405.66	15719.04
405.85	14874.10
406.05	14562.81
406.24	14867.08
406.43	15585.63
406.62	15939.05
406.81	16233.96
407.00	15627.76
407.20	15419.45
407.39	15440.51
407.58	16135.65
407.77	16673.98
407.96	17399.54
408.15	17472.10
408.34	17404.22
408.54	18555.77
408.73	18487.89
408.92	18136.81
409.11	17841.90
409.30	16891.65
409.49	15960.11
409.68	14801.55
409.87	14221.10
410.07	15510.73
410.26	16325.24
410.45	17376.14
410.64	18045.53
410.83	18604.92
411.02	18986.43
411.21	19943.70
411.40	19520.07
411.59	19564.54
411.78	19597.31
411.98	19456.87
412.17	19573.90
412.36	18916.21
412.55	19166.65
412.74	18888.12
412.93	18298.31
413.12	18525.34
413.31	20013.92
413.50	20538.20
413.69	20896.30
413.88	19941.36
414.07	19637.09
414.26	19941.36
414.45	20603.74
414.64	20311.17
414.83	20430.54
415.02	20262.02
415.22	20196.48
415.41	20666.93
415.60	21202.91
415.79	22286.58
415.98	22548.72
416.17	22403.61
416.36	22094.66
416.55	22019.76
416.74	21460.37
416.93	20725.44
417.12	20205.84
417.31	20388.41
417.50	21401.86
417.69	21724.85
417.88	21902.73
418.07	21415.90
418.26	21090.57
418.45	21610.17
418.64	22160.19
418.83	22616.60
419.02	22672.77
419.21	22415.31
419.39	21460.37
419.58	20229.25
419.77	20318.19
419.96	21596.12
420.15	22640.00
420.34	23138.54
420.53	24044.32
420.72	24718.40
420.91	24025.60
421.10	24238.59
421.29	23718.99
421.48	23419.40
421.67	24414.13
421.86	23548.13
422.05	21692.08
422.24	19669.86
422.43	19580.92
422.61	21610.17
422.80	23475.57
422.99	22977.04
423.18	22417.65
423.37	22197.64
423.56	22038.48
423.75	22281.90
423.94	22686.81
424.13	21752.94
424.32	21762.30
424.50	22001.04
424.69	21458.03
424.88	21916.78
425.07	21696.77
425.26	21738.90
425.45	21661.66
425.64	20854.17
425.83	21223.98
426.01	22504.25
426.20	23061.30
426.39	22855.33
426.58	20926.73
426.77	19768.16
426.96	19140.90
427.15	19592.62
427.33	20971.20
427.52	21937.84
427.71	22087.64
427.90	21774.00
428.09	21631.23
428.28	21385.47
428.46	20397.77
428.65	20020.94
428.84	20636.50
429.03	20779.28
429.22	19873.49
429.40	19056.64
429.59	17160.81
429.78	15133.90
429.97	15396.04
430.16	15288.38
430.34	15400.72
430.53	15524.77
430.72	15660.52
430.91	17703.81
431.10	20964.18
431.28	24269.01
431.47	26218.68
431.66	26508.91
431.85	24400.08
432.03	22148.49
432.22	21357.39
432.41	22338.07
432.60	24716.06
432.79	25699.08
432.97	26185.91
433.16	25507.16
433.35	23047.26
433.54	20912.69
433.72	19669.86
433.91	20526.50
434.10	22445.74
434.28	24374.34
434.47	25504.82
434.66	24882.24
434.85	24318.17
435.03	24369.66
435.22	25359.70
435.41	26738.28
435.59	26415.29
435.78	27101.06
435.97	27669.81
436.16	28098.13
436.34	27414.69
436.53	26637.64
436.72	26930.20
436.90	25493.12
437.09	25635.89
437.28	25188.85
437.46	25886.32
437.65	25888.67
437.84	24435.19
438.02	21968.27
438.21	21979.97
438.40	23447.49
438.58	25352.68
438.77	25696.74
438.96	26153.15
439.14	27463.85
439.33	27908.55
439.52	28589.64
439.70	27456.82
439.89	27143.19
440.08	26277.19
440.26	26274.85
440.45	26874.03
440.63	29439.26
440.82	30316.96
441.01	30246.74
441.19	29883.96
441.38	30417.60
441.57	31033.16
441.75	31653.40
441.94	32226.84
442.12	31651.06
442.31	32306.41
442.50	32545.15
442.68	31889.80
442.87	31566.81
443.05	30761.66
443.24	31519.99
443.43	32264.28
443.61	33020.28
443.80	33270.72
443.98	31222.75
444.17	31323.39
444.35	33085.81
444.54	33436.89
444.73	33303.48
444.91	32016.19
445.10	30852.94
445.28	29497.77
445.47	28903.28
445.65	28975.83
445.84	29853.53
446.02	31276.58
446.21	31498.93
446.39	31620.64
446.58	31833.63
446.77	32589.62
446.95	33048.36
447.14	33684.99
447.32	34190.55
447.51	33373.70
447.69	32058.32
447.88	31756.39
448.06	32629.41
448.25	32776.86
448.43	33347.95
448.62	32165.98
448.80	32629.41
448.99	32662.18
449.17	33060.07
449.36	33472.00
449.54	34244.38
449.73	34583.76
449.91	35302.30
450.10	35796.15
450.28	36591.94
450.46	36201.07
450.65	36446.82
450.83	36252.56
451.02	35314.00
451.20	35388.90
451.39	35044.84
451.57	34838.87
451.76	34958.24
451.94	34831.85
452.13	34143.74
452.31	32725.37
452.49	31131.47
452.68	31751.71
452.86	31852.35
453.05	32243.22
453.23	32889.21
453.42	33797.34
453.60	34401.19
453.78	34983.99
453.97	34527.58
454.15	34480.77
454.34	33914.36
454.52	34033.73
454.70	33511.79
454.89	33694.35
455.07	33661.58
455.26	34714.83
455.44	35761.05
455.62	36077.02
455.81	36577.89
455.99	35868.71
456.17	35847.64
456.36	35861.69
456.54	36907.91
456.73	36767.48
456.91	37607.73
457.09	37439.21
457.28	38511.17
457.46	36629.38
457.64	36128.51
457.83	35178.25
458.01	34698.44
458.19	36088.72
458.38	36013.82
458.56	37046.00
458.74	36739.39
458.93	36137.87
459.11	36074.68
459.29	36151.91
459.48	36327.45
459.66	35690.83
459.84	36456.18
460.03	36505.34
460.21	36425.76
460.39	37715.39
460.57	37591.34
460.76	37951.79
460.94	37975.19
461.12	37846.46
461.31	37757.52
461.49	37907.32
461.67	37942.42
461.85	39161.84
462.04	38749.91
462.22	38981.62
462.40	38815.44
462.59	38583.73
462.77	38616.50
462.95	38902.04
463.13	38623.52
463.32	38160.09
463.50	37280.05
463.68	38052.43
463.86	38209.25
464.05	37436.87
464.23	36685.56
464.41	36435.12
464.59	36170.64
464.78	37614.75
464.96	37530.49
465.14	37116.22
465.32	38265.42
465.50	39203.97
465.69	39255.46
465.87	38543.94
466.05	37237.92
466.23	35590.19
466.41	35115.06
466.60	36013.82
466.78	36023.19
466.96	36980.46
467.14	37198.13
467.32	38085.20
467.51	37773.91
467.69	36257.24
467.87	36982.80
468.05	37827.74
468.23	37944.76
468.41	37647.52
468.60	37907.32
468.78	38071.15
468.96	37310.48
469.14	38075.84
469.32	38600.12
469.50	36624.70
469.69	37165.37
469.87	36486.61
470.05	36343.84
470.23	36739.39
470.41	36409.37
470.59	37291.76
470.77	37603.05
470.95	38267.76
471.14	38822.47
471.32	38274.78
471.50	40437.44
471.68	40484.25
471.86	41214.49
472.04	41551.53
472.22	41455.57
472.40	39496.54
472.58	39253.12
472.77	38770.97
472.95	39679.10
473.13	40435.10
473.31	39285.89
473.49	39833.58
473.67	40465.52
473.85	41036.61
474.03	41778.56
474.21	42019.64
474.39	42211.56
474.57	42361.36
474.75	42347.31
474.93	41696.64
475.12	40971.08
475.30	41071.72
475.48	41546.85
475.66	42066.45
475.84	41247.26
476.02	41343.22
476.20	41270.67
476.38	41436.84
476.56	42930.11
476.74	42775.63
476.92	43215.65
477.10	43812.49
477.28	44982.76
477.46	45141.91
477.64	45577.25
477.82	45635.77
478.00	45556.19
478.18	44971.05
478.36	44935.95
478.54	45059.99
478.72	45186.38
478.90	46724.11
479.08	47782.04
479.26	47730.54
479.44	47515.22
479.62	47124.35
479.80	47229.67
479.98	47557.35
480.16	48058.22
480.34	47402.87
480.52	47859.27
480.70	48025.45
480.88	48217.38
481.06	49249.55
481.24	49397.01
481.41	50078.10
481.59	50328.54
481.77	50447.91
481.95	49677.87
482.13	49581.91
482.31	49347.86
482.49	50611.74
482.67	50019.59
482.85	50225.56
483.03	51004.95
483.21	51302.20
483.39	51449.66
483.57	50782.60
483.74	50160.02
483.92	50759.20
484.10	50937.08
484.28	51812.44
484.46	51894.36
484.64	52341.40
484.82	51473.06
485.00	51030.70
485.18	50466.63
485.35	49408.71
485.53	46286.43
485.71	42422.21
485.89	41830.05
486.07	44507.63
486.25	47941.19
486.43	49633.40
486.61	50433.86
486.78	50209.17
486.96	50258.32
487.14	51798.40
487.32	52842.27
487.50	53574.86
487.68	54234.89
487.85	54443.20
488.03	54548.53
488.21	54342.56
488.39	53230.80
488.57	53242.51
488.75	52959.30
488.92	53895.52
489.10	55615.81
489.28	56788.42
489.46	57151.20
489.64	57055.24
489.81	57357.17
489.99	57003.75
490.17	56947.57
490.35	57242.48
490.53	56961.62
490.70	56463.08
490.88	56507.55
491.06	57083.33
491.24	57198.01
491.41	56301.59
491.59	55037.70
491.77	54513.42
491.95	55421.55
492.13	56315.63
492.30	57296.31
492.48	58375.30
492.66	58695.95
492.84	58518.07
493.01	58403.39
493.19	57785.49
493.37	57633.35
493.54	57272.91
493.72	58049.97
493.90	58700.64
494.08	59405.14
494.25	59835.80
494.43	59817.07
494.61	60488.80
494.79	60310.92
494.96	60324.97
495.14	59606.42
495.32	58885.54
495.49	58197.42
495.67	59126.61
495.85	60339.01
496.02	60596.47
496.20	60495.83
496.38	60261.77
496.55	60081.55
496.73	60594.13
496.91	60690.09
497.09	61144.16
497.26	61169.90
497.44	60837.54
497.62	60303.90
497.79	59695.36
497.97	58836.39
498.14	58864.47
498.32	60100.28
498.50	60516.89
498.67	61029.47
498.85	60900.74
499.03	60977.98
499.20	61359.48
499.38	61312.67
499.56	61045.85
499.73	60662.00
499.91	60339.01
500.08	59994.95
500.26	59292.79
500.44	59653.23
500.61	60322.63
500.79	60116.66
500.97	59863.88
501.14	59688.34
501.32	59592.38
501.49	59688.34
501.67	59821.75
501.84	60261.77
502.02	60619.88
502.20	60788.39
502.37	61102.03
502.55	61031.81
502.72	61499.92
502.90	61991.43
503.07	61626.31
503.25	61251.82
503.43	60411.57
503.60	60095.60
503.78	59475.35
503.95	59777.28
504.13	60898.40
504.30	61811.21
504.48	61649.71
504.65	61394.59
504.83	61375.87
505.01	61918.87
505.18	62136.54
505.36	62693.59
505.53	62576.56
505.71	63049.35
505.88	63267.02
506.06	62459.54
506.23	62197.40
506.41	61874.40
506.58	62101.43
506.76	61815.89
506.93	62078.03
507.11	61888.45
507.28	61818.23
507.46	61661.41
507.63	61111.39
507.81	60809.46
507.98	60977.98
508.16	61684.82
508.33	62274.63
508.50	62300.38
508.68	62688.91
508.85	63238.93
509.03	63178.08
509.20	63171.06
509.38	62630.40
509.55	61853.34
509.73	61694.18
509.90	62239.53
510.08	62368.26
510.25	62546.14
510.42	62408.04
510.60	62340.17
510.77	62248.89
510.95	62894.88
511.12	63238.93
511.30	63267.02
511.47	63695.34
511.64	63561.93
511.82	63220.21
511.99	62562.52
512.17	62234.84
512.34	61937.60
512.51	61991.43
512.69	62113.14
512.86	62391.66
513.04	62539.11
513.21	62536.77
513.38	62082.71
513.56	61851.00
513.73	61214.37
513.90	61455.45
514.08	61574.81
514.25	61806.53
514.43	62148.24
514.60	62094.41
514.77	62227.82
514.95	62384.64
515.12	62190.37
515.29	62422.09
515.47	62911.26
515.64	63105.52
515.81	62623.37
515.99	62372.94
516.16	60919.46
516.33	59133.63
516.51	57677.82
516.68	57116.09
516.85	56816.50
517.03	57153.54
517.20	59482.37
517.37	61602.90
517.54	62621.03
517.72	61771.42
517.89	59608.76
518.06	57612.29
518.24	58389.34
518.41	59983.25
518.58	61038.83
518.75	61095.00
518.93	61666.09
519.10	61226.07
519.27	61858.02
519.45	61928.23
519.62	62663.16
519.79	62951.05
519.96	62745.08
520.14	62356.55
520.31	61570.13
520.48	61427.36
520.65	62148.24
520.83	62845.72
521.00	62972.11
521.17	62873.81
521.34	62513.37
521.52	62834.02
521.69	63093.82
521.86	63646.19
522.03	63234.25
522.20	62164.63
522.38	61303.31
522.55	61612.26
522.72	62054.62
522.89	62068.67
523.07	62253.57
523.24	62529.75
523.41	63337.24
523.58	63519.80
523.75	63913.01
523.92	63800.66
524.10	63842.79
524.27	63870.88
524.44	63655.55
524.61	63365.32
524.78	63068.08
524.96	63164.04
525.13	63229.57
525.30	63451.92
525.47	63791.30
525.64	63824.07
525.81	63084.46
525.98	61757.38
526.16	60533.28
526.33	59948.14
526.50	59547.91
526.67	59456.63
526.84	60058.15
527.01	60811.80
527.18	61605.24
527.36	62464.22
527.53	63339.58
527.70	63402.77
527.87	62925.30
528.04	62384.64
528.21	62979.14
528.38	63519.80
528.55	64053.44
528.72	64182.17
528.89	64374.09
529.07	64221.96
529.24	63700.02
529.41	63016.58
529.58	62506.35
529.75	62443.15
529.92	62965.09
530.09	63365.32
530.26	63784.28
530.43	64135.36
530.60	64060.46
530.77	64303.88
530.94	64362.39
531.11	63870.88
531.28	63575.97
531.46	63522.14
531.63	63634.48
531.80	63472.99
531.97	63164.04
532.14	62415.07
532.31	61312.67
532.48	60966.27
532.65	60977.98
532.82	61909.51
532.99	62827.00
533.16	63011.90
533.33	63597.04
533.50	63412.13
533.67	62805.94
533.84	62377.62
534.01	62499.33
534.18	62869.13
534.35	62979.14
534.52	62876.15
534.69	63227.23
534.86	63402.77
535.03	63798.32
535.20	64037.06
535.37	64381.12
535.54	64493.46
535.71	64238.34
535.88	63828.75
536.05	63222.55
536.22	62824.66
536.38	62721.68
536.55	62227.82
536.72	61839.29
536.89	61694.18
537.06	62445.49
537.23	63224.89
537.40	63203.83
537.57	63222.55
537.74	63091.48
537.91	63208.51
538.08	63220.21
538.25	63187.44
538.42	63351.28
538.59	63079.78
538.75	62597.63
538.92	62396.34
539.09	62260.59
539.26	62085.05
539.43	61923.55
539.60	62129.52
539.77	62251.23
539.94	62080.37
540.11	61483.53
540.28	61174.58
540.44	61080.96
540.61	61235.44
540.78	61425.02
540.95	61944.62
541.12	62284.00
541.29	62496.98
541.46	62705.29
541.62	62742.74
541.79	62658.48
541.96	62078.03
542.13	62007.81
542.30	62520.39
542.47	62382.30
542.63	62213.78
542.80	62087.39
542.97	62260.59
543.14	62150.59
543.31	62031.22
543.48	62592.95
543.64	63391.07
543.81	63660.23
543.98	63484.69
544.15	62719.34
544.32	62166.97
544.48	62234.84
544.65	62702.95
544.82	63011.90
544.99	62784.87
545.16	62305.06
545.32	62344.85
545.49	63075.10
545.66	63412.13
545.83	62831.68
546.00	62574.22
546.16	62606.99
546.33	62323.78
546.50	62291.02
546.67	62766.15
546.83	62401.02
547.00	62410.38
547.17	62052.28
547.34	61315.01
547.50	61317.35
547.67	61609.92
547.84	61881.42
548.00	61968.02
548.17	62621.03
548.34	62522.73
548.51	62405.70
548.67	62370.60
548.84	62621.03
549.01	62555.50
549.18	62405.70
549.34	62176.33
549.51	62281.66
549.68	62197.40
549.84	62045.26
550.01	62122.50
550.18	62026.54
550.34	61757.38
550.51	62021.86
550.68	62244.21
550.84	61745.67
551.01	61932.92
551.18	61649.71
551.34	61911.85
551.51	62232.50
551.68	62489.96
551.84	62246.55
552.01	62356.55
552.18	62148.24
552.34	61499.92
552.51	61106.71
552.68	61162.88
552.84	61560.77
553.01	61820.57
553.18	61642.69
553.34	61916.53
553.51	61925.89
553.67	61993.77
553.84	62197.40
554.01	62092.07
554.17	62131.86
554.34	62089.73
554.51	62255.91
554.67	62532.09
554.84	62337.83
555.00	61949.30
555.17	61680.14
555.33	61965.68
555.50	61612.26
555.67	61680.14
555.83	61490.55
556.00	61418.00
556.16	61399.27
556.33	60924.14
556.50	61050.53
556.66	60966.27
556.83	60643.28
556.99	60872.65
557.16	61013.08
557.32	61167.56
557.49	61286.93
557.65	61102.03
557.82	61265.86
557.98	61113.73
558.15	60849.25
558.32	60142.41
558.48	59421.52
558.65	59746.86
558.81	59849.84
558.98	60247.73
559.14	60369.44
559.31	60491.15
559.47	60261.77
559.64	60184.54
559.80	59650.89
559.97	60149.43
560.13	60182.19
560.30	61197.99
560.46	61366.51
560.63	61724.61
560.79	61642.69
560.96	61357.14
561.12	60472.42
561.29	59749.20
561.45	59695.36
561.61	60074.53
561.78	60640.94
561.94	60514.55
562.11	60441.99
562.27	60282.84
562.44	60533.28
562.60	60697.11
562.77	60949.89
562.93	60781.37
563.10	60619.88
563.26	60423.27
563.42	60247.73
563.59	60111.98
563.75	60334.33
563.92	60264.11
564.08	60090.91
564.24	60257.09
564.41	60563.70
564.57	60334.33
564.74	60168.15
564.90	60210.28
565.07	59643.87
565.23	59835.80
565.39	59224.92
565.56	59100.87
565.72	58894.90
565.88	59245.98
566.05	59316.20
566.21	59529.19
566.38	59554.93
566.54	59655.57
566.70	59973.89
566.87	60144.75
567.03	60296.88
567.19	60229.01
567.36	59854.52
567.52	59976.23
567.68	59746.86
567.85	59161.72
568.01	58946.39
568.17	58686.59
568.34	58733.40
568.50	58429.13
568.66	58700.64
568.83	58969.80
568.99	58913.62
569.15	59358.33
569.32	59131.29
569.48	58873.84
569.64	58876.18
569.81	58501.69
569.97	58567.23
570.13	58548.50
570.30	57949.32
570.46	57822.93
570.62	57251.84
570.78	57202.69
570.95	57478.88
571.11	58021.88
571.27	58255.93
571.43	58492.33
571.60	58728.72
571.76	58915.96
571.92	59210.87
572.09	59217.89
572.25	59133.63
572.41	59042.35
572.57	59051.72
572.74	59173.42
572.90	58625.74
573.06	58571.91
573.22	58707.66
573.38	58812.98
573.55	58426.79
573.71	59061.08
573.87	58684.25
574.03	58347.21
574.20	58379.98
574.36	58337.85
574.52	58174.02
574.68	58035.92
574.84	57609.95
575.01	57368.87
575.17	57357.17
575.33	57591.22
575.49	57783.15
575.65	58131.89
575.82	57631.01
575.98	57387.60
576.14	57808.89
576.30	58099.12
576.46	58117.84
576.62	58056.99
576.79	57996.13
576.95	57574.84
577.11	57551.43
577.27	57799.53
577.43	58026.56
577.59	57282.27
577.75	57195.67
577.92	56755.65
578.08	56509.89
578.24	56603.52
578.40	56694.80
578.56	56879.70
578.72	56823.53
578.88	57324.40
579.04	57450.79
579.21	57420.36
579.37	57268.23
579.53	57722.29
579.69	57551.43
579.85	57787.83
580.01	57623.99
580.17	57186.31
580.33	56968.64
580.49	57249.50
580.65	57322.06
580.82	57453.13
580.98	57476.54
581.14	57340.78
581.30	57598.24
581.46	57350.15
581.62	57542.07
581.78	57471.85
581.94	57626.33
582.10	57717.61
582.26	57783.15
582.42	57425.04
582.58	57872.09
582.74	57715.27
582.90	57705.91
583.06	57535.05
583.22	57546.75
583.38	57265.89
583.54	57235.46
583.70	57308.02
583.86	57097.37
584.02	57364.19
584.18	57237.80
584.34	57169.93
584.50	57235.46
584.66	57022.47
584.82	56765.01
584.98	56706.50
585.14	56278.18
