SpectraSuite Data File
++++++++++++++++++++++++++++++++++++
Date: Mon Oct 07 14:53:21 GMT-05:00 2013
User: price-jones
Dark Spectrum Present: No
Reference Spectrum Present: No
Number of Sampled Component Spectra: 1
Spectrometers: USB2+H05261
Integration Time (usec): 100000 (USB2+H05261)
Spectra Averaged: 1 (USB2+H05261)
Boxcar Smoothing: 0 (USB2+H05261)
Correct for Electrical Dark: No (USB2+H05261)
Strobe/Lamp Enabled: No (USB2+H05261)
Correct for Detector Non-linearity: No (USB2+H05261)
Correct for Stray Light: No (USB2+H05261)
Number of Pixels in Processed Spectrum: 2048
>>>>>Begin Processed Spectral Data<<<<<
365.73	0.00
365.92	0.00
366.12	0.00
366.32	0.00
366.52	0.00
366.72	0.00
366.91	0.00
367.11	0.00
367.31	0.00
367.51	0.00
367.70	0.00
367.90	0.00
368.10	0.00
368.30	0.00
368.49	0.00
368.69	0.00
368.89	0.00
369.09	0.00
369.28	0.00
369.48	0.00
369.68	0.00
369.87	0.00
370.07	0.00
370.27	0.00
370.47	559.39
370.66	2768.85
370.86	3171.43
371.06	3698.05
371.25	3611.45
371.45	3253.34
371.65	2871.84
371.84	2647.15
372.04	2899.92
372.24	3183.13
372.44	3410.16
372.63	3288.45
372.83	3180.79
373.03	2705.66
373.22	2452.88
373.42	2555.86
373.62	2972.48
373.81	3150.36
374.01	3211.22
374.21	2981.84
374.40	2780.56
374.60	2967.80
374.79	3328.24
374.99	3756.56
375.19	4067.85
375.38	4133.39
375.58	3791.67
375.78	3756.56
375.97	3978.91
376.17	3971.89
376.37	3899.33
376.56	4049.13
376.76	4266.80
376.95	4615.54
377.15	4894.06
377.35	5191.31
377.54	5385.57
377.74	5530.69
377.93	5542.39
378.13	5357.49
378.33	5210.03
378.52	4720.86
378.72	4568.73
378.91	4390.84
379.11	4315.95
379.31	4152.11
379.50	4154.45
379.70	4386.16
379.89	4964.28
380.09	5266.21
380.28	5593.88
380.48	5305.99
380.68	5210.03
380.87	5144.50
381.07	4755.97
381.26	4255.09
381.46	4138.07
381.65	4011.68
381.85	3983.59
382.04	3672.30
382.24	3595.06
382.43	3269.73
382.63	3253.34
382.83	3225.26
383.02	3243.98
383.22	3368.03
383.41	3459.31
383.61	3559.95
383.80	3964.87
384.00	4477.44
384.19	5015.77
384.39	5376.21
384.58	5261.52
384.78	5231.10
384.97	5146.84
385.17	4863.63
385.36	4601.49
385.56	4550.00
385.75	4629.58
385.95	4966.62
386.14	5603.24
386.34	5486.22
386.53	5219.39
386.72	5055.56
386.92	4983.00
387.11	5184.29
387.31	5411.32
387.50	5359.83
387.70	5273.23
387.89	5193.65
388.09	5268.55
388.28	5298.97
388.48	5324.72
388.67	5781.12
388.86	6118.16
389.06	6815.64
389.25	7246.30
389.45	7162.04
389.64	6942.03
389.84	7185.44
390.03	6927.99
390.22	6923.30
390.42	7089.48
390.61	7611.42
390.81	8126.34
391.00	8308.90
391.19	8299.54
391.39	7817.39
391.58	7520.14
391.78	6988.84
391.97	6832.02
392.16	6726.70
392.36	5820.91
392.55	4645.96
392.75	3765.92
392.94	3014.61
393.13	3012.27
393.33	3536.55
393.52	4578.09
393.71	5650.05
393.91	6216.46
394.10	6939.69
394.29	7513.12
394.49	7894.63
394.68	8840.20
394.88	8603.81
395.07	9067.24
395.26	8833.18
395.46	8636.58
395.65	8086.55
395.84	7159.70
396.04	6167.31
396.23	4709.16
396.42	4049.13
396.62	3922.74
396.81	4582.77
397.00	5841.98
397.19	7382.05
397.39	8549.98
397.58	9736.63
397.77	10679.86
397.97	10843.70
398.16	11049.67
398.35	11536.50
398.55	11840.77
398.74	11953.12
398.93	12496.12
399.12	12154.40
399.32	11765.87
399.51	11992.90
399.70	12931.46
399.90	12472.71
400.09	12791.03
400.28	12564.00
400.47	12748.90
400.67	13209.98
400.86	13607.87
401.05	13645.32
401.24	13579.79
401.44	13975.34
401.63	14064.28
401.82	14129.81
402.01	14115.77
402.21	14174.28
402.40	14174.28
402.59	13523.62
402.78	13099.98
402.97	12861.24
403.17	13289.56
403.36	14043.21
403.55	14803.89
403.74	14871.76
403.93	14181.31
404.13	13228.71
404.32	13088.28
404.51	13701.50
404.70	14492.60
404.89	14352.16
405.09	14377.91
405.28	13776.39
405.47	13661.71
405.66	13657.03
405.85	13322.33
406.05	13371.48
406.24	13289.56
406.43	13921.51
406.62	14389.61
406.81	14314.72
407.00	13659.37
407.20	13668.73
407.39	13867.67
407.58	14207.05
407.77	14728.99
407.96	15417.11
408.15	15587.97
408.34	15583.29
408.54	16800.37
408.73	16308.85
408.92	16149.70
409.11	15915.64
409.30	15089.43
409.49	14136.84
409.68	13125.72
409.87	12674.00
410.07	13734.26
410.26	14597.92
410.45	15438.17
410.64	16175.44
410.83	16477.37
411.02	16868.24
411.21	17575.08
411.40	17268.47
411.59	17195.92
411.78	17401.88
411.98	17088.25
412.17	17326.99
412.36	17305.92
412.55	16975.91
412.74	16844.84
412.93	16189.49
413.12	16578.01
413.31	18115.75
413.50	18237.45
413.69	18122.77
413.88	17628.92
414.07	17263.79
414.26	17289.54
414.45	18237.45
414.64	18061.91
414.83	18359.16
415.02	17759.98
415.22	17708.49
415.41	18553.43
415.60	18761.73
415.79	19555.18
415.98	20034.99
416.17	20128.61
416.36	19482.62
416.55	19161.97
416.74	18689.18
416.93	17834.88
417.12	18080.64
417.31	18478.53
417.50	18845.99
417.69	19140.90
417.88	19222.82
418.07	18775.78
418.26	18611.94
418.45	18778.12
418.64	19557.52
418.83	20247.97
419.02	19840.72
419.21	19789.23
419.39	18773.44
419.58	18092.34
419.77	17991.70
419.96	18644.71
420.15	19887.53
420.34	20561.61
420.53	21336.32
420.72	21649.96
420.91	21310.58
421.10	20884.60
421.29	20870.56
421.48	20287.76
421.67	21500.16
421.86	20563.95
422.05	19597.31
422.24	17305.92
422.43	16985.27
422.61	18892.80
422.80	20208.19
422.99	20496.07
423.18	19690.93
423.37	19646.46
423.56	19257.93
423.75	19906.26
423.94	20175.42
424.13	19122.18
424.32	19070.68
424.50	19342.19
424.69	18981.74
424.88	19021.53
425.07	19145.58
425.26	18963.02
425.45	18726.63
425.64	18668.11
425.83	18539.38
426.01	19651.14
426.20	19922.64
426.39	20044.35
426.58	18462.15
426.77	17036.76
426.96	16568.65
427.15	17142.08
427.33	18485.55
427.52	19335.17
427.71	19309.42
427.90	19108.13
428.09	18752.37
428.28	18438.74
428.46	17949.57
428.65	17619.55
428.84	18188.30
429.03	18279.58
429.22	17303.58
429.40	16498.44
429.59	15023.90
429.78	13263.82
429.97	13432.33
430.16	13528.30
430.34	13748.31
430.53	13535.32
430.72	13708.52
430.91	15421.79
431.10	18132.13
431.28	21202.91
431.47	22920.87
431.66	22998.10
431.85	21160.78
432.03	19276.65
432.22	18473.85
432.41	19470.92
432.60	21287.17
432.79	22150.83
432.97	22855.33
433.16	22483.19
433.35	19927.32
433.54	18324.05
433.72	17003.99
433.91	17874.67
434.10	19906.26
434.28	21020.35
434.47	22237.43
434.66	21687.40
434.85	21458.03
435.03	21153.76
435.22	21830.18
435.41	23058.96
435.59	23264.92
435.78	23491.96
435.97	24381.36
436.16	24671.59
436.34	23852.40
436.53	23260.24
436.72	23183.01
436.90	22291.26
437.09	21905.07
437.28	21476.76
437.46	22305.31
437.65	22237.43
437.84	20908.01
438.02	19176.01
438.21	18916.21
438.40	20034.99
438.58	21820.81
438.77	22511.27
438.96	22506.59
439.14	23491.96
439.33	24273.70
439.52	24870.53
439.70	24105.18
439.89	23473.23
440.08	22742.99
440.26	22864.69
440.45	23204.07
440.63	24940.75
440.82	26218.68
441.01	26637.64
441.19	25680.36
441.38	26291.24
441.57	27096.38
441.75	27674.49
441.94	27669.81
442.12	27356.18
442.31	28044.30
442.50	27910.89
442.68	27735.35
442.87	27316.39
443.05	27000.42
443.24	26974.67
443.43	27534.06
443.61	28334.53
443.80	29113.92
443.98	27278.94
444.17	26670.40
444.35	28650.50
444.54	29097.54
444.73	29144.35
444.91	27536.40
445.10	26719.56
445.28	25605.46
445.47	25165.44
445.65	25390.13
445.84	25799.73
446.02	26705.51
446.21	27028.51
446.39	27192.34
446.58	27541.08
446.77	27953.02
446.95	28383.68
447.14	29298.83
447.32	29731.83
447.51	29013.28
447.69	27915.57
447.88	27515.34
448.06	28004.51
448.25	29118.60
448.43	28870.51
448.62	28034.94
448.80	28154.30
448.99	28278.35
449.17	28580.28
449.36	28144.94
449.54	29708.42
449.73	29858.21
449.91	30228.02
450.10	31461.48
450.28	31524.68
450.46	31103.38
450.65	31381.90
450.83	31316.37
451.02	30469.09
451.20	30228.02
451.39	30085.25
451.57	29876.94
451.76	30122.69
451.94	29909.71
452.13	29687.36
452.31	28025.57
452.49	26981.70
452.68	27234.47
452.86	27468.53
453.05	27604.28
453.23	28437.51
453.42	29362.02
453.60	29783.32
453.78	30029.07
453.97	29570.33
454.15	29401.81
454.34	29326.91
454.52	29022.64
454.70	28629.43
454.89	29076.48
455.07	29289.46
455.26	29333.93
455.44	30567.40
455.62	30925.50
455.81	31154.87
455.99	30976.99
456.17	30923.16
456.36	30799.11
456.54	31744.69
456.73	31672.13
456.91	32266.63
457.09	32538.13
457.28	32790.91
457.46	31585.53
457.64	31215.72
457.83	30277.17
458.01	29528.20
458.19	30705.49
458.38	30756.98
458.56	31899.16
458.74	31676.81
458.93	31314.03
459.11	30782.73
459.29	30555.69
459.48	31079.97
459.66	30464.41
459.84	31276.58
460.03	31569.15
460.21	31346.79
460.39	32189.39
460.57	32446.85
460.76	32760.48
460.94	32737.07
461.12	32004.49
461.31	32175.34
461.49	32493.66
461.67	32491.32
461.85	33422.85
462.04	33029.64
462.22	33626.48
462.40	33242.63
462.59	33062.41
462.77	33226.24
462.95	33387.74
463.13	33118.58
463.32	32580.26
463.50	32231.52
463.68	32304.07
463.86	32549.83
464.05	31798.52
464.23	31278.92
464.41	31168.91
464.59	30508.88
464.78	32381.31
464.96	31716.60
465.14	31894.48
465.32	32519.40
465.50	33645.20
465.69	33172.41
465.87	32938.36
466.05	32208.11
466.23	30560.37
466.41	29666.29
466.60	30923.16
466.78	30820.17
466.96	31784.48
467.14	31683.83
467.32	32182.37
467.51	32655.15
467.69	31215.72
467.87	31803.20
468.05	32030.23
468.23	32156.62
468.41	32023.21
468.60	32470.25
468.78	32587.28
468.96	32088.74
469.14	32954.74
469.32	32959.42
469.50	31791.50
469.69	31971.72
469.87	30948.90
470.05	31157.21
470.23	31304.67
470.41	31094.02
470.59	31693.19
470.77	31831.29
470.95	32114.49
471.14	32856.44
471.32	33036.66
471.50	34686.74
471.68	34740.57
471.86	34707.80
472.04	35234.42
472.22	35175.91
472.40	33530.51
472.58	33207.52
472.77	32713.67
472.95	33853.51
473.13	34728.87
473.31	33558.60
473.49	33472.00
473.67	34174.16
473.85	34305.23
474.03	35817.22
474.21	35395.92
474.39	35700.19
474.57	35934.24
474.75	36140.21
474.93	35536.35
475.12	34817.81
475.30	35047.18
475.48	35086.97
475.66	35557.42
475.84	35271.87
476.02	35150.17
476.20	34679.72
476.38	35278.89
476.56	36208.09
476.74	36762.79
476.92	36484.27
477.10	37207.50
477.28	37893.27
477.46	38391.81
477.64	38979.28
477.82	38452.66
478.00	39213.34
478.18	38813.10
478.36	38806.08
478.54	38204.56
478.72	38499.47
478.90	40002.10
479.08	40659.79
479.26	41406.42
479.44	40954.69
479.62	40924.27
479.80	40957.03
479.98	40692.55
480.16	41221.52
480.34	40711.28
480.52	41055.34
480.70	41357.27
480.88	41404.08
481.06	42206.88
481.24	42469.02
481.41	43576.09
481.59	44203.36
481.77	44039.52
481.95	43105.65
482.13	42951.17
482.31	42983.94
482.49	43737.59
482.67	43246.08
482.85	43821.85
483.03	44744.02
483.21	44460.82
483.39	44905.52
483.57	43868.66
483.74	43381.83
483.92	43959.94
484.10	44109.74
484.28	45031.91
484.46	45216.81
484.64	45968.12
484.82	45116.17
485.00	44596.57
485.18	43576.09
485.35	42630.52
485.53	39168.87
485.71	36126.17
485.89	35482.52
486.07	37296.44
486.25	40701.92
486.43	42983.94
486.61	43707.16
486.78	43693.12
486.96	43700.14
487.14	45354.90
487.32	46284.09
487.50	47042.43
487.68	48292.27
487.85	48975.71
488.03	48769.74
488.21	48568.46
488.39	47360.74
488.57	46927.74
488.75	46782.63
488.92	47540.96
489.10	50307.47
489.28	51550.30
489.46	52016.07
489.64	52133.09
489.81	52090.96
489.99	51737.54
490.17	52205.65
490.35	51992.66
490.53	51643.92
490.70	51269.43
490.88	51124.32
491.06	52418.64
491.24	52065.22
491.41	51377.10
491.59	49193.38
491.77	48835.28
491.95	49832.35
492.13	50859.84
492.30	52130.75
492.48	53495.28
492.66	53846.36
492.84	53883.81
493.01	53336.13
493.19	52865.68
493.37	52341.40
493.54	52446.72
493.72	52844.62
493.90	54026.59
494.08	54644.49
494.25	55079.83
494.43	55231.96
494.61	55796.03
494.79	55700.07
494.96	55430.91
495.14	54859.82
495.32	54010.20
495.49	53551.46
495.67	54372.99
495.85	55774.97
496.02	56306.27
496.20	55992.64
496.38	55416.86
496.55	55290.48
496.73	55814.76
496.91	55931.78
497.09	56617.56
497.26	56739.27
497.44	56310.95
497.62	55622.83
497.79	55037.70
497.97	53687.21
498.14	53848.71
498.32	54925.35
498.50	55564.32
498.67	56493.51
498.85	56175.20
499.03	56313.29
499.20	56573.09
499.38	56811.82
499.56	56530.96
499.73	55826.46
499.91	55573.68
500.08	55274.09
500.26	54295.75
500.44	54946.42
500.61	55728.16
500.79	55618.15
500.97	54915.99
501.14	54995.57
501.32	54639.81
501.49	54686.62
501.67	54901.95
501.84	55381.76
502.02	55884.97
502.20	56196.26
502.37	56243.07
502.55	56287.54
502.72	56851.61
502.90	57186.31
503.07	56938.21
503.25	56601.18
503.43	55800.71
503.60	55248.35
503.78	54457.24
503.95	55084.51
504.13	56313.29
504.30	57219.08
504.48	57165.24
504.65	56685.43
504.83	56500.53
505.01	56996.73
505.18	57506.96
505.36	58138.91
505.53	58241.89
505.71	58464.24
505.88	58529.78
506.06	57827.62
506.23	57598.24
506.41	57144.18
506.58	57518.67
506.76	57272.91
506.93	57373.55
507.11	57188.65
507.28	57237.80
507.46	56605.86
507.63	56186.90
507.81	56020.72
507.98	56383.51
508.16	56839.91
508.33	57293.97
508.50	57911.88
508.68	58136.57
508.85	58473.60
509.03	58637.44
509.20	58314.45
509.38	57703.57
509.55	56999.07
509.73	57080.98
509.90	57635.69
510.08	58101.46
510.25	57605.26
510.42	57691.86
510.60	57556.11
510.77	57708.25
510.95	58085.07
511.12	58330.83
511.30	58773.19
511.47	58932.35
511.64	58883.20
511.82	58398.71
511.99	57640.37
512.17	57286.95
512.34	56776.72
512.51	57055.24
512.69	57382.91
512.86	57471.85
513.04	57738.68
513.21	57865.06
513.38	57420.36
513.56	57130.14
513.73	56413.93
513.90	56659.69
514.08	56608.20
514.25	57207.37
514.43	57343.12
514.60	57427.38
514.77	57635.69
514.95	57434.41
515.12	57563.14
515.29	57773.78
515.47	58127.20
515.64	58415.09
515.81	58005.50
515.99	57352.49
516.16	56088.60
516.33	53963.39
516.51	52207.99
516.68	51515.19
516.85	50944.10
517.03	51180.49
517.20	54155.32
517.37	56779.06
517.54	57783.15
517.72	57045.88
517.89	54607.04
518.06	52568.43
518.24	52594.18
518.41	54742.79
518.58	56360.10
518.75	56280.52
518.93	56460.74
519.10	56346.06
519.27	56947.57
519.45	57176.95
519.62	57797.19
519.79	58045.29
519.96	58059.33
520.14	57633.35
520.31	56765.01
520.48	56652.67
520.65	57219.08
520.83	57986.77
521.00	58508.71
521.17	57886.13
521.34	57696.55
521.52	58136.57
521.69	58450.20
521.86	58962.78
522.03	58506.37
522.20	57343.12
522.38	56163.50
522.55	56449.04
522.72	57069.28
522.89	57200.35
523.07	57286.95
523.24	57731.65
523.41	58482.97
523.58	58805.96
523.75	59171.08
523.92	58972.14
524.10	58838.73
524.27	58864.47
524.44	58878.52
524.61	58473.60
524.78	58398.71
524.96	58223.17
525.13	58548.50
525.30	58487.65
525.47	59196.83
525.64	58894.90
525.81	58255.93
525.98	56844.59
526.16	55290.48
526.33	54930.03
526.50	54405.75
526.67	54120.21
526.84	54738.11
527.01	55561.98
527.18	56409.25
527.36	57492.92
527.53	58206.78
527.70	58459.56
527.87	57806.55
528.04	57481.22
528.21	58164.65
528.38	58714.68
528.55	59281.09
528.72	59550.25
528.89	59648.55
529.07	59281.09
529.24	58731.06
529.41	58038.26
529.58	57553.77
529.75	57525.69
529.92	58176.36
530.09	58429.13
530.26	59061.08
530.43	59229.60
530.60	59189.81
530.77	59529.19
530.94	59510.46
531.11	59061.08
531.28	58728.72
531.46	58497.01
531.63	58649.14
531.80	58658.51
531.97	58150.61
532.14	57460.15
532.31	56371.80
532.48	55826.46
532.65	55484.74
532.82	56753.31
532.99	57818.25
533.16	58143.59
533.33	58707.66
533.50	58403.39
533.67	57726.97
533.84	57375.89
534.01	57743.36
534.18	57876.77
534.35	58045.29
534.52	57722.29
534.69	58101.46
534.86	58604.67
535.03	58749.79
535.20	59133.63
535.37	59281.09
535.54	59571.32
535.71	59253.00
535.88	58773.19
536.05	58295.72
536.22	57790.17
536.38	57506.96
536.55	56807.14
536.72	56704.16
536.89	56413.93
537.06	57518.67
537.23	58183.38
537.40	58328.49
537.57	58447.86
537.74	58024.22
537.91	58169.33
538.08	57886.13
538.25	58103.80
538.42	58309.77
538.59	58127.20
538.75	57523.35
538.92	57214.40
539.09	57003.75
539.26	57102.05
539.43	56659.69
539.60	56947.57
539.77	56912.47
539.94	56882.04
540.11	56069.87
540.28	55746.88
540.44	55662.62
540.61	55891.99
540.78	56151.79
540.95	56568.41
541.12	56837.57
541.29	57279.93
541.46	57598.24
541.62	57663.78
541.79	57420.36
541.96	56828.21
542.13	56910.13
542.30	57368.87
542.47	57326.74
542.63	57102.05
542.80	56882.04
542.97	57165.24
543.14	56980.34
543.31	56835.23
543.48	57499.94
543.64	58183.38
543.81	58454.88
543.98	58255.93
544.15	57605.26
544.32	57073.96
544.48	57212.06
544.65	57581.86
544.82	57897.83
544.99	57558.45
545.16	57188.65
545.32	56987.36
545.49	57785.49
545.66	58284.02
545.83	57631.01
546.00	57429.72
546.16	57244.82
546.33	57045.88
546.50	57235.46
546.67	57614.63
546.83	57095.03
547.00	57254.18
547.17	56470.11
547.34	56112.00
547.50	55992.64
547.67	56451.38
547.84	56652.67
548.00	56811.82
548.17	57209.71
548.34	57364.19
548.51	57258.87
548.67	57186.31
548.84	57130.14
549.01	57436.75
549.18	57256.53
549.34	57057.58
549.51	57022.47
549.68	56970.98
549.84	56844.59
550.01	56587.13
550.18	56568.41
550.34	56650.33
550.51	56645.65
550.68	56924.17
550.84	56296.91
551.01	56357.76
551.18	56327.33
551.34	56528.62
551.51	56921.83
551.68	57298.65
551.84	57345.47
552.01	57165.24
552.18	56919.49
552.34	55955.19
552.51	55571.34
552.68	55861.57
552.84	56254.78
553.01	56273.50
553.18	56046.47
553.34	56502.87
553.51	56460.74
553.67	56657.35
553.84	57020.13
554.01	56788.42
554.17	56608.20
554.34	56619.90
554.51	56657.35
554.67	57411.00
554.84	56961.62
555.00	56664.37
555.17	56390.53
555.33	56240.73
555.50	56367.12
555.67	56240.73
555.83	56271.16
556.00	55662.62
556.16	55826.46
556.33	55585.38
556.50	55311.54
556.66	55278.77
556.83	55086.85
556.99	55047.06
557.16	55311.54
557.32	55690.71
557.49	55948.17
557.65	55803.05
557.82	55948.17
557.98	55365.37
558.15	55093.87
558.32	54349.58
558.48	53308.04
558.65	53532.73
558.81	53963.39
558.98	54358.94
559.14	54557.89
559.31	54813.01
559.47	54775.56
559.64	54230.21
559.80	54047.65
559.97	54038.29
560.13	54300.43
560.30	55552.62
560.46	56126.05
560.63	56119.02
560.79	56062.85
560.96	55583.04
561.12	54541.50
561.29	53853.39
561.45	53818.28
561.61	54447.88
561.78	54829.39
561.94	54745.13
562.11	54431.50
562.27	54408.09
562.44	54855.14
562.60	54852.80
562.77	55447.29
562.93	55072.81
563.10	55119.62
563.26	54501.71
563.42	54457.24
563.59	54223.19
563.75	54541.50
563.92	54209.15
564.08	54361.28
564.24	54714.70
564.41	54813.01
564.57	54583.63
564.74	54326.17
564.90	54267.66
565.07	53808.92
565.23	53609.97
565.39	52994.41
565.56	52982.71
565.72	52493.54
565.88	53092.71
566.05	53048.24
566.21	53560.82
566.38	53698.91
566.54	53680.19
566.70	54162.34
566.87	54253.62
567.03	54277.02
567.19	54691.30
567.36	54398.73
567.52	54115.53
567.68	54035.95
567.85	53116.12
568.01	53036.54
568.17	52582.48
568.34	52360.12
568.50	52245.44
568.66	52502.90
568.83	52982.71
568.99	52985.05
569.15	53169.95
569.32	53558.48
569.48	52856.32
569.64	52666.73
569.81	52523.96
569.97	52238.42
570.13	52090.96
570.30	51550.30
570.46	51056.45
570.62	50901.97
570.78	50511.10
570.95	51126.66
571.11	51580.73
571.27	51774.99
571.43	51894.36
571.60	52355.44
571.76	52467.79
571.92	53013.13
572.09	52959.30
572.25	52720.57
572.41	52830.57
572.57	52809.51
572.74	52900.79
572.90	52109.69
573.06	52301.61
573.22	52119.05
573.38	52381.19
573.55	52542.69
573.71	52556.73
573.87	52179.90
574.03	52200.97
574.20	52058.20
574.36	51812.44
574.52	51517.53
574.68	51456.68
574.84	51096.24
575.01	50829.41
575.17	50794.31
575.33	50780.26
575.49	51143.05
575.65	51388.80
575.82	51014.32
575.98	50798.99
576.14	51056.45
576.30	51613.49
576.46	51838.18
576.62	51543.28
576.79	51501.15
576.95	50768.56
577.11	50656.21
577.27	51157.09
577.43	50944.10
577.59	50384.71
577.75	50279.39
577.92	49485.95
578.08	49483.61
578.24	49226.15
578.40	49294.02
578.56	49928.31
578.72	50094.49
578.88	50461.95
579.04	50560.25
579.21	50562.59
579.37	50726.43
579.53	50710.05
579.69	51105.60
579.85	50834.10
580.01	50876.22
580.17	50550.89
580.33	49881.50
580.49	50270.03
580.65	50534.51
580.82	50733.45
580.98	50553.23
581.14	50869.20
581.30	50670.26
581.46	50319.18
581.62	50742.81
581.78	50602.38
581.94	50850.48
582.10	50798.99
582.26	50862.18
582.42	50677.28
582.58	51093.89
582.74	50487.70
582.90	50555.57
583.06	51035.38
583.22	50937.08
583.38	50513.44
583.54	50330.88
583.70	50307.47
583.86	50471.31
584.02	50237.26
584.18	50440.89
584.34	50129.59
584.50	50422.16
584.66	49813.62
584.82	49413.39
584.98	49710.64
585.14	49333.81
585.30	48275.89
