SpectraSuite Data File
++++++++++++++++++++++++++++++++++++
Date: Mon Oct 07 14:53:35 GMT-05:00 2013
User: price-jones
Dark Spectrum Present: No
Reference Spectrum Present: No
Number of Sampled Component Spectra: 1
Spectrometers: USB2+H05261
Integration Time (usec): 100000 (USB2+H05261)
Spectra Averaged: 1 (USB2+H05261)
Boxcar Smoothing: 0 (USB2+H05261)
Correct for Electrical Dark: No (USB2+H05261)
Strobe/Lamp Enabled: No (USB2+H05261)
Correct for Detector Non-linearity: No (USB2+H05261)
Correct for Stray Light: No (USB2+H05261)
Number of Pixels in Processed Spectrum: 2048
>>>>>Begin Processed Spectral Data<<<<<
365.73	0.00
365.92	0.00
366.12	0.00
366.32	0.00
366.52	0.00
366.72	0.00
366.91	0.00
367.11	0.00
367.31	0.00
367.51	0.00
367.70	0.00
367.90	0.00
368.10	0.00
368.30	0.00
368.49	0.00
368.69	0.00
368.89	0.00
369.09	0.00
369.28	0.00
369.48	0.00
369.68	0.00
369.87	0.00
370.07	0.00
370.27	0.00
370.47	641.31
370.66	3330.58
370.86	3887.63
371.06	4315.95
371.25	4358.08
371.45	3758.90
371.65	3538.89
371.84	3328.24
372.04	3513.14
372.24	3866.56
372.44	3999.98
372.63	4138.07
372.83	3681.66
373.03	3337.60
373.22	3038.02
373.42	3218.24
373.62	3641.87
373.81	3899.33
374.01	3969.55
374.21	3571.66
374.40	3293.13
374.60	3431.23
374.79	3871.25
374.99	4451.70
375.19	4940.87
375.38	4922.15
375.58	4554.68
375.78	4491.49
375.97	4594.47
376.17	4844.91
376.37	4770.01
376.56	5074.28
376.76	5116.41
376.95	5584.52
377.15	5818.57
377.35	6012.84
377.54	6511.37
377.74	6663.51
377.93	6532.44
378.13	6349.87
378.33	6085.39
378.52	5607.92
378.72	5418.34
378.91	5167.90
379.11	5123.43
379.31	4847.25
379.50	4873.00
379.70	5233.44
379.89	5982.41
380.09	6207.10
380.28	6492.65
380.48	6403.71
380.68	6211.78
380.87	6132.20
381.07	5706.23
381.26	5235.78
381.46	4952.57
381.65	4798.10
381.85	4596.81
382.04	4468.08
382.24	4297.22
382.43	3927.42
382.63	3822.09
382.83	3964.87
383.02	3826.78
383.22	3920.40
383.41	3985.93
383.61	4044.45
383.80	4692.77
384.00	5245.14
384.19	6097.10
384.39	6530.09
384.58	6464.56
384.78	6272.64
384.97	6204.76
385.17	5858.36
385.36	5526.00
385.56	5357.49
385.75	5530.69
385.95	6197.74
386.14	6478.60
386.34	6595.63
386.53	6340.51
386.72	5947.30
386.92	5989.43
387.11	6125.18
387.31	6670.53
387.50	6593.29
387.70	6214.12
387.89	6017.52
388.09	6307.74
388.28	6380.30
388.48	6296.04
388.67	6656.48
388.86	7543.55
389.06	8070.17
389.25	8451.67
389.45	8788.71
389.64	8482.10
389.84	8468.06
390.03	8404.86
390.22	8163.79
390.42	8400.18
390.61	9151.49
390.81	9760.03
391.00	10239.84
391.19	9877.06
391.39	9411.29
391.58	8854.25
391.78	8386.14
391.97	8203.58
392.16	7653.55
392.36	6864.79
392.55	5619.63
392.75	4390.84
392.94	3609.11
393.13	3719.11
393.33	4173.18
393.52	5504.94
393.71	6647.12
393.91	7440.56
394.10	8074.85
394.29	8872.97
394.49	9415.98
394.68	10504.32
394.88	10216.44
395.07	10768.80
395.26	10471.56
395.46	10438.79
395.65	9568.11
395.84	8596.79
396.04	7328.22
396.23	5900.49
396.42	5167.90
396.62	4484.47
396.81	5523.66
397.00	6911.60
397.19	8887.01
397.39	10394.32
397.58	11754.17
397.77	12343.99
397.97	13015.72
398.16	13408.93
398.35	13696.82
398.55	14176.62
398.74	14544.09
398.93	15068.37
399.12	14871.76
399.32	14246.84
399.51	14581.54
399.70	15477.96
399.90	15309.44
400.09	15318.81
400.28	15302.42
400.47	15264.97
400.67	15992.88
400.86	16498.44
401.05	16416.52
401.24	16489.07
401.44	16893.99
401.63	16779.30
401.82	16791.00
402.01	16753.55
402.21	17069.53
402.40	17097.61
402.59	16575.67
402.78	15822.02
402.97	15477.96
403.17	16149.70
403.36	16908.03
403.55	17376.14
403.74	17972.97
403.93	17504.87
404.13	15868.83
404.32	15475.62
404.51	15908.62
404.70	17415.93
404.89	17549.34
405.09	17240.39
405.28	16393.11
405.47	16762.92
405.66	16776.96
405.85	16510.14
406.05	15721.38
406.24	15791.59
406.43	16767.60
406.62	17570.40
406.81	17537.63
407.00	16765.26
407.20	16339.28
407.39	16477.37
407.58	17563.38
407.77	18061.91
407.96	18427.04
408.15	19005.15
408.34	18714.92
408.54	19667.52
408.73	19761.14
408.92	19627.73
409.11	19030.90
409.30	18047.87
409.49	16947.82
409.68	15962.45
409.87	15424.13
410.07	16353.32
410.26	17724.88
410.45	18808.54
410.64	18960.68
410.83	19843.06
411.02	20168.40
411.21	21064.82
411.40	20802.68
411.59	21034.39
411.78	20966.52
411.98	20718.42
412.17	20786.30
412.36	20477.35
412.55	20577.99
412.74	20135.63
412.93	19501.34
413.12	19686.25
413.31	21664.00
413.50	21783.37
413.69	22457.44
413.88	21474.42
414.07	20524.16
414.26	21214.62
414.45	21743.58
414.64	21764.64
414.83	22162.53
415.02	21486.12
415.22	21319.94
415.41	22024.44
415.60	22448.08
415.79	23655.79
415.98	24154.33
416.17	24414.13
416.36	23784.52
416.55	22831.93
416.74	22586.17
416.93	21521.23
417.12	21577.40
417.31	22312.33
417.50	22366.16
417.69	23005.13
417.88	23538.77
418.07	22822.56
418.26	22324.03
418.45	22637.66
418.64	23527.06
418.83	24215.18
419.02	24201.14
419.21	23637.07
419.39	22632.98
419.58	21546.97
419.77	21766.98
419.96	22862.35
420.15	24137.94
420.34	24432.85
420.53	25699.08
420.72	26113.36
420.91	25668.66
421.10	25518.86
421.29	25392.47
421.48	24259.65
421.67	25488.43
421.86	25179.48
422.05	23204.07
422.24	20908.01
422.43	20547.56
422.61	22733.62
422.80	24648.18
422.99	24535.84
423.18	24159.01
423.37	23194.71
423.56	23192.37
423.75	23283.65
423.94	24259.65
424.13	22705.54
424.32	23381.95
424.50	23421.74
424.69	22820.22
424.88	22918.53
425.07	23042.57
425.26	22831.93
425.45	22490.21
425.64	22239.77
425.83	22199.98
426.01	23828.99
426.20	24442.21
426.39	23988.15
426.58	22684.47
426.77	21069.50
426.96	19920.30
427.15	20627.14
427.33	22417.65
427.52	23353.87
427.71	23356.21
427.90	23140.88
428.09	23131.51
428.28	22331.05
428.46	21656.98
428.65	21638.25
428.84	21738.90
429.03	22583.83
429.22	21170.15
429.40	20297.13
429.59	18132.13
429.78	15866.49
429.97	16074.80
430.16	16198.85
430.34	16561.63
430.53	16358.00
430.72	16535.88
430.91	18375.55
431.10	21699.11
431.28	25336.30
431.47	27552.79
431.66	28133.24
431.85	25879.30
432.03	23344.50
432.22	22333.39
432.41	23449.83
432.60	25209.91
432.79	27061.27
432.97	27541.08
433.16	26965.31
433.35	24322.85
433.54	21921.46
433.72	20802.68
433.91	21369.09
434.10	23819.63
434.28	25476.73
434.47	26951.27
434.66	26574.44
434.85	25907.39
435.03	25898.03
435.22	26295.92
435.41	27889.82
435.59	27859.40
435.78	28247.93
435.97	28893.91
436.16	29352.66
436.34	29060.09
436.53	28144.94
436.72	28231.54
436.90	26778.07
437.09	26827.22
437.28	26075.91
437.46	27630.02
437.65	27154.90
437.84	25422.90
438.02	23335.14
438.21	23470.89
438.40	24449.24
438.58	26532.31
438.77	26808.50
438.96	27393.63
439.14	28418.78
439.33	29214.57
439.52	29834.81
439.70	28795.61
439.89	28252.61
440.08	27744.71
440.26	27803.22
440.45	28374.31
440.63	30375.47
440.82	32163.64
441.01	31185.30
441.19	31204.02
441.38	31447.44
441.57	32762.82
441.75	33507.11
441.94	33469.66
442.12	33413.49
442.31	33666.27
442.50	34246.72
442.68	33490.73
442.87	32788.56
443.05	32395.35
443.24	32971.13
443.43	33453.28
443.61	34192.89
443.80	34431.62
443.98	32814.31
444.17	32587.28
444.35	34775.68
444.54	35040.16
444.73	34539.29
444.91	33579.67
445.10	31545.74
445.28	30717.19
445.47	30417.60
445.65	30230.36
445.84	31346.79
446.02	32503.02
446.21	32971.13
446.39	32903.25
446.58	33312.84
446.77	33731.80
446.95	34188.21
447.14	35297.62
447.32	35840.62
447.51	35119.74
447.69	33659.24
447.88	33376.04
448.06	33858.19
448.25	34721.85
448.43	34890.37
448.62	34115.65
448.80	33874.57
448.99	34117.99
449.17	34494.82
449.36	34506.52
449.54	35379.54
449.73	36051.27
449.91	36388.31
450.10	37570.28
450.28	38129.67
450.46	37881.57
450.65	37804.33
450.83	37677.94
451.02	36591.94
451.20	36849.39
451.39	36596.62
451.57	36577.89
451.76	36552.15
451.94	36442.14
452.13	35538.69
452.31	34040.75
452.49	32510.04
452.68	32830.69
452.86	33326.89
453.05	33195.82
453.23	34089.90
453.42	35119.74
453.60	35957.65
453.78	36378.95
453.97	36086.38
454.15	35868.71
454.34	34796.74
454.52	34969.94
454.70	34440.98
454.89	35112.72
455.07	34895.05
455.26	35634.66
455.44	37083.45
455.62	37170.05
455.81	37750.50
455.99	37235.58
456.17	37022.59
456.36	37364.31
456.54	38178.82
456.73	38012.64
456.91	38684.37
457.09	38721.82
457.28	39262.49
457.46	38298.19
457.64	37682.62
457.83	36605.98
458.01	35941.27
458.19	36790.88
458.38	37120.90
458.56	38382.45
458.74	38075.84
458.93	37607.73
459.11	37308.14
459.29	37427.51
459.48	37205.16
459.66	37443.89
459.84	37720.07
460.03	37935.40
460.21	37837.10
460.39	39154.82
460.57	38843.53
460.76	39526.97
460.94	39622.93
461.12	38880.98
461.31	39386.54
461.49	38852.89
461.67	38899.70
461.85	40306.37
462.04	39751.66
462.22	40369.56
462.40	40151.89
462.59	39901.45
462.77	40285.30
462.95	39974.01
463.13	39922.52
463.32	39264.83
463.50	38864.60
463.68	38944.17
463.86	39112.69
464.05	38340.32
464.23	37986.89
464.41	37682.62
464.59	36769.82
464.78	38593.09
464.96	38752.25
465.14	38480.75
465.32	38899.70
465.50	40289.98
465.69	40474.88
465.87	39856.98
466.05	38721.82
466.23	36861.10
466.41	35887.43
466.60	37483.68
466.78	37284.73
466.96	37600.71
467.14	38108.60
467.32	38876.30
467.51	39653.36
467.69	37174.73
467.87	38005.62
468.05	38438.62
468.23	38836.51
468.41	38773.31
468.60	38897.36
468.78	39402.92
468.96	38298.19
469.14	39419.30
469.32	39810.17
469.50	38302.87
469.69	38398.83
469.87	37390.06
470.05	37441.55
470.23	37584.32
470.41	37614.75
470.59	38581.39
470.77	38258.40
470.95	39255.46
471.14	39651.02
471.32	39854.64
471.50	42047.72
471.68	41696.64
471.86	42092.19
472.04	42351.99
472.22	42836.48
472.40	40563.82
472.58	40027.84
472.77	39679.10
472.95	40612.98
473.13	41883.89
473.31	40130.83
473.49	40861.07
473.67	41291.73
473.85	42047.72
474.03	42752.23
474.21	42770.95
474.39	43487.15
474.57	43304.59
474.75	43643.97
474.93	42934.79
475.12	42108.58
475.30	42593.07
475.48	42564.98
475.66	43086.92
475.84	42733.50
476.02	42389.44
476.20	41361.95
476.38	42106.24
476.56	43803.13
476.74	44369.54
476.92	44664.44
477.10	45219.15
477.28	46012.59
477.46	46279.41
477.64	46417.50
477.82	46494.74
478.00	46635.17
478.18	46398.78
478.36	46167.07
478.54	46319.20
478.72	46328.56
478.90	47440.32
479.08	48147.16
479.26	49191.04
479.44	48395.26
479.62	48175.25
479.80	48828.26
479.98	48872.73
480.16	48736.98
480.34	48254.82
480.52	48470.15
480.70	48765.06
480.88	48940.60
481.06	49897.88
481.24	50199.81
481.41	51068.15
481.59	51344.33
481.77	50871.54
481.95	50564.93
482.13	50597.70
482.31	50527.48
482.49	51058.79
482.67	50953.46
482.85	51021.34
483.03	51559.66
483.21	52081.60
483.39	51995.00
483.57	51491.79
483.74	50848.14
483.92	51306.88
484.10	51468.38
484.28	52332.04
484.46	52648.01
484.64	53109.10
484.82	52467.79
485.00	51901.38
485.18	51000.27
485.35	50028.95
485.53	47360.74
485.71	43557.37
485.89	42763.93
486.07	44634.02
486.25	48144.82
486.43	50487.70
486.61	50969.85
486.78	50850.48
486.96	51384.12
487.14	52584.82
487.32	53153.57
487.50	54204.47
487.68	54681.94
487.85	55276.43
488.03	54850.45
488.21	54855.14
488.39	54010.20
488.57	53628.69
488.75	53401.66
488.92	54054.67
489.10	56142.43
489.28	57034.17
489.46	57836.98
489.64	57785.49
489.81	57858.04
489.99	57598.24
490.17	57476.54
490.35	57832.30
490.53	57511.64
490.70	57071.62
490.88	56917.15
491.06	57900.17
491.24	57965.71
491.41	57123.11
491.59	55594.74
491.77	54887.90
491.95	55545.59
492.13	56905.44
492.30	57801.87
492.48	58492.33
492.66	59054.06
492.84	59077.46
493.01	58684.25
493.19	58415.09
493.37	58038.26
493.54	57738.68
493.72	58478.28
493.90	59173.42
494.08	59938.78
494.25	60001.97
494.43	60142.41
494.61	60626.90
494.79	60830.52
494.96	60451.36
495.14	60151.77
495.32	59173.42
495.49	58452.54
495.67	59622.81
495.85	60851.59
496.02	61235.44
496.20	61099.68
496.38	60563.70
496.55	60533.28
496.73	60851.59
496.91	60940.53
497.09	61380.55
497.26	61542.05
497.44	61153.52
497.62	60804.78
497.79	60107.30
497.97	58960.44
498.14	59054.06
498.32	60030.06
498.50	61116.07
498.67	61371.19
498.85	61254.16
499.03	61340.76
499.20	61591.20
499.38	61525.66
499.56	61565.45
499.73	61057.56
499.91	60757.97
500.08	60425.61
500.26	59674.30
500.44	59941.12
500.61	60697.11
500.79	60603.49
500.97	60306.24
501.14	59948.14
501.32	60001.97
501.49	59957.50
501.67	60214.96
501.84	60699.45
502.02	60748.60
502.20	61062.24
502.37	61167.56
502.55	61272.88
502.72	61766.74
502.90	62122.50
503.07	61993.77
503.25	61546.73
503.43	60977.98
503.60	60137.72
503.78	59709.41
503.95	60069.85
504.13	61293.95
504.30	62007.81
504.48	61769.08
504.65	61638.01
504.83	61612.26
505.01	62021.86
505.18	62363.57
505.36	63114.89
505.53	63093.82
505.71	63114.89
505.88	63274.04
506.06	62656.14
506.23	62274.63
506.41	62094.41
506.58	62298.04
506.76	62276.97
506.93	62361.23
507.11	61975.05
507.28	62260.59
507.46	61619.28
507.63	61228.41
507.81	61083.30
507.98	61305.65
508.16	61881.42
508.33	62192.72
508.50	62740.40
508.68	62901.90
508.85	63463.63
509.03	63398.09
509.20	63224.89
509.38	62646.78
509.55	61872.06
509.73	61872.06
509.90	62511.03
510.08	62707.63
510.25	62658.48
510.42	62637.42
510.60	62419.75
510.77	62562.52
510.95	63334.90
511.12	63107.86
511.30	63388.73
511.47	63700.02
511.64	63611.08
511.82	63480.01
511.99	62576.56
512.17	62389.32
512.34	62078.03
512.51	62251.23
512.69	62136.54
512.86	62234.84
513.04	62958.07
513.21	62761.47
513.38	62223.14
513.56	61895.47
513.73	61478.85
513.90	61593.54
514.08	61572.47
514.25	61925.89
514.43	62244.21
514.60	62321.44
514.77	62534.43
514.95	62628.05
515.12	62429.11
515.29	62518.05
515.47	63182.76
515.64	63271.70
515.81	62873.81
515.99	62295.70
516.16	61118.41
516.33	59194.49
516.51	57897.83
516.68	57118.43
516.85	56956.94
517.03	57015.45
517.20	59302.15
517.37	61609.92
517.54	62571.88
517.72	62138.88
517.89	60032.40
518.06	57879.11
518.24	57874.43
518.41	60004.31
518.58	61230.75
518.75	61502.26
518.93	61581.84
519.10	61450.77
519.27	61937.60
519.45	62082.71
519.62	62665.50
519.79	62953.39
519.96	62712.31
520.14	62511.03
520.31	61783.12
520.48	61722.27
520.65	61975.05
520.83	62698.27
521.00	63112.55
521.17	62922.96
521.34	62513.37
521.52	62714.65
521.69	63159.36
521.86	63538.52
522.03	63400.43
522.20	62267.61
522.38	61343.10
522.55	61385.23
522.72	61953.98
522.89	62103.77
523.07	62309.74
523.24	62520.39
523.41	63299.79
523.58	63526.82
523.75	63887.26
523.92	63746.83
524.10	63868.54
524.27	63784.28
524.44	63751.51
524.61	63451.92
524.78	63367.66
524.96	63166.38
525.13	63245.96
525.30	63430.86
525.47	63877.90
525.64	63772.58
525.81	63004.88
525.98	62075.69
526.16	60559.02
526.33	60044.10
526.50	59753.88
526.67	59346.62
526.84	59896.65
527.01	60776.69
527.18	61544.39
527.36	62213.78
527.53	63002.54
527.70	63440.22
527.87	62890.19
528.04	62262.93
528.21	62733.38
528.38	63449.58
528.55	64034.72
528.72	64067.48
528.89	64371.75
529.07	64156.42
529.24	63531.50
529.41	63032.97
529.58	62389.32
529.75	62466.56
529.92	62953.39
530.09	63267.02
530.26	63788.96
530.43	64062.80
530.60	63894.28
530.77	64233.66
530.94	64399.84
531.11	63971.52
531.28	63711.72
531.46	63325.53
531.63	63641.51
531.80	63540.86
531.97	62944.03
532.14	62340.17
532.31	61453.11
532.48	60954.57
532.65	60769.67
532.82	61563.11
532.99	62667.84
533.16	63032.97
533.33	63508.10
533.50	63325.53
533.67	62894.88
533.84	62293.36
534.01	62553.16
534.18	62724.02
534.35	63007.22
534.52	62873.81
534.69	62855.09
534.86	63224.89
535.03	63501.07
535.20	63952.80
535.37	64221.96
535.54	64296.86
535.71	63997.27
535.88	63606.40
536.05	63035.31
536.22	62681.89
536.38	62410.38
536.55	62213.78
536.72	61546.73
536.89	61506.94
537.06	62291.02
537.23	63070.42
537.40	63114.89
537.57	63341.92
537.74	62908.92
537.91	62915.94
538.08	62876.15
538.25	62944.03
538.42	63222.55
538.59	62841.04
538.75	62433.79
538.92	62265.27
539.09	61972.70
539.26	61806.53
539.43	61670.78
539.60	61883.76
539.77	61970.36
539.94	61904.83
540.11	61116.07
540.28	60640.94
540.44	60914.78
540.61	61095.00
540.78	61350.12
540.95	61811.21
541.12	62066.33
541.29	62300.38
541.46	62501.67
541.62	62541.45
541.79	62504.01
541.96	61733.97
542.13	61888.45
542.30	62031.22
542.47	62272.29
542.63	62101.43
542.80	61661.41
542.97	62003.13
543.14	61825.25
543.31	61874.40
543.48	62305.06
543.64	63063.39
543.81	63299.79
543.98	63140.63
544.15	62777.85
544.32	62038.24
544.48	62248.89
544.65	62595.29
544.82	62724.02
544.99	62548.48
545.16	62389.32
545.32	61923.55
545.49	62742.74
545.66	63159.36
545.83	62663.16
546.00	62159.95
546.16	62110.80
546.33	62183.35
546.50	62295.70
546.67	62564.86
546.83	62028.88
547.00	62148.24
547.17	61513.96
547.34	61090.32
547.50	61141.81
547.67	61609.92
547.84	61439.06
548.00	61661.41
548.17	62206.76
548.34	62136.54
548.51	62134.20
548.67	62213.78
548.84	62218.46
549.01	62106.12
549.18	62199.74
549.34	62089.73
549.51	62038.24
549.68	62096.75
549.84	61846.32
550.01	61755.03
550.18	61649.71
550.34	61652.05
550.51	61708.22
550.68	61846.32
550.84	61298.63
551.01	61350.12
551.18	61544.39
551.34	61481.19
551.51	61982.07
551.68	62176.33
551.84	62246.55
552.01	62092.07
552.18	62028.88
552.34	61350.12
552.51	60795.42
552.68	60800.10
552.84	61179.26
553.01	61455.45
553.18	61441.40
553.34	61396.93
553.51	61546.73
553.67	61759.72
553.84	61953.98
554.01	61890.79
554.17	61787.80
554.34	61790.14
554.51	61923.55
554.67	62063.99
554.84	62075.69
555.00	61652.05
555.17	61446.08
555.33	61497.58
555.50	61492.89
555.67	61455.45
555.83	61317.35
556.00	61097.34
556.16	60926.49
556.33	60626.90
556.50	60350.71
556.66	60577.75
556.83	60252.41
556.99	60495.83
557.16	60748.60
557.32	60882.02
557.49	61106.71
557.65	61003.72
557.82	60999.04
557.98	60985.00
558.15	60441.99
558.32	59711.75
558.48	58934.69
558.65	59234.28
558.81	59454.29
558.98	59718.77
559.14	59711.75
559.31	59992.61
559.47	59962.18
559.64	59704.73
559.80	59473.01
559.97	59355.99
560.13	59917.71
560.30	60626.90
560.46	61102.03
560.63	61464.81
560.79	61305.65
560.96	60795.42
561.12	59714.09
561.29	59222.58
561.45	59288.11
561.61	59898.99
561.78	60046.44
561.94	59971.55
562.11	59906.01
562.27	59678.98
562.44	60013.68
562.60	60453.70
562.77	60629.24
562.93	60446.68
563.10	60308.58
563.26	59903.67
563.42	59915.37
563.59	59538.55
563.75	59845.16
563.92	59664.94
564.08	59723.45
564.24	60004.31
564.41	60032.40
564.57	59924.74
564.74	59704.73
564.90	59772.60
565.07	59316.20
565.23	59044.69
565.39	58738.08
565.56	58382.32
565.72	58031.24
565.88	58642.12
566.05	58829.37
566.21	58805.96
566.38	58878.52
566.54	59133.63
566.70	59402.80
566.87	59681.32
567.03	59639.19
567.19	59833.46
567.36	59739.83
567.52	59388.75
567.68	59377.05
567.85	58773.19
568.01	58216.14
568.17	58150.61
568.34	58225.51
568.50	57893.15
568.66	58319.13
568.83	58592.97
568.99	58642.12
569.15	58780.21
569.32	58658.51
569.48	58686.59
569.64	58468.92
569.81	58045.29
569.97	58148.27
570.13	58209.12
570.30	57553.77
570.46	57298.65
570.62	56823.53
570.78	56559.05
570.95	56727.56
571.11	57478.88
571.27	57752.72
571.43	57989.11
571.60	58106.14
571.76	58192.74
571.92	58569.57
572.09	58595.31
572.25	58555.52
572.41	58536.80
572.57	58489.99
572.74	58677.23
572.90	58007.84
573.06	58166.99
573.22	58227.85
573.38	58143.59
573.55	58232.53
573.71	58094.44
573.87	58394.03
574.03	58066.35
574.20	58269.98
574.36	57757.40
574.52	57591.22
574.68	57535.05
574.84	57263.55
575.01	56746.29
575.17	56636.28
575.33	56753.31
575.49	57226.10
575.65	57305.68
575.82	57162.90
575.98	56839.91
576.14	57144.18
576.30	57406.32
576.46	57546.75
576.62	57340.78
576.79	57378.23
576.95	57010.77
577.11	56985.02
577.27	57439.09
577.43	57272.91
577.59	56631.60
577.75	56783.74
577.92	56217.33
578.08	55819.44
578.24	55824.12
578.40	55978.59
578.56	56509.89
578.72	56355.42
578.88	56664.37
579.04	56872.68
579.21	57006.09
579.37	56807.14
579.53	56755.65
579.69	56720.54
579.85	56945.23
580.01	56868.00
580.17	56343.72
580.33	56191.58
580.49	56519.26
580.65	56797.78
580.82	56797.78
580.98	56671.39
581.14	56615.22
581.30	56528.62
581.46	56516.92
581.62	56797.78
581.78	56687.78
581.94	57102.05
582.10	56830.55
582.26	57066.94
582.42	56886.72
582.58	57172.27
582.74	56877.36
582.90	56942.89
583.06	56828.21
583.22	56631.60
583.38	56547.34
583.54	56573.09
583.70	56458.40
583.86	56708.84
584.02	56484.15
584.18	56535.64
584.34	56596.49
584.50	56392.87
584.66	56212.65
584.82	55770.28
584.98	56025.40
585.14	55697.73
