SpectraSuite Data File
++++++++++++++++++++++++++++++++++++
Date: Mon Oct 07 14:53:53 GMT-05:00 2013
User: price-jones
Dark Spectrum Present: No
Reference Spectrum Present: No
Number of Sampled Component Spectra: 1
Spectrometers: USB2+H05261
Integration Time (usec): 100000 (USB2+H05261)
Spectra Averaged: 1 (USB2+H05261)
Boxcar Smoothing: 0 (USB2+H05261)
Correct for Electrical Dark: No (USB2+H05261)
Strobe/Lamp Enabled: No (USB2+H05261)
Correct for Detector Non-linearity: No (USB2+H05261)
Correct for Stray Light: No (USB2+H05261)
Number of Pixels in Processed Spectrum: 2048
>>>>>Begin Processed Spectral Data<<<<<
365.73	0.00
365.92	0.00
366.12	0.00
366.32	0.00
366.52	0.00
366.72	0.00
366.91	0.00
367.11	0.00
367.31	0.00
367.51	0.00
367.70	0.00
367.90	0.00
368.10	0.00
368.30	0.00
368.49	0.00
368.69	0.00
368.89	0.00
369.09	0.00
369.28	0.00
369.48	0.00
369.68	0.00
369.87	0.00
370.07	0.00
370.27	0.00
370.47	578.11
370.66	2860.13
370.86	3665.28
371.06	3838.48
371.25	3878.27
371.45	3513.14
371.65	3094.19
371.84	3082.49
372.04	2984.18
372.24	3499.10
372.44	3698.05
372.63	3517.83
372.83	3492.08
373.03	2981.84
373.22	2626.08
373.42	2862.48
373.62	3295.47
373.81	3616.13
374.01	3536.55
374.21	3232.28
374.40	3002.91
374.60	3042.70
374.79	3372.71
374.99	4198.92
375.19	4397.87
375.38	4561.70
375.58	4168.49
375.78	4093.60
375.97	4241.05
376.17	4320.63
376.37	4285.52
376.56	4358.08
376.76	4540.64
376.95	4936.19
377.15	5329.40
377.35	5472.17
377.54	5785.80
377.74	5846.66
377.93	5951.98
378.13	5954.32
378.33	5394.93
378.52	5011.09
378.72	4802.78
378.91	4819.16
379.11	4601.49
379.31	4493.83
379.50	4475.10
379.70	4772.35
379.89	5350.46
380.09	5659.42
380.28	5750.70
380.48	5872.40
380.68	5827.93
380.87	5530.69
381.07	5151.52
381.26	4697.46
381.46	4365.10
381.65	4243.39
381.85	4105.30
382.04	3857.20
382.24	3763.58
382.43	3695.71
382.63	3445.27
382.83	3452.29
383.02	3613.79
383.22	3520.17
383.41	3501.44
383.61	3709.75
383.80	4315.95
384.00	4746.61
384.19	5650.05
384.39	5631.33
384.58	5832.62
384.78	5661.76
384.97	5465.15
385.17	5305.99
385.36	4994.70
385.56	4861.29
385.75	4692.77
385.95	5289.61
386.14	5827.93
386.34	5987.09
386.53	5586.86
386.72	5385.57
386.92	5441.75
387.11	5760.06
387.31	5863.04
387.50	5802.19
387.70	5521.32
387.89	5458.13
388.09	5596.22
388.28	5741.33
388.48	5827.93
388.67	6167.31
388.86	6686.91
389.06	7248.64
389.25	7557.59
389.45	7836.11
389.64	7576.31
389.84	7473.33
390.03	7304.81
390.22	7403.11
390.42	7669.94
390.61	8013.99
390.81	8592.11
391.00	8936.17
391.19	8809.78
391.39	8552.32
391.58	8131.02
391.78	7527.16
391.97	7295.45
392.16	6710.32
392.36	6230.51
392.55	5102.37
392.75	3999.98
392.94	3239.30
393.13	3201.85
393.33	3812.73
393.52	4791.08
393.71	5785.80
393.91	6850.75
394.10	7412.48
394.29	8212.94
394.49	8711.47
394.68	9177.24
394.88	9193.62
395.07	9514.28
395.26	9444.06
395.46	9268.52
395.65	8767.65
395.84	7651.21
396.04	6307.74
396.23	5324.72
396.42	4421.27
396.62	4154.45
396.81	4910.44
397.00	6289.02
397.19	7936.76
397.39	9366.82
397.58	10370.91
397.77	11028.60
397.97	11267.34
398.16	11644.17
398.35	11995.25
398.55	12437.61
398.74	13013.38
398.93	13184.24
399.12	12814.43
399.32	12472.71
399.51	12765.28
399.70	13666.39
399.90	13511.91
400.09	13582.13
400.28	13514.25
400.47	13341.05
400.67	14293.65
400.86	14541.75
401.05	14455.15
401.24	14633.03
401.44	14981.77
401.63	14995.81
401.82	14871.76
402.01	14864.74
402.21	14984.11
402.40	15152.63
402.59	14579.20
402.78	14394.29
402.97	13432.33
403.17	14345.14
403.36	15080.07
403.55	15501.37
403.74	16067.78
403.93	15307.10
404.13	13830.23
404.32	13760.01
404.51	14164.92
404.70	15573.92
404.89	15396.04
405.09	15222.84
405.28	14663.46
405.47	14820.27
405.66	14705.59
405.85	14434.08
406.05	14188.33
406.24	14228.12
406.43	14984.11
406.62	15372.64
406.81	15393.70
407.00	14569.83
407.20	14331.10
407.39	14361.53
407.58	15185.40
407.77	15686.27
407.96	16285.45
408.15	16592.06
408.34	16702.06
408.54	17341.03
408.73	17376.14
408.92	17153.79
409.11	16926.75
409.30	15999.90
409.49	14998.15
409.68	13975.34
409.87	13692.13
410.07	14462.17
410.26	15655.84
410.45	16634.19
410.64	17083.57
410.83	17207.62
411.02	17926.16
411.21	18670.45
411.40	18209.37
411.59	18370.86
411.78	18272.56
411.98	18075.96
412.17	18274.90
412.36	18178.94
412.55	17977.65
412.74	17577.42
412.93	17275.49
413.12	17371.46
413.31	18934.93
413.50	19199.41
413.69	19719.01
413.88	19119.84
414.07	18132.13
414.26	18625.98
414.45	19047.28
414.64	18967.70
414.83	19452.19
415.02	18848.33
415.22	18766.42
415.41	19328.14
415.60	19772.85
415.79	20989.92
415.98	21418.24
416.17	21106.95
416.36	20404.79
416.55	20350.96
416.74	19545.81
416.93	19190.05
417.12	19094.09
417.31	19407.72
417.50	19721.35
417.69	20362.66
417.88	20332.23
418.07	20154.35
418.26	19775.19
418.45	19772.85
418.64	20706.72
418.83	21425.26
419.02	20863.54
419.21	20891.62
419.39	20077.12
419.58	19225.16
419.77	18951.32
419.96	19784.55
420.15	21116.31
420.34	21525.91
420.53	22225.73
420.72	22925.55
420.91	22670.43
421.10	22150.83
421.29	22019.76
421.48	21301.22
421.67	22541.70
421.86	22244.45
422.05	20334.57
422.24	18473.85
422.43	18148.51
422.61	19936.68
422.80	21546.97
422.99	21596.12
423.18	20968.86
423.37	20556.93
423.56	20149.67
423.75	20823.75
423.94	21408.88
424.13	20114.56
424.32	20561.61
424.50	20226.91
424.69	19943.70
424.88	20269.04
425.07	20058.39
425.26	19962.43
425.45	19868.81
425.64	19496.66
425.83	19377.30
426.01	20814.38
426.20	21369.09
426.39	20982.90
426.58	19407.72
426.77	18162.56
426.96	17659.34
427.15	17802.11
427.33	19421.77
427.52	20505.43
427.71	20444.58
427.90	20456.28
428.09	20119.24
428.28	19721.35
428.46	18654.07
428.65	18530.02
428.84	18977.06
429.03	19400.70
429.22	18260.86
429.40	17436.99
429.59	15875.85
429.78	13865.33
429.97	13994.06
430.16	14129.81
430.34	14310.04
430.53	14225.78
430.72	14167.26
430.91	16009.26
431.10	19066.00
431.28	22415.31
431.47	24006.87
431.66	24320.51
431.85	22537.02
432.03	20297.13
432.22	19491.98
432.41	19978.81
432.60	22396.59
432.79	23339.82
432.97	23817.29
433.16	23498.98
433.35	21305.90
433.54	18984.09
433.72	18218.73
433.91	18347.46
434.10	20966.52
434.28	22162.53
434.47	23412.38
434.66	22892.78
434.85	22377.86
435.03	22195.30
435.22	22623.62
435.41	24584.99
435.59	24224.54
435.78	24835.42
435.97	25207.57
436.16	25348.00
436.34	25198.21
436.53	24261.99
436.72	24802.66
436.90	22768.73
437.09	23040.23
437.28	22899.80
437.46	23768.14
437.65	23578.56
437.84	22050.19
438.02	20081.80
438.21	20208.19
438.40	20980.56
438.58	22925.55
438.77	23204.07
438.96	23508.34
439.14	24762.87
439.33	25090.54
439.52	26125.06
439.70	25008.62
439.89	24746.48
440.08	23662.82
440.26	23718.99
440.45	24299.44
440.63	26244.43
440.82	27765.78
441.01	27307.03
441.19	26714.87
441.38	27482.57
441.57	28350.91
441.75	28711.35
441.94	28545.17
442.12	28603.69
442.31	29230.95
442.50	28463.25
442.68	28879.87
442.87	28411.76
443.05	28210.48
443.24	28285.37
443.43	29165.42
443.61	29415.85
443.80	30024.39
443.98	28496.02
444.17	28294.74
444.35	29893.32
444.54	30054.82
444.73	30052.48
444.91	28912.64
445.10	27672.15
445.28	26682.11
445.47	25879.30
445.65	26111.02
445.84	27140.85
446.02	27763.43
446.21	28290.06
446.39	28287.71
446.58	28711.35
446.77	28903.28
446.95	29818.42
447.14	30338.02
447.32	30979.33
447.51	30181.21
447.69	29202.86
447.88	28610.71
448.06	29132.65
448.25	29493.09
448.43	29937.79
448.62	29362.02
448.80	29205.20
448.99	29006.26
449.17	29088.18
449.36	29617.14
449.54	30909.11
449.73	31269.56
449.91	31697.88
450.10	32264.28
450.28	32758.14
450.46	32769.84
450.65	32570.90
450.83	32458.55
451.02	31601.91
451.20	31866.39
451.39	31435.74
451.57	31014.44
451.76	31143.17
451.94	31000.40
452.13	30328.66
452.31	29064.77
452.49	27644.07
452.68	27985.79
452.86	28390.70
453.05	28807.31
453.23	29181.80
453.42	29977.58
453.60	30972.31
453.78	31175.94
453.97	30590.80
454.15	31026.14
454.34	30202.27
454.52	30167.16
454.70	29720.12
454.89	30054.82
455.07	30377.81
455.26	30459.73
455.44	32116.83
455.62	32116.83
455.81	32451.53
455.99	32137.90
456.17	31227.43
456.36	32006.83
456.54	32751.12
456.73	32940.70
456.91	33612.43
457.09	33043.68
457.28	33958.83
457.46	32582.60
457.64	32765.16
457.83	31634.68
458.01	30759.32
458.19	31541.06
458.38	31639.36
458.56	33235.61
458.74	32835.38
458.93	31922.57
459.11	32203.43
459.29	31620.64
459.48	31978.74
459.66	31608.93
459.84	32287.69
460.03	32620.05
460.21	32692.60
460.39	33441.57
460.57	33582.01
460.76	33963.51
460.94	33607.75
461.12	33345.61
461.31	33369.02
461.49	33174.75
461.67	33481.36
461.85	34850.58
462.04	34038.41
462.22	34562.69
462.40	34520.56
462.59	33699.03
462.77	34464.39
462.95	34029.05
463.13	33855.85
463.32	33750.52
463.50	33514.13
463.68	33371.36
463.86	33184.12
464.05	33060.07
464.23	32493.66
464.41	32222.16
464.59	31335.09
464.78	32849.42
464.96	32933.68
465.14	32411.74
465.32	33429.87
465.50	34188.21
465.69	34670.36
465.87	33722.44
466.05	33043.68
466.23	31622.98
466.41	30831.88
466.60	31845.33
466.78	31728.30
466.96	32378.97
467.14	33067.09
467.32	33385.40
467.51	33193.48
467.69	31545.74
467.87	32224.50
468.05	32746.44
468.23	32980.49
468.41	32823.67
468.60	33156.03
468.78	33586.69
468.96	32891.55
469.14	33628.82
469.32	33441.57
469.50	32217.47
469.69	32900.91
469.87	32198.75
470.05	32212.79
470.23	32275.99
470.41	31901.50
470.59	32500.68
470.77	32690.26
470.95	33390.08
471.14	33610.09
471.32	33666.27
471.50	35269.53
471.68	35962.33
471.86	35988.08
472.04	36077.02
472.22	36282.98
472.40	34246.72
472.58	34181.18
472.77	33949.47
472.95	34653.97
473.13	35489.54
473.31	34506.52
473.49	34658.65
473.67	35306.98
473.85	35227.40
474.03	36315.75
474.21	36203.41
474.39	37017.91
474.57	37074.09
474.75	37179.41
474.93	36793.22
475.12	35660.40
475.30	35812.54
475.48	35578.48
475.66	36355.54
475.84	36020.84
476.02	35857.01
476.20	35328.05
476.38	36109.78
476.56	37200.47
476.74	37661.56
476.92	37706.03
477.10	37975.19
477.28	39386.54
477.46	39536.33
477.64	40126.14
477.82	39847.62
478.00	39959.97
478.18	39452.07
478.36	39339.72
478.54	39243.76
478.72	39667.40
478.90	40463.18
479.08	41961.12
479.26	42029.00
479.44	42267.73
479.62	41633.45
479.80	41837.08
479.98	41677.92
480.16	42007.94
480.34	41373.65
480.52	42087.51
480.70	42457.32
480.88	42391.78
481.06	43428.64
481.24	43739.93
481.41	44399.96
481.59	45127.87
481.77	44584.86
481.95	43756.32
482.13	43775.04
482.31	43707.16
482.49	44655.08
482.67	44439.75
482.85	44699.55
483.03	45116.17
483.21	46078.13
483.39	45918.97
483.57	44821.26
483.74	44493.58
483.92	44856.37
484.10	45411.07
484.28	45895.56
484.46	46391.76
484.64	46597.73
484.82	45776.20
485.00	45280.00
485.18	44910.20
485.35	43180.54
485.53	40336.79
485.71	36837.69
485.89	36254.90
486.07	37823.06
486.25	41455.57
486.43	44079.31
486.61	44512.31
486.78	44168.25
486.96	44617.63
487.14	46265.37
487.32	47019.02
487.50	48275.89
487.68	48900.81
487.85	49392.33
488.03	49418.07
488.21	49287.00
488.39	48257.17
488.57	47824.17
488.75	47026.04
488.92	48245.46
489.10	50436.20
489.28	52006.70
489.46	52706.52
489.64	52334.38
489.81	52842.27
489.99	52479.49
490.17	52285.23
490.35	52821.21
490.53	52474.81
490.70	51772.65
490.88	51618.17
491.06	52896.11
491.24	53055.26
491.41	51613.49
491.59	50124.91
491.77	49188.70
491.95	50628.13
492.13	51306.88
492.30	52687.80
492.48	53731.68
492.66	54185.74
492.84	54145.95
493.01	54024.25
493.19	53336.13
493.37	53312.72
493.54	52648.01
493.72	53216.76
493.90	54482.99
494.08	55262.39
494.25	55367.71
494.43	55271.75
494.61	56062.85
494.79	56128.39
494.96	56016.04
495.14	55473.04
495.32	54330.86
495.49	53881.47
495.67	54805.98
495.85	56163.50
496.02	56334.35
496.20	56425.64
496.38	55950.51
496.55	55664.96
496.73	56406.91
496.91	56301.59
497.09	57055.24
497.26	57293.97
497.44	56591.81
497.62	56236.05
497.79	55372.39
497.97	53867.43
498.14	54066.38
498.32	55463.67
498.50	56549.68
498.67	56931.19
498.85	56680.75
499.03	56664.37
499.20	56818.84
499.38	57003.75
499.56	57071.62
499.73	56488.83
499.91	56060.51
500.08	55856.88
500.26	54836.41
500.44	55140.68
500.61	55920.08
500.79	55997.32
500.97	55257.71
501.14	55311.54
501.32	54934.71
501.49	55089.19
501.67	55451.97
501.84	55805.39
502.02	55964.55
502.20	56650.33
502.37	56619.90
502.55	56666.71
502.72	57076.30
502.90	57623.99
503.07	57380.57
503.25	56898.42
503.43	56018.38
503.60	55566.66
503.78	54803.64
503.95	54965.14
504.13	56615.22
504.30	57425.04
504.48	57148.86
504.65	56694.80
504.83	56985.02
505.01	57647.39
505.18	57893.15
505.36	58464.24
505.53	58576.59
505.71	58700.64
505.88	58686.59
506.06	58323.81
506.23	57937.62
506.41	57425.04
506.58	57668.46
506.76	57563.14
506.93	57731.65
507.11	57340.78
507.28	57642.71
507.46	57139.50
507.63	56762.67
507.81	56177.54
507.98	56608.20
508.16	57305.68
508.33	57614.63
508.50	58066.35
508.68	58230.19
508.85	58639.78
509.03	58934.69
509.20	58876.18
509.38	57832.30
509.55	57228.44
509.73	57223.76
509.90	57729.31
510.08	57972.73
510.25	58108.48
510.42	57724.63
510.60	57677.82
510.77	57858.04
510.95	58527.44
511.12	58808.30
511.30	58773.19
511.47	59206.19
511.64	59089.16
511.82	58857.45
511.99	57954.00
512.17	57626.33
512.34	57303.34
512.51	57511.64
512.69	57523.35
512.86	57635.69
513.04	58007.84
513.21	58211.46
513.38	57813.57
513.56	57193.33
513.73	56655.01
513.90	56823.53
514.08	56849.27
514.25	57261.21
514.43	57499.94
514.60	57558.45
514.77	57886.13
514.95	57680.16
515.12	57375.89
515.29	57928.26
515.47	58342.53
515.64	58475.94
515.81	58094.44
515.99	57521.01
516.16	56205.62
516.33	53661.46
516.51	52231.40
516.68	51545.62
516.85	51004.95
517.03	51454.34
517.20	54251.28
517.37	56839.91
517.54	57982.09
517.72	57406.32
517.89	55143.02
518.06	52299.27
518.24	52598.86
518.41	55103.23
518.58	56378.82
518.75	56381.16
518.93	56383.51
519.10	56537.98
519.27	56970.98
519.45	57359.51
519.62	57977.41
519.79	58291.04
519.96	58319.13
520.14	57743.36
520.31	56921.83
520.48	56729.90
520.65	57148.86
520.83	58059.33
521.00	58166.99
521.17	57972.73
521.34	57516.32
521.52	58108.48
521.69	58660.85
521.86	59000.22
522.03	58710.00
522.20	57710.59
522.38	56430.32
522.55	56413.93
522.72	57158.22
522.89	57371.21
523.07	57324.40
523.24	57626.33
523.41	58532.12
523.58	58761.49
523.75	59304.49
523.92	59196.83
524.10	58915.96
524.27	59047.04
524.44	58838.73
524.61	58871.49
524.78	58599.99
524.96	58419.77
525.13	58597.65
525.30	58796.60
525.47	59178.10
525.64	59166.40
525.81	58101.46
525.98	57092.69
526.16	55297.50
526.33	54768.54
526.50	54567.25
526.67	54117.87
526.84	54700.66
527.01	55711.77
527.18	56521.60
527.36	57513.98
527.53	58452.54
527.70	58571.91
527.87	57921.24
528.04	57553.77
528.21	58101.46
528.38	58642.12
528.55	59189.81
528.72	59512.80
528.89	59580.68
529.07	59480.03
529.24	58628.08
529.41	58103.80
529.58	57600.58
529.75	57736.34
529.92	57930.60
530.09	58588.29
530.26	58827.02
530.43	59337.26
530.60	59175.76
530.77	59480.03
530.94	59484.72
531.11	59143.00
531.28	58670.21
531.46	58466.58
531.63	58625.74
531.80	58588.29
531.97	58122.52
532.14	57324.40
532.31	56435.00
532.48	55648.58
532.65	55664.96
532.82	56640.96
532.99	57783.15
533.16	58082.73
533.33	58789.58
533.50	58391.68
533.67	57855.70
533.84	57324.40
534.01	57701.23
534.18	57979.75
534.35	57996.13
534.52	57829.96
534.69	58124.86
534.86	58389.34
535.03	58698.30
535.20	59262.36
535.37	59407.48
535.54	59573.66
535.71	59222.58
535.88	58817.66
536.05	57989.11
536.22	57879.11
536.38	57591.22
536.55	57085.67
536.72	56418.61
536.89	56301.59
537.06	57155.88
537.23	58258.27
537.40	58377.64
537.57	58356.58
537.74	58073.37
537.91	58094.44
538.08	57890.81
538.25	58110.82
538.42	58071.03
538.59	57984.43
538.75	57415.68
538.92	57200.35
539.09	57052.90
539.26	57020.13
539.43	56699.48
539.60	56807.14
539.77	56905.44
539.94	56657.35
540.11	56025.40
540.28	55531.55
540.44	55889.65
540.61	55889.65
540.78	56100.30
540.95	56652.67
541.12	56776.72
541.29	57181.63
541.46	57544.41
541.62	57539.73
541.79	57427.38
541.96	56865.66
542.13	56493.51
542.30	57048.22
542.47	57221.42
542.63	56795.44
542.80	56809.48
542.97	57080.98
543.14	56582.45
543.31	56926.51
543.48	57261.21
543.64	58101.46
543.81	58473.60
543.98	57989.11
544.15	57649.74
544.32	56903.10
544.48	56980.34
544.65	57340.78
544.82	57750.38
544.99	57167.58
545.16	57099.71
545.32	56872.68
545.49	57719.95
545.66	57972.73
545.83	57539.73
546.00	57258.87
546.16	56891.40
546.33	56795.44
546.50	56942.89
546.67	57546.75
546.83	56963.96
547.00	57001.41
547.17	56264.14
547.34	55688.37
547.50	55636.87
547.67	56294.56
547.84	56200.94
548.00	56488.83
548.17	57020.13
548.34	56875.02
548.51	56910.13
548.67	57073.96
548.84	57181.63
549.01	57017.79
549.18	56945.23
549.34	57020.13
549.51	57015.45
549.68	56722.88
549.84	56718.20
550.01	56470.11
550.18	56222.01
550.34	56306.27
550.51	56568.41
550.68	56575.43
550.84	56027.74
551.01	56128.39
551.18	56310.95
551.34	56114.34
551.51	56612.88
551.68	57048.22
551.84	56858.63
552.01	56821.19
552.18	56769.69
552.34	56011.36
552.51	55632.19
552.68	55531.55
552.84	55866.25
553.01	56002.00
553.18	55999.66
553.34	56214.99
553.51	56259.46
553.67	56596.49
553.84	57015.45
554.01	56406.91
554.17	56341.38
554.34	56294.56
554.51	56762.67
554.67	56863.32
554.84	56554.36
555.00	56196.26
555.17	56165.84
555.33	56114.34
555.50	55936.46
555.67	56112.00
555.83	55936.46
556.00	55655.60
556.16	55709.43
556.33	55000.25
556.50	55047.06
556.66	55143.02
556.83	55000.25
556.99	54871.52
557.16	55168.77
557.32	55423.89
557.49	55622.83
557.65	55351.33
557.82	55231.96
557.98	55360.69
558.15	54714.70
558.32	53762.11
558.48	53244.85
558.65	53223.78
558.81	53853.39
558.98	53876.79
559.14	54471.29
559.31	54038.29
559.47	54482.99
559.64	53909.56
559.80	53471.88
559.97	53483.58
560.13	54049.99
560.30	55185.15
560.46	55421.55
560.63	55662.62
560.79	55966.89
560.96	55351.33
561.12	54251.28
561.29	53422.73
561.45	53256.55
561.61	54047.65
561.78	54401.07
561.94	54398.73
562.11	53928.28
562.27	54157.66
562.44	54305.11
562.60	54876.20
562.77	54719.38
562.93	54897.27
563.10	54478.31
563.26	53951.69
563.42	54281.70
563.59	53876.79
563.75	53675.51
563.92	54007.86
564.08	53811.26
564.24	54384.69
564.41	54370.64
564.57	54075.74
564.74	54026.59
564.90	54054.67
565.07	53448.47
565.23	53043.56
565.39	52846.96
565.56	52334.38
565.72	52231.40
565.88	52664.39
566.05	52853.98
566.21	53003.77
566.38	52877.38
566.54	53249.53
566.70	53762.11
566.87	53935.30
567.03	53776.15
567.19	54138.93
567.36	53712.95
567.52	53628.69
567.68	53453.15
567.85	52535.66
568.01	52261.82
568.17	51562.00
568.34	51831.16
568.50	51789.03
568.66	51913.08
568.83	52137.77
568.99	52224.37
569.15	52369.49
569.32	52486.51
569.48	52128.41
569.64	52161.18
569.81	51889.68
569.97	51597.11
570.13	51803.08
570.30	50885.59
570.46	50377.69
570.62	50337.90
570.78	50066.40
570.95	50019.59
571.11	51117.30
571.27	51217.94
571.43	51566.68
571.60	51831.16
571.76	51978.62
571.92	52430.34
572.09	52170.54
572.25	52556.73
572.41	52509.92
572.57	52100.32
572.74	52273.52
572.90	51711.80
573.06	51503.49
573.22	51892.02
573.38	51870.95
573.55	51763.29
573.71	51978.62
573.87	52231.40
574.03	51585.41
574.20	51569.02
574.36	51009.64
574.52	51152.41
574.68	51157.09
574.84	50623.45
575.01	50234.92
575.17	49928.31
575.33	50511.10
575.49	50564.93
575.65	50550.89
575.82	50520.46
575.98	50061.72
576.14	50164.70
576.30	51051.76
576.46	51138.36
576.62	51037.72
576.79	50611.74
576.95	50440.89
577.11	49893.20
577.27	50674.94
577.43	50433.86
577.59	50251.30
577.75	50117.89
577.92	48830.60
578.08	48816.55
578.24	48704.21
578.40	48975.71
578.56	49542.12
578.72	49258.91
578.88	49635.74
579.04	49560.84
579.21	49595.95
579.37	49914.26
579.53	50167.04
579.69	49755.11
579.85	50176.40
580.01	49925.97
580.17	49263.60
580.33	49471.90
580.49	49565.52
580.65	49626.38
580.82	50014.91
580.98	50202.15
581.14	49734.04
581.30	50113.21
581.46	49366.58
581.62	49993.84
581.78	49612.34
581.94	50059.38
582.10	49984.48
582.26	49986.82
582.42	50115.55
582.58	50316.84
582.74	49837.03
582.90	49970.44
583.06	50075.76
583.22	50136.62
583.38	49834.69
583.54	49656.81
583.70	49752.77
583.86	49720.00
584.02	49682.55
584.18	49614.68
584.34	49567.87
584.50	48996.77
584.66	49148.91
584.82	48582.50
584.98	48664.42
585.14	48605.91
585.30	47311.59
