SpectraSuite Data File
++++++++++++++++++++++++++++++++++++
Date: Mon Oct 07 14:55:00 GMT-05:00 2013
User: price-jones
Dark Spectrum Present: No
Reference Spectrum Present: No
Number of Sampled Component Spectra: 1
Spectrometers: USB2+H05261
Integration Time (usec): 10000 (USB2+H05261)
Spectra Averaged: 1 (USB2+H05261)
Boxcar Smoothing: 0 (USB2+H05261)
Correct for Electrical Dark: No (USB2+H05261)
Strobe/Lamp Enabled: No (USB2+H05261)
Correct for Detector Non-linearity: No (USB2+H05261)
Correct for Stray Light: No (USB2+H05261)
Number of Pixels in Processed Spectrum: 2048
>>>>>Begin Processed Spectral Data<<<<<
365.73	0.00
365.92	0.00
366.12	0.00
366.32	0.00
366.52	0.00
366.72	0.00
366.91	0.00
367.11	0.00
367.31	0.00
367.51	0.00
367.70	0.00
367.90	0.00
368.10	0.00
368.30	0.00
368.49	0.00
368.69	0.00
368.89	0.00
369.09	0.00
369.28	0.00
369.48	0.00
369.68	0.00
369.87	0.00
370.07	0.00
370.27	0.00
370.47	189.58
370.66	1860.73
370.86	2342.88
371.06	2417.77
371.25	2438.84
371.45	2146.27
371.65	1968.39
371.84	1888.81
372.04	2040.95
372.24	2167.34
372.44	2420.11
372.63	2279.68
372.83	1982.43
373.03	1820.94
373.22	1624.33
373.42	1867.75
373.62	2209.47
373.81	2258.62
374.01	2251.60
374.21	1893.49
374.40	1825.62
374.60	1956.69
374.79	2275.00
374.99	2768.85
375.19	2871.84
375.38	2630.76
375.58	2574.59
375.78	2635.44
375.97	2635.44
376.17	2642.46
376.37	2726.72
376.56	2890.56
376.76	3016.95
376.95	3241.64
377.15	3499.10
377.35	3702.73
377.54	3681.66
377.74	3812.73
377.93	3812.73
378.13	3576.34
378.33	3372.71
378.52	3173.77
378.72	3112.91
378.91	2935.03
379.11	2951.42
379.31	2808.64
379.50	2841.41
379.70	3213.56
379.89	3492.08
380.09	3557.61
380.28	3751.88
380.48	3815.07
380.68	3815.07
380.87	3482.72
381.07	3208.87
381.26	3091.85
381.46	2771.19
381.65	2832.05
381.85	2792.26
382.04	2541.82
382.24	2380.32
382.43	2293.72
382.63	2324.15
382.83	2160.31
383.02	2359.26
383.22	2218.83
383.41	2230.53
383.61	2504.37
383.80	2815.66
384.00	3281.43
384.19	3751.88
384.39	3747.20
384.58	3857.20
384.78	3545.91
384.97	3604.42
385.17	3407.82
385.36	3302.50
385.56	3145.68
385.75	3227.60
385.95	3583.36
386.14	3836.14
386.34	3817.41
386.53	3571.66
386.72	3480.38
386.92	3730.81
387.11	3859.54
387.31	3948.48
387.50	3829.12
387.70	3637.19
387.89	3723.79
388.09	3674.64
388.28	3868.91
388.48	3861.88
388.67	4105.30
388.86	4601.49
389.06	4800.44
389.25	5043.85
389.45	5177.26
389.64	4929.17
389.84	5008.75
390.03	4912.78
390.22	5093.01
390.42	5135.14
390.61	5397.28
390.81	5748.36
391.00	5774.10
391.19	5837.30
391.39	5535.37
391.58	5397.28
391.78	5217.05
391.97	4903.42
392.16	4465.74
392.36	3840.82
392.55	3070.78
392.75	2443.52
392.94	2101.80
393.13	2087.76
393.33	2759.49
393.52	3534.21
393.71	4262.12
393.91	4620.22
394.10	5067.26
394.29	5324.72
394.49	5919.21
394.68	6382.64
394.88	6289.02
395.07	6499.67
395.26	6525.41
395.46	6155.61
395.65	5734.31
395.84	4983.00
396.04	4133.39
396.23	3208.87
396.42	2733.75
396.62	2810.98
396.81	3583.36
397.00	4517.23
397.19	5605.58
397.39	6733.72
397.58	7442.90
397.77	7712.07
397.97	7887.61
398.16	8142.72
398.35	8301.88
398.55	8727.86
398.74	8990.00
398.93	9006.38
399.12	8732.54
399.32	8816.80
399.51	8903.40
399.70	9404.27
399.90	9420.66
400.09	9207.67
400.28	9240.44
400.47	9446.40
400.67	9872.38
400.86	9914.51
401.05	9884.08
401.24	10050.26
401.44	10181.33
401.63	10272.61
401.82	10186.01
402.01	10291.34
402.21	10417.72
402.40	10368.57
402.59	10118.14
402.78	9755.35
402.97	9533.00
403.17	9984.73
403.36	10574.54
403.55	10745.40
403.74	10953.71
403.93	10473.90
404.13	9430.02
404.32	9397.25
404.51	10090.05
404.70	10696.25
404.89	10558.16
405.09	10441.13
405.28	10101.75
405.47	10366.23
405.66	10258.57
405.85	9816.21
406.05	9741.31
406.24	10153.24
406.43	10310.06
406.62	10682.20
406.81	10499.64
407.00	10274.95
407.20	10235.16
407.39	9994.09
407.58	10656.46
407.77	11150.31
407.96	11571.61
408.15	11672.25
408.34	11651.19
408.54	12365.05
408.73	11990.56
408.92	11861.84
409.11	11300.11
409.30	11042.65
409.49	10429.43
409.68	9591.52
409.87	9785.78
410.07	10410.70
410.26	11211.17
410.45	11620.76
410.64	12025.67
410.83	12465.69
411.02	12793.37
411.21	12870.61
411.40	12809.75
411.59	13177.22
411.78	13018.06
411.98	12924.44
412.17	12985.29
412.36	12617.83
412.55	12681.02
412.74	12512.50
412.93	12191.85
413.12	12542.93
413.31	13930.87
413.50	13788.10
413.69	13898.10
413.88	13282.54
414.07	13048.49
414.26	13233.39
414.45	13710.86
414.64	13619.58
414.83	13701.50
415.02	13628.94
415.22	13514.25
415.41	13874.70
415.60	13891.08
415.79	14724.31
415.98	15028.58
416.17	15190.08
416.36	14600.26
416.55	14611.96
416.74	13996.40
416.93	13664.05
417.12	13687.45
417.31	13912.14
417.50	14457.49
417.69	14824.95
417.88	14476.21
418.07	14611.96
418.26	14031.51
418.45	14443.45
418.64	15161.99
418.83	15557.54
419.02	15140.93
419.21	14918.57
419.39	14394.29
419.58	13841.93
419.77	14239.82
419.96	14934.96
420.15	15499.03
420.34	16121.61
420.53	16056.08
420.72	16592.06
420.91	16240.98
421.10	15784.57
421.29	16383.75
421.48	15779.89
421.67	16585.04
421.86	15716.70
422.05	14258.54
422.24	13125.72
422.43	13699.16
422.61	15154.97
422.80	15847.77
422.99	15360.94
423.18	15009.86
423.37	14799.21
423.56	15037.94
423.75	15136.24
423.94	15679.25
424.13	14834.32
424.32	14724.31
424.50	15094.11
424.69	15215.82
424.88	14831.97
425.07	14960.70
425.26	14436.42
425.45	14373.23
425.64	14263.22
425.83	14815.59
426.01	15304.76
426.20	15742.44
426.39	15400.72
426.58	14174.28
426.77	13261.48
426.96	13041.46
427.15	13650.00
427.33	14944.32
427.52	15108.16
427.71	15037.94
427.90	14869.42
428.09	14787.50
428.28	14595.58
428.46	13851.29
428.65	13736.60
428.84	14539.41
429.03	14548.77
429.22	13549.36
429.40	12498.46
429.59	11634.80
429.78	10193.03
429.97	10583.90
430.16	10380.28
430.34	10370.91
430.53	10565.18
430.72	11080.10
430.91	12442.29
431.10	14672.82
431.28	16952.50
431.47	17965.95
431.66	17797.43
431.85	15906.28
432.03	14616.65
432.22	14766.44
432.41	15908.62
432.60	17273.15
432.79	17757.64
432.97	17273.15
433.16	17057.82
433.35	15335.19
433.54	13722.56
433.72	13572.77
433.91	14181.31
434.10	15999.90
434.28	16926.75
434.47	17699.13
434.66	16961.86
434.85	16610.78
435.03	17174.85
435.22	17219.32
435.41	17933.18
435.59	18188.30
435.78	18476.19
435.97	19246.23
436.16	18979.40
436.34	18927.91
436.53	18558.11
436.72	18125.11
436.90	17296.56
437.09	17352.73
437.28	17273.15
437.46	17778.71
437.65	17603.17
437.84	15962.45
438.02	15279.02
438.21	15513.07
438.40	16196.51
438.58	17657.00
438.77	17947.23
438.96	17827.86
439.14	18389.59
439.33	19220.48
439.52	19117.50
439.70	18501.93
439.89	17900.42
440.08	17834.88
440.26	18066.60
440.45	18394.27
440.63	19978.81
440.82	20912.69
441.01	20350.96
441.19	20252.66
441.38	20933.75
441.57	21322.28
441.75	21212.28
441.94	21628.89
442.12	21544.63
442.31	22347.44
442.50	22677.45
442.68	21696.77
442.87	21596.12
443.05	21165.46
443.24	22026.78
443.43	22632.98
443.61	22417.65
443.80	22878.74
443.98	21912.10
444.17	22001.04
444.35	22427.01
444.54	23194.71
444.73	23143.22
444.91	21841.88
445.10	20849.49
445.28	20365.00
445.47	20189.46
445.65	20034.99
445.84	20835.45
446.02	21497.82
446.21	21900.39
446.39	22029.12
446.58	22141.47
446.77	22958.31
446.95	22836.61
447.14	23704.95
447.32	23941.34
447.51	23267.27
447.69	22164.87
447.88	22141.47
448.06	22689.15
448.25	22661.07
448.43	22714.90
448.62	22253.81
448.80	22183.60
448.99	22452.76
449.17	23190.03
449.36	23255.56
449.54	23515.36
449.73	24439.87
449.91	24201.14
450.10	25542.27
450.28	25240.34
450.46	25092.88
450.65	25074.16
450.83	24861.17
451.02	24463.28
451.20	24372.00
451.39	24348.59
451.57	24247.95
451.76	24156.67
451.94	23459.19
452.13	23363.23
452.31	22448.08
452.49	21324.62
452.68	21869.97
452.86	22040.82
453.05	22160.19
453.23	23133.86
453.42	23388.97
453.60	23527.06
453.78	23885.17
453.97	23503.66
454.15	23676.86
454.34	22403.61
454.52	22789.80
454.70	22586.17
454.89	23281.31
455.07	23796.23
455.26	23817.29
455.44	24870.53
455.62	25214.59
455.81	24882.24
455.99	24872.87
456.17	24854.15
456.36	25259.06
456.54	25380.77
456.73	25584.40
456.91	26040.80
457.09	26155.49
457.28	26546.36
457.46	24996.92
457.64	25153.74
457.83	24746.48
458.01	24259.65
458.19	24863.51
458.38	25041.39
458.56	25841.85
458.74	25074.16
458.93	24498.39
459.11	24929.05
459.29	24690.31
459.48	25303.53
459.66	25043.73
459.84	25078.84
460.03	25050.75
460.21	25818.45
460.39	26291.24
460.57	25790.36
460.76	26223.36
460.94	26757.00
461.12	26211.66
461.31	25991.65
461.49	26562.74
461.67	26675.09
461.85	27182.98
462.04	27054.25
462.22	27140.85
462.40	27136.17
462.59	26899.78
462.77	26775.73
462.95	26717.22
463.13	26434.01
463.32	25937.82
463.50	25940.16
463.68	26181.23
463.86	26717.22
464.05	25790.36
464.23	25310.55
464.41	25017.99
464.59	24301.78
464.78	25825.47
464.96	25708.44
465.14	25376.09
465.32	26008.03
465.50	26759.34
465.69	27365.54
465.87	26253.79
466.05	25713.13
466.23	24760.53
466.41	23910.91
466.60	25078.84
466.78	25298.85
466.96	26221.02
467.14	26415.29
467.32	25839.51
467.51	26347.41
467.69	25247.36
467.87	26206.98
468.05	26125.06
468.23	26169.53
468.41	25940.16
468.60	26232.72
468.78	26539.33
468.96	26118.04
469.14	27101.06
469.32	26850.63
469.50	25614.82
469.69	25816.11
469.87	25591.42
470.05	25724.83
470.23	25816.11
470.41	26300.60
470.59	26607.21
470.77	26038.46
470.95	26436.35
471.14	27098.72
471.32	27213.41
471.50	28627.09
471.68	28535.81
471.86	29039.03
472.04	28599.01
472.22	28704.33
472.40	27110.43
472.58	27365.54
472.77	27400.65
472.95	27513.00
473.13	28290.06
473.31	27974.08
473.49	28182.39
473.67	28943.06
473.85	29109.24
474.03	29640.54
474.21	29654.59
474.39	29701.40
474.57	30202.27
474.75	29879.28
474.93	29181.80
475.12	28865.83
475.30	28765.18
475.48	28786.25
475.66	29193.50
475.84	28929.02
476.02	28893.91
476.20	28280.69
476.38	28645.82
476.56	29584.37
476.74	30302.92
476.92	29715.44
477.10	30623.57
477.28	32217.47
477.46	31784.48
477.64	32397.70
477.82	32362.59
478.00	32716.01
478.18	31943.63
478.36	31379.56
478.54	31683.83
478.72	31910.86
478.90	33144.33
479.08	33572.64
479.26	33621.80
479.44	34253.74
479.62	34150.76
479.80	34197.57
479.98	34459.71
480.16	34682.06
480.34	33464.98
480.52	34426.94
480.70	34675.04
480.88	34792.06
481.06	35002.71
481.24	35199.32
481.41	36392.99
481.59	37034.30
481.77	36285.33
481.95	36332.14
482.13	36065.31
482.31	36053.61
482.49	36561.51
482.67	35763.39
482.85	37212.18
483.03	37233.24
483.21	37701.35
483.39	37486.02
483.57	37022.59
483.74	36573.21
483.92	37467.30
484.10	37336.23
484.28	37947.11
484.46	38036.05
484.64	39538.67
484.82	38464.36
485.00	37516.45
485.18	36858.76
485.35	34497.16
485.53	31307.01
485.71	29296.49
485.89	29778.64
486.07	31637.02
486.25	34312.25
486.43	36077.02
486.61	36147.23
486.78	36327.45
486.96	36531.08
487.14	38883.32
487.32	39435.69
487.50	40203.38
487.68	41729.41
487.85	42258.37
488.03	41212.15
488.21	40554.46
488.39	40144.87
488.57	38649.27
488.75	39543.35
488.92	41387.69
489.10	43789.08
489.28	43758.66
489.46	45277.66
489.64	45249.58
489.81	45181.70
489.99	44505.29
490.17	45696.62
490.35	45394.69
490.53	44713.59
490.70	43564.39
490.88	44055.90
491.06	45118.51
491.24	45600.66
491.41	43915.47
491.59	41825.37
491.77	41762.18
491.95	42845.85
492.13	44769.77
492.30	44694.87
492.48	46312.18
492.66	46630.49
492.84	47334.99
493.01	46897.31
493.19	46438.57
493.37	45607.68
493.54	45642.79
493.72	46663.26
493.90	48282.91
494.08	48973.37
494.25	48975.71
494.43	50071.08
494.61	50415.14
494.79	49914.26
494.96	50602.38
495.14	49261.26
495.32	47632.24
495.49	47334.99
495.67	49200.40
495.85	50504.08
496.02	50972.19
496.20	50054.70
496.38	50131.93
496.55	49755.11
496.73	50471.31
496.91	51154.75
497.09	51667.33
497.26	51302.20
497.44	50227.90
497.62	50080.44
497.79	49352.54
497.97	47480.11
498.14	48767.40
498.32	50092.15
498.50	50326.20
498.67	50548.55
498.85	50995.59
499.03	51789.03
499.20	51906.06
499.38	50876.22
499.56	50234.92
499.73	49799.58
499.91	49162.95
500.08	48584.84
500.26	48067.58
500.44	49017.84
500.61	49441.48
500.79	49567.87
500.97	49661.49
501.14	48619.95
501.32	48114.39
501.49	48542.71
501.67	49546.80
501.84	49034.22
502.02	50314.50
502.20	50679.62
502.37	50466.63
502.55	51257.73
502.72	51672.01
502.90	52285.23
503.07	52025.43
503.25	50866.86
503.43	49715.32
503.60	48900.81
503.78	48917.20
503.95	49673.19
504.13	51325.61
504.30	52053.51
504.48	51164.11
504.65	50904.31
504.83	51466.04
505.01	52072.24
505.18	51992.66
505.36	52816.53
505.53	53345.49
505.71	52786.10
505.88	53701.25
506.06	52530.98
506.23	52713.55
506.41	52481.83
506.58	52406.94
506.76	51819.46
506.93	52224.37
507.11	51695.41
507.28	52151.82
507.46	51613.49
507.63	51164.11
507.81	50433.86
507.98	51442.63
508.16	52175.22
508.33	51798.40
508.50	52584.82
508.68	53153.57
508.85	53696.57
509.03	53652.10
509.20	53286.98
509.38	51885.00
509.55	52736.95
509.73	52219.69
509.90	52430.34
510.08	52797.80
510.25	52247.78
510.42	50995.59
510.60	52107.35
510.77	53055.26
510.95	53286.98
511.12	53600.61
511.30	53413.37
511.47	54054.67
511.64	53925.94
511.82	52816.53
511.99	51852.23
512.17	52011.38
512.34	51320.93
512.51	52032.45
512.69	52388.21
512.86	52928.87
513.04	53286.98
513.21	52460.77
513.38	51517.53
513.56	51562.00
513.73	50251.30
513.90	51182.84
514.08	51753.93
514.25	51800.74
514.43	52315.65
514.60	52584.82
514.77	52987.39
514.95	53591.25
515.12	52999.09
515.29	53097.39
515.47	53324.43
515.64	53783.17
515.81	53455.50
515.99	51971.60
516.16	49284.66
516.33	47585.43
516.51	45996.21
516.68	44177.61
516.85	42937.13
517.03	45476.61
517.20	49649.78
517.37	51999.68
517.54	53137.18
517.72	50815.37
517.89	47196.90
518.06	45525.76
518.24	47086.90
518.41	50473.65
518.58	51791.37
518.75	50979.21
518.93	51152.41
519.10	51543.28
519.27	52420.98
519.45	52804.83
519.62	53153.57
519.79	53055.26
519.96	52325.02
520.14	52062.88
520.31	50672.60
520.48	51220.28
520.65	51767.97
520.83	53134.84
521.00	53628.69
521.17	52598.86
521.34	52355.44
521.52	52612.90
521.69	53455.50
521.86	53991.48
522.03	53902.54
522.20	52736.95
522.38	51433.27
522.55	52322.68
522.72	52704.18
522.89	51751.59
523.07	52509.92
523.24	53113.78
523.41	53790.19
523.58	54085.10
523.75	54354.26
523.92	53888.49
524.10	54026.59
524.27	54253.62
524.44	54585.97
524.61	53558.48
524.78	53794.87
524.96	53897.86
525.13	53682.53
525.30	53797.21
525.47	55145.36
525.64	55098.55
525.81	54094.46
525.98	51906.06
526.16	49617.02
526.33	49027.20
526.50	48708.89
526.67	48161.20
526.84	49750.43
527.01	50808.35
527.18	51519.87
527.36	52872.70
527.53	53872.11
527.70	52975.69
527.87	52133.09
528.04	52966.32
528.21	53326.77
528.38	54040.63
528.55	54490.01
528.72	54431.50
528.89	54040.63
529.07	54417.46
529.24	52451.41
529.41	52486.51
529.58	52254.80
529.75	53607.63
529.92	53937.65
530.09	54396.39
530.26	54913.65
530.43	55494.10
530.60	54770.88
530.77	55290.48
530.94	54951.10
531.11	53790.19
531.28	53979.78
531.46	54443.20
531.63	54092.12
531.80	53783.17
531.97	53125.48
532.14	52584.82
532.31	50864.52
532.48	50096.83
532.65	51091.55
532.82	51896.70
532.99	53818.28
533.16	53549.12
533.33	53490.60
533.50	53373.58
533.67	52973.34
533.84	52502.90
534.01	53338.47
534.18	53123.14
534.35	52612.90
534.52	51765.63
534.69	53008.45
534.86	53434.43
535.03	53701.25
535.20	53579.54
535.37	54288.73
535.54	54862.16
535.71	54522.78
535.88	54211.49
536.05	53427.41
536.22	52196.29
536.38	52907.81
536.55	51625.20
536.72	51611.15
536.89	52374.17
537.06	52629.29
537.23	53347.83
537.40	53048.24
537.57	53062.29
537.74	53558.48
537.91	53682.53
538.08	53453.15
538.25	53043.56
538.42	54038.29
538.59	53647.42
538.75	52364.81
538.92	51929.47
539.09	52229.05
539.26	51765.63
539.43	51468.38
539.60	51742.22
539.77	52425.66
539.94	51969.26
540.11	50384.71
540.28	50763.88
540.44	50223.22
540.61	50791.97
540.78	51941.17
540.95	52933.56
541.12	52435.02
541.29	51882.66
541.46	52872.70
541.62	53317.40
541.79	52360.12
541.96	51533.92
542.13	51489.45
542.30	51735.20
542.47	52313.31
542.63	53188.67
542.80	52842.27
542.97	52292.25
543.14	51702.43
543.31	50951.12
543.48	53069.31
543.64	53118.46
543.81	53621.67
543.98	53394.64
544.15	52055.85
544.32	52570.77
544.48	52919.51
544.65	52949.94
544.82	53073.99
544.99	52470.13
545.16	52041.81
545.32	51599.45
545.49	52849.30
545.66	53141.86
545.83	52236.08
546.00	52154.16
546.16	52622.26
546.33	52521.62
546.50	52570.77
546.67	53399.32
546.83	52795.46
547.00	52755.68
547.17	50848.14
547.34	50340.24
547.50	50162.36
547.67	52032.45
547.84	52673.76
548.00	52692.48
548.17	52736.95
548.34	52144.80
548.51	52367.15
548.67	52472.47
548.84	52568.43
549.01	53179.31
549.18	52872.70
549.34	52456.09
549.51	52795.46
549.68	53057.60
549.84	52292.25
550.01	51489.45
550.18	51049.42
550.34	51194.54
550.51	51498.81
550.68	51962.23
550.84	51004.95
551.01	51470.72
551.18	51791.37
551.34	51634.56
551.51	52336.72
551.68	52659.71
551.84	52053.51
552.01	51990.32
552.18	51807.76
552.34	50593.02
552.51	51103.26
552.68	50974.53
552.84	51047.08
553.01	52114.37
553.18	51423.91
553.34	50674.94
553.51	51676.69
553.67	51545.62
553.84	52217.35
554.01	52261.82
554.17	51517.53
554.34	51929.47
554.51	51826.48
554.67	51290.50
554.84	52170.54
555.00	51714.14
555.17	51082.19
555.33	51030.70
555.50	50871.54
555.67	51522.21
555.83	52334.38
556.00	51803.08
556.16	50988.57
556.33	50213.85
556.50	50637.49
556.66	50124.91
556.83	49869.79
556.99	49832.35
557.16	50890.27
557.32	50609.40
557.49	50817.71
557.65	50738.13
557.82	50644.51
557.98	50747.50
558.15	49462.54
558.32	49542.12
558.48	48959.33
558.65	48545.05
558.81	48685.48
558.98	48828.26
559.14	49879.16
559.31	48823.58
559.47	48903.15
559.64	49600.63
559.80	48891.45
559.97	49420.41
560.13	50155.34
560.30	51341.99
560.46	51688.39
560.63	52107.35
560.79	52245.44
560.96	50321.52
561.12	49661.49
561.29	48952.30
561.45	48156.52
561.61	48968.69
561.78	48428.02
561.94	49642.76
562.11	49528.08
562.27	49034.22
562.44	50054.70
562.60	50466.63
562.77	50398.76
562.93	48865.70
563.10	49303.38
563.26	49687.23
563.42	49598.29
563.59	49518.71
563.75	48638.67
563.92	48266.53
564.08	48002.05
564.24	49350.20
564.41	49413.39
564.57	50548.55
564.74	50054.70
564.90	48671.44
565.07	48854.00
565.23	47365.42
565.39	47730.54
565.56	47519.90
565.72	47372.44
565.88	47267.12
566.05	49401.69
566.21	49488.29
566.38	48264.19
566.54	48809.53
566.70	49640.42
566.87	49230.83
567.03	48318.02
567.19	49701.28
567.36	50354.29
567.52	49380.62
567.68	48151.84
567.85	48193.97
568.01	48322.70
568.17	47395.85
568.34	46780.29
568.50	46770.93
568.66	46803.69
568.83	47089.24
568.99	48020.77
569.15	48390.58
569.32	47660.33
569.48	48011.41
569.64	47323.29
569.81	47365.42
569.97	46234.94
570.13	46326.22
570.30	45155.96
570.46	45483.63
570.62	43728.23
570.78	43702.48
570.95	45230.85
571.11	44818.92
571.27	45181.70
571.43	45418.10
571.60	45528.10
571.76	46843.48
571.92	47384.15
572.09	46560.28
572.25	46241.96
572.41	46756.88
572.57	46906.68
572.74	46579.00
572.90	48123.75
573.06	47812.46
573.22	47435.64
573.38	46803.69
573.55	47873.32
573.71	46527.51
573.87	46747.52
574.03	47728.20
574.20	46864.55
574.36	45799.60
574.52	45291.71
574.68	45551.51
574.84	45542.14
575.01	44907.86
575.17	45387.67
575.33	44978.07
575.49	45326.81
575.65	43899.09
575.82	44355.49
575.98	43386.51
576.14	45504.70
576.30	47103.28
576.46	45858.12
576.62	45797.26
576.79	45670.87
576.95	45289.37
577.11	45350.22
577.27	45553.85
577.43	45090.42
577.59	44842.32
577.75	43236.72
577.92	43494.18
578.08	43840.57
578.24	44900.84
578.40	44814.24
578.56	44060.58
578.72	44325.07
578.88	43414.60
579.04	44374.22
579.21	44219.74
579.37	44624.65
579.53	44509.97
579.69	44734.66
579.85	45240.21
580.01	44264.21
580.17	44547.42
580.33	44425.71
580.49	44739.34
580.65	43391.19
580.82	44545.08
580.98	45214.47
581.14	45015.52
581.30	44638.70
581.46	43826.53
581.62	44973.39
581.78	45567.89
581.94	45961.10
582.10	45359.58
582.26	45074.04
582.42	45155.96
582.58	45368.94
582.74	44107.40
582.90	44666.78
583.06	45837.05
583.22	45965.78
583.38	45078.72
583.54	44863.39
583.70	44980.42
583.86	45298.73
584.02	44161.23
584.18	43487.15
584.34	43473.11
584.50	43400.55
584.66	42887.98
584.82	43606.52
584.98	43842.92
585.14	42464.34
585.30	42607.11
585.46	42829.46
