SpectraSuite Data File
++++++++++++++++++++++++++++++++++++
Date: Mon Oct 07 14:53:39 GMT-05:00 2013
User: price-jones
Dark Spectrum Present: No
Reference Spectrum Present: No
Number of Sampled Component Spectra: 1
Spectrometers: USB2+H05261
Integration Time (usec): 100000 (USB2+H05261)
Spectra Averaged: 1 (USB2+H05261)
Boxcar Smoothing: 0 (USB2+H05261)
Correct for Electrical Dark: No (USB2+H05261)
Strobe/Lamp Enabled: No (USB2+H05261)
Correct for Detector Non-linearity: No (USB2+H05261)
Correct for Stray Light: No (USB2+H05261)
Number of Pixels in Processed Spectrum: 2048
>>>>>Begin Processed Spectral Data<<<<<
365.73	0.00
365.92	0.00
366.12	0.00
366.32	0.00
366.52	0.00
366.72	0.00
366.91	0.00
367.11	0.00
367.31	0.00
367.51	0.00
367.70	0.00
367.90	0.00
368.10	0.00
368.30	0.00
368.49	0.00
368.69	0.00
368.89	0.00
369.09	0.00
369.28	0.00
369.48	0.00
369.68	0.00
369.87	0.00
370.07	0.00
370.27	0.00
370.47	65.54
370.66	1551.78
370.86	1722.63
371.06	1919.24
371.25	1928.60
371.45	1626.67
371.65	1514.33
371.84	1439.43
372.04	1507.30
372.24	1713.27
372.44	1879.45
372.63	1760.08
372.83	1820.94
373.03	1479.22
373.22	1348.15
373.42	1481.56
373.62	1556.46
373.81	1727.32
374.01	1837.32
374.21	1643.06
374.40	1455.81
374.60	1640.72
374.79	1799.87
374.99	2111.16
375.19	2296.07
375.38	2272.66
375.58	2139.25
375.78	2186.06
375.97	2139.25
376.17	2232.87
376.37	2165.00
376.56	2361.60
376.76	2527.78
376.95	2597.99
377.15	2747.79
377.35	2928.01
377.54	2869.50
377.74	3009.93
377.93	3028.65
378.13	2974.82
378.33	2738.43
378.52	2700.98
378.72	2399.05
378.91	2541.82
379.11	2394.37
379.31	2347.56
379.50	2279.68
379.70	2370.96
379.89	2722.04
380.09	2951.42
380.28	3012.27
380.48	2977.16
380.68	2897.58
380.87	2820.35
381.07	2794.60
381.26	2480.97
381.46	2242.23
381.65	2174.36
381.85	2167.34
382.04	2001.16
382.24	1909.88
382.43	1867.75
382.63	1724.97
382.83	1827.96
383.02	1790.51
383.22	1788.17
383.41	1771.79
383.61	1954.35
383.80	2179.04
384.00	2551.18
384.19	2726.72
384.39	3005.25
384.58	2995.89
384.78	2876.52
384.97	2848.43
385.17	2708.00
385.36	2420.11
385.56	2497.35
385.75	2555.86
385.95	2885.88
386.14	3045.04
386.34	3089.51
386.53	2963.12
386.72	2768.85
386.92	2775.88
387.11	2890.56
387.31	3141.00
387.50	2937.37
387.70	2850.77
387.89	2930.35
388.09	2864.82
388.28	2883.54
388.48	2918.65
388.67	3276.75
388.86	3454.63
389.06	3829.12
389.25	4032.74
389.45	3906.35
389.64	4053.81
389.84	3859.54
390.03	3868.91
390.22	3899.33
390.42	4011.68
390.61	4348.72
390.81	4435.32
391.00	4695.11
391.19	4730.22
391.39	4568.73
391.58	4194.24
391.78	4018.70
391.97	3772.94
392.16	3625.49
392.36	3330.58
392.55	2612.04
392.75	2029.24
392.94	1645.40
393.13	1647.74
393.33	1919.24
393.52	2574.59
393.71	3098.87
393.91	3613.79
394.10	3868.91
394.29	4297.22
394.49	4407.23
394.68	4959.60
394.88	4933.85
395.07	5100.03
395.26	5006.41
395.46	4917.47
395.65	4489.15
395.84	4058.49
396.04	3419.52
396.23	2691.62
396.42	2260.96
396.62	2260.96
396.81	2551.18
397.00	3358.67
397.19	4266.80
397.39	4863.63
397.58	5481.53
397.77	5949.64
397.97	6064.33
398.16	6251.57
398.35	6502.01
398.55	6576.91
398.74	6764.15
398.93	7005.22
399.12	7045.01
399.32	6703.29
399.51	6876.49
399.70	7290.77
399.90	7103.53
400.09	7166.72
400.28	7030.97
400.47	7183.10
400.67	7665.25
400.86	7854.84
401.05	7894.63
401.24	7950.80
401.44	7861.86
401.63	7922.71
401.82	8114.64
402.01	7962.50
402.21	8109.96
402.40	7990.59
402.59	7737.81
402.78	7543.55
402.97	7176.08
403.17	7712.07
403.36	8149.75
403.55	8564.02
403.74	8475.08
403.93	8189.53
404.13	7522.48
404.32	7417.16
404.51	7679.30
404.70	8425.93
404.89	8304.22
405.09	8346.35
405.28	7918.03
405.47	7833.77
405.66	8046.76
405.85	7810.37
406.05	7676.96
406.24	7658.23
406.43	7899.31
406.62	8161.45
406.81	8372.10
407.00	8091.23
407.20	7932.08
407.39	7623.12
407.58	8336.99
407.77	8629.56
407.96	8889.35
408.15	8926.80
408.34	9142.13
408.54	9362.14
408.73	9455.76
408.92	9095.32
409.11	9137.45
409.30	8603.81
409.49	8079.53
409.68	7557.59
409.87	7581.00
410.07	7974.21
410.26	8255.07
410.45	8964.25
410.64	9057.87
410.83	9331.72
411.02	9507.26
411.21	10090.05
411.40	9914.51
411.59	9895.78
411.78	9820.89
411.98	9816.21
412.17	9816.21
412.36	9926.21
412.55	9703.86
412.74	9654.71
412.93	9518.96
413.12	9439.38
413.31	10300.70
413.50	10403.68
413.69	10677.52
413.88	10143.88
414.07	9994.09
414.26	10162.61
414.45	10361.55
414.64	10406.02
414.83	10478.58
415.02	10436.45
415.22	10401.34
415.41	10757.10
415.60	10934.98
415.79	11367.98
415.98	11414.79
416.17	11487.35
416.36	11309.47
416.55	10897.53
416.74	10698.59
416.93	10331.12
417.12	10354.53
417.31	10675.18
417.50	10614.33
417.69	11098.82
417.88	11047.33
418.07	10857.75
418.26	10640.08
418.45	10820.30
418.64	11365.64
418.83	11552.88
419.02	11707.36
419.21	11496.71
419.39	10885.83
419.58	10396.66
419.77	10633.05
419.96	10902.22
420.15	11782.26
420.34	11978.86
420.53	12332.28
420.72	12421.22
420.91	12287.81
421.10	12032.69
421.29	11946.09
421.48	11726.08
421.67	12362.71
421.86	11819.71
422.05	11307.13
422.24	9848.97
422.43	9923.87
422.61	10780.51
422.80	11815.02
422.99	11838.43
423.18	11386.71
423.37	11262.66
423.56	11157.33
423.75	11328.19
423.94	11730.76
424.13	10937.32
424.32	11272.02
424.50	11044.99
424.69	10946.69
424.88	11241.59
425.07	10878.81
425.26	10956.05
425.45	11068.39
425.64	10604.97
425.83	10637.73
426.01	11218.19
426.20	11693.32
426.39	11712.04
426.58	10806.25
426.77	9825.57
426.96	9441.72
427.15	9963.66
427.33	10841.36
427.52	11257.98
427.71	11257.98
427.90	10993.50
428.09	10963.07
428.28	10525.39
428.46	10143.88
428.65	10188.35
428.84	10609.65
429.03	10541.77
429.22	10036.22
429.40	9635.99
429.59	8718.50
429.78	7672.28
429.97	7763.56
430.16	7838.45
430.34	7981.23
430.53	7871.22
430.72	7875.90
430.91	8760.63
431.10	10356.87
431.28	12439.95
431.47	13324.67
431.66	13298.92
431.85	12379.09
432.03	11288.40
432.22	10846.04
432.41	11281.38
432.60	12437.61
432.79	12819.11
432.97	13013.38
433.16	12727.83
433.35	11929.71
433.54	10530.07
433.72	9935.57
433.91	10333.47
434.10	11662.89
434.28	12271.43
434.47	12919.76
434.66	12655.28
434.85	12432.93
435.03	12299.52
435.22	12648.26
435.41	13500.21
435.59	13862.99
435.78	13809.16
435.97	14143.86
436.16	14097.05
436.34	14155.56
436.53	13703.84
436.72	13394.89
436.90	12727.83
437.09	12786.35
437.28	12683.36
437.46	13109.34
437.65	13018.06
437.84	12189.51
438.02	11257.98
438.21	11140.95
438.40	11651.19
438.58	12702.09
438.77	13151.47
438.96	13151.47
439.14	13727.24
439.33	14047.90
439.52	14251.52
439.70	14083.00
439.89	13504.89
440.08	13329.35
440.26	13139.77
440.45	13624.26
440.63	14738.35
440.82	15307.10
441.01	15169.01
441.19	14829.63
441.38	15213.48
441.57	15726.06
441.75	16086.50
441.94	16011.60
442.12	16198.85
442.31	16336.94
442.50	16446.94
442.68	16105.23
442.87	15981.18
443.05	15852.45
443.24	16072.46
443.43	16224.59
443.61	16587.38
443.80	17057.82
443.98	15740.10
444.17	15819.68
444.35	16753.55
444.54	17048.46
444.73	16676.32
444.91	16044.37
445.10	15330.51
445.28	14787.50
445.47	14607.28
445.65	14518.34
445.84	15339.87
446.02	15873.51
446.21	15913.30
446.39	15852.45
446.58	16217.57
446.77	16355.66
446.95	16320.56
447.14	17022.72
447.32	17441.67
447.51	16802.71
447.69	16147.36
447.88	16107.57
448.06	16255.02
448.25	16861.22
448.43	16769.94
448.62	16442.26
448.80	16390.77
448.99	16510.14
449.17	17104.64
449.36	16531.20
449.54	17128.04
449.73	17657.00
449.91	17830.20
450.10	18342.78
450.28	18537.04
450.46	18508.96
450.65	18515.98
450.83	18302.99
451.02	18031.49
451.20	17626.57
451.39	17729.56
451.57	17387.84
451.76	17631.26
451.94	17563.38
452.13	17261.45
452.31	16414.18
452.49	15693.29
452.68	15810.32
452.86	15985.86
453.05	15974.16
453.23	16650.57
453.42	17099.95
453.60	17575.08
453.78	17708.49
453.97	17544.66
454.15	17525.93
454.34	17174.85
454.52	17380.82
454.70	16746.53
454.89	17060.16
455.07	16992.29
455.26	17153.79
455.44	18082.98
455.62	18312.35
455.81	18443.42
455.99	18043.19
456.17	17935.53
456.36	17958.93
456.54	18523.00
456.73	18593.22
456.91	18822.59
457.09	19068.34
457.28	19108.13
457.46	18717.26
457.64	18689.18
457.83	17909.78
458.01	17348.05
458.19	18036.17
458.38	17984.68
458.56	18794.50
458.74	18740.67
458.93	18050.21
459.11	18284.26
459.29	17919.14
459.48	18122.77
459.66	18068.94
459.84	18202.35
460.03	18656.41
460.21	18422.36
460.39	18963.02
460.57	18946.64
460.76	19262.61
460.94	19084.73
461.12	19283.67
461.31	19019.19
461.49	18803.86
461.67	19119.84
461.85	19538.79
462.04	19487.30
462.22	20519.48
462.40	19494.32
462.59	19637.09
462.77	19601.99
462.95	19353.89
463.13	19372.61
463.32	19220.48
463.50	19073.03
463.68	19143.24
463.86	18977.06
464.05	18719.60
464.23	18207.03
464.41	18424.70
464.59	18068.94
464.78	18836.63
464.96	18850.67
465.14	18499.59
465.32	18979.40
465.50	19721.35
465.69	19831.36
465.87	19337.51
466.05	18815.57
466.23	18059.57
466.41	17516.57
466.60	18068.94
466.78	18443.42
466.96	18764.07
467.14	18600.24
467.32	18951.32
467.51	19255.59
467.69	18153.20
467.87	18518.32
468.05	19051.96
468.23	18728.97
468.41	18838.97
468.60	18726.63
468.78	19276.65
468.96	18810.89
469.14	19463.90
469.32	19178.35
469.50	18689.18
469.69	18848.33
469.87	18314.69
470.05	18111.07
470.23	18405.97
470.41	18504.28
470.59	18731.31
470.77	18581.51
470.95	19253.25
471.14	19215.80
471.32	19751.78
471.50	20585.01
471.68	20599.05
471.86	20879.92
472.04	20957.16
472.22	21231.00
472.40	19871.15
472.58	19730.72
472.77	19342.19
472.95	19770.51
473.13	20460.96
473.31	19702.63
473.49	20081.80
473.67	20407.13
473.85	20533.52
474.03	20755.87
474.21	21345.69
474.39	21371.43
474.57	21458.03
474.75	21422.92
474.93	21158.44
475.12	20690.34
475.30	20821.41
475.48	20915.03
475.66	21055.46
475.84	20879.92
476.02	20627.14
476.20	20439.90
476.38	20886.94
476.56	21561.02
476.74	21785.71
476.92	21858.26
477.10	22228.07
477.28	22843.63
477.46	22988.74
477.64	23035.55
477.82	23000.44
478.00	23426.42
478.18	22902.14
478.36	22923.21
478.54	22630.64
478.72	23220.45
478.90	23513.02
479.08	24411.79
479.26	24547.54
479.44	24631.80
479.62	24102.84
479.80	24215.18
479.98	24386.04
480.16	24496.05
480.34	24299.44
480.52	24634.14
480.70	24842.45
480.88	24807.34
481.06	25301.19
481.24	25249.70
481.41	26092.29
481.59	26710.19
481.77	26038.46
481.95	25699.08
482.13	25731.85
482.31	26167.19
482.49	26324.01
482.67	25921.43
482.85	26424.65
483.03	26419.97
483.21	27035.53
483.39	26864.67
483.57	26190.59
483.74	26349.75
483.92	26616.57
484.10	26625.93
484.28	27297.67
484.46	27754.07
484.64	27887.48
484.82	27087.02
485.00	26721.90
485.18	26216.34
485.35	25418.22
485.53	23510.68
485.71	21434.63
485.89	20964.18
486.07	22160.19
486.25	24144.97
486.43	25755.26
486.61	26026.76
486.78	25844.20
486.96	25743.55
487.14	27372.57
487.32	27852.38
487.50	28842.42
487.68	29631.18
487.85	30115.67
488.03	30103.97
488.21	29677.99
488.39	29085.84
488.57	28624.75
488.75	27835.99
488.92	29212.23
489.10	30981.67
489.28	32219.81
489.46	33308.16
489.64	32985.17
489.81	33305.82
489.99	32924.32
490.17	32900.91
490.35	32943.04
490.53	32538.13
490.70	32210.45
490.88	32158.96
491.06	32987.51
491.24	33268.37
491.41	32004.49
491.59	30478.46
491.77	29895.66
491.95	30969.97
492.13	31821.92
492.30	33195.82
492.48	34178.84
492.66	34859.94
492.84	34782.70
493.01	34211.61
493.19	33645.20
493.37	33488.38
493.54	33558.60
493.72	33839.47
493.90	35189.95
494.08	35639.34
494.25	36086.38
494.43	36697.26
494.61	37277.71
494.79	37029.62
494.96	36765.14
495.14	36147.23
495.32	34529.92
495.49	34176.50
495.67	35880.41
495.85	37048.34
496.02	37654.54
496.20	37408.78
496.38	36730.03
496.55	37064.72
496.73	37106.85
496.91	37790.29
497.09	38455.00
497.26	38646.93
497.44	37881.57
497.62	37298.78
497.79	36091.06
497.97	34787.38
498.14	34909.09
498.32	36425.76
498.50	37666.24
498.67	38064.13
498.85	38157.75
499.03	38141.37
499.20	38508.83
499.38	38625.86
499.56	38375.42
499.73	37586.66
499.91	36807.26
500.08	36985.15
500.26	35367.84
500.44	36290.01
500.61	37251.97
500.79	36961.74
500.97	36334.48
501.14	36187.02
501.32	35562.10
501.49	36034.89
501.67	36229.15
501.84	37184.09
502.02	37282.39
502.20	37907.32
502.37	37813.70
502.55	38054.77
502.72	38733.53
502.90	39274.19
503.07	38909.07
503.25	38087.54
503.43	37148.98
503.60	36421.08
503.78	35459.12
503.95	35906.16
504.13	38169.46
504.30	39143.12
504.48	39295.25
504.65	38675.01
504.83	38260.74
505.01	39456.75
505.18	40140.19
505.36	40687.87
505.53	40563.82
505.71	41060.02
505.88	41340.88
506.06	40102.74
506.23	39927.20
506.41	39056.52
506.58	39171.21
506.76	39409.94
506.93	39363.13
507.11	38951.20
507.28	39477.82
507.46	38595.43
507.63	37874.55
507.81	37443.89
507.98	38169.46
508.16	39152.48
508.33	39620.59
508.50	39931.88
508.68	40889.16
508.85	41174.70
509.03	41652.17
509.20	40896.18
509.38	39784.43
509.55	39058.86
509.73	39061.20
509.90	39885.07
510.08	40308.71
510.25	40032.52
510.42	40130.83
510.60	39997.41
510.77	40273.60
510.95	41219.17
511.12	41249.60
511.30	41584.30
511.47	42314.55
511.64	41865.16
511.82	41478.97
511.99	40175.30
512.17	39536.33
512.34	38689.06
512.51	39267.17
512.69	39662.72
512.86	39955.29
513.04	40942.99
513.21	40486.59
513.38	39997.41
513.56	39199.29
513.73	38656.29
513.90	38831.83
514.08	38515.86
514.25	39016.73
514.43	39407.60
514.60	39819.53
514.77	39831.24
514.95	39835.92
515.12	39903.79
515.29	40172.96
515.47	40877.46
515.64	41301.09
515.81	40514.67
515.99	39810.17
516.16	37624.11
516.33	34927.81
516.51	33352.63
516.68	32446.85
516.85	32065.34
517.03	32158.96
517.20	35477.84
517.37	39098.65
517.54	39749.32
517.72	39552.71
517.89	36154.26
518.06	33191.14
518.24	33771.59
518.41	36863.44
518.58	38089.88
518.75	38569.69
518.93	38300.53
519.10	38597.77
519.27	38969.92
519.45	39271.85
519.62	40318.07
519.79	40975.76
519.96	40465.52
520.14	40006.78
520.31	38813.10
520.48	38583.73
520.65	39260.15
520.83	41092.79
521.00	41024.91
521.17	40559.14
521.34	39938.90
521.52	40547.44
521.69	41123.21
521.86	42174.11
522.03	41816.01
522.20	39941.24
522.38	38759.27
522.55	38026.68
522.72	39271.85
522.89	39185.25
523.07	39702.51
523.24	40076.99
523.41	41120.87
523.58	42122.62
523.75	42887.98
523.92	42464.34
524.10	42885.64
524.27	42155.39
524.44	41874.52
524.61	41839.42
524.78	41497.70
524.96	41600.68
525.13	41375.99
525.30	41696.64
525.47	42497.11
525.64	42087.51
525.81	40690.21
525.98	39122.05
526.16	36809.61
526.33	36311.07
526.50	35782.11
526.67	35910.84
526.84	36018.50
527.01	37132.60
527.18	38422.23
527.36	39683.78
527.53	40982.78
527.70	41551.53
527.87	40868.09
528.04	39957.63
528.21	40814.26
528.38	41961.12
528.55	42698.39
528.72	43168.84
528.89	43555.03
529.07	42937.13
529.24	41830.05
529.41	41123.21
529.58	40069.97
529.75	40011.46
529.92	41050.66
530.09	41333.86
530.26	42279.44
530.43	42300.50
530.60	42660.94
530.77	42803.72
530.94	43454.39
531.11	42478.38
531.28	42113.26
531.46	41202.79
531.63	42160.07
531.80	41694.30
531.97	41471.95
532.14	40076.99
532.31	38675.01
532.48	37958.81
532.65	37584.32
532.82	38888.00
532.99	40318.07
533.16	41158.32
533.33	41937.72
533.50	41612.38
533.67	40727.66
533.84	39707.19
534.01	39957.63
534.18	40737.02
534.35	40804.90
534.52	40603.61
534.69	41322.16
534.86	41373.65
535.03	41839.42
535.20	42553.28
535.37	43320.98
535.54	43405.23
535.71	43035.43
535.88	42003.25
536.05	41287.05
536.22	40470.20
536.38	40109.76
536.55	39599.52
536.72	39061.20
536.89	38958.22
537.06	39508.24
537.23	41244.92
537.40	41523.44
537.57	41722.39
537.74	41347.90
537.91	41474.29
538.08	41352.58
538.25	41261.30
538.42	41471.95
538.59	40999.16
538.75	40428.07
538.92	39468.45
539.09	39276.53
539.26	39351.43
539.43	39068.22
539.60	39119.71
539.77	39676.76
539.94	39667.40
540.11	38314.57
540.28	37745.82
540.44	38307.55
540.61	37677.94
540.78	38553.30
540.95	39241.42
541.12	39660.38
541.29	39903.79
541.46	40563.82
541.62	40334.45
541.79	40100.40
541.96	39763.36
542.13	39552.71
542.30	39681.44
542.47	40217.43
542.63	39564.42
542.80	39566.76
542.97	39700.17
543.14	39412.28
543.31	39625.27
543.48	40437.44
543.64	41361.95
543.81	41890.91
543.98	41251.94
544.15	40437.44
544.32	39636.97
544.48	39639.31
544.65	40135.51
544.82	40655.11
544.99	40627.02
545.16	40130.83
545.32	39510.58
545.49	40701.92
545.66	41275.35
545.83	41191.09
546.00	40540.42
546.16	40055.93
546.33	39686.12
546.50	40086.36
546.67	40126.14
546.83	39779.74
547.00	39407.60
547.17	38941.83
547.34	37844.12
547.50	37731.78
547.67	38330.95
547.84	38569.69
548.00	39295.25
548.17	39943.58
548.34	39763.36
548.51	40098.06
548.67	39700.17
548.84	40421.05
549.01	40062.95
549.18	39573.78
549.34	39629.95
549.51	39643.99
549.68	39552.71
549.84	39526.97
550.01	39321.00
550.18	38920.77
550.34	39180.57
550.51	39110.35
550.68	39374.83
550.84	38363.72
551.01	38642.24
551.18	38850.55
551.34	39164.18
551.51	39791.45
551.68	40030.18
551.84	40109.76
552.01	39770.38
552.18	39304.62
552.34	38354.36
552.51	38127.33
552.68	37825.40
552.84	38426.92
553.01	38204.56
553.18	38132.01
553.34	38733.53
553.51	39243.76
553.67	39447.39
553.84	39508.24
554.01	39381.85
554.17	39168.87
554.34	38911.41
554.51	39241.42
554.67	39819.53
554.84	39353.77
555.00	39009.71
555.17	38700.76
555.33	38836.51
555.50	38543.94
555.67	38663.31
555.83	38007.96
556.00	38071.15
556.16	37823.06
556.33	37123.24
556.50	37170.05
556.66	37378.36
556.83	37067.06
556.99	37401.76
557.16	37418.14
557.32	37794.97
557.49	37860.51
557.65	38092.22
557.82	38153.07
557.98	37570.28
558.15	36849.39
558.32	36095.74
558.48	35126.76
558.65	35613.59
558.81	35669.76
558.98	36151.91
559.14	36409.37
559.31	36385.97
559.47	36268.94
559.64	36266.60
559.80	35903.82
559.97	35742.32
560.13	36039.57
560.30	37708.37
560.46	37984.55
560.63	38455.00
560.79	38368.40
560.96	38120.31
561.12	36411.71
561.29	35763.39
561.45	35452.09
561.61	36350.86
561.78	36786.20
561.94	36446.82
562.11	36194.04
562.27	36002.12
562.44	36556.83
562.60	36416.40
562.77	37074.09
562.93	36809.61
563.10	37153.66
563.26	36175.32
563.42	36275.96
563.59	36175.32
563.75	36041.91
563.92	36231.49
564.08	35981.06
564.24	36744.07
564.41	36856.42
564.57	36617.68
564.74	35833.60
564.90	36212.77
565.07	35269.53
565.23	35412.31
565.39	34689.08
565.56	34438.64
565.72	34431.62
565.88	34923.13
566.05	34766.32
566.21	34969.94
566.38	35363.15
566.54	35180.59
566.70	36137.87
566.87	36137.87
567.03	35817.22
567.19	36591.94
567.36	36102.76
567.52	35278.89
567.68	35559.76
567.85	34635.25
568.01	34394.17
568.17	34132.03
568.34	33656.90
568.50	33509.45
568.66	34136.71
568.83	34342.68
568.99	34338.00
569.15	34911.43
569.32	34726.53
569.48	34426.94
569.64	34223.31
569.81	33612.43
569.97	33684.99
570.13	33750.52
570.30	33287.10
570.46	32407.06
570.62	31908.52
570.78	32039.59
570.95	32154.28
571.11	32999.21
571.27	33394.76
571.43	33773.93
571.60	34450.35
571.76	34024.37
571.92	34426.94
572.09	34892.71
572.25	34618.86
572.41	34675.04
572.57	34087.56
572.74	34443.32
572.90	33975.22
573.06	33954.15
573.22	33790.31
573.38	34094.58
573.55	33308.16
573.71	34115.65
573.87	33961.17
574.03	33780.95
574.20	33596.05
574.36	33408.81
574.52	33628.82
574.68	33057.73
574.84	32634.09
575.01	32547.49
575.17	32095.77
575.33	32573.24
575.49	32444.51
575.65	32444.51
575.82	32748.78
575.98	32285.35
576.14	32671.54
576.30	33111.56
576.46	33577.33
576.62	33081.13
576.79	32994.53
576.95	32472.59
577.11	32570.90
577.27	33013.26
577.43	32968.79
577.59	32189.39
577.75	31693.19
577.92	30892.73
578.08	31594.89
578.24	31079.97
578.40	31697.88
578.56	31667.45
578.72	31646.38
578.88	31985.76
579.04	32212.79
579.21	32620.05
579.37	32472.59
579.53	32552.17
579.69	32402.38
579.85	32631.75
580.01	32854.10
580.17	32158.96
580.33	31536.38
580.49	32004.49
580.65	32362.59
580.82	32254.92
580.98	32184.71
581.14	32020.87
581.30	32165.98
581.46	32346.20
581.62	32128.53
581.78	32416.42
581.94	32381.31
582.10	32716.01
582.26	32931.34
582.42	32638.77
582.58	32594.30
582.74	32385.99
582.90	32566.21
583.06	32470.25
583.22	32273.65
583.38	32112.15
583.54	32189.39
583.70	32048.96
583.86	32236.20
584.02	31833.63
584.18	32074.70
584.34	32051.30
584.50	32027.89
584.66	31566.81
584.82	31185.30
584.98	30785.07
585.14	30565.06
585.30	30190.57
585.46	30237.38
585.62	30012.69
585.78	30422.28
585.94	30139.08
586.10	30590.80
586.26	30838.90
