SpectraSuite Data File
++++++++++++++++++++++++++++++++++++
Date: Mon Oct 07 14:54:55 GMT-05:00 2013
User: price-jones
Dark Spectrum Present: No
Reference Spectrum Present: No
Number of Sampled Component Spectra: 1
Spectrometers: USB2+H05261
Integration Time (usec): 10000 (USB2+H05261)
Spectra Averaged: 1 (USB2+H05261)
Boxcar Smoothing: 0 (USB2+H05261)
Correct for Electrical Dark: No (USB2+H05261)
Strobe/Lamp Enabled: No (USB2+H05261)
Correct for Detector Non-linearity: No (USB2+H05261)
Correct for Stray Light: No (USB2+H05261)
Number of Pixels in Processed Spectrum: 2048
>>>>>Begin Processed Spectral Data<<<<<
365.73	0.00
365.92	0.00
366.12	0.00
366.32	0.00
366.52	0.00
366.72	0.00
366.91	0.00
367.11	0.00
367.31	0.00
367.51	0.00
367.70	0.00
367.90	0.00
368.10	0.00
368.30	0.00
368.49	0.00
368.69	0.00
368.89	0.00
369.09	0.00
369.28	0.00
369.48	0.00
369.68	0.00
369.87	0.00
370.07	0.00
370.27	0.00
370.47	0.00
370.66	0.00
370.86	72.56
371.06	67.88
371.25	88.94
371.45	4.68
371.65	49.15
371.84	4.68
372.04	18.72
372.24	88.94
372.44	86.60
372.63	119.37
372.83	95.96
373.03	67.88
373.22	39.79
373.42	84.26
373.62	44.47
373.81	131.07
374.01	177.88
374.21	138.09
374.40	60.85
374.60	79.58
374.79	114.69
374.99	138.09
375.19	180.22
375.38	241.08
375.58	170.86
375.78	131.07
375.97	154.48
376.17	173.20
376.37	250.44
376.56	198.95
376.76	241.08
376.95	255.12
377.15	313.63
377.35	332.36
377.54	271.50
377.74	304.27
377.93	264.48
378.13	353.42
378.33	269.16
378.52	189.58
378.72	231.71
378.91	175.54
379.11	245.76
379.31	224.69
379.50	184.90
379.70	262.14
379.89	290.23
380.09	285.55
380.28	337.04
380.48	332.36
380.68	287.89
380.87	297.25
381.07	231.71
381.26	346.40
381.46	131.07
381.65	133.41
381.85	170.86
382.04	175.54
382.24	196.60
382.43	30.43
382.63	79.58
382.83	88.94
383.02	58.51
383.22	25.75
383.41	107.66
383.61	135.75
383.80	149.79
384.00	222.35
384.19	262.14
384.39	425.98
384.58	294.91
384.78	264.48
384.97	224.69
385.17	212.99
385.36	224.69
385.56	269.16
385.75	285.55
385.95	306.61
386.14	325.33
386.34	278.52
386.53	290.23
386.72	245.76
386.92	273.84
387.11	304.27
387.31	360.44
387.50	292.57
387.70	322.99
387.89	201.29
388.09	191.92
388.28	299.59
388.48	388.53
388.67	330.02
388.86	397.89
389.06	463.43
389.25	477.47
389.45	440.02
389.64	449.38
389.84	458.74
390.03	486.83
390.22	568.75
390.42	482.15
390.61	575.77
390.81	486.83
391.00	702.16
391.19	594.50
391.39	613.22
391.58	489.17
391.78	482.15
391.97	365.12
392.16	355.76
392.36	327.68
392.55	210.65
392.75	163.84
392.94	72.56
393.13	0.00
393.33	161.50
393.52	220.01
393.71	320.65
393.91	299.59
394.10	456.40
394.29	463.43
394.49	596.84
394.68	615.56
394.88	683.44
395.07	645.99
395.26	678.76
395.46	709.18
395.65	643.65
395.84	482.15
396.04	348.74
396.23	257.46
396.42	142.77
396.62	191.92
396.81	182.56
397.00	379.17
397.19	559.39
397.39	650.67
397.58	793.44
397.77	767.70
397.97	887.06
398.16	844.93
398.35	849.61
398.55	854.30
398.74	1041.54
398.93	959.62
399.12	1022.81
399.32	931.53
399.51	961.96
399.70	1029.84
399.90	1046.22
400.09	1177.29
400.28	968.98
400.47	1139.84
400.67	1097.71
400.86	1076.65
401.05	1121.12
401.24	1128.14
401.44	1109.41
401.63	1018.13
401.82	1111.75
402.01	1078.99
402.21	1114.10
402.40	1097.71
402.59	1090.69
402.78	1074.31
402.97	950.26
403.17	997.07
403.36	1095.37
403.55	1214.74
403.74	1184.31
403.93	1142.18
404.13	1090.69
404.32	1050.90
404.51	1043.88
404.70	1259.21
404.89	1172.61
405.09	1179.63
405.28	1172.61
405.47	1198.35
405.66	1137.50
405.85	1076.65
406.05	1034.52
406.24	1081.33
406.43	1015.79
406.62	1123.46
406.81	1205.38
407.00	1249.85
407.20	1139.84
407.39	1146.86
407.58	1193.67
407.77	1282.61
407.96	1343.47
408.15	1313.04
408.34	1247.51
408.54	1226.44
408.73	1369.21
408.92	1296.66
409.11	1341.13
409.30	1254.53
409.49	1153.88
409.68	1053.24
409.87	922.17
410.07	1071.97
410.26	1221.76
410.45	1240.48
410.64	1320.06
410.83	1427.73
411.02	1401.98
411.21	1439.43
411.40	1416.02
411.59	1446.45
411.78	1437.09
411.98	1355.17
412.17	1467.52
412.36	1409.00
412.55	1441.77
412.74	1359.85
412.93	1341.13
413.12	1324.74
413.31	1371.55
413.50	1507.30
413.69	1544.75
413.88	1507.30
414.07	1406.66
414.26	1439.43
414.45	1394.96
414.64	1500.28
414.83	1453.47
415.02	1483.90
415.22	1488.58
415.41	1474.54
415.60	1511.99
415.79	1591.56
415.98	1614.97
416.17	1722.63
416.36	1570.50
416.55	1643.06
416.74	1563.48
416.93	1434.75
417.12	1458.15
417.31	1621.99
417.50	1528.37
417.69	1563.48
417.88	1556.46
418.07	1610.29
418.26	1446.45
418.45	1596.25
418.64	1549.43
418.83	1659.44
419.02	1591.56
419.21	1614.97
419.39	1488.58
419.58	1511.99
419.77	1523.69
419.96	1600.93
420.15	1619.65
420.34	1680.50
420.53	1778.81
420.72	1788.17
420.91	1811.57
421.10	1753.06
421.29	1694.55
421.48	1666.46
421.67	1701.57
421.86	1809.23
422.05	1640.72
422.24	1315.38
422.43	1289.64
422.61	1533.05
422.80	1668.80
422.99	1790.51
423.18	1558.80
423.37	1682.85
423.56	1600.93
423.75	1526.03
423.94	1640.72
424.13	1561.14
424.32	1476.88
424.50	1617.31
424.69	1647.74
424.88	1584.54
425.07	1621.99
425.26	1612.63
425.45	1565.82
425.64	1500.28
425.83	1540.07
426.01	1605.61
426.20	1696.89
426.39	1605.61
426.58	1446.45
426.77	1308.36
426.96	1313.04
427.15	1378.58
427.33	1551.78
427.52	1535.39
427.71	1631.35
427.90	1544.75
428.09	1530.71
428.28	1514.33
428.46	1357.51
428.65	1404.32
428.84	1317.72
429.03	1490.92
429.22	1397.30
429.40	1327.08
429.59	1231.12
429.78	1062.60
429.97	983.02
430.16	1074.31
430.34	1034.52
430.53	1093.03
430.72	976.00
430.91	1198.35
431.10	1453.47
431.28	1647.74
431.47	1830.30
431.66	1905.20
431.85	1720.29
432.03	1621.99
432.22	1486.24
432.41	1511.99
432.60	1694.55
432.79	1715.61
432.97	1916.90
433.16	1680.50
433.35	1617.31
433.54	1406.66
433.72	1486.24
433.91	1378.58
434.10	1554.12
434.28	1713.27
434.47	1788.17
434.66	1694.55
434.85	1636.03
435.03	1633.69
435.22	1736.68
435.41	1802.21
435.59	1895.83
435.78	2003.50
435.97	2090.10
436.16	2071.37
436.34	2062.01
436.53	1884.13
436.72	1849.02
436.90	1750.72
437.09	1820.94
437.28	1647.74
437.46	1813.92
437.65	1846.68
437.84	1626.67
438.02	1549.43
438.21	1441.77
438.40	1584.54
438.58	1750.72
438.77	1806.89
438.96	1816.26
439.14	1895.83
439.33	2005.84
439.52	1977.75
439.70	2040.95
439.89	1982.43
440.08	1834.98
440.26	1834.98
440.45	1893.49
440.63	2019.88
440.82	2284.36
441.01	2176.70
441.19	2188.40
441.38	2080.74
441.57	2200.10
441.75	2157.97
441.94	2331.17
442.12	2282.02
442.31	2146.27
442.50	2230.53
442.68	2305.43
442.87	2211.81
443.05	2181.38
443.24	2246.91
443.43	2237.55
443.61	2303.09
443.80	2373.30
443.98	2169.68
444.17	2221.17
444.35	2265.64
444.54	2335.85
444.73	2183.72
444.91	2258.62
445.10	2169.68
445.28	2104.14
445.47	2012.86
445.65	1977.75
445.84	2146.27
446.02	2265.64
446.21	2148.61
446.39	2157.97
446.58	2373.30
446.77	2335.85
446.95	2237.55
447.14	2312.45
447.32	2464.58
447.51	2284.36
447.69	2155.63
447.88	2186.06
448.06	2221.17
448.25	2183.72
448.43	2204.78
448.62	2232.87
448.80	2284.36
448.99	2216.49
449.17	2307.77
449.36	2312.45
449.54	2438.84
449.73	2354.58
449.91	2511.39
450.10	2607.36
450.28	2476.29
450.46	2495.01
450.65	2546.50
450.83	2579.27
451.02	2612.04
451.20	2394.37
451.39	2544.16
451.57	2399.05
451.76	2504.37
451.94	2436.50
452.13	2232.87
452.31	2148.61
452.49	2132.23
452.68	2169.68
452.86	2125.21
453.05	2232.87
453.23	2310.11
453.42	2399.05
453.60	2380.32
453.78	2385.01
453.97	2490.33
454.15	2363.94
454.34	2277.34
454.52	2279.68
454.70	2265.64
454.89	2345.22
455.07	2361.60
455.26	2413.09
455.44	2359.26
455.62	2511.39
455.81	2525.44
455.99	2471.61
456.17	2452.88
456.36	2466.92
456.54	2532.46
456.73	2576.93
456.91	2541.82
457.09	2649.49
457.28	2590.97
457.46	2466.92
457.64	2574.59
457.83	2441.18
458.01	2342.88
458.19	2513.74
458.38	2399.05
458.56	2534.80
458.74	2480.97
458.93	2354.58
459.11	2356.92
459.29	2403.73
459.48	2469.27
459.66	2469.27
459.84	2401.39
460.03	2462.24
460.21	2635.44
460.39	2483.31
460.57	2558.21
460.76	2708.00
460.94	2593.31
461.12	2518.42
461.31	2679.91
461.49	2649.49
461.67	2605.02
461.85	2679.91
462.04	2647.15
462.22	2665.87
462.40	2623.74
462.59	2551.18
462.77	2712.68
462.95	2665.87
463.13	2572.25
463.32	2480.97
463.50	2576.93
463.68	2565.23
463.86	2558.21
464.05	2574.59
464.23	2445.86
464.41	2516.08
464.59	2478.63
464.78	2600.34
464.96	2513.74
465.14	2506.71
465.32	2626.08
465.50	2637.78
465.69	2544.16
465.87	2593.31
466.05	2548.84
466.23	2487.99
466.41	2293.72
466.60	2462.24
466.78	2356.92
466.96	2490.33
467.14	2581.61
467.32	2597.99
467.51	2537.14
467.69	2420.11
467.87	2394.37
468.05	2574.59
468.23	2541.82
468.41	2544.16
468.60	2485.65
468.78	2640.12
468.96	2548.84
469.14	2546.50
469.32	2558.21
469.50	2406.07
469.69	2380.32
469.87	2450.54
470.05	2462.24
470.23	2530.12
470.41	2420.11
470.59	2450.54
470.77	2520.76
470.95	2499.69
471.14	2700.98
471.32	2523.10
471.50	2663.53
471.68	2726.72
471.86	2731.41
472.04	2820.35
472.22	2799.28
472.40	2520.76
472.58	2509.05
472.77	2600.34
472.95	2626.08
473.13	2665.87
473.31	2581.61
473.49	2686.94
473.67	2771.19
473.85	2612.04
474.03	2761.83
474.21	2785.24
474.39	2757.15
474.57	2869.50
474.75	2733.75
474.93	2836.73
475.12	2691.62
475.30	2738.43
475.48	2878.86
475.66	2719.70
475.84	2710.34
476.02	2729.06
476.20	2682.25
476.38	2663.53
476.56	2839.07
476.74	2785.24
476.92	2883.54
477.10	2942.05
477.28	3061.42
477.46	2972.48
477.64	3112.91
477.82	3063.76
478.00	3045.04
478.18	3101.21
478.36	3070.78
478.54	3077.80
478.72	3068.44
478.90	3059.08
479.08	3131.64
479.26	3199.51
479.44	3171.43
479.62	3089.51
479.80	3229.94
479.98	3213.56
480.16	3164.40
480.34	3141.00
480.52	3201.85
480.70	3201.85
480.88	3283.77
481.06	3414.84
481.24	3255.69
481.41	3365.69
481.59	3407.82
481.77	3454.63
481.95	3353.99
482.13	3414.84
482.31	3377.39
482.49	3541.23
482.67	3424.20
482.85	3475.70
483.03	3456.97
483.21	3597.40
483.39	3597.40
483.57	3494.42
483.74	3489.74
483.92	3468.67
484.10	3550.59
484.28	3506.12
484.46	3655.92
484.64	3592.72
484.82	3520.17
485.00	3403.14
485.18	3510.80
485.35	3279.09
485.53	3159.72
485.71	2822.69
485.89	2757.15
486.07	2796.94
486.25	3208.87
486.43	3459.31
486.61	3452.29
486.78	3363.35
486.96	3335.26
487.14	3595.06
487.32	3665.28
487.50	3728.47
487.68	3831.46
487.85	3789.33
488.03	3873.59
488.21	3936.78
488.39	3777.62
488.57	3791.67
488.75	3588.04
488.92	3747.20
489.10	3971.89
489.28	4224.67
489.46	4299.56
489.64	4325.31
489.81	4280.84
489.99	4266.80
490.17	4313.61
490.35	4264.46
490.53	4269.14
490.70	4217.65
490.88	4201.26
491.06	4353.40
491.24	4234.03
491.41	4077.21
491.59	4060.83
491.77	3726.13
491.95	3887.63
492.13	4177.86
492.30	4273.82
492.48	4325.31
492.66	4580.43
492.84	4617.88
493.01	4411.91
493.19	4528.94
493.37	4262.12
493.54	4395.53
493.72	4355.74
493.90	4524.26
494.08	4723.20
494.25	4629.58
494.43	4856.61
494.61	4765.33
494.79	4760.65
494.96	4844.91
495.14	4664.69
495.32	4505.53
495.49	4437.66
495.67	4519.57
495.85	4971.30
496.02	4882.36
496.20	4683.41
496.38	4711.50
496.55	4842.57
496.73	4959.60
496.91	4880.02
497.09	4954.91
497.26	5015.77
497.44	4849.59
497.62	4858.95
497.79	4629.58
497.97	4388.50
498.14	4236.37
498.32	4674.05
498.50	4807.46
498.67	4877.68
498.85	4985.34
499.03	4894.06
499.20	4945.55
499.38	4959.60
499.56	5062.58
499.73	4821.50
499.91	4660.01
500.08	4772.35
500.26	4652.98
500.44	4713.84
500.61	4877.68
500.79	4816.82
500.97	4542.98
501.14	4545.32
501.32	4697.46
501.49	4648.30
501.67	4683.41
501.84	4498.51
502.02	4823.84
502.20	4905.76
502.37	4788.74
502.55	4842.57
502.72	4985.34
502.90	4901.08
503.07	5057.90
503.25	4994.70
503.43	4975.98
503.60	4753.63
503.78	4645.96
503.95	4683.41
504.13	4711.50
504.30	5177.26
504.48	4844.91
504.65	4896.40
504.83	4968.96
505.01	4952.57
505.18	5163.22
505.36	5301.31
505.53	5315.36
505.71	5331.74
505.88	5165.56
506.06	5228.76
506.23	5163.22
506.41	4947.89
506.58	5081.30
506.76	5062.58
506.93	5181.95
507.11	5083.64
507.28	5104.71
507.46	5116.41
507.63	4765.33
507.81	4688.09
507.98	4833.21
508.16	5008.75
508.33	5022.79
508.50	5188.97
508.68	5231.10
508.85	5418.34
509.03	5221.74
509.20	5270.89
509.38	5200.67
509.55	4891.72
509.73	4954.91
509.90	4966.62
510.08	5078.96
510.25	5128.11
510.42	5029.81
510.60	5151.52
510.77	5188.97
510.95	5214.71
511.12	5170.24
511.30	5355.15
511.47	5401.96
511.64	5259.18
511.82	5242.80
511.99	5111.73
512.17	5135.14
512.34	4896.40
512.51	4917.47
512.69	4975.98
512.86	5001.72
513.04	5198.33
513.21	5107.05
513.38	5050.88
513.56	4973.64
513.73	4798.10
513.90	4823.84
514.08	4966.62
514.25	4933.85
514.43	4912.78
514.60	5139.82
514.77	5029.81
514.95	5111.73
515.12	5069.60
515.29	5093.01
515.47	5139.82
515.64	5200.67
515.81	5018.11
515.99	5029.81
516.16	4826.18
516.33	4308.93
516.51	4166.15
516.68	4058.49
516.85	4049.13
517.03	4046.79
517.20	4341.69
517.37	4795.76
517.54	5022.79
517.72	4933.85
517.89	4571.07
518.06	4168.49
518.24	4140.41
518.41	4465.74
518.58	4753.63
518.75	4674.05
518.93	4711.50
519.10	4760.65
519.27	4784.06
519.45	4807.46
519.62	5022.79
519.79	5029.81
519.96	5181.95
520.14	4947.89
520.31	4798.10
520.48	4779.37
520.65	4917.47
520.83	5093.01
521.00	5203.01
521.17	4854.27
521.34	4947.89
521.52	5004.07
521.69	5177.26
521.86	5224.08
522.03	5165.56
522.20	5020.45
522.38	4922.15
522.55	4732.56
522.72	4912.78
522.89	4910.44
523.07	4875.34
523.24	4896.40
523.41	5149.18
523.58	5132.79
523.75	5327.06
523.92	5376.21
524.10	5249.82
524.27	5310.68
524.44	5303.65
524.61	5142.16
524.78	5205.35
524.96	5081.30
525.13	4980.66
525.30	5235.78
525.47	5270.89
525.64	5174.92
525.81	5128.11
525.98	4870.65
526.16	4421.27
526.33	4484.47
526.50	4292.54
526.67	4341.69
526.84	4418.93
527.01	4613.20
527.18	4755.97
527.36	4840.23
527.53	5043.85
527.70	5345.78
527.87	4830.87
528.04	5062.58
528.21	4978.32
528.38	5334.08
528.55	5387.91
528.72	5317.70
528.89	5460.47
529.07	5345.78
529.24	5172.58
529.41	5172.58
529.58	5050.88
529.75	4940.87
529.92	4917.47
530.09	5069.60
530.26	5242.80
530.43	5376.21
530.60	5249.82
530.77	5343.44
530.94	5383.23
531.11	5252.16
531.28	5109.39
531.46	5006.41
531.63	5093.01
531.80	5018.11
531.97	4968.96
532.14	4980.66
532.31	4723.20
532.48	4615.54
532.65	4526.60
532.82	4748.95
532.99	4947.89
533.16	4945.55
533.33	5128.11
533.50	5041.51
533.67	5020.45
533.84	4896.40
534.01	5041.51
534.18	4983.00
534.35	4973.64
534.52	5041.51
534.69	5053.22
534.86	5139.82
535.03	5238.12
535.20	5210.03
535.37	5331.74
535.54	5198.33
535.71	5280.25
535.88	5121.09
536.05	5062.58
536.22	4908.10
536.38	4980.66
536.55	4861.29
536.72	4725.54
536.89	4793.42
537.06	4966.62
537.23	5027.47
537.40	5179.61
537.57	5006.41
537.74	4983.00
537.91	5022.79
538.08	5104.71
538.25	5116.41
538.42	5118.75
538.59	4997.04
538.75	4727.88
538.92	4809.80
539.09	4903.42
539.26	4868.31
539.43	4709.16
539.60	4842.57
539.77	4788.74
539.94	4669.37
540.11	4613.20
540.28	4524.26
540.44	4685.75
540.61	4610.86
540.78	4683.41
540.95	4657.67
541.12	4863.63
541.29	4730.22
541.46	4828.53
541.62	4947.89
541.79	4910.44
541.96	4751.29
542.13	4774.69
542.30	4650.64
542.47	4788.74
542.63	4798.10
542.80	4865.97
542.97	4758.31
543.14	4610.86
543.31	4762.99
543.48	4940.87
543.64	5088.32
543.81	4844.91
543.98	5088.32
544.15	4938.53
544.32	4784.06
544.48	4772.35
544.65	4961.94
544.82	4947.89
544.99	4861.29
545.16	4809.80
545.32	4880.02
545.49	4795.76
545.66	4938.53
545.83	4901.08
546.00	4765.33
546.16	4858.95
546.33	4800.44
546.50	4772.35
546.67	4767.67
546.83	4765.33
547.00	4938.53
547.17	4622.56
547.34	4458.72
547.50	4624.90
547.67	4580.43
547.84	4624.90
548.00	4767.67
548.17	4788.74
548.34	4795.76
548.51	4800.44
548.67	4667.03
548.84	4744.27
549.01	4809.80
549.18	4758.31
549.34	4585.11
549.51	4622.56
549.68	4751.29
549.84	4648.30
550.01	4582.77
550.18	4580.43
550.34	4699.80
550.51	4667.03
550.68	4629.58
550.84	4599.15
551.01	4624.90
551.18	4608.51
551.34	4650.64
551.51	4589.79
551.68	4870.65
551.84	4648.30
552.01	4725.54
552.18	4610.86
552.34	4355.74
552.51	4325.31
552.68	4435.32
552.84	4655.33
553.01	4554.68
553.18	4575.75
553.34	4643.62
553.51	4648.30
553.67	4688.09
553.84	4802.78
554.01	4664.69
554.17	4660.01
554.34	4603.83
554.51	4847.25
554.67	4718.52
554.84	4655.33
555.00	4681.07
555.17	4648.30
555.33	4592.13
555.50	4561.70
555.67	4557.02
555.83	4554.68
556.00	4397.87
556.16	4503.19
556.33	4407.23
556.50	4409.57
556.66	4383.82
556.83	4308.93
556.99	4390.84
557.16	4341.69
557.32	4557.02
557.49	4528.94
557.65	4479.79
557.82	4538.30
557.98	4472.76
558.15	4318.29
558.32	4252.75
558.48	4117.00
558.65	4159.13
558.81	4245.73
558.98	4308.93
559.14	4304.25
559.31	4388.50
559.47	4208.28
559.64	4229.35
559.80	4184.88
559.97	4227.01
560.13	4196.58
560.30	4512.55
560.46	4447.02
560.63	4496.17
560.79	4503.19
560.96	4409.57
561.12	4276.16
561.29	4042.11
561.45	4196.58
561.61	4212.96
561.78	4308.93
561.94	4360.42
562.11	4145.09
562.27	4175.52
562.44	4290.20
562.60	4217.65
562.77	4362.76
562.93	4222.33
563.10	4266.80
563.26	4217.65
563.42	4231.69
563.59	4168.49
563.75	4215.30
563.92	4322.97
564.08	4297.22
564.24	4210.62
564.41	4278.50
564.57	4304.25
564.74	4269.14
564.90	4184.88
565.07	4231.69
565.23	4133.39
565.39	4086.58
565.56	3866.56
565.72	3845.50
565.88	3955.51
566.05	4070.19
566.21	4025.72
566.38	4063.17
566.54	4070.19
566.70	4166.15
566.87	4196.58
567.03	4161.47
567.19	4271.48
567.36	4292.54
567.52	4177.86
567.68	4117.00
567.85	4025.72
568.01	3939.12
568.17	3981.25
568.34	3953.16
568.50	3904.01
568.66	3857.20
568.83	4081.89
568.99	4004.66
569.15	3953.16
569.32	3999.98
569.48	4023.38
569.64	3882.95
569.81	3911.04
569.97	3859.54
570.13	3850.18
570.30	3817.41
570.46	3754.22
570.62	3660.60
570.78	3754.22
570.95	3646.55
571.11	3658.26
571.27	3817.41
571.43	3812.73
571.60	3880.61
571.76	3880.61
571.92	3990.61
572.09	4009.34
572.25	3918.06
572.41	3920.40
572.57	3803.37
572.74	3936.78
572.90	3861.88
573.06	3899.33
573.22	3868.91
573.38	3901.67
573.55	3896.99
573.71	3824.44
573.87	3864.22
574.03	3730.81
574.20	3873.59
574.36	3901.67
574.52	3838.48
574.68	3712.09
574.84	3758.90
575.01	3758.90
575.17	3658.26
575.33	3777.62
575.49	3796.35
575.65	3824.44
575.82	3733.15
575.98	3768.26
576.14	3829.12
576.30	3637.19
576.46	3843.16
576.62	3768.26
576.79	3665.28
576.95	3564.64
577.11	3620.81
577.27	3627.83
577.43	3712.09
577.59	3681.66
577.75	3618.47
577.92	3534.21
578.08	3499.10
578.24	3510.80
578.40	3723.79
578.56	3426.54
578.72	3655.92
578.88	3630.17
579.04	3723.79
579.21	3599.74
579.37	3501.44
579.53	3609.11
579.69	3726.13
579.85	3794.01
580.01	3637.19
580.17	3578.68
580.33	3599.74
580.49	3536.55
580.65	3761.24
580.82	3613.79
580.98	3723.79
581.14	3684.00
581.30	3588.04
581.46	3707.41
581.62	3648.90
581.78	3700.39
581.94	3653.58
582.10	3620.81
582.26	3461.65
582.42	3618.47
582.58	3620.81
582.74	3686.34
582.90	3808.05
583.06	3627.83
583.22	3700.39
583.38	3653.58
583.54	3592.72
583.70	3592.72
583.86	3585.70
584.02	3606.77
584.18	3662.94
584.34	3611.45
584.50	3669.96
584.66	3653.58
584.82	3599.74
584.98	3524.85
585.14	3485.06
585.30	3597.40
585.46	3297.81
585.62	3316.54
585.78	3379.73
585.94	3370.37
586.10	3396.12
586.26	3375.05
586.42	3412.50
586.58	3412.50
586.74	3585.70
586.90	3442.93
587.06	3466.33
587.22	3506.12
587.38	3468.67
587.54	3440.59
587.70	3459.31
587.86	3318.88
588.02	3251.00
588.18	3379.73
588.34	3302.50
588.49	3021.63
588.65	2883.54
588.81	2750.13
588.97	2775.88
589.13	2839.07
589.29	2761.83
589.45	2857.79
589.61	2920.99
589.77	3176.11
589.93	3087.17
590.08	3260.37
590.24	3283.77
590.40	3215.90
590.56	3213.56
590.72	3241.64
590.88	3070.78
591.04	3126.96
591.20	3133.98
591.35	3192.49
591.51	3110.57
591.67	3187.81
591.83	3141.00
591.99	3141.00
592.15	3185.47
592.31	3297.81
592.46	3293.13
592.62	3276.75
592.78	3176.11
592.94	3220.58
593.10	3201.85
593.26	3267.39
593.41	3309.52
593.57	3213.56
593.73	3117.59
593.89	3117.59
594.05	3157.38
594.20	3157.38
594.36	3075.46
594.52	2986.52
594.68	2977.16
594.84	3007.59
594.99	3000.57
595.15	3052.06
595.31	3229.94
595.47	3089.51
595.62	3180.79
595.78	3049.72
595.94	3084.83
596.10	3204.19
596.25	3150.36
596.41	3066.10
596.57	2991.20
596.73	3108.23
596.88	3089.51
597.04	3038.02
597.20	3033.33
597.36	3035.67
597.51	3026.31
597.67	3009.93
597.83	3042.70
597.99	2988.86
598.14	3047.38
598.30	2998.23
598.46	3040.36
