SpectraSuite Data File
++++++++++++++++++++++++++++++++++++
Date: Mon Oct 07 14:54:55 GMT-05:00 2013
User: price-jones
Dark Spectrum Present: No
Reference Spectrum Present: No
Number of Sampled Component Spectra: 1
Spectrometers: USB2+H05261
Integration Time (usec): 10000 (USB2+H05261)
Spectra Averaged: 1 (USB2+H05261)
Boxcar Smoothing: 0 (USB2+H05261)
Correct for Electrical Dark: No (USB2+H05261)
Strobe/Lamp Enabled: No (USB2+H05261)
Correct for Detector Non-linearity: No (USB2+H05261)
Correct for Stray Light: No (USB2+H05261)
Number of Pixels in Processed Spectrum: 2048
>>>>>Begin Processed Spectral Data<<<<<
365.73	0.00
365.92	0.00
366.12	0.00
366.32	0.00
366.52	0.00
366.72	0.00
366.91	0.00
367.11	0.00
367.31	0.00
367.51	0.00
367.70	0.00
367.90	0.00
368.10	0.00
368.30	0.00
368.49	0.00
368.69	0.00
368.89	0.00
369.09	0.00
369.28	0.00
369.48	0.00
369.68	0.00
369.87	0.00
370.07	0.00
370.27	0.00
370.47	0.00
370.66	0.00
370.86	0.00
371.06	11.70
371.25	0.00
371.45	0.00
371.65	0.00
371.84	30.43
372.04	23.41
372.24	0.00
372.44	11.70
372.63	37.45
372.83	65.54
373.03	0.00
373.22	4.68
373.42	0.00
373.62	30.43
373.81	79.58
374.01	37.45
374.21	0.00
374.40	0.00
374.60	37.45
374.79	0.00
374.99	42.13
375.19	79.58
375.38	81.92
375.58	135.75
375.78	128.73
375.97	74.90
376.17	114.69
376.37	84.26
376.56	102.98
376.76	131.07
376.95	121.71
377.15	248.10
377.35	154.48
377.54	215.33
377.74	250.44
377.93	306.61
378.13	177.88
378.33	205.97
378.52	102.98
378.72	147.45
378.91	189.58
379.11	191.92
379.31	135.75
379.50	93.62
379.70	60.85
379.89	135.75
380.09	79.58
380.28	147.45
380.48	224.69
380.68	203.63
380.87	159.16
381.07	161.50
381.26	131.07
381.46	145.11
381.65	128.73
381.85	93.62
382.04	100.64
382.24	60.85
382.43	0.00
382.63	0.00
382.83	107.66
383.02	25.75
383.22	42.13
383.41	28.09
383.61	49.15
383.80	81.92
384.00	121.71
384.19	140.43
384.39	191.92
384.58	177.88
384.78	250.44
384.97	236.39
385.17	210.65
385.36	173.20
385.56	72.56
385.75	81.92
385.95	182.56
386.14	140.43
386.34	203.63
386.53	208.31
386.72	128.73
386.92	147.45
387.11	231.71
387.31	201.29
387.50	205.97
387.70	152.13
387.89	248.10
388.09	88.94
388.28	166.18
388.48	196.60
388.67	203.63
388.86	252.78
389.06	294.91
389.25	285.55
389.45	287.89
389.64	220.01
389.84	355.76
390.03	383.85
390.22	294.91
390.42	327.68
390.61	390.87
390.81	433.00
391.00	496.19
391.19	463.43
391.39	498.53
391.58	322.99
391.78	306.61
391.97	292.57
392.16	152.13
392.36	234.05
392.55	154.48
392.75	72.56
392.94	91.28
393.13	0.00
393.33	86.60
393.52	117.03
393.71	257.46
393.91	227.03
394.10	390.87
394.29	365.12
394.49	388.53
394.68	376.83
394.88	454.06
395.07	451.72
395.26	498.53
395.46	456.40
395.65	367.46
395.84	360.44
396.04	313.63
396.23	149.79
396.42	93.62
396.62	88.94
396.81	140.43
397.00	266.82
397.19	341.72
397.39	451.72
397.58	631.94
397.77	550.03
397.97	657.69
398.16	669.39
398.35	620.24
398.55	702.16
398.74	725.57
398.93	725.57
399.12	629.60
399.32	580.45
399.51	734.93
399.70	809.83
399.90	840.25
400.09	912.81
400.28	697.48
400.47	753.65
400.67	767.70
400.86	807.48
401.05	812.17
401.24	875.36
401.44	910.47
401.63	793.44
401.82	884.72
402.01	905.79
402.21	854.30
402.40	830.89
402.59	866.00
402.78	751.31
402.97	791.10
403.17	833.23
403.36	805.14
403.55	983.02
403.74	987.71
403.93	926.85
404.13	875.36
404.32	814.51
404.51	795.78
404.70	933.87
404.89	912.81
405.09	870.68
405.28	861.32
405.47	812.17
405.66	830.89
405.85	821.53
406.05	770.04
406.24	840.25
406.43	875.36
406.62	840.25
406.81	861.32
407.00	875.36
407.20	847.27
407.39	823.87
407.58	866.00
407.77	947.92
407.96	884.72
408.15	936.21
408.34	912.81
408.54	978.34
408.73	1034.52
408.92	1013.45
409.11	964.30
409.30	936.21
409.49	868.34
409.68	875.36
409.87	695.14
410.07	835.57
410.26	910.47
410.45	968.98
410.64	898.77
410.83	1081.33
411.02	1067.28
411.21	1151.54
411.40	1160.91
411.59	1125.80
411.78	1149.20
411.98	1086.01
412.17	1078.99
412.36	1034.52
412.55	1104.73
412.74	1027.50
412.93	1015.79
413.12	1076.65
413.31	1132.82
413.50	1170.27
413.69	1128.14
413.88	1139.84
414.07	1050.90
414.26	1132.82
414.45	1156.22
414.64	1107.07
414.83	1139.84
415.02	1144.52
415.22	1181.97
415.41	1170.27
415.60	1254.53
415.79	1252.19
415.98	1296.66
416.17	1296.66
416.36	1226.44
416.55	1226.44
416.74	1172.61
416.93	1128.14
417.12	1062.60
417.31	1219.42
417.50	1165.59
417.69	1308.36
417.88	1224.10
418.07	1214.74
418.26	1247.51
418.45	1172.61
418.64	1334.11
418.83	1453.47
419.02	1348.15
419.21	1284.95
419.39	1247.51
419.58	1167.93
419.77	1210.06
419.96	1174.95
420.15	1357.51
420.34	1294.32
420.53	1380.92
420.72	1465.18
420.91	1306.02
421.10	1437.09
421.29	1289.64
421.48	1348.15
421.67	1352.83
421.86	1401.98
422.05	1203.04
422.24	1125.80
422.43	1060.26
422.61	1142.18
422.80	1291.98
422.99	1338.79
423.18	1167.93
423.37	1221.76
423.56	1338.79
423.75	1146.86
423.94	1315.38
424.13	1242.82
424.32	1156.22
424.50	1172.61
424.69	1135.16
424.88	1268.57
425.07	1207.72
425.26	1240.48
425.45	1196.01
425.64	1132.82
425.83	1137.50
426.01	1240.48
426.20	1196.01
426.39	1366.87
426.58	1177.29
426.77	1048.56
426.96	1029.84
427.15	1001.75
427.33	1177.29
427.52	1137.50
427.71	1181.97
427.90	1200.69
428.09	1270.91
428.28	1121.12
428.46	1210.06
428.65	1062.60
428.84	1076.65
429.03	1205.38
429.22	997.07
429.40	1008.77
429.59	866.00
429.78	695.14
429.97	699.82
430.16	802.80
430.34	774.72
430.53	751.31
430.72	798.12
430.91	938.55
431.10	1139.84
431.28	1308.36
431.47	1401.98
431.66	1493.26
431.85	1242.82
432.03	1181.97
432.22	1196.01
432.41	1167.93
432.60	1383.26
432.79	1392.62
432.97	1495.60
433.16	1444.11
433.35	1238.14
433.54	1111.75
433.72	990.05
433.91	1036.86
434.10	1158.57
434.28	1296.66
434.47	1458.15
434.66	1315.38
434.85	1322.40
435.03	1406.66
435.22	1472.20
435.41	1540.07
435.59	1500.28
435.78	1427.73
435.97	1514.33
436.16	1633.69
436.34	1568.16
436.53	1528.37
436.72	1427.73
436.90	1387.94
437.09	1385.60
437.28	1439.43
437.46	1406.66
437.65	1423.05
437.84	1259.21
438.02	1174.95
438.21	1086.01
438.40	1322.40
438.58	1329.42
438.77	1331.76
438.96	1451.13
439.14	1481.56
439.33	1645.40
439.52	1717.95
439.70	1528.37
439.89	1514.33
440.08	1451.13
440.26	1411.34
440.45	1451.13
440.63	1596.25
440.82	1682.85
441.01	1598.59
441.19	1664.12
441.38	1607.95
441.57	1668.80
441.75	1832.64
441.94	1720.29
442.12	1734.34
442.31	1902.86
442.50	1877.11
442.68	1778.81
442.87	1640.72
443.05	1708.59
443.24	1664.12
443.43	1748.38
443.61	1720.29
443.80	1865.41
443.98	1877.11
444.17	1762.42
444.35	1842.00
444.54	1834.98
444.73	1834.98
444.91	1671.14
445.10	1755.40
445.28	1596.25
445.47	1577.52
445.65	1614.97
445.84	1675.82
446.02	1736.68
446.21	1783.49
446.39	1703.91
446.58	1729.66
446.77	1872.43
446.95	1802.21
447.14	1792.85
447.32	1893.49
447.51	1741.36
447.69	1720.29
447.88	1724.97
448.06	1755.40
448.25	1867.75
448.43	1764.76
448.62	1720.29
448.80	1792.85
448.99	1708.59
449.17	1774.13
449.36	1834.98
449.54	1980.09
449.73	2033.93
449.91	1853.70
450.10	1942.64
450.28	1961.37
450.46	2022.22
450.65	1980.09
450.83	1937.96
451.02	1963.71
451.20	1942.64
451.39	1905.20
451.57	1905.20
451.76	1863.07
451.94	1802.21
452.13	1837.32
452.31	1734.34
452.49	1654.76
452.68	1692.21
452.86	1736.68
453.05	1746.04
453.23	1724.97
453.42	1865.41
453.60	1872.43
453.78	1900.52
453.97	1863.07
454.15	1776.47
454.34	1799.87
454.52	1856.04
454.70	1760.08
454.89	1682.85
455.07	1675.82
455.26	1891.15
455.44	1982.43
455.62	1914.56
455.81	1980.09
455.99	2012.86
456.17	1963.71
456.36	1942.64
456.54	2040.95
456.73	2087.76
456.91	2022.22
457.09	1973.07
457.28	2176.70
457.46	1959.03
457.64	1930.94
457.83	1926.26
458.01	1921.58
458.19	1970.73
458.38	1963.71
458.56	1980.09
458.74	2040.95
458.93	1839.66
459.11	1933.28
459.29	1834.98
459.48	1884.13
459.66	1970.73
459.84	1860.73
460.03	1989.46
460.21	1944.99
460.39	2099.46
460.57	2054.99
460.76	2054.99
460.94	2001.16
461.12	2064.35
461.31	2073.71
461.49	2012.86
461.67	1933.28
461.85	2036.27
462.04	2008.18
462.22	2148.61
462.40	2015.20
462.59	2176.70
462.77	2087.76
462.95	2069.03
463.13	1961.37
463.32	2019.88
463.50	2064.35
463.68	2080.74
463.86	2071.37
464.05	1989.46
464.23	1928.60
464.41	1919.24
464.59	1767.10
464.78	1961.37
464.96	1977.75
465.14	1853.70
465.32	1956.69
465.50	2036.27
465.69	2141.59
465.87	2108.82
466.05	2052.65
466.23	1930.94
466.41	1774.13
466.60	1884.13
466.78	1781.15
466.96	1956.69
467.14	1973.07
467.32	1966.05
467.51	2029.24
467.69	1839.66
467.87	1954.35
468.05	1982.43
468.23	2005.84
468.41	2017.54
468.60	1937.96
468.78	1954.35
468.96	1923.92
469.14	1996.48
469.32	2076.06
469.50	1956.69
469.69	1933.28
469.87	1818.60
470.05	1973.07
470.23	1961.37
470.41	1820.94
470.59	1928.60
470.77	1834.98
470.95	1926.26
471.14	2029.24
471.32	2054.99
471.50	2221.17
471.68	2230.53
471.86	2143.93
472.04	2186.06
472.22	2139.25
472.40	2090.10
472.58	2040.95
472.77	2015.20
472.95	1952.01
473.13	2214.15
473.31	1886.47
473.49	2001.16
473.67	2251.60
473.85	2073.71
474.03	2237.55
474.21	2275.00
474.39	2153.29
474.57	2176.70
474.75	2249.25
474.93	2193.08
475.12	2153.29
475.30	2141.59
475.48	2188.40
475.66	2174.36
475.84	2176.70
476.02	2265.64
476.20	2118.18
476.38	2200.10
476.56	2251.60
476.74	2347.56
476.92	2193.08
477.10	2230.53
477.28	2420.11
477.46	2466.92
477.64	2513.74
477.82	2356.92
478.00	2333.51
478.18	2516.08
478.36	2368.62
478.54	2363.94
478.72	2300.75
478.90	2471.61
479.08	2464.58
479.26	2541.82
479.44	2413.09
479.62	2637.78
479.80	2448.20
479.98	2562.89
480.16	2637.78
480.34	2363.94
480.52	2532.46
480.70	2668.21
480.88	2579.27
481.06	2731.41
481.24	2644.81
481.41	2644.81
481.59	2602.68
481.77	2822.69
481.95	2612.04
482.13	2726.72
482.31	2710.34
482.49	2754.81
482.67	2745.45
482.85	2616.72
483.03	2726.72
483.21	2698.64
483.39	2761.83
483.57	2719.70
483.74	2689.28
483.92	2693.96
484.10	2841.41
484.28	2911.63
484.46	2942.05
484.64	2883.54
484.82	2803.96
485.00	2675.23
485.18	2820.35
485.35	2717.36
485.53	2422.45
485.71	2099.46
485.89	2174.36
486.07	2216.49
486.25	2527.78
486.43	2703.32
486.61	2665.87
486.78	2616.72
486.96	2672.89
487.14	2815.66
487.32	3021.63
487.50	2876.52
487.68	3021.63
487.85	3009.93
488.03	3038.02
488.21	3023.97
488.39	3091.85
488.57	2974.82
488.75	2771.19
488.92	2974.82
489.10	3222.92
489.28	3243.98
489.46	3386.76
489.64	3543.57
489.81	3459.31
489.99	3393.78
490.17	3353.99
490.35	3391.44
490.53	3318.88
490.70	3353.99
490.88	3211.22
491.06	3379.73
491.24	3485.06
491.41	3346.97
491.59	3103.55
491.77	3035.67
491.95	3143.34
492.13	3274.41
492.30	3468.67
492.48	3597.40
492.66	3534.21
492.84	3574.00
493.01	3510.80
493.19	3485.06
493.37	3407.82
493.54	3316.54
493.72	3585.70
493.90	3702.73
494.08	3714.43
494.25	3599.74
494.43	3763.58
494.61	3906.35
494.79	3904.01
494.96	3777.62
495.14	3674.64
495.32	3538.89
495.49	3543.57
495.67	3583.36
495.85	3747.20
496.02	3950.82
496.20	3974.23
496.38	3707.41
496.55	3756.56
496.73	3885.29
496.91	3878.27
497.09	3899.33
497.26	3962.53
497.44	3840.82
497.62	3850.18
497.79	3808.05
497.97	3667.62
498.14	3590.38
498.32	3674.64
498.50	3761.24
498.67	3992.95
498.85	4011.68
499.03	3882.95
499.20	3955.51
499.38	3978.91
499.56	3988.27
499.73	3747.20
499.91	3794.01
500.08	3686.34
500.26	3604.42
500.44	3566.98
500.61	3733.15
500.79	3803.37
500.97	3721.45
501.14	3721.45
501.32	3660.60
501.49	3574.00
501.67	3548.25
501.84	3620.81
502.02	3779.97
502.20	3836.14
502.37	3812.73
502.55	3789.33
502.72	3953.16
502.90	4035.08
503.07	3971.89
503.25	3953.16
503.43	3861.88
503.60	3786.99
503.78	3627.83
503.95	3719.11
504.13	3798.69
504.30	3983.59
504.48	3927.42
504.65	3871.25
504.83	3932.10
505.01	4037.42
505.18	3915.72
505.36	4112.32
505.53	3992.95
505.71	4250.41
505.88	4224.67
506.06	4091.26
506.23	3985.93
506.41	4042.11
506.58	4091.26
506.76	4002.32
506.93	3920.40
507.11	3908.69
507.28	4109.98
507.46	3969.55
507.63	3791.67
507.81	3913.38
507.98	3889.97
508.16	4088.92
508.33	4032.74
508.50	4035.08
508.68	4290.20
508.85	4365.10
509.03	4376.80
509.20	4203.60
509.38	3960.19
509.55	3836.14
509.73	3845.50
509.90	4035.08
510.08	3974.23
510.25	4074.87
510.42	3906.35
510.60	3913.38
510.77	3978.91
510.95	4142.75
511.12	4107.64
511.30	4182.54
511.47	4131.05
511.64	4119.34
511.82	4236.37
511.99	4030.40
512.17	4021.04
512.34	3999.98
512.51	4007.00
512.69	4046.79
512.86	4077.21
513.04	4009.34
513.21	4044.45
513.38	3997.64
513.56	3868.91
513.73	3782.31
513.90	3932.10
514.08	3695.71
514.25	3822.09
514.43	3873.59
514.60	3932.10
514.77	3932.10
514.95	4032.74
515.12	4011.68
515.29	3962.53
515.47	4009.34
515.64	4074.87
515.81	4056.15
515.99	3894.65
516.16	3796.35
516.33	3501.44
516.51	3227.60
516.68	3248.66
516.85	3169.09
517.03	3248.66
517.20	3480.38
517.37	3763.58
517.54	4086.58
517.72	3941.46
517.89	3393.78
518.06	3344.63
518.24	3400.80
518.41	3499.10
518.58	3826.78
518.75	3831.46
518.93	3758.90
519.10	3861.88
519.27	3871.25
519.45	3817.41
519.62	4067.85
519.79	4079.55
519.96	3974.23
520.14	3983.59
520.31	3735.50
520.48	3796.35
520.65	3854.86
520.83	4025.72
521.00	4105.30
521.17	4102.96
521.34	4046.79
521.52	3974.23
521.69	4011.68
521.86	4152.11
522.03	4133.39
522.20	3953.16
522.38	3728.47
522.55	3775.28
522.72	3833.80
522.89	3915.72
523.07	3885.29
523.24	4114.66
523.41	4077.21
523.58	4070.19
523.75	4222.33
523.92	4067.85
524.10	4372.12
524.27	4140.41
524.44	4154.45
524.61	4088.92
524.78	4042.11
524.96	4004.66
525.13	4154.45
525.30	4051.47
525.47	4187.22
525.64	3988.27
525.81	4025.72
525.98	3784.65
526.16	3698.05
526.33	3592.72
526.50	3482.72
526.67	3492.08
526.84	3599.74
527.01	3693.37
527.18	3691.02
527.36	3740.18
527.53	4023.38
527.70	4102.96
527.87	4009.34
528.04	3817.41
528.21	3983.59
528.38	3999.98
528.55	4187.22
528.72	4177.86
528.89	4210.62
529.07	4159.13
529.24	4093.60
529.41	3997.64
529.58	3939.12
529.75	3955.51
529.92	3981.25
530.09	4128.70
530.26	4070.19
530.43	4369.78
530.60	4182.54
530.77	4231.69
530.94	4159.13
531.11	4131.05
531.28	3990.61
531.46	4095.94
531.63	4060.83
531.80	4077.21
531.97	4030.40
532.14	3801.03
532.31	3740.18
532.48	3578.68
532.65	3559.95
532.82	3716.77
532.99	3847.84
533.16	3812.73
533.33	4042.11
533.50	3990.61
533.67	4011.68
533.84	3880.61
534.01	3929.76
534.18	4011.68
534.35	3990.61
534.52	3927.42
534.69	3929.76
534.86	4002.32
535.03	4056.15
535.20	4227.01
535.37	4088.92
535.54	4238.71
535.71	4198.92
535.88	4147.43
536.05	3932.10
536.22	4060.83
536.38	3904.01
536.55	3831.46
536.72	3609.11
536.89	3730.81
537.06	3859.54
537.23	3988.27
537.40	3978.91
537.57	3999.98
537.74	3988.27
537.91	3936.78
538.08	3974.23
538.25	3929.76
538.42	3892.31
538.59	3957.85
538.75	3716.77
538.92	3779.97
539.09	3829.12
539.26	3786.99
539.43	3775.28
539.60	3733.15
539.77	3824.44
539.94	3728.47
540.11	3611.45
540.28	3613.79
540.44	3679.32
540.61	3501.44
540.78	3611.45
540.95	3833.80
541.12	3637.19
541.29	3794.01
541.46	3843.16
541.62	3815.07
541.79	3866.56
541.96	3726.13
542.13	3761.24
542.30	3861.88
542.47	3875.93
542.63	3747.20
542.80	3829.12
542.97	3789.33
543.14	3662.94
543.31	3728.47
543.48	3779.97
543.64	4009.34
543.81	3953.16
543.98	4002.32
544.15	3866.56
544.32	3901.67
544.48	3864.22
544.65	3927.42
544.82	3845.50
544.99	3772.94
545.16	3831.46
545.32	3789.33
545.49	3831.46
545.66	3896.99
545.83	3798.69
546.00	3819.75
546.16	3744.86
546.33	3639.53
546.50	3719.11
546.67	3873.59
546.83	3817.41
547.00	3784.65
547.17	3733.15
547.34	3585.70
547.50	3691.02
547.67	3651.24
547.84	3611.45
548.00	3758.90
548.17	3756.56
548.34	3709.75
548.51	3794.01
548.67	3765.92
548.84	3768.26
549.01	3768.26
549.18	3812.73
549.34	3868.91
549.51	3714.43
549.68	3730.81
549.84	3737.84
550.01	3606.77
550.18	3705.07
550.34	3646.55
550.51	3768.26
550.68	3882.95
550.84	3618.47
551.01	3471.01
551.18	3646.55
551.34	3698.05
551.51	3751.88
551.68	3740.18
551.84	3761.24
552.01	3648.90
552.18	3714.43
552.34	3686.34
552.51	3482.72
552.68	3515.48
552.84	3536.55
553.01	3524.85
553.18	3534.21
553.34	3658.26
553.51	3604.42
553.67	3644.21
553.84	3784.65
554.01	3716.77
554.17	3765.92
554.34	3662.94
554.51	3691.02
554.67	3676.98
554.84	3866.56
555.00	3674.64
555.17	3634.85
555.33	3595.06
555.50	3569.32
555.67	3576.34
555.83	3604.42
556.00	3609.11
556.16	3592.72
556.33	3494.42
556.50	3396.12
556.66	3353.99
556.83	3370.37
556.99	3452.29
557.16	3576.34
557.32	3405.48
557.49	3529.53
557.65	3482.72
557.82	3391.44
557.98	3461.65
558.15	3503.78
558.32	3304.84
558.48	3288.45
558.65	3316.54
558.81	3304.84
558.98	3358.67
559.14	3307.18
559.31	3375.05
559.47	3379.73
559.64	3215.90
559.80	3389.10
559.97	3361.01
560.13	3421.86
560.30	3379.73
560.46	3627.83
560.63	3468.67
560.79	3588.04
560.96	3536.55
561.12	3316.54
561.29	3265.05
561.45	3164.40
561.61	3330.58
561.78	3405.48
561.94	3314.20
562.11	3323.56
562.27	3321.22
562.44	3246.32
562.60	3503.78
562.77	3541.23
562.93	3410.16
563.10	3318.88
563.26	3197.17
563.42	3368.03
563.59	3293.13
563.75	3283.77
563.92	3410.16
564.08	3248.66
564.24	3424.20
564.41	3398.46
564.57	3344.63
564.74	3330.58
564.90	3290.79
565.07	3403.14
565.23	3290.79
565.39	3246.32
565.56	3115.25
565.72	3070.78
565.88	3098.87
566.05	3129.30
566.21	3293.13
566.38	3208.87
566.54	3260.37
566.70	3215.90
566.87	3344.63
567.03	3382.07
567.19	3166.74
567.36	3335.26
567.52	3332.92
567.68	3152.70
567.85	2913.97
568.01	3054.40
568.17	3077.80
568.34	3150.36
568.50	3101.21
568.66	3124.62
568.83	3138.66
568.99	3157.38
569.15	3204.19
569.32	3063.76
569.48	3077.80
569.64	3016.95
569.81	3000.57
569.97	3061.42
570.13	3145.68
570.30	2951.42
570.46	2984.18
570.62	2942.05
570.78	2979.50
570.95	2916.31
571.11	3082.49
571.27	3063.76
571.43	3082.49
571.60	3038.02
571.76	3122.27
571.92	3054.40
572.09	3045.04
572.25	3138.66
572.41	3141.00
572.57	3021.63
572.74	3141.00
572.90	3162.06
573.06	2977.16
573.22	3040.36
573.38	3045.04
573.55	3110.57
573.71	2981.84
573.87	3059.08
574.03	3030.99
574.20	3040.36
574.36	2986.52
574.52	3035.67
574.68	3061.42
574.84	2937.37
575.01	2970.14
575.17	2935.03
575.33	2923.33
575.49	3000.57
575.65	3038.02
575.82	2920.99
575.98	2785.24
576.14	2834.39
576.30	2913.97
576.46	2995.89
576.62	2918.65
576.79	2974.82
576.95	2820.35
577.11	2946.73
577.27	2932.69
577.43	2867.16
577.59	2888.22
577.75	2883.54
577.92	2803.96
578.08	2738.43
578.24	2689.28
578.40	2719.70
578.56	2766.51
578.72	2752.47
578.88	2857.79
579.04	2733.75
579.21	2883.54
579.37	3005.25
579.53	2902.26
579.69	2960.78
579.85	2916.31
580.01	2904.60
580.17	2911.63
580.33	2810.98
580.49	2813.32
580.65	2913.97
580.82	2993.55
580.98	2890.56
581.14	2754.81
581.30	2832.05
581.46	2789.92
581.62	2932.69
581.78	2848.43
581.94	2867.16
582.10	2878.86
582.26	2916.31
582.42	2920.99
582.58	2885.88
582.74	2909.29
582.90	2860.13
583.06	2906.95
583.22	2808.64
583.38	2869.50
583.54	2909.29
583.70	2853.11
583.86	2801.62
584.02	2888.22
584.18	2841.41
584.34	2890.56
584.50	2813.32
584.66	2876.52
584.82	2832.05
584.98	2888.22
585.14	2843.75
585.30	2663.53
585.46	2672.89
585.62	2635.44
585.78	2616.72
585.94	2719.70
586.10	2754.81
586.26	2822.69
586.42	2724.38
586.58	2754.81
586.74	2848.43
586.90	2841.41
587.06	2782.90
587.22	2916.31
587.38	2686.94
587.54	2640.12
587.70	2619.06
587.86	2630.76
588.02	2597.99
588.18	2600.34
588.34	2523.10
588.49	2319.47
588.65	2223.51
588.81	2195.42
588.97	2221.17
589.13	2195.42
589.29	2162.66
589.45	2237.55
589.61	2300.75
589.77	2487.99
589.93	2569.91
590.08	2576.93
590.24	2511.39
590.40	2607.36
590.56	2567.57
590.72	2583.95
590.88	2600.34
591.04	2436.50
591.20	2422.45
591.35	2546.50
591.51	2499.69
591.67	2387.35
591.83	2389.69
591.99	2394.37
592.15	2441.18
592.31	2612.04
592.46	2602.68
592.62	2497.35
592.78	2373.30
592.94	2495.01
593.10	2572.25
593.26	2600.34
593.41	2658.85
593.57	2485.65
593.73	2457.56
593.89	2513.74
594.05	2438.84
594.20	2429.48
594.36	2445.86
594.52	2452.88
594.68	2349.90
594.84	2452.88
594.99	2429.48
595.15	2483.31
595.31	2457.56
595.47	2445.86
595.62	2328.83
595.78	2473.95
595.94	2466.92
596.10	2530.12
596.25	2438.84
596.41	2359.26
596.57	2420.11
596.73	2466.92
596.88	2513.74
597.04	2270.32
597.20	2396.71
597.36	2399.05
597.51	2492.67
597.67	2394.37
597.83	2392.03
597.99	2317.13
598.14	2403.73
598.30	2345.22
598.46	2331.17
598.61	2396.71
598.77	2415.43
598.93	2480.97
599.09	2462.24
599.24	2429.48
599.40	2307.77
