SpectraSuite Data File
++++++++++++++++++++++++++++++++++++
Date: Mon Oct 07 14:55:00 GMT-05:00 2013
User: price-jones
Dark Spectrum Present: No
Reference Spectrum Present: No
Number of Sampled Component Spectra: 1
Spectrometers: USB2+H05261
Integration Time (usec): 10000 (USB2+H05261)
Spectra Averaged: 1 (USB2+H05261)
Boxcar Smoothing: 0 (USB2+H05261)
Correct for Electrical Dark: No (USB2+H05261)
Strobe/Lamp Enabled: No (USB2+H05261)
Correct for Detector Non-linearity: No (USB2+H05261)
Correct for Stray Light: No (USB2+H05261)
Number of Pixels in Processed Spectrum: 2048
>>>>>Begin Processed Spectral Data<<<<<
365.73	0.00
365.92	0.00
366.12	0.00
366.32	0.00
366.52	0.00
366.72	0.00
366.91	0.00
367.11	0.00
367.31	0.00
367.51	0.00
367.70	0.00
367.90	0.00
368.10	0.00
368.30	0.00
368.49	0.00
368.69	0.00
368.89	0.00
369.09	0.00
369.28	0.00
369.48	0.00
369.68	0.00
369.87	0.00
370.07	0.00
370.27	0.00
370.47	297.25
370.66	2239.89
370.86	2555.86
371.06	2738.43
371.25	2857.79
371.45	2457.56
371.65	2193.08
371.84	2047.97
372.04	2284.36
372.24	2605.02
372.44	2621.40
372.63	2677.57
372.83	2450.54
373.03	1956.69
373.22	1952.01
373.42	2132.23
373.62	2502.03
373.81	2607.36
374.01	2583.95
374.21	2153.29
374.40	2197.76
374.60	2340.54
374.79	2752.47
374.99	3152.70
375.19	3232.28
375.38	3157.38
375.58	2972.48
375.78	2937.37
375.97	2977.16
376.17	3103.55
376.37	3098.87
376.56	3164.40
376.76	3543.57
376.95	3632.51
377.15	3985.93
377.35	4032.74
377.54	4177.86
377.74	4360.42
377.93	4315.95
378.13	4180.20
378.33	3978.91
378.52	3606.77
378.72	3555.27
378.91	3543.57
379.11	3316.54
379.31	3323.56
379.50	3269.73
379.70	3527.19
379.89	4065.51
380.09	4093.60
380.28	4329.99
380.48	4372.12
380.68	4180.20
380.87	4147.43
381.07	3613.79
381.26	3442.93
381.46	3288.45
381.65	3171.43
381.85	3002.91
382.04	2932.69
382.24	2623.74
382.43	2670.55
382.63	2523.10
382.83	2509.05
383.02	2530.12
383.22	2602.68
383.41	2642.46
383.61	2766.51
383.80	3234.62
384.00	3707.41
384.19	4105.30
384.39	4311.27
384.58	4313.61
384.78	4128.70
384.97	4070.19
385.17	3941.46
385.36	3597.40
385.56	3592.72
385.75	3721.45
385.95	4109.98
386.14	4540.64
386.34	4365.10
386.53	4257.43
386.72	3899.33
386.92	3964.87
387.11	4283.18
387.31	4379.14
387.50	4348.72
387.70	4252.75
387.89	4119.34
388.09	4168.49
388.28	4313.61
388.48	4278.50
388.67	4599.15
388.86	5313.02
389.06	5455.79
389.25	6008.16
389.45	5762.40
389.64	5928.58
389.84	5703.89
390.03	5654.73
390.22	5694.52
390.42	6120.50
390.61	6394.34
390.81	6864.79
391.00	6991.18
391.19	6906.92
391.39	6616.69
391.58	6111.14
391.78	5830.27
391.97	5537.71
392.16	5116.41
392.36	4678.73
392.55	3634.85
392.75	2782.90
392.94	2450.54
393.13	2665.87
393.33	3110.57
393.52	3934.44
393.71	4655.33
393.91	5343.44
394.10	5825.59
394.29	6291.36
394.49	6698.61
394.68	7342.26
394.88	7342.26
395.07	7386.73
395.26	7562.27
395.46	7122.25
395.65	6665.85
395.84	5600.90
396.04	4800.44
396.23	3908.69
396.42	3332.92
396.62	3253.34
396.81	3960.19
397.00	5107.05
397.19	6462.22
397.39	7590.36
397.58	8477.42
397.77	8720.84
397.97	9132.77
398.16	9493.21
398.35	9916.85
398.55	9846.63
398.74	10150.90
398.93	10672.84
399.12	10270.27
399.32	9951.96
399.51	10195.37
399.70	11136.27
399.90	10942.00
400.09	10775.83
400.28	10738.38
400.47	10832.00
400.67	11274.36
400.86	11389.05
401.05	11597.35
401.24	11690.98
401.44	12166.10
401.63	12224.62
401.82	12205.89
402.01	12128.66
402.21	11873.54
402.40	11988.22
402.59	11810.34
402.78	11321.17
402.97	10956.05
403.17	11311.81
403.36	12372.07
403.55	12292.49
403.74	12650.60
403.93	11915.67
404.13	10937.32
404.32	11173.72
404.51	11915.67
404.70	12456.33
404.89	12545.27
405.09	12100.57
405.28	11992.90
405.47	11974.18
405.66	11728.42
405.85	11393.73
406.05	11075.42
406.24	11234.57
406.43	12131.00
406.62	12496.12
406.81	12545.27
407.00	12461.01
407.20	11803.32
407.39	12086.53
407.58	12650.60
407.77	13132.75
407.96	13373.82
408.15	13757.67
408.34	13846.61
408.54	14506.64
408.73	14178.97
408.92	14001.08
409.11	13504.89
409.30	12713.79
409.49	11946.09
409.68	11171.38
409.87	11164.36
410.07	12177.81
410.26	12809.75
410.45	13392.55
410.64	13970.66
410.83	14204.71
411.02	14611.96
411.21	15051.99
411.40	14913.89
411.59	15384.34
411.78	15232.21
411.98	14684.52
412.17	15131.56
412.36	14513.66
412.55	14824.95
412.74	14373.23
412.93	14064.28
413.12	14537.07
413.31	16276.09
413.50	16276.09
413.69	16004.58
413.88	15176.03
414.07	15000.49
414.26	15651.16
414.45	15976.50
414.64	16006.92
414.83	16149.70
415.02	15590.31
415.22	15901.60
415.41	16248.00
415.60	16849.52
415.79	17631.26
415.98	17811.48
416.17	17703.81
416.36	17226.34
416.55	17060.16
416.74	16418.86
416.93	15910.96
417.12	16460.99
417.31	16629.51
417.50	16524.18
417.69	17106.98
417.88	17095.27
418.07	16943.14
418.26	16975.91
418.45	16746.53
418.64	17554.02
418.83	18265.54
419.02	17664.02
419.21	17551.68
419.39	16868.24
419.58	15868.83
419.77	16283.11
419.96	16879.94
420.15	18061.91
420.34	18595.56
420.53	19126.86
420.72	19468.58
420.91	19096.43
421.10	18721.95
421.29	18665.77
421.48	18471.51
421.67	19145.58
421.86	18190.64
422.05	16739.51
422.24	15323.49
422.43	15550.52
422.61	17303.58
422.80	18497.25
422.99	18197.67
423.18	17156.13
423.37	17619.55
423.56	17802.11
423.75	17879.35
423.94	18146.17
424.13	17191.23
424.32	17200.60
424.50	17720.20
424.69	17547.00
424.88	17317.62
425.07	17305.92
425.26	17439.33
425.45	16802.71
425.64	16718.45
425.83	17252.09
426.01	18022.12
426.20	18473.85
426.39	17998.72
426.58	16697.38
426.77	15527.11
426.96	15033.26
427.15	15871.17
427.33	17310.60
427.52	17425.29
427.71	17305.92
427.90	17401.88
428.09	17380.82
428.28	16884.62
428.46	16035.01
428.65	16381.41
428.84	16891.65
429.03	16507.80
429.22	15784.57
429.40	14422.38
429.59	13043.81
429.78	11690.98
429.97	12217.60
430.16	12212.92
430.34	12322.92
430.53	12514.84
430.72	12975.93
430.91	14413.02
431.10	17631.26
431.28	19688.59
431.47	21242.70
431.66	20786.30
431.85	18492.57
432.03	16945.48
432.22	17146.76
432.41	18331.08
432.60	20215.21
432.79	20622.46
432.97	20844.81
433.16	20058.39
433.35	18040.85
433.54	16432.90
433.72	16013.95
433.91	16982.93
434.10	18691.52
434.28	19917.96
434.47	20723.10
434.66	20079.46
434.85	19824.34
435.03	20002.22
435.22	20114.56
435.41	21336.32
435.59	21624.21
435.78	21696.77
435.97	22118.06
436.16	21933.16
436.34	21769.32
436.53	21090.57
436.72	21628.89
436.90	20496.07
437.09	20383.73
437.28	20266.70
437.46	20999.29
437.65	20732.47
437.84	18913.87
438.02	17680.41
438.21	18345.12
438.40	18906.85
438.58	20491.39
438.77	20695.02
438.96	20996.95
439.14	22071.25
439.33	22434.03
439.52	22792.14
439.70	22319.35
439.89	21792.73
440.08	21247.38
440.26	21525.91
440.45	22181.26
440.63	23473.23
440.82	24737.12
441.01	23917.93
441.19	23508.34
441.38	24755.85
441.57	25570.35
441.75	25568.01
441.94	26054.84
442.12	25942.50
442.31	26501.89
442.50	26359.11
442.68	26359.11
442.87	25371.41
443.05	24879.89
443.24	26089.95
443.43	26459.76
443.61	26206.98
443.80	26431.67
443.98	25956.54
444.17	26157.83
444.35	27035.53
444.54	27316.39
444.73	27058.93
444.91	25284.81
445.10	24723.08
445.28	24049.00
445.47	23550.47
445.65	23894.53
445.84	24643.50
446.02	25598.44
446.21	25666.31
446.39	25436.94
446.58	25839.51
446.77	27019.14
446.95	26677.43
447.14	27307.03
447.32	28362.61
447.51	27470.87
447.69	26492.52
447.88	26485.50
448.06	27108.08
448.25	27204.05
448.43	27761.09
448.62	26817.86
448.80	26939.57
448.99	26665.72
449.17	27220.43
449.36	27253.20
449.54	28308.78
449.73	28463.25
449.91	29233.29
450.10	29816.08
450.28	29802.04
450.46	29743.53
450.65	29607.78
450.83	29713.10
451.02	29134.99
451.20	29186.48
451.39	28697.31
451.57	28362.61
451.76	28683.27
451.94	28191.75
452.13	27262.56
452.31	26178.89
452.49	24903.30
452.68	25647.59
452.86	26045.48
453.05	26263.15
453.23	27709.60
453.42	28252.61
453.60	28334.53
453.78	29010.94
453.97	28339.21
454.15	28205.80
454.34	27765.78
454.52	27637.05
454.70	27608.96
454.89	27473.21
455.07	28175.37
455.26	28720.71
455.44	29472.03
455.62	30017.37
455.81	29649.91
455.99	29422.87
456.17	29207.55
456.36	29902.68
456.54	30249.08
456.73	30356.75
456.91	31182.96
457.09	30930.18
457.28	31711.92
457.46	29926.09
457.64	29053.07
457.83	28613.05
458.01	28414.10
458.19	28886.89
458.38	29827.79
458.56	30595.48
458.74	30391.86
458.93	30015.03
459.11	29273.08
459.29	29457.98
459.48	29469.69
459.66	29259.04
459.84	29989.28
460.03	30485.48
460.21	30366.11
460.39	31304.67
460.57	31204.02
460.76	31655.75
460.94	31496.59
461.12	31255.51
461.31	30759.32
461.49	30958.27
461.67	31297.64
461.85	31489.57
462.04	31992.78
462.22	31910.86
462.40	31536.38
462.59	31878.10
462.77	32275.99
462.95	31894.48
463.13	31971.72
463.32	31452.12
463.50	31257.85
463.68	31372.54
463.86	30993.37
464.05	30995.71
464.23	30057.16
464.41	30504.20
464.59	30342.70
464.78	31817.24
464.96	31122.10
465.14	30536.97
465.32	31945.97
465.50	32641.11
465.69	32783.88
465.87	31393.61
466.05	30536.97
466.23	28926.68
466.41	28521.77
466.60	29795.02
466.78	29876.94
466.96	30380.15
467.14	30981.67
467.32	31419.35
467.51	31885.12
467.69	29879.28
467.87	30417.60
468.05	31501.27
468.23	31072.95
468.41	30930.18
468.60	31072.95
468.78	31412.33
468.96	31288.28
469.14	32044.27
469.32	31613.62
469.50	30930.18
469.69	31157.21
469.87	30529.95
470.05	30258.45
470.23	30759.32
470.41	30754.64
470.59	31002.74
470.77	30848.26
470.95	31110.40
471.14	32109.81
471.32	32732.39
471.50	34096.92
471.68	33483.70
471.86	33757.55
472.04	34143.74
472.22	34181.18
472.40	32737.07
472.58	32809.63
472.77	32385.99
472.95	32622.39
473.13	33322.21
473.31	33130.28
473.49	33315.19
473.67	34312.25
473.85	34026.71
474.03	34785.04
474.21	35201.66
474.39	35005.05
474.57	35299.96
474.75	34902.07
474.93	34431.62
475.12	33916.70
475.30	35105.70
475.48	35012.07
475.66	35047.18
475.84	34988.67
476.02	34403.53
476.20	34143.74
476.38	35143.14
476.56	36254.90
476.74	35845.30
476.92	36554.49
477.10	36954.72
477.28	37509.43
477.46	37329.20
477.64	38120.31
477.82	37481.34
478.00	37682.62
478.18	37216.86
478.36	37280.05
478.54	37029.62
478.72	37762.20
478.90	39210.99
479.08	40067.63
479.26	39812.51
479.44	40161.25
479.62	40126.14
479.80	40500.63
479.98	40095.72
480.16	40535.74
480.34	40313.39
480.52	41455.57
480.70	41277.69
480.88	41125.55
481.06	41184.07
481.24	41640.47
481.41	42307.52
481.59	42609.45
481.77	42712.44
481.95	42139.00
482.13	42244.33
482.31	42511.15
482.49	43325.66
482.67	42768.61
482.85	42972.24
483.03	43112.67
483.21	45057.65
483.39	44449.11
483.57	44135.48
483.74	43557.37
483.92	43978.67
484.10	43770.36
484.28	44261.87
484.46	44734.66
484.64	45970.46
484.82	45088.08
485.00	44224.42
485.18	43054.15
485.35	40961.72
485.53	37368.99
485.71	35082.29
485.89	35236.77
486.07	37078.77
486.25	40229.13
486.43	42789.67
486.61	43770.36
486.78	43643.97
486.96	44121.44
487.14	45137.23
487.32	45801.94
487.50	47543.30
487.68	47332.65
487.85	48168.22
488.03	48130.78
488.21	47370.10
488.39	47161.79
488.57	46333.24
488.75	46663.26
488.92	48002.05
489.10	50206.83
489.28	50478.33
489.46	51491.79
489.64	51672.01
489.81	51875.63
489.99	51697.75
490.17	51899.04
490.35	52317.99
490.53	51208.58
490.70	51051.76
490.88	51356.03
491.06	52818.87
491.24	52079.26
491.41	50045.33
491.59	48559.09
491.77	48945.28
491.95	50082.78
492.13	51667.33
492.30	52245.44
492.48	53687.21
492.66	53921.26
492.84	53062.29
493.01	53219.10
493.19	53118.46
493.37	52273.52
493.54	52128.41
493.72	53165.27
493.90	54038.29
494.08	55035.36
494.25	55229.62
494.43	55224.94
494.61	55547.93
494.79	55480.06
494.96	55033.02
495.14	54754.49
495.32	53244.85
495.49	53638.06
495.67	54719.38
495.85	55372.39
496.02	56149.45
496.20	56229.03
496.38	55676.66
496.55	55578.36
496.73	56250.09
496.91	56119.02
497.09	56348.40
497.26	56449.04
497.44	56336.69
497.62	55334.95
497.79	54337.88
497.97	53872.11
498.14	54721.72
498.32	55938.80
498.50	56219.67
498.67	56835.23
498.85	56615.22
499.03	56882.04
499.20	57034.17
499.38	56563.73
499.56	56186.90
499.73	55531.55
499.91	55774.97
500.08	55049.40
500.26	55164.09
500.44	55559.64
500.61	55749.22
500.79	55482.40
500.97	55320.90
501.14	55028.34
501.32	54475.97
501.49	54616.40
501.67	55374.73
501.84	55292.82
502.02	56081.58
502.20	56376.48
502.37	56718.20
502.55	56828.21
502.72	57518.67
502.90	57680.16
503.07	56856.29
503.25	56046.47
503.43	55110.25
503.60	55238.98
503.78	55105.57
503.95	55739.86
504.13	56961.62
504.30	57506.96
504.48	56727.56
504.65	56727.56
504.83	56666.71
505.01	57162.90
505.18	57659.10
505.36	58286.36
505.53	58511.05
505.71	58960.44
505.88	58836.39
506.06	58298.06
506.23	57818.25
506.41	57088.01
506.58	56779.06
506.76	57968.05
506.93	57422.70
507.11	57509.30
507.28	57125.46
507.46	56626.92
507.63	56348.40
507.81	56591.81
507.98	56823.53
508.16	57134.82
508.33	57502.28
508.50	58520.41
508.68	58759.15
508.85	59512.80
509.03	59414.50
509.20	58574.25
509.38	57722.29
509.55	57272.91
509.73	57394.62
509.90	58216.14
510.08	58319.13
510.25	57841.66
510.42	57219.08
510.60	57216.74
510.77	57469.51
510.95	58529.78
511.12	58286.36
511.30	58684.25
511.47	59515.14
511.64	59245.98
511.82	59018.95
511.99	57998.48
512.17	57752.72
512.34	57064.60
512.51	57675.48
512.69	57677.82
512.86	57216.74
513.04	57986.77
513.21	57844.00
513.38	56877.36
513.56	56514.58
513.73	56767.35
513.90	56320.31
514.08	56779.06
514.25	57521.01
514.43	57698.89
514.60	57375.89
514.77	57785.49
514.95	58658.51
515.12	58791.92
515.29	58981.50
515.47	58955.75
515.64	59082.14
515.81	58379.98
515.99	57523.35
516.16	55419.20
516.33	53703.59
516.51	52942.92
516.68	51318.59
516.85	50234.92
517.03	52107.35
517.20	55288.13
517.37	57418.02
517.54	57862.72
517.72	57034.17
517.89	54124.89
518.06	52933.56
518.24	54265.32
518.41	56484.15
518.58	57183.97
518.75	56678.41
518.93	56596.49
519.10	56530.96
519.27	56846.93
519.45	57528.03
519.62	58143.59
519.79	57862.72
519.96	57457.81
520.14	57537.39
520.31	56989.70
520.48	57125.46
520.65	57228.44
520.83	57946.98
521.00	58005.50
521.17	57890.81
521.34	57925.92
521.52	58569.57
521.69	58894.90
521.86	59625.15
522.03	58836.39
522.20	57378.23
522.38	56790.76
522.55	56638.62
522.72	56713.52
522.89	57586.54
523.07	58033.58
523.24	57780.81
523.41	58698.30
523.58	59583.02
523.75	59568.97
523.92	58990.86
524.10	59686.00
524.27	59707.07
524.44	58843.41
524.61	58419.77
524.78	58869.15
524.96	58951.07
525.13	59379.39
525.30	59781.96
525.47	60254.75
525.64	59936.44
525.81	59091.51
525.98	57418.02
526.16	55627.51
526.33	55346.65
526.50	54522.78
526.67	54710.02
526.84	55838.16
527.01	56460.74
527.18	56985.02
527.36	58368.28
527.53	58993.20
527.70	58747.45
527.87	58101.46
528.04	58307.43
528.21	58969.80
528.38	59222.58
528.55	59746.86
528.72	59973.89
528.89	60346.03
529.07	59798.35
529.24	58880.86
529.41	58419.77
529.58	58323.81
529.75	58539.14
529.92	58965.12
530.09	59269.39
530.26	58803.62
530.43	58932.35
530.60	59587.70
530.77	59337.26
530.94	59002.56
531.11	58911.28
531.28	58726.38
531.46	59168.74
531.63	59508.12
531.80	58415.09
531.97	58094.44
532.14	57645.05
532.31	56430.32
532.48	56013.70
532.65	56500.53
532.82	57254.18
532.99	59037.67
533.16	59276.41
533.33	58988.52
533.50	59267.05
533.67	58475.94
533.84	58178.70
534.01	58197.42
534.18	58539.14
534.35	58831.71
534.52	57879.11
534.69	58934.69
534.86	58721.70
535.03	59056.40
535.20	60037.08
535.37	59810.05
535.54	60154.11
535.71	59468.33
535.88	59274.07
536.05	58328.49
536.22	57909.53
536.38	58042.95
536.55	57329.08
536.72	57256.53
536.89	57448.45
537.06	58372.96
537.23	59025.97
537.40	59276.41
537.57	59753.88
537.74	59199.17
537.91	58714.68
538.08	58997.88
538.25	59550.25
538.42	58824.68
538.59	58691.27
538.75	57937.62
538.92	57888.47
539.09	58075.71
539.26	57993.79
539.43	57661.44
539.60	57537.39
539.77	58438.50
539.94	57272.91
540.11	56336.69
540.28	56062.85
540.44	56472.45
540.61	57301.00
540.78	57399.30
540.95	57326.74
541.12	56711.18
541.29	57890.81
541.46	58195.08
541.62	58815.32
541.79	57315.04
541.96	56685.43
542.13	57579.52
542.30	58220.83
542.47	57879.11
542.63	57797.19
542.80	57425.04
542.97	57874.43
543.14	57305.68
543.31	57511.64
543.48	58707.66
543.64	58932.35
543.81	59480.03
543.98	59456.63
544.15	58269.98
544.32	57954.00
544.48	58251.25
544.65	58768.51
544.82	59011.93
544.99	58239.55
545.16	57895.49
545.32	57820.59
545.49	58880.86
545.66	58452.54
545.83	58232.53
546.00	58365.94
546.16	58183.38
546.33	58494.67
546.50	57717.61
546.67	58176.36
546.83	58651.48
547.00	58260.62
547.17	56624.58
547.34	56608.20
547.50	56500.53
547.67	57080.98
547.84	57242.48
548.00	58239.55
548.17	57743.36
548.34	58288.70
548.51	58487.65
548.67	58028.90
548.84	58253.59
549.01	57719.95
549.18	57876.77
549.34	57516.32
549.51	57963.37
549.68	57155.88
549.84	57088.01
550.01	56624.58
550.18	56994.39
550.34	56996.73
550.51	57820.59
550.68	57464.83
550.84	57275.25
551.01	57944.64
551.18	57450.79
551.34	57766.76
551.51	58089.76
551.68	57523.35
551.84	57741.02
552.01	57872.09
552.18	56807.14
552.34	56472.45
552.51	56987.36
552.68	57106.73
552.84	56849.27
553.01	57073.96
553.18	55903.70
553.34	56690.12
553.51	57207.37
553.67	57024.81
553.84	57223.76
554.01	57495.26
554.17	56643.30
554.34	56966.30
554.51	57331.42
554.67	57024.81
554.84	56669.05
555.00	56556.70
555.17	56807.14
555.33	56811.82
555.50	57010.77
555.67	57855.70
555.83	57095.03
556.00	56617.56
556.16	56526.28
556.33	56687.78
556.50	56266.48
556.66	56690.12
556.83	56500.53
556.99	56872.68
557.16	56573.09
557.32	56823.53
557.49	56732.25
557.65	56828.21
557.82	57411.00
557.98	56523.94
558.15	56189.24
558.32	55299.84
558.48	54782.58
558.65	54873.86
558.81	54930.03
558.98	55035.36
559.14	54548.53
559.31	54836.41
559.47	55660.28
559.64	54644.49
559.80	54244.26
559.97	55021.31
560.13	55875.61
560.30	56652.67
560.46	57214.40
560.63	57549.09
560.79	58667.87
560.96	56839.91
561.12	56041.79
561.29	55386.44
561.45	54986.21
561.61	56156.47
561.78	56348.40
561.94	56231.37
562.11	55178.13
562.27	54768.54
562.44	55402.82
562.60	56088.60
562.77	56025.40
562.93	55702.41
563.10	55730.50
563.26	55938.80
563.42	55798.37
563.59	55629.85
563.75	55182.81
563.92	55337.29
564.08	56273.50
564.24	56060.51
564.41	55447.29
564.57	55840.50
564.74	55136.00
564.90	55180.47
565.07	54873.86
565.23	54658.53
565.39	54045.31
565.56	54171.70
565.72	54131.91
565.88	53900.20
566.05	55505.80
566.21	54291.07
566.38	54515.76
566.54	54714.70
566.70	54553.21
566.87	55028.34
567.03	55236.64
567.19	55601.77
567.36	55505.80
567.52	55372.39
567.68	55311.54
567.85	54808.32
568.01	54202.13
568.17	54141.27
568.34	53909.56
568.50	54000.84
568.66	52804.83
568.83	53165.27
568.99	53460.18
569.15	53572.52
569.32	54424.48
569.48	53947.01
569.64	53914.24
569.81	54380.01
569.97	54094.46
570.13	52912.49
570.30	52498.22
570.46	52538.01
570.62	51014.32
570.78	52294.59
570.95	52793.12
571.11	53045.90
571.27	52971.00
571.43	53387.62
571.60	54054.67
571.76	53734.02
571.92	54328.52
572.09	53949.35
572.25	53911.90
572.41	54569.59
572.57	54162.34
572.74	54440.86
572.90	53415.71
573.06	53991.48
573.22	54260.64
573.38	53947.01
573.55	54410.43
573.71	54066.38
573.87	54113.19
574.03	53928.28
574.20	54110.85
574.36	53202.72
574.52	53151.23
574.68	52203.31
574.84	52479.49
575.01	52229.05
575.17	52411.62
575.33	52530.98
575.49	53682.53
575.65	53371.24
575.82	53017.82
575.98	52594.18
576.14	53595.93
576.30	53750.40
576.46	53506.99
576.62	52804.83
576.79	52399.91
576.95	52886.74
577.11	51969.26
577.27	52512.26
577.43	51618.17
577.59	52582.48
577.75	52388.21
577.92	51796.06
578.08	50803.67
578.24	51187.52
578.40	51896.70
578.56	51269.43
578.72	51917.76
578.88	51793.71
579.04	52676.10
579.21	51653.28
579.37	51686.05
579.53	51136.02
579.69	51554.98
579.85	51803.08
580.01	51323.27
580.17	51239.01
580.33	52575.45
580.49	52516.94
580.65	52175.22
580.82	52364.81
580.98	52502.90
581.14	51327.95
581.30	52423.32
581.46	51934.15
581.62	52093.30
581.78	52200.97
581.94	52556.73
582.10	52009.04
582.26	51395.82
582.42	51442.63
582.58	52549.71
582.74	51973.94
582.90	51466.04
583.06	53036.54
583.22	52079.26
583.38	52362.46
583.54	51742.22
583.70	52226.71
583.86	51543.28
584.02	51950.53
584.18	52142.45
584.34	51540.94
584.50	51341.99
584.66	51959.89
584.82	51166.45
584.98	51576.04
585.14	51054.11
585.30	50578.98
