SpectraSuite Data File
++++++++++++++++++++++++++++++++++++
Date: Mon Oct 07 14:54:56 GMT-05:00 2013
User: price-jones
Dark Spectrum Present: No
Reference Spectrum Present: No
Number of Sampled Component Spectra: 1
Spectrometers: USB2+H05261
Integration Time (usec): 10000 (USB2+H05261)
Spectra Averaged: 1 (USB2+H05261)
Boxcar Smoothing: 0 (USB2+H05261)
Correct for Electrical Dark: No (USB2+H05261)
Strobe/Lamp Enabled: No (USB2+H05261)
Correct for Detector Non-linearity: No (USB2+H05261)
Correct for Stray Light: No (USB2+H05261)
Number of Pixels in Processed Spectrum: 2048
>>>>>Begin Processed Spectral Data<<<<<
365.73	0.00
365.92	0.00
366.12	0.00
366.32	0.00
366.52	0.00
366.72	0.00
366.91	0.00
367.11	0.00
367.31	0.00
367.51	0.00
367.70	0.00
367.90	0.00
368.10	0.00
368.30	0.00
368.49	0.00
368.69	0.00
368.89	0.00
369.09	0.00
369.28	0.00
369.48	0.00
369.68	0.00
369.87	0.00
370.07	0.00
370.27	0.00
370.47	0.00
370.66	140.43
370.86	355.76
371.06	339.38
371.25	451.72
371.45	322.99
371.65	285.55
371.84	229.37
372.04	301.93
372.24	339.38
372.44	285.55
372.63	337.04
372.83	292.57
373.03	294.91
373.22	238.73
373.42	215.33
373.62	318.31
373.81	362.78
374.01	353.42
374.21	264.48
374.40	269.16
374.60	304.27
374.79	435.34
374.99	383.85
375.19	425.98
375.38	451.72
375.58	479.81
375.78	339.38
375.97	400.23
376.17	477.47
376.37	425.98
376.56	489.17
376.76	538.32
376.95	643.65
377.15	596.84
377.35	650.67
377.54	699.82
377.74	711.52
377.93	624.92
378.13	664.71
378.33	641.31
378.52	545.34
378.72	540.66
378.91	524.28
379.11	535.98
379.31	418.96
379.50	507.90
379.70	573.43
379.89	617.90
380.09	585.13
380.28	697.48
380.48	739.61
380.68	685.78
380.87	526.62
381.07	449.38
381.26	503.22
381.46	470.45
381.65	414.27
381.85	348.74
382.04	383.85
382.24	360.44
382.43	374.49
382.63	348.74
382.83	266.82
383.02	266.82
383.22	322.99
383.41	264.48
383.61	365.12
383.80	411.93
384.00	465.77
384.19	510.24
384.39	699.82
384.58	706.84
384.78	599.18
384.97	662.37
385.17	435.34
385.36	500.87
385.56	524.28
385.75	451.72
385.95	610.88
386.14	578.11
386.34	573.43
386.53	697.48
386.72	566.41
386.92	465.77
387.11	636.63
387.31	620.24
387.50	638.97
387.70	514.92
387.89	510.24
388.09	519.60
388.28	601.52
388.48	641.31
388.67	664.71
388.86	681.10
389.06	716.20
389.25	903.45
389.45	866.00
389.64	798.12
389.84	856.64
390.03	807.48
390.22	833.23
390.42	936.21
390.61	938.55
390.81	1027.50
391.00	990.05
391.19	990.05
391.39	880.04
391.58	844.93
391.78	847.27
391.97	849.61
392.16	685.78
392.36	622.58
392.55	411.93
392.75	320.65
392.94	212.99
393.13	159.16
393.33	348.74
393.52	500.87
393.71	653.01
393.91	767.70
394.10	793.44
394.29	973.66
394.49	1015.79
394.68	997.07
394.88	1025.15
395.07	1046.22
395.26	1121.12
395.46	1018.13
395.65	919.83
395.84	800.46
396.04	662.37
396.23	517.26
396.42	257.46
396.62	250.44
396.81	409.59
397.00	725.57
397.19	961.96
397.39	1034.52
397.58	1273.25
397.77	1336.45
397.97	1378.58
398.16	1336.45
398.35	1383.26
398.55	1481.56
398.74	1638.38
398.93	1558.80
399.12	1497.94
399.32	1472.20
399.51	1582.20
399.70	1659.44
399.90	1568.16
400.09	1483.90
400.28	1572.84
400.47	1598.59
400.67	1619.65
400.86	1643.06
401.05	1778.81
401.24	1654.76
401.44	1680.50
401.63	1727.32
401.82	1706.25
402.01	1739.02
402.21	1703.91
402.40	1739.02
402.59	1722.63
402.78	1607.95
402.97	1666.46
403.17	1675.82
403.36	1783.49
403.55	1783.49
403.74	1816.26
403.93	1762.42
404.13	1626.67
404.32	1575.18
404.51	1638.38
404.70	1834.98
404.89	1870.09
405.09	1753.06
405.28	1685.19
405.47	1643.06
405.66	1673.48
405.85	1654.76
406.05	1659.44
406.24	1708.59
406.43	1741.36
406.62	1799.87
406.81	1650.08
407.00	1568.16
407.20	1717.95
407.39	1568.16
407.58	1785.83
407.77	1844.34
407.96	1788.17
408.15	1839.66
408.34	1989.46
408.54	2026.90
408.73	2043.29
408.92	1947.33
409.11	1947.33
409.30	1813.92
409.49	1734.34
409.68	1533.05
409.87	1561.14
410.07	1591.56
410.26	1767.10
410.45	1928.60
410.64	2001.16
410.83	1898.17
411.02	1961.37
411.21	2005.84
411.40	2111.16
411.59	1998.82
411.78	2176.70
411.98	2024.56
412.17	2043.29
412.36	2017.54
412.55	2129.89
412.74	2012.86
412.93	1909.88
413.12	1984.77
413.31	2104.14
413.50	2181.38
413.69	2296.07
413.88	2129.89
414.07	2097.12
414.26	2080.74
414.45	2069.03
414.64	2188.40
414.83	2139.25
415.02	2099.46
415.22	2162.66
415.41	2209.47
415.60	2333.51
415.79	2267.98
415.98	2387.35
416.17	2394.37
416.36	2413.09
416.55	2246.91
416.74	2179.04
416.93	2211.81
417.12	2204.78
417.31	2197.76
417.50	2155.63
417.69	2202.44
417.88	2228.19
418.07	2188.40
418.26	2244.57
418.45	2300.75
418.64	2279.68
418.83	2415.43
419.02	2406.07
419.21	2457.56
419.39	2122.87
419.58	2146.27
419.77	2190.74
419.96	2246.91
420.15	2438.84
420.34	2502.03
420.53	2466.92
420.72	2663.53
420.91	2612.04
421.10	2483.31
421.29	2434.16
421.48	2373.30
421.67	2560.55
421.86	2408.41
422.05	2284.36
422.24	1944.99
422.43	1881.79
422.61	2113.50
422.80	2296.07
422.99	2342.88
423.18	2370.96
423.37	2214.15
423.56	2230.53
423.75	2333.51
423.94	2246.91
424.13	2106.48
424.32	2172.02
424.50	2176.70
424.69	2129.89
424.88	2225.85
425.07	2174.36
425.26	2139.25
425.45	2122.87
425.64	2005.84
425.83	2129.89
426.01	2190.74
426.20	2349.90
426.39	2256.28
426.58	2155.63
426.77	1912.22
426.96	1905.20
427.15	1944.99
427.33	2200.10
427.52	2216.49
427.71	2207.13
427.90	2223.51
428.09	2003.50
428.28	2136.91
428.46	2019.88
428.65	2001.16
428.84	1930.94
429.03	2083.08
429.22	1909.88
429.40	1830.30
429.59	1636.03
429.78	1490.92
429.97	1423.05
430.16	1495.60
430.34	1425.39
430.53	1584.54
430.72	1516.67
430.91	1675.82
431.10	2019.88
431.28	2326.49
431.47	2569.91
431.66	2600.34
431.85	2368.62
432.03	2162.66
432.22	2188.40
432.41	2235.21
432.60	2382.67
432.79	2406.07
432.97	2471.61
433.16	2361.60
433.35	2258.62
433.54	1947.33
433.72	1858.39
433.91	2010.52
434.10	2139.25
434.28	2415.43
434.47	2473.95
434.66	2537.14
434.85	2370.96
435.03	2303.09
435.22	2455.22
435.41	2619.06
435.59	2581.61
435.78	2544.16
435.97	2712.68
436.16	2661.19
436.34	2670.55
436.53	2539.48
436.72	2478.63
436.90	2487.99
437.09	2457.56
437.28	2377.98
437.46	2567.57
437.65	2420.11
437.84	2235.21
438.02	2195.42
438.21	2015.20
438.40	2097.12
438.58	2352.24
438.77	2277.34
438.96	2466.92
439.14	2607.36
439.33	2789.92
439.52	2635.44
439.70	2792.26
439.89	2719.70
440.08	2499.69
440.26	2478.63
440.45	2562.89
440.63	2846.09
440.82	3049.72
441.01	3030.99
441.19	2764.17
441.38	2874.18
441.57	2958.44
441.75	2909.29
441.94	2958.44
442.12	2904.60
442.31	3026.31
442.50	2946.73
442.68	2993.55
442.87	2951.42
443.05	3000.57
443.24	2972.48
443.43	3103.55
443.61	3152.70
443.80	3141.00
443.98	3103.55
444.17	3159.72
444.35	3110.57
444.54	3218.24
444.73	3089.51
444.91	3054.40
445.10	2970.14
445.28	2684.59
445.47	2813.32
445.65	2757.15
445.84	2773.53
446.02	2965.46
446.21	3049.72
446.39	2972.48
446.58	3115.25
446.77	3030.99
446.95	3185.47
447.14	3033.33
447.32	3218.24
447.51	3166.74
447.69	2974.82
447.88	2967.80
448.06	2930.35
448.25	3108.23
448.43	3012.27
448.62	2949.08
448.80	2981.84
448.99	3143.34
449.17	3101.21
449.36	3082.49
449.54	3197.17
449.73	3325.90
449.91	3302.50
450.10	3339.94
450.28	3496.76
450.46	3321.22
450.65	3407.82
450.83	3412.50
451.02	3309.52
451.20	3262.71
451.39	3295.47
451.57	3204.19
451.76	3302.50
451.94	3087.17
452.13	3080.14
452.31	3084.83
452.49	2808.64
452.68	2946.73
452.86	2867.16
453.05	3014.61
453.23	3019.29
453.42	3141.00
453.60	3260.37
453.78	3145.68
453.97	3141.00
454.15	3187.81
454.34	3096.53
454.52	3136.32
454.70	3040.36
454.89	3101.21
455.07	3199.51
455.26	3218.24
455.44	3218.24
455.62	3311.86
455.81	3342.28
455.99	3332.92
456.17	3255.69
456.36	3295.47
456.54	3405.48
456.73	3328.24
456.91	3410.16
457.09	3632.51
457.28	3630.17
457.46	3424.20
457.64	3379.73
457.83	3246.32
458.01	3187.81
458.19	3133.98
458.38	3208.87
458.56	3365.69
458.74	3442.93
458.93	3349.31
459.11	3213.56
459.29	3215.90
459.48	3239.30
459.66	3206.53
459.84	3325.90
460.03	3265.05
460.21	3335.26
460.39	3428.88
460.57	3447.61
460.76	3473.36
460.94	3461.65
461.12	3548.25
461.31	3524.85
461.49	3349.31
461.67	3466.33
461.85	3510.80
462.04	3452.29
462.22	3571.66
462.40	3648.90
462.59	3456.97
462.77	3520.17
462.95	3609.11
463.13	3599.74
463.32	3379.73
463.50	3435.91
463.68	3293.13
463.86	3475.70
464.05	3262.71
464.23	3281.43
464.41	3211.22
464.59	3155.04
464.78	3279.09
464.96	3363.35
465.14	3316.54
465.32	3419.52
465.50	3595.06
465.69	3442.93
465.87	3574.00
466.05	3419.52
466.23	3176.11
466.41	3185.47
466.60	3178.45
466.78	3138.66
466.96	3332.92
467.14	3400.80
467.32	3379.73
467.51	3428.88
467.69	3136.32
467.87	3143.34
468.05	3325.90
468.23	3239.30
468.41	3407.82
468.60	3215.90
468.78	3372.71
468.96	3133.98
469.14	3405.48
469.32	3466.33
469.50	3136.32
469.69	3281.43
469.87	3042.70
470.05	3166.74
470.23	3178.45
470.41	3232.28
470.59	3370.37
470.77	3302.50
470.95	3361.01
471.14	3382.07
471.32	3293.13
471.50	3501.44
471.68	3611.45
471.86	3606.77
472.04	3658.26
472.22	3592.72
472.40	3445.27
472.58	3463.99
472.77	3487.40
472.95	3328.24
473.13	3496.76
473.31	3485.06
473.49	3449.95
473.67	3471.01
473.85	3616.13
474.03	3655.92
474.21	3658.26
474.39	3625.49
474.57	3742.52
474.75	3648.90
474.93	3658.26
475.12	3698.05
475.30	3576.34
475.48	3613.79
475.66	3576.34
475.84	3562.30
476.02	3522.51
476.20	3428.88
476.38	3686.34
476.56	3784.65
476.74	3688.68
476.92	3712.09
477.10	3955.51
477.28	4102.96
477.46	3918.06
477.64	4009.34
477.82	4060.83
478.00	4042.11
478.18	4002.32
478.36	3929.76
478.54	3908.69
478.72	4023.38
478.90	4056.15
479.08	4437.66
479.26	4332.33
479.44	4205.94
479.62	4058.49
479.80	4147.43
479.98	4159.13
480.16	4292.54
480.34	4163.81
480.52	4152.11
480.70	4409.57
480.88	4390.84
481.06	4292.54
481.24	4388.50
481.41	4386.16
481.59	4643.62
481.77	4547.66
481.95	4381.48
482.13	4430.63
482.31	4528.94
482.49	4451.70
482.67	4395.53
482.85	4435.32
483.03	4734.90
483.21	4622.56
483.39	4580.43
483.57	4440.00
483.74	4475.10
483.92	4498.51
484.10	4564.04
484.28	4582.77
484.46	4685.75
484.64	4837.89
484.82	4777.03
485.00	4746.61
485.18	4582.77
485.35	4329.99
485.53	3960.19
485.71	3714.43
485.89	3665.28
486.07	3861.88
486.25	4138.07
486.43	4386.16
486.61	4582.77
486.78	4374.46
486.96	4372.12
487.14	4674.05
487.32	4748.95
487.50	4800.44
487.68	5006.41
487.85	5111.73
488.03	5041.51
488.21	5043.85
488.39	4933.85
488.57	4863.63
488.75	4854.27
488.92	5107.05
489.10	5359.83
489.28	5542.39
489.46	5708.57
489.64	5682.82
489.81	5685.16
489.99	5514.30
490.17	5598.56
490.35	5565.79
490.53	5544.73
490.70	5476.85
490.88	5437.06
491.06	5666.44
491.24	5579.84
491.41	5643.03
491.59	5245.14
491.77	5139.82
491.95	5151.52
492.13	5401.96
492.30	5551.75
492.48	5774.10
492.66	5980.07
492.84	5891.13
493.01	5830.27
493.19	5694.52
493.37	5624.31
493.54	5617.29
493.72	5757.72
493.90	5907.51
494.08	6120.50
494.25	6129.86
494.43	6253.91
494.61	6284.34
494.79	6525.41
494.96	6235.19
495.14	6148.59
495.32	5926.24
495.49	5804.53
495.67	5970.71
495.85	6394.34
496.02	6410.73
496.20	6244.55
496.38	6328.81
496.55	6134.54
496.73	6291.36
496.91	6242.21
497.09	6562.86
497.26	6523.07
497.44	6403.71
497.62	6340.51
497.79	6024.54
497.97	5987.09
498.14	5825.59
498.32	6197.74
498.50	6370.94
498.67	6377.96
498.85	6445.84
499.03	6509.03
499.20	6476.26
499.38	6420.09
499.56	6338.17
499.73	6253.91
499.91	6331.15
500.08	6045.60
500.26	5987.09
500.44	6024.54
500.61	6181.35
500.79	6127.52
500.97	6263.27
501.14	6143.91
501.32	5994.11
501.49	6069.01
501.67	6090.07
501.84	6218.80
502.02	6174.33
502.20	6286.68
502.37	6392.00
502.55	6354.55
502.72	6410.73
502.90	6513.71
503.07	6527.75
503.25	6387.32
503.43	6373.28
503.60	6038.58
503.78	5923.90
503.95	6160.29
504.13	6267.95
504.30	6511.37
504.48	6602.65
504.65	6291.36
504.83	6457.54
505.01	6726.70
505.18	6733.72
505.36	6722.02
505.53	6916.28
505.71	7023.95
505.88	6958.41
506.06	6808.62
506.23	6574.56
506.41	6527.75
506.58	6656.48
506.76	6548.82
506.93	6595.63
507.11	6682.23
507.28	6656.48
507.46	6473.92
507.63	6274.98
507.81	6132.20
507.98	6356.90
508.16	6530.09
508.33	6707.98
508.50	6722.02
508.68	6738.40
508.85	6909.26
509.03	6864.79
509.20	6890.54
509.38	6670.53
509.55	6326.47
509.73	6436.47
509.90	6679.89
510.08	6773.51
510.25	6612.01
510.42	6658.82
510.60	6630.74
510.77	6602.65
510.95	6981.82
511.12	6848.41
511.30	6841.39
511.47	6953.73
511.64	6855.43
511.82	6733.72
511.99	6621.38
512.17	6490.31
512.34	6565.20
512.51	6530.09
512.69	6541.80
512.86	6480.94
513.04	6775.85
513.21	6665.85
513.38	6459.88
513.56	6366.26
513.73	6193.06
513.90	6333.49
514.08	6310.08
514.25	6429.45
514.43	6663.51
514.60	6576.91
514.77	6401.37
514.95	6502.01
515.12	6389.66
515.29	6548.82
515.47	6757.13
515.64	6743.08
515.81	6700.95
515.99	6523.07
516.16	6253.91
516.33	5757.72
516.51	5343.44
516.68	5186.63
516.85	5118.75
517.03	5174.92
517.20	5785.80
517.37	6253.91
517.54	6436.47
517.72	6497.33
517.89	5795.17
518.06	5324.72
518.24	5472.17
518.41	5832.62
518.58	6282.00
518.75	6230.51
518.93	6223.48
519.10	6298.38
519.27	6296.04
519.45	6401.37
519.62	6530.09
519.79	6637.76
519.96	6633.08
520.14	6700.95
520.31	6270.30
520.48	6216.46
520.65	6293.70
520.83	6630.74
521.00	6670.53
521.17	6604.99
521.34	6471.58
521.52	6544.14
521.69	6710.32
521.86	6899.90
522.03	6497.33
522.20	6347.53
522.38	6188.38
522.55	6265.61
522.72	6303.06
522.89	6345.19
523.07	6438.81
523.24	6635.42
523.41	6668.19
523.58	6780.53
523.75	6937.35
523.92	6892.88
524.10	6799.26
524.27	6834.36
524.44	6759.47
524.61	6647.12
524.78	6808.62
524.96	6705.63
525.13	6537.12
525.30	6637.76
525.47	6642.44
525.64	7016.93
525.81	6562.86
525.98	6186.04
526.16	6038.58
526.33	5727.29
526.50	5816.23
526.67	5617.29
526.84	5912.19
527.01	6090.07
527.18	6258.59
527.36	6232.85
527.53	6640.10
527.70	6733.72
527.87	6476.26
528.04	6431.79
528.21	6525.41
528.38	6712.66
528.55	6984.16
528.72	6885.86
528.89	6855.43
529.07	6949.05
529.24	6698.61
529.41	6633.08
529.58	6408.39
529.75	6670.53
529.92	6551.16
530.09	6731.38
530.26	6832.02
530.43	6778.19
530.60	6700.95
530.77	6909.26
530.94	7021.61
531.11	6759.47
531.28	6644.78
531.46	6661.16
531.63	6787.55
531.80	6609.67
531.97	6462.22
532.14	6396.68
532.31	6146.25
532.48	5849.00
532.65	5959.00
532.82	6080.71
532.99	6469.24
533.16	6614.35
533.33	6759.47
533.50	6663.51
533.67	6471.58
533.84	6427.11
534.01	6399.02
534.18	6349.87
534.35	6544.14
534.52	6560.52
534.69	6548.82
534.86	6502.01
535.03	6597.97
535.20	6874.15
535.37	6853.09
535.54	6848.41
535.71	6700.95
535.88	6782.87
536.05	6590.95
536.22	6567.54
536.38	6314.77
536.55	6167.31
536.72	6167.31
536.89	6071.35
537.06	6375.62
537.23	6623.72
537.40	6640.10
537.57	6534.78
537.74	6469.24
537.91	6647.12
538.08	6473.92
538.25	6443.49
538.42	6750.10
538.59	6593.29
538.75	6186.04
538.92	6221.14
539.09	6223.48
539.26	6125.18
539.43	6197.74
539.60	6188.38
539.77	6190.72
539.94	6071.35
540.11	5916.87
540.28	5769.42
540.44	6040.92
540.61	5802.19
540.78	5893.47
540.95	5982.41
541.12	6171.99
541.29	6258.59
541.46	6436.47
541.62	6256.25
541.79	6399.02
541.96	6253.91
542.13	6146.25
542.30	6232.85
542.47	6251.57
542.63	6174.33
542.80	6164.97
542.97	6090.07
543.14	6069.01
543.31	6197.74
543.48	6197.74
543.64	6408.39
543.81	6462.22
543.98	6509.03
544.15	6237.53
544.32	6118.16
544.48	6258.59
544.65	6267.95
544.82	6319.45
544.99	6230.51
545.16	6237.53
545.32	6153.27
545.49	6438.81
545.66	6413.07
545.83	6305.40
546.00	6211.78
546.16	6071.35
546.33	6031.56
546.50	6225.82
546.67	6373.28
546.83	6265.61
547.00	6223.48
547.17	5865.38
547.34	5797.51
547.50	5757.72
547.67	5928.58
547.84	5811.55
548.00	6078.37
548.17	6260.93
548.34	6223.48
548.51	6029.22
548.67	6143.91
548.84	6129.86
549.01	6263.27
549.18	6225.82
549.34	6066.67
549.51	6183.70
549.68	5951.98
549.84	6008.16
550.01	5980.07
550.18	5832.62
550.34	6209.44
550.51	6015.18
550.68	6022.20
550.84	6101.78
551.01	5856.02
551.18	5914.53
551.34	6036.24
551.51	6073.69
551.68	6216.46
551.84	6209.44
552.01	6167.31
552.18	6235.19
552.34	5891.13
552.51	5863.04
552.68	5816.23
552.84	5715.59
553.01	5940.28
553.18	6141.57
553.34	6033.90
553.51	5940.28
553.67	6040.92
553.84	6019.86
554.01	5968.37
554.17	5940.28
554.34	6118.16
554.51	5926.24
554.67	6209.44
554.84	6015.18
555.00	5968.37
555.17	5865.38
555.33	5982.41
555.50	5785.80
555.67	5947.30
555.83	5839.64
556.00	5760.06
556.16	5753.04
556.33	5657.07
556.50	5631.33
556.66	5699.20
556.83	5729.63
556.99	5694.52
557.16	5558.77
557.32	5701.54
557.49	5778.78
557.65	5872.40
557.82	5816.23
557.98	5715.59
558.15	5582.18
558.32	5481.53
558.48	5301.31
558.65	5383.23
558.81	5294.29
558.98	5448.77
559.14	5528.35
559.31	5432.38
559.47	5561.11
559.64	5540.05
559.80	5397.28
559.97	5413.66
560.13	5621.97
560.30	5605.58
560.46	5804.53
560.63	6101.78
560.79	5937.94
560.96	5743.67
561.12	5535.37
561.29	5453.45
561.45	5336.42
561.61	5364.51
561.78	5369.19
561.94	5518.98
562.11	5556.43
562.27	5441.75
562.44	5462.81
562.60	5551.75
562.77	5738.99
562.93	5626.65
563.10	5619.63
563.26	5430.04
563.42	5425.36
563.59	5331.74
563.75	5301.31
563.92	5420.68
564.08	5408.98
564.24	5687.50
564.41	5568.13
564.57	5373.87
564.74	5455.79
564.90	5376.21
565.07	5467.49
565.23	5245.14
565.39	5200.67
565.56	5097.69
565.72	5048.54
565.88	5174.92
566.05	5104.71
566.21	5268.55
566.38	5282.59
566.54	5490.90
566.70	5357.49
566.87	5366.85
567.03	5268.55
567.19	5423.02
567.36	5556.43
567.52	5483.88
567.68	5392.59
567.85	5203.01
568.01	5149.18
568.17	5081.30
568.34	5008.75
568.50	4968.96
568.66	5048.54
568.83	5188.97
568.99	5233.44
569.15	5268.55
569.32	5200.67
569.48	5128.11
569.64	4875.34
569.81	4985.34
569.97	5025.13
570.13	4943.21
570.30	4856.61
570.46	4835.55
570.62	4648.30
570.78	4809.80
570.95	4760.65
571.11	4931.51
571.27	4901.08
571.43	5032.15
571.60	4950.23
571.76	5032.15
571.92	4966.62
572.09	5217.05
572.25	5270.89
572.41	5214.71
572.57	5142.16
572.74	5174.92
572.90	5074.28
573.06	5050.88
573.22	5116.41
573.38	4912.78
573.55	4964.28
573.71	5146.84
573.87	5111.73
574.03	5060.24
574.20	4849.59
574.36	4947.89
574.52	4908.10
574.68	4891.72
574.84	4854.27
575.01	4685.75
575.17	4702.14
575.33	4847.25
575.49	4884.70
575.65	4873.00
575.82	4772.35
575.98	4835.55
576.14	4961.94
576.30	4952.57
576.46	4894.06
576.62	4980.66
576.79	4746.61
576.95	4746.61
577.11	4786.40
577.27	4795.76
577.43	4765.33
577.59	4765.33
577.75	4690.43
577.92	4667.03
578.08	4550.00
578.24	4603.83
578.40	4652.98
578.56	4638.94
578.72	4723.20
578.88	4662.35
579.04	4748.95
579.21	4627.24
579.37	4608.51
579.53	4812.14
579.69	4858.95
579.85	4725.54
580.01	4685.75
580.17	4683.41
580.33	4615.54
580.49	4594.47
580.65	4730.22
580.82	4739.58
580.98	4809.80
581.14	4660.01
581.30	4840.23
581.46	4772.35
581.62	4819.16
581.78	4727.88
581.94	4823.84
582.10	4816.82
582.26	4723.20
582.42	4861.29
582.58	4964.28
582.74	4638.94
582.90	4678.73
583.06	4809.80
583.22	4746.61
583.38	4774.69
583.54	4730.22
583.70	4704.48
583.86	4781.71
584.02	4734.90
584.18	4500.85
584.34	4713.84
584.50	4505.53
584.66	4634.26
584.82	4559.36
584.98	4447.02
585.14	4465.74
585.30	4463.40
585.46	4360.42
585.62	4262.12
585.78	4297.22
585.94	4482.13
586.10	4456.38
586.26	4411.91
586.42	4730.22
586.58	4617.88
586.74	4458.72
586.90	4458.72
587.06	4465.74
587.22	4505.53
587.38	4601.49
587.54	4538.30
587.70	4486.81
587.86	4360.42
588.02	4273.82
588.18	4297.22
588.34	4156.79
588.49	3901.67
588.65	3763.58
588.81	3627.83
588.97	3815.07
589.13	3674.64
589.29	3761.24
589.45	3714.43
589.61	3794.01
589.77	4072.53
589.93	4117.00
590.08	4231.69
590.24	4390.84
590.40	4264.46
590.56	4271.48
590.72	4229.35
590.88	4091.26
591.04	4037.42
591.20	3974.23
591.35	4046.79
591.51	4145.09
591.67	4112.32
591.83	4060.83
591.99	4205.94
592.15	4252.75
592.31	4215.30
592.46	4170.83
592.62	4219.99
592.78	4093.60
592.94	4124.02
593.10	4049.13
593.26	4154.45
593.41	4257.43
593.57	4112.32
593.73	3948.48
593.89	4198.92
594.05	4072.53
594.20	4030.40
594.36	4032.74
594.52	4037.42
594.68	3957.85
594.84	3901.67
594.99	3971.89
595.15	3990.61
595.31	4025.72
595.47	4100.62
595.62	4119.34
595.78	4070.19
595.94	4100.62
596.10	4250.41
596.25	4023.38
596.41	3969.55
596.57	4138.07
596.73	4182.54
596.88	4030.40
597.04	4060.83
597.20	4004.66
597.36	4072.53
597.51	4046.79
597.67	3976.57
597.83	3960.19
