SpectraSuite Data File
++++++++++++++++++++++++++++++++++++
Date: Mon Oct 07 14:53:44 GMT-05:00 2013
User: price-jones
Dark Spectrum Present: No
Reference Spectrum Present: No
Number of Sampled Component Spectra: 1
Spectrometers: USB2+H05261
Integration Time (usec): 100000 (USB2+H05261)
Spectra Averaged: 1 (USB2+H05261)
Boxcar Smoothing: 0 (USB2+H05261)
Correct for Electrical Dark: No (USB2+H05261)
Strobe/Lamp Enabled: No (USB2+H05261)
Correct for Detector Non-linearity: No (USB2+H05261)
Correct for Stray Light: No (USB2+H05261)
Number of Pixels in Processed Spectrum: 2048
>>>>>Begin Processed Spectral Data<<<<<
365.73	0.00
365.92	0.00
366.12	0.00
366.32	0.00
366.52	0.00
366.72	0.00
366.91	0.00
367.11	0.00
367.31	0.00
367.51	0.00
367.70	0.00
367.90	0.00
368.10	0.00
368.30	0.00
368.49	0.00
368.69	0.00
368.89	0.00
369.09	0.00
369.28	0.00
369.48	0.00
369.68	0.00
369.87	0.00
370.07	0.00
370.27	0.00
370.47	578.11
370.66	3321.22
370.86	3939.12
371.06	4320.63
371.25	4472.76
371.45	3929.76
371.65	3449.95
371.84	3094.19
372.04	3501.44
372.24	3784.65
372.44	4011.68
372.63	3943.80
372.83	3826.78
373.03	3283.77
373.22	3026.31
373.42	3290.79
373.62	3681.66
373.81	3985.93
374.01	3981.25
374.21	3471.01
374.40	3375.05
374.60	3536.55
374.79	3854.86
374.99	4547.66
375.19	4847.25
375.38	5036.83
375.58	4613.20
375.78	4512.55
375.97	4589.79
376.17	4884.70
376.37	4802.78
376.56	5018.11
376.76	5100.03
376.95	5401.96
377.15	5687.50
377.35	6249.23
377.54	6410.73
377.74	6509.03
377.93	6691.59
378.13	6380.30
378.33	6080.71
378.52	5474.51
378.72	5359.83
378.91	5390.25
379.11	5085.98
379.31	4732.56
379.50	5022.79
379.70	5320.04
379.89	5851.34
380.09	6134.54
380.28	6338.17
380.48	6417.75
380.68	6223.48
380.87	6183.70
381.07	5614.95
381.26	5247.48
381.46	4933.85
381.65	4786.40
381.85	4823.84
382.04	4564.04
382.24	4060.83
382.43	4058.49
382.63	3925.08
382.83	3812.73
383.02	3962.53
383.22	3878.27
383.41	3934.44
383.61	4208.28
383.80	4755.97
384.00	5547.07
384.19	6050.28
384.39	6314.77
384.58	6541.80
384.78	6267.95
384.97	6289.02
385.17	5954.32
385.36	5586.86
385.56	5528.35
385.75	5507.28
385.95	5888.79
386.14	6574.56
386.34	6583.93
386.53	6338.17
386.72	5874.74
386.92	5954.32
387.11	6195.40
387.31	6546.48
387.50	6448.18
387.70	6270.30
387.89	6225.82
388.09	6338.17
388.28	6455.20
388.48	6277.32
388.67	6895.22
388.86	7487.37
389.06	7995.27
389.25	8702.11
389.45	8554.66
389.64	8622.53
389.84	8280.82
390.03	8189.53
390.22	8297.20
390.42	8711.47
390.61	8964.25
390.81	9776.42
391.00	10010.47
391.19	9753.01
391.39	9607.90
391.58	8805.10
391.78	8430.61
391.97	8128.68
392.16	7658.23
392.36	6998.20
392.55	5783.46
392.75	4491.49
392.94	3620.81
393.13	3660.60
393.33	4156.79
393.52	5343.44
393.71	6513.71
393.91	7517.80
394.10	8163.79
394.29	9055.53
394.49	9378.53
394.68	10494.96
394.88	10417.72
395.07	10771.15
395.26	10670.50
395.46	10359.21
395.65	9727.27
395.84	8606.15
396.04	7272.04
396.23	5912.19
396.42	4713.84
396.62	4765.33
396.81	5451.11
397.00	7082.46
397.19	8805.10
397.39	10473.90
397.58	11754.17
397.77	12620.17
397.97	13001.68
398.16	13294.24
398.35	13558.72
398.55	14075.98
398.74	14693.88
398.93	14897.51
399.12	14607.28
399.32	14155.56
399.51	14544.09
399.70	15552.86
399.90	15241.57
400.09	15473.28
400.28	15061.35
400.47	15435.83
400.67	16152.04
400.86	16346.30
401.05	16589.72
401.24	16603.76
401.44	16868.24
401.63	16751.21
401.82	16933.78
402.01	16910.37
402.21	17099.95
402.40	17418.27
402.59	16662.27
402.78	15840.75
402.97	15372.64
403.17	15906.28
403.36	17111.66
403.55	17563.38
403.74	18059.57
403.93	17411.25
404.13	15625.42
404.32	15536.48
404.51	16060.76
404.70	17612.53
404.89	17605.51
405.09	17085.91
405.28	16879.94
405.47	16776.96
405.66	16542.91
405.85	16416.52
406.05	15843.09
406.24	15840.75
406.43	16556.95
406.62	17621.89
406.81	17542.32
407.00	17060.16
407.20	16142.67
407.39	16589.72
407.58	16954.84
407.77	18031.49
407.96	18342.78
408.15	18663.43
408.34	18941.96
408.54	19800.93
408.73	19836.04
408.92	19449.85
409.11	19227.50
409.30	18167.24
409.49	17029.74
409.68	15953.09
409.87	15101.14
410.07	16688.02
410.26	17474.44
410.45	18649.39
410.64	19084.73
410.83	19920.30
411.02	20067.75
411.21	21010.99
411.40	20868.22
411.59	20800.34
411.78	20863.54
411.98	20563.95
412.17	20886.94
412.36	20177.76
412.55	20439.90
412.74	20175.42
412.93	19864.13
413.12	19711.99
413.31	21715.49
413.50	21685.06
413.69	22171.89
413.88	21446.33
414.07	20709.06
414.26	21010.99
414.45	22078.27
414.64	22157.85
414.83	22394.25
415.02	21528.25
415.22	21378.45
415.41	22085.30
415.60	22497.23
415.79	23564.51
415.98	24142.63
416.17	24002.19
416.36	23374.93
416.55	23019.17
416.74	22569.79
416.93	21816.13
417.12	21886.35
417.31	22218.71
417.50	22551.06
417.69	23377.27
417.88	23250.88
418.07	22604.89
418.26	22551.06
418.45	22544.04
418.64	23672.18
418.83	24173.05
419.02	23943.68
419.21	23941.34
419.39	22817.88
419.58	21661.66
419.77	21678.04
419.96	22548.72
420.15	23704.95
420.34	24861.17
420.53	25546.95
420.72	25963.56
420.91	26066.55
421.10	25422.90
421.29	25516.52
421.48	24627.12
421.67	25500.14
421.86	25060.12
422.05	23370.25
422.24	20931.41
422.43	20709.06
422.61	23117.47
422.80	24535.84
422.99	24797.98
423.18	23964.75
423.37	23363.23
423.56	23161.94
423.75	23578.56
423.94	24170.71
424.13	23180.67
424.32	23316.42
424.50	23194.71
424.69	23147.90
424.88	22895.12
425.07	23246.20
425.26	23075.34
425.45	22750.01
425.64	22146.15
425.83	22314.67
426.01	23480.25
426.20	24013.90
426.39	24329.87
426.58	22326.37
426.77	20936.09
426.96	19873.49
427.15	20725.44
427.33	22174.24
427.52	23349.18
427.71	23302.37
427.90	22801.50
428.09	22750.01
428.28	22319.35
428.46	21621.87
428.65	21254.40
428.84	21701.45
429.03	22207.00
429.22	21085.89
429.40	20224.57
429.59	18052.55
429.78	15934.37
429.97	16128.63
430.16	16367.37
430.34	16381.41
430.53	16538.23
430.72	16383.75
430.91	18284.26
431.10	21621.87
431.28	25202.89
431.47	27402.99
431.66	27714.28
431.85	25453.33
432.03	23407.70
432.22	21891.03
432.41	23152.58
432.60	25640.57
432.79	26761.69
432.97	27473.21
433.16	26885.73
433.35	24510.09
433.54	22232.75
433.72	20734.81
433.91	21053.12
434.10	23845.38
434.28	25277.79
434.47	26806.16
434.66	26733.60
434.85	26122.72
435.03	25336.30
435.22	26237.41
435.41	27576.19
435.59	27625.34
435.78	28374.31
435.97	28865.83
436.16	29111.58
436.34	28893.91
436.53	28013.87
436.72	28112.17
436.90	26897.44
437.09	26670.40
437.28	26094.63
437.46	27033.19
437.65	26874.03
437.84	25163.10
438.02	23442.81
438.21	22916.19
438.40	24423.49
438.58	26405.92
438.77	27023.83
438.96	27391.29
439.14	28196.43
439.33	29280.10
439.52	29582.03
439.70	28800.29
439.89	28376.66
440.08	27475.55
440.26	27545.76
440.45	28341.55
440.63	30026.73
440.82	31957.67
441.01	31557.44
441.19	31061.25
441.38	31421.69
441.57	32758.14
441.75	33120.92
441.94	33750.52
442.12	33343.27
442.31	33785.63
442.50	33701.37
442.68	33296.46
442.87	32755.80
443.05	32465.57
443.24	32739.41
443.43	33263.69
443.61	34235.02
443.80	34590.78
443.98	32711.33
444.17	32456.21
444.35	34543.97
444.54	34939.52
444.73	34717.17
444.91	33467.32
445.10	31950.65
445.28	30305.26
445.47	29675.65
445.65	30160.14
445.84	31171.25
446.02	32671.54
446.21	32917.29
446.39	32835.38
446.58	33347.95
446.77	33811.38
446.95	34078.20
447.14	35098.67
447.32	35323.36
447.51	34843.56
447.69	33582.01
447.88	33350.29
448.06	33497.75
448.25	34115.65
448.43	34412.90
448.62	34176.50
448.80	33448.60
448.99	34000.96
449.17	34415.24
449.36	34384.81
449.54	35721.26
449.73	35913.18
449.91	36055.95
450.10	37228.56
450.28	38071.15
450.46	37790.29
450.65	37518.79
450.83	37434.53
451.02	37055.36
451.20	36627.04
451.39	36385.97
451.57	36170.64
451.76	36100.42
451.94	36208.09
452.13	35477.84
452.31	33598.39
452.49	31793.84
452.68	32545.15
452.86	32664.52
453.05	33064.75
453.23	34022.03
453.42	34775.68
453.60	35686.15
453.78	36187.02
453.97	35995.10
454.15	35491.88
454.34	34693.76
454.52	34995.69
454.70	34789.72
454.89	34775.68
455.07	35445.07
455.26	35606.57
455.44	36547.47
455.62	37399.42
455.81	37399.42
455.99	37549.21
456.17	36982.80
456.36	36982.80
456.54	38258.40
456.73	37780.93
456.91	38447.98
457.09	38667.99
457.28	39445.05
457.46	37881.57
457.64	37989.24
457.83	36634.06
458.01	35763.39
458.19	36577.89
458.38	37095.15
458.56	38403.51
458.74	37937.74
458.93	37415.80
459.11	37244.94
459.29	36945.36
459.48	37191.11
459.66	37158.34
459.84	37329.20
460.03	37495.38
460.21	37851.14
460.39	38492.45
460.57	38965.24
460.76	39461.43
460.94	39505.90
461.12	38644.59
461.31	38883.32
461.49	38782.68
461.67	38799.06
461.85	40091.04
462.04	39269.51
462.22	39721.23
462.40	39981.03
462.59	39578.46
462.77	39653.36
462.95	39510.58
463.13	39367.81
463.32	38834.17
463.50	38904.38
463.68	38345.00
463.86	39026.09
464.05	38520.54
464.23	37546.87
464.41	37074.09
464.59	36524.06
464.78	38714.80
464.96	38529.90
465.14	37823.06
465.32	39124.40
465.50	39704.85
465.69	40292.32
465.87	39662.72
466.05	38501.81
466.23	36718.32
466.41	35573.80
466.60	37013.23
466.78	37298.78
466.96	37722.41
467.14	37766.88
467.32	38572.03
467.51	38923.11
467.69	37177.07
467.87	37935.40
468.05	38394.15
468.23	38768.63
468.41	38824.81
468.60	38583.73
468.78	38625.86
468.96	38265.42
469.14	39192.27
469.32	39494.20
469.50	37902.64
469.69	38061.79
469.87	37471.98
470.05	37521.13
470.23	37399.42
470.41	37837.10
470.59	37963.49
470.77	38419.89
470.95	38829.49
471.14	39730.59
471.32	39473.13
471.50	41397.06
471.68	41654.51
471.86	42089.85
472.04	41961.12
472.22	42424.55
472.40	40718.30
472.58	39761.02
472.77	39402.92
472.95	40500.63
473.13	41301.09
473.31	40065.29
473.49	40587.23
473.67	41504.72
473.85	41448.55
474.03	42085.17
474.21	42462.00
474.39	43182.88
474.57	42745.20
474.75	43398.21
474.93	42829.46
475.12	41914.31
475.30	41979.85
475.48	42600.09
475.66	42642.22
475.84	42639.88
476.02	42134.32
476.20	41301.09
476.38	42447.96
476.56	43533.96
476.74	43859.30
476.92	44236.12
477.10	44907.86
477.28	45748.11
477.46	45848.75
477.64	46775.61
477.82	46031.32
478.00	46464.32
478.18	45963.44
478.36	45310.43
478.54	45879.18
478.72	45958.76
478.90	46939.44
479.08	47725.86
479.26	48421.00
479.44	48259.51
479.62	47992.68
479.80	48046.52
479.98	48098.01
480.16	48694.85
480.34	48423.34
480.52	48638.67
480.70	48697.19
480.88	49069.33
481.06	49282.32
481.24	49951.71
481.41	50412.80
481.59	50848.14
481.77	50878.57
481.95	50405.78
482.13	49830.01
482.31	50164.70
482.49	50822.39
482.67	50543.87
482.85	50920.70
483.03	51592.43
483.21	51927.13
483.39	51569.02
483.57	51178.15
483.74	50986.23
483.92	50892.61
484.10	51131.34
484.28	52004.36
484.46	52329.70
484.64	52655.03
484.82	52341.40
485.00	51732.86
485.18	50955.80
485.35	49872.14
485.53	47110.30
485.71	43288.21
485.89	42518.17
486.07	44741.68
486.25	47672.03
486.43	50316.84
486.61	50913.67
486.78	50508.76
486.96	50660.90
487.14	52509.92
487.32	52893.77
487.50	53937.65
487.68	54466.61
487.85	54972.16
488.03	54873.86
488.21	54756.83
488.39	54129.57
488.57	53499.97
488.75	53270.59
488.92	53801.89
489.10	55882.63
489.28	56846.93
489.46	57504.62
489.64	57542.07
489.81	57565.48
489.99	57080.98
490.17	57223.76
490.35	57450.79
490.53	57240.14
490.70	56795.44
490.88	56683.09
491.06	57792.51
491.24	57577.18
491.41	56793.10
491.59	55508.14
491.77	54759.17
491.95	55585.38
492.13	56626.92
492.30	57722.29
492.48	58454.88
492.66	58801.28
492.84	58941.71
493.01	58693.61
493.19	58174.02
493.37	57888.47
493.54	57799.53
493.72	58190.40
493.90	59054.06
494.08	59870.90
494.25	59938.78
494.43	60004.31
494.61	60598.81
494.79	60561.36
494.96	60158.79
495.14	60032.40
495.32	59131.29
495.49	58522.76
495.67	59299.81
495.85	60533.28
496.02	60905.42
496.20	60774.35
496.38	60310.92
496.55	60226.66
496.73	60509.87
496.91	60914.78
497.09	61324.38
497.26	61410.98
497.44	60933.51
497.62	60598.81
497.79	59934.10
497.97	58639.78
498.14	58754.47
498.32	59824.09
498.50	60552.00
498.67	61097.34
498.85	60963.93
499.03	61230.75
499.20	61382.89
499.38	61577.15
499.56	61286.93
499.73	60823.50
499.91	60479.44
500.08	60156.45
500.26	59531.53
500.44	59838.14
500.61	60697.11
500.79	60327.31
500.97	60090.91
501.14	60090.91
501.32	59739.83
501.49	59781.96
501.67	59987.93
501.84	60383.48
502.02	60608.17
502.20	60928.83
502.37	61095.00
502.55	60989.68
502.72	61549.07
502.90	61909.51
503.07	61680.14
503.25	61212.03
503.43	60654.98
503.60	60243.05
503.78	59470.67
503.95	59920.05
504.13	61132.45
504.30	61977.39
504.48	61663.75
504.65	61382.89
504.83	61219.05
505.01	61855.68
505.18	62131.86
505.36	62890.19
505.53	62819.98
505.71	62904.24
505.88	63089.14
506.06	62436.13
506.23	62134.20
506.41	61851.00
506.58	62218.46
506.76	62021.86
506.93	62159.95
507.11	61946.96
507.28	62075.69
507.46	61425.02
507.63	60947.55
507.81	60786.05
507.98	61085.64
508.16	61684.82
508.33	62185.69
508.50	62578.90
508.68	62628.05
508.85	63121.91
509.03	63021.26
509.20	63250.64
509.38	62499.33
509.55	61645.03
509.73	61984.41
509.90	62185.69
510.08	62431.45
510.25	62337.83
510.42	62265.27
510.60	62071.01
510.77	62419.75
510.95	62812.96
511.12	63056.37
511.30	63178.08
511.47	63447.24
511.64	63444.90
511.82	63260.00
511.99	62576.56
512.17	62176.33
512.34	61612.26
512.51	61968.02
512.69	62019.52
512.86	62082.71
513.04	62452.51
513.21	62707.63
513.38	62314.42
513.56	61731.63
513.73	61219.05
513.90	61516.30
514.08	61502.26
514.25	61736.31
514.43	61975.05
514.60	62157.61
514.77	62143.56
514.95	62265.27
515.12	62223.14
515.29	62461.88
515.47	62822.32
515.64	62948.71
515.81	62527.41
515.99	62127.18
516.16	60800.10
516.33	58787.24
516.51	57769.10
516.68	56985.02
516.85	56364.78
517.03	56980.34
517.20	59035.33
517.37	61396.93
517.54	62166.97
517.72	61872.06
517.89	59882.61
518.06	57759.74
518.24	57738.68
518.41	59735.15
518.58	61022.45
518.75	61331.40
518.93	61268.20
519.10	61230.75
519.27	61602.90
519.45	61832.27
519.62	62436.13
519.79	62862.11
519.96	62728.70
520.14	62223.14
520.31	61556.09
520.48	61389.91
520.65	61829.93
520.83	62712.31
521.00	62958.07
521.17	62557.84
521.34	62227.82
521.52	62466.56
521.69	63007.22
521.86	63407.45
522.03	63285.75
522.20	62155.27
522.38	61153.52
522.55	61057.56
522.72	61621.62
522.89	61858.02
523.07	62007.81
523.24	62337.83
523.41	63084.46
523.58	63330.22
523.75	63690.66
523.92	63412.13
524.10	63538.52
524.27	63533.84
524.44	63370.00
524.61	63248.30
524.78	63157.02
524.96	63084.46
525.13	62852.75
525.30	63084.46
525.47	63533.84
525.64	63611.08
525.81	62770.83
525.98	61682.48
526.16	60245.39
526.33	59791.33
526.50	59503.44
526.67	59084.48
526.84	59653.23
527.01	60589.45
527.18	61408.64
527.36	61935.26
527.53	62901.90
527.70	63164.04
527.87	62646.78
528.04	62150.59
528.21	62770.83
528.38	62960.41
528.55	63627.46
528.72	64025.35
528.89	64306.22
529.07	63847.47
529.24	63414.47
529.41	62803.59
529.58	62120.16
529.75	62382.30
529.92	62822.32
530.09	63082.12
530.26	63622.78
530.43	63781.94
530.60	63810.03
530.77	63980.88
530.94	63964.50
531.11	63704.70
531.28	63419.16
531.46	63049.35
531.63	63278.72
531.80	63269.36
531.97	62745.08
532.14	62183.35
532.31	61261.18
532.48	60589.45
532.65	60694.77
532.82	61504.60
532.99	62429.11
533.16	62632.74
533.33	63269.36
533.50	63257.66
533.67	62452.51
533.84	62162.29
534.01	62291.02
534.18	62436.13
534.35	62892.54
534.52	62454.86
534.69	62721.68
534.86	62925.30
535.03	63276.38
535.20	63657.89
535.37	63920.03
535.54	63929.39
535.71	63863.86
535.88	63477.67
536.05	62651.46
536.22	62527.41
536.38	62239.53
536.55	61820.57
536.72	61537.36
536.89	61368.85
537.06	62061.64
537.23	62773.17
537.40	63007.22
537.57	63047.01
537.74	62728.70
537.91	62695.93
538.08	62752.10
538.25	62819.98
538.42	63140.63
538.59	62843.38
538.75	62176.33
538.92	61811.21
539.09	61839.29
539.26	61703.54
539.43	61462.47
539.60	61495.24
539.77	61846.32
539.94	61680.14
540.11	61038.83
540.28	60514.55
540.44	60605.83
540.61	60764.99
540.78	60947.55
540.95	61549.07
541.12	61736.31
541.29	62185.69
541.46	62337.83
541.62	62365.91
541.79	62164.63
541.96	61691.84
542.13	61635.67
542.30	61813.55
542.47	62155.27
542.63	61968.02
542.80	61614.60
542.97	61740.99
543.14	61495.24
543.31	61731.63
543.48	61998.45
543.64	62918.28
543.81	63173.40
543.98	62960.41
544.15	62349.53
544.32	61726.95
544.48	61836.95
544.65	62171.65
544.82	62630.40
544.99	62372.94
545.16	62024.20
545.32	61717.59
545.49	62314.42
545.66	62993.18
545.83	62368.26
546.00	62061.64
546.16	61708.22
546.33	61820.57
546.50	61778.44
546.67	62487.62
546.83	62005.47
547.00	62068.67
547.17	61492.89
547.34	60830.52
547.50	60767.33
547.67	61296.29
547.84	61216.71
548.00	61733.97
548.17	62031.22
548.34	61918.87
548.51	61762.06
548.67	61972.70
548.84	61944.62
549.01	61963.34
549.18	61897.81
549.34	61659.07
549.51	61846.32
549.68	61853.34
549.84	61581.84
550.01	61371.19
550.18	61279.91
550.34	61497.58
550.51	61499.92
550.68	61518.64
550.84	61055.21
551.01	61010.74
551.18	61132.45
551.34	61366.51
551.51	61703.54
551.68	61872.06
551.84	61860.36
552.01	61876.74
552.18	61614.60
552.34	60917.12
552.51	60664.35
552.68	60465.40
552.84	61001.38
553.01	61212.03
553.18	61261.18
553.34	61261.18
553.51	61312.67
553.67	61663.75
553.84	61834.61
554.01	61469.49
554.17	61338.42
554.34	61544.39
554.51	61446.08
554.67	61773.76
554.84	61684.82
555.00	61422.68
555.17	61118.41
555.33	61172.24
555.50	61132.45
555.67	61193.31
555.83	60896.06
556.00	60715.84
556.16	60626.90
556.33	60437.31
556.50	60334.33
556.66	60226.66
556.83	60097.94
556.99	59969.21
557.16	60420.93
557.32	60596.47
557.49	60767.33
557.65	60757.97
557.82	60544.98
557.98	60584.77
558.15	60191.56
558.32	59435.56
558.48	58714.68
558.65	58780.21
558.81	59213.21
558.98	59463.65
559.14	59634.51
559.31	59664.94
559.47	59611.10
559.64	59587.70
559.80	59056.40
559.97	59138.32
560.13	59475.35
560.30	60453.70
560.46	60884.36
560.63	61169.90
560.79	61106.71
560.96	60591.79
561.12	59779.62
561.29	58850.43
561.45	58770.85
561.61	59536.21
561.78	59891.97
561.94	59859.20
562.11	59501.10
562.27	59629.83
562.44	59728.13
562.60	59753.88
562.77	60093.25
562.93	60257.09
563.10	59894.31
563.26	59564.29
563.42	59700.04
563.59	59276.41
563.75	59358.33
563.92	59309.18
564.08	59334.92
564.24	59566.63
564.41	59718.77
564.57	59597.06
564.74	59519.82
564.90	59374.71
565.07	59178.10
565.23	58880.86
565.39	58422.11
565.56	58309.77
565.72	58223.17
565.88	58412.75
566.05	58569.57
566.21	58569.57
566.38	58691.27
566.54	58934.69
566.70	59238.96
566.87	59295.13
567.03	59557.27
567.19	59435.56
567.36	59393.43
567.52	59133.63
567.68	59016.61
567.85	58291.04
568.01	57909.53
568.17	57822.93
568.34	57921.24
568.50	57832.30
568.66	57869.75
568.83	58314.45
568.99	58265.30
569.15	58546.16
569.32	58391.68
569.48	58206.78
569.64	58124.86
569.81	57556.11
569.97	57773.78
570.13	57567.82
570.30	57389.94
570.46	56769.69
570.62	56418.61
570.78	56418.61
570.95	56540.32
571.11	57249.50
571.27	57525.69
571.43	57488.24
571.60	57626.33
571.76	57996.13
571.92	58192.74
572.09	58511.05
572.25	58262.96
572.41	58279.34
572.57	58047.63
572.74	58080.39
572.90	57946.98
573.06	57829.96
573.22	57832.30
573.38	57677.82
573.55	57841.66
573.71	57883.79
573.87	57631.01
574.03	57586.54
574.20	57591.22
574.36	57331.42
574.52	57275.25
574.68	57286.95
574.84	56750.97
575.01	56402.23
575.17	56184.56
575.33	56521.60
575.49	56816.50
575.65	56959.28
575.82	56755.65
575.98	56566.07
576.14	56804.80
576.30	57183.97
576.46	56921.83
576.62	57118.43
576.79	56970.98
576.95	56479.47
577.11	56629.26
577.27	56683.09
577.43	56844.59
577.59	56343.72
577.75	56067.53
577.92	55613.47
578.08	55538.57
578.24	55332.60
578.40	55817.10
578.56	55927.10
578.72	56100.30
578.88	56137.75
579.04	56427.98
579.21	56348.40
579.37	56545.00
579.53	56477.13
579.69	56390.53
579.85	56821.19
580.01	56413.93
580.17	56301.59
580.33	56107.32
580.49	56226.69
580.65	56381.16
580.82	56704.16
580.98	56488.83
581.14	56392.87
581.30	56322.65
581.46	56245.41
581.62	56629.26
581.78	56570.75
581.94	56706.50
582.10	56591.81
582.26	56610.54
582.42	56512.23
582.58	56699.48
582.74	56523.94
582.90	56566.07
583.06	56573.09
583.22	56324.99
583.38	56383.51
583.54	56137.75
583.70	56189.24
583.86	56254.78
584.02	56245.41
584.18	56236.05
584.34	56062.85
584.50	56067.53
584.66	56009.02
584.82	55569.00
584.98	55716.45
585.14	55348.99
