SpectraSuite Data File
++++++++++++++++++++++++++++++++++++
Date: Mon Oct 07 14:53:59 GMT-05:00 2013
User: price-jones
Dark Spectrum Present: No
Reference Spectrum Present: No
Number of Sampled Component Spectra: 1
Spectrometers: USB2+H05261
Integration Time (usec): 100000 (USB2+H05261)
Spectra Averaged: 1 (USB2+H05261)
Boxcar Smoothing: 0 (USB2+H05261)
Correct for Electrical Dark: No (USB2+H05261)
Strobe/Lamp Enabled: No (USB2+H05261)
Correct for Detector Non-linearity: No (USB2+H05261)
Correct for Stray Light: No (USB2+H05261)
Number of Pixels in Processed Spectrum: 2048
>>>>>Begin Processed Spectral Data<<<<<
365.73	0.00
365.92	0.00
366.12	0.00
366.32	0.00
366.52	0.00
366.72	0.00
366.91	0.00
367.11	0.00
367.31	0.00
367.51	0.00
367.70	0.00
367.90	0.00
368.10	0.00
368.30	0.00
368.49	0.00
368.69	0.00
368.89	0.00
369.09	0.00
369.28	0.00
369.48	0.00
369.68	0.00
369.87	0.00
370.07	0.00
370.27	0.00
370.47	772.38
370.66	3524.85
370.86	4077.21
371.06	4575.75
371.25	4545.32
371.45	4145.09
371.65	3817.41
371.84	3463.99
372.04	3728.47
372.24	4114.66
372.44	4234.03
372.63	4189.56
372.83	3992.95
373.03	3417.18
373.22	3126.96
373.42	3302.50
373.62	3735.50
373.81	4208.28
374.01	4248.07
374.21	3688.68
374.40	3468.67
374.60	3665.28
374.79	4180.20
374.99	4798.10
375.19	5139.82
375.38	5160.88
375.58	4880.02
375.78	4774.69
375.97	4882.36
376.17	4971.30
376.37	4903.42
376.56	5060.24
376.76	5481.53
376.95	5701.54
377.15	5860.70
377.35	6387.32
377.54	6719.68
377.74	6759.47
377.93	6841.39
378.13	6637.76
378.33	6516.05
378.52	5834.96
378.72	5591.54
378.91	5465.15
379.11	5465.15
379.31	5249.82
379.50	5069.60
379.70	5661.76
379.89	6148.59
380.09	6628.40
380.28	6665.85
380.48	6729.04
380.68	6511.37
380.87	6438.81
381.07	6038.58
381.26	5533.03
381.46	5217.05
381.65	4954.91
381.85	4863.63
382.04	4547.66
382.24	4463.40
382.43	4098.28
382.63	4086.58
382.83	4056.15
383.02	4154.45
383.22	4067.85
383.41	4133.39
383.61	4341.69
383.80	4856.61
384.00	5511.96
384.19	6232.85
384.39	6623.72
384.58	6579.25
384.78	6539.46
384.97	6520.73
385.17	6300.72
385.36	5886.45
385.56	5413.66
385.75	5844.32
385.95	6118.16
386.14	6726.70
386.34	6839.05
386.53	6539.46
386.72	5980.07
386.92	6052.63
387.11	6370.94
387.31	6803.94
387.50	6724.36
387.70	6450.52
387.89	6319.45
388.09	6473.92
388.28	6644.78
388.48	6642.44
388.67	7162.04
388.86	7836.11
389.06	8215.28
389.25	8615.51
389.45	9001.70
389.64	8615.51
389.84	8741.90
390.03	8479.76
390.22	8449.33
390.42	8737.22
390.61	9380.87
390.81	10036.22
391.00	10150.90
391.19	10094.73
391.39	9877.06
391.58	9249.80
391.78	8631.90
391.97	8262.09
392.16	7889.95
392.36	7300.13
392.55	5921.56
392.75	4727.88
392.94	3723.79
393.13	3555.27
393.33	4351.06
393.52	5458.13
393.71	6834.36
393.91	7854.84
394.10	8411.89
394.29	9022.77
394.49	9703.86
394.68	10551.14
394.88	10485.60
395.07	11094.14
395.26	10757.10
395.46	10558.16
395.65	9937.91
395.84	8704.45
396.04	7318.86
396.23	6129.86
396.42	5057.90
396.62	4847.25
396.81	5790.49
397.00	7157.36
397.19	8978.30
397.39	10555.82
397.58	12039.72
397.77	12699.75
397.97	13198.28
398.16	13387.86
398.35	13823.20
398.55	14267.91
398.74	14895.17
398.93	15297.74
399.12	14916.23
399.32	14190.67
399.51	14553.45
399.70	15807.98
399.90	15529.45
400.09	15412.43
400.28	15253.27
400.47	15264.97
400.67	16299.49
400.86	16697.38
401.05	16430.56
401.24	16821.43
401.44	17008.67
401.63	16854.20
401.82	17125.70
402.01	16898.67
402.21	17319.96
402.40	17621.89
402.59	16819.09
402.78	16030.33
402.97	15646.48
403.17	16329.92
403.36	17151.45
403.55	18064.25
403.74	18092.34
403.93	17291.88
404.13	16269.06
404.32	15559.88
404.51	16421.20
404.70	17504.87
404.89	17612.53
405.09	17451.03
405.28	16842.50
405.47	16758.24
405.66	17067.19
405.85	16365.03
406.05	15866.49
406.24	16248.00
406.43	16622.48
406.62	17415.93
406.81	17532.95
407.00	17048.46
407.20	16435.24
407.39	16666.95
407.58	17429.97
407.77	17830.20
407.96	18478.53
408.15	18941.96
408.34	19077.71
408.54	19784.55
408.73	19873.49
408.92	19381.98
409.11	19159.63
409.30	18232.77
409.49	17069.53
409.68	15960.11
409.87	15447.54
410.07	16669.30
410.26	17860.63
410.45	18815.57
410.64	19370.27
410.83	19948.39
411.02	20304.15
411.21	21369.09
411.40	20812.04
411.59	20769.91
411.78	21109.29
411.98	20512.46
412.17	20739.49
412.36	20318.19
412.55	21013.33
412.74	19836.04
412.93	19779.87
413.12	19655.82
413.31	21869.97
413.50	21769.32
413.69	22469.14
413.88	21614.85
414.07	20332.23
414.26	21116.31
414.45	21397.18
414.64	22031.46
414.83	21951.88
415.02	21809.11
415.22	21497.82
415.41	21944.86
415.60	22553.40
415.79	23498.98
415.98	24247.95
416.17	23730.69
416.36	23115.13
416.55	23510.68
416.74	22661.07
416.93	21514.20
417.12	21666.34
417.31	22033.80
417.50	22183.60
417.69	23056.62
417.88	23068.32
418.07	22845.97
418.26	22342.75
418.45	22504.25
418.64	23616.01
418.83	24013.90
419.02	24133.26
419.21	23826.65
419.39	22473.82
419.58	21762.30
419.77	21905.07
419.96	22979.38
420.15	23840.70
420.34	24444.56
420.53	25469.71
420.72	25949.52
420.91	25472.05
421.10	25212.25
421.29	24971.18
421.48	23985.81
421.67	25362.04
421.86	24732.44
422.05	23035.55
422.24	20664.59
422.43	20613.10
422.61	22565.10
422.80	24105.18
422.99	24584.99
423.18	23564.51
423.37	23070.66
423.56	23173.64
423.75	23674.52
423.94	23953.04
424.13	22459.78
424.32	22916.19
424.50	23190.03
424.69	22754.69
424.88	23047.26
425.07	22820.22
425.26	22614.26
425.45	22356.80
425.64	21621.87
425.83	21741.24
426.01	23435.78
426.20	23756.44
426.39	23733.03
426.58	21986.99
426.77	20266.70
426.96	19719.01
427.15	20264.36
427.33	21909.75
427.52	23133.86
427.71	23089.38
427.90	22637.66
428.09	22789.80
428.28	22167.21
428.46	21415.90
428.65	21010.99
428.84	21385.47
429.03	21724.85
429.22	20812.04
429.40	19669.86
429.59	17991.70
429.78	15634.78
429.97	15836.06
430.16	15953.09
430.34	16231.62
430.53	16123.95
430.72	16575.67
430.91	18010.42
431.10	21223.98
431.28	25006.28
431.47	27234.47
431.66	27234.47
431.85	24589.67
432.03	22703.20
432.22	21984.65
432.41	22614.26
432.60	25443.96
432.79	26518.27
432.97	27185.32
433.16	26417.63
433.35	24194.12
433.54	21748.26
433.72	20175.42
433.91	21048.44
434.10	23506.00
434.28	25167.78
434.47	26539.33
434.66	25895.69
434.85	25270.76
435.03	25348.00
435.22	25792.70
435.41	27433.42
435.59	27515.34
435.78	27768.12
435.97	27992.81
436.16	28528.79
436.34	28437.51
436.53	27531.72
436.72	27517.68
436.90	26190.59
437.09	26155.49
437.28	25603.12
437.46	26916.16
437.65	26267.83
437.84	24610.73
438.02	22867.03
438.21	22775.75
438.40	23686.22
438.58	25626.53
438.77	26195.28
438.96	26888.07
439.14	27852.38
439.33	28783.91
439.52	29116.26
439.70	28397.72
439.89	27342.14
440.08	26757.00
440.26	26544.02
440.45	27686.20
440.63	29476.71
440.82	31318.71
441.01	30398.88
441.19	29724.80
441.38	30911.46
441.57	31978.74
441.75	32575.58
441.94	32783.88
442.12	32350.88
442.31	32814.31
442.50	32739.41
442.68	32217.47
442.87	32018.53
443.05	31700.22
443.24	31777.45
443.43	32917.29
443.61	33408.81
443.80	33745.84
443.98	31840.65
444.17	32006.83
444.35	33949.47
444.54	34539.29
444.73	33305.82
444.91	32180.03
445.10	30913.80
445.28	29998.65
445.47	29495.43
445.65	30045.46
445.84	30319.30
446.02	31440.42
446.21	31768.09
446.39	32002.14
446.58	32070.02
446.77	32973.47
446.95	33116.24
447.14	34384.81
447.32	34738.23
447.51	33818.40
447.69	32402.38
447.88	32294.71
448.06	32467.91
448.25	33434.55
448.43	33495.41
448.62	32718.35
448.80	32589.62
448.99	32898.57
449.17	33027.30
449.36	33216.88
449.54	34314.59
449.73	35288.26
449.91	35269.53
450.10	36730.03
450.28	36847.05
450.46	36367.24
450.65	36311.07
450.83	36163.62
451.02	35428.69
451.20	35409.96
451.39	35447.41
451.57	34822.49
451.76	35199.32
451.94	34815.47
452.13	34094.58
452.31	32900.91
452.49	31173.60
452.68	31227.43
452.86	31751.71
453.05	32077.04
453.23	33092.83
453.42	33851.17
453.60	34677.38
453.78	34937.18
453.97	34281.83
454.15	34583.76
454.34	34169.48
454.52	33790.31
454.70	33081.13
454.89	33755.21
455.07	33825.42
455.26	34012.66
455.44	35587.85
455.62	36098.08
455.81	36044.25
455.99	35786.79
456.17	35391.24
456.36	35924.88
456.54	36914.93
456.73	36781.52
456.91	37790.29
457.09	37684.97
457.28	38085.20
457.46	36699.60
457.64	36470.23
457.83	35386.56
458.01	34513.54
458.19	35526.99
458.38	35426.35
458.56	36947.70
458.74	36652.79
458.93	35920.20
459.11	35707.21
459.29	35386.56
459.48	36018.50
459.66	35388.90
459.84	36147.23
460.03	36308.73
460.21	36418.74
460.39	37376.01
460.57	37354.95
460.76	37680.28
460.94	37710.71
461.12	37479.00
461.31	37502.40
461.49	37024.93
461.67	36943.02
461.85	38342.66
462.04	38211.59
462.22	38878.64
462.40	38178.82
462.59	38078.18
462.77	38349.68
462.95	38363.72
463.13	37593.68
463.32	37479.00
463.50	37074.09
463.68	37134.94
463.86	36943.02
464.05	36605.98
464.23	36079.36
464.41	35526.99
464.59	35093.99
464.78	37144.30
464.96	36521.72
465.14	36421.08
465.32	37532.83
465.50	38230.31
465.69	38382.45
465.87	37816.04
466.05	37378.36
466.23	35679.13
466.41	34995.69
466.60	35606.57
466.78	35386.56
466.96	35828.92
467.14	36362.56
467.32	37242.60
467.51	36715.98
467.69	35709.55
467.87	36238.51
468.05	36833.01
468.23	36774.50
468.41	36648.11
468.60	37390.06
468.78	37090.47
468.96	36697.26
469.14	37783.27
469.32	37783.27
469.50	36339.16
469.69	35875.73
469.87	35749.34
470.05	35761.05
470.23	35505.93
470.41	35927.22
470.59	36498.31
470.77	36339.16
470.95	37158.34
471.14	37488.36
471.32	37331.54
471.50	39658.04
471.68	39847.62
471.86	40034.86
472.04	40257.21
472.22	40531.06
472.40	38527.56
472.58	38204.56
472.77	37734.12
472.95	38529.90
473.13	39379.51
473.31	38625.86
473.49	38155.41
473.67	39117.37
473.85	39414.62
474.03	40533.40
474.21	40655.11
474.39	40861.07
474.57	40825.96
474.75	41273.01
474.93	41041.29
475.12	40168.27
475.30	40013.80
475.48	40086.36
475.66	40744.05
475.84	40264.24
476.02	40072.31
476.20	39311.64
476.38	40168.27
476.56	41111.51
476.74	41649.83
476.92	42160.07
477.10	42293.48
477.28	43393.53
477.46	43665.03
477.64	44165.91
477.82	44179.95
478.00	44563.80
478.18	43636.95
478.36	43641.63
478.54	43374.81
478.72	43688.44
478.90	44708.91
479.08	45717.68
479.26	46220.90
479.44	46316.86
479.62	45954.08
479.80	46021.95
479.98	45806.62
480.16	46548.57
480.34	45841.73
480.52	46679.64
480.70	46433.89
480.88	46862.21
481.06	47494.15
481.24	47796.08
481.41	48336.74
481.59	49258.91
481.77	48758.04
481.95	47952.90
482.13	48278.23
482.31	48318.02
482.49	48406.96
482.67	48409.30
482.85	48879.75
483.03	49394.67
483.21	49886.18
483.39	49832.35
483.57	48879.75
483.74	48605.91
483.92	49247.21
484.10	49408.71
484.28	50012.57
484.46	50419.82
484.64	50864.52
484.82	49867.45
485.00	49640.42
485.18	48949.96
485.35	47772.67
485.53	44318.04
485.71	40973.42
485.89	40002.10
486.07	42153.05
486.25	45272.98
486.43	48322.70
486.61	48687.82
486.78	48545.05
486.96	48439.73
487.14	50422.16
487.32	50871.54
487.50	52107.35
487.68	52697.16
487.85	53020.16
488.03	53359.53
488.21	52722.91
488.39	51959.89
488.57	51269.43
488.75	50883.25
488.92	52552.05
489.10	54047.65
489.28	55351.33
489.46	55980.93
489.64	55913.06
489.81	55990.30
489.99	55536.23
490.17	55238.98
490.35	56144.77
490.53	55304.52
490.70	55018.97
490.88	54925.35
491.06	55987.95
491.24	55934.12
491.41	54969.82
491.59	53619.33
491.77	52650.35
491.95	53909.56
492.13	54822.37
492.30	55868.59
492.48	56797.78
492.66	57432.07
492.84	57200.35
493.01	57055.24
493.19	56535.64
493.37	56193.92
493.54	55920.08
493.72	56818.84
493.90	57361.85
494.08	58122.52
494.25	58253.59
494.43	58628.08
494.61	58841.07
494.79	58864.47
494.96	58560.20
495.14	58218.49
495.32	57155.88
495.49	56795.44
495.67	57633.35
495.85	58927.67
496.02	59449.61
496.20	59044.69
496.38	58717.02
496.55	58546.16
496.73	59154.70
496.91	59168.74
497.09	59786.64
497.26	59870.90
497.44	59377.05
497.62	58965.12
497.79	58265.30
497.97	56980.34
498.14	57286.95
498.32	58096.78
498.50	58745.11
498.67	59648.55
498.85	59365.35
499.03	59480.03
499.20	59772.60
499.38	60037.08
499.56	59604.08
499.73	59061.08
499.91	58920.65
500.08	58403.39
500.26	57593.56
500.44	58038.26
500.61	58878.52
500.79	58574.25
500.97	58260.62
501.14	58131.89
501.32	57911.88
501.49	57879.11
501.67	58216.14
501.84	58733.40
502.02	58904.26
502.20	59363.01
502.37	59400.46
502.55	59412.16
502.72	60006.65
502.90	60395.18
503.07	60011.34
503.25	59487.06
503.43	58932.35
503.60	58284.02
503.78	57647.39
503.95	58024.22
504.13	59316.20
504.30	59959.84
504.48	60058.15
504.65	59732.81
504.83	59875.58
505.01	60212.62
505.18	60399.86
505.36	60945.21
505.53	61036.49
505.71	61291.61
505.88	61399.27
506.06	60863.29
506.23	60484.12
506.41	59929.42
506.58	60399.86
506.76	60441.99
506.93	60090.91
507.11	59915.37
507.28	60168.15
507.46	59732.81
507.63	59243.64
507.81	58784.90
507.98	59271.73
508.16	59831.11
508.33	60463.06
508.50	60802.44
508.68	60795.42
508.85	61347.78
509.03	61338.42
509.20	61394.59
509.38	60523.91
509.55	59894.31
509.73	59856.86
509.90	60484.12
510.08	60821.16
510.25	60505.19
510.42	60449.02
510.60	60392.84
510.77	60575.40
510.95	61041.17
511.12	61214.37
511.30	61331.40
511.47	61731.63
511.64	61600.56
511.82	61331.40
511.99	60547.32
512.17	60334.33
512.34	59957.50
512.51	60039.42
512.69	60165.81
512.86	60451.36
513.04	60608.17
513.21	60629.24
513.38	60420.93
513.56	59936.44
513.73	59468.33
513.90	59564.29
514.08	59590.04
514.25	59887.29
514.43	60163.47
514.60	60074.53
514.77	60580.09
514.95	60385.82
515.12	60109.64
515.29	60612.85
515.47	60809.46
515.64	61162.88
515.81	60842.23
515.99	60111.98
516.16	59070.44
516.33	56809.48
516.51	55346.65
516.68	54843.43
516.85	54436.18
517.03	54721.72
517.20	57113.75
517.37	59423.86
517.54	60278.16
517.72	59868.56
517.89	57495.26
518.06	55213.24
518.24	55559.64
518.41	57773.78
518.58	59082.14
518.75	59227.26
518.93	59381.73
519.10	59262.36
519.27	59770.26
519.45	59847.50
519.62	60526.25
519.79	60839.89
519.96	60659.66
520.14	60037.08
520.31	59461.31
520.48	59407.48
520.65	59791.33
520.83	60746.26
521.00	60980.32
521.17	60687.75
521.34	60271.14
521.52	60458.38
521.69	61116.07
521.86	61478.85
522.03	61109.05
522.20	59966.87
522.38	59117.25
522.55	59091.51
522.72	59686.00
522.89	59695.36
523.07	59966.87
523.24	60303.90
523.41	61050.53
523.58	61331.40
523.75	61567.79
523.92	61642.69
524.10	61673.12
524.27	61542.05
524.44	61382.89
524.61	61197.99
524.78	61052.87
524.96	60699.45
525.13	60999.04
525.30	61226.07
525.47	61609.92
525.64	61588.86
525.81	60816.48
525.98	59568.97
526.16	58174.02
526.33	57530.37
526.50	57502.28
526.67	56790.76
526.84	57513.98
527.01	58424.45
527.18	58941.71
527.36	59887.29
527.53	60858.61
527.70	60987.34
527.87	60324.97
528.04	60058.15
528.21	60507.53
528.38	61151.18
528.55	61862.70
528.72	61839.29
528.89	62059.30
529.07	61708.22
529.24	61256.50
529.41	60491.15
529.58	60135.38
529.75	60205.60
529.92	60666.69
530.09	61116.07
530.26	61469.49
530.43	61612.26
530.60	61656.73
530.77	61694.18
530.94	61991.43
531.11	61602.90
531.28	61139.47
531.46	61034.15
531.63	61197.99
531.80	61048.19
531.97	60657.32
532.14	59903.67
532.31	59042.35
532.48	58312.11
532.65	58408.07
532.82	59203.85
532.99	60280.50
533.16	60449.02
533.33	61165.22
533.50	60905.42
533.67	60257.09
533.84	59835.80
534.01	60107.30
534.18	60289.86
534.35	60594.13
534.52	60336.67
534.69	60601.15
534.86	60889.04
535.03	61083.30
535.20	61609.92
535.37	61872.06
535.54	62024.20
535.71	61572.47
535.88	61179.26
536.05	60659.66
536.22	60420.93
536.38	60004.31
536.55	59545.57
536.72	59030.65
536.89	59077.46
537.06	59664.94
537.23	60662.00
537.40	60666.69
537.57	60701.79
537.74	60659.66
537.91	60566.04
538.08	60252.41
538.25	60495.83
538.42	60570.72
538.59	60453.70
538.75	59889.63
538.92	59716.43
539.09	59568.97
539.26	59613.44
539.43	59236.62
539.60	59463.65
539.77	59365.35
539.94	59358.33
540.11	58742.77
540.28	58504.03
540.44	58253.59
540.61	58412.75
540.78	58738.08
540.95	59213.21
541.12	59636.85
541.29	59650.89
541.46	59999.63
541.62	59976.23
541.79	59758.56
541.96	59255.34
542.13	59138.32
542.30	59760.90
542.47	59585.36
542.63	59330.24
542.80	59353.65
542.97	59407.48
543.14	59161.72
543.31	59297.47
543.48	59686.00
543.64	60505.19
543.81	60849.25
543.98	60547.32
544.15	59983.25
544.32	59508.12
544.48	59573.66
544.65	59913.03
544.82	60104.96
544.99	60051.12
545.16	59566.63
545.32	59320.88
545.49	59976.23
545.66	60273.48
545.83	60025.38
546.00	59711.75
546.16	59386.41
546.33	59568.97
546.50	59449.61
546.67	59863.88
546.83	59241.30
547.00	59494.08
547.17	58904.26
547.34	58501.69
547.50	58361.26
547.67	59072.78
547.84	58693.61
548.00	59173.42
548.17	59606.42
548.34	59470.67
548.51	59480.03
548.67	59412.16
548.84	59576.00
549.01	59316.20
549.18	59351.30
549.34	59391.09
549.51	59255.34
549.68	59318.54
549.84	59180.45
550.01	58953.41
550.18	58887.88
550.34	58948.73
550.51	58981.50
550.68	58906.60
550.84	58595.31
551.01	58616.38
551.18	58754.47
551.34	58988.52
551.51	59173.42
551.68	59428.54
551.84	59597.06
552.01	59421.52
552.18	58972.14
552.34	58431.47
552.51	57902.51
552.68	57848.68
552.84	58316.79
553.01	58754.47
553.18	58515.73
553.34	58478.28
553.51	58686.59
553.67	59023.63
553.84	59070.44
554.01	58990.86
554.17	58869.15
554.34	58717.02
554.51	59056.40
554.67	59442.59
554.84	59068.10
555.00	58761.49
555.17	58480.63
555.33	58728.72
555.50	58489.99
555.67	58642.12
555.83	58375.30
556.00	58342.53
556.16	58368.28
556.33	57712.93
556.50	57757.40
556.66	57785.49
556.83	57293.97
556.99	57649.74
557.16	57656.76
557.32	57846.34
557.49	58241.89
557.65	58066.35
557.82	58010.18
557.98	57972.73
558.15	57186.31
558.32	56910.13
558.48	55938.80
558.65	56123.71
558.81	56395.21
558.98	56610.54
559.14	56886.72
559.31	57200.35
559.47	56914.81
559.64	56589.47
559.80	56530.96
559.97	56432.66
560.13	56804.80
560.30	57752.72
560.46	58286.36
560.63	58220.83
560.79	58506.37
560.96	58014.86
561.12	56790.76
561.29	56060.51
561.45	56236.05
561.61	56757.99
561.78	57076.30
561.94	57050.56
562.11	56772.03
562.27	56542.66
562.44	57137.16
562.60	57434.41
562.77	57418.02
562.93	57434.41
563.10	57322.06
563.26	56779.06
563.42	56786.08
563.59	56577.77
563.75	56598.83
563.92	56891.40
564.08	56718.20
564.24	56772.03
564.41	56933.53
564.57	56657.35
564.74	56545.00
564.90	56542.66
565.07	56442.02
565.23	56081.58
565.39	55554.96
565.56	55196.85
565.72	55351.33
565.88	55395.80
566.05	55463.67
566.21	55714.11
566.38	55796.03
566.54	55866.25
566.70	56306.27
566.87	56542.66
567.03	56390.53
567.19	56905.44
567.36	56523.94
567.52	56505.21
567.68	56016.04
567.85	55487.08
568.01	55154.72
568.17	54841.09
568.34	54979.18
568.50	54817.69
568.66	55018.97
568.83	55288.13
568.99	55248.35
569.15	55412.18
569.32	55260.05
569.48	55323.24
569.64	54901.95
569.81	54583.63
569.97	54576.61
570.13	54478.31
570.30	54103.82
570.46	53820.62
570.62	53160.59
570.78	52961.64
570.95	53514.01
571.11	53867.43
571.27	54178.72
571.43	54679.60
571.60	54700.66
571.76	54995.57
571.92	55110.25
572.09	55161.75
572.25	55264.73
572.41	55292.82
572.57	55082.17
572.74	55344.31
572.90	54681.94
573.06	54473.63
573.22	54616.40
573.38	54679.60
573.55	54815.35
573.71	54972.16
573.87	54553.21
574.03	54717.04
574.20	54564.91
574.36	54267.66
574.52	54211.49
574.68	53982.12
574.84	53619.33
575.01	53195.70
575.17	52978.03
575.33	53254.21
575.49	53476.56
575.65	53567.84
575.82	53385.28
575.98	53214.42
576.14	53490.60
576.30	53734.02
576.46	53932.96
576.62	53944.67
576.79	53724.66
576.95	53315.06
577.11	53275.27
577.27	53675.51
577.43	53460.18
577.59	53111.44
577.75	52800.15
577.92	52128.41
578.08	51866.27
578.24	51503.49
578.40	52238.42
578.56	52624.60
578.72	52465.45
578.88	52746.31
579.04	52687.80
579.21	53008.45
579.37	52917.17
579.53	53034.20
579.69	53085.69
579.85	53038.88
580.01	52900.79
580.17	52437.36
580.33	52523.96
580.49	52612.90
580.65	52921.85
580.82	53123.14
580.98	53148.88
581.14	52863.34
581.30	52992.07
581.46	52907.81
581.62	53247.19
581.78	52928.87
581.94	53160.59
582.10	53106.76
582.26	53291.66
582.42	53155.91
582.58	53186.33
582.74	53120.80
582.90	53113.78
583.06	53050.58
583.22	53148.88
583.38	52767.38
583.54	52509.92
583.70	52736.95
583.86	52849.30
584.02	52594.18
584.18	52631.63
584.34	52570.77
584.50	52486.51
584.66	52247.78
584.82	52016.07
584.98	51784.35
585.14	51639.24
