SpectraSuite Data File
++++++++++++++++++++++++++++++++++++
Date: Mon Oct 07 14:53:41 GMT-05:00 2013
User: price-jones
Dark Spectrum Present: No
Reference Spectrum Present: No
Number of Sampled Component Spectra: 1
Spectrometers: USB2+H05261
Integration Time (usec): 100000 (USB2+H05261)
Spectra Averaged: 1 (USB2+H05261)
Boxcar Smoothing: 0 (USB2+H05261)
Correct for Electrical Dark: No (USB2+H05261)
Strobe/Lamp Enabled: No (USB2+H05261)
Correct for Detector Non-linearity: No (USB2+H05261)
Correct for Stray Light: No (USB2+H05261)
Number of Pixels in Processed Spectrum: 2048
>>>>>Begin Processed Spectral Data<<<<<
365.73	0.00
365.92	0.00
366.12	0.00
366.32	0.00
366.52	0.00
366.72	0.00
366.91	0.00
367.11	0.00
367.31	0.00
367.51	0.00
367.70	0.00
367.90	0.00
368.10	0.00
368.30	0.00
368.49	0.00
368.69	0.00
368.89	0.00
369.09	0.00
369.28	0.00
369.48	0.00
369.68	0.00
369.87	0.00
370.07	0.00
370.27	0.00
370.47	498.53
370.66	2602.68
370.86	3098.87
371.06	3478.04
371.25	3454.63
371.45	3187.81
371.65	2825.03
371.84	2626.08
372.04	2846.09
372.24	3054.40
372.44	3307.18
372.63	3220.58
372.83	3056.74
373.03	2675.23
373.22	2436.50
373.42	2567.57
373.62	2944.39
373.81	3269.73
374.01	3047.38
374.21	2813.32
374.40	2679.91
374.60	2818.00
374.79	3211.22
374.99	3637.19
375.19	3957.85
375.38	4070.19
375.58	3819.75
375.78	3665.28
375.97	3719.11
376.17	3735.50
376.37	3875.93
376.56	3908.69
376.76	4264.46
376.95	4528.94
377.15	4795.76
377.35	4999.38
377.54	5132.79
377.74	5469.83
377.93	5177.26
378.13	5280.25
378.33	4983.00
378.52	4456.38
378.72	4334.67
378.91	4229.35
379.11	4292.54
379.31	4189.56
379.50	3999.98
379.70	4196.58
379.89	4929.17
380.09	4943.21
380.28	5266.21
380.48	5247.48
380.68	5032.15
380.87	5011.09
381.07	4519.57
381.26	4311.27
381.46	4002.32
381.65	3974.23
381.85	3747.20
382.04	3627.83
382.24	3293.13
382.43	3314.20
382.63	3199.51
382.83	3248.66
383.02	3148.02
383.22	3126.96
383.41	3187.81
383.61	3361.01
383.80	3908.69
384.00	4266.80
384.19	4884.70
384.39	5322.38
384.58	5144.50
384.78	5151.52
384.97	4990.02
385.17	4873.00
385.36	4608.51
385.56	4454.04
385.75	4500.85
385.95	4992.36
386.14	5453.45
386.34	5322.38
386.53	5046.20
386.72	4767.67
386.92	4861.29
387.11	4936.19
387.31	5369.19
387.50	5364.51
387.70	5067.26
387.89	5060.24
388.09	5074.28
388.28	5268.55
388.48	5401.96
388.67	5636.01
388.86	6078.37
389.06	6612.01
389.25	6925.65
389.45	7005.22
389.64	6825.00
389.84	6743.08
390.03	6846.07
390.22	6888.20
390.42	6949.05
390.61	7363.33
390.81	7915.69
391.00	8063.15
391.19	8135.70
391.39	7639.51
391.58	7335.24
391.78	6799.26
391.97	6682.23
392.16	6265.61
392.36	5640.69
392.55	4580.43
392.75	3723.79
392.94	2911.63
393.13	2906.95
393.33	3431.23
393.52	4430.63
393.71	5481.53
393.91	6310.08
394.10	6616.69
394.29	7335.24
394.49	7850.16
394.68	8446.99
394.88	8510.19
395.07	8905.74
395.26	8732.54
395.46	8528.91
395.65	7889.95
395.84	7185.44
396.04	5987.09
396.23	4863.63
396.42	3964.87
396.62	3854.86
396.81	4418.93
397.00	5940.28
397.19	7073.10
397.39	8571.04
397.58	9635.99
397.77	10349.85
397.97	10579.22
398.16	10736.04
398.35	11056.69
398.55	11339.90
398.74	11705.02
398.93	12292.49
399.12	11885.24
399.32	11412.45
399.51	11845.45
399.70	12746.56
399.90	12449.31
400.09	12540.59
400.28	12437.61
400.47	12376.75
400.67	13034.44
400.86	13364.46
401.05	13413.61
401.24	13476.80
401.44	13729.58
401.63	13820.86
401.82	13760.01
402.01	13813.84
402.21	13944.91
402.40	14019.81
402.59	13621.92
402.78	12912.74
402.97	12442.29
403.17	13315.31
403.36	13675.75
403.55	14567.49
403.74	14932.62
403.93	13916.83
404.13	13242.75
404.32	12510.16
404.51	13319.99
404.70	14319.40
404.89	14333.44
405.09	13706.18
405.28	13465.10
405.47	13762.35
405.66	13460.42
405.85	13348.08
406.05	13092.96
406.24	13097.64
406.43	13914.48
406.62	14024.49
406.81	14265.57
407.00	13717.88
407.20	13481.49
407.39	13600.85
407.58	14059.60
407.77	14623.67
407.96	15351.57
408.15	15173.69
408.34	15389.02
408.54	16016.29
408.73	16294.81
408.92	15939.05
409.11	15658.18
409.30	14628.35
409.49	13811.50
409.68	13114.02
409.87	12615.49
410.07	13577.45
410.26	14567.49
410.45	15454.56
410.64	15845.43
410.83	16098.20
411.02	16570.99
411.21	17493.16
411.40	17144.42
411.59	17394.86
411.78	16812.07
411.98	16823.77
412.17	17341.03
412.36	16851.86
412.55	16514.82
412.74	16266.72
412.93	16182.46
413.12	16278.43
413.31	17544.66
413.50	17841.90
413.69	18249.16
413.88	17401.88
414.07	17032.08
414.26	17294.22
414.45	18003.40
414.64	17926.16
414.83	17942.55
415.02	18029.15
415.22	17554.02
415.41	17968.29
415.60	18583.85
415.79	19506.02
415.98	19770.51
416.17	19875.83
416.36	19124.52
416.55	19061.32
416.74	18188.30
416.93	17994.04
417.12	17619.55
417.31	17989.36
417.50	18501.93
417.69	19094.09
417.88	18920.89
418.07	18778.12
418.26	18377.89
418.45	18420.02
418.64	19470.92
418.83	19899.23
419.02	19594.96
419.21	19817.32
419.39	19115.16
419.58	18125.11
419.77	17809.14
419.96	18764.07
420.15	19798.59
420.34	20250.32
420.53	21062.48
420.72	21160.78
420.91	21130.36
421.10	21003.97
421.29	21303.56
421.48	20098.18
421.67	20830.77
421.86	20521.82
422.05	19187.71
422.24	17149.11
422.43	16919.73
422.61	18555.77
422.80	20257.34
422.99	20276.06
423.18	19414.74
423.37	19136.22
423.56	19344.53
423.75	19522.41
423.94	20187.12
424.13	18850.67
424.32	18953.66
424.50	19215.80
424.69	19044.94
424.88	19009.83
425.07	18956.00
425.26	18993.45
425.45	18541.72
425.64	18118.09
425.83	18513.64
426.01	19466.24
426.20	19761.14
426.39	20144.99
426.58	18078.30
426.77	17060.16
426.96	16304.17
427.15	16901.01
427.33	18265.54
427.52	19346.87
427.71	19147.92
427.90	18941.96
428.09	19192.39
428.28	18562.79
428.46	17727.22
428.65	17420.61
428.84	17893.40
429.03	18295.97
429.22	17507.21
429.40	16442.26
429.59	15178.37
429.78	13020.40
429.97	13280.20
430.16	13455.74
430.34	13624.26
430.53	13624.26
430.72	13951.93
430.91	15166.67
431.10	17837.22
431.28	20943.11
431.47	22375.52
431.66	23061.30
431.85	20903.32
432.03	19260.27
432.22	18464.49
432.41	19412.40
432.60	20994.61
432.79	22129.77
432.97	22855.33
433.16	22295.94
433.35	20315.85
433.54	18090.00
433.72	17085.91
433.91	17589.13
434.10	19920.30
434.28	21282.49
434.47	22005.72
434.66	21937.84
434.85	21364.41
435.03	21504.84
435.22	21755.28
435.41	23175.98
435.59	22675.11
435.78	23477.91
435.97	24112.20
436.16	24002.19
436.34	23676.86
436.53	23051.94
436.72	23487.28
436.90	22272.54
437.09	22427.01
437.28	21710.81
437.46	22621.28
437.65	22754.69
437.84	20950.14
438.02	19248.57
438.21	18820.25
438.40	20166.06
438.58	21790.39
438.77	22642.34
438.96	22607.23
439.14	23709.63
439.33	24170.71
439.52	24601.37
439.70	24107.52
439.89	23419.40
440.08	22757.03
440.26	22537.02
440.45	23524.72
440.63	24966.49
440.82	26302.94
441.01	26132.08
441.19	25766.96
441.38	25642.91
441.57	26806.16
441.75	27805.56
441.94	27786.84
442.12	27089.36
442.31	27938.97
442.50	27674.49
442.68	27655.77
442.87	27349.16
443.05	26749.98
443.24	27562.15
443.43	28156.64
443.61	28481.98
443.80	28905.62
443.98	27012.12
444.17	26998.08
444.35	28297.08
444.54	28978.17
444.73	28596.67
444.91	27718.96
445.10	26359.11
445.28	24926.71
445.47	24959.47
445.65	25226.29
445.84	25898.03
446.02	26958.29
446.21	27061.27
446.39	27131.49
446.58	27637.05
446.77	28212.82
446.95	28212.82
447.14	29001.58
447.32	29652.25
447.51	28676.24
447.69	28058.34
447.88	27742.37
448.06	27805.56
448.25	28727.74
448.43	28753.48
448.62	27983.44
448.80	28123.88
448.99	28191.75
449.17	28449.21
449.36	28367.29
449.54	29174.78
449.73	30029.07
449.91	30017.37
450.10	30984.01
450.28	31517.65
450.46	31700.22
450.65	31653.40
450.83	31435.74
451.02	30405.90
451.20	30307.60
451.39	30288.87
451.57	30279.51
451.76	30242.06
451.94	29797.36
452.13	29359.68
452.31	28091.11
452.49	26885.73
452.68	27166.60
452.86	27150.21
453.05	27398.31
453.23	28591.98
453.42	29186.48
453.60	29816.08
453.78	30188.23
453.97	29898.00
454.15	29619.48
454.34	29261.38
454.52	29439.26
454.70	28982.85
454.89	29287.12
455.07	29170.10
455.26	29441.60
455.44	30206.95
455.62	31283.60
455.81	31365.52
455.99	31154.87
456.17	30321.64
456.36	30883.37
456.54	31864.05
456.73	31494.25
456.91	32446.85
457.09	32402.38
457.28	32711.33
457.46	32067.68
457.64	31484.89
457.83	30370.79
458.01	29949.50
458.19	30382.49
458.38	30569.74
458.56	31927.25
458.74	31798.52
458.93	31065.93
459.11	30607.19
459.29	30731.23
459.48	31185.30
459.66	30684.42
459.84	31044.87
460.03	31917.89
460.21	31314.03
460.39	32133.21
460.57	32584.94
460.76	32580.26
460.94	32657.49
461.12	32177.68
461.31	32648.13
461.49	32503.02
461.67	32591.96
461.85	33771.59
462.04	33350.29
462.22	33530.51
462.40	33467.32
462.59	33324.55
462.77	33586.69
462.95	33261.35
463.13	32781.54
463.32	32723.03
463.50	32357.91
463.68	32318.12
463.86	32535.79
464.05	32030.23
464.23	31648.72
464.41	30602.50
464.59	30848.26
464.78	32299.39
464.96	32161.30
465.14	31660.43
465.32	32264.28
465.50	33670.95
465.69	33326.89
465.87	33226.24
466.05	32126.19
466.23	30693.79
466.41	30242.06
466.60	30675.06
466.78	31173.60
466.96	31489.57
467.14	31676.81
467.32	32538.13
467.51	32346.20
467.69	30792.09
467.87	31498.93
468.05	32247.90
468.23	32283.01
468.41	32456.21
468.60	32538.13
468.78	32643.45
468.96	32058.32
469.14	32727.71
469.32	32842.40
469.50	31508.29
469.69	31952.99
469.87	31358.50
470.05	31470.84
470.23	31115.08
470.41	31597.23
470.59	31695.53
470.77	31655.75
470.95	32460.89
471.14	32587.28
471.32	32708.99
471.50	35173.57
471.68	34766.32
471.86	35042.50
472.04	35346.77
472.22	35510.61
472.40	34129.69
472.58	33139.65
472.77	33399.44
472.95	33537.54
473.13	34684.40
473.31	33385.40
473.49	33787.97
473.67	34604.82
473.85	34590.78
474.03	35318.68
474.21	35847.64
474.39	36348.52
474.57	36313.41
474.75	35889.77
474.93	36215.11
475.12	34944.20
475.30	35150.17
475.48	35182.93
475.66	36072.34
475.84	35667.42
476.02	35697.85
476.20	34672.70
476.38	36023.19
476.56	36495.97
476.74	36882.16
476.92	37303.46
477.10	37811.35
477.28	38380.10
477.46	38527.56
477.64	39349.09
477.82	39012.05
478.00	39337.38
478.18	39131.42
478.36	38653.95
478.54	38319.25
478.72	38827.15
478.90	40093.38
479.08	41024.91
479.26	41619.41
479.44	41137.26
479.62	40992.14
479.80	41078.74
479.98	41008.53
480.16	41336.20
480.34	41008.53
480.52	41598.34
480.70	41881.55
480.88	41813.67
481.06	42316.89
481.24	42979.26
481.41	43585.46
481.59	44350.81
481.77	44119.10
481.95	43540.99
482.13	43346.72
482.31	43475.45
482.49	44086.33
482.67	43833.55
482.85	44289.96
483.03	44296.98
483.21	44945.31
483.39	45095.10
483.57	44690.19
483.74	43969.30
483.92	44266.55
484.10	44477.20
484.28	45170.00
484.46	46134.30
484.64	46440.91
484.82	45399.37
485.00	45078.72
485.18	44301.66
485.35	42689.03
485.53	39819.53
485.71	36226.81
485.89	35840.62
486.07	37434.53
486.25	40615.32
486.43	43047.13
486.61	44226.76
486.78	43821.85
486.96	44009.09
487.14	45839.39
487.32	46216.22
487.50	47571.39
487.68	48610.59
487.85	49329.13
488.03	49268.28
488.21	48835.28
488.39	48116.73
488.57	47569.05
488.75	46850.50
488.92	48006.73
489.10	50363.65
489.28	51959.89
489.46	52566.09
489.64	52273.52
489.81	52603.54
489.99	52114.37
490.17	52210.33
490.35	52657.37
490.53	51578.39
490.70	51639.24
490.88	51540.94
491.06	52413.96
491.24	52666.73
491.41	51559.66
491.59	49951.71
491.77	48734.63
491.95	49965.76
492.13	51379.44
492.30	52399.91
492.48	53432.09
492.66	54031.27
492.84	53890.83
493.01	53441.45
493.19	53233.14
493.37	52940.58
493.54	52591.84
493.72	53169.95
493.90	54246.60
494.08	54972.16
494.25	55206.22
494.43	55538.57
494.61	55866.25
494.79	55938.80
494.96	55583.04
495.14	55166.43
495.32	54356.60
495.49	53609.97
495.67	54443.20
495.85	55814.76
496.02	56369.46
496.20	56205.62
496.38	55824.12
496.55	55814.76
496.73	56313.29
496.91	56271.16
497.09	56816.50
497.26	56865.66
497.44	56371.80
497.62	56172.86
497.79	55311.54
497.97	53806.58
498.14	53888.49
498.32	55082.17
498.50	56254.78
498.67	56687.78
498.85	56591.81
499.03	56603.52
499.20	56994.39
499.38	57048.22
499.56	56640.96
499.73	56076.90
499.91	55999.66
500.08	55590.06
500.26	54855.14
500.44	55128.98
500.61	55934.12
500.79	55676.66
500.97	55257.71
501.14	55356.01
501.32	55210.90
501.49	55187.49
501.67	55297.50
501.84	56114.34
502.02	56193.92
502.20	56547.34
502.37	56367.12
502.55	56650.33
502.72	57027.15
502.90	57546.75
503.07	57270.57
503.25	57041.20
503.43	56025.40
503.60	55643.90
503.78	54939.39
503.95	55037.70
504.13	56570.75
504.30	57492.92
504.48	57190.99
504.65	56877.36
504.83	56928.85
505.01	57492.92
505.18	57794.85
505.36	58410.41
505.53	58599.99
505.71	58618.72
505.88	58702.98
506.06	58253.59
506.23	57968.05
506.41	57565.48
506.58	57645.05
506.76	57654.42
506.93	57708.25
507.11	57448.45
507.28	57572.50
507.46	57251.84
507.63	56584.79
507.81	56456.06
507.98	56711.18
508.16	57336.10
508.33	57736.34
508.50	57958.69
508.68	58340.19
508.85	58862.13
509.03	58801.28
509.20	58918.31
509.38	58005.50
509.55	57167.58
509.73	57279.93
509.90	58061.67
510.08	58073.37
510.25	57925.92
510.42	57984.43
510.60	57865.06
510.77	58129.54
510.95	58489.99
511.12	58934.69
511.30	58934.69
511.47	59278.75
511.64	59182.79
511.82	59032.99
511.99	58075.71
512.17	57771.44
512.34	57272.91
512.51	57542.07
512.69	57719.95
512.86	57855.70
513.04	58239.55
513.21	58178.70
513.38	57975.07
513.56	57558.45
513.73	56676.07
513.90	57013.11
514.08	57123.11
514.25	57509.30
514.43	57925.92
514.60	57621.65
514.77	57741.02
514.95	57865.06
515.12	57888.47
515.29	58110.82
515.47	58356.58
515.64	58761.49
515.81	58277.00
515.99	57792.51
516.16	56624.58
516.33	54171.70
516.51	52430.34
516.68	51669.67
516.85	51262.41
517.03	51398.16
517.20	54157.66
517.37	56788.42
517.54	58150.61
517.72	57368.87
517.89	55412.18
518.06	52465.45
518.24	52956.96
518.41	54986.21
518.58	56683.09
518.75	56757.99
518.93	56884.38
519.10	56530.96
519.27	57017.79
519.45	57670.80
519.62	58351.90
519.79	58642.12
519.96	58494.67
520.14	57982.09
520.31	56891.40
520.48	56968.64
520.65	57165.24
520.83	58141.25
521.00	58740.42
521.17	58431.47
521.34	57801.87
521.52	58174.02
521.69	58749.79
521.86	59196.83
522.03	59023.63
522.20	57752.72
522.38	56708.84
522.55	56615.22
522.72	57237.80
522.89	57537.39
523.07	57717.61
523.24	57996.13
523.41	59030.65
523.58	58892.56
523.75	59657.91
523.92	59299.81
524.10	59168.74
524.27	59470.67
524.44	59016.61
524.61	58920.65
524.78	58714.68
524.96	58646.80
525.13	58752.13
525.30	58967.46
525.47	59393.43
525.64	59428.54
525.81	58707.66
525.98	57261.21
526.16	55962.21
526.33	55208.56
526.50	54859.82
526.67	54684.28
526.84	54901.95
527.01	55924.76
527.18	56718.20
527.36	57792.51
527.53	58485.31
527.70	58754.47
527.87	58319.13
528.04	58021.88
528.21	58253.59
528.38	59089.16
528.55	59421.52
528.72	59781.96
528.89	59854.52
529.07	59674.30
529.24	59224.92
529.41	58354.24
529.58	57748.04
529.75	57907.19
529.92	58478.28
530.09	58576.59
530.26	59395.77
530.43	59348.96
530.60	59571.32
530.77	59817.07
530.94	59887.29
531.11	59503.44
531.28	59114.91
531.46	59040.01
531.63	58997.88
531.80	59051.72
531.97	58546.16
532.14	58054.65
532.31	56809.48
532.48	56058.17
532.65	56296.91
532.82	57017.79
532.99	58190.40
533.16	58609.35
533.33	59178.10
533.50	58803.62
533.67	58124.86
533.84	57757.40
534.01	58150.61
534.18	58040.60
534.35	58576.59
534.52	58174.02
534.69	58370.62
534.86	58934.69
535.03	58990.86
535.20	59625.15
535.37	59512.80
535.54	59906.01
535.71	59409.82
535.88	59423.86
536.05	58525.10
536.22	58232.53
536.38	58096.78
536.55	57638.03
536.72	57247.16
536.89	56809.48
537.06	57893.15
537.23	58539.14
537.40	58740.42
537.57	58553.18
537.74	58581.27
537.91	58590.63
538.08	58422.11
538.25	58342.53
538.42	58543.82
538.59	58585.95
538.75	57890.81
538.92	57701.23
539.09	57462.49
539.26	57331.42
539.43	57284.61
539.60	57392.28
539.77	57542.07
539.94	57511.64
540.11	56500.53
540.28	56081.58
540.44	56004.34
540.61	56692.46
540.78	56757.99
540.95	57083.33
541.12	57453.13
541.29	57853.36
541.46	58195.08
541.62	58185.72
541.79	57998.48
541.96	57347.81
542.13	57434.41
542.30	57586.54
542.47	57855.70
542.63	57497.60
542.80	57223.76
542.97	57722.29
543.14	57305.68
543.31	57293.97
543.48	57911.88
543.64	58511.05
543.81	58904.26
543.98	58810.64
544.15	58103.80
544.32	57621.65
544.48	57661.44
544.65	58141.25
544.82	58431.47
544.99	58047.63
545.16	57673.14
545.32	57373.55
545.49	58120.18
545.66	58681.91
545.83	58351.90
546.00	58122.52
546.16	57609.95
546.33	57544.41
546.50	57696.55
546.67	58218.49
546.83	57467.17
547.00	57696.55
547.17	57069.28
547.34	56690.12
547.50	56491.17
547.67	56837.57
547.84	56903.10
548.00	57172.27
548.17	57818.25
548.34	57797.19
548.51	57726.97
548.67	57436.75
548.84	57813.57
549.01	57584.20
549.18	57715.27
549.34	57645.05
549.51	57523.35
549.68	57647.39
549.84	57221.42
550.01	57169.93
550.18	57064.60
550.34	57146.52
550.51	57249.50
550.68	57293.97
550.84	57001.41
551.01	56961.62
551.18	56830.55
551.34	57141.84
551.51	57331.42
551.68	57345.47
551.84	57865.06
552.01	57432.07
552.18	57476.54
552.34	56662.03
552.51	56144.77
552.68	56308.61
552.84	56596.49
553.01	57123.11
553.18	56706.50
553.34	57013.11
553.51	56933.53
553.67	57336.10
553.84	57460.15
554.01	57450.79
554.17	57130.14
554.34	57301.00
554.51	57102.05
554.67	57539.73
554.84	57455.47
555.00	57064.60
555.17	56910.13
555.33	56842.25
555.50	56825.87
555.67	56987.36
555.83	56561.39
556.00	56353.08
556.16	56357.76
556.33	55994.98
556.50	55803.05
556.66	55913.06
556.83	55576.02
556.99	55800.71
557.16	55936.46
557.32	56294.56
557.49	56615.22
557.65	56378.82
557.82	56418.61
557.98	56112.00
558.15	55629.85
558.32	54836.41
558.48	54003.18
558.65	54085.10
558.81	54581.29
558.98	55072.81
559.14	55267.07
559.31	55276.43
559.47	55325.58
559.64	54892.58
559.80	54548.53
559.97	54361.28
560.13	55185.15
560.30	56231.37
560.46	56437.34
560.63	56797.78
560.79	56802.46
560.96	56217.33
561.12	55372.39
561.29	54054.67
561.45	54471.29
561.61	54770.88
561.78	55056.42
561.94	55377.08
562.11	54894.92
562.27	54981.52
562.44	55437.93
562.60	55632.19
562.77	55866.25
562.93	55606.45
563.10	55702.41
563.26	55133.66
563.42	55377.08
563.59	54880.88
563.75	54855.14
563.92	54892.58
564.08	54974.50
564.24	55103.23
564.41	55458.99
564.57	55072.81
564.74	55117.28
564.90	54677.25
565.07	54691.30
565.23	54150.63
565.39	53776.15
565.56	53514.01
565.72	53134.84
565.88	53762.11
566.05	53705.93
566.21	54035.95
566.38	54241.92
566.54	54777.90
566.70	54621.08
566.87	54869.18
567.03	54756.83
567.19	55257.71
567.36	55091.53
567.52	54738.11
567.68	54447.88
567.85	53858.07
568.01	53406.34
568.17	53111.44
568.34	53296.34
568.50	52942.92
568.66	53134.84
568.83	53586.57
568.99	53820.62
569.15	54057.01
569.32	53734.02
569.48	53457.84
569.64	53326.77
569.81	53041.22
569.97	52886.74
570.13	52807.17
570.30	52416.30
570.46	52027.77
570.62	51559.66
570.78	51161.77
570.95	51737.54
571.11	52231.40
571.27	52472.47
571.43	52879.72
571.60	52858.66
571.76	53085.69
571.92	53530.39
572.09	53813.60
572.25	53815.94
572.41	53567.84
572.57	53469.54
572.74	53469.54
572.90	52952.28
573.06	53076.33
573.22	53006.11
573.38	53041.22
573.55	53167.61
573.71	53106.76
573.87	53284.64
574.03	52664.39
574.20	52900.79
574.36	52652.69
574.52	52322.68
574.68	52568.43
574.84	52016.07
575.01	51498.81
575.17	51393.48
575.33	51842.87
575.49	51906.06
575.65	52226.71
575.82	51756.27
575.98	51489.45
576.14	51924.78
576.30	52322.68
576.46	52341.40
576.62	52114.37
576.79	52308.63
576.95	51992.66
577.11	51955.21
577.27	51880.31
577.43	52144.80
577.59	51594.77
577.75	51021.34
577.92	50513.44
578.08	50195.13
578.24	50117.89
578.40	50726.43
578.56	51019.00
578.72	50857.50
578.88	51297.52
579.04	51269.43
579.21	51316.25
579.37	51473.06
579.53	51718.82
579.69	51409.87
579.85	51873.29
580.01	51517.53
580.17	51178.15
580.33	50962.82
580.49	51185.18
580.65	51274.12
580.82	51620.52
580.98	51540.94
581.14	51276.46
581.30	51531.57
581.46	51412.21
581.62	51456.68
581.78	51269.43
581.94	51714.14
582.10	51777.33
582.26	51721.16
582.42	51824.14
582.58	51718.82
582.74	51428.59
582.90	51770.31
583.06	51714.14
583.22	51426.25
583.38	51353.69
583.54	51276.46
583.70	51330.29
583.86	51185.18
584.02	51056.45
584.18	51042.40
584.34	51133.68
584.50	51070.49
584.66	50483.01
584.82	50621.11
584.98	50464.29
585.14	49858.09
585.30	48886.77
