SpectraSuite Data File
++++++++++++++++++++++++++++++++++++
Date: Mon Oct 07 14:54:59 GMT-05:00 2013
User: price-jones
Dark Spectrum Present: No
Reference Spectrum Present: No
Number of Sampled Component Spectra: 1
Spectrometers: USB2+H05261
Integration Time (usec): 10000 (USB2+H05261)
Spectra Averaged: 1 (USB2+H05261)
Boxcar Smoothing: 0 (USB2+H05261)
Correct for Electrical Dark: No (USB2+H05261)
Strobe/Lamp Enabled: No (USB2+H05261)
Correct for Detector Non-linearity: No (USB2+H05261)
Correct for Stray Light: No (USB2+H05261)
Number of Pixels in Processed Spectrum: 2048
>>>>>Begin Processed Spectral Data<<<<<
365.73	0.00
365.92	0.00
366.12	0.00
366.32	0.00
366.52	0.00
366.72	0.00
366.91	0.00
367.11	0.00
367.31	0.00
367.51	0.00
367.70	0.00
367.90	0.00
368.10	0.00
368.30	0.00
368.49	0.00
368.69	0.00
368.89	0.00
369.09	0.00
369.28	0.00
369.48	0.00
369.68	0.00
369.87	0.00
370.07	0.00
370.27	0.00
370.47	0.00
370.66	631.94
370.86	767.70
371.06	875.36
371.25	751.31
371.45	737.27
371.65	624.92
371.84	667.05
372.04	734.93
372.24	720.88
372.44	716.20
372.63	706.84
372.83	599.18
373.03	634.29
373.22	594.50
373.42	636.63
373.62	739.61
373.81	760.67
374.01	809.83
374.21	634.29
374.40	601.52
374.60	688.12
374.79	812.17
374.99	980.68
375.19	1027.50
375.38	999.41
375.58	858.98
375.78	1025.15
375.97	908.13
376.17	966.64
376.37	973.66
376.56	1020.47
376.76	1167.93
376.95	1174.95
377.15	1313.04
377.35	1289.64
377.54	1341.13
377.74	1315.38
377.93	1322.40
378.13	1355.17
378.33	1263.89
378.52	1104.73
378.72	1121.12
378.91	1078.99
379.11	961.96
379.31	973.66
379.50	929.19
379.70	1046.22
379.89	1259.21
380.09	1359.85
380.28	1387.94
380.48	1306.02
380.68	1254.53
380.87	1210.06
381.07	1055.58
381.26	1036.86
381.46	933.87
381.65	919.83
381.85	763.01
382.04	772.38
382.24	634.29
382.43	713.86
382.63	779.40
382.83	763.01
383.02	671.73
383.22	624.92
383.41	744.29
383.61	814.51
383.80	964.30
384.00	1128.14
384.19	1266.23
384.39	1432.41
384.58	1291.98
384.78	1165.59
384.97	1249.85
385.17	1188.99
385.36	1151.54
385.56	1097.71
385.75	1123.46
385.95	1306.02
386.14	1357.51
386.34	1247.51
386.53	1261.55
386.72	1144.52
386.92	1261.55
387.11	1221.76
387.31	1401.98
387.50	1263.89
387.70	1224.10
387.89	1231.12
388.09	1287.29
388.28	1327.08
388.48	1275.59
388.67	1444.11
388.86	1561.14
389.06	1666.46
389.25	1703.91
389.45	1703.91
389.64	1746.04
389.84	1724.97
390.03	1657.10
390.22	1799.87
390.42	1746.04
390.61	2010.52
390.81	2101.80
391.00	2050.31
391.19	1977.75
391.39	1907.54
391.58	1832.64
391.78	1724.97
391.97	1694.55
392.16	1570.50
392.36	1287.29
392.55	1032.18
392.75	753.65
392.94	636.63
393.13	655.35
393.33	779.40
393.52	1100.05
393.71	1303.68
393.91	1540.07
394.10	1741.36
394.29	1781.15
394.49	1968.39
394.68	2200.10
394.88	2087.76
395.07	2071.37
395.26	2190.74
395.46	1996.48
395.65	1914.56
395.84	1668.80
396.04	1259.21
396.23	1025.15
396.42	912.81
396.62	929.19
396.81	1128.14
397.00	1416.02
397.19	1844.34
397.39	2111.16
397.58	2363.94
397.77	2658.85
397.97	2689.28
398.16	2766.51
398.35	2801.62
398.55	2984.18
398.74	3068.44
398.93	2965.46
399.12	3098.87
399.32	2984.18
399.51	3000.57
399.70	3314.20
399.90	2984.18
400.09	3117.59
400.28	3192.49
400.47	3187.81
400.67	3342.28
400.86	3398.46
401.05	3290.79
401.24	3433.57
401.44	3426.54
401.63	3269.73
401.82	3499.10
402.01	3410.16
402.21	3377.39
402.40	3487.40
402.59	3325.90
402.78	3169.09
402.97	3063.76
403.17	3297.81
403.36	3332.92
403.55	3513.14
403.74	3517.83
403.93	3309.52
404.13	3087.17
404.32	3040.36
404.51	3328.24
404.70	3471.01
404.89	3482.72
405.09	3419.52
405.28	3239.30
405.47	3361.01
405.66	3246.32
405.85	3112.91
406.05	3239.30
406.24	3283.77
406.43	3293.13
406.62	3386.76
406.81	3330.58
407.00	3269.73
407.20	3239.30
407.39	3297.81
407.58	3410.16
407.77	3499.10
407.96	3726.13
408.15	3712.09
408.34	3672.30
408.54	3920.40
408.73	3798.69
408.92	3611.45
409.11	3527.19
409.30	3419.52
409.49	3187.81
409.68	2937.37
409.87	3028.65
410.07	3330.58
410.26	3253.34
410.45	3545.91
410.64	3702.73
410.83	3950.82
411.02	3922.74
411.21	4161.47
411.40	3999.98
411.59	4091.26
411.78	4168.49
411.98	3946.14
412.17	3992.95
412.36	3889.97
412.55	3990.61
412.74	3875.93
412.93	3812.73
413.12	3882.95
413.31	4102.96
413.50	3908.69
413.69	4198.92
413.88	3983.59
414.07	3964.87
414.26	4028.06
414.45	4091.26
414.64	4203.60
414.83	3995.29
415.02	3920.40
415.22	4018.70
415.41	4276.16
415.60	4304.25
415.79	4325.31
415.98	4545.32
416.17	4561.70
416.36	4432.97
416.55	4447.02
416.74	4044.45
416.93	3997.64
417.12	4180.20
417.31	4170.83
417.50	4074.87
417.69	4191.90
417.88	4430.63
418.07	4290.20
418.26	4161.47
418.45	4189.56
418.64	4440.00
418.83	4479.79
419.02	4533.62
419.21	4353.40
419.39	4032.74
419.58	3983.59
419.77	4098.28
419.96	4255.09
420.15	4512.55
420.34	4542.98
420.53	4732.56
420.72	4786.40
420.91	4798.10
421.10	4484.47
421.29	4613.20
421.48	4695.11
421.67	4631.92
421.86	4435.32
422.05	4142.75
422.24	3805.71
422.43	3782.31
422.61	4358.08
422.80	4458.72
422.99	4489.15
423.18	4332.33
423.37	4147.43
423.56	4189.56
423.75	4191.90
423.94	4379.14
424.13	4081.89
424.32	4166.15
424.50	4194.24
424.69	4187.22
424.88	4234.03
425.07	4074.87
425.26	4168.49
425.45	3953.16
425.64	4051.47
425.83	3976.57
426.01	4215.30
426.20	4243.39
426.39	4156.79
426.58	3932.10
426.77	3588.04
426.96	3508.46
427.15	3707.41
427.33	3913.38
427.52	3964.87
427.71	4074.87
427.90	4056.15
428.09	4021.04
428.28	3948.48
428.46	3761.24
428.65	3810.39
428.84	3925.08
429.03	3730.81
429.22	3648.90
429.40	3452.29
429.59	3080.14
429.78	2654.17
429.97	2583.95
430.16	2729.06
430.34	2726.72
430.53	2846.09
430.72	2951.42
430.91	3295.47
431.10	3826.78
431.28	4271.48
431.47	4723.20
431.66	4814.48
431.85	4142.75
432.03	3957.85
432.22	3868.91
432.41	4187.22
432.60	4564.04
432.79	4617.88
432.97	4484.47
433.16	4500.85
433.35	3988.27
433.54	3726.13
433.72	3503.78
433.91	3733.15
434.10	4217.65
434.28	4461.06
434.47	4613.20
434.66	4461.06
434.85	4334.67
435.03	4545.32
435.22	4524.26
435.41	4624.90
435.59	4561.70
435.78	4873.00
435.97	4999.38
436.16	4807.46
436.34	4830.87
436.53	4519.57
436.72	4723.20
436.90	4524.26
437.09	4596.81
437.28	4440.00
437.46	4547.66
437.65	4390.84
437.84	4154.45
438.02	3801.03
438.21	3901.67
438.40	4187.22
438.58	4262.12
438.77	4418.93
438.96	4578.09
439.14	4793.42
439.33	4807.46
439.52	4880.02
439.70	4851.93
439.89	4564.04
440.08	4550.00
440.26	4578.09
440.45	4657.67
440.63	4973.64
440.82	5102.37
441.01	5231.10
441.19	5055.56
441.38	5156.20
441.57	5303.65
441.75	5446.43
441.94	5458.13
442.12	5425.36
442.31	5614.95
442.50	5530.69
442.68	5289.61
442.87	5329.40
443.05	5322.38
443.24	5352.81
443.43	5343.44
443.61	5579.84
443.80	5561.11
443.98	5282.59
444.17	5390.25
444.35	5469.83
444.54	5582.18
444.73	5596.22
444.91	5247.48
445.10	4985.34
445.28	4732.56
445.47	4770.01
445.65	4819.16
445.84	5006.41
446.02	5174.92
446.21	5165.56
446.39	5149.18
446.58	5310.68
446.77	5280.25
446.95	5350.46
447.14	5645.37
447.32	5511.96
447.51	5324.72
447.69	5280.25
447.88	5324.72
448.06	5289.61
448.25	5408.98
448.43	5350.46
448.62	5301.31
448.80	5287.27
448.99	5334.08
449.17	5694.52
449.36	5497.92
449.54	5607.92
449.73	5610.26
449.91	5671.12
450.10	5764.74
450.28	5804.53
450.46	5863.04
450.65	5935.60
450.83	5692.18
451.02	5647.71
451.20	5668.78
451.39	5626.65
451.57	5441.75
451.76	5397.28
451.94	5413.66
452.13	5514.30
452.31	5156.20
452.49	4800.44
452.68	4826.18
452.86	4903.42
453.05	5116.41
453.23	5165.56
453.42	5310.68
453.60	5603.24
453.78	5504.94
453.97	5289.61
454.15	5423.02
454.34	5200.67
454.52	5320.04
454.70	5125.77
454.89	5095.35
455.07	5027.47
455.26	5200.67
455.44	5544.73
455.62	5664.10
455.81	5713.25
455.99	5563.45
456.17	5406.64
456.36	5371.53
456.54	5626.65
456.73	5493.24
456.91	5701.54
457.09	5743.67
457.28	5860.70
457.46	5598.56
457.64	5460.47
457.83	5383.23
458.01	5284.93
458.19	5427.70
458.38	5465.15
458.56	5469.83
458.74	5657.07
458.93	5294.29
459.11	5455.79
459.29	5558.77
459.48	5373.87
459.66	5350.46
459.84	5385.57
460.03	5467.49
460.21	5460.47
460.39	5479.19
460.57	5666.44
460.76	5617.29
460.94	5863.04
461.12	5518.98
461.31	5631.33
461.49	5614.95
461.67	5579.84
461.85	5809.21
462.04	5636.01
462.22	5598.56
462.40	5741.33
462.59	5701.54
462.77	5654.73
462.95	5692.18
463.13	5664.10
463.32	5654.73
463.50	5500.26
463.68	5458.13
463.86	5659.42
464.05	5420.68
464.23	5320.04
464.41	5125.77
464.59	5111.73
464.78	5645.37
464.96	5469.83
465.14	5432.38
465.32	5603.24
465.50	5614.95
465.69	5661.76
465.87	5479.19
466.05	5322.38
466.23	4898.74
466.41	4990.02
466.60	5289.61
466.78	5160.88
466.96	5179.61
467.14	5291.95
467.32	5565.79
467.51	5521.32
467.69	5071.94
467.87	5160.88
468.05	5320.04
468.23	5254.50
468.41	5240.46
468.60	5390.25
468.78	5329.40
468.96	5238.12
469.14	5303.65
469.32	5343.44
469.50	5359.83
469.69	5130.45
469.87	4880.02
470.05	5069.60
470.23	5139.82
470.41	5121.09
470.59	5078.96
470.77	5193.65
470.95	5352.81
471.14	5303.65
471.32	5521.32
471.50	5521.32
471.68	5605.58
471.86	5659.42
472.04	5467.49
472.22	5729.63
472.40	5453.45
472.58	5460.47
472.77	5348.12
472.95	5404.30
473.13	5537.71
473.31	5401.96
473.49	5432.38
473.67	5628.99
473.85	5537.71
474.03	5694.52
474.21	5605.58
474.39	5680.48
474.57	5771.76
474.75	5701.54
474.93	5598.56
475.12	5514.30
475.30	5708.57
475.48	5671.12
475.66	5614.95
475.84	5521.32
476.02	5547.07
476.20	5568.13
476.38	5509.62
476.56	5657.07
476.74	5839.64
476.92	5881.77
477.10	6005.81
477.28	6087.73
477.46	6148.59
477.64	6033.90
477.82	6188.38
478.00	6090.07
478.18	5966.03
478.36	6024.54
478.54	5989.43
478.72	5984.75
478.90	6022.20
479.08	6209.44
479.26	6593.29
479.44	6492.65
479.62	6408.39
479.80	6232.85
479.98	6293.70
480.16	6221.14
480.34	6209.44
480.52	6380.30
480.70	6420.09
480.88	6431.79
481.06	6895.22
481.24	6509.03
481.41	6707.98
481.59	6827.34
481.77	6649.46
481.95	6679.89
482.13	6806.28
482.31	6560.52
482.49	6806.28
482.67	6878.83
482.85	6796.92
483.03	6974.80
483.21	7101.19
483.39	6970.12
483.57	6904.58
483.74	6656.48
483.92	6803.94
484.10	6588.61
484.28	6927.99
484.46	7087.14
484.64	7126.93
484.82	6789.89
485.00	6661.16
485.18	6715.00
485.35	6340.51
485.53	5940.28
485.71	5329.40
485.89	5266.21
486.07	5689.84
486.25	6246.89
486.43	6502.01
486.61	6612.01
486.78	6642.44
486.96	6593.29
487.14	6827.34
487.32	6995.86
487.50	7000.54
487.68	7318.86
487.85	7613.76
488.03	7213.53
488.21	7377.37
488.39	7307.15
488.57	6874.15
488.75	7052.03
488.92	7470.99
489.10	7693.34
489.28	8044.42
489.46	8152.09
489.64	8131.02
489.81	8149.75
489.99	7826.75
490.17	7981.23
490.35	8084.21
490.53	7990.59
490.70	7971.86
490.88	7927.39
491.06	8091.23
491.24	8126.34
491.41	7681.64
491.59	7215.87
491.77	7152.68
491.95	7527.16
492.13	7644.19
492.30	7967.18
492.48	8332.31
492.66	8500.83
492.84	8390.82
493.01	8479.76
493.19	8262.09
493.37	8086.55
493.54	7859.52
493.72	8278.47
493.90	8248.05
494.08	8456.36
494.25	8779.35
494.43	8830.84
494.61	9055.53
494.79	8858.93
494.96	8695.09
495.14	8650.62
495.32	8290.18
495.49	8311.24
495.67	8592.11
495.85	8905.74
496.02	8887.01
496.20	8788.71
496.38	8762.97
496.55	8856.59
496.73	8931.48
496.91	8959.57
497.09	9266.18
497.26	9172.56
497.44	9013.40
497.62	8765.31
497.79	8507.85
497.97	8198.90
498.14	8486.78
498.32	8784.03
498.50	8805.10
498.67	9046.17
498.85	8954.89
499.03	9050.85
499.20	9167.88
499.38	9118.73
499.56	8889.35
499.73	8734.88
499.91	8681.05
500.08	8524.23
500.26	8320.60
500.44	8414.23
500.61	8648.28
500.79	8578.06
500.97	8531.25
501.14	8573.38
501.32	8463.38
501.49	8470.40
501.67	8507.85
501.84	8667.00
502.02	8699.77
502.20	8901.06
502.37	8901.06
502.55	8777.01
502.72	8971.27
502.90	9261.50
503.07	9043.83
503.25	8636.58
503.43	8685.73
503.60	8180.17
503.78	8049.10
503.95	8517.21
504.13	8772.33
504.30	9207.67
504.48	8695.09
504.65	8887.01
504.83	8858.93
505.01	8945.53
505.18	9153.84
505.36	9320.01
505.53	9369.16
505.71	9380.87
505.88	9263.84
506.06	9151.49
506.23	9013.40
506.41	8985.32
506.58	9146.81
506.76	8966.59
506.93	9158.52
507.11	8919.78
507.28	8936.17
507.46	8690.41
507.63	8580.40
507.81	8603.81
507.98	8985.32
508.16	8662.32
508.33	8685.73
508.50	9043.83
508.68	9102.34
508.85	9401.93
509.03	9369.16
509.20	9291.93
509.38	9172.56
509.55	8784.03
509.73	8830.84
509.90	8863.61
510.08	9055.53
510.25	8650.62
510.42	8624.87
510.60	8936.17
510.77	8847.22
510.95	9228.73
511.12	8957.23
511.30	9172.56
511.47	9359.80
511.64	9411.29
511.82	9343.42
511.99	9039.15
512.17	8674.03
512.34	8805.10
512.51	8463.38
512.69	8821.48
512.86	8725.52
513.04	9011.06
513.21	8964.25
513.38	8769.99
513.56	8655.30
513.73	8404.86
513.90	8603.81
514.08	8554.66
514.25	8535.93
514.43	8411.89
514.60	8659.98
514.77	8667.00
514.95	8744.24
515.12	8634.24
515.29	8753.60
515.47	8957.23
515.64	8865.95
515.81	8891.70
515.99	8823.82
516.16	8102.93
516.33	7527.16
516.51	7040.33
516.68	6829.68
516.85	6857.77
517.03	7042.67
517.20	7721.43
517.37	8423.59
517.54	8521.89
517.72	8273.79
517.89	7735.47
518.06	7101.19
518.24	7318.86
518.41	7637.17
518.58	8018.68
518.75	8156.77
518.93	8219.96
519.10	8203.58
519.27	8486.78
519.45	8608.49
519.62	8557.00
519.79	8578.06
519.96	8645.94
520.14	8613.17
520.31	8187.19
520.48	8170.81
520.65	8444.65
520.83	8727.86
521.00	8596.79
521.17	8526.57
521.34	8678.71
521.52	8716.16
521.69	8863.61
521.86	8912.76
522.03	8905.74
522.20	8538.27
522.38	8018.68
522.55	8107.62
522.72	8187.19
522.89	8182.51
523.07	8198.90
523.24	8479.76
523.41	8561.68
523.58	8699.77
523.75	8964.25
523.92	8966.59
524.10	8931.48
524.27	8887.01
524.44	8748.92
524.61	8538.27
524.78	8720.84
524.96	8741.90
525.13	8697.43
525.30	8816.80
525.47	8734.88
525.64	8730.20
525.81	8475.08
525.98	8028.04
526.16	7641.85
526.33	7440.56
526.50	7555.25
526.67	7339.92
526.84	7543.55
527.01	7948.46
527.18	8009.31
527.36	8355.71
527.53	8498.49
527.70	8847.22
527.87	8526.57
528.04	8234.00
528.21	8402.52
528.38	8631.90
528.55	8872.97
528.72	8898.72
528.89	8943.19
529.07	8779.35
529.24	8587.43
529.41	8374.44
529.58	8170.81
529.75	8425.93
529.92	8491.46
530.09	8388.48
530.26	8730.20
530.43	8542.96
530.60	8650.62
530.77	8758.28
530.94	8596.79
531.11	8636.58
531.28	8542.96
531.46	8458.70
531.63	8489.12
531.80	8617.85
531.97	8245.71
532.14	8077.19
532.31	7833.77
532.48	7705.04
532.65	7665.25
532.82	7922.71
532.99	8306.56
533.16	8454.02
533.33	8161.45
533.50	8416.57
533.67	8037.40
533.84	8315.92
534.01	8140.38
534.18	8381.46
534.35	8257.41
534.52	8346.35
534.69	8505.51
534.86	8416.57
535.03	8339.33
535.20	8568.70
535.37	8617.85
535.54	8702.11
535.71	8711.47
535.88	8596.79
536.05	8421.25
536.22	8156.77
536.38	7871.22
536.55	7903.99
536.72	7810.37
536.89	7726.11
537.06	8049.10
537.23	8077.19
537.40	8152.09
537.57	8444.65
537.74	8271.45
537.91	8257.41
538.08	8056.12
538.25	7995.27
538.42	7960.16
538.59	7936.76
538.75	7793.98
538.92	7953.14
539.09	7768.24
539.26	7545.89
539.43	7679.30
539.60	7705.04
539.77	7831.43
539.94	7815.05
540.11	7328.22
540.28	7253.32
540.44	7456.95
540.61	7564.61
540.78	7620.78
540.95	7887.61
541.12	7709.72
541.29	7569.29
541.46	7852.50
541.62	7843.14
541.79	7882.92
541.96	7442.90
542.13	7588.02
542.30	7735.47
542.47	7882.92
542.63	7672.28
542.80	7618.44
542.97	7679.30
543.14	7648.87
543.31	7470.99
543.48	7882.92
543.64	7798.66
543.81	8084.21
543.98	7995.27
544.15	7786.96
544.32	7623.12
544.48	7707.38
544.65	7812.71
544.82	7817.39
544.99	7875.90
545.16	7559.93
545.32	7487.37
545.49	7749.51
545.66	8011.65
545.83	7922.71
546.00	7723.77
546.16	7698.02
546.33	7691.00
546.50	7611.42
546.67	7829.09
546.83	7634.83
547.00	7672.28
547.17	7468.65
547.34	7375.03
547.50	7445.24
547.67	7412.48
547.84	7489.71
548.00	7466.31
548.17	7494.40
548.34	7508.44
548.51	7571.63
548.67	7719.09
548.84	7756.54
549.01	7747.17
549.18	7569.29
549.34	7588.02
549.51	7611.42
549.68	7627.81
549.84	7517.80
550.01	7637.17
550.18	7220.55
550.34	7463.97
550.51	7368.01
550.68	7232.26
550.84	7279.07
551.01	7279.07
551.18	7288.43
551.34	7419.50
551.51	7421.84
551.68	7585.68
551.84	7559.93
552.01	7300.13
552.18	7473.33
552.34	7220.55
552.51	7208.85
552.68	7129.27
552.84	7255.66
553.01	7267.36
553.18	7447.58
553.34	7316.51
553.51	7286.09
553.67	7396.09
553.84	7290.77
554.01	7482.69
554.17	7379.71
554.34	7396.09
554.51	7449.93
554.67	7405.46
554.84	7550.57
555.00	7208.85
555.17	7377.37
555.33	7424.18
555.50	7241.62
555.67	7192.47
555.83	7262.68
556.00	7056.72
556.16	6953.73
556.33	6944.37
556.50	6972.46
556.66	7063.74
556.83	6822.66
556.99	6967.77
557.16	6984.16
557.32	7002.88
557.49	7241.62
557.65	7045.01
557.82	7080.12
557.98	7009.90
558.15	6888.20
558.32	6705.63
558.48	6642.44
558.65	6558.18
558.81	6637.76
558.98	6787.55
559.14	6696.27
559.31	6806.28
559.47	6827.34
559.64	6621.38
559.80	6607.33
559.97	6668.19
560.13	6820.32
560.30	6935.01
560.46	7281.41
560.63	7180.76
560.79	7166.72
560.96	7002.88
561.12	6740.74
561.29	6813.30
561.45	6462.22
561.61	6665.85
561.78	6766.49
561.94	6696.27
562.11	6693.93
562.27	6796.92
562.44	6942.03
562.60	6935.01
562.77	6918.62
562.93	6853.09
563.10	6801.60
563.26	6654.14
563.42	6614.35
563.59	6626.06
563.75	6590.95
563.92	6612.01
564.08	6590.95
564.24	6808.62
564.41	6696.27
564.57	6654.14
564.74	6670.53
564.90	6595.63
565.07	6595.63
565.23	6368.60
565.39	6289.02
565.56	6338.17
565.72	6286.68
565.88	6108.80
566.05	6237.53
566.21	6230.51
566.38	6392.00
566.54	6406.05
566.70	6480.94
566.87	6523.07
567.03	6548.82
567.19	6525.41
567.36	6511.37
567.52	6579.25
567.68	6504.35
567.85	6267.95
568.01	6127.52
568.17	6148.59
568.34	6054.97
568.50	6129.86
568.66	6118.16
568.83	6120.50
568.99	6335.83
569.15	6258.59
569.32	6216.46
569.48	6237.53
569.64	6232.85
569.81	6087.73
569.97	6122.84
570.13	6389.66
570.30	5954.32
570.46	5898.15
570.62	5720.27
570.78	5764.74
570.95	5762.40
571.11	5968.37
571.27	5865.38
571.43	6092.41
571.60	6059.65
571.76	6190.72
571.92	6174.33
572.09	6073.69
572.25	6214.12
572.41	6207.10
572.57	6237.53
572.74	6209.44
572.90	5963.68
573.06	6085.39
573.22	6106.46
573.38	6118.16
573.55	6026.88
573.71	6076.03
573.87	6129.86
574.03	6047.94
574.20	6031.56
574.36	6120.50
574.52	5881.77
574.68	5865.38
574.84	5783.46
575.01	5631.33
575.17	5628.99
575.33	5937.94
575.49	5774.10
575.65	5902.83
575.82	5640.69
575.98	5846.66
576.14	5769.42
576.30	5781.12
576.46	5797.51
576.62	5806.87
576.79	5813.89
576.95	5551.75
577.11	5757.72
577.27	5830.27
577.43	5799.85
577.59	5666.44
577.75	5650.05
577.92	5666.44
578.08	5514.30
578.24	5406.64
578.40	5596.22
578.56	5483.88
578.72	5610.26
578.88	5570.48
579.04	5776.44
579.21	5645.37
579.37	5797.51
579.53	5633.67
579.69	5589.20
579.85	5516.64
580.01	5652.39
580.17	5600.90
580.33	5432.38
580.49	5523.66
580.65	5650.05
580.82	5598.56
580.98	5584.52
581.14	5657.07
581.30	5568.13
581.46	5764.74
581.62	5631.33
581.78	5563.45
581.94	5694.52
582.10	5710.91
582.26	5696.86
582.42	5724.95
582.58	5746.02
582.74	5673.46
582.90	5687.50
583.06	5682.82
583.22	5731.97
583.38	5586.86
583.54	5640.69
583.70	5490.90
583.86	5617.29
584.02	5523.66
584.18	5675.80
584.34	5563.45
584.50	5516.64
584.66	5458.13
584.82	5413.66
584.98	5444.09
585.14	5359.83
585.30	5331.74
585.46	5170.24
585.62	5266.21
585.78	5327.06
585.94	5217.05
586.10	5303.65
586.26	5320.04
586.42	5408.98
586.58	5453.45
586.74	5401.96
586.90	5228.76
587.06	5280.25
587.22	5137.48
587.38	5263.86
587.54	5270.89
587.70	5149.18
587.86	5060.24
588.02	5121.09
588.18	5064.92
588.34	4936.19
588.49	4599.15
588.65	4376.80
588.81	4351.06
588.97	4369.78
589.13	4362.76
589.29	4395.53
589.45	4517.23
589.61	4533.62
589.77	4608.51
589.93	4854.27
590.08	5032.15
590.24	5067.26
590.40	5132.79
590.56	5179.61
590.72	5114.07
590.88	4931.51
591.04	4723.20
591.20	4898.74
591.35	4767.67
591.51	4994.70
591.67	4954.91
591.83	4908.10
591.99	4978.32
592.15	4943.21
592.31	4877.68
592.46	4924.49
592.62	5074.28
592.78	4889.38
592.94	4788.74
593.10	4660.01
593.26	4933.85
593.41	5004.07
593.57	4933.85
593.73	4812.14
593.89	4755.97
594.05	4655.33
594.20	4723.20
594.36	4690.43
594.52	4732.56
594.68	4823.84
594.84	4711.50
594.99	4594.47
595.15	4723.20
595.31	4650.64
595.47	4660.01
595.62	4809.80
595.78	4727.88
595.94	4894.06
596.10	4748.95
596.25	4741.93
596.41	4898.74
596.57	4702.14
596.73	4713.84
596.88	4739.58
597.04	4826.18
