SpectraSuite Data File
++++++++++++++++++++++++++++++++++++
Date: Mon Oct 07 14:53:54 GMT-05:00 2013
User: price-jones
Dark Spectrum Present: No
Reference Spectrum Present: No
Number of Sampled Component Spectra: 1
Spectrometers: USB2+H05261
Integration Time (usec): 100000 (USB2+H05261)
Spectra Averaged: 1 (USB2+H05261)
Boxcar Smoothing: 0 (USB2+H05261)
Correct for Electrical Dark: No (USB2+H05261)
Strobe/Lamp Enabled: No (USB2+H05261)
Correct for Detector Non-linearity: No (USB2+H05261)
Correct for Stray Light: No (USB2+H05261)
Number of Pixels in Processed Spectrum: 2048
>>>>>Begin Processed Spectral Data<<<<<
365.73	0.00
365.92	0.00
366.12	0.00
366.32	0.00
366.52	0.00
366.72	0.00
366.91	0.00
367.11	0.00
367.31	0.00
367.51	0.00
367.70	0.00
367.90	0.00
368.10	0.00
368.30	0.00
368.49	0.00
368.69	0.00
368.89	0.00
369.09	0.00
369.28	0.00
369.48	0.00
369.68	0.00
369.87	0.00
370.07	0.00
370.27	0.00
370.47	674.07
370.66	3103.55
370.86	3534.21
371.06	4051.47
371.25	4107.64
371.45	3742.52
371.65	3356.33
371.84	3063.76
372.04	3206.53
372.24	3679.32
372.44	3796.35
372.63	3700.39
372.83	3440.59
373.03	3180.79
373.22	2909.29
373.42	3016.95
373.62	3534.21
373.81	3651.24
374.01	3786.99
374.21	3358.67
374.40	3038.02
374.60	3243.98
374.79	3588.04
374.99	4449.36
375.19	4688.09
375.38	4622.56
375.58	4365.10
375.78	4292.54
375.97	4372.12
376.17	4599.15
376.37	4538.30
376.56	4557.02
376.76	4849.59
376.95	5217.05
377.15	5392.59
377.35	5778.78
377.54	5935.60
377.74	6167.31
377.93	6207.10
378.13	5982.41
378.33	5802.19
378.52	5392.59
378.72	5025.13
378.91	5064.92
379.11	4802.78
379.31	4692.77
379.50	4545.32
379.70	5076.62
379.89	5448.77
380.09	5760.06
380.28	6153.27
380.48	6090.07
380.68	5895.81
380.87	5823.25
381.07	5317.70
381.26	5043.85
381.46	4744.27
381.65	4484.47
381.85	4379.14
382.04	4234.03
382.24	3918.06
382.43	3679.32
382.63	3609.11
382.83	3611.45
383.02	3585.70
383.22	3740.18
383.41	3648.90
383.61	3847.84
383.80	4327.65
384.00	5083.64
384.19	5650.05
384.39	6148.59
384.58	6134.54
384.78	5767.08
384.97	5921.56
385.17	5528.35
385.36	5432.38
385.56	4952.57
385.75	4990.02
385.95	5607.92
386.14	6092.41
386.34	6146.25
386.53	6066.67
386.72	5526.00
386.92	5678.14
387.11	5795.17
387.31	6104.12
387.50	6195.40
387.70	5797.51
387.89	5687.50
388.09	5753.04
388.28	5933.26
388.48	5785.80
388.67	6216.46
388.86	7075.44
389.06	7339.92
389.25	7810.37
389.45	8128.68
389.64	7908.67
389.84	7920.37
390.03	7618.44
390.22	7831.43
390.42	7915.69
390.61	8688.07
390.81	8945.53
391.00	9261.50
391.19	9231.07
391.39	8905.74
391.58	8318.26
391.78	7885.26
391.97	7557.59
392.16	7023.95
392.36	6593.29
392.55	5254.50
392.75	4198.92
392.94	3473.36
393.13	3335.26
393.33	3967.21
393.52	5025.13
393.71	5994.11
393.91	6902.24
394.10	7557.59
394.29	8299.54
394.49	8957.23
394.68	9643.01
394.88	9687.48
395.07	9921.53
395.26	9863.02
395.46	9406.61
395.65	9067.24
395.84	7896.97
396.04	6747.76
396.23	5427.70
396.42	4472.76
396.62	4224.67
396.81	5254.50
397.00	6485.62
397.19	8166.13
397.39	9554.07
397.58	10773.49
397.77	11637.14
397.97	12013.97
398.16	12065.46
398.35	12610.81
398.55	13032.10
398.74	13406.59
398.93	13540.00
399.12	13528.30
399.32	13078.91
399.51	13385.52
399.70	14335.78
399.90	14001.08
400.09	14008.11
400.28	14052.58
400.47	13970.66
400.67	14759.42
400.86	15197.10
401.05	15061.35
401.24	15276.68
401.44	15328.17
401.63	15314.13
401.82	15410.09
402.01	15840.75
402.21	15545.84
402.40	15796.28
402.59	15424.13
402.78	14801.55
402.97	14422.38
403.17	14604.94
403.36	15779.89
403.55	15613.71
403.74	16517.16
403.93	15606.69
404.13	14501.96
404.32	14066.62
404.51	14988.79
404.70	15812.66
404.89	15779.89
405.09	15786.91
405.28	15220.50
405.47	15169.01
405.66	15211.14
405.85	15012.20
406.05	14597.92
406.24	14516.00
406.43	15199.44
406.62	16091.18
406.81	15728.40
407.00	15239.23
407.20	14710.27
407.39	15173.69
407.58	16053.73
407.77	16498.44
407.96	16886.97
408.15	16987.61
408.34	17458.06
408.54	18265.54
408.73	18071.28
408.92	17839.56
409.11	17242.73
409.30	16442.26
409.49	15307.10
409.68	14614.30
409.87	14111.09
410.07	14668.14
410.26	16350.98
410.45	17289.54
410.64	17481.46
410.83	17970.63
411.02	18562.79
411.21	19197.07
411.40	18691.52
411.59	19047.28
411.78	19143.24
411.98	18850.67
412.17	18977.06
412.36	18918.55
412.55	18881.10
412.74	18057.23
412.93	17902.76
413.12	18054.89
413.31	19630.07
413.50	19829.02
413.69	20044.35
413.88	19683.91
414.07	18813.23
414.26	19281.33
414.45	19768.16
414.64	19861.79
414.83	19971.79
415.02	19496.66
415.22	19538.79
415.41	20308.83
415.60	20512.46
415.79	21605.49
415.98	22066.57
416.17	21895.71
416.36	21802.09
416.55	21137.38
416.74	20695.02
416.93	19751.78
417.12	19564.54
417.31	20184.78
417.50	20512.46
417.69	20919.71
417.88	21046.10
418.07	20786.30
418.26	20594.37
418.45	20491.39
418.64	21399.52
418.83	21994.01
419.02	22185.94
419.21	21907.41
419.39	20776.94
419.58	19697.95
419.77	19768.16
419.96	20491.39
420.15	21605.49
420.34	22317.01
420.53	23218.11
420.72	23484.94
420.91	23288.33
421.10	23042.57
421.29	23058.96
421.48	22108.70
421.67	23293.01
421.86	22525.32
422.05	21394.84
422.24	18768.76
422.43	18750.03
422.61	20662.25
422.80	22506.59
422.99	22747.67
423.18	21809.11
423.37	21113.97
423.56	20943.11
423.75	21619.53
423.94	21869.97
424.13	20805.02
424.32	21022.69
424.50	21034.39
424.69	20737.15
424.88	21301.22
425.07	20727.78
425.26	20652.89
425.45	20713.74
425.64	19927.32
425.83	20430.54
426.01	21228.66
426.20	22045.51
426.39	21708.47
426.58	20109.88
426.77	18817.91
426.96	18232.77
427.15	18506.62
427.33	20259.68
427.52	21181.85
427.71	20753.53
427.90	20732.47
428.09	20439.90
428.28	20283.08
428.46	19761.14
428.65	19316.44
428.84	19833.70
429.03	19978.81
429.22	19007.49
429.40	17891.06
429.59	16304.17
429.78	14511.32
429.97	14492.60
430.16	14831.97
430.34	14881.13
430.53	14527.71
430.72	14927.94
430.91	16589.72
431.10	19346.87
431.28	22607.23
431.47	24844.79
431.66	25088.20
431.85	22911.50
432.03	20957.16
432.22	20222.23
432.41	20816.72
432.60	23431.10
432.79	23995.17
432.97	24751.17
433.16	24049.00
433.35	22466.80
433.54	20002.22
433.72	18595.56
433.91	19243.88
434.10	21525.91
434.28	23199.39
434.47	24151.99
434.66	23634.73
434.85	23309.40
435.03	23070.66
435.22	23655.79
435.41	25252.04
435.59	24807.34
435.78	25617.16
435.97	25942.50
436.16	26185.91
436.34	25748.23
436.53	25172.46
436.72	25570.35
436.90	23983.47
437.09	23906.23
437.28	23620.69
437.46	24126.24
437.65	24404.77
437.84	22665.75
438.02	21015.67
438.21	20505.43
438.40	21858.26
438.58	23936.66
438.77	24023.26
438.96	24381.36
439.14	25483.75
439.33	26457.42
439.52	26363.79
439.70	26005.69
439.89	25558.65
440.08	24931.39
440.26	24781.59
440.45	25184.16
440.63	27051.91
440.82	28531.13
441.01	28517.09
441.19	27929.61
441.38	28236.22
441.57	29312.87
441.75	29689.70
441.94	29930.77
442.12	29881.62
442.31	29919.07
442.50	30293.55
442.68	29771.61
442.87	29624.16
443.05	28929.02
443.24	29177.12
443.43	30045.46
443.61	30663.36
443.80	30782.73
443.98	29401.81
444.17	29333.93
444.35	30747.62
444.54	31098.70
444.73	31014.44
444.91	29872.26
445.10	28561.56
445.28	27658.11
445.47	26890.41
445.65	27407.67
445.84	27711.94
446.02	29053.07
446.21	29347.98
446.39	29347.98
446.58	29909.71
446.77	30082.91
446.95	30513.56
447.14	31552.76
447.32	32266.63
447.51	31159.55
447.69	30239.72
447.88	29401.81
448.06	30174.19
448.25	30623.57
448.43	30852.94
448.62	29947.15
448.80	30106.31
448.99	30520.59
449.17	30794.43
449.36	30700.81
449.54	31639.36
449.73	32322.80
449.91	32603.66
450.10	33472.00
450.28	34455.03
450.46	33827.76
450.65	33352.63
450.83	33591.37
451.02	32598.98
451.20	32580.26
451.39	32479.61
451.57	32341.52
451.76	31967.04
451.94	32210.45
452.13	31810.22
452.31	30022.05
452.49	28652.84
452.68	29303.51
452.86	29364.36
453.05	29806.72
453.23	30085.25
453.42	31101.04
453.60	32107.47
453.78	32215.13
453.97	31613.62
454.15	31981.08
454.34	31054.23
454.52	31625.32
454.70	30602.50
454.89	30824.86
455.07	31035.50
455.26	31559.78
455.44	33013.26
455.62	33387.74
455.81	33589.03
455.99	33289.44
456.17	32582.60
456.36	32950.06
456.54	33383.06
456.73	33968.19
456.91	34094.58
457.09	34506.52
457.28	35042.50
457.46	33628.82
457.64	33600.73
457.83	32655.15
458.01	31901.50
458.19	32889.21
458.38	32577.92
458.56	34057.14
458.74	33706.05
458.93	33027.30
459.11	33095.18
459.29	32411.74
459.48	32811.97
459.66	32989.85
459.84	33270.72
460.03	33619.46
460.21	33343.27
460.39	34623.54
460.57	34394.17
460.76	34909.09
460.94	34911.43
461.12	34485.45
461.31	34705.46
461.49	34150.76
461.67	34522.90
461.85	35428.69
462.04	35742.32
462.22	35880.41
462.40	35606.57
462.59	35262.51
462.77	35365.49
462.95	35253.15
463.13	34771.00
463.32	34501.84
463.50	34302.89
463.68	34464.39
463.86	34810.79
464.05	33947.13
464.23	33427.53
464.41	33436.89
464.59	32673.88
464.78	34237.36
464.96	33979.90
465.14	33448.60
465.32	34579.07
465.50	35449.75
465.69	35512.95
465.87	35072.93
466.05	34033.73
466.23	32353.23
466.41	31789.16
466.60	33029.64
466.78	32507.70
466.96	33383.06
467.14	33738.82
467.32	34366.09
467.51	34691.42
467.69	32699.62
467.87	33495.41
468.05	34024.37
468.23	33933.09
468.41	34160.12
468.60	34007.98
468.78	34616.52
468.96	33607.75
469.14	34920.79
469.32	35028.46
469.50	33621.80
469.69	33656.90
469.87	32926.66
470.05	32917.29
470.23	33291.78
470.41	33263.69
470.59	33198.16
470.77	33816.06
470.95	34485.45
471.14	34988.67
471.32	34670.36
471.50	37095.15
471.68	36914.93
471.86	37247.29
472.04	37237.92
472.22	37120.90
472.40	36072.34
472.58	35409.96
472.77	35491.88
472.95	35934.24
473.13	36453.84
473.31	35864.03
473.49	35833.60
473.67	36041.91
473.85	36797.90
474.03	37701.35
474.21	37645.18
474.39	38419.89
474.57	38293.50
474.75	38342.66
474.93	37970.51
475.12	37174.73
475.30	37542.19
475.48	37158.34
475.66	37574.96
475.84	37469.64
476.02	37277.71
476.20	36299.37
476.38	37172.39
476.56	38466.70
476.74	38682.03
476.92	38824.81
477.10	39636.97
477.28	40378.92
477.46	40786.18
477.64	41097.47
477.82	41062.36
478.00	40795.54
478.18	40917.25
478.36	40294.66
478.54	40917.25
478.72	40437.44
478.90	42171.77
479.08	42401.14
479.26	43157.14
479.44	42993.30
479.62	42997.98
479.80	43201.61
479.98	43381.83
480.16	43433.32
480.34	43388.85
480.52	43419.28
480.70	43445.02
480.88	43145.44
481.06	44643.38
481.24	44622.31
481.41	45855.78
481.59	46417.50
481.77	45509.38
481.95	45296.39
482.13	44891.48
482.31	45420.44
482.49	46323.88
482.67	45588.95
482.85	46129.62
483.03	46630.49
483.21	47136.05
483.39	46981.57
483.57	46548.57
483.74	45691.94
483.92	46487.72
484.10	46679.64
484.28	47639.26
484.46	47901.40
484.64	47980.98
484.82	47290.52
485.00	46712.41
485.18	45696.62
485.35	44498.26
485.53	41661.54
485.71	37862.85
485.89	37315.16
486.07	39042.48
486.25	42752.23
486.43	45059.99
486.61	45659.17
486.78	45778.54
486.96	46115.58
487.14	47082.22
487.32	48086.31
487.50	49315.09
487.68	50089.80
487.85	50417.48
488.03	50440.89
488.21	50267.69
488.39	49488.29
488.57	48790.81
488.75	48744.00
488.92	49607.65
489.10	51945.85
489.28	53010.79
489.46	53745.72
489.64	53649.76
489.81	53382.94
489.99	53448.47
490.17	53504.65
490.35	53691.89
490.53	53439.11
490.70	52903.13
490.88	52767.38
491.06	53570.18
491.24	53851.05
491.41	52664.39
491.59	51192.20
491.77	50548.55
491.95	51578.39
492.13	52750.99
492.30	53872.11
492.48	54843.43
492.66	55196.85
492.84	55016.63
493.01	54698.32
493.19	54501.71
493.37	53965.73
493.54	53429.75
493.72	54454.90
493.90	55454.31
494.08	56189.24
494.25	56303.93
494.43	56619.90
494.61	56933.53
494.79	56886.72
494.96	56685.43
495.14	56350.74
495.32	55054.08
495.49	54337.88
495.67	56086.26
495.85	56722.88
496.02	57420.36
496.20	57219.08
496.38	56612.88
496.55	56715.86
496.73	56952.26
496.91	57059.92
497.09	58040.60
497.26	57811.23
497.44	57478.88
497.62	56802.46
497.79	56301.59
497.97	54789.60
498.14	55021.31
498.32	56257.12
498.50	57141.84
498.67	57764.42
498.85	57354.83
499.03	57581.86
499.20	57939.96
499.38	57930.60
499.56	57780.81
499.73	57443.77
499.91	56942.89
500.08	56669.05
500.26	55632.19
500.44	56203.28
500.61	56893.74
500.79	56769.69
500.97	56322.65
501.14	56100.30
501.32	56130.73
501.49	55868.59
501.67	56112.00
501.84	56786.08
502.02	57284.61
502.20	57396.96
502.37	57659.10
502.55	57429.72
502.72	58239.55
502.90	58522.76
503.07	58155.29
503.25	57925.92
503.43	56975.66
503.60	56486.49
503.78	55522.19
503.95	56240.73
504.13	57413.34
504.30	58230.19
504.48	58251.25
504.65	57829.96
504.83	57839.32
505.01	58443.18
505.18	58607.01
505.36	59140.66
505.53	59388.75
505.71	59447.27
505.88	59465.99
506.06	58866.81
506.23	58543.82
506.41	58321.47
506.58	58625.74
506.76	58452.54
506.93	58459.56
507.11	58138.91
507.28	58356.58
507.46	57893.15
507.63	57183.97
507.81	57221.42
507.98	57401.64
508.16	57989.11
508.33	58396.37
508.50	58899.58
508.68	59274.07
508.85	59681.32
509.03	59693.02
509.20	59435.56
509.38	58843.41
509.55	58056.99
509.73	58047.63
509.90	58630.42
510.08	59100.87
510.25	58712.34
510.42	58616.38
510.60	58504.03
510.77	59040.01
510.95	59166.40
511.12	59325.56
511.30	59657.91
511.47	60025.38
511.64	60074.53
511.82	59590.04
511.99	58759.15
512.17	58349.56
512.34	58019.54
512.51	58239.55
512.69	58588.29
512.86	58616.38
513.04	58857.45
513.21	58913.62
513.38	58525.10
513.56	58087.42
513.73	57640.37
513.90	57773.78
514.08	57984.43
514.25	58129.54
514.43	58169.33
514.60	58291.04
514.77	58473.60
514.95	58857.45
515.12	58511.05
515.29	58838.73
515.47	59473.01
515.64	59601.74
515.81	58960.44
515.99	58578.93
516.16	57104.39
516.33	54663.21
516.51	53525.71
516.68	52706.52
516.85	52128.41
517.03	52598.86
517.20	55082.17
517.37	57717.61
517.54	58915.96
517.72	58183.38
517.89	55671.98
518.06	53443.79
518.24	53530.39
518.41	55868.59
518.58	57212.06
518.75	57455.47
518.93	57649.74
519.10	57209.71
519.27	57879.11
519.45	58068.69
519.62	58906.60
519.79	59016.61
519.96	58937.03
520.14	58501.69
520.31	57586.54
520.48	57642.71
520.65	57954.00
520.83	59089.16
521.00	59316.20
521.17	58885.54
521.34	58492.33
521.52	58983.84
521.69	59295.13
521.86	59751.54
522.03	59444.93
522.20	58150.61
522.38	57188.65
522.55	57263.55
522.72	57715.27
522.89	57893.15
523.07	58265.30
523.24	58564.88
523.41	59248.32
523.58	59671.96
523.75	60032.40
523.92	59751.54
524.10	59891.97
524.27	59891.97
524.44	59529.19
524.61	59463.65
524.78	59229.60
524.96	59061.08
525.13	59231.94
525.30	59337.26
525.47	59870.90
525.64	59915.37
525.81	59128.95
525.98	57677.82
526.16	56381.16
526.33	55730.50
526.50	55384.10
526.67	54890.24
526.84	55564.32
527.01	56587.13
527.18	57471.85
527.36	58274.66
527.53	59002.56
527.70	59416.84
527.87	58738.08
528.04	58410.41
528.21	58745.11
528.38	59449.61
528.55	59950.48
528.72	60273.48
528.89	60486.46
529.07	60196.24
529.24	59402.80
529.41	58827.02
529.58	58218.49
529.75	58319.13
529.92	59035.33
530.09	59344.28
530.26	59746.86
530.43	59877.93
530.60	60074.53
530.77	60172.83
530.94	60441.99
531.11	59889.63
531.28	59585.36
531.46	59306.83
531.63	59538.55
531.80	59451.95
531.97	58824.68
532.14	58267.64
532.31	57336.10
532.48	56626.92
532.65	56545.00
532.82	57609.95
532.99	58445.52
533.16	58782.55
533.33	59405.14
533.50	59367.69
533.67	58431.47
533.84	58253.59
534.01	58375.30
534.18	58473.60
534.35	58857.45
534.52	58468.92
534.69	58873.84
534.86	59264.70
535.03	59185.13
535.20	59906.01
535.37	60044.10
535.54	60130.70
535.71	60025.38
535.88	59896.65
536.05	58897.24
536.22	58686.59
536.38	58234.87
536.55	57745.70
536.72	57216.74
536.89	57228.44
537.06	58096.78
537.23	58925.33
537.40	59166.40
537.57	59187.47
537.74	58843.41
537.91	58864.47
538.08	58562.54
538.25	58899.58
538.42	58869.15
538.59	58728.72
538.75	58330.83
538.92	57972.73
539.09	57904.85
539.26	57743.36
539.43	57581.86
539.60	57560.79
539.77	57705.91
539.94	57609.95
540.11	56760.33
540.28	56226.69
540.44	56575.43
540.61	56439.68
540.78	57062.26
540.95	57572.50
541.12	57574.84
541.29	58021.88
541.46	58225.51
541.62	58288.70
541.79	58099.12
541.96	57673.14
542.13	57436.75
542.30	58075.71
542.47	58005.50
542.63	57570.16
542.80	57497.60
542.97	57829.96
543.14	57621.65
543.31	57518.67
543.48	58026.56
543.64	59194.49
543.81	59206.19
543.98	59096.19
544.15	58085.07
544.32	57551.43
544.48	57822.93
544.65	58279.34
544.82	58623.40
544.99	58014.86
545.16	57932.94
545.32	57525.69
545.49	58293.38
545.66	58702.98
545.83	58426.79
546.00	58162.31
546.16	57752.72
546.33	57602.92
546.50	57963.37
546.67	58279.34
546.83	57750.38
547.00	58005.50
547.17	57134.82
547.34	56491.17
547.50	56587.13
547.67	57286.95
547.84	57120.77
548.00	57308.02
548.17	57785.49
548.34	57820.59
548.51	57799.53
548.67	57752.72
548.84	57893.15
549.01	57860.38
549.18	57836.98
549.34	57780.81
549.51	57673.14
549.68	57605.26
549.84	57413.34
550.01	57347.81
550.18	57214.40
550.34	57357.17
550.51	57279.93
550.68	57492.92
550.84	56842.25
551.01	57008.43
551.18	56996.73
551.34	57153.54
551.51	57394.62
551.68	57776.12
551.84	57673.14
552.01	57528.03
552.18	57427.38
552.34	56547.34
552.51	56378.82
552.68	56245.41
552.84	56839.91
553.01	57104.39
553.18	56746.29
553.34	57102.05
553.51	57193.33
553.67	57162.90
553.84	57666.12
554.01	57188.65
554.17	57244.82
554.34	57298.65
554.51	57462.49
554.67	57703.57
554.84	57703.57
555.00	57141.84
555.17	56912.47
555.33	56905.44
555.50	56858.63
555.67	56561.39
555.83	56350.74
556.00	56416.27
556.16	56147.11
556.33	55884.97
556.50	55695.39
556.66	55924.76
556.83	55306.86
556.99	55899.01
557.16	55718.79
557.32	56207.97
557.49	56367.12
557.65	56296.91
557.82	56514.58
557.98	55969.23
558.15	55592.40
558.32	54894.92
558.48	54052.33
558.65	54073.40
558.81	54756.83
558.98	54892.58
559.14	55365.37
559.31	55262.39
559.47	55187.49
559.64	54990.89
559.80	54515.76
559.97	54391.71
560.13	54918.33
560.30	55891.99
560.46	56580.11
560.63	56666.71
560.79	56907.79
560.96	56322.65
561.12	55243.66
561.29	54333.20
561.45	54227.87
561.61	55072.81
561.78	55182.81
561.94	55138.34
562.11	55180.47
562.27	55061.10
562.44	55391.12
562.60	55594.74
562.77	55627.51
562.93	55482.40
563.10	55386.44
563.26	54990.89
563.42	54824.71
563.59	54770.88
563.75	54424.48
563.92	55040.04
564.08	54859.82
564.24	55185.15
564.41	55030.68
564.57	55173.45
564.74	54611.72
564.90	54885.56
565.07	54649.17
565.23	54120.21
565.39	53858.07
565.56	53485.92
565.72	53282.30
565.88	53626.35
566.05	53696.57
566.21	53764.45
566.38	54005.52
566.54	54234.89
566.70	54485.33
566.87	54798.96
567.03	54911.31
567.19	55009.61
567.36	54513.42
567.52	54522.78
567.68	54372.99
567.85	53528.05
568.01	53050.58
568.17	52474.81
568.34	52926.53
568.50	52884.40
568.66	53076.33
568.83	53237.83
568.99	53460.18
569.15	53698.91
569.32	53478.90
569.48	53303.36
569.64	53258.89
569.81	52715.89
569.97	52336.72
570.13	52573.11
570.30	52231.40
570.46	51650.94
570.62	50817.71
570.78	51019.00
570.95	51318.59
571.11	52229.05
571.27	52320.34
571.43	52519.28
571.60	52830.57
571.76	52956.96
571.92	53174.63
572.09	53233.14
572.25	53413.37
572.41	53336.13
572.57	53169.95
572.74	53109.10
572.90	52556.73
573.06	53027.18
573.22	52753.33
573.38	52952.28
573.55	52636.31
573.71	53043.56
573.87	52734.61
574.03	52729.93
574.20	52678.44
574.36	52470.13
574.52	52287.57
574.68	51662.64
574.84	51599.45
575.01	51136.02
575.17	50976.87
575.33	51323.27
575.49	51604.13
575.65	51557.32
575.82	51559.66
575.98	51007.29
576.14	51585.41
576.30	52121.39
576.46	51936.49
576.62	51704.77
576.79	51707.12
576.95	51344.33
577.11	51267.09
577.27	51625.20
577.43	51576.04
577.59	50754.52
577.75	50588.34
577.92	49963.42
578.08	49762.13
578.24	49696.59
578.40	50473.65
578.56	50536.85
578.72	50185.77
578.88	50880.91
579.04	50920.70
579.21	51028.36
579.37	50937.08
579.53	51105.60
579.69	51042.40
579.85	51234.33
580.01	51152.41
580.17	50431.52
580.33	50965.17
580.49	50485.36
580.65	50696.00
580.82	51014.32
580.98	50726.43
581.14	51040.06
581.30	50899.63
581.46	50684.30
581.62	51260.07
581.78	50969.85
581.94	51196.88
582.10	50759.20
582.26	51255.39
582.42	51154.75
582.58	50916.01
582.74	50742.81
582.90	51234.33
583.06	51182.84
583.22	50635.15
583.38	50932.40
583.54	50848.14
583.70	50728.77
583.86	50829.41
584.02	50583.66
584.18	50445.57
584.34	50064.06
584.50	50284.07
584.66	50426.84
584.82	49659.15
584.98	50199.81
585.14	49195.72
585.30	48839.96
