SpectraSuite Data File
++++++++++++++++++++++++++++++++++++
Date: Mon Oct 07 14:53:22 GMT-05:00 2013
User: price-jones
Dark Spectrum Present: No
Reference Spectrum Present: No
Number of Sampled Component Spectra: 1
Spectrometers: USB2+H05261
Integration Time (usec): 100000 (USB2+H05261)
Spectra Averaged: 1 (USB2+H05261)
Boxcar Smoothing: 0 (USB2+H05261)
Correct for Electrical Dark: No (USB2+H05261)
Strobe/Lamp Enabled: No (USB2+H05261)
Correct for Detector Non-linearity: No (USB2+H05261)
Correct for Stray Light: No (USB2+H05261)
Number of Pixels in Processed Spectrum: 2048
>>>>>Begin Processed Spectral Data<<<<<
365.73	0.00
365.92	0.00
366.12	0.00
366.32	0.00
366.52	0.00
366.72	0.00
366.91	0.00
367.11	0.00
367.31	0.00
367.51	0.00
367.70	0.00
367.90	0.00
368.10	0.00
368.30	0.00
368.49	0.00
368.69	0.00
368.89	0.00
369.09	0.00
369.28	0.00
369.48	0.00
369.68	0.00
369.87	0.00
370.07	0.00
370.27	0.00
370.47	578.11
370.66	3019.29
370.86	3459.31
371.06	3866.56
371.25	3946.14
371.45	3513.14
371.65	3206.53
371.84	2923.33
372.04	3155.04
372.24	3475.70
372.44	3669.96
372.63	3552.93
372.83	3442.93
373.03	2848.43
373.22	2656.51
373.42	2888.22
373.62	3358.67
373.81	3574.00
374.01	3545.91
374.21	3316.54
374.40	3009.93
374.60	3091.85
374.79	3398.46
374.99	4081.89
375.19	4341.69
375.38	4437.66
375.58	4149.77
375.78	4009.34
375.97	4079.55
376.17	4280.84
376.37	4203.60
376.56	4416.59
376.76	4748.95
376.95	5034.49
377.15	5282.59
377.35	5378.55
377.54	5781.12
377.74	5968.37
377.93	6073.69
378.13	5809.21
378.33	5352.81
378.52	5083.64
378.72	4894.06
378.91	4662.35
379.11	4650.64
379.31	4449.36
379.50	4484.47
379.70	4842.57
379.89	5296.63
380.09	5621.97
380.28	5816.23
380.48	5783.46
380.68	5612.60
380.87	5535.37
381.07	5188.97
381.26	4734.90
381.46	4461.06
381.65	4299.56
381.85	4100.62
382.04	3904.01
382.24	3803.37
382.43	3393.78
382.63	3382.07
382.83	3506.12
383.02	3468.67
383.22	3524.85
383.41	3403.14
383.61	3866.56
383.80	4191.90
384.00	4882.36
384.19	5408.98
384.39	5647.71
384.58	5720.27
384.78	5605.58
384.97	5549.41
385.17	5310.68
385.36	4887.04
385.56	4851.93
385.75	5004.07
385.95	5408.98
386.14	5823.25
386.34	5863.04
386.53	5497.92
386.72	5282.59
386.92	5416.00
387.11	5474.51
387.31	5970.71
387.50	5659.42
387.70	5600.90
387.89	5488.56
388.09	5511.96
388.28	5727.29
388.48	5673.46
388.67	6209.44
388.86	6810.96
389.06	7169.06
389.25	7431.20
389.45	7758.88
389.64	7541.21
389.84	7440.56
390.03	7290.77
390.22	7297.79
390.42	7534.18
390.61	8145.06
390.81	8634.24
391.00	8755.94
391.19	8809.78
391.39	8601.47
391.58	7927.39
391.78	7576.31
391.97	7302.47
392.16	6846.07
392.36	6076.03
392.55	5064.92
392.75	3960.19
392.94	3318.88
393.13	3365.69
393.33	3756.56
393.52	5053.22
393.71	5961.34
393.91	6768.83
394.10	7148.00
394.29	8009.31
394.49	8690.41
394.68	9191.28
394.88	9287.25
395.07	9483.85
395.26	9502.58
395.46	9200.65
395.65	8685.73
395.84	7667.60
396.04	6525.41
396.23	5123.43
396.42	4468.08
396.62	4102.96
396.81	4828.53
397.00	6291.36
397.19	7925.05
397.39	9245.12
397.58	10824.98
397.77	11257.98
397.97	11541.18
398.16	11557.57
398.35	12067.80
398.55	12468.03
398.74	12863.58
398.93	13528.30
399.12	12865.92
399.32	12411.86
399.51	12688.04
399.70	13657.03
399.90	13558.72
400.09	13834.91
400.28	13420.63
400.47	13509.57
400.67	14406.00
400.86	14644.73
401.05	14750.06
401.24	14633.03
401.44	14958.36
401.63	14796.87
401.82	15033.26
402.01	14974.75
402.21	15152.63
402.40	15304.76
402.59	14956.02
402.78	14160.24
402.97	13584.47
403.17	14436.42
403.36	15260.29
403.55	15583.29
403.74	16250.34
403.93	15580.95
404.13	14146.20
404.32	13944.91
404.51	14235.14
404.70	15548.18
404.89	15431.15
405.09	15496.69
405.28	14906.87
405.47	14820.27
405.66	15152.63
405.85	14457.49
406.05	14104.07
406.24	14363.87
406.43	14836.66
406.62	15407.75
406.81	15393.70
407.00	15005.17
407.20	14595.58
407.39	14368.55
407.58	15566.90
407.77	16004.58
407.96	16608.44
408.15	16613.12
408.34	16702.06
408.54	17514.23
408.73	17561.04
408.92	17303.58
409.11	16816.75
409.30	16280.77
409.49	15140.93
409.68	13994.06
409.87	13778.73
410.07	14583.88
410.26	15735.42
410.45	16580.36
410.64	17003.99
410.83	17598.49
411.02	17851.27
411.21	18768.76
411.40	18335.76
411.59	18410.65
411.78	18380.23
411.98	18260.86
412.17	18546.40
412.36	18216.39
412.55	18169.58
412.74	17813.82
412.93	17575.08
413.12	17605.51
413.31	19283.67
413.50	19302.40
413.69	19719.01
413.88	19012.17
414.07	18480.87
414.26	19005.15
414.45	19236.86
414.64	19400.70
414.83	19711.99
415.02	19157.28
415.22	19014.51
415.41	19398.36
415.60	20128.61
415.79	20936.09
415.98	21563.36
416.17	21345.69
416.36	20875.24
416.55	20458.62
416.74	20088.82
416.93	19421.77
417.12	19133.88
417.31	19295.38
417.50	19843.06
417.69	20709.06
417.88	20491.39
418.07	20355.64
418.26	20053.71
418.45	20226.91
418.64	21062.48
418.83	21532.93
419.02	21479.10
419.21	21324.62
419.39	20306.49
419.58	19061.32
419.77	19194.73
419.96	20049.03
420.15	21294.19
420.34	22204.66
420.53	22867.03
420.72	23042.57
420.91	22766.39
421.10	22455.10
421.29	22445.74
421.48	21490.80
421.67	22768.73
421.86	22064.23
422.05	20615.44
422.24	18443.42
422.43	18237.45
422.61	19948.39
422.80	21905.07
422.99	21696.77
423.18	21219.30
423.37	20580.33
423.56	20673.95
423.75	21060.14
423.94	21296.53
424.13	20004.56
424.32	20800.34
424.50	20709.06
424.69	20526.50
424.88	20587.35
425.07	20475.01
425.26	20404.79
425.45	20198.82
425.64	19955.41
425.83	19859.45
426.01	21289.51
426.20	21343.35
426.39	20985.24
426.58	19810.29
426.77	18085.32
426.96	17415.93
427.15	18258.52
427.33	19819.66
427.52	20472.67
427.71	20800.34
427.90	20652.89
428.09	20105.20
428.28	19763.48
428.46	19243.88
428.65	18707.90
428.84	19468.58
429.03	19756.46
429.22	18579.17
429.40	17738.92
429.59	16020.97
429.78	14017.47
429.97	14209.39
430.16	14324.08
430.34	14429.40
430.53	14382.59
430.72	14799.21
430.91	16610.78
431.10	19424.11
431.28	22354.46
431.47	24503.07
431.66	24493.71
431.85	22424.67
432.03	20617.78
432.22	19819.66
432.41	20847.15
432.60	22738.30
432.79	23601.96
432.97	24608.39
433.16	23885.17
433.35	21607.83
433.54	19824.34
433.72	18225.75
433.91	18733.65
434.10	21158.44
434.28	22382.54
434.47	23786.86
434.66	23475.57
434.85	22946.61
435.03	23016.83
435.22	23260.24
435.41	24975.86
435.59	24765.21
435.78	24826.06
435.97	25776.32
436.16	25970.58
436.34	25397.15
436.53	24830.74
436.72	25053.09
436.90	23543.45
437.09	23644.09
437.28	23044.91
437.46	24116.88
437.65	24133.26
437.84	22492.55
438.02	20634.16
438.21	20332.23
438.40	21509.52
438.58	23342.16
438.77	23971.77
438.96	24280.72
439.14	25085.86
439.33	25956.54
439.52	26335.71
439.70	25635.89
439.89	24933.73
440.08	24067.73
440.26	24369.66
440.45	25387.79
440.63	26897.44
440.82	28102.81
441.01	28109.83
441.19	27737.69
441.38	28297.08
441.57	29181.80
441.75	29116.26
441.94	29369.04
442.12	29200.52
442.31	29755.23
442.50	29607.78
442.68	29598.41
442.87	29280.10
443.05	28353.25
443.24	29371.38
443.43	29631.18
443.61	30654.00
443.80	30953.58
443.98	28826.04
444.17	28760.50
444.35	30764.00
444.54	31456.80
444.73	30684.42
444.91	29142.01
445.10	28004.51
445.28	27395.97
445.47	26394.22
445.65	27140.85
445.84	27728.33
446.02	28294.74
446.21	29193.50
446.39	28924.34
446.58	29158.39
446.77	29893.32
446.95	30541.65
447.14	30780.39
447.32	31941.29
447.51	30759.32
447.69	30141.42
447.88	29446.28
448.06	29937.79
448.25	30546.33
448.43	30319.30
448.62	30061.84
448.80	29614.80
448.99	29947.15
449.17	30291.21
449.36	30705.49
449.54	31274.24
449.73	32308.76
449.91	32224.50
450.10	33233.27
450.28	33593.71
450.46	33418.17
450.65	32980.49
450.83	33153.69
451.02	32685.58
451.20	32755.80
451.39	32556.85
451.57	31922.57
451.76	31938.95
451.94	31702.56
452.13	31503.61
452.31	29893.32
452.49	28627.09
452.68	28982.85
452.86	28933.70
453.05	29446.28
453.23	29991.62
453.42	31047.21
453.60	31349.14
453.78	32112.15
453.97	31648.72
454.15	31868.73
454.34	31044.87
454.52	30955.93
454.70	30370.79
454.89	30780.39
455.07	30890.39
455.26	31503.61
455.44	32720.69
455.62	33055.39
455.81	33539.88
455.99	33024.96
456.17	32774.52
456.36	32823.67
456.54	33755.21
456.73	33633.50
456.91	34089.90
457.09	34529.92
457.28	35498.91
457.46	34071.18
457.64	33418.17
457.83	32393.01
458.01	31845.33
458.19	32818.99
458.38	32664.52
458.56	33888.62
458.74	33614.77
458.93	33263.69
459.11	33172.41
459.29	32479.61
459.48	32964.10
459.66	32783.88
459.84	33530.51
460.03	33771.59
460.21	33813.72
460.39	34529.92
460.57	34534.60
460.76	35042.50
460.94	34878.66
461.12	34515.88
461.31	34181.18
461.49	34520.56
461.67	34333.32
461.85	35807.86
462.04	35304.64
462.22	36023.19
462.40	35651.04
462.59	35208.68
462.77	35353.79
462.95	35449.75
463.13	34815.47
463.32	34632.91
463.50	34265.44
463.68	34902.07
463.86	34401.19
464.05	33940.11
464.23	33362.00
464.41	33472.00
464.59	32580.26
464.78	34251.40
464.96	34043.09
465.14	33947.13
465.32	34653.97
465.50	35955.31
465.69	36198.73
465.87	35316.34
466.05	34216.29
466.23	32517.06
466.41	31737.66
466.60	32793.25
466.78	33006.23
466.96	33869.89
467.14	33837.12
467.32	34213.95
467.51	34387.15
467.69	32741.75
467.87	33329.23
468.05	34143.74
468.23	34438.64
468.41	34110.97
468.60	34370.77
468.78	34630.57
468.96	33949.47
469.14	35035.48
469.32	35281.24
469.50	33532.86
469.69	34225.65
469.87	33198.16
470.05	32870.48
470.23	33209.86
470.41	33387.74
470.59	33769.25
470.77	33907.34
470.95	34581.42
471.14	34827.17
471.32	34944.20
471.50	37017.91
471.68	37013.23
471.86	37474.32
472.04	37427.51
472.22	37364.31
472.40	35805.52
472.58	35576.14
472.77	35051.86
472.95	35716.58
473.13	36753.43
473.31	35775.09
473.49	36245.54
473.67	36811.95
473.85	37088.13
474.03	37464.96
474.21	37745.82
474.39	38698.42
474.57	38312.23
474.75	38574.37
474.93	38059.45
475.12	37036.64
475.30	37574.96
475.48	37490.70
475.66	38202.22
475.84	37621.77
476.02	37373.67
476.20	36758.11
476.38	37701.35
476.56	38670.33
476.74	39152.48
476.92	38904.38
477.10	39543.35
477.28	40903.20
477.46	41113.85
477.64	41226.20
477.82	41509.40
478.00	41581.96
478.18	41287.05
478.36	40755.75
478.54	41015.55
478.72	41228.54
478.90	41563.23
479.08	43199.27
479.26	43805.47
479.44	43473.11
479.62	42983.94
479.80	43164.16
479.98	43297.57
480.16	43772.70
480.34	43461.41
480.52	43849.94
480.70	43962.28
480.88	44135.48
481.06	44863.39
481.24	44849.35
481.41	45806.62
481.59	46670.28
481.77	46480.70
481.95	45989.19
482.13	45490.65
482.31	45811.31
482.49	46431.55
482.67	45949.40
482.85	46405.80
483.03	47023.70
483.21	47281.16
483.39	47306.91
483.57	46405.80
483.74	46424.53
483.92	46719.43
484.10	46876.25
484.28	47627.56
484.46	48154.18
484.64	48107.37
484.82	47583.09
485.00	47229.67
485.18	46396.44
485.35	45158.30
485.53	42103.90
485.71	38831.83
485.89	38017.32
486.07	39950.60
486.25	42801.38
486.43	45382.99
486.61	46066.42
486.78	46415.16
486.96	46167.07
487.14	47913.11
487.32	48765.06
487.50	50092.15
487.68	50461.95
487.85	51016.66
488.03	50873.88
488.21	50656.21
488.39	50057.04
488.57	49031.88
488.75	48851.66
488.92	50059.38
489.10	52140.11
489.28	53647.42
489.46	54391.71
489.64	54010.20
489.81	54337.88
489.99	53757.42
490.17	53846.36
490.35	54181.06
490.53	53609.97
490.70	53364.21
490.88	52907.81
491.06	54190.42
491.24	54101.48
491.41	53279.96
491.59	51386.46
491.77	50841.12
491.95	51807.76
492.13	52982.71
492.30	54038.29
492.48	55173.45
492.66	55639.22
492.84	55587.72
493.01	55182.81
493.19	54831.73
493.37	54426.82
493.54	54302.77
493.72	55091.53
493.90	55707.09
494.08	56596.49
494.25	56961.62
494.43	56772.03
494.61	57492.92
494.79	57380.57
494.96	57148.86
495.14	56535.64
495.32	55681.34
495.49	55105.57
495.67	56313.29
495.85	57614.63
496.02	57766.76
496.20	57794.85
496.38	56980.34
496.55	57102.05
496.73	57551.43
496.91	57645.05
497.09	58096.78
497.26	58541.48
497.44	58108.48
497.62	57553.77
497.79	56959.28
497.97	55313.88
498.14	55690.71
498.32	56786.08
498.50	57640.37
498.67	58066.35
498.85	57937.62
499.03	58103.80
499.20	58326.15
499.38	58309.77
499.56	58197.42
499.73	57719.95
499.91	57221.42
500.08	57118.43
500.26	56350.74
500.44	56626.92
500.61	57448.45
500.79	57111.41
500.97	56970.98
501.14	56608.20
501.32	56577.77
501.49	56521.60
501.67	56750.97
501.84	57146.52
502.02	57616.97
502.20	57846.34
502.37	57806.55
502.55	58117.84
502.72	58777.87
502.90	59070.44
503.07	58672.55
503.25	58370.62
503.43	57577.18
503.60	56879.70
503.78	56207.97
503.95	56938.21
504.13	58096.78
504.30	58745.11
504.48	58461.90
504.65	58274.66
504.83	58305.09
505.01	58700.64
505.18	59222.58
505.36	59826.43
505.53	59817.07
505.71	59929.42
505.88	60156.45
506.06	59505.78
506.23	59068.10
506.41	58644.46
506.58	59011.93
506.76	59025.97
506.93	58824.68
507.11	58749.79
507.28	58822.34
507.46	58464.24
507.63	57743.36
507.81	57546.75
507.98	57858.04
508.16	58642.12
508.33	58920.65
508.50	59456.63
508.68	59716.43
508.85	60072.19
509.03	60196.24
509.20	59917.71
509.38	59224.92
509.55	58607.01
509.73	58855.11
509.90	59215.55
510.08	59480.03
510.25	59536.21
510.42	59241.30
510.60	59061.08
510.77	59381.73
510.95	59835.80
511.12	59990.27
511.30	60308.58
511.47	60449.02
511.64	60350.71
511.82	60144.75
511.99	59601.74
512.17	59117.25
512.34	58700.64
512.51	58892.56
512.69	58812.98
512.86	59161.72
513.04	59473.01
513.21	59292.79
513.38	59222.58
513.56	58578.93
513.73	58195.08
513.90	58342.53
514.08	58347.21
514.25	58780.21
514.43	58880.86
514.60	59056.40
514.77	58962.78
514.95	59215.55
515.12	59260.02
515.29	59299.81
515.47	59749.20
515.64	60154.11
515.81	59524.50
515.99	58920.65
516.16	57691.86
516.33	55653.26
516.51	54213.83
516.68	53324.43
516.85	53109.10
517.03	53432.09
517.20	55934.12
517.37	58405.73
517.54	59416.84
517.72	58609.35
517.89	56179.88
518.06	54110.85
518.24	54625.76
518.41	56500.53
518.58	57939.96
518.75	58159.97
518.93	58340.19
519.10	58176.36
519.27	58532.12
519.45	58791.92
519.62	59278.75
519.79	60048.78
519.96	59508.12
520.14	59152.36
520.31	58471.26
520.48	58354.24
520.65	58625.74
520.83	59721.11
521.00	60011.34
521.17	59627.49
521.34	59393.43
521.52	59568.97
521.69	59962.18
521.86	60413.91
522.03	60116.66
522.20	59056.40
522.38	58162.31
522.55	58089.76
522.72	58674.89
522.89	58742.77
523.07	59021.29
523.24	59112.57
523.41	60016.02
523.58	60261.77
523.75	60711.16
523.92	60540.30
524.10	60491.15
524.27	60575.40
524.44	60411.57
524.61	60273.48
524.78	59927.08
524.96	59929.42
525.13	60011.34
525.30	60261.77
525.47	60732.22
525.64	60449.02
525.81	59681.32
525.98	58471.26
526.16	57069.28
526.33	56554.36
526.50	56130.73
526.67	55831.14
526.84	56332.01
527.01	57296.31
527.18	58284.02
527.36	59051.72
527.53	59962.18
527.70	60170.49
527.87	59594.72
528.04	59192.15
528.21	59526.84
528.38	60320.29
528.55	60722.86
528.72	60917.12
528.89	61216.71
529.07	60849.25
529.24	60343.69
529.41	59746.86
529.58	58883.20
529.75	59248.32
529.92	59784.30
530.09	60170.49
530.26	60463.06
530.43	60755.63
530.60	60919.46
530.77	60989.68
530.94	61073.94
531.11	60664.35
531.28	60236.03
531.46	60062.83
531.63	60238.37
531.80	59938.78
531.97	59622.81
532.14	58979.16
532.31	58213.80
532.48	57415.68
532.65	57722.29
532.82	58197.42
532.99	59400.46
533.16	59643.87
533.33	60219.64
533.50	60032.40
533.67	59599.40
533.84	59004.91
534.01	59185.13
534.18	59484.72
534.35	59798.35
534.52	59454.29
534.69	59592.38
534.86	60177.51
535.03	60161.13
535.20	60755.63
535.37	60900.74
535.54	61186.28
535.71	61066.92
535.88	60439.65
536.05	59812.39
536.22	59283.43
536.38	58988.52
536.55	58740.42
536.72	58216.14
536.89	58014.86
537.06	59157.04
537.23	59700.04
537.40	60027.72
537.57	59873.24
537.74	59732.81
537.91	59786.64
538.08	59662.60
538.25	59941.12
538.42	60039.42
538.59	59695.36
538.75	59159.38
538.92	58815.32
539.09	58747.45
539.26	58719.36
539.43	58335.51
539.60	58475.94
539.77	58791.92
539.94	58333.17
540.11	57673.14
540.28	57436.75
540.44	57401.64
540.61	57448.45
540.78	57865.06
540.95	58508.71
541.12	58604.67
541.29	58782.55
541.46	59044.69
541.62	59152.36
541.79	59189.81
541.96	58422.11
542.13	58342.53
542.30	58782.55
542.47	58897.24
542.63	58628.08
542.80	58562.54
542.97	58784.90
543.14	58660.85
543.31	58480.63
543.48	59028.31
543.64	59786.64
543.81	60048.78
543.98	59868.56
544.15	59138.32
544.32	58578.93
544.48	58962.78
544.65	59150.02
544.82	59632.17
544.99	59222.58
545.16	58901.92
545.32	58461.90
545.49	59465.99
545.66	59700.04
545.83	59416.84
546.00	59077.46
546.16	58848.09
546.33	58674.89
546.50	58693.61
546.67	59325.56
546.83	58651.48
547.00	58920.65
547.17	58080.39
547.34	57565.48
547.50	57593.56
547.67	58028.90
547.84	58099.12
548.00	58436.16
548.17	58932.35
548.34	58941.71
548.51	58791.92
548.67	58768.51
548.84	58979.16
549.01	58621.06
549.18	58632.76
549.34	58599.99
549.51	58595.31
549.68	58672.55
549.84	57935.28
550.01	58244.23
550.18	58239.55
550.34	58248.91
550.51	58382.32
550.68	58492.33
550.84	58000.82
551.01	58188.06
551.18	57855.70
551.34	57991.45
551.51	58639.78
551.68	58815.32
551.84	58876.18
552.01	58578.93
552.18	58426.79
552.34	57675.48
552.51	57338.44
552.68	57277.59
552.84	57759.74
553.01	58134.23
553.18	57633.35
553.34	58190.40
553.51	58274.66
553.67	58412.75
553.84	58581.27
554.01	58309.77
554.17	58183.38
554.34	58295.72
554.51	58555.52
554.67	58908.94
554.84	58653.82
555.00	58225.51
555.17	58005.50
555.33	57963.37
555.50	57944.64
555.67	57963.37
555.83	57811.23
556.00	57485.90
556.16	57399.30
556.33	56970.98
556.50	57071.62
556.66	57090.35
556.83	56809.48
556.99	57155.88
557.16	57071.62
557.32	57284.61
557.49	57675.48
557.65	57537.39
557.82	57544.41
557.98	57343.12
558.15	56750.97
558.32	56053.49
558.48	55384.10
558.65	55480.06
558.81	55723.47
558.98	56282.86
559.14	56678.41
559.31	56514.58
559.47	56465.42
559.64	56198.60
559.80	55859.23
559.97	56060.51
560.13	56367.12
560.30	57130.14
560.46	57598.24
560.63	57733.99
560.79	57743.36
560.96	57364.19
561.12	56296.91
561.29	55613.47
561.45	55508.14
561.61	56224.35
561.78	56591.81
561.94	56505.21
562.11	56130.73
562.27	56275.84
562.44	56519.26
562.60	56837.57
562.77	57109.07
562.93	56807.14
563.10	56837.57
563.26	56200.94
563.42	56598.83
563.59	56016.04
563.75	56147.11
563.92	56144.77
564.08	56353.08
564.24	56280.52
564.41	56530.96
564.57	56023.06
564.74	56175.20
564.90	56170.52
565.07	55718.79
565.23	55643.90
565.39	55070.46
565.56	54948.76
565.72	54721.72
565.88	54976.84
566.05	55290.48
566.21	55356.01
566.38	55545.59
566.54	55337.29
566.70	55913.06
566.87	56184.56
567.03	56240.73
567.19	56257.12
567.36	55964.55
567.52	55870.93
567.68	55814.76
567.85	54962.80
568.01	54887.90
568.17	54075.74
568.34	54089.78
568.50	54262.98
568.66	54513.42
568.83	54621.08
568.99	54932.37
569.15	55089.19
569.32	55124.30
569.48	54773.22
569.64	54653.85
569.81	54401.07
569.97	54143.61
570.13	54174.04
570.30	53666.14
570.46	53214.42
570.62	52584.82
570.78	52552.05
570.95	53048.24
571.11	53387.62
571.27	53904.88
571.43	54167.02
571.60	54356.60
571.76	54274.68
571.92	54700.66
572.09	54983.86
572.25	54883.22
572.41	54990.89
572.57	54630.44
572.74	54600.02
572.90	54354.26
573.06	54106.16
573.22	54244.26
573.38	54342.56
573.55	54033.61
573.71	54284.04
573.87	54272.34
574.03	53916.58
574.20	54218.51
574.36	53595.93
574.52	53680.19
574.68	53483.58
574.84	52956.96
575.01	52959.30
575.17	52640.99
575.33	53024.84
575.49	53333.79
575.65	53581.88
575.82	52727.59
575.98	52807.17
576.14	53261.23
576.30	53223.78
576.46	53834.66
576.62	53368.90
576.79	53202.72
576.95	53027.18
577.11	52952.28
577.27	53134.84
577.43	53111.44
577.59	52631.63
577.75	52413.96
577.92	51660.30
578.08	51337.31
578.24	51400.50
578.40	52294.59
578.56	52266.50
578.72	52198.63
578.88	52430.34
579.04	52479.49
579.21	52631.63
579.37	52736.95
579.53	52727.59
579.69	52802.49
579.85	53034.20
580.01	52704.18
580.17	52158.84
580.33	52168.20
580.49	52418.64
580.65	52608.22
580.82	52753.33
580.98	52598.86
581.14	52514.60
581.30	52755.68
581.46	52456.09
581.62	52987.39
581.78	52828.23
581.94	52982.71
582.10	52662.05
582.26	52849.30
582.42	52575.45
582.58	52584.82
582.74	52587.16
582.90	52821.21
583.06	52821.21
583.22	52638.65
583.38	52296.93
583.54	52493.54
583.70	52275.87
583.86	52006.70
584.02	52240.76
584.18	52210.33
584.34	52364.81
584.50	52289.91
584.66	52257.14
584.82	51496.47
584.98	51772.65
585.14	51311.56
585.30	50660.90
