SpectraSuite Data File
++++++++++++++++++++++++++++++++++++
Date: Mon Oct 07 14:53:21 GMT-05:00 2013
User: price-jones
Dark Spectrum Present: No
Reference Spectrum Present: No
Number of Sampled Component Spectra: 1
Spectrometers: USB2+H05261
Integration Time (usec): 100000 (USB2+H05261)
Spectra Averaged: 1 (USB2+H05261)
Boxcar Smoothing: 0 (USB2+H05261)
Correct for Electrical Dark: No (USB2+H05261)
Strobe/Lamp Enabled: No (USB2+H05261)
Correct for Detector Non-linearity: No (USB2+H05261)
Correct for Stray Light: No (USB2+H05261)
Number of Pixels in Processed Spectrum: 2048
>>>>>Begin Processed Spectral Data<<<<<
365.73	0.00
365.92	0.00
366.12	0.00
366.32	0.00
366.52	0.00
366.72	0.00
366.91	0.00
367.11	0.00
367.31	0.00
367.51	0.00
367.70	0.00
367.90	0.00
368.10	0.00
368.30	0.00
368.49	0.00
368.69	0.00
368.89	0.00
369.09	0.00
369.28	0.00
369.48	0.00
369.68	0.00
369.87	0.00
370.07	0.00
370.27	0.00
370.47	587.47
370.66	3119.93
370.86	3693.37
371.06	4037.42
371.25	3955.51
371.45	3503.78
371.65	3262.71
371.84	3119.93
372.04	3159.72
372.24	3510.80
372.44	3779.97
372.63	3726.13
372.83	3461.65
373.03	2925.67
373.22	2672.89
373.42	2920.99
373.62	3536.55
373.81	3688.68
374.01	3588.04
374.21	3220.58
374.40	3117.59
374.60	3265.05
374.79	3660.60
374.99	4152.11
375.19	4456.38
375.38	4608.51
375.58	4297.22
375.78	4215.30
375.97	4320.63
376.17	4297.22
376.37	4329.99
376.56	4739.58
376.76	4730.22
376.95	5102.37
377.15	5638.35
377.35	5563.45
377.54	5949.64
377.74	6132.20
377.93	6148.59
378.13	5844.32
378.33	5621.97
378.52	5247.48
378.72	5071.94
378.91	4877.68
379.11	4784.06
379.31	4657.67
379.50	4603.83
379.70	5135.14
379.89	5514.30
380.09	5954.32
380.28	6043.26
380.48	5984.75
380.68	5851.34
380.87	5692.18
381.07	5254.50
381.26	4938.53
381.46	4622.56
381.65	4512.55
381.85	4250.41
382.04	4140.41
382.24	3904.01
382.43	3623.15
382.63	3639.53
382.83	3611.45
383.02	3545.91
383.22	3595.06
383.41	3552.93
383.61	3920.40
383.80	4493.83
384.00	4978.32
384.19	5682.82
384.39	5963.68
384.58	6066.67
384.78	5867.72
384.97	5760.06
385.17	5334.08
385.36	5336.42
385.56	4915.12
385.75	4966.62
385.95	5687.50
386.14	6085.39
386.34	6174.33
386.53	5771.76
386.72	5308.34
386.92	5523.66
387.11	5666.44
387.31	6235.19
387.50	5963.68
387.70	5753.04
387.89	5668.78
388.09	5799.85
388.28	5837.30
388.48	6026.88
388.67	6244.55
388.86	6892.88
389.06	7311.83
389.25	7742.49
389.45	7927.39
389.64	7878.24
389.84	7911.01
390.03	7623.12
390.22	7585.68
390.42	7990.59
390.61	8425.93
390.81	9069.58
391.00	9025.11
391.19	9027.45
391.39	8908.08
391.58	8271.45
391.78	7662.91
391.97	7581.00
392.16	6970.12
392.36	6274.98
392.55	5039.17
392.75	3962.53
392.94	3461.65
393.13	3332.92
393.33	3875.93
393.52	5137.48
393.71	6120.50
393.91	6913.94
394.10	7669.94
394.29	8077.19
394.49	8887.01
394.68	9682.80
394.88	9572.79
395.07	10178.99
395.26	9865.36
395.46	9537.68
395.65	9137.45
395.84	7957.82
396.04	6775.85
396.23	5432.38
396.42	4507.87
396.62	4234.03
396.81	5050.88
397.00	6387.32
397.19	8009.31
397.39	9645.35
397.58	10679.86
397.77	11623.10
397.97	11847.79
398.16	12308.88
398.35	12496.12
398.55	13048.49
398.74	13427.65
398.93	13743.63
399.12	13689.79
399.32	13270.84
399.51	13439.36
399.70	14347.48
399.90	14148.54
400.09	13874.70
400.28	13675.75
400.47	14085.34
400.67	14712.61
400.86	15000.49
401.05	15094.11
401.24	14986.45
401.44	15618.39
401.63	15393.70
401.82	15594.99
402.01	15613.71
402.21	15674.57
402.40	15770.53
402.59	15276.68
402.78	14600.26
402.97	14139.18
403.17	14665.80
403.36	15367.96
403.55	16273.74
403.74	16524.18
403.93	15522.43
404.13	14532.39
404.32	14181.31
404.51	14719.63
404.70	16194.17
404.89	15826.70
405.09	15800.96
405.28	15606.69
405.47	15318.81
405.66	15229.87
405.85	14918.57
406.05	14403.66
406.24	14719.63
406.43	15391.36
406.62	15800.96
406.81	16044.37
407.00	15314.13
407.20	15161.99
407.39	15346.89
407.58	16154.38
407.77	16453.97
407.96	17069.53
408.15	17256.77
408.34	17345.71
408.54	18291.29
408.73	18064.25
408.92	17734.24
409.11	17334.01
409.30	16648.23
409.49	15758.83
409.68	14801.55
409.87	14197.69
410.07	14913.89
410.26	16149.70
410.45	17142.08
410.64	17855.95
410.83	18319.37
411.02	18462.15
411.21	19351.55
411.40	19054.30
411.59	19047.28
411.78	18951.32
411.98	18471.51
412.17	19077.71
412.36	18569.81
412.55	18899.83
412.74	18359.16
412.93	17869.99
413.12	18192.98
413.31	19854.76
413.50	19936.68
413.69	20329.89
413.88	19634.75
414.07	19278.99
414.26	19379.64
414.45	19805.61
414.64	20044.35
414.83	20357.98
415.02	20091.16
415.22	19700.29
415.41	20217.55
415.60	20493.73
415.79	21525.91
415.98	21982.31
416.17	22040.82
416.36	21727.19
416.55	21352.71
416.74	20367.34
416.93	19910.94
417.12	19784.55
417.31	20318.19
417.50	20704.38
417.69	21151.42
417.88	20992.26
418.07	20730.12
418.26	20645.87
418.45	20945.45
418.64	21298.88
418.83	22068.91
419.02	21949.54
419.21	21745.92
419.39	20666.93
419.58	20219.89
419.77	19807.95
419.96	20900.98
420.15	22263.18
420.34	22338.07
420.53	23522.38
420.72	23880.49
420.91	23398.34
421.10	23084.70
421.29	23353.87
421.48	22368.50
421.67	23597.28
421.86	22923.21
422.05	21479.10
422.24	19028.56
422.43	19108.13
422.61	20999.29
422.80	22553.40
422.99	22860.01
423.18	22003.38
423.37	21422.92
423.56	21123.33
423.75	21949.54
423.94	22101.68
424.13	20982.90
424.32	21254.40
424.50	21200.57
424.69	21158.44
424.88	21090.57
425.07	20959.50
425.26	21191.21
425.45	20645.87
425.64	20482.03
425.83	20262.02
426.01	21965.93
426.20	22319.35
426.39	21909.75
426.58	20238.61
426.77	19084.73
426.96	18125.11
427.15	18930.25
427.33	20367.34
427.52	21532.93
427.71	21235.68
427.90	20957.16
428.09	20732.47
428.28	20442.24
428.46	19676.88
428.65	19606.67
428.84	20065.41
429.03	20622.46
429.22	19400.70
429.40	18127.45
429.59	16732.49
429.78	14698.56
429.97	14609.62
430.16	14974.75
430.34	15140.93
430.53	14792.19
430.72	15297.74
430.91	16823.77
431.10	19800.93
431.28	23274.29
431.47	25191.19
431.66	25401.83
431.85	23377.27
432.03	21275.47
432.22	20128.61
432.41	21209.93
432.60	23807.93
432.79	24393.06
432.97	25226.29
433.16	24812.02
433.35	22836.61
433.54	20201.16
433.72	18663.43
433.91	19510.71
434.10	21600.80
434.28	23594.94
434.47	24243.27
434.66	24290.08
434.85	23587.92
435.03	23571.54
435.22	23878.15
435.41	25603.12
435.59	25317.57
435.78	25638.23
435.97	26555.72
436.16	26614.23
436.34	26232.72
436.53	25703.76
436.72	25942.50
436.90	24519.45
437.09	24561.58
437.28	24271.36
437.46	24816.70
437.65	24706.70
437.84	22958.31
438.02	21242.70
438.21	20989.92
438.40	22319.35
438.58	23887.51
438.77	24503.07
438.96	24828.40
439.14	25958.88
439.33	26600.19
439.52	27522.36
439.70	26583.80
439.89	25865.26
440.08	25455.67
440.26	25025.01
440.45	25680.36
440.63	28011.53
440.82	28907.96
441.01	28797.95
441.19	28395.38
441.38	28926.68
441.57	30089.93
441.75	30553.35
441.94	30281.85
442.12	30417.60
442.31	30941.88
442.50	30845.92
442.68	30209.29
442.87	30115.67
443.05	29916.73
443.24	30118.01
443.43	30630.59
443.61	31297.64
443.80	31917.89
443.98	29778.64
444.17	29851.19
444.35	31374.88
444.54	32187.05
444.73	31796.18
444.91	30820.17
445.10	29036.69
445.28	27744.71
445.47	27587.89
445.65	27749.39
445.84	28680.92
446.02	29741.19
446.21	29701.40
446.39	30071.20
446.58	30204.61
446.77	31297.64
446.95	30852.94
447.14	32238.54
447.32	32301.73
447.51	31559.78
447.69	30632.93
447.88	30260.79
448.06	30618.89
448.25	31960.02
448.43	31840.65
448.62	30712.51
448.80	30756.98
448.99	31349.14
449.17	31519.99
449.36	31613.62
449.54	32716.01
449.73	33104.54
449.91	33350.29
450.10	34246.72
450.28	34888.03
450.46	34717.17
450.65	34235.02
450.83	34305.23
451.02	33270.72
451.20	33467.32
451.39	33362.00
451.57	33280.08
451.76	33233.27
451.94	33102.20
452.13	32594.30
452.31	31098.70
452.49	29565.65
452.68	29825.45
452.86	29820.77
453.05	30094.61
453.23	31463.82
453.42	31707.24
453.60	32797.93
453.78	32673.88
453.97	32861.12
454.15	32704.31
454.34	31896.82
454.52	31747.03
454.70	31915.54
454.89	31955.33
455.07	31831.29
455.26	32898.57
455.44	33916.70
455.62	34724.19
455.81	34389.49
455.99	34061.82
456.17	33661.58
456.36	33638.18
456.54	34946.54
456.73	34710.14
456.91	35477.84
457.09	35627.63
457.28	35962.33
457.46	34359.06
457.64	34192.89
457.83	33619.46
458.01	32638.77
458.19	33628.82
458.38	33869.89
458.56	34773.34
458.74	34780.36
458.93	34038.41
459.11	33895.64
459.29	34171.82
459.48	34141.39
459.66	33820.74
459.84	34253.74
460.03	34672.70
460.21	34485.45
460.39	35744.66
460.57	35517.63
460.76	35564.44
460.94	36126.17
461.12	35637.00
461.31	35449.75
461.49	35889.77
461.67	35622.95
461.85	36870.46
462.04	36313.41
462.22	37223.88
462.40	36678.54
462.59	36690.24
462.77	36407.03
462.95	36549.81
463.13	36154.26
463.32	35538.69
463.50	35292.94
463.68	35721.26
463.86	35695.51
464.05	34740.57
464.23	34120.33
464.41	34298.21
464.59	33535.20
464.78	35393.58
464.96	35400.60
465.14	35058.88
465.32	35814.88
465.50	36514.70
465.69	36863.44
465.87	36062.97
466.05	35075.27
466.23	33827.76
466.41	32671.54
466.60	33947.13
466.78	33802.02
466.96	34436.30
467.14	34785.04
467.32	35431.03
467.51	35695.51
467.69	33954.15
467.87	34611.84
468.05	35138.46
468.23	35409.96
468.41	35292.94
468.60	35550.40
468.78	35981.06
468.96	35349.11
469.14	35789.13
469.32	36037.23
469.50	34705.46
469.69	34326.30
469.87	34286.51
470.05	34338.00
470.23	34288.85
470.41	34307.57
470.59	34728.87
470.77	35122.08
470.95	35945.95
471.14	35868.71
471.32	36336.82
471.50	37979.87
471.68	38660.97
471.86	38838.85
472.04	38644.59
472.22	38660.97
472.40	37125.58
472.58	36629.38
472.77	36100.42
472.95	36863.44
473.13	38050.09
473.31	36912.59
473.49	37432.19
473.67	38462.02
473.85	37794.97
474.03	38958.22
474.21	39210.99
474.39	39498.88
474.57	39676.76
474.75	39508.24
474.93	39206.31
475.12	38457.34
475.30	38604.80
475.48	38579.05
475.66	39281.21
475.84	38625.86
476.02	38284.14
476.20	37965.83
476.38	38249.03
476.56	39828.90
476.74	40589.57
476.92	40603.61
477.10	41361.95
477.28	42047.72
477.46	42108.58
477.64	42099.22
477.82	42583.71
478.00	42632.86
478.18	42389.44
478.36	42218.58
478.54	42328.59
478.72	42253.69
478.90	43482.47
479.08	44521.67
479.26	45050.63
479.44	45212.13
479.62	44512.31
479.80	44009.09
479.98	44952.33
480.16	44835.30
480.34	45020.20
480.52	45008.50
480.70	45354.90
480.88	45397.03
481.06	46108.55
481.24	46169.41
481.41	47676.71
481.59	47732.89
481.77	47393.51
481.95	47187.54
482.13	47103.28
482.31	46951.15
482.49	47440.32
482.67	46976.89
482.85	47753.95
483.03	48254.82
483.21	48610.59
483.39	48472.49
483.57	47908.43
483.74	47840.55
483.92	48315.68
484.10	48175.25
484.28	48666.76
484.46	49633.40
484.64	49605.31
484.82	48797.83
485.00	47980.98
485.18	47508.19
485.35	46485.38
485.53	43201.61
485.71	39702.51
485.89	38646.93
486.07	41235.56
486.25	44664.44
486.43	46831.78
486.61	47707.14
486.78	47351.38
486.96	47564.37
487.14	48938.26
487.32	50066.40
487.50	51068.15
487.68	51772.65
487.85	52114.37
488.03	52177.56
488.21	51906.06
488.39	51133.68
488.57	50597.70
488.75	50066.40
488.92	51182.84
489.10	53235.48
489.28	54621.08
489.46	55084.51
489.64	54934.71
489.81	54908.97
489.99	54412.77
490.17	54946.42
490.35	54972.16
490.53	54478.31
490.70	54321.49
490.88	54497.03
491.06	55077.49
491.24	55037.70
491.41	54291.07
491.59	52507.58
491.77	51997.34
491.95	53069.31
492.13	54204.47
492.30	55395.80
492.48	55901.36
492.66	56484.15
492.84	56147.11
493.01	56172.86
493.19	55683.69
493.37	55393.46
493.54	55077.49
493.72	55814.76
493.90	56664.37
494.08	57378.23
494.25	57825.28
494.43	57729.31
494.61	58195.08
494.79	58312.11
494.96	58031.24
495.14	57453.13
495.32	56615.22
495.49	55913.06
495.67	57099.71
495.85	58183.38
496.02	58653.82
496.20	58646.80
496.38	58028.90
496.55	57893.15
496.73	58564.88
496.91	58604.67
497.09	59178.10
497.26	59201.51
497.44	58805.96
497.62	58326.15
497.79	57668.46
497.97	56406.91
498.14	56470.11
498.32	57794.85
498.50	58337.85
498.67	58880.86
498.85	58866.81
499.03	59004.91
499.20	59187.47
499.38	59121.93
499.56	58899.58
499.73	58520.41
499.91	58108.48
500.08	57731.65
500.26	57127.80
500.44	57694.21
500.61	58272.32
500.79	57839.32
500.97	57560.79
501.14	57560.79
501.32	57338.44
501.49	57389.94
501.67	57820.59
501.84	58265.30
502.02	58387.00
502.20	58773.19
502.37	58621.06
502.55	58646.80
502.72	59536.21
502.90	59810.05
503.07	59395.77
503.25	59143.00
503.43	58485.31
503.60	57757.40
503.78	56856.29
503.95	57696.55
504.13	58976.82
504.30	59580.68
504.48	59360.67
504.65	59009.59
504.83	59117.25
505.01	59765.58
505.18	60018.36
505.36	60561.36
505.53	60537.96
505.71	60797.76
505.88	60772.01
506.06	60341.35
506.23	60016.02
506.41	59538.55
506.58	59966.87
506.76	59934.10
506.93	59800.69
507.11	59465.99
507.28	59945.80
507.46	59213.21
507.63	58775.53
507.81	58681.91
507.98	58761.49
508.16	59414.50
508.33	59891.97
508.50	60009.00
508.68	60486.46
508.85	60926.49
509.03	60966.27
509.20	60739.24
509.38	60184.54
509.55	59440.24
509.73	59379.39
509.90	60107.30
510.08	60107.30
510.25	59978.57
510.42	59959.84
510.60	59868.56
510.77	60182.19
510.95	60647.96
511.12	60685.41
511.30	61062.24
511.47	61312.67
511.64	61256.50
511.82	61041.17
511.99	60154.11
512.17	59845.16
512.34	59559.61
512.51	59557.27
512.69	59763.24
512.86	60018.36
513.04	60245.39
513.21	60175.17
513.38	59952.82
513.56	59578.34
513.73	59070.44
513.90	59285.77
514.08	59182.79
514.25	59395.77
514.43	59833.46
514.60	59866.22
514.77	59835.80
514.95	60090.91
515.12	59891.97
515.29	60193.90
515.47	60608.17
515.64	60804.78
515.81	60399.86
515.99	59838.14
516.16	58546.16
516.33	56596.49
516.51	54897.27
516.68	54553.21
516.85	54000.84
517.03	54178.72
517.20	56875.02
517.37	59168.74
517.54	60081.55
517.72	59629.83
517.89	57188.65
518.06	54810.67
518.24	55650.92
518.41	57291.63
518.58	58525.10
518.75	58777.87
518.93	59124.27
519.10	59072.78
519.27	59447.27
519.45	59725.79
519.62	60243.05
519.79	60474.76
519.96	60287.52
520.14	59980.91
520.31	59297.47
520.48	59171.08
520.65	59599.40
520.83	60484.12
521.00	60905.42
521.17	60273.48
521.34	59854.52
521.52	60399.86
521.69	60793.07
521.86	61188.63
522.03	60949.89
522.20	59788.98
522.38	58862.13
522.55	58873.84
522.72	59433.22
522.89	59655.57
523.07	59866.22
523.24	59945.80
523.41	60769.67
523.58	61006.06
523.75	61460.13
523.92	61399.27
524.10	61322.04
524.27	61418.00
524.44	61055.21
524.61	61052.87
524.78	60910.10
524.96	60622.22
525.13	60786.05
525.30	60896.06
525.47	61394.59
525.64	61197.99
525.81	60638.60
525.98	59220.23
526.16	57865.06
526.33	57226.10
526.50	57078.64
526.67	56816.50
526.84	57331.42
527.01	58178.70
527.18	58915.96
527.36	59788.98
527.53	60617.53
527.70	60994.36
527.87	60294.54
528.04	60051.12
528.21	60327.31
528.38	60814.14
528.55	61448.42
528.72	61918.87
528.89	61740.99
529.07	61715.25
529.24	61132.45
529.41	60498.17
529.58	59866.22
529.75	60041.76
529.92	60577.75
530.09	60865.63
530.26	61373.53
530.43	61567.79
530.60	61616.94
530.77	61965.68
530.94	61923.55
531.11	61443.74
531.28	61006.06
531.46	60886.70
531.63	61059.90
531.80	60882.02
531.97	60643.28
532.14	59847.50
532.31	58808.30
532.48	58337.85
532.65	58408.07
532.82	59171.08
532.99	60076.87
533.16	60601.15
533.33	61006.06
533.50	60757.97
533.67	60182.19
533.84	59636.85
534.01	60102.62
534.18	60285.18
534.35	60540.30
534.52	60154.11
534.69	60594.13
534.86	60664.35
535.03	61146.50
535.20	61588.86
535.37	61839.29
535.54	61701.20
535.71	61621.62
535.88	61448.42
536.05	60638.60
536.22	60430.29
536.38	59978.57
536.55	59494.08
536.72	59121.93
536.89	59028.31
537.06	59803.03
537.23	60608.17
537.40	60779.03
537.57	60849.25
537.74	60804.78
537.91	60573.06
538.08	60479.44
538.25	60577.75
538.42	60615.19
538.59	60582.43
538.75	59875.58
538.92	59739.83
539.09	59533.87
539.26	59538.55
539.43	59334.92
539.60	59355.99
539.77	59704.73
539.94	59423.86
540.11	58635.10
540.28	58347.21
540.44	58335.51
540.61	58735.74
540.78	58550.84
540.95	59079.80
541.12	59573.66
541.29	59728.13
541.46	60011.34
541.62	60126.02
541.79	59955.16
541.96	59220.23
542.13	59133.63
542.30	59554.93
542.47	59950.48
542.63	59498.76
542.80	59461.31
542.97	59578.34
543.14	59346.62
543.31	59274.07
543.48	59906.01
543.64	60673.71
543.81	60800.10
543.98	60514.55
544.15	60079.21
544.32	59377.05
544.48	59648.55
544.65	59840.48
544.82	60336.67
544.99	59987.93
545.16	59533.87
545.32	59503.44
545.49	60107.30
545.66	60596.47
545.83	60207.94
546.00	59676.64
546.16	59554.93
546.33	59545.57
546.50	59772.60
546.67	60041.76
546.83	59531.53
547.00	59714.09
547.17	58897.24
547.34	58489.99
547.50	58515.73
547.67	58934.69
547.84	59035.33
548.00	59299.81
548.17	59810.05
548.34	59777.28
548.51	59613.44
548.67	59650.89
548.84	59709.41
549.01	59664.94
549.18	59547.91
549.34	59536.21
549.51	59678.98
549.68	59288.11
549.84	59243.64
550.01	59236.62
550.18	58920.65
550.34	59047.04
550.51	59007.25
550.68	59269.39
550.84	58740.42
551.01	59047.04
551.18	58843.41
551.34	59168.74
551.51	59489.40
551.68	59695.36
551.84	59653.23
552.01	59255.34
552.18	59470.67
552.34	58604.67
552.51	58218.49
552.68	58152.95
552.84	58656.17
553.01	58869.15
553.18	58820.00
553.34	59014.27
553.51	59021.29
553.67	59180.45
553.84	59489.40
554.01	59337.26
554.17	59180.45
554.34	59159.38
554.51	59325.56
554.67	59613.44
554.84	59391.09
555.00	59047.04
555.17	58951.07
555.33	58887.88
555.50	59007.25
555.67	58801.28
555.83	58485.31
556.00	58354.24
556.16	58541.48
556.33	58192.74
556.50	58042.95
556.66	58155.29
556.83	57687.18
556.99	57794.85
557.16	58113.16
557.32	58251.25
557.49	58534.46
557.65	58504.03
557.82	58539.14
557.98	58188.06
558.15	57689.52
558.32	56800.12
558.48	56308.61
558.65	56456.06
558.81	56617.56
558.98	57073.96
559.14	57380.57
559.31	57181.63
559.47	57209.71
559.64	57127.80
559.80	56552.02
559.97	56739.27
560.13	57158.22
560.30	58239.55
560.46	58426.79
560.63	58548.50
560.79	58543.82
560.96	58293.38
561.12	57209.71
561.29	56526.28
561.45	56545.00
561.61	56924.17
561.78	57474.20
561.94	57401.64
562.11	57036.51
562.27	57265.89
562.44	57317.38
562.60	57670.80
562.77	58026.56
562.93	57972.73
563.10	57696.55
563.26	57214.40
563.42	57071.62
563.59	56910.13
563.75	56989.70
563.92	56839.91
564.08	57088.01
564.24	57340.78
564.41	57251.84
564.57	57062.26
564.74	57169.93
564.90	56844.59
565.07	56643.30
565.23	56568.41
565.39	56069.87
565.56	55828.80
565.72	55721.13
565.88	56039.45
566.05	56170.52
566.21	56200.94
566.38	56470.11
566.54	56559.05
566.70	56722.88
566.87	56945.23
567.03	56978.00
567.19	57286.95
567.36	56823.53
567.52	56725.22
567.68	56456.06
567.85	55943.48
568.01	55510.49
568.17	55262.39
568.34	55316.22
568.50	54813.01
568.66	55372.39
568.83	55805.39
568.99	55838.16
569.15	55997.32
569.32	56107.32
569.48	55583.04
569.64	55468.36
569.81	55295.16
569.97	55007.27
570.13	55302.18
570.30	54717.04
570.46	54307.45
570.62	53813.60
570.78	53759.76
570.95	53900.20
571.11	54695.98
571.27	54684.28
571.43	54925.35
571.60	55114.94
571.76	55435.59
571.92	55690.71
572.09	55945.83
572.25	56109.66
572.41	55683.69
572.57	55522.19
572.74	55767.94
572.90	55136.00
573.06	55316.22
573.22	55140.68
573.38	55405.16
573.55	55381.76
573.71	55517.51
573.87	55178.13
574.03	55040.04
574.20	55231.96
574.36	54953.44
574.52	54808.32
574.68	54410.43
574.84	54143.61
575.01	53755.08
575.17	53846.36
575.33	53958.71
575.49	54115.53
575.65	54270.00
575.82	54181.06
575.98	53881.47
576.14	54078.08
576.30	54368.30
576.46	54656.19
576.62	54562.57
576.79	54429.16
576.95	54028.93
577.11	53979.78
577.27	54028.93
577.43	54143.61
577.59	53776.15
577.75	53387.62
577.92	52926.53
578.08	52538.01
578.24	52652.69
578.40	52921.85
578.56	53137.18
578.72	53289.32
578.88	53396.98
579.04	53556.14
579.21	53890.83
579.37	53811.26
579.53	54005.52
579.69	53736.36
579.85	53860.41
580.01	53462.52
580.17	53469.54
580.33	53062.29
580.49	52926.53
580.65	53675.51
580.82	53722.32
580.98	53525.71
581.14	53701.25
581.30	53778.49
581.46	53624.01
581.62	53731.68
581.78	53462.52
581.94	54012.54
582.10	53977.43
582.26	54120.21
582.42	53619.33
582.58	53792.53
582.74	53797.21
582.90	53834.66
583.06	53785.51
583.22	53752.74
583.38	53656.78
583.54	53427.41
583.70	53368.90
583.86	53275.27
584.02	53186.33
584.18	53766.79
584.34	53429.75
584.50	53118.46
584.66	53165.27
584.82	52636.31
584.98	52844.62
585.14	52488.85
