SpectraSuite Data File
++++++++++++++++++++++++++++++++++++
Date: Mon Oct 07 14:55:01 GMT-05:00 2013
User: price-jones
Dark Spectrum Present: No
Reference Spectrum Present: No
Number of Sampled Component Spectra: 1
Spectrometers: USB2+H05261
Integration Time (usec): 10000 (USB2+H05261)
Spectra Averaged: 1 (USB2+H05261)
Boxcar Smoothing: 0 (USB2+H05261)
Correct for Electrical Dark: No (USB2+H05261)
Strobe/Lamp Enabled: No (USB2+H05261)
Correct for Detector Non-linearity: No (USB2+H05261)
Correct for Stray Light: No (USB2+H05261)
Number of Pixels in Processed Spectrum: 2048
>>>>>Begin Processed Spectral Data<<<<<
365.73	0.00
365.92	0.00
366.12	0.00
366.32	0.00
366.52	0.00
366.72	0.00
366.91	0.00
367.11	0.00
367.31	0.00
367.51	0.00
367.70	0.00
367.90	0.00
368.10	0.00
368.30	0.00
368.49	0.00
368.69	0.00
368.89	0.00
369.09	0.00
369.28	0.00
369.48	0.00
369.68	0.00
369.87	0.00
370.07	0.00
370.27	0.00
370.47	421.30
370.66	2518.42
370.86	3021.63
371.06	3236.96
371.25	3026.31
371.45	2820.35
371.65	2455.22
371.84	2511.39
372.04	2672.89
372.24	2911.63
372.44	2951.42
372.63	2853.11
372.83	2614.38
373.03	2366.28
373.22	2239.89
373.42	2377.98
373.62	2761.83
373.81	2906.95
374.01	2710.34
374.21	2511.39
374.40	2387.35
374.60	2593.31
374.79	3019.29
374.99	3372.71
375.19	3634.85
375.38	3421.86
375.58	3183.13
375.78	3166.74
375.97	3265.05
376.17	3545.91
376.37	3510.80
376.56	3574.00
376.76	3747.20
376.95	4039.76
377.15	4241.05
377.35	4461.06
377.54	4676.39
377.74	4798.10
377.93	4800.44
378.13	4423.61
378.33	4348.72
378.52	3997.64
378.72	3854.86
378.91	3857.20
379.11	3468.67
379.31	3496.76
379.50	3669.96
379.70	4021.04
379.89	4381.48
380.09	4620.22
380.28	4746.61
380.48	4486.81
380.68	4582.77
380.87	4386.16
381.07	4065.51
381.26	3761.24
381.46	3566.98
381.65	3316.54
381.85	3365.69
382.04	3173.77
382.24	2960.78
382.43	2860.13
382.63	2803.96
382.83	2703.32
383.02	2796.94
383.22	2946.73
383.41	2911.63
383.61	3138.66
383.80	3667.62
384.00	4112.32
384.19	4575.75
384.39	4573.41
384.58	4575.75
384.78	4341.69
384.97	4521.92
385.17	4161.47
385.36	3932.10
385.56	3990.61
385.75	4297.22
385.95	4538.30
386.14	4741.93
386.34	4858.95
386.53	4512.55
386.72	4283.18
386.92	4451.70
387.11	4683.41
387.31	4840.23
387.50	4842.57
387.70	4557.02
387.89	4360.42
388.09	4557.02
388.28	4545.32
388.48	4758.31
388.67	5071.94
388.86	5701.54
389.06	6061.99
389.25	6459.88
389.45	6445.84
389.64	6176.67
389.84	6106.46
390.03	6078.37
390.22	6083.05
390.42	6546.48
390.61	6951.39
390.81	7250.98
391.00	7353.96
391.19	7243.96
391.39	6951.39
391.58	6637.76
391.78	6258.59
391.97	5926.24
392.16	5446.43
392.36	4910.44
392.55	4032.74
392.75	3091.85
392.94	2574.59
393.13	2752.47
393.33	3492.08
393.52	4418.93
393.71	5046.20
393.91	5893.47
394.10	6218.80
394.29	6808.62
394.49	7440.56
394.68	7899.31
394.88	7899.31
395.07	8133.36
395.26	7873.56
395.46	7803.35
395.65	7176.08
395.84	6031.56
396.04	5233.44
396.23	4315.95
396.42	3581.02
396.62	3665.28
396.81	4444.68
397.00	5724.95
397.19	6988.84
397.39	8194.22
397.58	9294.27
397.77	9556.41
397.97	9937.91
398.16	10148.56
398.35	10258.57
398.55	10679.86
398.74	10979.45
398.93	11206.48
399.12	11112.86
399.32	10581.56
399.51	10867.11
399.70	11714.38
399.90	11421.81
400.09	11272.02
400.28	11396.07
400.47	11412.45
400.67	12180.15
400.86	12444.63
401.05	12402.50
401.24	12367.39
401.44	12688.04
401.63	12964.23
401.82	12725.49
402.01	12863.58
402.21	13001.68
402.40	12842.52
402.59	12442.29
402.78	11733.11
402.97	11946.09
403.17	12657.62
403.36	13069.55
403.55	13378.50
403.74	13422.97
403.93	12573.36
404.13	11871.20
404.32	11625.44
404.51	12437.61
404.70	13238.07
404.89	13289.56
405.09	12776.98
405.28	12582.72
405.47	12727.83
405.66	12603.78
405.85	12259.73
406.05	11988.22
406.24	12189.51
406.43	12706.77
406.62	13104.66
406.81	13249.77
407.00	12821.45
407.20	12507.82
407.39	12636.55
407.58	13263.82
407.77	14099.39
407.96	14356.85
408.15	14497.28
408.34	14703.25
408.54	15204.12
408.73	15082.41
408.92	14843.68
409.11	14284.29
409.30	13626.60
409.49	12802.73
409.68	12030.35
409.87	11976.52
410.07	13046.15
410.26	13928.53
410.45	14272.59
410.64	14789.85
410.83	15351.57
411.02	15665.21
411.21	16032.67
411.40	16063.10
411.59	16175.44
411.78	15815.00
411.98	15779.89
412.17	16049.05
412.36	15875.85
412.55	15957.77
412.74	15295.40
412.93	15185.40
413.12	15548.18
413.31	17296.56
413.50	17247.41
413.69	17561.04
413.88	16507.80
414.07	16409.50
414.26	16578.01
414.45	17165.49
414.64	16861.22
414.83	17027.40
415.02	16435.24
415.22	16929.09
415.41	17334.01
415.60	18019.78
415.79	18221.07
415.98	18342.78
416.17	18537.04
416.36	18279.58
416.55	18160.22
416.74	16999.31
416.93	16844.84
417.12	17013.35
417.31	16835.47
417.50	17324.65
417.69	17823.18
417.88	18054.89
418.07	17640.62
418.26	17439.33
418.45	18115.75
418.64	18473.85
418.83	19351.55
419.02	18438.74
419.21	18183.62
419.39	17701.47
419.58	17076.55
419.77	17207.62
419.96	18441.08
420.15	18998.13
420.34	19737.74
420.53	20018.60
420.72	20592.03
420.91	19988.18
421.10	19562.20
421.29	19674.54
421.48	19070.68
421.67	20130.95
421.86	19154.94
422.05	17453.37
422.24	16025.65
422.43	16697.38
422.61	18766.42
422.80	19379.64
422.99	18717.26
423.18	18162.56
423.37	18391.93
423.56	18537.04
423.75	19257.93
423.94	19405.38
424.13	18155.54
424.32	18005.74
424.50	18422.36
424.69	18565.13
424.88	18518.32
425.07	18541.72
425.26	18331.08
425.45	17549.34
425.64	17425.29
425.83	18134.47
426.01	18841.31
426.20	18771.10
426.39	18768.76
426.58	17397.20
426.77	16395.45
426.96	16137.99
427.15	16943.14
427.33	17996.38
427.52	18560.45
427.71	18719.60
427.90	18534.70
428.09	18499.59
428.28	17696.79
428.46	16947.82
428.65	17275.49
428.84	17324.65
429.03	17558.70
429.22	16533.54
429.40	15208.80
429.59	13825.54
429.78	12346.33
429.97	12882.31
430.16	12704.43
430.34	12980.61
430.53	13123.38
430.72	14040.87
430.91	15550.52
431.10	18464.49
431.28	21296.53
431.47	22359.14
431.66	21476.76
431.85	19501.34
432.03	17898.08
432.22	18040.85
432.41	19419.42
432.60	20404.79
432.79	21404.20
432.97	21972.95
433.16	21036.74
433.35	18953.66
433.54	17254.43
433.72	16634.19
433.91	17888.71
434.10	19992.86
434.28	20716.08
434.47	21624.21
434.66	20952.48
434.85	20063.07
435.03	20629.48
435.22	21221.64
435.41	22321.69
435.59	22642.34
435.78	22579.15
435.97	22890.44
436.16	23384.29
436.34	22803.84
436.53	22363.82
436.72	22478.50
436.90	21291.85
437.09	21247.38
437.28	21025.03
437.46	22019.76
437.65	21282.49
437.84	19426.45
438.02	18775.78
438.21	19066.00
438.40	19644.12
438.58	21151.42
438.77	21956.57
438.96	22183.60
439.14	23026.19
439.33	23700.26
439.52	23674.52
439.70	22724.26
439.89	22146.15
440.08	21572.72
440.26	22153.17
440.45	22637.66
440.63	24781.59
440.82	25551.63
441.01	24917.34
441.19	24907.98
441.38	25769.30
441.57	26859.99
441.75	26597.85
441.94	27037.87
442.12	26909.14
442.31	27307.03
442.50	27091.70
442.68	26714.87
442.87	26422.31
443.05	25834.83
443.24	26745.30
443.43	27037.87
443.61	26841.26
443.80	27730.67
443.98	26998.08
444.17	26436.35
444.35	27449.80
444.54	28458.57
444.73	27831.31
444.91	26211.66
445.10	25291.83
445.28	24790.95
445.47	24367.32
445.65	24645.84
445.84	25553.97
446.02	25968.24
446.21	26572.10
446.39	26572.10
446.58	27335.12
446.77	27688.54
446.95	27604.28
447.14	28243.24
447.32	28610.71
447.51	28297.08
447.69	26937.23
447.88	26759.34
448.06	27894.50
448.25	27889.82
448.43	27847.69
448.62	27658.11
448.80	26927.86
448.99	27019.14
449.17	28065.36
449.36	28238.56
449.54	28929.02
449.73	29322.23
449.91	29596.07
450.10	30333.34
450.28	30574.42
450.46	31044.87
450.65	30590.80
450.83	30497.18
451.02	29848.85
451.20	29577.35
451.39	29841.83
451.57	29656.93
451.76	29605.44
451.94	28893.91
452.13	28421.13
452.31	26829.56
452.49	25900.37
452.68	26396.56
452.86	26771.05
453.05	27246.18
453.23	28418.78
453.42	28716.03
453.60	29586.71
453.78	29296.49
453.97	29277.76
454.15	28978.17
454.34	27742.37
454.52	28009.19
454.70	27957.70
454.89	28474.96
455.07	28819.02
455.26	29041.37
455.44	29986.94
455.62	30654.00
455.81	30761.66
455.99	30794.43
456.17	30967.63
456.36	31285.94
456.54	31342.11
456.73	30888.05
456.91	31529.36
457.09	31393.61
457.28	32222.16
457.46	30738.26
457.64	30017.37
457.83	30080.56
458.01	29591.39
458.19	30529.95
458.38	31103.38
458.56	31669.79
458.74	30806.13
458.93	30555.69
459.11	30579.10
459.29	29832.47
459.48	30522.93
459.66	30424.62
459.84	30483.14
460.03	31278.92
460.21	31147.85
460.39	31967.04
460.57	31772.77
460.76	31632.34
460.94	32070.02
461.12	31922.57
461.31	32098.11
461.49	32423.44
461.67	32112.15
461.85	32744.09
462.04	32762.82
462.22	32622.39
462.40	32451.53
462.59	32121.51
462.77	32079.38
462.95	32496.00
463.13	32170.66
463.32	31480.21
463.50	31913.20
463.68	31962.36
463.86	32065.34
464.05	31140.83
464.23	30632.93
464.41	30902.09
464.59	30553.35
464.78	32063.00
464.96	31468.50
465.14	30944.22
465.32	32781.54
465.50	33228.59
465.69	34298.21
465.87	32376.63
466.05	31831.29
466.23	29926.09
466.41	29802.04
466.60	30604.84
466.78	30759.32
466.96	31094.02
467.14	31871.07
467.32	31969.38
467.51	31962.36
467.69	30099.29
467.87	31136.15
468.05	31768.09
468.23	31744.69
468.41	31339.77
468.60	31999.80
468.78	32470.25
468.96	32048.96
469.14	32393.01
469.32	32678.56
469.50	30398.88
469.69	31679.15
469.87	30862.30
470.05	30859.96
470.23	30820.17
470.41	31140.83
470.59	31372.54
470.77	31208.70
470.95	32224.50
471.14	33048.36
471.32	33092.83
471.50	34515.88
471.68	34426.94
471.86	34607.16
472.04	34555.67
472.22	34653.97
472.40	33706.05
472.58	33226.24
472.77	33106.88
472.95	33209.86
473.13	34508.86
473.31	32898.57
473.49	33144.33
473.67	34103.95
473.85	34724.19
474.03	35594.87
474.21	35693.17
474.39	36095.74
474.57	36404.69
474.75	36306.39
474.93	35821.90
475.12	35136.12
475.30	35164.21
475.48	35040.16
475.66	34279.49
475.84	34401.19
476.02	34817.81
476.20	33862.87
476.38	34906.75
476.56	36301.71
476.74	36849.39
476.92	37013.23
477.10	37310.48
477.28	38440.96
477.46	38033.71
477.64	38724.16
477.82	38733.53
478.00	39166.52
478.18	37853.48
478.36	37556.24
478.54	38059.45
478.72	38642.24
478.90	40432.75
479.08	42256.03
479.26	41745.80
479.44	41277.69
479.62	40800.22
479.80	41787.92
479.98	41083.42
480.16	41745.80
480.34	40566.16
480.52	42066.45
480.70	42471.36
480.88	41626.43
481.06	42567.32
481.24	42890.32
481.41	43934.20
481.59	44879.77
481.77	43346.72
481.95	43203.95
482.13	42913.72
482.31	43594.82
482.49	44254.85
482.67	43622.90
482.85	43803.13
483.03	43611.20
483.21	45291.71
483.39	44570.82
483.57	43981.01
483.74	44088.67
483.92	44985.10
484.10	44531.03
484.28	44659.76
484.46	44414.01
484.64	45928.33
484.82	45455.54
485.00	44458.48
485.18	43941.22
485.35	41432.16
485.53	37053.02
485.71	35147.82
485.89	35206.34
486.07	37699.01
486.25	40617.66
486.43	43384.17
486.61	43241.40
486.78	43023.73
486.96	44449.11
487.14	45624.06
487.32	46272.39
487.50	46997.96
487.68	48477.18
487.85	49207.42
488.03	48425.68
488.21	48275.89
488.39	47629.90
488.57	46520.49
488.75	46323.88
488.92	48449.09
489.10	50319.18
489.28	51068.15
489.46	52428.00
489.64	51929.47
489.81	52467.79
489.99	51168.79
490.17	51524.55
490.35	51835.84
490.53	51391.14
490.70	50464.29
490.88	50679.62
491.06	52175.22
491.24	52317.99
491.41	51131.34
491.59	49078.69
491.77	49389.98
491.95	50880.91
492.13	52547.37
492.30	52708.86
492.48	53607.63
492.66	54150.63
492.84	53558.48
493.01	53137.18
493.19	53258.89
493.37	52582.48
493.54	52921.85
493.72	54031.27
493.90	54291.07
494.08	54848.11
494.25	54721.72
494.43	55231.96
494.61	55686.03
494.79	56133.07
494.96	55723.47
495.14	55356.01
495.32	54042.97
495.49	54478.31
495.67	55381.76
495.85	56149.45
496.02	56718.20
496.20	56411.59
496.38	56088.60
496.55	55629.85
496.73	56804.80
496.91	56708.84
497.09	56418.61
497.26	57167.58
497.44	56671.39
497.62	55437.93
497.79	54560.23
497.97	54246.60
498.14	54518.10
498.32	56053.49
498.50	56067.53
498.67	55994.98
498.85	56327.33
499.03	57130.14
499.20	57434.41
499.38	56832.89
499.56	56025.40
499.73	55793.69
499.91	55580.70
500.08	55025.99
500.26	54539.16
500.44	55547.93
500.61	55990.30
500.79	55447.29
500.97	55779.65
501.14	54630.44
501.32	54384.69
501.49	54724.07
501.67	55089.19
501.84	55466.02
502.02	55908.38
502.20	56678.41
502.37	56928.85
502.55	57146.52
502.72	57396.96
502.90	57623.99
503.07	57448.45
503.25	56093.28
503.43	55381.76
503.60	54733.43
503.78	54869.18
503.95	55126.64
504.13	56619.90
504.30	56980.34
504.48	56413.93
504.65	56535.64
504.83	56793.10
505.01	57832.30
505.18	57872.09
505.36	58073.37
505.53	58258.27
505.71	58506.37
505.88	58623.40
506.06	57886.13
506.23	57631.01
506.41	57553.77
506.58	57855.70
506.76	57977.41
506.93	57298.65
507.11	57066.94
507.28	57256.53
507.46	56685.43
507.63	56753.31
507.81	55901.36
507.98	56552.02
508.16	58000.82
508.33	57860.38
508.50	58075.71
508.68	58326.15
508.85	58700.64
509.03	59121.93
509.20	58279.34
509.38	57193.33
509.55	57219.08
509.73	57432.07
509.90	57539.73
510.08	58136.57
510.25	57329.08
510.42	57471.85
510.60	57865.06
510.77	58422.11
510.95	58035.92
511.12	58269.98
511.30	58981.50
511.47	59334.92
511.64	59304.49
511.82	59276.41
511.99	58138.91
512.17	58204.44
512.34	57752.72
512.51	57521.01
512.69	57862.72
512.86	57738.68
513.04	58061.67
513.21	57499.94
513.38	56765.01
513.56	56523.94
513.73	56182.22
513.90	56933.53
514.08	57010.77
514.25	56575.43
514.43	57282.27
514.60	57528.03
514.77	57785.49
514.95	57687.18
515.12	57588.88
515.29	58223.17
515.47	58768.51
515.64	58504.03
515.81	58164.65
515.99	57027.15
516.16	55124.30
516.33	52858.66
516.51	52989.73
516.68	51341.99
516.85	50763.88
517.03	52629.29
517.20	54948.76
517.37	57003.75
517.54	58003.16
517.72	56722.88
517.89	53574.86
518.06	52261.82
518.24	53595.93
518.41	55505.80
518.58	56549.68
518.75	56418.61
518.93	56530.96
519.10	55737.52
519.27	56989.70
519.45	57490.58
519.62	58148.27
519.79	58138.91
519.96	57506.96
520.14	57476.54
520.31	56100.30
520.48	56509.89
520.65	57415.68
520.83	58295.72
521.00	58026.56
521.17	57750.38
521.34	57829.96
521.52	58258.27
521.69	58365.94
521.86	58789.58
522.03	58873.84
522.20	57041.20
522.38	56608.20
522.55	57017.79
522.72	57408.66
522.89	57029.49
523.07	57717.61
523.24	57872.09
523.41	59133.63
523.58	59695.36
523.75	59620.47
523.92	59302.15
524.10	58951.07
524.27	58602.33
524.44	58403.39
524.61	58480.63
524.78	58417.43
524.96	58770.85
525.13	58810.64
525.30	59065.76
525.47	59269.39
525.64	58782.55
525.81	58319.13
525.98	56341.38
526.16	55334.95
526.33	55793.69
526.50	54623.42
526.67	55011.95
526.84	55234.30
527.01	56420.95
527.18	56956.94
527.36	57806.55
527.53	58850.43
527.70	58021.88
527.87	56685.43
528.04	57911.88
528.21	58499.35
528.38	59276.41
528.55	59847.50
528.72	59526.84
528.89	59213.21
529.07	58890.22
529.24	57638.03
529.41	57425.04
529.58	57600.58
529.75	58487.65
529.92	58834.05
530.09	58295.72
530.26	59138.32
530.43	60100.28
530.60	58913.62
530.77	59288.11
530.94	59833.46
531.11	58754.47
531.28	59290.45
531.46	59325.56
531.63	59011.93
531.80	58096.78
531.97	57661.44
532.14	57993.79
532.31	56435.00
532.48	55840.50
532.65	56002.00
532.82	56921.83
532.99	58274.66
533.16	58436.16
533.33	58489.99
533.50	58695.95
533.67	58672.55
533.84	57970.39
534.01	58312.11
534.18	58590.63
534.35	58094.44
534.52	57256.53
534.69	58225.51
534.86	58770.85
535.03	58969.80
535.20	58777.87
535.37	59545.57
535.54	59877.93
535.71	59395.77
535.88	59882.61
536.05	58611.70
536.22	57853.36
536.38	57595.90
536.55	56477.13
536.72	56341.38
536.89	57247.16
537.06	57350.15
537.23	58094.44
537.40	58178.70
537.57	57776.12
537.74	58403.39
537.91	58471.26
538.08	57836.98
538.25	58007.84
538.42	58717.02
538.59	58096.78
538.75	57127.80
538.92	56502.87
539.09	57062.26
539.26	57205.03
539.43	57130.14
539.60	57118.43
539.77	57731.65
539.94	57357.17
540.11	56346.06
540.28	56186.90
540.44	55777.31
540.61	55781.99
540.78	56343.72
540.95	57354.83
541.12	57148.86
541.29	57897.83
541.46	58141.25
541.62	58117.84
541.79	57324.40
541.96	56594.15
542.13	56746.29
542.30	56896.08
542.47	57319.72
542.63	56994.39
542.80	56921.83
542.97	56470.11
543.14	56205.62
543.31	56676.07
543.48	57743.36
543.64	58101.46
543.81	59117.25
543.98	58607.01
544.15	57188.65
544.32	57762.08
544.48	57249.50
544.65	57350.15
544.82	57914.22
544.99	56439.68
545.16	56004.34
545.32	56542.66
545.49	57308.02
545.66	57504.62
545.83	57162.90
546.00	57591.22
546.16	57411.00
546.33	57212.06
546.50	57375.89
546.67	57963.37
546.83	56844.59
547.00	57532.71
547.17	56280.52
547.34	55407.50
547.50	55615.81
547.67	56837.57
547.84	57523.35
548.00	57336.10
548.17	56940.55
548.34	57242.48
548.51	57855.70
548.67	58040.60
548.84	57846.34
549.01	57619.31
549.18	57080.98
549.34	57190.99
549.51	57483.56
549.68	57326.74
549.84	56797.78
550.01	56315.63
550.18	56126.05
550.34	56610.54
550.51	56821.19
550.68	57209.71
550.84	57490.58
551.01	56161.15
551.18	55934.12
551.34	55737.52
551.51	57006.09
551.68	56757.99
551.84	56722.88
552.01	56659.69
552.18	56437.34
552.34	55554.96
552.51	55688.37
552.68	55316.22
552.84	55756.24
553.01	55753.90
553.18	56994.39
553.34	56795.44
553.51	56694.80
553.67	56317.97
553.84	55959.87
554.01	56601.18
554.17	55938.80
554.34	56605.86
554.51	56760.33
554.67	55674.32
554.84	55838.16
555.00	55742.20
555.17	55845.18
555.33	55395.80
555.50	55138.34
555.67	55955.19
555.83	55943.48
556.00	55634.53
556.16	55136.00
556.33	54930.03
556.50	55608.79
556.66	55742.20
556.83	55152.38
556.99	55086.85
557.16	55501.12
557.32	54927.69
557.49	55220.26
557.65	55002.59
557.82	55613.47
557.98	55735.18
558.15	54789.60
558.32	53624.01
558.48	53118.46
558.65	53492.94
558.81	54185.74
558.98	54693.64
559.14	55210.90
559.31	54609.38
559.47	54155.32
559.64	53722.32
559.80	53474.22
559.97	54204.47
560.13	55318.56
560.30	56060.51
560.46	56495.85
560.63	57036.51
560.79	56442.02
560.96	55700.07
561.12	54618.74
561.29	53930.62
561.45	53837.00
561.61	55576.02
561.78	54562.57
561.94	55339.63
562.11	55356.01
562.27	54232.55
562.44	55117.28
562.60	55269.41
562.77	55482.40
562.93	54656.19
563.10	54391.71
563.26	54335.54
563.42	55002.59
563.59	54302.77
563.75	54309.79
563.92	54176.38
564.08	53553.80
564.24	54660.87
564.41	53958.71
564.57	54948.76
564.74	54347.24
564.90	53401.66
565.07	53951.69
565.23	52898.45
565.39	52624.60
565.56	53172.29
565.72	53434.43
565.88	51753.93
566.05	54152.97
566.21	54787.26
566.38	53773.81
566.54	53801.89
566.70	54653.85
566.87	54302.77
567.03	53649.76
567.19	54780.24
567.36	55306.86
567.52	53965.73
567.68	53453.15
567.85	52577.79
568.01	52753.33
568.17	52940.58
568.34	53530.39
568.50	53375.92
568.66	53418.05
568.83	52416.30
568.99	52079.26
569.15	52748.65
569.32	52605.88
569.48	52280.55
569.64	51679.03
569.81	52252.46
569.97	52058.20
570.13	51559.66
570.30	51007.29
570.46	50361.31
570.62	49162.95
570.78	50162.36
570.95	51091.55
571.11	50351.94
571.27	50363.65
571.43	50784.94
571.60	50520.46
571.76	52119.05
571.92	52119.05
572.09	52875.04
572.25	52765.04
572.41	53418.05
572.57	53022.50
572.74	53125.48
572.90	53949.35
573.06	53052.92
573.22	53298.68
573.38	52832.91
573.55	54536.82
573.71	52736.95
573.87	52858.66
574.03	52669.08
574.20	52191.61
574.36	52320.34
574.52	51620.52
574.68	51334.97
574.84	50408.12
575.01	50639.83
575.17	51173.47
575.33	51650.94
575.49	51508.17
575.65	50588.34
575.82	51173.47
575.98	50674.94
576.14	51838.18
576.30	52301.61
576.46	50679.62
576.62	51068.15
576.79	51133.68
576.95	50955.80
577.11	51508.17
577.27	51325.61
577.43	51805.42
577.59	50614.08
577.75	49450.84
577.92	49216.78
578.08	49958.73
578.24	50522.80
578.40	50054.70
578.56	49652.12
578.72	49745.75
578.88	49141.89
579.04	49794.90
579.21	49385.30
579.37	50054.70
579.53	50351.94
579.69	49631.06
579.85	49993.84
580.01	50003.20
580.17	49495.31
580.33	50869.20
580.49	50983.89
580.65	49055.29
580.82	49532.76
580.98	50424.50
581.14	50953.46
581.30	50642.17
581.46	50136.62
581.62	50396.42
581.78	51065.81
581.94	51063.47
582.10	51533.92
582.26	51360.72
582.42	51007.29
582.58	49389.98
582.74	49586.59
582.90	49881.50
583.06	49832.35
583.22	50138.96
583.38	50197.47
583.54	50686.64
583.70	51054.11
583.86	50656.21
584.02	50127.25
584.18	49741.06
584.34	49207.42
584.50	48694.85
584.66	49081.03
584.82	49312.75
584.98	49392.33
585.14	48725.27
585.30	48966.35
