SpectraSuite Data File
++++++++++++++++++++++++++++++++++++
Date: Mon Oct 07 14:53:00 GMT-05:00 2013
User: price-jones
Dark Spectrum Present: No
Reference Spectrum Present: No
Number of Sampled Component Spectra: 1
Spectrometers: USB2+H05261
Integration Time (usec): 100000 (USB2+H05261)
Spectra Averaged: 1 (USB2+H05261)
Boxcar Smoothing: 0 (USB2+H05261)
Correct for Electrical Dark: No (USB2+H05261)
Strobe/Lamp Enabled: No (USB2+H05261)
Correct for Detector Non-linearity: No (USB2+H05261)
Correct for Stray Light: No (USB2+H05261)
Number of Pixels in Processed Spectrum: 2048
>>>>>Begin Processed Spectral Data<<<<<
365.73	0.00
365.92	0.00
366.12	0.00
366.32	0.00
366.52	0.00
366.72	0.00
366.91	0.00
367.11	0.00
367.31	0.00
367.51	0.00
367.70	0.00
367.90	0.00
368.10	0.00
368.30	0.00
368.49	0.00
368.69	0.00
368.89	0.00
369.09	0.00
369.28	0.00
369.48	0.00
369.68	0.00
369.87	0.00
370.07	0.00
370.27	0.00
370.47	573.43
370.66	2902.26
370.86	3590.38
371.06	3887.63
371.25	3868.91
371.45	3403.14
371.65	3194.83
371.84	2949.08
372.04	3070.78
372.24	3541.23
372.44	3691.02
372.63	3646.55
372.83	3323.56
373.03	3108.23
373.22	2747.79
373.42	2995.89
373.62	3262.71
373.81	3384.41
374.01	3581.02
374.21	3208.87
374.40	2995.89
374.60	3145.68
374.79	3466.33
374.99	4182.54
375.19	4301.90
375.38	4552.34
375.58	4145.09
375.78	4135.73
375.97	4114.66
376.17	4219.99
376.37	4243.39
376.56	4447.02
376.76	4582.77
376.95	4903.42
377.15	5259.18
377.35	5549.41
377.54	5680.48
377.74	5771.76
377.93	5937.94
378.13	5750.70
378.33	5462.81
378.52	5074.28
378.72	4880.02
378.91	4884.70
379.11	4648.30
379.31	4437.66
379.50	4458.72
379.70	4702.14
379.89	5352.81
380.09	5582.18
380.28	5605.58
380.48	5886.45
380.68	5621.97
380.87	5638.35
381.07	5135.14
381.26	4648.30
381.46	4477.44
381.65	4346.37
381.85	4198.92
382.04	4004.66
382.24	3606.77
382.43	3510.80
382.63	3482.72
382.83	3466.33
383.02	3480.38
383.22	3454.63
383.41	3419.52
383.61	3707.41
383.80	4231.69
384.00	4868.31
384.19	5418.34
384.39	5959.00
384.58	5701.54
384.78	5526.00
384.97	5509.62
385.17	5228.76
385.36	5053.22
385.56	4762.99
385.75	5203.01
385.95	5575.16
386.14	5956.66
386.34	5841.98
386.53	5479.19
386.72	5238.12
386.92	5345.78
387.11	5575.16
387.31	5767.08
387.50	5846.66
387.70	5596.22
387.89	5600.90
388.09	5729.63
388.28	5703.89
388.48	5844.32
388.67	6129.86
388.86	6881.18
389.06	7330.56
389.25	7576.31
389.45	7653.55
389.64	7700.36
389.84	7426.52
390.03	7407.80
390.22	7293.11
390.42	7702.70
390.61	8154.43
390.81	8592.11
391.00	8912.76
391.19	8793.39
391.39	8393.16
391.58	7845.48
391.78	7686.32
391.97	7414.82
392.16	6878.83
392.36	6267.95
392.55	4952.57
392.75	4007.00
392.94	3213.56
393.13	3361.01
393.33	3894.65
393.52	5013.43
393.71	6061.99
393.91	6754.79
394.10	7176.08
394.29	8049.10
394.49	8592.11
394.68	9221.71
394.88	9418.32
395.07	9809.19
395.26	9635.99
395.46	9242.78
395.65	8758.28
395.84	7709.72
396.04	6635.42
396.23	5308.34
396.42	4507.87
396.62	4138.07
396.81	4983.00
397.00	6415.41
397.19	8074.85
397.39	9706.20
397.58	10595.61
397.77	11169.04
397.97	11644.17
398.16	11798.64
398.35	11894.60
398.55	12575.70
398.74	13296.58
398.93	13483.83
399.12	13015.72
399.32	12566.34
399.51	13188.92
399.70	13973.00
399.90	13736.60
400.09	13589.15
400.28	13678.09
400.47	13540.00
400.67	14431.74
400.86	14654.09
401.05	14647.07
401.24	14794.53
401.44	15063.69
401.63	14876.44
401.82	15204.12
402.01	15150.29
402.21	15232.21
402.40	15190.08
402.59	14850.70
402.78	14345.14
402.97	13919.17
403.17	14270.25
403.36	15019.22
403.55	15899.26
403.74	16065.44
403.93	15536.48
404.13	14352.16
404.32	13916.83
404.51	14567.49
404.70	15524.77
404.89	15807.98
405.09	15304.76
405.28	15005.17
405.47	15108.16
405.66	14897.51
405.85	14551.11
406.05	13944.91
406.24	14663.46
406.43	15101.14
406.62	15538.82
406.81	15950.75
407.00	14995.81
407.20	14750.06
407.39	15185.40
407.58	15161.99
407.77	16145.02
407.96	16636.53
408.15	16903.35
408.34	16989.95
408.54	17556.36
408.73	17619.55
408.92	17427.63
409.11	16933.78
409.30	16123.95
409.49	15314.13
409.68	14438.76
409.87	13760.01
410.07	14733.67
410.26	15697.97
410.45	16926.75
410.64	17146.76
410.83	17888.71
411.02	18349.80
411.21	18747.69
411.40	18616.62
411.59	18862.38
411.78	18462.15
411.98	18525.34
412.17	18745.35
412.36	18363.84
412.55	18469.17
412.74	17944.89
412.93	17298.90
413.12	17767.01
413.31	19620.71
413.50	19641.78
413.69	20030.30
413.88	19035.58
414.07	18558.11
414.26	19082.39
414.45	19726.04
414.64	19658.16
414.83	19899.23
415.02	19269.63
415.22	19344.53
415.41	20013.92
415.60	20318.19
415.79	21099.93
415.98	21671.02
416.17	21858.26
416.36	21071.84
416.55	20812.04
416.74	19798.59
416.93	19370.27
417.12	19520.07
417.31	20025.62
417.50	20058.39
417.69	20957.16
417.88	20671.61
418.07	20559.27
418.26	20107.54
418.45	20430.54
418.64	21078.86
418.83	21678.04
419.02	21759.96
419.21	21195.89
419.39	20255.00
419.58	19473.26
419.77	19428.79
419.96	20638.84
420.15	21635.91
420.34	22403.61
420.53	22944.27
420.72	23648.77
420.91	23403.02
421.10	22988.74
421.29	22597.87
421.48	21806.77
421.67	22927.89
421.86	22146.15
422.05	20966.52
422.24	18918.55
422.43	18668.11
422.61	20744.17
422.80	22354.46
422.99	22625.96
423.18	21336.32
423.37	21078.86
423.56	21223.98
423.75	21626.55
423.94	21783.37
424.13	20854.17
424.32	20968.86
424.50	21071.84
424.69	20666.93
424.88	20886.94
425.07	20615.44
425.26	20648.21
425.45	20290.10
425.64	20032.65
425.83	20271.38
426.01	21380.79
426.20	21858.26
426.39	21680.38
426.58	20065.41
426.77	18497.25
426.96	17827.86
427.15	18876.42
427.33	20437.56
427.52	21069.50
427.71	20964.18
427.90	20540.54
428.09	20758.21
428.28	20383.73
428.46	19414.74
428.65	19363.25
428.84	19908.60
429.03	20180.10
429.22	18860.04
429.40	18036.17
429.59	16243.32
429.78	14574.52
429.97	14602.60
430.16	14614.30
430.34	14569.83
430.53	14848.36
430.72	15150.29
430.91	17057.82
431.10	19803.27
431.28	23194.71
431.47	24952.45
431.66	25495.46
431.85	22944.27
432.03	21109.29
432.22	20039.67
432.41	21420.58
432.60	23080.02
432.79	24432.85
432.97	25060.12
433.16	24409.45
433.35	21926.14
433.54	19601.99
433.72	18590.88
433.91	19679.22
434.10	21589.10
434.28	23281.31
434.47	24306.46
434.66	23583.24
434.85	23491.96
435.03	23318.76
435.22	23676.86
435.41	25376.09
435.59	25378.43
435.78	25577.37
435.97	26260.81
436.16	26532.31
436.34	25991.65
436.53	25806.75
436.72	25282.47
436.90	24240.93
437.09	24350.93
437.28	23592.60
437.46	24467.96
437.65	24477.32
437.84	22642.34
438.02	21027.37
438.21	21296.53
438.40	22338.07
438.58	23943.68
438.77	24755.85
438.96	24704.35
439.14	25968.24
439.33	26120.38
439.52	26450.39
439.70	26483.16
439.89	25521.20
440.08	24795.64
440.26	25149.06
440.45	25855.90
440.63	26923.18
440.82	28903.28
441.01	28559.22
441.19	28098.13
441.38	28795.61
441.57	29558.63
441.75	30038.44
441.94	30300.58
442.12	29853.53
442.31	30799.11
442.50	30642.29
442.68	30082.91
442.87	29523.52
443.05	29221.59
443.24	29991.62
443.43	30515.90
443.61	31211.04
443.80	31311.69
443.98	29771.61
444.17	29731.83
444.35	31393.61
444.54	31974.06
444.73	31314.03
444.91	30099.29
445.10	29053.07
445.28	27751.73
445.47	27447.46
445.65	27655.77
445.84	28596.67
446.02	29612.46
446.21	29928.43
446.39	30050.14
446.58	30817.83
446.77	30958.27
446.95	31204.02
447.14	31880.44
447.32	32458.55
447.51	31854.69
447.69	30553.35
447.88	30354.41
448.06	30529.95
448.25	31318.71
448.43	31409.99
448.62	30932.52
448.80	30782.73
448.99	31309.35
449.17	31264.88
449.36	31084.65
449.54	32573.24
449.73	33310.50
449.91	33434.55
450.10	34354.38
450.28	34703.12
450.46	34080.54
450.65	34665.67
450.83	34094.58
451.02	33834.78
451.20	33003.89
451.39	33240.29
451.57	32868.14
451.76	33514.13
451.94	32582.60
452.13	32123.85
452.31	30799.11
452.49	29345.64
452.68	29736.51
452.86	29797.36
453.05	30003.33
453.23	31016.78
453.42	32381.31
453.60	32393.01
453.78	32966.45
453.97	32355.57
454.15	32624.73
454.34	31875.76
454.52	32184.71
454.70	31522.34
454.89	31861.71
455.07	31880.44
455.26	32568.55
455.44	33905.00
455.62	34155.44
455.81	34103.95
455.99	34253.74
456.17	33570.30
456.36	33860.53
456.54	35068.25
456.73	34953.56
456.91	35108.04
457.09	35660.40
457.28	36048.93
457.46	34679.72
457.64	34792.06
457.83	33752.87
458.01	32786.22
458.19	33703.71
458.38	33298.80
458.56	34944.20
458.74	34616.52
458.93	34525.24
459.11	33792.65
459.29	34094.58
459.48	34398.85
459.66	33874.57
459.84	34572.05
460.03	34534.60
460.21	34745.25
460.39	35683.81
460.57	35573.80
460.76	35529.33
460.94	35868.71
461.12	35674.45
461.31	35482.52
461.49	35618.27
461.67	35285.92
461.85	37046.00
462.04	36486.61
462.22	36804.92
462.40	36236.17
462.59	36327.45
462.77	36713.64
462.95	36575.55
463.13	36119.15
463.32	35693.17
463.50	35433.37
463.68	35562.10
463.86	35758.70
464.05	34993.35
464.23	34356.72
464.41	34066.50
464.59	33532.86
464.78	35913.18
464.96	35536.35
465.14	34855.26
465.32	35798.49
465.50	37116.22
465.69	36940.68
465.87	36105.10
466.05	35622.95
466.23	33776.27
466.41	32748.78
466.60	34073.52
466.78	34082.88
466.96	34689.08
467.14	35592.53
467.32	35871.05
467.51	35707.21
467.69	34396.51
467.87	34780.36
468.05	35409.96
468.23	35091.65
468.41	35583.16
468.60	35330.39
468.78	35955.31
468.96	35318.68
469.14	36444.48
469.32	36116.81
469.50	34504.18
469.69	34897.39
469.87	34354.38
470.05	34579.07
470.23	34396.51
470.41	34440.98
470.59	35318.68
470.77	35526.99
470.95	35908.50
471.14	36390.65
471.32	36931.31
471.50	38192.86
471.68	37895.61
471.86	38618.84
472.04	38993.32
472.22	39098.65
472.40	36910.25
472.58	36528.74
472.77	36451.50
472.95	37394.74
473.13	38527.56
473.31	37258.99
473.49	37462.61
473.67	37888.59
473.85	38244.35
474.03	39339.72
474.21	38864.60
474.39	39901.45
474.57	39847.62
474.75	39913.16
474.93	39856.98
475.12	38611.82
475.30	38574.37
475.48	39098.65
475.66	39550.37
475.84	39454.41
476.02	38778.00
476.20	37724.75
476.38	38857.57
476.56	39793.79
476.74	40470.20
476.92	40776.81
477.10	41254.28
477.28	42618.81
477.46	42717.12
477.64	42983.94
477.82	43096.28
478.00	43519.92
478.18	42564.98
478.36	41975.17
478.54	42232.63
478.72	42806.06
478.90	43913.13
479.08	44781.47
479.26	45177.02
479.44	45195.74
479.62	44982.76
479.80	45235.53
479.98	45518.74
480.16	45336.18
480.34	45067.02
480.52	45338.52
480.70	45450.86
480.88	45867.48
481.06	46440.91
481.24	46679.64
481.41	47676.71
481.59	48367.17
481.77	47753.95
481.95	47068.17
482.13	47257.76
482.31	46941.78
482.49	47711.82
482.67	47723.52
482.85	47882.68
483.03	49001.46
483.21	49284.66
483.39	48896.13
483.57	48208.01
483.74	47873.32
483.92	48322.70
484.10	48268.87
484.28	49329.13
484.46	49778.51
484.64	50075.76
484.82	49389.98
485.00	48989.75
485.18	48025.45
485.35	46698.37
485.53	43463.75
485.71	39971.67
485.89	39428.66
486.07	41853.46
486.25	45282.34
486.43	46941.78
486.61	47873.32
486.78	47587.77
486.96	48053.54
487.14	49497.65
487.32	50068.74
487.50	51311.56
487.68	51718.82
487.85	52692.48
488.03	52444.38
488.21	52100.32
488.39	51444.98
488.57	50745.15
488.75	50485.36
488.92	51826.48
489.10	53762.11
489.28	54630.44
489.46	55770.28
489.64	55639.22
489.81	55318.56
489.99	55119.62
490.17	55009.61
490.35	55583.04
490.53	54955.78
490.70	54698.32
490.88	54377.67
491.06	55531.55
491.24	55646.24
491.41	54424.48
491.59	52863.34
491.77	52413.96
491.95	53514.01
492.13	54541.50
492.30	55526.87
492.48	56542.66
492.66	56884.38
492.84	56835.23
493.01	56533.30
493.19	56030.08
493.37	55683.69
493.54	55671.98
493.72	56126.05
493.90	57284.61
494.08	57743.36
494.25	57893.15
494.43	58141.25
494.61	58532.12
494.79	58639.78
494.96	58424.45
495.14	57729.31
495.32	57036.51
495.49	56666.71
495.67	57598.24
495.85	58646.80
496.02	58918.31
496.20	59056.40
496.38	58482.97
496.55	58377.64
496.73	58857.45
496.91	58695.95
497.09	59620.47
497.26	59779.62
497.44	59189.81
497.62	58560.20
497.79	57860.38
497.97	56793.10
498.14	57034.17
498.32	58019.54
498.50	58880.86
498.67	59355.99
498.85	59178.10
499.03	59379.39
499.20	59515.14
499.38	59697.70
499.56	59468.33
499.73	59035.33
499.91	58564.88
500.08	58115.50
500.26	57504.62
500.44	57900.17
500.61	58759.15
500.79	58415.09
500.97	58365.94
501.14	57961.03
501.32	57724.63
501.49	58042.95
501.67	58108.48
501.84	58560.20
502.02	58850.43
502.20	59173.42
502.37	59344.28
502.55	59077.46
502.72	59856.86
502.90	60259.43
503.07	59868.56
503.25	59583.02
503.43	58646.80
503.60	57844.00
503.78	57602.92
503.95	58068.69
504.13	59196.83
504.30	60046.44
504.48	59760.90
504.65	59561.95
504.83	59730.47
505.01	60147.09
505.18	60598.81
505.36	61109.05
505.53	61059.90
505.71	61347.78
505.88	61584.18
506.06	60671.37
506.23	60500.51
506.41	60130.70
506.58	60200.92
506.76	60212.62
506.93	60334.33
507.11	60182.19
507.28	60479.44
507.46	59814.73
507.63	59135.98
507.81	59068.10
507.98	59526.84
508.16	59845.16
508.33	60451.36
508.50	60615.19
508.68	61045.85
508.85	61457.79
509.03	61432.04
509.20	61345.44
509.38	60582.43
509.55	59826.43
509.73	60168.15
509.90	60547.32
510.08	60786.05
510.25	60853.93
510.42	60509.87
510.60	60467.74
510.77	60793.07
510.95	61322.04
511.12	61322.04
511.30	61715.25
511.47	61822.91
511.64	61722.27
511.82	61345.44
511.99	60608.17
512.17	60299.22
512.34	60165.81
512.51	60175.17
512.69	60472.42
512.86	60385.82
513.04	60783.71
513.21	60891.38
513.38	60458.38
513.56	59983.25
513.73	59580.68
513.90	59868.56
514.08	59788.98
514.25	60200.92
514.43	60273.48
514.60	60420.93
514.77	60526.25
514.95	60561.36
515.12	60645.62
515.29	60807.12
515.47	61202.67
515.64	61230.75
515.81	60912.44
515.99	60608.17
516.16	59206.19
516.33	56882.04
516.51	55695.39
516.68	54754.49
516.85	54602.36
517.03	55220.26
517.20	57860.38
517.37	59903.67
517.54	60743.92
517.72	60060.49
517.89	57792.51
518.06	55887.31
518.24	56371.80
518.41	58183.38
518.58	59264.70
518.75	59512.80
518.93	59770.26
519.10	59704.73
519.27	59936.44
519.45	60348.37
519.62	60905.42
519.79	61291.61
519.96	60961.59
520.14	60657.32
520.31	59784.30
520.48	59723.45
520.65	60205.60
520.83	60919.46
521.00	61354.80
521.17	60919.46
521.34	60598.81
521.52	61038.83
521.69	61389.91
521.86	61879.08
522.03	61525.66
522.20	60261.77
522.38	59323.22
522.55	59533.87
522.72	60102.62
522.89	60067.51
523.07	60568.38
523.24	60734.56
523.41	61513.96
523.58	61670.78
523.75	62073.35
523.92	61902.49
524.10	62005.47
524.27	61930.58
524.44	61804.19
524.61	61565.45
524.78	61623.96
524.96	61387.57
525.13	61366.51
525.30	61832.27
525.47	62176.33
525.64	62005.47
525.81	61429.70
525.98	59929.42
526.16	58679.57
526.33	58223.17
526.50	57813.57
526.67	57635.69
526.84	58129.54
527.01	58927.67
527.18	59847.50
527.36	60654.98
527.53	61460.13
527.70	61556.09
527.87	60954.57
528.04	60603.49
528.21	61209.69
528.38	61689.50
528.55	62356.55
528.72	62555.50
528.89	62782.53
529.07	62424.43
529.24	61703.54
529.41	61069.26
529.58	60622.22
529.75	60870.31
529.92	61298.63
530.09	61600.56
530.26	62066.33
530.43	62232.50
530.60	62164.63
530.77	62309.74
530.94	62553.16
531.11	62253.57
531.28	61949.30
531.46	61593.54
531.63	62014.83
531.80	61600.56
531.97	61118.41
532.14	60594.13
532.31	59643.87
532.48	59044.69
532.65	59245.98
532.82	59952.82
532.99	60912.44
533.16	61209.69
533.33	61715.25
533.50	61588.86
533.67	60961.59
533.84	60610.51
534.01	60954.57
534.18	60910.10
534.35	61123.09
534.52	61071.60
534.69	61197.99
534.86	61495.24
535.03	61703.54
535.20	62181.01
535.37	62695.93
535.54	62489.96
535.71	62145.90
535.88	61834.61
536.05	61378.21
536.22	60987.34
536.38	60662.00
536.55	60039.42
536.72	59732.81
536.89	59774.94
537.06	60764.99
537.23	61418.00
537.40	61588.86
537.57	61581.84
537.74	61307.99
537.91	61275.22
538.08	61338.42
538.25	61300.97
538.42	61436.72
538.59	61282.25
538.75	60612.85
538.92	60617.53
539.09	60432.63
539.26	60168.15
539.43	60083.89
539.60	60126.02
539.77	60320.29
539.94	60170.49
540.11	59480.03
540.28	58915.96
540.44	59208.53
540.61	59365.35
540.78	59456.63
540.95	59987.93
541.12	60271.14
541.29	60594.13
541.46	60942.87
541.62	60889.04
541.79	60814.14
541.96	60107.30
542.13	60025.38
542.30	60523.91
542.47	60729.88
542.63	60273.48
542.80	60238.37
542.97	60385.82
543.14	60200.92
543.31	60310.92
543.48	60746.26
543.64	61329.06
543.81	61792.48
543.98	61523.32
544.15	60662.00
544.32	60285.18
544.48	60479.44
544.65	60896.06
544.82	61120.75
544.99	60577.75
545.16	60577.75
545.32	60360.08
545.49	61104.37
545.66	61467.15
545.83	60970.96
546.00	60694.77
546.16	60259.43
546.33	60486.46
546.50	60381.14
546.67	60970.96
546.83	60594.13
547.00	60631.58
547.17	59882.61
547.34	59327.90
547.50	59379.39
547.67	59863.88
547.84	59873.24
548.00	60355.39
548.17	60507.53
548.34	60449.02
548.51	60406.89
548.67	60446.68
548.84	60519.23
549.01	60477.10
549.18	60397.52
549.34	60205.60
549.51	60331.99
549.68	60252.41
549.84	60135.38
550.01	59978.57
550.18	60121.34
550.34	60107.30
550.51	60168.15
550.68	60294.54
550.84	59810.05
551.01	59777.28
551.18	59807.71
551.34	59901.33
551.51	60128.36
551.68	60530.93
551.84	60701.79
552.01	60364.76
552.18	60479.44
552.34	59564.29
552.51	59344.28
552.68	59077.46
552.84	59812.39
553.01	59819.41
553.18	59700.04
553.34	60048.78
553.51	59999.63
553.67	60226.66
553.84	60479.44
554.01	60154.11
554.17	59959.84
554.34	60170.49
554.51	60303.90
554.67	60636.26
554.84	60434.97
555.00	59934.10
555.17	59819.41
555.33	59728.13
555.50	59840.48
555.67	59812.39
555.83	59657.91
556.00	59255.34
556.16	59398.12
556.33	58981.50
556.50	59274.07
556.66	58927.67
556.83	58780.21
556.99	58981.50
557.16	59002.56
557.32	59344.28
557.49	59313.86
557.65	59330.24
557.82	59351.30
557.98	59208.53
558.15	58681.91
558.32	58068.69
558.48	57249.50
558.65	57682.50
558.81	57736.34
558.98	58143.59
559.14	58391.68
559.31	58103.80
559.47	58307.43
559.64	58007.84
559.80	57668.46
559.97	57755.06
560.13	58319.13
560.30	59126.61
560.46	59540.89
560.63	59927.08
560.79	59739.83
560.96	59316.20
561.12	58391.68
561.29	57640.37
561.45	57518.67
561.61	57989.11
561.78	58775.53
561.94	58330.83
562.11	58206.78
562.27	58452.54
562.44	58623.40
562.60	58857.45
562.77	59016.61
562.93	58665.53
563.10	58677.23
563.26	58436.16
563.42	58237.21
563.59	58281.68
563.75	58162.31
563.92	58262.96
564.08	58120.18
564.24	58710.00
564.41	58288.70
564.57	58494.67
564.74	58239.55
564.90	58054.65
565.07	58237.21
565.23	57521.01
565.39	57050.56
565.56	56956.94
565.72	56889.06
565.88	56985.02
566.05	57270.57
566.21	57518.67
566.38	57441.43
566.54	57766.76
566.70	57872.09
566.87	58162.31
567.03	58260.62
567.19	58361.26
567.36	58131.89
567.52	58045.29
567.68	57769.10
567.85	57111.41
568.01	56750.97
568.17	56357.76
568.34	56680.75
568.50	56374.14
568.66	56381.16
568.83	56973.32
568.99	57048.22
569.15	57141.84
569.32	57200.35
569.48	56821.19
569.64	56568.41
569.81	56313.29
569.97	56521.60
570.13	56240.73
570.30	55758.58
570.46	55620.49
570.62	54965.14
570.78	54946.42
570.95	55283.45
571.11	55983.27
571.27	56191.58
571.43	56254.78
571.60	56481.81
571.76	56645.65
571.92	56987.36
572.09	57151.20
572.25	57146.52
572.41	57111.41
572.57	56713.52
572.74	56762.67
572.90	56355.42
573.06	56657.35
573.22	56690.12
573.38	56587.13
573.55	56397.55
573.71	56743.95
573.87	56722.88
574.03	56210.31
574.20	56460.74
574.36	56041.79
574.52	55882.63
574.68	55667.30
574.84	55374.73
575.01	55033.02
575.17	55327.92
575.33	55489.42
575.49	55601.77
575.65	55781.99
575.82	55587.72
575.98	55274.09
576.14	55480.06
576.30	55814.76
576.46	55688.37
576.62	55800.71
576.79	55868.59
576.95	55456.65
577.11	55327.92
577.27	55372.39
577.43	55337.29
577.59	54976.84
577.75	54672.57
577.92	54183.40
578.08	53939.99
578.24	54082.76
578.40	54415.11
578.56	54539.16
578.72	54845.77
578.88	55033.02
579.04	55187.49
579.21	55030.68
579.37	55203.88
579.53	55222.60
579.69	55320.90
579.85	55379.42
580.01	54880.88
580.17	54658.53
580.33	54731.09
580.49	54908.97
580.65	55107.91
580.82	55229.62
580.98	55262.39
581.14	55030.68
581.30	55049.40
581.46	55117.28
581.62	55311.54
581.78	55236.64
581.94	55327.92
582.10	55327.92
582.26	55470.70
582.42	55337.29
582.58	55271.75
582.74	55395.80
582.90	55243.66
583.06	55414.52
583.22	55185.15
583.38	55128.98
583.54	55250.69
583.70	54979.18
583.86	55435.59
584.02	54651.51
584.18	55044.72
584.34	54883.22
584.50	54754.49
584.66	54642.15
584.82	54270.00
584.98	54298.09
585.14	53965.73
585.30	53366.55
