SpectraSuite Data File
++++++++++++++++++++++++++++++++++++
Date: Mon Oct 07 14:53:45 GMT-05:00 2013
User: price-jones
Dark Spectrum Present: No
Reference Spectrum Present: No
Number of Sampled Component Spectra: 1
Spectrometers: USB2+H05261
Integration Time (usec): 100000 (USB2+H05261)
Spectra Averaged: 1 (USB2+H05261)
Boxcar Smoothing: 0 (USB2+H05261)
Correct for Electrical Dark: No (USB2+H05261)
Strobe/Lamp Enabled: No (USB2+H05261)
Correct for Detector Non-linearity: No (USB2+H05261)
Correct for Stray Light: No (USB2+H05261)
Number of Pixels in Processed Spectrum: 2048
>>>>>Begin Processed Spectral Data<<<<<
365.73	0.00
365.92	0.00
366.12	0.00
366.32	0.00
366.52	0.00
366.72	0.00
366.91	0.00
367.11	0.00
367.31	0.00
367.51	0.00
367.70	0.00
367.90	0.00
368.10	0.00
368.30	0.00
368.49	0.00
368.69	0.00
368.89	0.00
369.09	0.00
369.28	0.00
369.48	0.00
369.68	0.00
369.87	0.00
370.07	0.00
370.27	0.00
370.47	589.82
370.66	3047.38
370.86	3765.92
371.06	3964.87
371.25	4117.00
371.45	3646.55
371.65	3314.20
371.84	2979.50
372.04	3218.24
372.24	3440.59
372.44	3927.42
372.63	3772.94
372.83	3634.85
373.03	3075.46
373.22	2733.75
373.42	2995.89
373.62	3337.60
373.81	3899.33
374.01	3662.94
374.21	3398.46
374.40	3148.02
374.60	3190.15
374.79	3569.32
374.99	4266.80
375.19	4580.43
375.38	4596.81
375.58	4287.86
375.78	4271.48
375.97	4383.82
376.17	4475.10
376.37	4564.04
376.56	4514.89
376.76	4915.12
376.95	5376.21
377.15	5614.95
377.35	5781.12
377.54	5937.94
377.74	6080.71
377.93	6071.35
378.13	5851.34
378.33	5886.45
378.52	5547.07
378.72	5064.92
378.91	5128.11
379.11	4884.70
379.31	4578.09
379.50	4585.11
379.70	5022.79
379.89	5586.86
380.09	5884.11
380.28	6253.91
380.48	6057.31
380.68	5933.26
380.87	5741.33
381.07	5287.27
381.26	4999.38
381.46	4706.82
381.65	4425.95
381.85	4372.12
382.04	4109.98
382.24	4002.32
382.43	3817.41
382.63	3721.45
382.83	3742.52
383.02	3583.36
383.22	3702.73
383.41	3590.38
383.61	3962.53
383.80	4526.60
384.00	5137.48
384.19	5771.76
384.39	6024.54
384.58	5888.79
384.78	5839.64
384.97	6083.05
385.17	5575.16
385.36	5301.31
385.56	5015.77
385.75	5071.94
385.95	5605.58
386.14	6230.51
386.34	6188.38
386.53	5884.11
386.72	5472.17
386.92	5577.50
387.11	5977.73
387.31	6368.60
387.50	6129.86
387.70	5846.66
387.89	5851.34
388.09	5944.96
388.28	5776.44
388.48	5991.77
388.67	6443.49
388.86	7089.48
389.06	7548.23
389.25	7990.59
389.45	8065.49
389.64	7873.56
389.84	7969.52
390.03	7852.50
390.22	8004.63
390.42	8184.85
390.61	8676.37
390.81	9303.63
391.00	9043.83
391.19	9444.06
391.39	9107.02
391.58	8512.53
391.78	7885.26
391.97	7669.94
392.16	7321.20
392.36	6595.63
392.55	5277.91
392.75	4194.24
392.94	3435.91
393.13	3323.56
393.33	3850.18
393.52	5039.17
393.71	6387.32
393.91	7035.65
394.10	7571.63
394.29	8498.49
394.49	8999.36
394.68	9921.53
394.88	9790.46
395.07	10310.06
395.26	10303.04
395.46	9757.69
395.65	9092.98
395.84	8121.66
396.04	6960.75
396.23	5526.00
396.42	4606.17
396.62	4456.38
396.81	5174.92
397.00	6527.75
397.19	8341.67
397.39	9853.66
397.58	11063.71
397.77	11683.95
397.97	12306.54
398.16	12559.31
398.35	12732.51
398.55	13231.05
398.74	13916.83
398.93	14125.13
399.12	13930.87
399.32	13364.46
399.51	13483.83
399.70	14422.38
399.90	14384.93
400.09	14633.03
400.28	14024.49
400.47	14523.02
400.67	15119.86
400.86	15356.25
401.05	15300.08
401.24	15510.73
401.44	15660.52
401.63	16285.45
401.82	16224.59
402.01	15873.51
402.21	16088.84
402.40	15981.18
402.59	15861.81
402.78	14883.47
402.97	14588.56
403.17	15122.20
403.36	16233.96
403.55	16521.84
403.74	17125.70
403.93	16271.40
404.13	14850.70
404.32	14871.76
404.51	15112.84
404.70	16503.12
404.89	16449.28
405.09	16173.10
405.28	15660.52
405.47	15484.98
405.66	15892.24
405.85	15386.68
406.05	14890.49
406.24	14984.11
406.43	15751.81
406.62	16262.04
406.81	16634.19
407.00	15793.94
407.20	15264.97
407.39	15735.42
407.58	16386.09
407.77	16793.34
407.96	17418.27
408.15	17748.28
408.34	17516.57
408.54	18663.43
408.73	18775.78
408.92	18389.59
409.11	17867.65
409.30	17029.74
409.49	16210.55
409.68	14902.19
409.87	14471.53
410.07	15389.02
410.26	16615.46
410.45	17905.10
410.64	17961.27
410.83	18396.61
411.02	18892.80
411.21	19915.62
411.40	19772.85
411.59	19730.72
411.78	19768.16
411.98	19044.94
412.17	19627.73
412.36	18960.68
412.55	19445.17
412.74	18853.02
412.93	18501.93
413.12	18923.23
413.31	20643.52
413.50	20524.16
413.69	21013.33
413.88	19913.28
414.07	19620.71
414.26	19946.05
414.45	20334.57
414.64	20585.01
414.83	20751.19
415.02	20159.03
415.22	20456.28
415.41	21010.99
415.60	21380.79
415.79	22223.39
415.98	22878.74
416.17	22932.57
416.36	22148.49
416.55	22136.79
416.74	20978.22
416.93	20362.66
417.12	20290.10
417.31	20620.12
417.50	21003.97
417.69	21774.00
417.88	21551.65
418.07	21736.56
418.26	21453.35
418.45	21099.93
418.64	22043.17
418.83	22918.53
419.02	22647.02
419.21	22600.21
419.39	21266.11
419.58	20397.77
419.77	20393.09
419.96	21474.42
420.15	22373.18
420.34	23545.79
420.53	24353.27
420.72	24830.74
420.91	24187.10
421.10	24056.03
421.29	24226.89
421.48	23042.57
421.67	24280.72
421.86	23426.42
422.05	21874.65
422.24	19838.38
422.43	19447.51
422.61	21308.24
422.80	22909.16
422.99	23208.75
423.18	22223.39
423.37	22087.64
423.56	22190.62
423.75	22394.25
423.94	22712.56
424.13	21881.67
424.32	21996.35
424.50	22169.55
424.69	21158.44
424.88	21694.43
425.07	21493.14
425.26	21692.08
425.45	21120.99
425.64	20678.63
425.83	21025.03
426.01	22363.82
426.20	22728.94
426.39	22597.87
426.58	21245.04
426.77	19339.85
426.96	18944.30
427.15	19145.58
427.33	21043.76
427.52	21710.81
427.71	21989.33
427.90	21771.66
428.09	21766.98
428.28	21165.46
428.46	20554.58
428.65	19864.13
428.84	20540.54
429.03	20858.85
429.22	19594.96
429.40	18747.69
429.59	17071.87
429.78	15037.94
429.97	15089.43
430.16	15283.70
430.34	15337.53
430.53	15264.97
430.72	15803.30
430.91	17057.82
431.10	20388.41
431.28	24212.84
431.47	26457.42
431.66	26214.00
431.85	24151.99
432.03	22279.56
432.22	20865.88
432.41	21832.52
432.60	24198.80
432.79	25060.12
432.97	26012.71
433.16	25427.58
433.35	23236.84
433.54	20629.48
433.72	19384.32
433.91	20109.88
434.10	22235.09
434.28	23969.43
434.47	25509.50
434.66	25106.93
434.85	24198.80
435.03	24034.96
435.22	24938.41
435.41	26237.41
435.59	26419.97
435.78	26445.71
435.97	27321.07
436.16	27711.94
436.34	27068.30
436.53	26717.22
436.72	26773.39
436.90	25446.30
437.09	25228.63
437.28	24694.99
437.46	25539.93
437.65	25348.00
437.84	23866.44
438.02	21621.87
438.21	21937.84
438.40	22874.06
438.58	24812.02
438.77	25385.45
438.96	25565.67
439.14	27014.46
439.33	27601.94
439.52	27761.09
439.70	27278.94
439.89	26838.92
440.08	25898.03
440.26	25593.76
440.45	26576.78
440.63	28643.48
440.82	29509.47
441.01	29434.58
441.19	29252.02
441.38	29783.32
441.57	31021.46
441.75	31255.51
441.94	31431.05
442.12	31285.94
442.31	31648.72
442.50	31683.83
442.68	31297.64
442.87	30993.37
443.05	30742.94
443.24	30906.77
443.43	31475.52
443.61	31917.89
443.80	32484.30
443.98	30920.82
444.17	30803.79
444.35	32545.15
444.54	32903.25
444.73	32435.14
444.91	31257.85
445.10	29811.40
445.28	28790.93
445.47	28477.30
445.65	28325.16
445.84	29596.07
446.02	30204.61
446.21	31042.53
446.39	31234.45
446.58	31288.28
446.77	31637.02
446.95	32219.81
447.14	32720.69
447.32	33764.57
447.51	32542.81
447.69	31775.11
447.88	31033.16
448.06	31398.29
448.25	32400.04
448.43	32437.48
448.62	31920.23
448.80	31644.04
448.99	32158.96
449.17	32088.74
449.36	32020.87
449.54	33598.39
449.73	34068.84
449.91	34525.24
450.10	35098.67
450.28	35576.14
450.46	35873.39
450.65	35562.10
450.83	35297.62
451.02	34471.41
451.20	34387.15
451.39	34569.71
451.57	34120.33
451.76	34202.25
451.94	34155.44
452.13	33745.84
452.31	32079.38
452.49	30394.20
452.68	30824.86
452.86	31040.18
453.05	31386.58
453.23	32500.68
453.42	32818.99
453.60	33694.35
453.78	34094.58
453.97	33787.97
454.15	33603.07
454.34	33015.60
454.52	33490.73
454.70	32591.96
454.89	32982.83
455.07	33333.91
455.26	33088.15
455.44	34497.16
455.62	35337.41
455.81	35344.43
455.99	35091.65
456.17	34543.97
456.36	34969.94
456.54	35723.60
456.73	36018.50
456.91	36587.25
457.09	36315.75
457.28	37493.04
457.46	36018.50
457.64	35379.54
457.83	34897.39
458.01	33647.54
458.19	34581.42
458.38	34586.10
458.56	36147.23
458.74	35894.46
458.93	35166.55
459.11	35447.41
459.29	35033.14
459.48	35487.20
459.66	34948.88
459.84	35292.94
460.03	36137.87
460.21	35529.33
460.39	36477.25
460.57	36498.31
460.76	37163.03
460.94	37088.13
461.12	36769.82
461.31	36627.04
461.49	36671.51
461.67	36549.81
461.85	37968.17
462.04	38174.14
462.22	37530.49
462.40	37757.52
462.59	37736.46
462.77	37722.41
462.95	37668.58
463.13	36950.04
463.32	36542.78
463.50	36711.30
463.68	36989.83
463.86	36814.29
464.05	36172.98
464.23	35456.78
464.41	35627.63
464.59	34616.52
464.78	36577.89
464.96	36203.41
465.14	36301.71
465.32	36790.88
465.50	37773.91
465.69	38162.43
465.87	37008.55
466.05	36708.96
466.23	34445.66
466.41	33787.97
466.60	34934.84
466.78	35077.61
466.96	35541.03
467.14	35878.07
467.32	36563.85
467.51	36598.96
467.69	34771.00
467.87	35739.98
468.05	36364.90
468.23	36367.24
468.41	36306.39
468.60	36369.58
468.78	36893.86
468.96	35929.56
469.14	37268.35
469.32	37418.14
469.50	35864.03
469.69	36051.27
469.87	35283.58
470.05	35068.25
470.23	35257.83
470.41	35335.07
470.59	35840.62
470.77	36144.89
470.95	36804.92
471.14	37277.71
471.32	37022.59
471.50	39255.46
471.68	39292.91
471.86	39934.22
472.04	39896.77
472.22	39842.94
472.40	38099.24
472.58	37874.55
472.77	37345.59
472.95	38033.71
473.13	39299.94
473.31	38087.54
473.49	38345.00
473.67	38773.31
473.85	39405.26
474.03	40081.67
474.21	40561.48
474.39	40690.21
474.57	41263.64
474.75	40488.93
474.93	40474.88
475.12	39838.26
475.30	39814.85
475.48	40013.80
475.66	40442.12
475.84	40215.08
476.02	39828.90
476.20	39210.99
476.38	40044.23
476.56	41127.89
476.74	41624.09
476.92	42045.38
477.10	42347.31
477.28	43391.19
477.46	43225.01
477.64	43995.05
477.82	43999.73
478.00	44233.78
478.18	43175.86
478.36	43627.59
478.54	42972.24
478.72	43868.66
478.90	44540.39
479.08	46082.81
479.26	45923.65
479.44	46375.37
479.62	45808.96
479.80	45710.66
479.98	46230.26
480.16	46267.71
480.34	46085.15
480.52	46206.86
480.70	46218.56
480.88	46431.55
481.06	47227.33
481.24	47599.47
481.41	48343.77
481.59	49085.72
481.77	48781.45
481.95	48364.83
482.13	48161.20
482.31	48041.84
482.49	48940.60
482.67	48577.82
482.85	49043.59
483.03	49722.34
483.21	49705.96
483.39	49684.89
483.57	49024.86
483.74	48521.65
483.92	49137.21
484.10	49050.61
484.28	49998.52
484.46	50431.52
484.64	50953.46
484.82	49895.54
485.00	49633.40
485.18	48839.96
485.35	47496.49
485.53	44767.43
485.71	40828.30
485.89	39835.92
486.07	42204.54
486.25	45642.79
486.43	48203.33
486.61	48582.50
486.78	48619.95
486.96	48622.29
487.14	50323.86
487.32	51166.45
487.50	52107.35
487.68	52638.65
487.85	53352.51
488.03	53221.44
488.21	52697.16
488.39	52285.23
488.57	51538.60
488.75	51267.09
488.92	52303.95
489.10	53972.75
489.28	55536.23
489.46	56086.26
489.64	55842.84
489.81	55906.04
489.99	55655.60
490.17	55819.44
490.35	56030.08
490.53	55604.11
490.70	55248.35
490.88	54995.57
491.06	55924.76
491.24	56147.11
491.41	55236.64
491.59	53794.87
491.77	52910.15
491.95	53902.54
492.13	55110.25
492.30	55922.42
492.48	56879.70
492.66	57530.37
492.84	57249.50
493.01	56980.34
493.19	56612.88
493.37	56413.93
493.54	56130.73
493.72	56617.56
493.90	57441.43
494.08	58239.55
494.25	58592.97
494.43	58646.80
494.61	59025.97
494.79	59185.13
494.96	58735.74
495.14	58363.60
495.32	57368.87
495.49	57041.20
495.67	57551.43
495.85	59126.61
496.02	59451.95
496.20	59311.52
496.38	58918.31
496.55	58887.88
496.73	59449.61
496.91	59515.14
497.09	60013.68
497.26	60126.02
497.44	59395.77
497.62	59047.04
497.79	58340.19
497.97	57202.69
498.14	57317.38
498.32	58504.03
498.50	59419.18
498.67	59920.05
498.85	59576.00
499.03	59723.45
499.20	59910.69
499.38	59985.59
499.56	59833.46
499.73	59236.62
499.91	58930.01
500.08	58726.38
500.26	57881.45
500.44	58349.56
500.61	58960.44
500.79	58848.09
500.97	58471.26
501.14	58216.14
501.32	58178.70
501.49	58204.44
501.67	58202.10
501.84	58820.00
502.02	59180.45
502.20	59358.33
502.37	59590.04
502.55	59597.06
502.72	60032.40
502.90	60570.72
503.07	60229.01
503.25	60051.12
503.43	59264.70
503.60	58644.46
503.78	57972.73
503.95	58344.87
504.13	59730.47
504.30	60453.70
504.48	60114.32
504.65	60027.72
504.83	59842.82
505.01	60479.44
505.18	60832.86
505.36	61242.46
505.53	61439.06
505.71	61488.21
505.88	61630.99
506.06	61052.87
506.23	60762.65
506.41	60334.33
506.58	60669.03
506.76	60683.07
506.93	60711.16
507.11	60310.92
507.28	60446.68
507.46	60048.78
507.63	59700.04
507.81	59367.69
507.98	59402.80
508.16	60233.69
508.33	60889.04
508.50	60992.02
508.68	61371.19
508.85	61731.63
509.03	61560.77
509.20	61530.34
509.38	60994.36
509.55	60168.15
509.73	60224.32
509.90	60905.42
510.08	61013.08
510.25	60959.25
510.42	60924.14
510.60	60596.47
510.77	61095.00
510.95	61605.24
511.12	61551.41
511.30	61862.70
511.47	62199.74
511.64	62003.13
511.82	61757.38
511.99	61214.37
512.17	60722.86
512.34	60301.56
512.51	60484.12
512.69	60729.88
512.86	60584.77
513.04	61141.81
513.21	61226.07
513.38	60739.24
513.56	60329.65
513.73	59957.50
513.90	60046.44
514.08	59999.63
514.25	60266.45
514.43	60575.40
514.60	60633.92
514.77	60762.65
514.95	60842.23
515.12	60699.45
515.29	61027.13
515.47	61392.25
515.64	61689.50
515.81	61244.80
515.99	60664.35
516.16	59540.89
516.33	57282.27
516.51	56151.79
516.68	55470.70
516.85	54885.56
517.03	55313.88
517.20	57450.79
517.37	59957.50
517.54	60767.33
517.72	60594.13
517.89	58277.00
518.06	56041.79
518.24	56126.05
518.41	58267.64
518.58	59451.95
518.75	59756.22
518.93	59906.01
519.10	59721.11
519.27	60301.56
519.45	60357.74
519.62	61069.26
519.79	61228.41
519.96	61125.43
520.14	60748.60
520.31	60011.34
520.48	59952.82
520.65	60236.03
520.83	61347.78
521.00	61425.02
521.17	61155.86
521.34	60804.78
521.52	61080.96
521.69	61630.99
521.86	62206.76
522.03	61490.55
522.20	60718.18
522.38	59625.15
522.55	59718.77
522.72	60214.96
522.89	60491.15
523.07	60441.99
523.24	60786.05
523.41	61687.16
523.58	61820.57
523.75	62330.81
523.92	62216.12
524.10	61914.19
524.27	62206.76
524.44	61888.45
524.61	61862.70
524.78	61579.49
524.96	61542.05
525.13	61502.26
525.30	61736.31
525.47	62176.33
525.64	62195.06
525.81	61474.17
525.98	60385.82
526.16	58787.24
526.33	58223.17
526.50	57733.99
526.67	57425.04
526.84	58269.98
527.01	59047.04
527.18	59828.77
527.36	60582.43
527.53	61385.23
527.70	61748.01
527.87	61336.08
528.04	60750.94
528.21	61413.32
528.38	61731.63
528.55	62328.47
528.72	62564.86
528.89	62644.44
529.07	62511.03
529.24	61808.87
529.41	61188.63
529.58	60718.18
529.75	60987.34
529.92	61015.43
530.09	61666.09
530.26	62239.53
530.43	62412.73
530.60	62379.96
530.77	62459.54
530.94	62742.74
531.11	62176.33
531.28	61818.23
531.46	61675.46
531.63	61862.70
531.80	61752.69
531.97	61462.47
532.14	60863.29
532.31	59854.52
532.48	59306.83
532.65	59145.34
532.82	60037.08
532.99	61031.81
533.16	61389.91
533.33	61916.53
533.50	61757.38
533.67	61076.28
533.84	60678.39
534.01	60966.27
534.18	61176.92
534.35	61162.88
534.52	61038.83
534.69	61345.44
534.86	61520.98
535.03	61846.32
535.20	62220.80
535.37	62485.28
535.54	62782.53
535.71	62326.13
535.88	62129.52
536.05	61469.49
536.22	61127.77
536.38	60743.92
536.55	60367.10
536.72	59913.03
536.89	59906.01
537.06	60406.89
537.23	61490.55
537.40	61602.90
537.57	61553.75
537.74	61537.36
537.91	61368.85
538.08	61289.27
538.25	61268.20
538.42	61628.65
538.59	61420.34
538.75	60865.63
538.92	60605.83
539.09	60261.77
539.26	60317.95
539.43	60144.75
539.60	60198.58
539.77	60275.82
539.94	60327.31
540.11	59400.46
540.28	58836.39
540.44	59147.68
540.61	59332.58
540.78	59470.67
540.95	59999.63
541.12	60250.07
541.29	60425.61
541.46	60825.84
541.62	60954.57
541.79	60760.31
541.96	60198.58
542.13	59976.23
542.30	60395.18
542.47	60575.40
542.63	60360.08
542.80	60212.62
542.97	60111.98
543.14	60285.18
543.31	60259.43
543.48	60697.11
543.64	61502.26
543.81	61551.41
543.98	61378.21
544.15	60832.86
544.32	60364.76
544.48	60299.22
544.65	60547.32
544.82	61214.37
544.99	60842.23
545.16	60598.81
545.32	60271.14
545.49	61120.75
545.66	61389.91
545.83	60945.21
546.00	60741.58
546.16	60346.03
546.33	60381.14
546.50	60561.36
546.67	60882.02
546.83	60479.44
547.00	60488.80
547.17	59950.48
547.34	59400.46
547.50	59419.18
547.67	59828.77
547.84	59737.49
548.00	60264.11
548.17	60552.00
548.34	60430.29
548.51	60484.12
548.67	60425.61
548.84	60439.65
549.01	60465.40
549.18	60647.96
549.34	60327.31
549.51	60320.29
549.68	60484.12
549.84	60348.37
550.01	59952.82
550.18	59941.12
550.34	60088.57
550.51	60018.36
550.68	59903.67
550.84	59643.87
551.01	59583.02
551.18	59735.15
551.34	59966.87
551.51	60135.38
551.68	60418.59
551.84	60472.42
552.01	60179.85
552.18	60224.32
552.34	59318.54
552.51	59037.67
552.68	59054.06
552.84	59395.77
553.01	59774.94
553.18	59660.26
553.34	59835.80
553.51	59788.98
553.67	59971.55
553.84	60140.07
554.01	60207.94
554.17	59882.61
554.34	59842.82
554.51	60102.62
554.67	60385.82
554.84	60114.32
555.00	59877.93
555.17	59728.13
555.33	59887.29
555.50	59814.73
555.67	59711.75
555.83	59477.69
556.00	59311.52
556.16	59016.61
556.33	58834.05
556.50	58869.15
556.66	58845.75
556.83	58454.88
556.99	58740.42
557.16	58576.59
557.32	59035.33
557.49	59325.56
557.65	59325.56
557.82	59332.58
557.98	59018.95
558.15	58656.17
558.32	57698.89
558.48	57284.61
558.65	57228.44
558.81	57593.56
558.98	57787.83
559.14	58211.46
559.31	57963.37
559.47	58106.14
559.64	57954.00
559.80	57457.81
559.97	57549.09
560.13	57977.41
560.30	58759.15
560.46	59510.46
560.63	59388.75
560.79	59370.03
560.96	59152.36
561.12	58113.16
561.29	57247.16
561.45	57343.12
561.61	57958.69
561.78	58319.13
561.94	58181.04
562.11	58155.29
562.27	58122.52
562.44	58204.44
562.60	58791.92
562.77	58810.64
562.93	58766.17
563.10	58583.61
563.26	57888.47
563.42	58089.76
563.59	57907.19
563.75	58052.31
563.92	57787.83
564.08	57769.10
564.24	58204.44
564.41	58089.76
564.57	58101.46
564.74	57883.79
564.90	57839.32
565.07	57715.27
565.23	57226.10
565.39	56816.50
565.56	56676.07
565.72	56392.87
565.88	56912.47
566.05	56734.59
566.21	57003.75
566.38	57296.31
566.54	57275.25
566.70	57647.39
566.87	57907.19
567.03	57551.43
567.19	58195.08
567.36	57750.38
567.52	57726.97
567.68	57364.19
567.85	56788.42
568.01	56446.70
568.17	56039.45
568.34	56254.78
568.50	56376.48
568.66	56205.62
568.83	56610.54
568.99	56605.86
569.15	56762.67
569.32	56940.55
569.48	56505.21
569.64	56437.34
569.81	56292.22
569.97	56018.38
570.13	55927.10
570.30	55922.42
570.46	55250.69
570.62	54703.00
570.78	54721.72
570.95	55018.97
571.11	55524.53
571.27	55779.65
571.43	55896.67
571.60	56193.92
571.76	56341.38
571.92	56783.74
572.09	56697.14
572.25	56900.76
572.41	56685.43
572.57	56509.89
572.74	56786.08
572.90	56133.07
573.06	56205.62
573.22	56179.88
573.38	56222.01
573.55	56339.04
573.71	56491.17
573.87	56528.62
574.03	55978.59
574.20	56172.86
574.36	55842.84
574.52	55601.77
574.68	55597.09
574.84	55423.89
575.01	54850.45
575.17	54625.76
575.33	55075.15
575.49	55072.81
575.65	55449.63
575.82	54955.78
575.98	54866.84
576.14	55398.14
576.30	55543.25
576.46	55681.34
576.62	55517.51
576.79	55458.99
576.95	55121.96
577.11	54932.37
577.27	55175.79
577.43	54960.46
577.59	54719.38
577.75	54602.36
577.92	53818.28
578.08	53446.13
578.24	53907.22
578.40	54141.27
578.56	54354.26
578.72	54403.41
578.88	54578.95
579.04	54401.07
579.21	54742.79
579.37	54576.61
579.53	54672.57
579.69	54710.02
579.85	54948.76
580.01	54976.84
580.17	54429.16
580.33	54232.55
580.49	54295.75
580.65	54796.62
580.82	54789.60
580.98	54976.84
581.14	54555.55
581.30	54688.96
581.46	54780.24
581.62	55117.28
581.78	54899.61
581.94	54981.52
582.10	54871.52
582.26	55180.47
582.42	54829.39
582.58	54904.29
582.74	54782.58
582.90	54983.86
583.06	54951.10
583.22	54621.08
583.38	54541.50
583.54	54672.57
583.70	54478.31
583.86	54663.21
584.02	54380.01
584.18	54337.88
584.34	54335.54
584.50	54581.29
584.66	54033.61
584.82	53862.75
584.98	53935.30
585.14	53542.10
