SpectraSuite Data File
++++++++++++++++++++++++++++++++++++
Date: Mon Oct 07 14:53:52 GMT-05:00 2013
User: price-jones
Dark Spectrum Present: No
Reference Spectrum Present: No
Number of Sampled Component Spectra: 1
Spectrometers: USB2+H05261
Integration Time (usec): 100000 (USB2+H05261)
Spectra Averaged: 1 (USB2+H05261)
Boxcar Smoothing: 0 (USB2+H05261)
Correct for Electrical Dark: No (USB2+H05261)
Strobe/Lamp Enabled: No (USB2+H05261)
Correct for Detector Non-linearity: No (USB2+H05261)
Correct for Stray Light: No (USB2+H05261)
Number of Pixels in Processed Spectrum: 2048
>>>>>Begin Processed Spectral Data<<<<<
365.73	0.00
365.92	0.00
366.12	0.00
366.32	0.00
366.52	0.00
366.72	0.00
366.91	0.00
367.11	0.00
367.31	0.00
367.51	0.00
367.70	0.00
367.90	0.00
368.10	0.00
368.30	0.00
368.49	0.00
368.69	0.00
368.89	0.00
369.09	0.00
369.28	0.00
369.48	0.00
369.68	0.00
369.87	0.00
370.07	0.00
370.27	0.00
370.47	479.81
370.66	2757.15
370.86	3267.39
371.06	3557.61
371.25	3431.23
371.45	3260.37
371.65	2986.52
371.84	2693.96
372.04	2963.12
372.24	3204.19
372.44	3501.44
372.63	3269.73
372.83	3180.79
373.03	2775.88
373.22	2417.77
373.42	2654.17
373.62	3016.95
373.81	3246.32
374.01	3398.46
374.21	2970.14
374.40	2832.05
374.60	2920.99
374.79	3384.41
374.99	3812.73
375.19	4084.23
375.38	4079.55
375.58	3960.19
375.78	3763.58
375.97	3857.20
376.17	4018.70
376.37	3915.72
376.56	4161.47
376.76	4374.46
376.95	4622.56
377.15	4952.57
377.35	5184.29
377.54	5254.50
377.74	5540.05
377.93	5355.15
378.13	5261.52
378.33	5128.11
378.52	4641.28
378.72	4496.17
378.91	4423.61
379.11	4273.82
379.31	4149.77
379.50	4208.28
379.70	4430.63
379.89	4917.47
380.09	5195.99
380.28	5338.76
380.48	5357.49
380.68	5214.71
380.87	5088.32
381.07	4851.93
381.26	4308.93
381.46	4117.00
381.65	4044.45
381.85	3957.85
382.04	3686.34
382.24	3581.02
382.43	3318.88
382.63	3171.43
382.83	3180.79
383.02	3274.41
383.22	3337.60
383.41	3227.60
383.61	3440.59
383.80	4014.02
384.00	4552.34
384.19	5181.95
384.39	5298.97
384.58	5427.70
384.78	5259.18
384.97	5188.97
385.17	4851.93
385.36	4772.35
385.56	4482.13
385.75	4641.28
385.95	4931.51
386.14	5535.37
386.34	5540.05
386.53	5135.14
386.72	4929.17
386.92	4858.95
387.11	5277.91
387.31	5502.60
387.50	5554.09
387.70	5184.29
387.89	5041.51
388.09	5172.58
388.28	5111.73
388.48	5324.72
388.67	5774.10
388.86	6211.78
389.06	6710.32
389.25	7124.59
389.45	7070.76
389.64	7183.10
389.84	6937.35
390.03	6768.83
390.22	6991.18
390.42	7073.10
390.61	7293.11
390.81	8067.83
391.00	8456.36
391.19	8112.30
391.39	7859.52
391.58	7419.50
391.78	6942.03
391.97	6724.36
392.16	6277.32
392.36	5874.74
392.55	4683.41
392.75	3798.69
392.94	3047.38
393.13	2958.44
393.33	3424.20
393.52	4461.06
393.71	5540.05
393.91	6338.17
394.10	6939.69
394.29	7454.61
394.49	8168.47
394.68	8685.73
394.88	8561.68
395.07	8936.17
395.26	9043.83
395.46	8571.04
395.65	8299.54
395.84	7304.81
396.04	6211.78
396.23	4891.72
396.42	4093.60
396.62	4046.79
396.81	4423.61
397.00	5966.03
397.19	7314.17
397.39	8777.01
397.58	9720.24
397.77	10408.36
397.97	10637.73
398.16	10771.15
398.35	11204.14
398.55	11815.02
398.74	12138.02
398.93	12355.69
399.12	12205.89
399.32	11695.66
399.51	12065.46
399.70	12961.89
399.90	12521.87
400.09	12592.08
400.28	12311.22
400.47	12587.40
400.67	13219.35
400.86	13680.43
401.05	13640.64
401.24	13462.76
401.44	13951.93
401.63	13556.38
401.82	14033.85
402.01	13760.01
402.21	14111.09
402.40	14146.20
402.59	13671.07
402.78	13064.87
402.97	12674.00
403.17	13137.43
403.36	13914.48
403.55	14539.41
403.74	14740.69
403.93	14146.20
404.13	13151.47
404.32	12559.31
404.51	13404.25
404.70	14345.14
404.89	14293.65
405.09	14031.51
405.28	13568.09
405.47	13654.69
405.66	13635.96
405.85	13312.97
406.05	12861.24
406.24	13071.89
406.43	13610.22
406.62	14417.70
406.81	14303.01
407.00	13488.51
407.20	13551.70
407.39	13671.07
407.58	14061.94
407.77	14944.32
407.96	15449.88
408.15	15325.83
408.34	15496.69
408.54	16100.55
408.73	16231.62
408.92	15786.91
409.11	15658.18
409.30	14778.14
409.49	13991.72
409.68	13158.49
409.87	12582.72
410.07	13331.69
410.26	14504.30
410.45	15370.30
410.64	15641.80
410.83	16060.76
411.02	16350.98
411.21	17331.67
411.40	17069.53
411.59	17121.02
411.78	17062.51
411.98	16863.56
412.17	17025.06
412.36	16688.02
412.55	16781.64
412.74	16587.38
412.93	16325.24
413.12	16290.13
413.31	17797.43
413.50	17759.98
413.69	18384.91
413.88	17504.87
414.07	16982.93
414.26	17383.16
414.45	17678.07
414.64	17865.31
414.83	18031.49
415.02	17666.36
415.22	17483.80
415.41	18012.76
415.60	18616.62
415.79	19321.12
415.98	19711.99
416.17	19754.12
416.36	18970.04
416.55	18899.83
416.74	18398.95
416.93	17455.72
417.12	18033.83
417.31	18171.92
417.50	18244.48
417.69	18703.22
417.88	18764.07
418.07	18630.66
418.26	18314.69
418.45	18513.64
418.64	19257.93
418.83	20016.26
419.02	19609.01
419.21	19676.88
419.39	18326.39
419.58	17582.10
419.77	17743.60
419.96	18927.91
420.15	19777.53
420.34	20091.16
420.53	20683.31
420.72	21104.61
420.91	20851.83
421.10	20652.89
421.29	20428.20
421.48	19669.86
421.67	20800.34
421.86	19943.70
422.05	18642.37
422.24	17186.55
422.43	16512.48
422.61	18525.34
422.80	19992.86
422.99	20196.48
423.18	19410.06
423.37	18855.36
423.56	19131.54
423.75	19421.77
423.94	19569.22
424.13	18478.53
424.32	19054.30
424.50	18979.40
424.69	18335.76
424.88	18750.03
425.07	18913.87
425.26	18679.82
425.45	18677.48
425.64	18223.41
425.83	18122.77
426.01	19304.74
426.20	19541.13
426.39	19398.36
426.58	18387.25
426.77	16863.56
426.96	16346.30
427.15	16851.86
427.33	18043.19
427.52	19058.98
427.71	19077.71
427.90	18824.93
428.09	18565.13
428.28	18246.82
428.46	17554.02
428.65	17317.62
428.84	17497.84
429.03	17942.55
429.22	17083.57
429.40	16217.57
429.59	14635.37
429.78	12774.64
429.97	12994.65
430.16	13200.62
430.34	13102.32
430.53	13371.48
430.72	13537.66
430.91	14808.57
431.10	17467.42
431.28	20573.31
431.47	22398.93
431.66	22483.19
431.85	20470.33
432.03	18930.25
432.22	17965.95
432.41	18841.31
432.60	20774.60
432.79	21598.46
432.97	22380.20
433.16	21619.53
433.35	19805.61
433.54	17804.46
433.72	16493.76
433.91	17259.11
434.10	19545.81
434.28	20776.94
434.47	21713.15
434.66	21156.10
434.85	20697.36
435.03	20730.12
435.22	21654.64
435.41	22806.18
435.59	22712.56
435.78	22876.40
435.97	23168.96
436.16	23901.55
436.34	23236.84
436.53	22717.24
436.72	22869.37
436.90	21860.60
437.09	21659.32
437.28	21013.33
437.46	22120.40
437.65	22003.38
437.84	20510.11
438.02	18822.59
438.21	18389.59
438.40	19470.92
438.58	21331.64
438.77	21778.68
438.96	22204.66
439.14	23229.82
439.33	23644.09
439.52	23929.64
439.70	23276.63
439.89	22562.76
440.08	22338.07
440.26	22164.87
440.45	22941.93
440.63	24505.41
440.82	25757.60
441.01	25333.96
441.19	25436.94
441.38	25701.42
441.57	26228.04
441.75	27026.17
441.94	27220.43
442.12	26476.14
442.31	27243.84
442.50	27077.66
442.68	26822.54
442.87	26391.88
443.05	26071.23
443.24	26216.34
443.43	27000.42
443.61	27503.64
443.80	28079.41
443.98	26438.69
444.17	26405.92
444.35	27704.92
444.54	28304.10
444.73	28243.24
444.91	26986.38
445.10	25703.76
445.28	24596.69
445.47	24362.64
445.65	24800.32
445.84	25247.36
446.02	26309.96
446.21	26464.44
446.39	26354.43
446.58	27028.51
446.77	27138.51
446.95	27339.80
447.14	28320.48
447.32	29015.62
447.51	28112.17
447.69	27103.40
447.88	26331.03
448.06	27005.10
448.25	27421.72
448.43	27817.27
448.62	27239.15
448.80	26820.20
448.99	27133.83
449.17	27765.78
449.36	27147.87
449.54	28549.85
449.73	29200.52
449.91	29439.26
450.10	30000.99
450.28	30719.53
450.46	30668.04
450.65	30068.86
450.83	30136.74
451.02	29570.33
451.20	29479.05
451.39	29411.17
451.57	28987.53
451.76	29003.92
451.94	28886.89
452.13	28627.09
452.31	26909.14
452.49	25989.31
452.68	26380.18
452.86	26242.09
453.05	26754.66
453.23	27660.45
453.42	27831.31
453.60	28510.07
453.78	29060.09
453.97	28481.98
454.15	28898.59
454.34	28266.65
454.52	28268.99
454.70	27388.95
454.89	27990.47
455.07	28048.98
455.26	28322.82
455.44	29598.41
455.62	30335.68
455.81	30384.83
455.99	30295.89
456.17	29876.94
456.36	29951.84
456.54	30761.66
456.73	30888.05
456.91	31101.04
457.09	31152.53
457.28	31751.71
457.46	30209.29
457.64	30520.59
457.83	29530.54
458.01	28690.29
458.19	29626.50
458.38	29830.13
458.56	30735.92
458.74	30913.80
458.93	29923.75
459.11	29603.10
459.29	29717.78
459.48	29575.01
459.66	29923.75
459.84	30108.65
460.03	30658.68
460.21	30455.05
460.39	31297.64
460.57	31452.12
460.76	31402.97
460.94	31667.45
461.12	31044.87
461.31	30827.20
461.49	30974.65
461.67	31173.60
461.85	32364.93
462.04	32189.39
462.22	32472.59
462.40	31945.97
462.59	31730.64
462.77	32198.75
462.95	32121.51
463.13	31292.96
463.32	31461.48
463.50	31218.07
463.68	30962.95
463.86	31112.74
464.05	30909.11
464.23	30213.98
464.41	29970.56
464.59	29322.23
464.78	30899.75
464.96	30651.66
465.14	30237.38
465.32	31325.73
465.50	31978.74
465.69	32086.40
465.87	31702.56
466.05	30656.34
466.23	29378.40
466.41	28678.58
466.60	29631.18
466.78	29647.57
466.96	30443.35
467.14	30588.46
467.32	31070.61
467.51	31079.97
467.69	29668.63
467.87	30419.94
468.05	30637.61
468.23	30654.00
468.41	30843.58
468.60	31108.06
468.78	31054.23
468.96	30675.06
469.14	31377.22
469.32	31667.45
469.50	30010.35
469.69	30480.80
469.87	30113.33
470.05	29661.61
470.23	29537.56
470.41	30094.61
470.59	30527.61
470.77	30632.93
470.95	31056.57
471.14	31515.31
471.32	31828.95
471.50	33146.67
471.68	33455.62
471.86	33923.72
472.04	33755.21
472.22	33867.55
472.40	32463.23
472.58	31938.95
472.77	31325.73
472.95	32229.18
473.13	33567.96
473.31	32030.23
473.49	32210.45
473.67	33013.26
473.85	33006.23
474.03	34092.24
474.21	34525.24
474.39	34260.76
474.57	34644.61
474.75	34515.88
474.93	34033.73
475.12	33923.72
475.30	33460.30
475.48	33977.56
475.66	34052.45
475.84	33881.60
476.02	33546.90
476.20	32875.16
476.38	33692.01
476.56	34796.74
476.74	35192.30
476.92	35524.65
477.10	35878.07
477.28	37020.25
477.46	36608.32
477.64	37165.37
477.82	37289.42
478.00	37270.69
478.18	37008.55
478.36	36561.51
478.54	36627.04
478.72	36804.92
478.90	37879.23
479.08	38731.18
479.26	39885.07
479.44	39192.27
479.62	39299.94
479.80	38644.59
479.98	38817.78
480.16	39482.50
480.34	39070.56
480.52	39517.60
480.70	39274.19
480.88	39555.05
481.06	40336.79
481.24	40713.62
481.41	41787.92
481.59	41937.72
481.77	41954.10
481.95	41265.99
482.13	41104.49
482.31	41322.16
482.49	41680.26
482.67	41415.78
482.85	41855.80
483.03	42705.41
483.21	43232.04
483.39	43110.33
483.57	41935.38
483.74	41759.84
483.92	41883.89
484.10	42169.43
484.28	43510.56
484.46	43405.23
484.64	44680.83
484.82	42883.30
485.00	42590.73
485.18	41794.95
485.35	40690.21
485.53	37979.87
485.71	34433.96
485.89	33727.12
486.07	35573.80
486.25	38880.98
486.43	41057.68
486.61	41530.47
486.78	41399.40
486.96	41895.59
487.14	43665.03
487.32	44617.63
487.50	45944.72
487.68	46064.08
487.85	47093.92
488.03	46965.19
488.21	46616.45
488.39	45977.48
488.57	44964.03
488.75	44596.57
488.92	45720.02
489.10	48299.30
489.28	49975.12
489.46	50305.13
489.64	50136.62
489.81	50834.10
489.99	49521.05
490.17	50199.81
490.35	50389.39
490.53	49972.78
490.70	49567.87
490.88	49586.59
491.06	50525.14
491.24	50894.95
491.41	49382.96
491.59	47599.47
491.77	46618.79
491.95	47845.23
492.13	49134.87
492.30	50607.06
492.48	51384.12
492.66	52418.64
492.84	52151.82
493.01	51892.02
493.19	51264.75
493.37	50763.88
493.54	50836.44
493.72	51206.24
493.90	52533.32
494.08	53228.46
494.25	53375.92
494.43	53851.05
494.61	54057.01
494.79	54328.52
494.96	54005.52
495.14	53282.30
495.32	52460.77
495.49	51695.41
495.67	52748.65
495.85	53961.05
496.02	54541.50
496.20	54408.09
496.38	53975.09
496.55	53918.92
496.73	54422.14
496.91	54529.80
497.09	55037.70
497.26	55409.84
497.44	54813.01
497.62	54059.35
497.79	53240.17
497.97	52025.43
498.14	52308.63
498.32	53394.64
498.50	54459.58
498.67	54756.83
498.85	54780.24
499.03	55047.06
499.20	55274.09
499.38	55283.45
499.56	55061.10
499.73	54422.14
499.91	54288.73
500.08	53595.93
500.26	52678.44
500.44	53284.64
500.61	53949.35
500.79	53841.68
500.97	53628.69
501.14	53226.12
501.32	53034.20
501.49	53076.33
501.67	53336.13
501.84	53834.66
502.02	54284.04
502.20	54836.41
502.37	54646.83
502.55	55035.36
502.72	55246.00
502.90	55852.20
503.07	55456.65
503.25	54937.05
503.43	54307.45
503.60	53521.03
503.78	52758.02
503.95	53095.05
504.13	54632.78
504.30	55648.58
504.48	55540.91
504.65	55143.02
504.83	55143.02
505.01	55767.94
505.18	55980.93
505.36	56601.18
505.53	56701.82
505.71	57055.24
505.88	56987.36
506.06	56313.29
506.23	56130.73
506.41	55501.12
506.58	55833.48
506.76	56086.26
506.93	55906.04
507.11	55482.40
507.28	55903.70
507.46	55290.48
507.63	54478.31
507.81	54499.37
507.98	54560.23
508.16	55306.86
508.33	55913.06
508.50	56537.98
508.68	56699.48
508.85	57205.03
509.03	57123.11
509.20	57071.62
509.38	55976.25
509.55	55143.02
509.73	55358.35
509.90	56016.04
510.08	56397.55
510.25	56238.39
510.42	56343.72
510.60	55927.10
510.77	56233.71
510.95	56676.07
511.12	56844.59
511.30	57333.76
511.47	57607.61
511.64	57539.73
511.82	57041.20
511.99	56378.82
512.17	55917.74
512.34	55468.36
512.51	55927.10
512.69	55599.43
512.86	55948.17
513.04	56238.39
513.21	56521.60
513.38	55828.80
513.56	55332.60
513.73	54960.46
513.90	55213.24
514.08	55236.64
514.25	55451.97
514.43	55669.64
514.60	55643.90
514.77	55976.25
514.95	55992.64
515.12	55990.30
515.29	56025.40
515.47	56629.26
515.64	56750.97
515.81	56561.39
515.99	56069.87
516.16	54518.10
516.33	51782.01
516.51	50164.70
516.68	49268.28
516.85	48428.02
517.03	49193.38
517.20	52170.54
517.37	55114.94
517.54	55875.61
517.72	55302.18
517.89	52963.98
518.06	50052.36
518.24	50569.61
518.41	52891.43
518.58	54595.34
518.75	54499.37
518.93	54904.29
519.10	54784.92
519.27	55327.92
519.45	55145.36
519.62	56156.47
519.79	56507.55
519.96	56395.21
520.14	55765.60
520.31	54878.54
520.48	55014.29
520.65	55281.11
520.83	56430.32
521.00	56694.80
521.17	56390.53
521.34	56069.87
521.52	56287.54
521.69	56706.50
521.86	57272.91
522.03	56746.29
522.20	55604.11
522.38	54405.75
522.55	54499.37
522.72	55391.12
522.89	55365.37
523.07	55702.41
523.24	56016.04
523.41	57008.43
523.58	57198.01
523.75	57485.90
523.92	57247.16
524.10	57394.62
524.27	57326.74
524.44	57109.07
524.61	56980.34
524.78	56673.73
524.96	56837.57
525.13	56872.68
525.30	56863.32
525.47	57350.15
525.64	57305.68
525.81	56381.16
525.98	55236.64
526.16	53598.27
526.33	52877.38
526.50	52420.98
526.67	52137.77
526.84	52797.80
527.01	53769.13
527.18	54653.85
527.36	55774.97
527.53	56732.25
527.70	56760.33
527.87	55990.30
528.04	55702.41
528.21	56353.08
528.38	56837.57
528.55	57481.22
528.72	57890.81
528.89	57907.19
529.07	57722.29
529.24	57116.09
529.41	56369.46
529.58	55683.69
529.75	55803.05
529.92	56381.16
530.09	56837.57
530.26	57361.85
530.43	57481.22
530.60	57499.94
530.77	57865.06
530.94	57839.32
531.11	57195.67
531.28	57284.61
531.46	56617.56
531.63	57139.50
531.80	56750.97
531.97	56278.18
532.14	55791.35
532.31	54585.97
532.48	53820.62
532.65	53820.62
532.82	54805.98
532.99	55901.36
533.16	56353.08
533.33	56683.09
533.50	56718.20
533.67	56163.50
533.84	55444.95
534.01	55983.27
534.18	56032.42
534.35	56301.59
534.52	56292.22
534.69	56313.29
534.86	56512.23
535.03	56884.38
535.20	57506.96
535.37	57893.15
535.54	57752.72
535.71	57478.88
535.88	57090.35
536.05	56388.19
536.22	56243.07
536.38	55543.25
536.55	55543.25
536.72	54553.21
536.89	54726.41
537.06	55334.95
537.23	56479.47
537.40	56509.89
537.57	56554.36
537.74	56165.84
537.91	56336.69
538.08	56186.90
538.25	56320.31
538.42	56498.19
538.59	56402.23
538.75	55676.66
538.92	55341.97
539.09	55428.57
539.26	55271.75
539.43	54621.08
539.60	55002.59
539.77	55260.05
539.94	54923.01
540.11	54176.38
540.28	53485.92
540.44	53675.51
540.61	54164.68
540.78	54246.60
540.95	54925.35
541.12	55159.41
541.29	55386.44
541.46	55838.16
541.62	55683.69
541.79	55657.94
541.96	54850.45
542.13	55061.10
542.30	55220.26
542.47	55388.78
542.63	55217.92
542.80	55147.70
542.97	55201.53
543.14	54955.78
543.31	54848.11
543.48	55604.11
543.64	56416.27
543.81	56743.95
543.98	56329.67
544.15	55882.63
544.32	55243.66
544.48	55133.66
544.65	55664.96
544.82	56081.58
544.99	55566.66
545.16	55491.76
545.32	55227.28
545.49	55852.20
545.66	56133.07
545.83	55880.29
546.00	55470.70
546.16	54958.12
546.33	55470.70
546.50	55058.76
546.67	55660.28
546.83	55416.86
547.00	55480.06
547.17	54372.99
547.34	54035.95
547.50	53808.92
547.67	54370.64
547.84	54433.84
548.00	54951.10
548.17	55306.86
548.34	55077.49
548.51	55238.98
548.67	55133.66
548.84	55412.18
549.01	55395.80
549.18	55402.82
549.34	55126.64
549.51	54986.21
549.68	55112.59
549.84	54925.35
550.01	54490.01
550.18	54377.67
550.34	54761.51
550.51	54637.47
550.68	54885.56
550.84	54223.19
551.01	54277.02
551.18	54218.51
551.34	54415.11
551.51	54885.56
551.68	55299.84
551.84	55267.07
552.01	54890.24
552.18	54712.36
552.34	53989.14
552.51	53659.12
552.68	53530.39
552.84	54403.41
553.01	54262.98
553.18	54106.16
553.34	54403.41
553.51	54639.81
553.67	54733.43
553.84	54789.60
554.01	54782.58
554.17	54431.50
554.34	54564.91
554.51	54871.52
554.67	55037.70
554.84	54625.76
555.00	54478.31
555.17	54265.32
555.33	54302.77
555.50	54342.56
555.67	54078.08
555.83	54136.59
556.00	53729.34
556.16	53818.28
556.33	53277.61
556.50	53577.20
556.66	53191.01
556.83	52596.52
556.99	53251.87
557.16	53221.44
557.32	53469.54
557.49	53488.26
557.65	53722.32
557.82	53593.59
557.98	53530.39
558.15	52835.25
558.32	52191.61
558.48	50869.20
558.65	51407.53
558.81	51831.16
558.98	52069.90
559.14	52332.04
559.31	52467.79
559.47	52505.24
559.64	52128.41
559.80	51629.88
559.97	51498.81
560.13	52175.22
560.30	53251.87
560.46	53776.15
560.63	53986.80
560.79	53855.73
560.96	53911.90
561.12	52336.72
561.29	51105.60
561.45	51655.62
561.61	52116.71
561.78	52750.99
561.94	52168.20
562.11	52144.80
562.27	51929.47
562.44	52275.87
562.60	52919.51
562.77	52949.94
562.93	53073.99
563.10	52743.97
563.26	52097.98
563.42	52655.03
563.59	51739.88
563.75	51477.74
563.92	52083.94
564.08	51861.59
564.24	52154.16
564.41	52250.12
564.57	52266.50
564.74	51985.64
564.90	51674.35
565.07	51749.24
565.23	51367.74
565.39	50452.59
565.56	50145.98
565.72	50075.76
565.88	50480.67
566.05	50312.16
566.21	51391.14
566.38	50986.23
566.54	51356.03
566.70	51742.22
566.87	51969.26
567.03	51803.08
567.19	52205.65
567.36	51683.71
567.52	51632.22
567.68	50965.17
567.85	50733.45
568.01	50092.15
568.17	49790.22
568.34	49687.23
568.50	49354.88
568.66	49914.26
568.83	50129.59
568.99	50468.97
569.15	50564.93
569.32	50583.66
569.48	50124.91
569.64	50010.23
569.81	49818.30
569.97	49584.25
570.13	49544.46
570.30	48612.93
570.46	48186.95
570.62	47751.61
570.78	47676.71
570.95	48285.25
571.11	48980.39
571.27	49132.53
571.43	49158.27
571.60	49722.34
571.76	49705.96
571.92	50019.59
572.09	50244.28
572.25	50532.17
572.41	50216.19
572.57	50408.12
572.74	50307.47
572.90	49216.78
573.06	49303.38
573.22	49860.43
573.38	49675.53
573.55	49750.43
573.71	49392.33
573.87	50106.19
574.03	49268.28
574.20	49691.91
574.36	49064.65
574.52	48825.92
574.68	48704.21
574.84	48116.73
575.01	47896.72
575.17	47604.16
575.33	47641.60
575.49	48411.64
575.65	48575.48
575.82	47756.29
575.98	47772.67
576.14	48130.78
576.30	48765.06
576.46	48821.23
576.62	48505.26
576.79	48559.09
576.95	48037.16
577.11	47849.91
577.27	48083.97
577.43	48210.35
577.59	47716.50
577.75	47395.85
577.92	46321.54
578.08	46260.69
578.24	46497.08
578.40	46829.44
578.56	46686.67
578.72	46983.91
578.88	47030.72
579.04	47391.17
579.21	47555.00
579.37	47660.33
579.53	47524.58
579.69	47339.68
579.85	47819.49
580.01	47861.61
580.17	47136.05
580.33	47697.78
580.49	47395.85
580.65	47402.87
580.82	47798.42
580.98	47742.25
581.14	47449.68
581.30	47349.04
581.46	47232.01
581.62	47636.92
581.78	47489.47
581.94	48020.77
582.10	47636.92
582.26	47950.56
582.42	47819.49
582.58	47920.13
582.74	47634.58
582.90	47945.87
583.06	47760.97
583.22	47463.72
583.38	47559.69
583.54	47332.65
583.70	47686.07
583.86	47234.35
584.02	47435.64
584.18	47672.03
584.34	46855.18
584.50	47152.43
584.66	46644.54
584.82	46824.76
584.98	46646.88
585.14	46312.18
585.30	44802.53
