SpectraSuite Data File
++++++++++++++++++++++++++++++++++++
Date: Mon Oct 07 14:54:54 GMT-05:00 2013
User: price-jones
Dark Spectrum Present: No
Reference Spectrum Present: No
Number of Sampled Component Spectra: 1
Spectrometers: USB2+H05261
Integration Time (usec): 10000 (USB2+H05261)
Spectra Averaged: 1 (USB2+H05261)
Boxcar Smoothing: 0 (USB2+H05261)
Correct for Electrical Dark: No (USB2+H05261)
Strobe/Lamp Enabled: No (USB2+H05261)
Correct for Detector Non-linearity: No (USB2+H05261)
Correct for Stray Light: No (USB2+H05261)
Number of Pixels in Processed Spectrum: 2048
>>>>>Begin Processed Spectral Data<<<<<
365.73	0.00
365.92	0.00
366.12	0.00
366.32	0.00
366.52	0.00
366.72	0.00
366.91	0.00
367.11	0.00
367.31	0.00
367.51	0.00
367.70	0.00
367.90	0.00
368.10	0.00
368.30	0.00
368.49	0.00
368.69	0.00
368.89	0.00
369.09	0.00
369.28	0.00
369.48	0.00
369.68	0.00
369.87	0.00
370.07	0.00
370.27	0.00
370.47	0.00
370.66	0.00
370.86	0.00
371.06	0.00
371.25	30.43
371.45	0.00
371.65	0.00
371.84	2.34
372.04	0.00
372.24	0.00
372.44	32.77
372.63	2.34
372.83	0.00
373.03	0.00
373.22	0.00
373.42	0.00
373.62	0.00
373.81	35.11
374.01	4.68
374.21	30.43
374.40	0.00
374.60	0.00
374.79	7.02
374.99	37.45
375.19	110.01
375.38	95.96
375.58	84.26
375.78	35.11
375.97	23.41
376.17	28.09
376.37	100.64
376.56	70.22
376.76	93.62
376.95	170.86
377.15	166.18
377.35	154.48
377.54	138.09
377.74	170.86
377.93	142.77
378.13	163.84
378.33	241.08
378.52	105.32
378.72	163.84
378.91	93.62
379.11	135.75
379.31	9.36
379.50	95.96
379.70	152.13
379.89	93.62
380.09	149.79
380.28	180.22
380.48	236.39
380.68	191.92
380.87	117.03
381.07	95.96
381.26	102.98
381.46	49.15
381.65	21.06
381.85	53.83
382.04	44.47
382.24	0.00
382.43	0.00
382.63	18.72
382.83	58.51
383.02	23.41
383.22	18.72
383.41	14.04
383.61	58.51
383.80	53.83
384.00	35.11
384.19	126.39
384.39	152.13
384.58	145.11
384.78	119.37
384.97	203.63
385.17	84.26
385.36	121.71
385.56	114.69
385.75	121.71
385.95	77.24
386.14	215.33
386.34	227.03
386.53	161.50
386.72	88.94
386.92	110.01
387.11	63.19
387.31	175.54
387.50	196.60
387.70	131.07
387.89	220.01
388.09	180.22
388.28	147.45
388.48	156.82
388.67	271.50
388.86	173.20
389.06	220.01
389.25	299.59
389.45	346.40
389.64	346.40
389.84	313.63
390.03	287.89
390.22	341.72
390.42	292.57
390.61	372.15
390.81	465.77
391.00	411.93
391.19	369.80
391.39	348.74
391.58	238.73
391.78	315.97
391.97	278.52
392.16	198.95
392.36	194.26
392.55	81.92
392.75	32.77
392.94	25.75
393.13	0.00
393.33	4.68
393.52	74.90
393.71	250.44
393.91	212.99
394.10	292.57
394.29	358.10
394.49	430.66
394.68	416.62
394.88	418.96
395.07	418.96
395.26	451.72
395.46	346.40
395.65	351.08
395.84	304.27
396.04	203.63
396.23	170.86
396.42	95.96
396.62	77.24
396.81	100.64
397.00	304.27
397.19	304.27
397.39	472.79
397.58	470.45
397.77	486.83
397.97	543.00
398.16	507.90
398.35	601.52
398.55	606.20
398.74	664.71
398.93	681.10
399.12	601.52
399.32	610.88
399.51	582.79
399.70	741.95
399.90	732.59
400.09	613.22
400.28	702.16
400.47	746.63
400.67	695.14
400.86	744.29
401.05	716.20
401.24	767.70
401.44	877.70
401.63	784.08
401.82	844.93
402.01	875.36
402.21	746.63
402.40	800.46
402.59	730.25
402.78	763.01
402.97	737.27
403.17	709.18
403.36	931.53
403.55	870.68
403.74	856.64
403.93	777.06
404.13	774.72
404.32	781.74
404.51	791.10
404.70	784.08
404.89	875.36
405.09	877.70
405.28	849.61
405.47	732.59
405.66	798.12
405.85	802.80
406.05	704.50
406.24	695.14
406.43	779.40
406.62	791.10
406.81	788.76
407.00	800.46
407.20	669.39
407.39	758.33
407.58	849.61
407.77	866.00
407.96	856.64
408.15	821.53
408.34	978.34
408.54	990.05
408.73	952.60
408.92	964.30
409.11	915.15
409.30	882.38
409.49	755.99
409.68	781.74
409.87	758.33
410.07	725.57
410.26	835.57
410.45	917.49
410.64	908.13
410.83	976.00
411.02	954.94
411.21	1078.99
411.40	1029.84
411.59	936.21
411.78	1006.43
411.98	1095.37
412.17	880.04
412.36	990.05
412.55	990.05
412.74	994.73
412.93	908.13
413.12	940.90
413.31	945.58
413.50	957.28
413.69	1067.28
413.88	1011.11
414.07	1074.31
414.26	1011.11
414.45	1001.75
414.64	1060.26
414.83	999.41
415.02	1137.50
415.22	1043.88
415.41	1107.07
415.60	1163.25
415.79	1221.76
415.98	1118.78
416.17	1198.35
416.36	1170.27
416.55	1034.52
416.74	1102.39
416.93	1083.67
417.12	924.51
417.31	997.07
417.50	1048.56
417.69	1053.24
417.88	1062.60
418.07	1163.25
418.26	983.02
418.45	1191.33
418.64	1111.75
418.83	1174.95
419.02	1198.35
419.21	1196.01
419.39	1069.62
419.58	1057.92
419.77	1163.25
419.96	1069.62
420.15	1123.46
420.34	1210.06
420.53	1226.44
420.72	1167.93
420.91	1259.21
421.10	1231.12
421.29	1226.44
421.48	1224.10
421.67	1273.25
421.86	1219.42
422.05	1081.33
422.24	990.05
422.43	1006.43
422.61	1100.05
422.80	1146.86
422.99	1207.72
423.18	1132.82
423.37	1256.87
423.56	1214.74
423.75	1114.10
423.94	1179.63
424.13	1081.33
424.32	1174.95
424.50	1125.80
424.69	1048.56
424.88	1107.07
425.07	1093.03
425.26	1107.07
425.45	1039.20
425.64	1118.78
425.83	994.73
426.01	1118.78
426.20	1088.35
426.39	1076.65
426.58	1032.18
426.77	992.39
426.96	924.51
427.15	821.53
427.33	1050.90
427.52	1069.62
427.71	1111.75
427.90	1135.16
428.09	1137.50
428.28	1088.35
428.46	1025.15
428.65	997.07
428.84	954.94
429.03	1067.28
429.22	1032.18
429.40	910.47
429.59	791.10
429.78	690.46
429.97	681.10
430.16	744.29
430.34	662.37
430.53	678.76
430.72	814.51
430.91	697.48
431.10	992.39
431.28	1228.78
431.47	1383.26
431.66	1376.24
431.85	1123.46
432.03	1172.61
432.22	1135.16
432.41	1151.54
432.60	1327.08
432.79	1174.95
432.97	1329.42
433.16	1329.42
433.35	1139.84
433.54	929.19
433.72	924.51
433.91	961.96
434.10	1020.47
434.28	1158.57
434.47	1345.81
434.66	1270.91
434.85	1261.55
435.03	1259.21
435.22	1263.89
435.41	1306.02
435.59	1364.53
435.78	1423.05
435.97	1425.39
436.16	1343.47
436.34	1444.11
436.53	1259.21
436.72	1411.34
436.90	1310.70
437.09	1228.78
437.28	1217.08
437.46	1329.42
437.65	1259.21
437.84	1156.22
438.02	1118.78
438.21	1090.69
438.40	1137.50
438.58	1179.63
438.77	1310.70
438.96	1240.48
439.14	1352.83
439.33	1420.71
439.52	1387.94
439.70	1341.13
439.89	1327.08
440.08	1284.95
440.26	1317.72
440.45	1273.25
440.63	1401.98
440.82	1516.67
441.01	1631.35
441.19	1493.26
441.38	1455.81
441.57	1511.99
441.75	1549.43
441.94	1671.14
442.12	1624.33
442.31	1589.22
442.50	1582.20
442.68	1612.63
442.87	1558.80
443.05	1661.78
443.24	1614.97
443.43	1584.54
443.61	1703.91
443.80	1694.55
443.98	1558.80
444.17	1441.77
444.35	1687.53
444.54	1739.02
444.73	1687.53
444.91	1584.54
445.10	1551.78
445.28	1416.02
445.47	1444.11
445.65	1469.86
445.84	1334.11
446.02	1544.75
446.21	1537.73
446.39	1717.95
446.58	1551.78
446.77	1689.87
446.95	1661.78
447.14	1720.29
447.32	1675.82
447.51	1589.22
447.69	1617.31
447.88	1621.99
448.06	1549.43
448.25	1750.72
448.43	1636.03
448.62	1572.84
448.80	1675.82
448.99	1619.65
449.17	1621.99
449.36	1692.21
449.54	1774.13
449.73	1746.04
449.91	1750.72
450.10	1680.50
450.28	1825.62
450.46	1849.02
450.65	1788.17
450.83	1825.62
451.02	1806.89
451.20	1842.00
451.39	1767.10
451.57	1692.21
451.76	1816.26
451.94	1657.10
452.13	1715.61
452.31	1647.74
452.49	1593.90
452.68	1598.59
452.86	1479.22
453.05	1589.22
453.23	1619.65
453.42	1612.63
453.60	1692.21
453.78	1727.32
453.97	1612.63
454.15	1570.50
454.34	1652.42
454.52	1675.82
454.70	1685.19
454.89	1610.29
455.07	1638.38
455.26	1584.54
455.44	1769.44
455.62	1732.00
455.81	1755.40
455.99	1891.15
456.17	1696.89
456.36	1806.89
456.54	1785.83
456.73	1839.66
456.91	1891.15
457.09	1947.33
457.28	1937.96
457.46	1877.11
457.64	1811.57
457.83	1650.08
458.01	1722.63
458.19	1755.40
458.38	1748.38
458.56	1825.62
458.74	1750.72
458.93	1722.63
459.11	1755.40
459.29	1699.23
459.48	1774.13
459.66	1734.34
459.84	1762.42
460.03	1739.02
460.21	1823.28
460.39	1827.96
460.57	1942.64
460.76	1921.58
460.94	1881.79
461.12	1762.42
461.31	1886.47
461.49	1813.92
461.67	1842.00
461.85	1893.49
462.04	1919.24
462.22	1909.88
462.40	1813.92
462.59	1942.64
462.77	1886.47
462.95	1919.24
463.13	1844.34
463.32	1748.38
463.50	1802.21
463.68	1790.51
463.86	1659.44
464.05	1830.30
464.23	1741.36
464.41	1811.57
464.59	1710.93
464.78	1781.15
464.96	1823.28
465.14	1802.21
465.32	1785.83
465.50	1919.24
465.69	1858.39
465.87	1914.56
466.05	1825.62
466.23	1664.12
466.41	1708.59
466.60	1645.40
466.78	1727.32
466.96	1699.23
467.14	1722.63
467.32	1811.57
467.51	1809.23
467.69	1781.15
467.87	1776.47
468.05	1830.30
468.23	1795.19
468.41	1834.98
468.60	1732.00
468.78	1874.77
468.96	1732.00
469.14	1809.23
469.32	1785.83
469.50	1846.68
469.69	1715.61
469.87	1795.19
470.05	1621.99
470.23	1682.85
470.41	1650.08
470.59	1774.13
470.77	1795.19
470.95	1729.66
471.14	1774.13
471.32	1816.26
471.50	1870.09
471.68	1881.79
471.86	1935.62
472.04	2008.18
472.22	1989.46
472.40	1874.77
472.58	1703.91
472.77	1769.44
472.95	1827.96
473.13	1839.66
473.31	1853.70
473.49	1860.73
473.67	1886.47
473.85	1900.52
474.03	1994.14
474.21	1884.13
474.39	2054.99
474.57	2064.35
474.75	1930.94
474.93	2012.86
475.12	1846.68
475.30	1907.54
475.48	1937.96
475.66	2008.18
475.84	1898.17
476.02	1933.28
476.20	2003.50
476.38	1893.49
476.56	1916.90
476.74	2062.01
476.92	2012.86
477.10	2050.31
477.28	2113.50
477.46	2094.78
477.64	2083.08
477.82	2080.74
478.00	2291.38
478.18	2087.76
478.36	2216.49
478.54	2146.27
478.72	2239.89
478.90	2162.66
479.08	2263.30
479.26	2307.77
479.44	2317.13
479.62	2319.47
479.80	2190.74
479.98	2321.81
480.16	2279.68
480.34	2331.17
480.52	2225.85
480.70	2228.19
480.88	2326.49
481.06	2396.71
481.24	2382.67
481.41	2333.51
481.59	2370.96
481.77	2523.10
481.95	2424.80
482.13	2354.58
482.31	2413.09
482.49	2438.84
482.67	2380.32
482.85	2415.43
483.03	2548.84
483.21	2633.10
483.39	2633.10
483.57	2455.22
483.74	2492.67
483.92	2490.33
484.10	2511.39
484.28	2438.84
484.46	2719.70
484.64	2614.38
484.82	2518.42
485.00	2534.80
485.18	2408.41
485.35	2352.24
485.53	2174.36
485.71	2005.84
485.89	1905.20
486.07	2099.46
486.25	2249.25
486.43	2293.72
486.61	2567.57
486.78	2387.35
486.96	2406.07
487.14	2427.14
487.32	2644.81
487.50	2675.23
487.68	2668.21
487.85	2909.29
488.03	2733.75
488.21	2722.04
488.39	2633.10
488.57	2560.55
488.75	2513.74
488.92	2700.98
489.10	2909.29
489.28	3166.74
489.46	3012.27
489.64	2906.95
489.81	3049.72
489.99	3155.04
490.17	3009.93
490.35	3138.66
490.53	3077.80
490.70	2979.50
490.88	2878.86
491.06	3169.09
491.24	3119.93
491.41	3047.38
491.59	2754.81
491.77	2871.84
491.95	2860.13
492.13	2906.95
492.30	2993.55
492.48	3246.32
492.66	3269.73
492.84	3241.64
493.01	3073.12
493.19	3239.30
493.37	3101.21
493.54	3094.19
493.72	3143.34
493.90	3246.32
494.08	3335.26
494.25	3403.14
494.43	3351.65
494.61	3435.91
494.79	3485.06
494.96	3424.20
495.14	3260.37
495.32	3316.54
495.49	3173.77
495.67	3239.30
495.85	3480.38
496.02	3412.50
496.20	3508.46
496.38	3377.39
496.55	3346.97
496.73	3473.36
496.91	3482.72
497.09	3541.23
497.26	3613.79
497.44	3522.51
497.62	3435.91
497.79	3377.39
497.97	3166.74
498.14	3215.90
498.32	3307.18
498.50	3471.01
498.67	3494.42
498.85	3552.93
499.03	3604.42
499.20	3604.42
499.38	3527.19
499.56	3637.19
499.73	3400.80
499.91	3487.40
500.08	3489.74
500.26	3311.86
500.44	3389.10
500.61	3262.71
500.79	3358.67
500.97	3267.39
501.14	3346.97
501.32	3304.84
501.49	3358.67
501.67	3337.60
501.84	3356.33
502.02	3325.90
502.20	3407.82
502.37	3531.87
502.55	3379.73
502.72	3520.17
502.90	3723.79
503.07	3632.51
503.25	3370.37
503.43	3368.03
503.60	3358.67
503.78	3302.50
503.95	3372.71
504.13	3485.06
504.30	3557.61
504.48	3583.36
504.65	3463.99
504.83	3536.55
505.01	3517.83
505.18	3679.32
505.36	3777.62
505.53	3737.84
505.71	3756.56
505.88	3639.53
506.06	3709.75
506.23	3585.70
506.41	3611.45
506.58	3695.71
506.76	3503.78
506.93	3520.17
507.11	3576.34
507.28	3414.84
507.46	3728.47
507.63	3562.30
507.81	3485.06
507.98	3559.95
508.16	3686.34
508.33	3522.51
508.50	3637.19
508.68	3604.42
508.85	3861.88
509.03	3840.82
509.20	3712.09
509.38	3641.87
509.55	3400.80
509.73	3590.38
509.90	3597.40
510.08	3618.47
510.25	3630.17
510.42	3555.27
510.60	3620.81
510.77	3716.77
510.95	3684.00
511.12	3786.99
511.30	3735.50
511.47	3838.48
511.64	3847.84
511.82	3826.78
511.99	3815.07
512.17	3688.68
512.34	3480.38
512.51	3620.81
512.69	3552.93
512.86	3609.11
513.04	3623.15
513.21	3688.68
513.38	3552.93
513.56	3496.76
513.73	3398.46
513.90	3445.27
514.08	3602.08
514.25	3468.67
514.43	3471.01
514.60	3442.93
514.77	3623.15
514.95	3536.55
515.12	3534.21
515.29	3599.74
515.47	3693.37
515.64	3641.87
515.81	3583.36
515.99	3676.98
516.16	3253.34
516.33	3028.65
516.51	2928.01
516.68	2839.07
516.85	2916.31
517.03	2876.52
517.20	3171.43
517.37	3515.48
517.54	3723.79
517.72	3552.93
517.89	3164.40
518.06	3066.10
518.24	2883.54
518.41	3166.74
518.58	3405.48
518.75	3501.44
518.93	3583.36
519.10	3361.01
519.27	3485.06
519.45	3433.57
519.62	3716.77
519.79	3550.59
519.96	3611.45
520.14	3452.29
520.31	3466.33
520.48	3384.41
520.65	3487.40
520.83	3545.91
521.00	3658.26
521.17	3681.66
521.34	3529.53
521.52	3655.92
521.69	3616.13
521.86	3691.02
522.03	3803.37
522.20	3478.04
522.38	3506.12
522.55	3424.20
522.72	3438.25
522.89	3482.72
523.07	3473.36
523.24	3712.09
523.41	3756.56
523.58	3672.30
523.75	3831.46
523.92	3674.64
524.10	3726.13
524.27	3901.67
524.44	3679.32
524.61	3658.26
524.78	3658.26
524.96	3658.26
525.13	3496.76
525.30	3646.55
525.47	3763.58
525.64	3772.94
525.81	3581.02
525.98	3431.23
526.16	3197.17
526.33	3241.64
526.50	3091.85
526.67	3087.17
526.84	3096.53
527.01	3309.52
527.18	3227.60
527.36	3454.63
527.53	3571.66
527.70	3751.88
527.87	3611.45
528.04	3517.83
528.21	3585.70
528.38	3651.24
528.55	3721.45
528.72	3892.31
528.89	3749.54
529.07	3833.80
529.24	3763.58
529.41	3513.14
529.58	3569.32
529.75	3676.98
529.92	3651.24
530.09	3681.66
530.26	3815.07
530.43	3618.47
530.60	3782.31
530.77	3882.95
530.94	3749.54
531.11	3681.66
531.28	3641.87
531.46	3506.12
531.63	3571.66
531.80	3569.32
531.97	3534.21
532.14	3478.04
532.31	3339.94
532.48	3241.64
532.65	3241.64
532.82	3370.37
532.99	3508.46
533.16	3646.55
533.33	3597.40
533.50	3590.38
533.67	3562.30
533.84	3478.04
534.01	3588.04
534.18	3574.00
534.35	3623.15
534.52	3555.27
534.69	3562.30
534.86	3445.27
535.03	3499.10
535.20	3798.69
535.37	3775.28
535.54	3822.09
535.71	3625.49
535.88	3616.13
536.05	3503.78
536.22	3620.81
536.38	3552.93
536.55	3442.93
536.72	3398.46
536.89	3379.73
537.06	3400.80
537.23	3529.53
537.40	3691.02
537.57	3499.10
537.74	3529.53
537.91	3456.97
538.08	3550.59
538.25	3463.99
538.42	3637.19
538.59	3536.55
538.75	3405.48
538.92	3412.50
539.09	3442.93
539.26	3356.33
539.43	3435.91
539.60	3368.03
539.77	3391.44
539.94	3412.50
540.11	3421.86
540.28	3225.26
540.44	3269.73
540.61	3141.00
540.78	3227.60
540.95	3300.16
541.12	3440.59
541.29	3353.99
541.46	3321.22
541.62	3449.95
541.79	3332.92
541.96	3475.70
542.13	3337.60
542.30	3377.39
542.47	3400.80
542.63	3358.67
542.80	3412.50
542.97	3377.39
543.14	3337.60
543.31	3365.69
543.48	3440.59
543.64	3513.14
543.81	3548.25
543.98	3566.98
544.15	3449.95
544.32	3267.39
544.48	3372.71
544.65	3426.54
544.82	3527.19
544.99	3375.05
545.16	3384.41
545.32	3382.07
545.49	3447.61
545.66	3590.38
545.83	3503.78
546.00	3435.91
546.16	3471.01
546.33	3393.78
546.50	3262.71
546.67	3440.59
546.83	3368.03
547.00	3246.32
547.17	3290.79
547.34	3295.47
547.50	3241.64
547.67	3262.71
547.84	3365.69
548.00	3384.41
548.17	3503.78
548.34	3286.11
548.51	3419.52
548.67	3410.16
548.84	3403.14
549.01	3253.34
549.18	3389.10
549.34	3227.60
549.51	3412.50
549.68	3342.28
549.84	3199.51
550.01	3194.83
550.18	3316.54
550.34	3353.99
550.51	3157.38
550.68	3368.03
550.84	3309.52
551.01	3176.11
551.18	3213.56
551.34	3279.09
551.51	3251.00
551.68	3220.58
551.84	3227.60
552.01	3290.79
552.18	3286.11
552.34	3141.00
552.51	3141.00
552.68	3176.11
552.84	3220.58
553.01	3321.22
553.18	3206.53
553.34	3262.71
553.51	3339.94
553.67	3321.22
553.84	3321.22
554.01	3187.81
554.17	3185.47
554.34	3222.92
554.51	3279.09
554.67	3274.41
554.84	3194.83
555.00	3290.79
555.17	3229.94
555.33	3166.74
555.50	3243.98
555.67	3234.62
555.83	3131.64
556.00	3152.70
556.16	3152.70
556.33	3026.31
556.50	3089.51
556.66	3112.91
556.83	2995.89
556.99	3129.30
557.16	2904.60
557.32	3143.34
557.49	3110.57
557.65	3211.22
557.82	3197.17
557.98	3143.34
558.15	3082.49
558.32	2953.76
558.48	2923.33
558.65	2792.26
558.81	2963.12
558.98	2913.97
559.14	2925.67
559.31	2829.71
559.47	3047.38
559.64	3033.33
559.80	2902.26
559.97	2864.82
560.13	2932.69
560.30	3075.46
560.46	3117.59
560.63	3215.90
560.79	3190.15
560.96	3089.51
561.12	3047.38
561.29	2885.88
561.45	2850.77
561.61	2993.55
561.78	3063.76
561.94	3101.21
562.11	2991.20
562.27	2911.63
562.44	2995.89
562.60	3136.32
562.77	3068.44
562.93	3096.53
563.10	2958.44
563.26	2906.95
563.42	2953.76
563.59	2939.71
563.75	2930.35
563.92	2906.95
564.08	3009.93
564.24	2944.39
564.41	2925.67
564.57	2855.45
564.74	2916.31
564.90	2988.86
565.07	2818.00
565.23	2949.08
565.39	2757.15
565.56	2916.31
565.72	2909.29
565.88	2890.56
566.05	2689.28
566.21	2799.28
566.38	2967.80
566.54	2841.41
566.70	2904.60
566.87	2871.84
567.03	2810.98
567.19	2956.10
567.36	2813.32
567.52	2953.76
567.68	2827.37
567.85	2857.79
568.01	2815.66
568.17	2850.77
568.34	2658.85
568.50	2665.87
568.66	2729.06
568.83	2729.06
568.99	2780.56
569.15	2736.09
569.32	2740.77
569.48	2766.51
569.64	2731.41
569.81	2736.09
569.97	2722.04
570.13	2771.19
570.30	2773.53
570.46	2499.69
570.62	2480.97
570.78	2621.40
570.95	2602.68
571.11	2649.49
571.27	2684.59
571.43	2602.68
571.60	2656.51
571.76	2684.59
571.92	2785.24
572.09	2825.03
572.25	2698.64
572.41	2789.92
572.57	2864.82
572.74	2679.91
572.90	2600.34
573.06	2850.77
573.22	2743.11
573.38	2832.05
573.55	2750.13
573.71	2649.49
573.87	2736.09
574.03	2754.81
574.20	2637.78
574.36	2644.81
574.52	2665.87
574.68	2534.80
574.84	2541.82
575.01	2452.88
575.17	2553.52
575.33	2684.59
575.49	2576.93
575.65	2691.62
575.82	2729.06
575.98	2497.35
576.14	2572.25
576.30	2555.86
576.46	2581.61
576.62	2670.55
576.79	2560.55
576.95	2651.83
577.11	2614.38
577.27	2726.72
577.43	2684.59
577.59	2572.25
577.75	2373.30
577.92	2485.65
578.08	2387.35
578.24	2317.13
578.40	2544.16
578.56	2506.71
578.72	2408.41
578.88	2621.40
579.04	2572.25
579.21	2574.59
579.37	2630.76
579.53	2443.52
579.69	2560.55
579.85	2647.15
580.01	2520.76
580.17	2415.43
580.33	2438.84
580.49	2593.31
580.65	2616.72
580.82	2368.62
580.98	2394.37
581.14	2532.46
581.30	2544.16
581.46	2574.59
581.62	2523.10
581.78	2661.19
581.94	2518.42
582.10	2612.04
582.26	2558.21
582.42	2619.06
582.58	2527.78
582.74	2586.29
582.90	2583.95
583.06	2670.55
583.22	2480.97
583.38	2614.38
583.54	2490.33
583.70	2590.97
583.86	2438.84
584.02	2478.63
584.18	2487.99
584.34	2483.31
584.50	2520.76
584.66	2396.71
584.82	2520.76
584.98	2499.69
585.14	2389.69
585.30	2396.71
585.46	2422.45
585.62	2359.26
585.78	2370.96
585.94	2326.49
586.10	2293.72
586.26	2431.82
586.42	2473.95
586.58	2277.34
586.74	2361.60
586.90	2436.50
587.06	2413.09
587.22	2466.92
587.38	2385.01
587.54	2256.28
587.70	2373.30
587.86	2265.64
588.02	2424.80
588.18	2347.56
588.34	2186.06
588.49	2101.80
588.65	1937.96
588.81	1970.73
588.97	1987.11
589.13	1909.88
589.29	1966.05
589.45	2024.56
589.61	2069.03
589.77	2087.76
589.93	2188.40
590.08	2326.49
590.24	2127.55
590.40	2394.37
590.56	2244.57
590.72	2246.91
590.88	2338.20
591.04	2176.70
591.20	2237.55
591.35	2258.62
591.51	2129.89
591.67	2097.12
591.83	2260.96
591.99	2209.47
592.15	2293.72
592.31	2242.23
592.46	2279.68
592.62	2251.60
592.78	2153.29
592.94	2143.93
593.10	2246.91
593.26	2232.87
593.41	2200.10
593.57	2155.63
593.73	2174.36
593.89	2064.35
594.05	2146.27
594.20	2153.29
594.36	2127.55
594.52	2176.70
594.68	2148.61
594.84	2026.90
594.99	2125.21
595.15	2146.27
595.31	2228.19
595.47	2094.78
595.62	2218.83
595.78	2197.76
595.94	2174.36
596.10	2202.44
596.25	2186.06
596.41	2235.21
596.57	2078.40
596.73	2008.18
596.88	2143.93
597.04	2169.68
597.20	2195.42
597.36	2071.37
597.51	2153.29
597.67	2104.14
597.83	2066.69
597.99	2118.18
598.14	2111.16
598.30	2045.63
598.46	2003.50
598.61	2069.03
598.77	1975.41
598.93	2104.14
599.09	2111.16
599.24	2150.95
599.40	2167.34
599.56	2092.44
599.71	2101.80
599.87	2092.44
