SpectraSuite Data File
++++++++++++++++++++++++++++++++++++
Date: Mon Oct 07 14:53:00 GMT-05:00 2013
User: price-jones
Dark Spectrum Present: No
Reference Spectrum Present: No
Number of Sampled Component Spectra: 1
Spectrometers: USB2+H05261
Integration Time (usec): 100000 (USB2+H05261)
Spectra Averaged: 1 (USB2+H05261)
Boxcar Smoothing: 0 (USB2+H05261)
Correct for Electrical Dark: No (USB2+H05261)
Strobe/Lamp Enabled: No (USB2+H05261)
Correct for Detector Non-linearity: No (USB2+H05261)
Correct for Stray Light: No (USB2+H05261)
Number of Pixels in Processed Spectrum: 2048
>>>>>Begin Processed Spectral Data<<<<<
365.73	0.00
365.92	0.00
366.12	0.00
366.32	0.00
366.52	0.00
366.72	0.00
366.91	0.00
367.11	0.00
367.31	0.00
367.51	0.00
367.70	0.00
367.90	0.00
368.10	0.00
368.30	0.00
368.49	0.00
368.69	0.00
368.89	0.00
369.09	0.00
369.28	0.00
369.48	0.00
369.68	0.00
369.87	0.00
370.07	0.00
370.27	0.00
370.47	552.37
370.66	3021.63
370.86	3543.57
371.06	3794.01
371.25	3815.07
371.45	3588.04
371.65	3213.56
371.84	3040.36
372.04	3119.93
372.24	3384.41
372.44	3609.11
372.63	3496.76
372.83	3258.03
373.03	2867.16
373.22	2700.98
373.42	2803.96
373.62	3272.07
373.81	3501.44
374.01	3585.70
374.21	3274.41
374.40	2888.22
374.60	3073.12
374.79	3426.54
374.99	3854.86
375.19	4411.91
375.38	4332.33
375.58	4107.64
375.78	4070.19
375.97	4131.05
376.17	4212.96
376.37	4229.35
376.56	4269.14
376.76	4690.43
376.95	4847.25
377.15	5266.21
377.35	5462.81
377.54	5624.31
377.74	5841.98
377.93	5678.14
378.13	5565.79
378.33	5387.91
378.52	4905.76
378.72	4671.71
378.91	4643.62
379.11	4540.64
379.31	4259.78
379.50	4271.48
379.70	4856.61
379.89	5193.65
380.09	5481.53
380.28	5603.24
380.48	5701.54
380.68	5619.63
380.87	5474.51
381.07	5060.24
381.26	4720.86
381.46	4400.21
381.65	4337.01
381.85	4056.15
382.04	3901.67
382.24	3742.52
382.43	3529.53
382.63	3485.06
382.83	3431.23
383.02	3515.48
383.22	3361.01
383.41	3468.67
383.61	3777.62
383.80	4236.37
384.00	4837.89
384.19	5465.15
384.39	5846.66
384.58	5628.99
384.78	5518.98
384.97	5488.56
385.17	5060.24
385.36	4788.74
385.56	4851.93
385.75	4816.82
385.95	5551.75
386.14	5996.45
386.34	5809.21
386.53	5551.75
386.72	5139.82
386.92	5327.06
387.11	5610.26
387.31	5877.09
387.50	5776.44
387.70	5348.12
387.89	5420.68
388.09	5518.98
388.28	5612.60
388.48	5720.27
388.67	6094.76
388.86	6710.32
389.06	7110.55
389.25	7564.61
389.45	7396.09
389.64	7435.88
389.84	7349.28
390.03	7157.36
390.22	7316.51
390.42	7662.91
390.61	8140.38
390.81	8521.89
391.00	8851.91
391.19	8709.13
391.39	8517.21
391.58	7976.55
391.78	7541.21
391.97	7124.59
392.16	6658.82
392.36	6047.94
392.55	5039.17
392.75	3894.65
392.94	3089.51
393.13	3229.94
393.33	3684.00
393.52	4826.18
393.71	6026.88
393.91	6871.81
394.10	7356.30
394.29	7934.42
394.49	8500.83
394.68	9188.94
394.88	9303.63
395.07	9591.52
395.26	9390.23
395.46	9111.71
395.65	8610.83
395.84	7424.18
396.04	6342.85
396.23	5078.96
396.42	4285.52
396.62	4156.79
396.81	4940.87
397.00	6200.08
397.19	7896.97
397.39	9579.81
397.58	10506.66
397.77	11192.44
397.97	11377.34
398.16	11693.32
398.35	12020.99
398.55	12477.40
398.74	12748.90
398.93	13174.88
399.12	12992.31
399.32	12510.16
399.51	12798.05
399.70	13626.60
399.90	13397.23
400.09	13460.42
400.28	13228.71
400.47	13628.94
400.67	14520.68
400.86	14810.91
401.05	14600.26
401.24	14558.13
401.44	15110.50
401.63	14878.79
401.82	14897.51
402.01	15166.67
402.21	14937.30
402.40	15152.63
402.59	14551.11
402.78	13783.41
402.97	13685.11
403.17	14195.35
403.36	15037.94
403.55	15442.85
403.74	15850.11
403.93	15122.20
404.13	13879.38
404.32	13734.26
404.51	14335.78
404.70	15513.07
404.89	15466.26
405.09	15466.26
405.28	14743.03
405.47	14743.03
405.66	14684.52
405.85	14230.46
406.05	13870.01
406.24	14436.42
406.43	14857.72
406.62	15487.32
406.81	15594.99
407.00	14885.81
407.20	14387.27
407.39	14721.97
407.58	15566.90
407.77	16166.08
407.96	16559.29
408.15	16652.91
408.34	16702.06
408.54	17556.36
408.73	17764.67
408.92	17455.72
409.11	16882.28
409.30	15960.11
409.49	14698.56
409.68	14064.28
409.87	13614.90
410.07	14558.13
410.26	15690.95
410.45	16662.27
410.64	17198.26
410.83	17607.85
411.02	17970.63
411.21	18427.04
411.40	18513.64
411.59	18705.56
411.78	18375.55
411.98	18401.29
412.17	18640.03
412.36	18274.90
412.55	18546.40
412.74	17846.58
412.93	17500.19
413.12	17626.57
413.31	19080.05
413.50	19337.51
413.69	19826.68
413.88	18778.12
414.07	18239.79
414.26	18675.13
414.45	19400.70
414.64	19681.56
414.83	19550.49
415.02	18991.11
415.22	19389.00
415.41	19740.08
415.60	19852.42
415.79	21331.64
415.98	21446.33
416.17	21252.06
416.36	20842.47
416.55	20753.53
416.74	19665.18
416.93	19213.46
417.12	19232.18
417.31	19604.33
417.50	19955.41
417.69	20547.56
417.88	20570.97
418.07	20423.51
418.26	20203.50
418.45	20072.43
418.64	20982.90
418.83	21729.53
419.02	21120.99
419.21	21202.91
419.39	20365.00
419.58	18869.40
419.77	19683.91
419.96	20325.21
420.15	21050.78
420.34	21846.56
420.53	22728.94
420.72	22946.61
420.91	23005.13
421.10	22640.00
421.29	22649.36
421.48	21748.26
421.67	22703.20
421.86	22228.07
422.05	20547.56
422.24	18427.04
422.43	18277.24
422.61	20421.17
422.80	21905.07
422.99	22054.87
423.18	21310.58
423.37	20482.03
423.56	21048.44
423.75	21341.00
423.94	21624.21
424.13	20404.79
424.32	20379.04
424.50	20695.02
424.69	20311.17
424.88	20678.63
425.07	20528.84
425.26	20542.88
425.45	20205.84
425.64	19578.58
425.83	19864.13
426.01	21245.04
426.20	21102.27
426.39	21282.49
426.58	19920.30
426.77	18476.19
426.96	17752.96
427.15	18408.31
427.33	19988.18
427.52	20968.86
427.71	20760.55
427.90	20341.60
428.09	20369.68
428.28	19822.00
428.46	19503.68
428.65	19012.17
428.84	19658.16
429.03	19632.41
429.22	18796.84
429.40	17811.48
429.59	15850.11
429.78	14176.62
429.97	14382.59
430.16	14626.01
430.34	14654.09
430.53	14424.72
430.72	14778.14
430.91	16449.28
431.10	19704.97
431.28	22951.29
431.47	24739.46
431.66	24617.75
431.85	22628.30
432.03	20692.68
432.22	19964.77
432.41	20800.34
432.60	23140.88
432.79	23770.48
432.97	24594.35
433.16	24046.66
433.35	21561.02
433.54	19726.04
433.72	18635.35
433.91	19234.52
434.10	21392.50
434.28	22712.56
434.47	23948.36
434.66	23484.94
434.85	22794.48
435.03	22843.63
435.22	23489.62
435.41	24875.21
435.59	24943.09
435.78	25268.42
435.97	25841.85
436.16	25736.53
436.34	25619.50
436.53	25135.01
436.72	25282.47
436.90	23915.59
437.09	23665.16
437.28	23290.67
437.46	24753.51
437.65	24006.87
437.84	22424.67
438.02	20505.43
438.21	21034.39
438.40	21919.12
438.58	23623.03
438.77	24437.53
438.96	24517.11
439.14	25324.60
439.33	26223.36
439.52	26354.43
439.70	25652.27
439.89	25163.10
440.08	24617.75
440.26	24507.75
440.45	25572.69
440.63	27164.26
440.82	28283.03
441.01	28233.88
441.19	27679.18
441.38	28446.87
441.57	29528.20
441.75	29965.88
441.94	30146.10
442.12	29584.37
442.31	30352.07
442.50	30136.74
442.68	29567.99
442.87	29355.00
443.05	28854.12
443.24	29900.34
443.43	30103.97
443.61	30532.29
443.80	30855.28
443.98	29296.49
444.17	28947.75
444.35	31117.42
444.54	31215.72
444.73	30934.86
444.91	30075.88
445.10	28634.11
445.28	27426.40
445.47	26710.19
445.65	27414.69
445.84	28128.56
446.02	28643.48
446.21	29404.15
446.39	29469.69
446.58	30223.34
446.77	30424.62
446.95	30789.75
447.14	31611.28
447.32	32100.45
447.51	31367.86
447.69	29991.62
447.88	30148.44
448.06	30335.68
448.25	30913.80
448.43	31152.53
448.62	30820.17
448.80	30483.14
448.99	30148.44
449.17	30838.90
449.36	30572.08
449.54	32219.81
449.73	32481.95
449.91	33223.90
450.10	33787.97
450.28	34235.02
450.46	34272.46
450.65	34040.75
450.83	33614.77
451.02	32870.48
451.20	32615.37
451.39	33120.92
451.57	32912.61
451.76	32858.78
451.94	32371.95
452.13	31824.26
452.31	30431.65
452.49	29069.45
452.68	29111.58
452.86	29656.93
453.05	29900.34
453.23	30916.14
453.42	31754.05
453.60	32451.53
453.78	32556.85
453.97	32088.74
454.15	32355.57
454.34	31639.36
454.52	31503.61
454.70	31428.71
454.89	31374.88
455.07	31742.35
455.26	32196.41
455.44	33357.32
455.62	33764.57
455.81	33682.65
455.99	33546.90
456.17	33399.44
456.36	33371.36
456.54	34286.51
456.73	34330.98
456.91	34974.63
457.09	35208.68
457.28	35571.46
457.46	34415.24
457.64	34047.77
457.83	32858.78
458.01	32479.61
458.19	33282.42
458.38	33111.56
458.56	34724.19
458.74	33940.11
458.93	33926.07
459.11	33834.78
459.29	33570.30
459.48	33993.94
459.66	33373.70
459.84	33766.91
460.03	34022.03
460.21	34436.30
460.39	34794.40
460.57	35030.80
460.76	35845.30
460.94	35274.21
461.12	34979.31
461.31	35316.34
461.49	35096.33
461.67	35012.07
461.85	36676.19
462.04	36013.82
462.22	36395.33
462.40	36109.78
462.59	36053.61
462.77	36011.48
462.95	35988.08
463.13	35730.62
463.32	35278.89
463.50	34902.07
463.68	35381.88
463.86	35110.38
464.05	34476.09
464.23	33673.29
464.41	34220.97
464.59	33439.23
464.78	35402.94
464.96	34527.58
465.14	34693.76
465.32	35056.54
465.50	36271.28
465.69	36542.78
465.87	35573.80
466.05	34735.89
466.23	33256.67
466.41	32744.09
466.60	33708.40
466.78	33586.69
466.96	34115.65
467.14	34717.17
467.32	35150.17
467.51	35351.45
467.69	33408.81
467.87	34330.98
468.05	34855.26
468.23	35122.08
468.41	34815.47
468.60	35243.79
468.78	35075.27
468.96	34780.36
469.14	35496.56
469.32	35814.88
469.50	34071.18
469.69	34352.04
469.87	33778.61
470.05	33692.01
470.23	33715.42
470.41	34155.44
470.59	34532.26
470.77	34745.25
470.95	35274.21
471.14	35861.69
471.32	36109.78
471.50	37916.68
471.68	38092.22
471.86	38094.56
472.04	38316.91
472.22	38623.52
472.40	36921.95
472.58	36334.48
472.77	36041.91
472.95	36910.25
473.13	37565.60
473.31	36842.37
473.49	36627.04
473.67	37757.52
473.85	37979.87
474.03	39037.80
474.21	39063.54
474.39	39236.74
474.57	39112.69
474.75	39302.28
474.93	38712.46
475.12	38438.62
475.30	38497.13
475.48	38611.82
475.66	39093.97
475.84	38614.16
476.02	38139.03
476.20	37635.81
476.38	38277.12
476.56	39388.88
476.74	39943.58
476.92	40505.31
477.10	40802.56
477.28	42103.90
477.46	42167.09
477.64	42344.97
477.82	42272.42
478.00	42658.60
478.18	42122.62
478.36	41790.27
478.54	41895.59
478.72	42321.57
478.90	43021.39
479.08	44041.86
479.26	45118.51
479.44	44573.16
479.62	44392.94
479.80	44046.54
479.98	44509.97
480.16	44790.83
480.34	44488.90
480.52	44978.07
480.70	45230.85
480.88	44996.80
481.06	46211.54
481.24	46185.79
481.41	46801.35
481.59	47842.89
481.77	47571.39
481.95	46469.00
482.13	46747.52
482.31	47054.13
482.49	47842.89
482.67	46969.87
482.85	47931.83
483.03	48243.12
483.21	48545.05
483.39	48591.86
483.57	47620.54
483.74	47365.42
483.92	47835.87
484.10	47983.32
484.28	49181.68
484.46	49071.67
484.64	49588.93
484.82	48961.67
485.00	48311.00
485.18	47224.99
485.35	46031.32
485.53	42653.92
485.71	39229.72
485.89	39257.81
486.07	41436.84
486.25	44446.77
486.43	46696.03
486.61	47349.04
486.78	47065.83
486.96	47222.65
487.14	48994.43
487.32	49563.18
487.50	50841.12
487.68	51721.16
487.85	52133.09
488.03	52130.75
488.21	51777.33
488.39	51121.98
488.57	50405.78
488.75	50064.06
488.92	51344.33
489.10	53518.69
489.28	54712.36
489.46	55042.38
489.64	55136.00
489.81	55096.21
489.99	54747.47
490.17	54581.29
490.35	55234.30
490.53	54728.75
490.70	54155.32
490.88	54312.13
491.06	55267.07
491.24	55234.30
491.41	54021.90
491.59	52736.95
491.77	51913.08
491.95	53237.83
492.13	54103.82
492.30	55313.88
492.48	56009.02
492.66	56343.72
492.84	56048.81
493.01	56254.78
493.19	55793.69
493.37	55428.57
493.54	55164.09
493.72	55646.24
493.90	56753.31
494.08	57509.30
494.25	57588.88
494.43	57640.37
494.61	58061.67
494.79	58391.68
494.96	58089.76
495.14	57432.07
495.32	56757.99
495.49	56264.14
495.67	57434.41
495.85	58548.50
496.02	58707.66
496.20	58450.20
496.38	58169.33
496.55	58152.95
496.73	58405.73
496.91	58679.57
497.09	59196.83
497.26	59409.82
497.44	58850.43
497.62	58410.41
497.79	57722.29
497.97	56360.10
498.14	56772.03
498.32	57703.57
498.50	58721.70
498.67	59121.93
498.85	58979.16
499.03	58892.56
499.20	59302.15
499.38	59283.43
499.56	59054.06
499.73	58614.04
499.91	58358.92
500.08	57904.85
500.26	57436.75
500.44	57827.62
500.61	58422.11
500.79	58092.10
500.97	57654.42
501.14	57703.57
501.32	57411.00
501.49	57708.25
501.67	57928.26
501.84	58358.92
502.02	58628.08
502.20	58763.83
502.37	59040.01
502.55	58838.73
502.72	59545.57
502.90	59983.25
503.07	59655.57
503.25	59292.79
503.43	58431.47
503.60	57563.14
503.78	57345.47
503.95	57935.28
504.13	59185.13
504.30	59774.94
504.48	59437.90
504.65	59332.58
504.83	59278.75
505.01	59910.69
505.18	60133.04
505.36	60573.06
505.53	60793.07
505.71	60891.38
505.88	61080.96
506.06	60198.58
506.23	60009.00
506.41	59760.90
506.58	60062.83
506.76	59927.08
506.93	59997.29
507.11	59924.74
507.28	59821.75
507.46	59178.10
507.63	59032.99
507.81	58880.86
507.98	58974.48
508.16	59470.67
508.33	60156.45
508.50	60580.09
508.68	60687.75
508.85	61293.95
509.03	61197.99
509.20	60786.05
509.38	60261.77
509.55	59480.03
509.73	59751.54
509.90	60310.92
510.08	60456.04
510.25	60446.68
510.42	60123.68
510.60	60221.98
510.77	60449.02
510.95	60912.44
511.12	61134.79
511.30	61221.39
511.47	61490.55
511.64	61340.76
511.82	61125.43
511.99	60381.14
512.17	60149.43
512.34	59683.66
512.51	59866.22
512.69	60060.49
512.86	60231.35
513.04	60493.49
513.21	60420.93
513.38	60144.75
513.56	59828.77
513.73	59304.49
513.90	59465.99
514.08	59536.21
514.25	59774.94
514.43	59920.05
514.60	60179.85
514.77	60236.03
514.95	60287.52
515.12	60147.09
515.29	60549.66
515.47	60889.04
515.64	61116.07
515.81	60837.54
515.99	60083.89
516.16	58747.45
516.33	56559.05
516.51	55311.54
516.68	54543.84
516.85	53923.60
517.03	54920.67
517.20	57322.06
517.37	59660.26
517.54	60413.91
517.72	59931.76
517.89	57380.57
518.06	55547.93
518.24	55985.61
518.41	57783.15
518.58	59016.61
518.75	58997.88
518.93	59171.08
519.10	59377.05
519.27	59571.32
519.45	60037.08
519.62	60711.16
519.79	60905.42
519.96	60624.56
520.14	60079.21
520.31	59498.76
520.48	59292.79
520.65	59877.93
520.83	60860.95
521.00	61015.43
521.17	60580.09
521.34	60224.32
521.52	60786.05
521.69	61223.73
521.86	61539.71
522.03	61256.50
522.20	59957.50
522.38	59075.12
522.55	59346.62
522.72	59749.20
522.89	59938.78
523.07	60140.07
523.24	60472.42
523.41	61298.63
523.58	61635.67
523.75	61869.72
523.92	61588.86
524.10	61640.35
524.27	61535.02
524.44	61429.70
524.61	61284.59
524.78	60968.61
524.96	60933.51
525.13	61116.07
525.30	61502.26
525.47	61729.29
525.64	61518.64
525.81	61001.38
525.98	59753.88
526.16	58131.89
526.33	57764.42
526.50	57331.42
526.67	57146.52
526.84	57907.19
527.01	58576.59
527.18	59505.78
527.36	60097.94
527.53	60949.89
527.70	61076.28
527.87	60502.85
528.04	60547.32
528.21	60853.93
528.38	61389.91
528.55	61827.59
528.72	62181.01
528.89	62356.55
529.07	62078.03
529.24	61385.23
529.41	60781.37
529.58	60472.42
529.75	60463.06
529.92	60722.86
530.09	61432.04
530.26	61612.26
530.43	61848.66
530.60	61930.58
530.77	62073.35
530.94	62148.24
531.11	61740.99
531.28	61359.48
531.46	61279.91
531.63	61623.96
531.80	61193.31
531.97	60973.30
532.14	60147.09
532.31	59054.06
532.48	58660.85
532.65	58700.64
532.82	59742.17
532.99	60825.84
533.16	60912.44
533.33	61385.23
533.50	61186.28
533.67	60776.69
533.84	60275.82
534.01	60460.72
534.18	60580.09
534.35	60694.77
534.52	60495.83
534.69	61043.51
534.86	61205.01
535.03	61336.08
535.20	61851.00
535.37	62335.49
535.54	62302.72
535.71	61815.89
535.88	61467.15
536.05	61038.83
536.22	60654.98
536.38	60231.35
536.55	59849.84
536.72	59550.25
536.89	59428.54
537.06	60355.39
537.23	60989.68
537.40	61270.54
537.57	61109.05
537.74	60942.87
537.91	60996.70
538.08	60804.78
538.25	61050.53
538.42	61233.10
538.59	60779.03
538.75	60381.14
538.92	60266.45
539.09	60030.06
539.26	59887.29
539.43	59737.49
539.60	59976.23
539.77	60126.02
539.94	59840.48
540.11	59100.87
540.28	58590.63
540.44	58812.98
540.61	58876.18
540.78	59318.54
540.95	59543.23
541.12	59987.93
541.29	60243.05
541.46	60404.55
541.62	60495.83
541.79	60346.03
541.96	60032.40
542.13	59784.30
542.30	60116.66
542.47	60282.84
542.63	59772.60
542.80	59770.26
542.97	60123.68
543.14	59826.43
543.31	59927.08
543.48	60282.84
543.64	61017.77
543.81	61373.53
543.98	60973.30
544.15	60378.80
544.32	60037.08
544.48	60170.49
544.65	60484.12
544.82	60949.89
544.99	60383.48
545.16	60065.17
545.32	59868.56
545.49	60640.94
545.66	60896.06
545.83	60530.93
546.00	60224.32
546.16	60004.31
546.33	60114.32
546.50	60247.73
546.67	60643.28
546.83	60093.25
547.00	60046.44
547.17	59377.05
547.34	58990.86
547.50	59009.59
547.67	59629.83
547.84	59421.52
548.00	59894.31
548.17	60299.22
548.34	60243.05
548.51	60229.01
548.67	60133.04
548.84	60334.33
549.01	60296.88
549.18	60027.72
549.34	59980.91
549.51	60130.70
549.68	60104.96
549.84	59735.15
550.01	59746.86
550.18	59536.21
550.34	59648.55
550.51	59924.74
550.68	59877.93
550.84	59306.83
551.01	59391.09
551.18	59430.88
551.34	59606.42
551.51	59758.56
551.68	60254.75
551.84	60179.85
552.01	59917.71
552.18	60025.38
552.34	59180.45
552.51	58904.26
552.68	58939.37
552.84	59423.86
553.01	59451.95
553.18	59337.26
553.34	59716.43
553.51	59583.02
553.67	60037.08
553.84	59945.80
554.01	59880.27
554.17	59749.20
554.34	59828.77
554.51	59845.16
554.67	60158.79
554.84	60083.89
555.00	59739.83
555.17	59437.90
555.33	59465.99
555.50	59468.33
555.67	59309.18
555.83	59386.41
556.00	58939.37
556.16	58948.73
556.33	58859.79
556.50	58681.91
556.66	58511.05
556.83	58398.71
556.99	58499.35
557.16	58712.34
557.32	58808.30
557.49	59110.23
557.65	59082.14
557.82	59068.10
557.98	58976.82
558.15	58489.99
558.32	57598.24
558.48	56783.74
558.65	57045.88
558.81	57448.45
558.98	57633.35
559.14	57897.83
559.31	57876.77
559.47	57956.35
559.64	57687.18
559.80	57455.47
559.97	57495.26
560.13	57612.29
560.30	58712.34
560.46	59187.47
560.63	59515.14
560.79	59278.75
560.96	58993.20
561.12	58071.03
561.29	57155.88
561.45	57289.29
561.61	57944.64
561.78	58202.10
561.94	58024.22
562.11	57996.13
562.27	57834.64
562.44	58267.64
562.60	58658.51
562.77	58562.54
562.93	58340.19
563.10	58389.34
563.26	57895.49
563.42	58024.22
563.59	57722.29
563.75	57935.28
563.92	57907.19
564.08	57771.44
564.24	58085.07
564.41	58288.70
564.57	58145.93
564.74	57799.53
564.90	57750.38
565.07	57481.22
565.23	57167.58
565.39	56610.54
565.56	56657.35
565.72	56360.10
565.88	56837.57
566.05	56781.40
566.21	57055.24
566.38	57272.91
566.54	57439.09
566.70	57495.26
566.87	57935.28
567.03	57677.82
567.19	57907.19
567.36	57696.55
567.52	57518.67
567.68	57242.48
567.85	56535.64
568.01	56456.06
568.17	56104.98
568.34	56238.39
568.50	56011.36
568.66	55990.30
568.83	56610.54
568.99	56563.73
569.15	56961.62
569.32	56790.76
569.48	56502.87
569.64	56339.04
569.81	56079.24
569.97	55863.91
570.13	55969.23
570.30	55580.70
570.46	55201.53
570.62	54553.21
570.78	54534.48
570.95	55009.61
571.11	55456.65
571.27	55618.15
571.43	55983.27
571.60	56233.71
571.76	56568.41
571.92	56474.79
572.09	56652.67
572.25	56811.82
572.41	56896.08
572.57	56416.27
572.74	56423.29
572.90	56303.93
573.06	56212.65
573.22	56254.78
573.38	56163.50
573.55	55922.42
573.71	56294.56
573.87	56083.92
574.03	56009.02
574.20	56133.07
574.36	55679.00
574.52	55695.39
574.68	55487.08
574.84	55110.25
575.01	54607.04
575.17	54670.23
575.33	54873.86
575.49	55505.80
575.65	55372.39
575.82	55236.64
575.98	54745.13
576.14	55140.68
576.30	55414.52
576.46	55372.39
576.62	55470.70
576.79	55367.71
576.95	54941.74
577.11	54990.89
577.27	55051.74
577.43	55089.19
577.59	54784.92
577.75	54265.32
577.92	53911.90
578.08	53647.42
578.24	53825.30
578.40	54101.48
578.56	54312.13
578.72	54262.98
578.88	54529.80
579.04	54642.15
579.21	54703.00
579.37	54656.19
579.53	54831.73
579.69	54817.69
579.85	55018.97
580.01	54628.10
580.17	54284.04
580.33	54223.19
580.49	54246.60
580.65	54504.06
580.82	54674.91
580.98	54410.43
581.14	54651.51
581.30	54777.90
581.46	54274.68
581.62	54904.29
581.78	54892.58
581.94	55100.89
582.10	55063.44
582.26	54958.12
582.42	54986.21
582.58	54808.32
582.74	54665.55
582.90	55124.30
583.06	54766.20
583.22	54649.17
583.38	54742.79
583.54	54618.74
583.70	54733.43
583.86	54525.12
584.02	54384.69
584.18	54555.55
584.34	54490.01
584.50	54590.66
584.66	54368.30
584.82	53951.69
584.98	53858.07
585.14	53268.25
585.30	52807.17
