SpectraSuite Data File
++++++++++++++++++++++++++++++++++++
Date: Mon Oct 07 14:53:53 GMT-05:00 2013
User: price-jones
Dark Spectrum Present: No
Reference Spectrum Present: No
Number of Sampled Component Spectra: 1
Spectrometers: USB2+H05261
Integration Time (usec): 100000 (USB2+H05261)
Spectra Averaged: 1 (USB2+H05261)
Boxcar Smoothing: 0 (USB2+H05261)
Correct for Electrical Dark: No (USB2+H05261)
Strobe/Lamp Enabled: No (USB2+H05261)
Correct for Detector Non-linearity: No (USB2+H05261)
Correct for Stray Light: No (USB2+H05261)
Number of Pixels in Processed Spectrum: 2048
>>>>>Begin Processed Spectral Data<<<<<
365.73	0.00
365.92	0.00
366.12	0.00
366.32	0.00
366.52	0.00
366.72	0.00
366.91	0.00
367.11	0.00
367.31	0.00
367.51	0.00
367.70	0.00
367.90	0.00
368.10	0.00
368.30	0.00
368.49	0.00
368.69	0.00
368.89	0.00
369.09	0.00
369.28	0.00
369.48	0.00
369.68	0.00
369.87	0.00
370.07	0.00
370.27	0.00
370.47	524.28
370.66	2761.83
370.86	3283.77
371.06	3524.85
371.25	3527.19
371.45	3070.78
371.65	2757.15
371.84	2546.50
372.04	2829.71
372.24	3155.04
372.44	3307.18
372.63	3316.54
372.83	3030.99
373.03	2626.08
373.22	2490.33
373.42	2448.20
373.62	3052.06
373.81	3260.37
374.01	3180.79
374.21	2895.24
374.40	2740.77
374.60	2745.45
374.79	3133.98
374.99	3674.64
375.19	4042.11
375.38	3967.21
375.58	3620.81
375.78	3639.53
375.97	3625.49
376.17	3829.12
376.37	3896.99
376.56	3997.64
376.76	4278.50
376.95	4493.83
377.15	4802.78
377.35	4999.38
377.54	4999.38
377.74	5210.03
377.93	5432.38
378.13	5156.20
378.33	5057.90
378.52	4411.91
378.72	4404.89
378.91	4238.71
379.11	4198.92
379.31	3950.82
379.50	3957.85
379.70	4234.03
379.89	4690.43
380.09	5046.20
380.28	5184.29
380.48	5130.45
380.68	5060.24
380.87	4940.87
381.07	4690.43
381.26	4329.99
381.46	3950.82
381.65	3950.82
381.85	3772.94
382.04	3478.04
382.24	3382.07
382.43	3218.24
382.63	3110.57
382.83	3229.94
383.02	3187.81
383.22	3190.15
383.41	3089.51
383.61	3363.35
383.80	3777.62
384.00	4271.48
384.19	4894.06
384.39	5291.95
384.58	5093.01
384.78	4887.04
384.97	5090.67
385.17	4699.80
385.36	4568.73
385.56	4383.82
385.75	4496.17
385.95	4882.36
386.14	5310.68
386.34	5338.76
386.53	4954.91
386.72	4770.01
386.92	4802.78
387.11	5008.75
387.31	5310.68
387.50	5383.23
387.70	4912.78
387.89	4901.08
388.09	5085.98
388.28	5029.81
388.48	5018.11
388.67	5432.38
388.86	6108.80
389.06	6450.52
389.25	6902.24
389.45	6841.39
389.64	6810.96
389.84	6764.15
390.03	6583.93
390.22	6707.98
390.42	6942.03
390.61	7342.26
390.81	7758.88
391.00	7962.50
391.19	7925.05
391.39	7726.11
391.58	7393.75
391.78	6675.21
391.97	6464.56
392.16	6066.67
392.36	5556.43
392.55	4444.68
392.75	3637.19
392.94	2913.97
393.13	2782.90
393.33	3412.50
393.52	4512.55
393.71	5352.81
393.91	6122.84
394.10	6588.61
394.29	6995.86
394.49	7566.95
394.68	8299.54
394.88	8273.79
395.07	8493.80
395.26	8664.66
395.46	8170.81
395.65	7903.99
395.84	6881.18
396.04	5806.87
396.23	4608.51
396.42	4004.66
396.62	3763.58
396.81	4411.91
397.00	5687.50
397.19	7009.90
397.39	8320.60
397.58	9357.46
397.77	9942.60
397.97	10523.05
398.16	10331.12
398.35	10878.81
398.55	11089.46
398.74	11534.16
398.93	12046.74
399.12	11754.17
399.32	11042.65
399.51	11566.93
399.70	12428.24
399.90	12245.68
400.09	12262.07
400.28	12224.62
400.47	12058.44
400.67	12786.35
400.86	12999.34
401.05	13116.36
401.24	13301.26
401.44	13336.37
401.63	13444.04
401.82	13612.56
402.01	13336.37
402.21	13453.40
402.40	13565.74
402.59	13383.18
402.78	12704.43
402.97	12269.09
403.17	12585.06
403.36	13511.91
403.55	14033.85
403.74	14630.69
403.93	13886.40
404.13	12627.19
404.32	12236.32
404.51	12776.98
404.70	13682.77
404.89	13912.14
405.09	13582.13
405.28	13359.78
405.47	13282.54
405.66	13308.29
405.85	12816.77
406.05	12533.57
406.24	12835.50
406.43	13397.23
406.62	13809.16
406.81	13951.93
407.00	13362.12
407.20	13029.76
407.39	13048.49
407.58	13570.43
407.77	14012.79
407.96	14738.35
408.15	15056.67
408.34	14998.15
408.54	15386.68
408.73	15599.67
408.92	15363.28
409.11	15108.16
409.30	14314.72
409.49	13282.54
409.68	12519.53
409.87	12245.68
410.07	12889.33
410.26	13909.80
410.45	14885.81
410.64	15211.14
410.83	15688.61
411.02	16102.89
411.21	16568.65
411.40	16334.60
411.59	16868.24
411.78	16409.50
411.98	16320.56
412.17	16479.71
412.36	16035.01
412.55	16348.64
412.74	15908.62
412.93	15777.55
413.12	15510.73
413.31	17034.42
413.50	17252.09
413.69	17706.15
413.88	17048.46
414.07	16437.58
414.26	16655.25
414.45	17177.19
414.64	17399.54
414.83	17369.12
415.02	17369.12
415.22	16903.35
415.41	17387.84
415.60	17998.72
415.79	18586.19
415.98	18932.59
416.17	18878.76
416.36	18562.79
416.55	18469.17
416.74	17923.82
416.93	16938.46
417.12	17209.96
417.31	17263.79
417.50	17715.51
417.69	18279.58
417.88	18263.20
418.07	18071.28
418.26	17902.76
418.45	17900.42
418.64	18647.05
418.83	19229.84
419.02	19211.12
419.21	18686.84
419.39	17853.61
419.58	17036.76
419.77	17195.92
419.96	17926.16
420.15	19030.90
420.34	19323.46
420.53	20252.66
420.72	20276.06
420.91	20407.13
421.10	19924.98
421.29	19641.78
421.48	19161.97
421.67	20217.55
421.86	19817.32
422.05	18658.75
422.24	16402.47
422.43	16198.85
422.61	17802.11
422.80	19421.77
422.99	19396.02
423.18	18771.10
423.37	18658.75
423.56	18527.68
423.75	18590.88
423.94	18799.18
424.13	18024.47
424.32	18302.99
424.50	18223.41
424.69	17916.80
424.88	18099.36
425.07	18251.50
425.26	17802.11
425.45	17902.76
425.64	17687.43
425.83	17626.57
426.01	18733.65
426.20	18822.59
426.39	18876.42
426.58	17404.22
426.77	16236.30
426.96	15730.74
427.15	16400.13
427.33	17488.48
427.52	18258.52
427.71	18298.31
427.90	18118.09
428.09	17991.70
428.28	17523.59
428.46	16943.14
428.65	16762.92
428.84	17048.46
429.03	17376.14
429.22	16603.76
429.40	16130.97
429.59	14136.84
429.78	12353.35
429.97	12758.26
430.16	12643.57
430.34	12950.18
430.53	12758.26
430.72	12938.48
430.91	14445.79
431.10	16833.13
431.28	19873.49
431.47	21823.16
431.66	21656.98
431.85	19772.85
432.03	18391.93
432.22	17458.06
432.41	18300.65
432.60	20189.46
432.79	21069.50
432.97	21298.88
433.16	21001.63
433.35	19278.99
433.54	17046.12
433.72	16198.85
433.91	16737.17
434.10	18649.39
434.28	19796.25
434.47	20788.64
434.66	21055.46
434.85	20152.01
435.03	20147.33
435.22	20842.47
435.41	22059.55
435.59	21645.27
435.78	22317.01
435.97	22806.18
436.16	22665.75
436.34	22628.30
436.53	21977.63
436.72	22150.83
436.90	20769.91
437.09	20786.30
437.28	20533.52
437.46	21099.93
437.65	21223.98
437.84	19770.51
438.02	18331.08
438.21	17909.78
438.40	18745.35
438.58	20400.11
438.77	21151.42
438.96	21322.28
439.14	22050.19
439.33	22820.22
439.52	22988.74
439.70	22279.56
439.89	21891.03
440.08	21432.29
440.26	21350.37
440.45	21996.35
440.63	23578.56
440.82	24868.19
441.01	24711.38
441.19	24346.25
441.38	24842.45
441.57	25736.53
441.75	25759.94
441.94	26214.00
442.12	26572.10
442.31	26483.16
442.50	26272.51
442.68	25891.01
442.87	25874.62
443.05	25106.93
443.24	25827.81
443.43	26335.71
443.61	26707.85
443.80	26892.76
443.98	25823.13
444.17	25153.74
444.35	26967.65
444.54	27414.69
444.73	26904.46
444.91	25982.29
445.10	24664.57
445.28	23915.59
445.47	23721.33
445.65	23840.70
445.84	24278.38
446.02	25322.26
446.21	25584.40
446.39	25584.40
446.58	25778.66
446.77	26328.69
446.95	26478.48
447.14	27562.15
447.32	27985.79
447.51	27014.46
447.69	26150.81
447.88	25886.32
448.06	26370.82
448.25	26785.09
448.43	27136.17
448.62	26614.23
448.80	26096.97
448.99	26192.94
449.17	26670.40
449.36	26747.64
449.54	27847.69
449.73	28175.37
449.91	28739.44
450.10	29586.71
450.28	29923.75
450.46	29366.70
450.65	29497.77
450.83	29156.05
451.02	28528.79
451.20	28383.68
451.39	28453.89
451.57	28196.43
451.76	27821.95
451.94	27852.38
452.13	27513.00
452.31	26232.72
452.49	25120.97
452.68	25226.29
452.86	25488.43
453.05	25663.97
453.23	26703.17
453.42	27105.74
453.60	27868.76
453.78	27880.46
453.97	27449.80
454.15	28095.79
454.34	27300.01
454.52	27330.44
454.70	26408.26
454.89	27449.80
455.07	27157.24
455.26	27838.33
455.44	28603.69
455.62	29130.31
455.81	29483.73
455.99	29177.12
456.17	28748.80
456.36	28856.46
456.54	29795.02
456.73	29287.12
456.91	30183.55
457.09	29965.88
457.28	30916.14
457.46	29296.49
457.64	29497.77
457.83	28357.93
458.01	27716.62
458.19	28552.20
458.38	28538.15
458.56	29268.40
458.74	29359.68
458.93	28737.10
459.11	28797.95
459.29	28772.21
459.48	28673.90
459.66	29198.18
459.84	29067.11
460.03	29486.07
460.21	29118.60
460.39	30171.85
460.57	30148.44
460.76	30646.97
460.94	30497.18
461.12	29998.65
461.31	30089.93
461.49	30230.36
461.67	29965.88
461.85	31512.97
462.04	30735.92
462.22	31117.42
462.40	30932.52
462.59	30710.17
462.77	31089.34
462.95	30824.86
463.13	30391.86
463.32	30162.48
463.50	29830.13
463.68	29773.95
463.86	30141.42
464.05	29792.68
464.23	29188.82
464.41	29003.92
464.59	28453.89
464.78	29956.52
464.96	29673.31
465.14	29120.95
465.32	30174.19
465.50	30649.32
465.69	31442.76
465.87	30450.37
466.05	29783.32
466.23	28788.59
466.41	28046.64
466.60	28591.98
466.78	28830.72
466.96	29249.67
467.14	29979.92
467.32	29993.97
467.51	30281.85
467.69	28514.75
467.87	29376.06
468.05	30033.75
468.23	29734.17
468.41	29551.60
468.60	29898.00
468.78	30108.65
468.96	29570.33
469.14	30335.68
469.32	30562.72
469.50	29467.34
469.69	29472.03
469.87	28823.70
470.05	29111.58
470.23	28467.94
470.41	28943.06
470.59	29401.81
470.77	29546.92
470.95	29979.92
471.14	30553.35
471.32	30532.29
471.50	32182.37
471.68	32418.76
471.86	32318.12
472.04	32929.00
472.22	32683.24
472.40	31311.69
472.58	30981.67
472.77	30375.47
472.95	31089.34
473.13	32107.47
473.31	31159.55
473.49	31618.30
473.67	31688.51
473.85	32292.37
474.03	32875.16
474.21	32931.34
474.39	33139.65
474.57	33511.79
474.75	33633.50
474.93	33137.30
475.12	32297.05
475.30	32350.88
475.48	32767.50
475.66	33312.84
475.84	32875.16
476.02	32299.39
476.20	31983.42
476.38	32388.33
476.56	33420.51
476.74	33804.36
476.92	34096.92
477.10	34602.48
477.28	35517.63
477.46	35786.79
477.64	36051.27
477.82	36273.62
478.00	36091.06
478.18	35660.40
478.36	35613.59
478.54	35555.08
478.72	35798.49
478.90	36439.80
479.08	37507.08
479.26	37771.57
479.44	38080.52
479.62	37921.36
479.80	37757.52
479.98	37717.73
480.16	38085.20
480.34	37860.51
480.52	38099.24
480.70	38658.63
480.88	38478.41
481.06	39285.89
481.24	39681.44
481.41	40245.51
481.59	40889.16
481.77	40610.64
481.95	39899.11
482.13	39580.80
482.31	39966.99
482.49	40994.48
482.67	40289.98
482.85	40973.42
483.03	41024.91
483.21	41549.19
483.39	41453.23
483.57	40507.65
483.74	40589.57
483.92	40587.23
484.10	41008.53
484.28	42267.73
484.46	42071.13
484.64	42569.66
484.82	42045.38
485.00	41324.50
485.18	40713.62
485.35	39592.50
485.53	36275.96
485.71	33228.59
485.89	32631.75
486.07	34445.66
486.25	37694.33
486.43	39632.29
486.61	40811.92
486.78	40236.15
486.96	39983.37
487.14	41844.10
487.32	43379.49
487.50	44112.08
487.68	45104.46
487.85	45610.02
488.03	45614.70
488.21	45017.86
488.39	44278.25
488.57	43131.39
488.75	43337.36
488.92	44619.97
489.10	46862.21
489.28	48357.81
489.46	49312.75
489.64	49144.23
489.81	49462.54
489.99	48683.14
490.17	48783.79
490.35	49085.72
490.53	48889.11
490.70	48512.28
490.88	48547.39
491.06	49542.12
491.24	49291.68
491.41	48395.26
491.59	46050.04
491.77	45127.87
491.95	46728.80
492.13	47903.74
492.30	49284.66
492.48	50422.16
492.66	51068.15
492.84	50782.60
493.01	50791.97
493.19	49970.44
493.37	49757.45
493.54	49167.63
493.72	50263.00
493.90	51325.61
494.08	52261.82
494.25	52308.63
494.43	52676.10
494.61	53216.76
494.79	53139.52
494.96	52921.85
495.14	52343.74
495.32	51334.97
495.49	50302.79
495.67	51325.61
495.85	53176.97
496.02	53483.58
496.20	53471.88
496.38	53176.97
496.55	52875.04
496.73	53146.54
496.91	53551.46
497.09	54213.83
497.26	54396.39
497.44	53886.15
497.62	53219.10
497.79	52280.55
497.97	50939.42
498.14	50885.59
498.32	52313.31
498.50	53441.45
498.67	54234.89
498.85	54064.03
499.03	53993.82
499.20	54066.38
499.38	54344.90
499.56	54218.51
499.73	53808.92
499.91	52952.28
500.08	52467.79
500.26	51786.69
500.44	52212.67
500.61	52924.19
500.79	52900.79
500.97	52357.78
501.14	52126.07
501.32	52135.43
501.49	52048.83
501.67	52294.59
501.84	52971.00
502.02	53343.15
502.20	53741.04
502.37	53532.73
502.55	53677.85
502.72	54520.44
502.90	55037.70
503.07	54642.15
503.25	53923.60
503.43	52821.21
503.60	52671.42
503.78	51585.41
503.95	52266.50
504.13	53659.12
504.30	54721.72
504.48	54382.35
504.65	54007.86
504.83	54232.55
505.01	54681.94
505.18	55040.04
505.36	55519.85
505.53	55697.73
505.71	55910.72
505.88	56020.72
506.06	55379.42
506.23	55035.36
506.41	54527.46
506.58	54962.80
506.76	54820.03
506.93	54754.49
507.11	54642.15
507.28	54747.47
507.46	54129.57
507.63	53579.54
507.81	53708.27
507.98	53670.82
508.16	54775.56
508.33	54897.27
508.50	55311.54
508.68	55854.54
508.85	56102.64
509.03	56083.92
509.20	56350.74
509.38	55126.64
509.55	54499.37
509.73	54340.22
509.90	55023.65
510.08	55407.50
510.25	55231.96
510.42	54948.76
510.60	55112.59
510.77	55295.16
510.95	55744.54
511.12	55966.89
511.30	56329.67
511.47	56619.90
511.64	56542.66
511.82	56065.19
511.99	55491.76
512.17	54997.91
512.34	54419.80
512.51	54506.40
512.69	54805.98
512.86	54904.29
513.04	55456.65
513.21	55458.99
513.38	55086.85
513.56	54384.69
513.73	53577.20
513.90	54082.76
514.08	54279.36
514.25	54665.55
514.43	54824.71
514.60	54738.11
514.77	54953.44
514.95	55014.29
515.12	55093.87
515.29	55070.46
515.47	55650.92
515.64	56037.11
515.81	55735.18
515.99	54759.17
516.16	53408.68
516.33	50597.70
516.51	49123.16
516.68	47852.25
516.85	47662.67
517.03	47760.97
517.20	51145.39
517.37	53930.62
517.54	55203.88
517.72	54576.61
517.89	51583.07
518.06	48870.39
518.24	49371.26
518.41	51980.96
518.58	53382.94
518.75	53900.20
518.93	54197.44
519.10	53628.69
519.27	54365.96
519.45	54429.16
519.62	55468.36
519.79	55730.50
519.96	55444.95
520.14	54740.45
520.31	54150.63
520.48	53886.15
520.65	54068.72
520.83	55583.04
521.00	55817.10
521.17	55379.42
521.34	55023.65
521.52	55145.36
521.69	55966.89
521.86	56205.62
522.03	55927.10
522.20	54749.81
522.38	53394.64
522.55	53708.27
522.72	54227.87
522.89	54550.87
523.07	54817.69
523.24	55253.03
523.41	56179.88
523.58	56336.69
523.75	56540.32
523.92	56460.74
524.10	56413.93
524.27	56514.58
524.44	56212.65
524.61	56030.08
524.78	56020.72
524.96	55688.37
525.13	55929.44
525.30	55950.51
525.47	56612.88
525.64	56404.57
525.81	55629.85
525.98	54066.38
526.16	52636.31
526.33	51707.12
526.50	51388.80
526.67	51058.79
526.84	51604.13
527.01	53022.50
527.18	53811.26
527.36	54803.64
527.53	55817.10
527.70	55695.39
527.87	55173.45
528.04	54761.51
528.21	55271.75
528.38	55716.45
528.55	56701.82
528.72	56868.00
528.89	57242.48
529.07	56718.20
529.24	56011.36
529.41	55388.78
529.58	54501.71
529.75	54955.78
529.92	55295.16
530.09	55810.07
530.26	56177.54
530.43	56514.58
530.60	56662.03
530.77	56760.33
530.94	57151.20
531.11	56413.93
531.28	56203.28
531.46	55620.49
531.63	55966.89
531.80	55711.77
531.97	55636.87
532.14	54677.25
532.31	53598.27
532.48	52793.12
532.65	52800.15
532.82	53865.09
532.99	54841.09
533.16	55363.03
533.33	56095.62
533.50	55714.11
533.67	55199.19
533.84	54525.12
534.01	54958.12
534.18	55009.61
534.35	55267.07
534.52	54859.82
534.69	55323.24
534.86	55643.90
535.03	56002.00
535.20	56530.96
535.37	56704.16
535.54	56825.87
535.71	56357.76
535.88	56222.01
536.05	55564.32
536.22	55229.62
536.38	54953.44
536.55	54246.60
536.72	53509.33
536.89	53659.12
537.06	54349.58
537.23	55447.29
537.40	55648.58
537.57	55700.07
537.74	55283.45
537.91	55416.86
538.08	55236.64
538.25	55278.77
538.42	55337.29
538.59	55114.94
538.75	54639.81
538.92	54464.27
539.09	54607.04
539.26	54218.51
539.43	53958.71
539.60	54075.74
539.77	53977.43
539.94	54028.93
540.11	53123.14
540.28	52502.90
540.44	52556.73
540.61	52844.62
540.78	53139.52
540.95	53698.91
541.12	54124.89
541.29	54513.42
541.46	54740.45
541.62	55007.27
541.79	54958.12
541.96	53797.21
542.13	53731.68
542.30	54232.55
542.47	54127.23
542.63	54302.77
542.80	54014.88
542.97	53841.68
543.14	54066.38
543.31	53947.01
543.48	54536.82
543.64	55550.27
543.81	55868.59
543.98	55583.04
544.15	54857.48
544.32	54141.27
544.48	54375.33
544.65	54735.77
544.82	55264.73
544.99	54532.14
545.16	54218.51
545.32	54038.29
545.49	54927.69
545.66	55348.99
545.83	55154.72
546.00	54534.48
546.16	54164.68
546.33	54141.27
546.50	54578.95
546.67	54665.55
546.83	54319.15
547.00	54258.30
547.17	53600.61
547.34	53247.19
547.50	52924.19
547.67	52865.68
547.84	53352.51
548.00	53977.43
548.17	54389.37
548.34	54038.29
548.51	53942.33
548.67	54019.56
548.84	54216.17
549.01	54134.25
549.18	54328.52
549.34	54129.57
549.51	54314.47
549.68	53897.86
549.84	53572.52
550.01	53677.85
550.18	53443.79
550.34	53542.10
550.51	53689.55
550.68	53841.68
550.84	52949.94
551.01	53336.13
551.18	53036.54
551.34	53340.81
551.51	53991.48
551.68	54195.10
551.84	54457.24
552.01	53918.92
552.18	53755.08
552.34	53158.25
552.51	52271.18
552.68	52615.24
552.84	52989.73
553.01	53081.01
553.18	53022.50
553.34	53216.76
553.51	53499.97
553.67	53645.08
553.84	53663.80
554.01	53483.58
554.17	53422.73
554.34	53411.02
554.51	53858.07
554.67	53991.48
554.84	53839.34
555.00	53530.39
555.17	53312.72
555.33	53319.74
555.50	53294.00
555.67	53357.19
555.83	52893.77
556.00	52580.13
556.16	52875.04
556.33	52105.01
556.50	52039.47
556.66	51894.36
556.83	52121.39
556.99	51997.34
557.16	51945.85
557.32	52580.13
557.49	52704.18
557.65	52636.31
557.82	52545.03
557.98	52243.10
558.15	51908.40
558.32	50894.95
558.48	49787.88
558.65	50028.95
558.81	50148.32
558.98	50810.69
559.14	50930.06
559.31	51042.40
559.47	51452.00
559.64	50637.49
559.80	50438.54
559.97	50459.61
560.13	51072.83
560.30	52062.88
560.46	52582.48
560.63	52807.17
560.79	53057.60
560.96	52374.17
561.12	50988.57
561.29	50012.57
561.45	50255.98
561.61	50843.46
561.78	51405.19
561.94	51400.50
562.11	51030.70
562.27	50780.26
562.44	51302.20
562.60	51571.36
562.77	51676.69
562.93	51826.48
563.10	51662.64
563.26	51138.36
563.42	51178.15
563.59	50651.53
563.75	50712.39
563.92	50637.49
564.08	50768.56
564.24	50892.61
564.41	51278.80
564.57	50623.45
564.74	50780.26
564.90	50604.72
565.07	50586.00
565.23	49705.96
565.39	49317.43
565.56	49420.41
565.72	48776.76
565.88	49134.87
566.05	49181.68
566.21	49720.00
566.38	49741.06
566.54	50113.21
566.70	50300.45
566.87	50501.74
567.03	50431.52
567.19	50782.60
567.36	50607.06
567.52	50258.32
567.68	49986.82
567.85	49148.91
568.01	48329.72
568.17	48341.42
568.34	48509.94
568.50	47999.71
568.66	48465.47
568.83	48809.53
568.99	49071.67
569.15	49106.78
569.32	49125.50
569.48	48877.41
569.64	48598.88
569.81	48275.89
569.97	48463.13
570.13	48002.05
570.30	47531.60
570.46	46967.53
570.62	46497.08
570.78	45787.90
570.95	46763.90
571.11	47564.37
571.27	47732.89
571.43	48039.50
571.60	48217.38
571.76	48720.59
571.92	48975.71
572.09	49158.27
572.25	48839.96
572.41	49088.06
572.57	48809.53
572.74	48500.58
572.90	48299.30
573.06	48549.73
573.22	48355.47
573.38	48271.21
573.55	48657.40
573.71	48580.16
573.87	48411.64
574.03	47995.03
574.20	48105.03
574.36	47459.04
574.52	47819.49
574.68	47281.16
574.84	46953.49
575.01	46218.56
575.17	46265.37
575.33	46225.58
575.49	47150.09
575.65	47147.75
575.82	46637.51
575.98	46775.61
576.14	47054.13
576.30	47026.04
576.46	47318.61
576.62	47452.02
576.79	47023.70
576.95	46735.82
577.11	46539.21
577.27	47107.96
577.43	46674.96
577.59	46417.50
577.75	45937.69
577.92	45029.57
578.08	44973.39
578.24	44842.32
578.40	45261.28
578.56	45860.46
578.72	45502.35
578.88	45687.26
579.04	45996.21
579.21	45956.42
579.37	45956.42
579.53	46391.76
579.69	45841.73
579.85	46593.04
580.01	46251.33
580.17	45670.87
580.33	45801.94
580.49	45841.73
580.65	45989.19
580.82	46529.85
580.98	46162.39
581.14	45890.88
581.30	46085.15
581.46	45944.72
581.62	46265.37
581.78	46157.70
581.94	46632.83
582.10	46504.10
582.26	46258.35
582.42	46246.65
582.58	46590.70
582.74	46422.19
582.90	46710.07
583.06	46349.63
583.22	46202.18
583.38	46169.41
583.54	45830.03
583.70	45818.33
583.86	45996.21
584.02	45942.38
584.18	45968.12
584.34	45804.28
584.50	45743.43
584.66	45598.32
584.82	44868.07
584.98	44882.11
585.14	44645.72
585.30	43496.52
