SpectraSuite Data File
++++++++++++++++++++++++++++++++++++
Date: Mon Oct 07 14:54:59 GMT-05:00 2013
User: price-jones
Dark Spectrum Present: No
Reference Spectrum Present: No
Number of Sampled Component Spectra: 1
Spectrometers: USB2+H05261
Integration Time (usec): 10000 (USB2+H05261)
Spectra Averaged: 1 (USB2+H05261)
Boxcar Smoothing: 0 (USB2+H05261)
Correct for Electrical Dark: No (USB2+H05261)
Strobe/Lamp Enabled: No (USB2+H05261)
Correct for Detector Non-linearity: No (USB2+H05261)
Correct for Stray Light: No (USB2+H05261)
Number of Pixels in Processed Spectrum: 2048
>>>>>Begin Processed Spectral Data<<<<<
365.73	0.00
365.92	0.00
366.12	0.00
366.32	0.00
366.52	0.00
366.72	0.00
366.91	0.00
367.11	0.00
367.31	0.00
367.51	0.00
367.70	0.00
367.90	0.00
368.10	0.00
368.30	0.00
368.49	0.00
368.69	0.00
368.89	0.00
369.09	0.00
369.28	0.00
369.48	0.00
369.68	0.00
369.87	0.00
370.07	0.00
370.27	0.00
370.47	0.00
370.66	866.00
370.86	1109.41
371.06	1053.24
371.25	1093.03
371.45	980.68
371.65	837.91
371.84	842.59
372.04	952.60
372.24	1011.11
372.44	1015.79
372.63	1121.12
372.83	887.06
373.03	802.80
373.22	732.59
373.42	819.19
373.62	1011.11
373.81	1013.45
374.01	917.49
374.21	863.66
374.40	760.67
374.60	968.98
374.79	1109.41
374.99	1240.48
375.19	1287.29
375.38	1254.53
375.58	1238.14
375.78	1294.32
375.97	1245.16
376.17	1324.74
376.37	1245.16
376.56	1324.74
376.76	1490.92
376.95	1509.65
377.15	1638.38
377.35	1703.91
377.54	1764.76
377.74	1771.79
377.93	1820.94
378.13	1636.03
378.33	1636.03
378.52	1511.99
378.72	1406.66
378.91	1385.60
379.11	1296.66
379.31	1315.38
379.50	1256.87
379.70	1451.13
379.89	1523.69
380.09	1519.01
380.28	1706.25
380.48	1713.27
380.68	1624.33
380.87	1540.07
381.07	1418.36
381.26	1359.85
381.46	1287.29
381.65	1259.21
381.85	1137.50
382.04	1093.03
382.24	978.34
382.43	985.37
382.63	1018.13
382.83	917.49
383.02	856.64
383.22	968.98
383.41	1029.84
383.61	1093.03
383.80	1256.87
384.00	1441.77
384.19	1680.50
384.39	1762.42
384.58	1703.91
384.78	1645.40
384.97	1593.90
385.17	1458.15
385.36	1511.99
385.56	1394.96
385.75	1497.94
385.95	1638.38
386.14	1764.76
386.34	1802.21
386.53	1596.25
386.72	1444.11
386.92	1549.43
387.11	1720.29
387.31	1659.44
387.50	1708.59
387.70	1600.93
387.89	1603.27
388.09	1703.91
388.28	1657.10
388.48	1757.74
388.67	1811.57
388.86	2047.97
389.06	2237.55
389.25	2314.79
389.45	2333.51
389.64	2324.15
389.84	2267.98
390.03	2284.36
390.22	2237.55
390.42	2370.96
390.61	2506.71
390.81	2614.38
391.00	2623.74
391.19	2546.50
391.39	2502.03
391.58	2326.49
391.78	2256.28
391.97	2169.68
392.16	1916.90
392.36	1671.14
392.55	1352.83
392.75	1064.94
392.94	835.57
393.13	889.40
393.33	1121.12
393.52	1509.65
393.71	1788.17
393.91	1968.39
394.10	2263.30
394.29	2382.67
394.49	2593.31
394.68	2745.45
394.88	2670.55
395.07	2864.82
395.26	2782.90
395.46	2785.24
395.65	2576.93
395.84	2209.47
396.04	1874.77
396.23	1413.68
396.42	1224.10
396.62	1245.16
396.81	1479.22
397.00	1921.58
397.19	2476.29
397.39	2906.95
397.58	3227.60
397.77	3267.39
397.97	3501.44
398.16	3536.55
398.35	3695.71
398.55	3859.54
398.74	3840.82
398.93	3967.21
399.12	3992.95
399.32	3866.56
399.51	3943.80
399.70	4212.96
399.90	4140.41
400.09	4112.32
400.28	4217.65
400.47	4252.75
400.67	4294.88
400.86	4339.35
401.05	4484.47
401.24	4287.86
401.44	4568.73
401.63	4542.98
401.82	4423.61
402.01	4390.84
402.21	4641.28
402.40	4432.97
402.59	4372.12
402.78	4194.24
402.97	4280.84
403.17	4404.89
403.36	4648.30
403.55	4702.14
403.74	4683.41
403.93	4388.50
404.13	4276.16
404.32	4215.30
404.51	4423.61
404.70	4716.18
404.89	4645.96
405.09	4667.03
405.28	4470.42
405.47	4596.81
405.66	4418.93
405.85	4245.73
406.05	4245.73
406.24	4390.84
406.43	4360.42
406.62	4498.51
406.81	4589.79
407.00	4507.87
407.20	4327.65
407.39	4482.13
407.58	4674.05
407.77	4652.98
407.96	4887.04
408.15	4973.64
408.34	4978.32
408.54	5184.29
408.73	5163.22
408.92	5205.35
409.11	4919.81
409.30	4746.61
409.49	4416.59
409.68	4067.85
409.87	4154.45
410.07	4432.97
410.26	4667.03
410.45	5036.83
410.64	5100.03
410.83	5338.76
411.02	5490.90
411.21	5460.47
411.40	5394.93
411.59	5741.33
411.78	5554.09
411.98	5631.33
412.17	5582.18
412.36	5296.63
412.55	5418.34
412.74	5179.61
412.93	5158.54
413.12	5399.62
413.31	5689.84
413.50	5781.12
413.69	5724.95
413.88	5563.45
414.07	5467.49
414.26	5638.35
414.45	5689.84
414.64	5809.21
414.83	5762.40
415.02	5776.44
415.22	5570.48
415.41	5902.83
415.60	6162.63
415.79	6380.30
415.98	6413.07
416.17	6347.53
416.36	6211.78
416.55	6125.18
416.74	5804.53
416.93	5696.86
417.12	5664.10
417.31	5933.26
417.50	5895.81
417.69	5989.43
417.88	6176.67
418.07	5928.58
418.26	5874.74
418.45	6050.28
418.64	6010.50
418.83	6504.35
419.02	6359.24
419.21	6139.23
419.39	5722.61
419.58	5561.11
419.77	5884.11
419.96	5944.96
420.15	6249.23
420.34	6586.27
420.53	6487.96
420.72	6665.85
420.91	6511.37
421.10	6548.82
421.29	6462.22
421.48	6499.67
421.67	6525.41
421.86	6338.17
422.05	5944.96
422.24	5364.51
422.43	5593.88
422.61	6354.55
422.80	6284.34
422.99	6146.25
423.18	6078.37
423.37	6164.97
423.56	6047.94
423.75	6155.61
423.94	6239.87
424.13	5781.12
424.32	5806.87
424.50	5977.73
424.69	6076.03
424.88	6050.28
425.07	6003.47
425.26	5956.66
425.45	5687.50
425.64	5865.38
425.83	6003.47
426.01	6253.91
426.20	6207.10
426.39	6094.76
426.58	5802.19
426.77	5401.96
426.96	5198.33
427.15	5350.46
427.33	5898.15
427.52	5987.09
427.71	6094.76
427.90	5731.97
428.09	5846.66
428.28	5575.16
428.46	5432.38
428.65	5462.81
428.84	5591.54
429.03	5523.66
429.22	5123.43
429.40	4978.32
429.59	4510.21
429.78	3918.06
429.97	4081.89
430.16	4007.00
430.34	4168.49
430.53	3992.95
430.72	4351.06
430.91	4858.95
431.10	6134.54
431.28	6597.97
431.47	6998.20
431.66	7152.68
431.85	6296.04
432.03	5689.84
432.22	5755.38
432.41	6122.84
432.60	6768.83
432.79	6832.02
432.97	6902.24
433.16	6579.25
433.35	5867.72
433.54	5418.34
433.72	5303.65
433.91	5584.52
434.10	6120.50
434.28	6450.52
434.47	6672.87
434.66	6595.63
434.85	6658.82
435.03	6731.38
435.22	6834.36
435.41	7045.01
435.59	7066.08
435.78	7234.60
435.97	7351.62
436.16	7208.85
436.34	7173.74
436.53	6967.77
436.72	7077.78
436.90	6579.25
437.09	6560.52
437.28	6672.87
437.46	6747.76
437.65	6782.87
437.84	6216.46
438.02	5827.93
438.21	5851.34
438.40	6286.68
438.58	6569.88
438.77	6675.21
438.96	6857.77
439.14	7466.31
439.33	7077.78
439.52	7136.29
439.70	7159.70
439.89	6846.07
440.08	7089.48
440.26	6850.75
440.45	7131.61
440.63	7716.75
440.82	7770.58
441.01	7791.64
441.19	7826.75
441.38	7896.97
441.57	8009.31
441.75	7990.59
441.94	8257.41
442.12	8212.94
442.31	8344.01
442.50	8458.70
442.68	8355.71
442.87	8025.70
443.05	7843.14
443.24	8393.16
443.43	8573.38
443.61	8489.12
443.80	8493.80
443.98	7943.78
444.17	8182.51
444.35	8627.21
444.54	8498.49
444.73	8489.12
444.91	8044.42
445.10	7826.75
445.28	7578.65
445.47	7283.75
445.65	7297.79
445.84	7590.36
446.02	7880.58
446.21	7936.76
446.39	8044.42
446.58	8299.54
446.77	8339.33
446.95	8329.97
447.14	8676.37
447.32	8910.42
447.51	8376.78
447.69	7915.69
447.88	7976.55
448.06	7943.78
448.25	8138.04
448.43	8264.43
448.62	8250.39
448.80	8070.17
448.99	8346.35
449.17	8215.28
449.36	8491.46
449.54	8648.28
449.73	8748.92
449.91	8985.32
450.10	9137.45
450.28	9090.64
450.46	9165.54
450.65	9226.39
450.83	8959.57
451.02	8753.60
451.20	8854.25
451.39	8819.14
451.57	8620.19
451.76	8617.85
451.94	8552.32
452.13	8395.50
452.31	8037.40
452.49	7906.33
452.68	7786.96
452.86	7978.89
453.05	8194.22
453.23	8344.01
453.42	8528.91
453.60	8835.52
453.78	8681.05
453.97	8542.96
454.15	8535.93
454.34	8175.49
454.52	8271.45
454.70	8255.07
454.89	8372.10
455.07	8475.08
455.26	8669.34
455.44	8795.73
455.62	8891.70
455.81	8905.74
455.99	8856.59
456.17	8814.46
456.36	8985.32
456.54	9015.74
456.73	9118.73
456.91	9104.68
457.09	9270.86
457.28	9277.88
457.46	8849.57
457.64	8779.35
457.83	8554.66
458.01	8329.97
458.19	8676.37
458.38	8627.21
458.56	8901.06
458.74	8762.97
458.93	8528.91
459.11	8903.40
459.29	9013.40
459.48	8908.08
459.66	8528.91
459.84	8564.02
460.03	8671.68
460.21	8884.67
460.39	9139.79
460.57	9001.70
460.76	9146.81
460.94	9179.58
461.12	8997.02
461.31	9029.79
461.49	9097.66
461.67	9184.26
461.85	9415.98
462.04	9418.32
462.22	9107.02
462.40	9034.47
462.59	9317.67
462.77	9362.14
462.95	9104.68
463.13	9259.16
463.32	8858.93
463.50	8966.59
463.68	8840.20
463.86	8744.24
464.05	8702.11
464.23	8519.55
464.41	8599.13
464.59	8702.11
464.78	8809.78
464.96	8936.17
465.14	8655.30
465.32	9097.66
465.50	9362.14
465.69	9170.22
465.87	8805.10
466.05	8636.58
466.23	8332.31
466.41	8201.24
466.60	8470.40
466.78	8564.02
466.96	8753.60
467.14	8835.52
467.32	8950.21
467.51	8877.65
467.69	8369.76
467.87	8383.80
468.05	8648.28
468.23	8791.05
468.41	8762.97
468.60	8765.31
468.78	8840.20
468.96	8676.37
469.14	8947.87
469.32	8889.35
469.50	8617.85
469.69	8358.05
469.87	8374.44
470.05	8444.65
470.23	8184.85
470.41	8353.37
470.59	8552.32
470.77	8681.05
470.95	8692.75
471.14	9025.11
471.32	8795.73
471.50	9465.13
471.68	9378.53
471.86	9514.28
472.04	9444.06
472.22	9696.84
472.40	9020.42
472.58	8891.70
472.77	8727.86
472.95	8938.51
473.13	9095.32
473.31	9011.06
473.49	8926.80
473.67	9373.85
473.85	9324.69
474.03	9607.90
474.21	9404.27
474.39	9490.87
474.57	9645.35
474.75	9446.40
474.93	9558.75
475.12	9191.28
475.30	9404.27
475.48	9565.77
475.66	9320.01
475.84	9404.27
476.02	9371.50
476.20	9404.27
476.38	9579.81
476.56	9914.51
476.74	9905.15
476.92	9659.39
477.10	9769.40
477.28	10195.37
477.46	10221.12
477.64	10326.44
477.82	10354.53
478.00	10532.41
478.18	10277.29
478.36	10296.02
478.54	9963.66
478.72	10038.56
478.90	10581.56
479.08	10782.85
479.26	10647.10
479.44	10773.49
479.62	10361.55
479.80	10619.01
479.98	10539.43
480.16	10780.51
480.34	10492.62
480.52	10789.87
480.70	10546.45
480.88	10773.49
481.06	11215.85
481.24	11019.24
481.41	11389.05
481.59	11489.69
481.77	11206.48
481.95	11239.25
482.13	11353.94
482.31	11447.56
482.49	11389.05
482.67	11375.00
482.85	11513.10
483.03	11510.75
483.21	11552.88
483.39	11309.47
483.57	11552.88
483.74	11559.91
483.92	11482.67
484.10	11396.07
484.28	11845.45
484.46	11796.30
484.64	11744.81
484.82	11468.62
485.00	11367.98
485.18	11080.10
485.35	10874.13
485.53	9753.01
485.71	9116.39
485.89	9298.95
486.07	9818.55
486.25	10501.98
486.43	11241.59
486.61	11131.59
486.78	11054.35
486.96	11206.48
487.14	11782.26
487.32	11960.14
487.50	12245.68
487.68	12414.20
487.85	12798.05
488.03	12369.73
488.21	12685.70
488.39	12290.15
488.57	12180.15
488.75	12325.26
488.92	12868.27
489.10	13743.63
489.28	13392.55
489.46	13687.45
489.64	13591.49
489.81	13612.56
489.99	13570.43
490.17	13460.42
490.35	13834.91
490.53	13432.33
490.70	13362.12
490.88	13715.54
491.06	13968.32
491.24	13647.66
491.41	13327.01
491.59	12500.80
491.77	12358.03
491.95	12865.92
492.13	13212.32
492.30	13619.58
492.48	14457.49
492.66	14574.52
492.84	14438.76
493.01	14148.54
493.19	13940.23
493.37	13727.24
493.54	13767.03
493.72	13996.40
493.90	14640.05
494.08	14527.71
494.25	14764.10
494.43	15257.95
494.61	15524.77
494.79	15197.10
494.96	15363.28
495.14	14579.20
495.32	14136.84
495.49	14174.28
495.67	15009.86
495.85	15166.67
496.02	15520.09
496.20	14930.28
496.38	14862.40
496.55	15183.06
496.73	14906.87
496.91	15461.58
497.09	15880.53
497.26	15466.26
497.44	15335.19
497.62	15122.20
497.79	14314.72
497.97	14265.57
498.14	14457.49
498.32	14518.34
498.50	14998.15
498.67	16004.58
498.85	15648.82
499.03	15272.00
499.20	15576.27
499.38	15379.66
499.56	15288.38
499.73	15164.33
499.91	15119.86
500.08	14930.28
500.26	14527.71
500.44	14771.12
500.61	14759.42
500.79	14527.71
500.97	14640.05
501.14	14270.25
501.32	14424.72
501.49	14696.22
501.67	14656.43
501.84	14972.41
502.02	14904.53
502.20	15042.62
502.37	14967.73
502.55	15040.28
502.72	15290.72
502.90	15735.42
503.07	15690.95
503.25	15190.08
503.43	14565.15
503.60	14097.05
503.78	13846.61
503.95	14148.54
504.13	14602.60
504.30	15403.07
504.48	15480.30
504.65	14867.08
504.83	15063.69
505.01	15704.99
505.18	15967.13
505.36	16105.23
505.53	16212.89
505.71	16177.78
505.88	16100.55
506.06	15885.22
506.23	15534.14
506.41	15311.78
506.58	15578.61
506.76	15302.42
506.93	15618.39
507.11	15147.95
507.28	15257.95
507.46	15077.73
507.63	14661.12
507.81	14693.88
507.98	15040.28
508.16	15365.62
508.33	15166.67
508.50	15660.52
508.68	15599.67
508.85	16173.10
509.03	15999.90
509.20	15875.85
509.38	15026.24
509.55	14810.91
509.73	15016.88
509.90	15367.96
510.08	15304.76
510.25	15136.24
510.42	14684.52
510.60	15396.04
510.77	15573.92
510.95	15913.30
511.12	15508.39
511.30	15899.26
511.47	16077.14
511.64	16102.89
511.82	15700.31
511.99	15049.64
512.17	14806.23
512.34	14984.11
512.51	14923.26
512.69	15049.64
512.86	15002.83
513.04	15374.98
513.21	15140.93
513.38	15002.83
513.56	14527.71
513.73	14214.07
513.90	14562.81
514.08	14382.59
514.25	14855.38
514.43	14839.00
514.60	15492.01
514.77	14831.97
514.95	15033.26
515.12	15068.37
515.29	14986.45
515.47	15023.90
515.64	15573.92
515.81	15501.37
515.99	14789.85
516.16	14169.60
516.33	13006.36
516.51	12035.03
516.68	12035.03
516.85	11634.80
517.03	11861.84
517.20	12996.99
517.37	14052.58
517.54	14532.39
517.72	14031.51
517.89	12512.50
518.06	12056.10
518.24	12313.56
518.41	13650.00
518.58	13951.93
518.75	14080.66
518.93	14604.94
519.10	14345.14
519.27	14644.73
519.45	14633.03
519.62	14469.19
519.79	14810.91
519.96	14888.15
520.14	14455.15
520.31	13937.89
520.48	13916.83
520.65	14387.27
520.83	14562.81
521.00	15159.65
521.17	14899.85
521.34	14541.75
521.52	14855.38
521.69	15206.46
521.86	15091.77
522.03	14803.89
522.20	14148.54
522.38	13965.98
522.55	13949.59
522.72	14024.49
522.89	14005.77
523.07	14590.90
523.24	15152.63
523.41	15070.71
523.58	15054.33
523.75	14946.66
523.92	15611.37
524.10	15124.54
524.27	14974.75
524.44	15035.60
524.61	14841.34
524.78	14593.24
524.96	14487.92
525.13	14773.46
525.30	14906.87
525.47	15066.03
525.64	15044.96
525.81	14260.88
525.98	13509.57
526.16	12713.79
526.33	12751.24
526.50	12556.97
526.67	12510.16
526.84	13036.78
527.01	13483.83
527.18	13767.03
527.36	14532.39
527.53	14813.25
527.70	14492.60
527.87	14263.22
528.04	14104.07
528.21	14298.33
528.38	15187.74
528.55	15002.83
528.72	14846.02
528.89	14977.09
529.07	14803.89
529.24	14607.28
529.41	13991.72
529.58	14073.64
529.75	14094.71
529.92	14637.71
530.09	14331.10
530.26	14820.27
530.43	14602.60
530.60	14609.62
530.77	15023.90
530.94	14623.67
531.11	14258.54
531.28	14476.21
531.46	14239.82
531.63	14331.10
531.80	14408.34
531.97	14193.01
532.14	13523.62
532.31	13006.36
532.48	12549.95
532.65	13224.03
532.82	13535.32
532.99	14059.60
533.16	13975.34
533.33	14267.91
533.50	14068.96
533.67	13516.59
533.84	13448.72
534.01	13781.07
534.18	13785.76
534.35	13743.63
534.52	13830.23
534.69	13982.36
534.86	14494.94
535.03	14555.79
535.20	14286.63
535.37	14197.69
535.54	14593.24
535.71	14527.71
535.88	14485.58
536.05	14242.16
536.22	14141.52
536.38	13652.34
536.55	13378.50
536.72	13390.20
536.89	13366.80
537.06	13317.65
537.23	13467.44
537.40	13785.76
537.57	13980.02
537.74	13434.68
537.91	13853.63
538.08	13940.23
538.25	14019.81
538.42	13743.63
538.59	13469.78
538.75	13462.76
538.92	13238.07
539.09	12671.66
539.26	12786.35
539.43	12636.55
539.60	12683.36
539.77	12571.02
539.94	12699.75
540.11	12629.53
540.28	12308.88
540.44	12486.76
540.61	12533.57
540.78	12746.56
540.95	13179.56
541.12	12961.89
541.29	13329.35
541.46	13123.38
541.62	13081.25
541.79	12837.84
541.96	12737.20
542.13	12964.23
542.30	12940.82
542.47	13004.02
542.63	12601.44
542.80	12603.78
542.97	12547.61
543.14	12716.13
543.31	12409.52
543.48	12765.28
543.64	13413.61
543.81	13373.82
543.98	13254.45
544.15	12910.40
544.32	12638.89
544.48	13104.66
544.65	12901.03
544.82	12982.95
544.99	12896.35
545.16	12758.26
545.32	12795.71
545.49	12863.58
545.66	13198.28
545.83	13397.23
546.00	12966.57
546.16	12919.76
546.33	12908.05
546.50	12924.44
546.67	13130.41
546.83	13156.15
547.00	12725.49
547.17	12552.29
547.34	12470.37
547.50	12283.13
547.67	12482.08
547.84	12542.93
548.00	12748.90
548.17	12617.83
548.34	12573.36
548.51	12587.40
548.67	13020.40
548.84	12908.05
549.01	13008.70
549.18	12758.26
549.34	12713.79
549.51	12358.03
549.68	12699.75
549.84	12650.60
550.01	12725.49
550.18	12571.02
550.34	12388.46
550.51	12170.79
550.68	12329.94
550.84	12304.20
551.01	12402.50
551.18	12461.01
551.34	12245.68
551.51	12215.26
551.68	12901.03
551.84	12655.28
552.01	12341.64
552.18	11997.59
552.34	11887.58
552.51	11791.62
552.68	11920.35
552.84	12032.69
553.01	12105.25
553.18	12238.66
553.34	12456.33
553.51	12063.12
553.67	11988.22
553.84	12163.76
554.01	12133.34
554.17	12238.66
554.34	12334.62
554.51	12386.12
554.67	12444.63
554.84	12236.32
555.00	12395.48
555.17	12638.89
555.33	12395.48
555.50	12531.23
555.67	12198.87
555.83	12203.55
556.00	11761.19
556.16	11667.57
556.33	11662.89
556.50	11747.15
556.66	11173.72
556.83	11297.77
556.99	11592.67
557.16	11435.86
557.32	11803.32
557.49	12002.27
557.65	11676.93
557.82	11564.59
557.98	11520.12
558.15	11693.32
558.32	10998.18
558.48	10963.07
558.65	10850.72
558.81	11000.52
558.98	10970.09
559.14	11197.12
559.31	11384.37
559.47	11089.46
559.64	10965.41
559.80	10778.17
559.97	11136.27
560.13	11417.13
560.30	11784.60
560.46	12051.42
560.63	12233.98
560.79	11824.39
560.96	11520.12
561.12	11197.12
561.29	10855.40
561.45	10977.11
561.61	10960.73
561.78	11052.01
561.94	10925.62
562.11	10995.84
562.27	11232.23
562.44	11485.01
562.60	11487.35
562.77	11407.77
562.93	11229.89
563.10	11265.00
563.26	10951.37
563.42	10759.44
563.59	10876.47
563.75	10942.00
563.92	11176.06
564.08	10956.05
564.24	10799.23
564.41	10817.96
564.57	10822.64
564.74	10813.28
564.90	10998.18
565.07	10909.24
565.23	10525.39
565.39	10483.26
565.56	10422.41
565.72	10281.97
565.88	10626.03
566.05	10480.92
566.21	10274.95
566.38	10406.02
566.54	10628.37
566.70	10476.24
566.87	10546.45
567.03	10942.00
567.19	11047.33
567.36	10565.18
567.52	10799.23
567.68	10485.60
567.85	10359.21
568.01	10193.03
568.17	10026.86
568.34	9792.80
568.50	10090.05
568.66	10031.54
568.83	10127.50
568.99	10310.06
569.15	10040.90
569.32	10148.56
569.48	10448.15
569.64	10155.58
569.81	10012.81
569.97	10036.22
570.13	10085.37
570.30	9811.53
570.46	9834.93
570.62	9320.01
570.78	9380.87
570.95	9432.36
571.11	9750.67
571.27	9914.51
571.43	10106.43
571.60	9884.08
571.76	10176.65
571.92	9741.31
572.09	10174.31
572.25	9982.38
572.41	10422.41
572.57	9888.76
572.74	9781.10
572.90	9572.79
573.06	9863.02
573.22	10073.67
573.38	10356.87
573.55	10061.96
573.71	10003.45
573.87	9856.00
574.03	9930.89
574.20	9776.42
574.36	9514.28
574.52	9530.66
574.68	9720.24
574.84	9303.63
575.01	9327.03
575.17	9041.49
575.33	9188.94
575.49	9270.86
575.65	9210.01
575.82	9165.54
575.98	9383.21
576.14	9322.35
576.30	9338.74
576.46	9312.99
576.62	9350.44
576.79	9518.96
576.95	9525.98
577.11	9298.95
577.27	9242.78
577.43	9296.61
577.59	9315.33
577.75	9366.82
577.92	9081.28
578.08	9046.17
578.24	8961.91
578.40	8887.01
578.56	8769.99
578.72	8634.24
578.88	9032.13
579.04	9114.05
579.21	9238.09
579.37	9015.74
579.53	9151.49
579.69	9011.06
579.85	8730.20
580.01	9013.40
580.17	8877.65
580.33	9057.87
580.49	9132.77
580.65	8968.93
580.82	9104.68
580.98	9109.36
581.14	8940.85
581.30	9144.47
581.46	9158.52
581.62	9329.38
581.78	9479.17
581.94	9408.95
582.10	9214.69
582.26	9221.71
582.42	9013.40
582.58	9392.57
582.74	9518.96
582.90	9242.78
583.06	9411.29
583.22	9479.17
583.38	9076.60
583.54	9085.96
583.70	9064.89
583.86	9174.90
584.02	9235.75
584.18	9170.22
584.34	9142.13
584.50	9415.98
584.66	9303.63
584.82	8865.95
584.98	8732.54
585.14	8744.24
585.30	8568.70
585.46	8423.59
585.62	8430.61
585.78	8652.96
585.94	8622.53
586.10	8599.13
586.26	8908.08
586.42	9034.47
586.58	8622.53
586.74	8545.30
586.90	8720.84
587.06	8566.36
587.22	8257.41
587.38	8444.65
587.54	8189.53
587.70	8435.29
587.86	8381.46
588.02	8332.31
588.18	8077.19
588.34	7819.73
588.49	7396.09
588.65	6998.20
588.81	7101.19
588.97	7194.81
589.13	7157.36
589.29	7138.63
589.45	7410.14
589.61	7550.57
589.77	7679.30
589.93	7988.25
590.08	7983.57
590.24	8142.72
590.40	7990.59
590.56	8114.64
590.72	8072.51
590.88	7920.37
591.04	7864.20
