SpectraSuite Data File
++++++++++++++++++++++++++++++++++++
Date: Mon Oct 07 14:53:49 GMT-05:00 2013
User: price-jones
Dark Spectrum Present: No
Reference Spectrum Present: No
Number of Sampled Component Spectra: 1
Spectrometers: USB2+H05261
Integration Time (usec): 100000 (USB2+H05261)
Spectra Averaged: 1 (USB2+H05261)
Boxcar Smoothing: 0 (USB2+H05261)
Correct for Electrical Dark: No (USB2+H05261)
Strobe/Lamp Enabled: No (USB2+H05261)
Correct for Detector Non-linearity: No (USB2+H05261)
Correct for Stray Light: No (USB2+H05261)
Number of Pixels in Processed Spectrum: 2048
>>>>>Begin Processed Spectral Data<<<<<
365.73	0.00
365.92	0.00
366.12	0.00
366.32	0.00
366.52	0.00
366.72	0.00
366.91	0.00
367.11	0.00
367.31	0.00
367.51	0.00
367.70	0.00
367.90	0.00
368.10	0.00
368.30	0.00
368.49	0.00
368.69	0.00
368.89	0.00
369.09	0.00
369.28	0.00
369.48	0.00
369.68	0.00
369.87	0.00
370.07	0.00
370.27	0.00
370.47	531.30
370.66	2958.44
370.86	3459.31
371.06	3646.55
371.25	3779.97
371.45	3574.00
371.65	3073.12
371.84	2906.95
372.04	3021.63
372.24	3363.35
372.44	3508.46
372.63	3419.52
372.83	3234.62
373.03	2885.88
373.22	2729.06
373.42	2787.58
373.62	3152.70
373.81	3349.31
374.01	3581.02
374.21	3152.70
374.40	2846.09
374.60	3101.21
374.79	3325.90
374.99	4023.38
375.19	4259.78
375.38	4252.75
375.58	4053.81
375.78	3784.65
375.97	3955.51
376.17	4325.31
376.37	4112.32
376.56	4304.25
376.76	4411.91
376.95	4732.56
377.15	5046.20
377.35	5408.98
377.54	5509.62
377.74	5631.33
377.93	5687.50
378.13	5563.45
378.33	5266.21
378.52	4863.63
378.72	4636.60
378.91	4578.09
379.11	4461.06
379.31	4159.13
379.50	4271.48
379.70	4531.28
379.89	5032.15
380.09	5266.21
380.28	5675.80
380.48	5467.49
380.68	5528.35
380.87	5371.53
381.07	4938.53
381.26	4662.35
381.46	4283.18
381.65	4166.15
381.85	3955.51
382.04	3817.41
382.24	3559.95
382.43	3452.29
382.63	3225.26
382.83	3435.91
383.02	3206.53
383.22	3449.95
383.41	3400.80
383.61	3536.55
383.80	4121.68
384.00	4685.75
384.19	5179.61
384.39	5542.39
384.58	5530.69
384.78	5371.53
384.97	5371.53
385.17	5109.39
385.36	4898.74
385.56	4596.81
385.75	4760.65
385.95	5291.95
386.14	5727.29
386.34	5799.85
386.53	5408.98
386.72	5238.12
386.92	5078.96
387.11	5301.31
387.31	5790.49
387.50	5636.01
387.70	5392.59
387.89	5376.21
388.09	5518.98
388.28	5659.42
388.48	5476.85
388.67	6005.81
388.86	6523.07
389.06	6937.35
389.25	7316.51
389.45	7487.37
389.64	7309.49
389.84	7239.28
390.03	7143.32
390.22	7183.10
390.42	7321.20
390.61	7868.88
390.81	8421.25
391.00	8552.32
391.19	8575.72
391.39	8360.39
391.58	7801.01
391.78	7318.86
391.97	7082.46
392.16	6703.29
392.36	6092.41
392.55	5111.73
392.75	3838.48
392.94	3157.38
393.13	3077.80
393.33	3651.24
393.52	4746.61
393.71	5678.14
393.91	6525.41
394.10	7049.69
394.29	7824.41
394.49	8269.11
394.68	8968.93
394.88	8847.22
395.07	9259.16
395.26	9118.73
395.46	8994.68
395.65	8535.93
395.84	7655.89
396.04	6303.06
396.23	5144.50
396.42	4320.63
396.62	4021.04
396.81	4807.46
397.00	6052.63
397.19	7611.42
397.39	9039.15
397.58	10209.42
397.77	10862.43
397.97	11302.45
398.16	11309.47
398.35	11784.60
398.55	12084.19
398.74	12535.91
398.93	12732.51
399.12	12552.29
399.32	12084.19
399.51	12477.40
399.70	13280.20
399.90	13153.81
400.09	13137.43
400.28	13081.25
400.47	13160.83
400.67	13680.43
400.86	13998.74
401.05	14101.73
401.24	14319.40
401.44	14651.75
401.63	14401.32
401.82	14476.21
402.01	14698.56
402.21	14963.04
402.40	14834.32
402.59	14431.74
402.78	13743.63
402.97	13448.72
403.17	13790.44
403.36	14532.39
403.55	15012.20
403.74	15552.86
403.93	14607.28
404.13	13724.90
404.32	13331.69
404.51	14005.77
404.70	15054.33
404.89	15150.29
405.09	14710.27
405.28	14462.17
405.47	14387.27
405.66	14029.17
405.85	14281.95
406.05	13895.76
406.24	13708.52
406.43	14494.94
406.62	14860.06
406.81	15056.67
407.00	14267.91
407.20	13928.53
407.39	14146.20
407.58	14799.21
407.77	15468.60
407.96	16084.16
408.15	16248.00
408.34	16290.13
408.54	16856.54
408.73	17195.92
408.92	16912.71
409.11	16163.74
409.30	15470.94
409.49	14740.69
409.68	13657.03
409.87	13509.57
410.07	13788.10
410.26	15309.44
410.45	16547.59
410.64	16547.59
410.83	16863.56
411.02	17273.15
411.21	17994.04
411.40	18085.32
411.59	18061.91
411.78	17628.92
411.98	17589.13
412.17	18230.43
412.36	17476.78
412.55	17792.75
412.74	17315.28
412.93	16802.71
413.12	16847.18
413.31	18665.77
413.50	18724.29
413.69	19152.60
413.88	18197.67
414.07	17771.69
414.26	17912.12
414.45	18712.58
414.64	18970.04
414.83	18693.86
415.02	18773.44
415.22	18445.76
415.41	18654.07
415.60	19367.93
415.79	20245.63
415.98	20702.04
416.17	20872.90
416.36	20191.80
416.55	19833.70
416.74	19353.89
416.93	18686.84
417.12	18754.71
417.31	19314.10
417.50	19384.32
417.69	20084.14
417.88	20123.93
418.07	19520.07
418.26	19356.23
418.45	19527.09
418.64	20030.30
418.83	20964.18
419.02	20702.04
419.21	20587.35
419.39	19566.88
419.58	18515.98
419.77	18551.09
419.96	19278.99
420.15	20737.15
420.34	21071.84
420.53	21600.80
420.72	22274.88
420.91	22176.58
421.10	21755.28
421.29	21640.59
421.48	20961.84
421.67	21984.65
421.86	21378.45
422.05	20126.27
422.24	17649.98
422.43	17565.72
422.61	19562.20
422.80	21448.67
422.99	20964.18
423.18	20477.35
423.37	19910.94
423.56	20077.12
423.75	20388.41
423.94	20889.28
424.13	19836.04
424.32	19831.36
424.50	19875.83
424.69	19695.61
424.88	19583.26
425.07	19618.37
425.26	19578.58
425.45	19384.32
425.64	18948.98
425.83	18979.40
426.01	20322.87
426.20	20772.25
426.39	20549.90
426.58	19051.96
426.77	17816.16
426.96	17032.08
427.15	17657.00
427.33	19405.38
427.52	20034.99
427.71	20030.30
427.90	19726.04
428.09	19648.80
428.28	19126.86
428.46	18415.34
428.65	18270.22
428.84	18614.28
429.03	19112.81
429.22	17851.27
429.40	17249.75
429.59	15393.70
429.78	13523.62
429.97	13626.60
430.16	13949.59
430.34	13898.10
430.53	13912.14
430.72	14340.46
430.91	15768.19
431.10	18457.46
431.28	21664.00
431.47	23433.44
431.66	23969.43
431.85	22015.08
432.03	19875.83
432.22	18843.65
432.41	19798.59
432.60	22317.01
432.79	22792.14
432.97	23452.17
433.16	23012.15
433.35	21062.48
433.54	18904.51
433.72	17947.23
433.91	17942.55
434.10	20283.08
434.28	21455.69
434.47	23026.19
434.66	22522.98
434.85	21933.16
435.03	21561.02
435.22	22429.35
435.41	23838.36
435.59	23906.23
435.78	24203.48
435.97	24783.93
436.16	24952.45
436.34	24577.97
436.53	23880.49
436.72	23999.85
436.90	22710.22
437.09	22576.81
437.28	22050.19
437.46	23239.18
437.65	22960.66
437.84	21649.96
438.02	19953.07
438.21	19613.69
438.40	20697.36
438.58	22597.87
438.77	23002.78
438.96	23388.97
439.14	24376.68
439.33	24814.36
439.52	25223.95
439.70	24886.92
439.89	23992.83
440.08	23480.25
440.26	23407.70
440.45	24201.14
440.63	25542.27
440.82	27058.93
441.01	26794.45
441.19	26328.69
441.38	26717.22
441.57	27733.01
441.75	28114.52
441.94	28641.14
442.12	28315.80
442.31	28882.21
442.50	28732.42
442.68	28489.00
442.87	27929.61
443.05	27889.82
443.24	27803.22
443.43	28161.33
443.61	29010.94
443.80	29429.90
443.98	27943.66
444.17	27845.35
444.35	29689.70
444.54	29687.36
444.73	29720.12
444.91	28259.63
445.10	26984.04
445.28	25855.90
445.47	25582.06
445.65	25560.99
445.84	26553.38
446.02	27644.07
446.21	28095.79
446.39	27850.03
446.58	28704.33
446.77	28823.70
446.95	29476.71
447.14	29940.13
447.32	29820.77
447.51	29436.92
447.69	28566.24
447.88	28187.07
448.06	28402.40
448.25	29020.30
448.43	29699.06
448.62	28500.70
448.80	28999.24
448.99	29017.96
449.17	29074.13
449.36	29219.25
449.54	30106.31
449.73	30593.14
449.91	31079.97
450.10	31758.73
450.28	32556.85
450.46	31807.88
450.65	32554.51
450.83	31676.81
451.02	31466.16
451.20	31276.58
451.39	31007.42
451.57	30944.22
451.76	30724.21
451.94	30192.91
452.13	30286.53
452.31	28657.52
452.49	27358.52
452.68	27847.69
452.86	27803.22
453.05	28500.70
453.23	29003.92
453.42	29490.75
453.60	30373.13
453.78	30661.02
453.97	30314.62
454.15	30295.89
454.34	29696.72
454.52	29764.59
454.70	29249.67
454.89	29603.10
455.07	29855.87
455.26	29996.31
455.44	31358.50
455.62	31775.11
455.81	32060.66
455.99	32006.83
456.17	31524.68
456.36	31208.70
456.54	32112.15
456.73	32395.35
456.91	32800.27
457.09	33137.30
457.28	33759.89
457.46	32395.35
457.64	32383.65
457.83	31393.61
458.01	30284.19
458.19	31346.79
458.38	31089.34
458.56	32500.68
458.74	32383.65
458.93	31695.53
459.11	31515.31
459.29	31417.01
459.48	31798.52
459.66	31414.67
459.84	31821.92
460.03	32161.30
460.21	31988.10
460.39	32697.28
460.57	33193.48
460.76	33434.55
460.94	33242.63
461.12	32968.79
461.31	33050.70
461.49	33181.77
461.67	33170.07
461.85	33738.82
462.04	34092.24
462.22	33631.16
462.40	34054.79
462.59	33858.19
462.77	33626.48
462.95	33710.74
463.13	33371.36
463.32	33024.96
463.50	32985.17
463.68	32821.33
463.86	32938.36
464.05	32512.38
464.23	32088.74
464.41	31974.06
464.59	30958.27
464.78	32748.78
464.96	32514.72
465.14	32378.97
465.32	33418.17
465.50	33883.94
465.69	34075.86
465.87	33326.89
466.05	32587.28
466.23	31278.92
466.41	30572.08
466.60	31185.30
466.78	31197.00
466.96	32233.86
467.14	32348.54
467.32	33099.86
467.51	33008.58
467.69	31730.64
467.87	32259.60
468.05	32687.92
468.23	32556.85
468.41	32620.05
468.60	33179.43
468.78	33369.02
468.96	32905.59
469.14	33317.53
469.32	33586.69
469.50	32222.16
469.69	32184.71
469.87	31754.05
470.05	31892.14
470.23	31709.58
470.41	31630.00
470.59	31871.07
470.77	32531.11
470.95	33502.43
471.14	33523.49
471.32	33104.54
471.50	35377.20
471.68	35405.28
471.86	35672.10
472.04	35805.52
472.22	36182.34
472.40	34307.57
472.58	33912.02
472.77	33071.77
472.95	34492.47
473.13	35302.30
473.31	34387.15
473.49	34110.97
473.67	35222.72
473.85	35381.88
474.03	36435.12
474.21	35889.77
474.39	36460.87
474.57	36470.23
474.75	36432.78
474.93	36395.33
475.12	35545.72
475.30	35395.92
475.48	35826.58
475.66	36442.14
475.84	35768.07
476.02	35651.04
476.20	35021.44
476.38	35618.27
476.56	36964.08
476.74	37387.72
476.92	37212.18
477.10	37982.21
477.28	38916.09
477.46	39225.04
477.64	39683.78
477.82	39763.36
478.00	39702.51
478.18	39414.62
478.36	39030.77
478.54	39304.62
478.72	39548.03
478.90	39775.06
479.08	41450.89
479.26	41748.14
479.44	41596.00
479.62	41481.31
479.80	41216.83
479.98	42099.22
480.16	41811.33
480.34	41184.07
480.52	42190.50
480.70	41872.18
480.88	41839.42
481.06	42632.86
481.24	43180.54
481.41	44449.11
481.59	44376.56
481.77	44465.50
481.95	43784.40
482.13	43533.96
482.31	43611.20
482.49	44449.11
482.67	44292.30
482.85	44449.11
483.03	44994.46
483.21	45654.49
483.39	45394.69
483.57	44603.59
483.74	44414.01
483.92	44985.10
484.10	44809.56
484.28	45738.75
484.46	45968.12
484.64	46780.29
484.82	45539.80
485.00	45237.87
485.18	44538.05
485.35	43423.96
485.53	40109.76
485.71	36854.08
485.89	36144.89
486.07	37596.03
486.25	41113.85
486.43	43430.98
486.61	44039.52
486.78	44004.41
486.96	44018.46
487.14	45944.72
487.32	46845.82
487.50	48240.78
487.68	48720.59
487.85	49457.86
488.03	49593.61
488.21	49038.90
488.39	48238.44
488.57	47533.94
488.75	47136.05
488.92	48334.40
489.10	50405.78
489.28	51817.12
489.46	52491.19
489.64	52388.21
489.81	52573.11
489.99	52435.02
490.17	52294.59
490.35	52846.96
490.53	52236.08
490.70	51959.89
490.88	51503.49
491.06	52804.83
491.24	52460.77
491.41	51721.16
491.59	50113.21
491.77	49111.46
491.95	50504.08
492.13	51524.55
492.30	53001.43
492.48	53537.41
492.66	54253.62
492.84	54176.38
493.01	54033.61
493.19	53425.07
493.37	52961.64
493.54	52816.53
493.72	53013.13
493.90	54284.04
494.08	55105.57
494.25	55554.96
494.43	55384.10
494.61	55861.57
494.79	56016.04
494.96	55891.99
495.14	55332.60
495.32	54309.79
495.49	53584.22
495.67	54693.64
495.85	56090.94
496.02	56402.23
496.20	56332.01
496.38	55793.69
496.55	55554.96
496.73	56128.39
496.91	56261.80
497.09	56900.76
497.26	56975.66
497.44	56481.81
497.62	55962.21
497.79	55388.78
497.97	54148.29
498.14	54040.63
498.32	55051.74
498.50	56175.20
498.67	56868.00
498.85	56584.79
499.03	56739.27
499.20	57174.61
499.38	57003.75
499.56	56722.88
499.73	56339.04
499.91	55987.95
500.08	55505.80
500.26	54827.05
500.44	55180.47
500.61	56060.51
500.79	55580.70
500.97	55517.51
501.14	55131.32
501.32	55072.81
501.49	55065.78
501.67	55475.38
501.84	55847.52
502.02	56289.88
502.20	56430.32
502.37	56416.27
502.55	56435.00
502.72	57233.12
502.90	57546.75
503.07	57214.40
503.25	56931.19
503.43	55948.17
503.60	55437.93
503.78	54780.24
503.95	55152.38
504.13	56690.12
504.30	57254.18
504.48	57275.25
504.65	56779.06
504.83	56783.74
505.01	57347.81
505.18	57731.65
505.36	58328.49
505.53	58321.47
505.71	58656.17
505.88	58660.85
506.06	58049.97
506.23	57738.68
506.41	57471.85
506.58	57602.92
506.76	57696.55
506.93	57811.23
507.11	57214.40
507.28	57492.92
507.46	57052.90
507.63	56334.35
507.81	56287.54
507.98	56624.58
508.16	57127.80
508.33	57851.02
508.50	58082.73
508.68	58281.68
508.85	58735.74
509.03	58592.97
509.20	58649.14
509.38	57808.89
509.55	57221.42
509.73	57223.76
509.90	57794.85
510.08	58052.31
510.25	58152.95
510.42	57677.82
510.60	57712.93
510.77	58085.07
510.95	58738.08
511.12	58569.57
511.30	58962.78
511.47	59112.57
511.64	59112.57
511.82	58705.32
511.99	57895.49
512.17	57733.99
512.34	57282.27
512.51	57429.72
512.69	57439.09
512.86	57841.66
513.04	58124.86
513.21	58120.18
513.38	57951.66
513.56	57375.89
513.73	56624.58
513.90	57041.20
514.08	56882.04
514.25	57071.62
514.43	57598.24
514.60	57628.67
514.77	57502.28
514.95	57691.86
515.12	57764.42
515.29	58066.35
515.47	58382.32
515.64	58513.39
515.81	58241.89
515.99	57490.58
516.16	56348.40
516.33	54162.34
516.51	52341.40
516.68	51512.85
516.85	51316.25
517.03	51650.94
517.20	54279.36
517.37	56690.12
517.54	57895.49
517.72	57460.15
517.89	54869.18
518.06	52523.96
518.24	52832.91
518.41	54995.57
518.58	56219.67
518.75	56589.47
518.93	56924.17
519.10	56727.56
519.27	57099.71
519.45	57518.67
519.62	57968.05
519.79	58277.00
519.96	58206.78
520.14	57619.31
520.31	56797.78
520.48	56814.16
520.65	57073.96
520.83	58042.95
521.00	58571.91
521.17	58178.70
521.34	57481.22
521.52	57982.09
521.69	58684.25
521.86	59187.47
522.03	58688.93
522.20	57528.03
522.38	56643.30
522.55	56488.83
522.72	57095.03
522.89	57378.23
523.07	57631.01
523.24	57977.41
523.41	58464.24
523.58	58810.64
523.75	59292.79
523.92	59107.89
524.10	59217.89
524.27	59068.10
524.44	58958.09
524.61	58635.10
524.78	58702.98
524.96	58609.35
525.13	58450.20
525.30	58749.79
525.47	59105.55
525.64	59004.91
525.81	58506.37
525.98	57160.56
526.16	55576.02
526.33	54777.90
526.50	54600.02
526.67	54106.16
526.84	54857.48
527.01	55714.11
527.18	56673.73
527.36	57586.54
527.53	58525.10
527.70	58527.44
527.87	57853.36
528.04	57478.88
528.21	58148.27
528.38	58705.32
528.55	59494.08
528.72	59358.33
528.89	59746.86
529.07	59543.23
529.24	58803.62
529.41	58241.89
529.58	57375.89
529.75	57631.01
529.92	57949.32
530.09	58667.87
530.26	59018.95
530.43	59255.34
530.60	59348.96
530.77	59416.84
530.94	59568.97
531.11	59208.53
531.28	58721.70
531.46	58656.17
531.63	58784.90
531.80	58525.10
531.97	58131.89
532.14	57469.51
532.31	56491.17
532.48	55826.46
532.65	56079.24
532.82	56975.66
532.99	57822.93
533.16	58286.36
533.33	58887.88
533.50	58567.23
533.67	57731.65
533.84	57392.28
534.01	57712.93
534.18	57909.53
534.35	58152.95
534.52	57879.11
534.69	58468.92
534.86	58468.92
535.03	58532.12
535.20	59154.70
535.37	59512.80
535.54	59559.61
535.71	59126.61
535.88	58763.83
536.05	58061.67
536.22	57958.69
536.38	57474.20
536.55	57359.51
536.72	56589.47
536.89	56369.46
537.06	57605.26
537.23	58464.24
537.40	58585.95
537.57	58504.03
537.74	58291.04
537.91	58089.76
538.08	58166.99
538.25	58288.70
538.42	58513.39
538.59	58396.37
538.75	57647.39
538.92	57418.02
539.09	57296.31
539.26	56896.08
539.43	56809.48
539.60	56877.36
539.77	57141.84
539.94	57092.69
540.11	56397.55
540.28	55650.92
540.44	55760.92
540.61	56104.98
540.78	55908.38
540.95	56882.04
541.12	57083.33
541.29	57198.01
541.46	57521.01
541.62	57783.15
541.79	57460.15
541.96	57125.46
542.13	56853.95
542.30	57195.67
542.47	57329.08
542.63	57212.06
542.80	57116.09
542.97	56903.10
543.14	56779.06
543.31	57050.56
543.48	57532.71
543.64	58265.30
543.81	58557.86
543.98	58244.23
544.15	57848.68
544.32	57071.62
544.48	57036.51
544.65	57759.74
544.82	57626.33
544.99	57605.26
545.16	57420.36
545.32	57155.88
545.49	57792.51
545.66	58230.19
545.83	57853.36
546.00	57373.55
546.16	56999.07
546.33	57059.92
546.50	57214.40
546.67	57485.90
546.83	57050.56
547.00	57509.30
547.17	56619.90
547.34	55994.98
547.50	55889.65
547.67	56479.47
547.84	56823.53
548.00	56856.29
548.17	57558.45
548.34	57064.60
548.51	57031.83
548.67	57375.89
548.84	57256.53
549.01	57228.44
549.18	57202.69
549.34	57027.15
549.51	56945.23
549.68	56928.85
549.84	56933.53
550.01	56743.95
550.18	56502.87
550.34	56650.33
550.51	56718.20
550.68	56774.37
550.84	56212.65
551.01	56357.76
551.18	56399.89
551.34	56605.86
551.51	56961.62
551.68	57069.28
551.84	57223.76
552.01	56945.23
552.18	56816.50
552.34	56016.04
552.51	55744.54
552.68	55519.85
552.84	56044.13
553.01	56348.40
553.18	56315.63
553.34	56472.45
553.51	56449.04
553.67	56905.44
553.84	56966.30
554.01	56743.95
554.17	56750.97
554.34	56760.33
554.51	56886.72
554.67	56985.02
554.84	56891.40
555.00	56605.86
555.17	56425.64
555.33	56137.75
555.50	56257.12
555.67	56470.11
555.83	56222.01
556.00	55952.85
556.16	55859.23
556.33	55449.63
556.50	55255.37
556.66	55157.06
556.83	55182.81
556.99	55173.45
557.16	55346.65
557.32	55753.90
557.49	55636.87
557.65	55856.88
557.82	55627.51
557.98	55412.18
558.15	55236.64
558.32	54234.89
558.48	53652.10
558.65	53748.06
558.81	53972.75
558.98	54597.68
559.14	54443.20
559.31	54560.23
559.47	54595.34
559.64	54504.06
559.80	53804.24
559.97	53921.26
560.13	54487.67
560.30	55367.71
560.46	55915.40
560.63	55992.64
560.79	56100.30
560.96	55491.76
561.12	54698.32
561.29	53432.09
561.45	53766.79
561.61	54251.28
561.78	54522.78
561.94	54443.20
562.11	54450.22
562.27	54391.71
562.44	54583.63
562.60	54953.44
562.77	55323.24
562.93	55234.30
563.10	55051.74
563.26	54319.15
563.42	54080.42
563.59	54106.16
563.75	54068.72
563.92	54162.34
564.08	54293.41
564.24	54644.49
564.41	54735.77
564.57	54562.57
564.74	54190.42
564.90	54085.10
565.07	54073.40
565.23	53481.24
565.39	52954.62
565.56	52610.56
565.72	52315.65
565.88	52914.83
566.05	52947.60
566.21	53371.24
566.38	53506.99
566.54	53734.02
566.70	53755.08
566.87	54384.69
567.03	54127.23
567.19	54330.86
567.36	54143.61
567.52	53832.32
567.68	53858.07
567.85	53137.18
568.01	52495.88
568.17	52439.70
568.34	52477.15
568.50	52037.13
568.66	52624.60
568.83	52907.81
568.99	52853.98
569.15	52928.87
569.32	53144.20
569.48	52626.95
569.64	52704.18
569.81	52189.27
569.97	51941.17
570.13	51913.08
570.30	51339.65
570.46	51065.81
570.62	50740.47
570.78	50230.24
570.95	50543.87
571.11	51814.78
571.27	51625.20
571.43	51812.44
571.60	52196.29
571.76	52161.18
571.92	52601.20
572.09	52659.71
572.25	52671.42
572.41	52940.58
572.57	52643.33
572.74	52559.07
572.90	52128.41
573.06	52259.48
573.22	52402.25
573.38	52376.51
573.55	52151.82
573.71	52243.10
573.87	52435.02
574.03	52051.17
574.20	52250.12
574.36	51643.92
574.52	51704.77
574.68	51414.55
574.84	50955.80
575.01	50571.96
575.17	50185.77
575.33	50483.01
575.49	51016.66
575.65	51552.64
575.82	51061.13
575.98	50452.59
576.14	51255.39
576.30	51370.08
576.46	51295.18
576.62	51475.40
576.79	51119.64
576.95	50908.99
577.11	50377.69
577.27	50866.86
577.43	50707.71
577.59	50649.19
577.75	50197.47
577.92	49432.11
578.08	49371.26
578.24	49361.90
578.40	49705.96
578.56	49930.65
578.72	49935.33
578.88	50138.96
579.04	50447.91
579.21	50447.91
579.37	50768.56
579.53	50403.44
579.69	50382.37
579.85	50791.97
580.01	50358.97
580.17	49748.09
580.33	49696.59
580.49	50171.72
580.65	50248.96
580.82	50466.63
580.98	50445.57
581.14	50337.90
581.30	50553.23
581.46	50162.36
581.62	50433.86
581.78	50623.45
581.94	50712.39
582.10	50333.22
582.26	50550.89
582.42	50532.17
582.58	50871.54
582.74	50639.83
582.90	50614.08
583.06	50398.76
583.22	50204.49
583.38	50483.01
583.54	50064.06
583.70	50066.40
583.86	50197.47
584.02	50057.04
584.18	50253.64
584.34	50307.47
584.50	49874.48
584.66	49832.35
584.82	49144.23
584.98	49467.22
585.14	48837.62
585.30	48442.07
