SpectraSuite Data File
++++++++++++++++++++++++++++++++++++
Date: Mon Oct 07 14:54:55 GMT-05:00 2013
User: price-jones
Dark Spectrum Present: No
Reference Spectrum Present: No
Number of Sampled Component Spectra: 1
Spectrometers: USB2+H05261
Integration Time (usec): 10000 (USB2+H05261)
Spectra Averaged: 1 (USB2+H05261)
Boxcar Smoothing: 0 (USB2+H05261)
Correct for Electrical Dark: No (USB2+H05261)
Strobe/Lamp Enabled: No (USB2+H05261)
Correct for Detector Non-linearity: No (USB2+H05261)
Correct for Stray Light: No (USB2+H05261)
Number of Pixels in Processed Spectrum: 2048
>>>>>Begin Processed Spectral Data<<<<<
365.73	0.00
365.92	0.00
366.12	0.00
366.32	0.00
366.52	0.00
366.72	0.00
366.91	0.00
367.11	0.00
367.31	0.00
367.51	0.00
367.70	0.00
367.90	0.00
368.10	0.00
368.30	0.00
368.49	0.00
368.69	0.00
368.89	0.00
369.09	0.00
369.28	0.00
369.48	0.00
369.68	0.00
369.87	0.00
370.07	0.00
370.27	0.00
370.47	0.00
370.66	2.34
370.86	0.00
371.06	39.79
371.25	0.00
371.45	0.00
371.65	0.00
371.84	0.00
372.04	0.00
372.24	0.00
372.44	0.00
372.63	0.00
372.83	9.36
373.03	0.00
373.22	0.00
373.42	0.00
373.62	0.00
373.81	51.49
374.01	88.94
374.21	105.32
374.40	4.68
374.60	46.81
374.79	30.43
374.99	35.11
375.19	86.60
375.38	166.18
375.58	110.01
375.78	44.47
375.97	98.30
376.17	145.11
376.37	95.96
376.56	159.16
376.76	152.13
376.95	177.88
377.15	252.78
377.35	222.35
377.54	224.69
377.74	248.10
377.93	215.33
378.13	224.69
378.33	198.95
378.52	208.31
378.72	124.05
378.91	175.54
379.11	105.32
379.31	79.58
379.50	84.26
379.70	156.82
379.89	243.42
380.09	187.24
380.28	191.92
380.48	280.86
380.68	131.07
380.87	262.14
381.07	154.48
381.26	166.18
381.46	147.45
381.65	18.72
381.85	91.28
382.04	133.41
382.24	166.18
382.43	35.11
382.63	0.00
382.83	2.34
383.02	91.28
383.22	21.06
383.41	18.72
383.61	0.00
383.80	161.50
384.00	133.41
384.19	196.60
384.39	208.31
384.58	227.03
384.78	147.45
384.97	222.35
385.17	177.88
385.36	147.45
385.56	180.22
385.75	110.01
385.95	198.95
386.14	152.13
386.34	238.73
386.53	100.64
386.72	126.39
386.92	168.52
387.11	163.84
387.31	301.93
387.50	212.99
387.70	196.60
387.89	187.24
388.09	227.03
388.28	224.69
388.48	170.86
388.67	215.33
388.86	365.12
389.06	262.14
389.25	250.44
389.45	374.49
389.64	322.99
389.84	337.04
390.03	390.87
390.22	332.36
390.42	365.12
390.61	484.49
390.81	484.49
391.00	428.32
391.19	507.90
391.39	456.40
391.58	362.78
391.78	379.17
391.97	365.12
392.16	304.27
392.36	203.63
392.55	81.92
392.75	72.56
392.94	28.09
393.13	77.24
393.33	21.06
393.52	126.39
393.71	245.76
393.91	358.10
394.10	397.89
394.29	386.19
394.49	468.11
394.68	463.43
394.88	531.30
395.07	514.92
395.26	496.19
395.46	554.71
395.65	500.87
395.84	348.74
396.04	327.68
396.23	131.07
396.42	58.51
396.62	74.90
396.81	142.77
397.00	194.26
397.19	353.42
397.39	517.26
397.58	535.98
397.77	613.22
397.97	655.35
398.16	638.97
398.35	732.59
398.55	720.88
398.74	896.43
398.93	781.74
399.12	760.67
399.32	894.08
399.51	772.38
399.70	812.17
399.90	847.27
400.09	805.14
400.28	828.55
400.47	814.51
400.67	844.93
400.86	884.72
401.05	915.15
401.24	931.53
401.44	873.02
401.63	851.96
401.82	875.36
402.01	922.17
402.21	978.34
402.40	994.73
402.59	877.70
402.78	821.53
402.97	861.32
403.17	905.79
403.36	976.00
403.55	973.66
403.74	1067.28
403.93	898.77
404.13	830.89
404.32	809.83
404.51	873.02
404.70	961.96
404.89	959.62
405.09	915.15
405.28	912.81
405.47	894.08
405.66	947.92
405.85	875.36
406.05	905.79
406.24	823.87
406.43	961.96
406.62	952.60
406.81	915.15
407.00	844.93
407.20	978.34
407.39	985.37
407.58	931.53
407.77	999.41
407.96	971.32
408.15	1100.05
408.34	1034.52
408.54	1013.45
408.73	1181.97
408.92	1083.67
409.11	1036.86
409.30	933.87
409.49	868.34
409.68	854.30
409.87	851.96
410.07	926.85
410.26	999.41
410.45	994.73
410.64	1001.75
410.83	1011.11
411.02	1097.71
411.21	1135.16
411.40	1207.72
411.59	1252.19
411.78	1153.88
411.98	1132.82
412.17	1219.42
412.36	1144.52
412.55	1144.52
412.74	1081.33
412.93	1090.69
413.12	1071.97
413.31	1160.91
413.50	1256.87
413.69	1315.38
413.88	1207.72
414.07	1100.05
414.26	1128.14
414.45	1153.88
414.64	1275.59
414.83	1252.19
415.02	1231.12
415.22	1226.44
415.41	1252.19
415.60	1212.40
415.79	1341.13
415.98	1357.51
416.17	1369.21
416.36	1238.14
416.55	1221.76
416.74	1338.79
416.93	1247.51
417.12	1174.95
417.31	1219.42
417.50	1350.49
417.69	1317.72
417.88	1221.76
418.07	1226.44
418.26	1196.01
418.45	1277.93
418.64	1355.17
418.83	1392.62
419.02	1404.32
419.21	1287.29
419.39	1287.29
419.58	1282.61
419.77	1191.33
419.96	1263.89
420.15	1273.25
420.34	1413.68
420.53	1432.41
420.72	1535.39
420.91	1366.87
421.10	1495.60
421.29	1434.75
421.48	1366.87
421.67	1476.88
421.86	1469.86
422.05	1184.31
422.24	1151.54
422.43	1135.16
422.61	1221.76
422.80	1423.05
422.99	1355.17
423.18	1259.21
423.37	1296.66
423.56	1291.98
423.75	1320.06
423.94	1268.57
424.13	1214.74
424.32	1263.89
424.50	1280.27
424.69	1308.36
424.88	1320.06
425.07	1299.00
425.26	1308.36
425.45	1254.53
425.64	1160.91
425.83	1174.95
426.01	1334.11
426.20	1338.79
426.39	1299.00
426.58	1135.16
426.77	1172.61
426.96	1090.69
427.15	1067.28
427.33	1235.80
427.52	1320.06
427.71	1198.35
427.90	1118.78
428.09	1226.44
428.28	1193.67
428.46	1130.48
428.65	1198.35
428.84	1284.95
429.03	1186.65
429.22	1074.31
429.40	990.05
429.59	966.64
429.78	809.83
429.97	915.15
430.16	823.87
430.34	891.74
430.53	828.55
430.72	889.40
430.91	973.66
431.10	1167.93
431.28	1483.90
431.47	1561.14
431.66	1596.25
431.85	1399.64
432.03	1294.32
432.22	1174.95
432.41	1198.35
432.60	1334.11
432.79	1413.68
432.97	1493.26
433.16	1411.34
433.35	1315.38
433.54	1142.18
433.72	1090.69
433.91	1188.99
434.10	1331.76
434.28	1406.66
434.47	1495.60
434.66	1472.20
434.85	1420.71
435.03	1336.45
435.22	1401.98
435.41	1629.01
435.59	1514.33
435.78	1554.12
435.97	1462.83
436.16	1713.27
436.34	1526.03
436.53	1589.22
436.72	1617.31
436.90	1521.35
437.09	1507.30
437.28	1460.49
437.46	1453.47
437.65	1467.52
437.84	1376.24
438.02	1249.85
438.21	1282.61
438.40	1306.02
438.58	1486.24
438.77	1507.30
438.96	1474.54
439.14	1563.48
439.33	1605.61
439.52	1582.20
439.70	1584.54
439.89	1533.05
440.08	1490.92
440.26	1507.30
440.45	1537.73
440.63	1629.01
440.82	1849.02
441.01	1785.83
441.19	1647.74
441.38	1729.66
441.57	1900.52
441.75	1797.53
441.94	1799.87
442.12	1734.34
442.31	1877.11
442.50	1781.15
442.68	1813.92
442.87	1846.68
443.05	1701.57
443.24	1769.44
443.43	1891.15
443.61	1783.49
443.80	1947.33
443.98	1834.98
444.17	1809.23
444.35	1856.04
444.54	1884.13
444.73	1968.39
444.91	1907.54
445.10	1790.51
445.28	1699.23
445.47	1650.08
445.65	1753.06
445.84	1788.17
446.02	1703.91
446.21	1888.81
446.39	1893.49
446.58	1776.47
446.77	1888.81
446.95	1900.52
447.14	1966.05
447.32	1989.46
447.51	1940.30
447.69	1944.99
447.88	1834.98
448.06	1877.11
448.25	1802.21
448.43	1853.70
448.62	1837.32
448.80	1867.75
448.99	1830.30
449.17	1900.52
449.36	1933.28
449.54	2017.54
449.73	2003.50
449.91	2090.10
450.10	2108.82
450.28	2085.42
450.46	2031.58
450.65	2069.03
450.83	2120.53
451.02	2010.52
451.20	2111.16
451.39	1975.41
451.57	2043.29
451.76	1991.80
451.94	1968.39
452.13	1940.30
452.31	1802.21
452.49	1591.56
452.68	1706.25
452.86	1717.95
453.05	1837.32
453.23	1914.56
453.42	1774.13
453.60	2038.61
453.78	1926.26
453.97	1987.11
454.15	1961.37
454.34	1849.02
454.52	1760.08
454.70	1837.32
454.89	1830.30
455.07	1933.28
455.26	1837.32
455.44	2001.16
455.62	2019.88
455.81	2050.31
455.99	2064.35
456.17	2071.37
456.36	2073.71
456.54	2073.71
456.73	2083.08
456.91	2125.21
457.09	2125.21
457.28	2169.68
457.46	2031.58
457.64	2176.70
457.83	2012.86
458.01	1860.73
458.19	1907.54
458.38	1963.71
458.56	1956.69
458.74	2204.78
458.93	2045.63
459.11	2031.58
459.29	1944.99
459.48	2005.84
459.66	2031.58
459.84	2038.61
460.03	2038.61
460.21	2115.84
460.39	2073.71
460.57	2097.12
460.76	2176.70
460.94	2146.27
461.12	2085.42
461.31	1998.82
461.49	2029.24
461.67	2033.93
461.85	2244.57
462.04	2085.42
462.22	2256.28
462.40	2052.65
462.59	2160.31
462.77	2155.63
462.95	2087.76
463.13	2134.57
463.32	2143.93
463.50	2122.87
463.68	2073.71
463.86	2134.57
464.05	1959.03
464.23	1961.37
464.41	1898.17
464.59	1944.99
464.78	2087.76
464.96	2029.24
465.14	2057.33
465.32	2209.47
465.50	2094.78
465.69	2146.27
465.87	2176.70
466.05	2062.01
466.23	1804.55
466.41	1968.39
466.60	1989.46
466.78	1872.43
466.96	2066.69
467.14	2104.14
467.32	2087.76
467.51	2195.42
467.69	2043.29
467.87	2078.40
468.05	2118.18
468.23	2052.65
468.41	2050.31
468.60	2059.67
468.78	2010.52
468.96	1987.11
469.14	2153.29
469.32	2202.44
469.50	2040.95
469.69	2066.69
469.87	2026.90
470.05	2017.54
470.23	2005.84
470.41	1984.77
470.59	2010.52
470.77	1963.71
470.95	2092.44
471.14	2090.10
471.32	2115.84
471.50	2230.53
471.68	2277.34
471.86	2141.59
472.04	2326.49
472.22	2279.68
472.40	2249.25
472.58	1961.37
472.77	2087.76
472.95	2183.72
473.13	2237.55
473.31	2132.23
473.49	2085.42
473.67	2223.51
473.85	2200.10
474.03	2263.30
474.21	2275.00
474.39	2307.77
474.57	2251.60
474.75	2324.15
474.93	2221.17
475.12	2221.17
475.30	2260.96
475.48	2225.85
475.66	2209.47
475.84	2207.13
476.02	2197.76
476.20	2179.04
476.38	2218.83
476.56	2174.36
476.74	2284.36
476.92	2408.41
477.10	2359.26
477.28	2349.90
477.46	2429.48
477.64	2476.29
477.82	2572.25
478.00	2443.52
478.18	2436.50
478.36	2492.67
478.54	2576.93
478.72	2530.12
478.90	2417.77
479.08	2649.49
479.26	2569.91
479.44	2649.49
479.62	2630.76
479.80	2651.83
479.98	2759.49
480.16	2665.87
480.34	2579.27
480.52	2605.02
480.70	2665.87
480.88	2572.25
481.06	2724.38
481.24	2698.64
481.41	2846.09
481.59	2925.67
481.77	2885.88
481.95	2834.39
482.13	2771.19
482.31	2752.47
482.49	2895.24
482.67	2794.60
482.85	2946.73
483.03	3042.70
483.21	2827.37
483.39	2841.41
483.57	3038.02
483.74	2810.98
483.92	2892.90
484.10	2925.67
484.28	2970.14
484.46	2984.18
484.64	2953.76
484.82	2974.82
485.00	2881.20
485.18	2846.09
485.35	2743.11
485.53	2450.54
485.71	2289.04
485.89	2139.25
486.07	2377.98
486.25	2593.31
486.43	2839.07
486.61	2860.13
486.78	2843.75
486.96	2850.77
487.14	2890.56
487.32	3091.85
487.50	3148.02
487.68	3272.07
487.85	3225.26
488.03	3304.84
488.21	3091.85
488.39	3141.00
488.57	3035.67
488.75	2963.12
488.92	3009.93
489.10	3269.73
489.28	3475.70
489.46	3459.31
489.64	3520.17
489.81	3618.47
489.99	3503.78
490.17	3482.72
490.35	3569.32
490.53	3543.57
490.70	3414.84
490.88	3358.67
491.06	3695.71
491.24	3592.72
491.41	3351.65
491.59	3335.26
491.77	3272.07
491.95	3243.98
492.13	3389.10
492.30	3438.25
492.48	3592.72
492.66	3721.45
492.84	3630.17
493.01	3857.20
493.19	3531.87
493.37	3522.51
493.54	3606.77
493.72	3496.76
493.90	3763.58
494.08	3850.18
494.25	3775.28
494.43	3887.63
494.61	4056.15
494.79	4021.04
494.96	3992.95
495.14	3880.61
495.32	3655.92
495.49	3651.24
495.67	3702.73
495.85	3941.46
496.02	4002.32
496.20	3899.33
496.38	3885.29
496.55	3941.46
496.73	3920.40
496.91	4049.13
497.09	3939.12
497.26	4264.46
497.44	4056.15
497.62	3946.14
497.79	3730.81
497.97	3691.02
498.14	3623.15
498.32	3801.03
498.50	3992.95
498.67	4042.11
498.85	4149.77
499.03	4114.66
499.20	4117.00
499.38	4060.83
499.56	4100.62
499.73	4051.47
499.91	3960.19
500.08	3765.92
500.26	3655.92
500.44	3817.41
500.61	3948.48
500.79	3868.91
500.97	3871.25
501.14	3805.71
501.32	3815.07
501.49	3768.26
501.67	3763.58
501.84	3941.46
502.02	3913.38
502.20	4032.74
502.37	3960.19
502.55	3969.55
502.72	3995.29
502.90	4128.70
503.07	4156.79
503.25	4117.00
503.43	3831.46
503.60	3763.58
503.78	3714.43
503.95	3852.52
504.13	4145.09
504.30	4203.60
504.48	4011.68
504.65	4049.13
504.83	4133.39
505.01	4117.00
505.18	4215.30
505.36	4358.08
505.53	4191.90
505.71	4404.89
505.88	4397.87
506.06	4252.75
506.23	4177.86
506.41	4056.15
506.58	4154.45
506.76	4142.75
506.93	4028.06
507.11	4023.38
507.28	4133.39
507.46	4091.26
507.63	4042.11
507.81	3859.54
507.98	4023.38
508.16	4095.94
508.33	4217.65
508.50	4276.16
508.68	4210.62
508.85	4278.50
509.03	4353.40
509.20	4259.78
509.38	4177.86
509.55	4009.34
509.73	4035.08
509.90	4131.05
510.08	4255.09
510.25	4124.02
510.42	4159.13
510.60	4126.36
510.77	4180.20
510.95	4248.07
511.12	4425.95
511.30	4388.50
511.47	4461.06
511.64	4489.15
511.82	4404.89
511.99	4142.75
512.17	4138.07
512.34	4175.52
512.51	4021.04
512.69	4051.47
512.86	4140.41
513.04	4156.79
513.21	4159.13
513.38	4266.80
513.56	4009.34
513.73	4072.53
513.90	3976.57
514.08	3964.87
514.25	3995.29
514.43	4035.08
514.60	4140.41
514.77	4259.78
514.95	4196.58
515.12	4175.52
515.29	4098.28
515.47	4156.79
515.64	4210.62
515.81	4117.00
515.99	4121.68
516.16	3801.03
516.33	3602.08
516.51	3412.50
516.68	3316.54
516.85	3253.34
517.03	3243.98
517.20	3536.55
517.37	3932.10
517.54	4086.58
517.72	4098.28
517.89	3632.51
518.06	3370.37
518.24	3431.23
518.41	3716.77
518.58	3925.08
518.75	3927.42
518.93	3894.65
519.10	3873.59
519.27	4014.02
519.45	4060.83
519.62	4138.07
519.79	4234.03
519.96	4058.49
520.14	4091.26
520.31	3990.61
520.48	4039.76
520.65	4002.32
520.83	4194.24
521.00	4355.74
521.17	4231.69
521.34	4198.92
521.52	4203.60
521.69	4252.75
521.86	4329.99
522.03	4194.24
522.20	4021.04
522.38	3995.29
522.55	3943.80
522.72	3932.10
522.89	4004.66
523.07	4025.72
523.24	4163.81
523.41	4184.88
523.58	4346.37
523.75	4351.06
523.92	4306.59
524.10	4456.38
524.27	4423.61
524.44	4304.25
524.61	4320.63
524.78	4332.33
524.96	4262.12
525.13	4065.51
525.30	4091.26
525.47	4329.99
525.64	4402.55
525.81	4156.79
525.98	3955.51
526.16	3875.93
526.33	3698.05
526.50	3524.85
526.67	3550.59
526.84	3623.15
527.01	3824.44
527.18	3805.71
527.36	4011.68
527.53	4081.89
527.70	4358.08
527.87	4063.17
528.04	4049.13
528.21	4028.06
528.38	4283.18
528.55	4271.48
528.72	4397.87
528.89	4402.55
529.07	4383.82
529.24	4379.14
529.41	4152.11
529.58	4016.36
529.75	4042.11
529.92	4081.89
530.09	4257.43
530.26	4175.52
530.43	4287.86
530.60	4447.02
530.77	4397.87
530.94	4334.67
531.11	4308.93
531.28	4126.36
531.46	4301.90
531.63	4255.09
531.80	4208.28
531.97	4327.65
532.14	4046.79
532.31	3861.88
532.48	3758.90
532.65	3691.02
532.82	3887.63
532.99	4014.02
533.16	4175.52
533.33	4088.92
533.50	4182.54
533.67	4140.41
533.84	3969.55
534.01	4028.06
534.18	3936.78
534.35	4030.40
534.52	4138.07
534.69	4182.54
534.86	4236.37
535.03	4189.56
535.20	4304.25
535.37	4245.73
535.54	4217.65
535.71	4245.73
535.88	4271.48
536.05	4058.49
536.22	4154.45
536.38	4067.85
536.55	3796.35
536.72	3824.44
536.89	3861.88
537.06	4079.55
537.23	4124.02
537.40	4105.30
537.57	4102.96
537.74	4014.02
537.91	4112.32
538.08	4081.89
538.25	4187.22
538.42	4037.42
538.59	4196.58
538.75	3908.69
538.92	3840.82
539.09	3981.25
539.26	3789.33
539.43	3953.16
539.60	3880.61
539.77	3854.86
539.94	3901.67
540.11	3765.92
540.28	3712.09
540.44	3735.50
540.61	3719.11
540.78	3775.28
540.95	3831.46
541.12	3859.54
541.29	3995.29
541.46	3978.91
541.62	4070.19
541.79	4091.26
541.96	3915.72
542.13	3943.80
542.30	3974.23
542.47	4007.00
542.63	3868.91
542.80	3662.94
542.97	3882.95
543.14	3887.63
543.31	3948.48
543.48	4074.87
543.64	4037.42
543.81	4173.18
543.98	4128.70
544.15	3932.10
544.32	3967.21
544.48	3925.08
544.65	3875.93
544.82	4039.76
544.99	3850.18
545.16	3934.44
545.32	3843.16
545.49	4028.06
545.66	4053.81
545.83	4011.68
546.00	3918.06
546.16	3948.48
546.33	4004.66
546.50	3974.23
546.67	3915.72
546.83	3964.87
547.00	3915.72
547.17	3803.37
547.34	3868.91
547.50	3779.97
547.67	3840.82
547.84	3847.84
548.00	3791.67
548.17	3885.29
548.34	3950.82
548.51	3887.63
548.67	3789.33
548.84	4021.04
549.01	3985.93
549.18	3943.80
549.34	3786.99
549.51	3763.58
549.68	4007.00
549.84	3868.91
550.01	3831.46
550.18	3702.73
550.34	3887.63
550.51	3810.39
550.68	3857.20
550.84	3758.90
551.01	3875.93
551.18	3651.24
551.34	3754.22
551.51	3932.10
551.68	3822.09
551.84	3911.04
552.01	3854.86
552.18	3824.44
552.34	3520.17
552.51	3735.50
552.68	3700.39
552.84	3688.68
553.01	3765.92
553.18	3868.91
553.34	3824.44
553.51	3709.75
553.67	3735.50
553.84	3875.93
554.01	3719.11
554.17	3801.03
554.34	3674.64
554.51	3826.78
554.67	3819.75
554.84	3843.16
555.00	3691.02
555.17	3672.30
555.33	3831.46
555.50	3751.88
555.67	3691.02
555.83	3737.84
556.00	3534.21
556.16	3634.85
556.33	3618.47
556.50	3616.13
556.66	3604.42
556.83	3454.63
556.99	3454.63
557.16	3613.79
557.32	3707.41
557.49	3613.79
557.65	3726.13
557.82	3419.52
557.98	3585.70
558.15	3482.72
558.32	3487.40
558.48	3391.44
558.65	3361.01
558.81	3447.61
558.98	3384.41
559.14	3515.48
559.31	3400.80
559.47	3658.26
559.64	3550.59
559.80	3405.48
559.97	3454.63
560.13	3543.57
560.30	3494.42
560.46	3669.96
560.63	3712.09
560.79	3648.90
560.96	3658.26
561.12	3503.78
561.29	3407.82
561.45	3325.90
561.61	3468.67
561.78	3393.78
561.94	3583.36
562.11	3538.89
562.27	3365.69
562.44	3358.67
562.60	3557.61
562.77	3569.32
562.93	3449.95
563.10	3468.67
563.26	3456.97
563.42	3515.48
563.59	3555.27
563.75	3417.18
563.92	3606.77
564.08	3454.63
564.24	3391.44
564.41	3463.99
564.57	3435.91
564.74	3375.05
564.90	3431.23
565.07	3410.16
565.23	3384.41
565.39	3255.69
565.56	3194.83
565.72	3253.34
565.88	3293.13
566.05	3279.09
566.21	3290.79
566.38	3201.85
566.54	3330.58
566.70	3281.43
566.87	3302.50
567.03	3419.52
567.19	3447.61
567.36	3243.98
567.52	3304.84
567.68	3396.12
567.85	3183.13
568.01	3087.17
568.17	3075.46
568.34	3194.83
568.50	3187.81
568.66	3220.58
568.83	3229.94
568.99	3143.34
569.15	3218.24
569.32	3194.83
569.48	3117.59
569.64	3255.69
569.81	3129.30
569.97	3145.68
570.13	3162.06
570.30	3023.97
570.46	3112.91
570.62	2986.52
570.78	3054.40
570.95	3066.10
571.11	3169.09
571.27	3117.59
571.43	3201.85
571.60	3178.45
571.76	3234.62
571.92	3166.74
572.09	3267.39
572.25	3300.16
572.41	3272.07
572.57	3222.92
572.74	3169.09
572.90	3332.92
573.06	3145.68
573.22	3279.09
573.38	3141.00
573.55	3049.72
573.71	3197.17
573.87	3049.72
574.03	3323.56
574.20	3103.55
574.36	3119.93
574.52	3103.55
574.68	3096.53
574.84	3030.99
575.01	2986.52
575.17	2864.82
575.33	3129.30
575.49	3068.44
575.65	3038.02
575.82	3143.34
575.98	2972.48
576.14	3049.72
576.30	2937.37
576.46	3054.40
576.62	3040.36
576.79	3084.83
576.95	2963.12
577.11	2977.16
577.27	3002.91
577.43	3002.91
577.59	2946.73
577.75	2874.18
577.92	2911.63
578.08	3005.25
578.24	2916.31
578.40	2848.43
578.56	2855.45
578.72	2834.39
578.88	3052.06
579.04	2864.82
579.21	2902.26
579.37	3056.74
579.53	3117.59
579.69	2869.50
579.85	2871.84
580.01	2963.12
580.17	2974.82
580.33	2925.67
580.49	2801.62
580.65	3047.38
580.82	2796.94
580.98	2963.12
581.14	2937.37
581.30	3000.57
581.46	2850.77
581.62	3026.31
581.78	2923.33
581.94	2949.08
582.10	2885.88
582.26	2951.42
582.42	2993.55
582.58	3059.08
582.74	3094.19
582.90	3005.25
583.06	3000.57
583.22	2869.50
583.38	3026.31
583.54	2951.42
583.70	2937.37
583.86	3030.99
584.02	2857.79
584.18	2937.37
584.34	2970.14
584.50	2832.05
584.66	2874.18
584.82	2815.66
584.98	2787.58
585.14	2738.43
585.30	2775.88
585.46	2602.68
585.62	2705.66
585.78	2869.50
585.94	2808.64
586.10	2740.77
586.26	2799.28
586.42	2747.79
586.58	2878.86
586.74	2806.30
586.90	2757.15
587.06	2747.79
587.22	2820.35
587.38	2764.17
587.54	2743.11
587.70	2813.32
587.86	2644.81
588.02	2757.15
588.18	2684.59
588.34	2621.40
588.49	2504.37
588.65	2298.41
588.81	2265.64
588.97	2331.17
589.13	2239.89
589.29	2291.38
589.45	2244.57
589.61	2340.54
589.77	2483.31
589.93	2600.34
590.08	2626.08
590.24	2586.29
590.40	2595.65
590.56	2679.91
590.72	2663.53
590.88	2651.83
591.04	2544.16
591.20	2469.27
591.35	2710.34
591.51	2476.29
591.67	2579.27
591.83	2572.25
591.99	2586.29
592.15	2635.44
592.31	2558.21
592.46	2623.74
592.62	2733.75
592.78	2534.80
592.94	2640.12
593.10	2452.88
593.26	2567.57
593.41	2621.40
593.57	2572.25
593.73	2530.12
593.89	2586.29
594.05	2551.18
594.20	2562.89
594.36	2518.42
594.52	2457.56
594.68	2558.21
594.84	2382.67
594.99	2520.76
595.15	2518.42
595.31	2441.18
595.47	2462.24
595.62	2555.86
595.78	2562.89
595.94	2553.52
596.10	2539.48
596.25	2473.95
596.41	2459.90
596.57	2513.74
596.73	2485.65
596.88	2534.80
597.04	2445.86
597.20	2438.84
597.36	2462.24
597.51	2502.03
597.67	2434.16
597.83	2607.36
597.99	2443.52
598.14	2438.84
598.30	2443.52
598.46	2256.28
598.61	2551.18
598.77	2464.58
598.93	2392.03
599.09	2485.65
599.24	2558.21
599.40	2487.99
