SpectraSuite Data File
++++++++++++++++++++++++++++++++++++
Date: Mon Oct 07 14:55:02 GMT-05:00 2013
User: price-jones
Dark Spectrum Present: No
Reference Spectrum Present: No
Number of Sampled Component Spectra: 1
Spectrometers: USB2+H05261
Integration Time (usec): 10000 (USB2+H05261)
Spectra Averaged: 1 (USB2+H05261)
Boxcar Smoothing: 0 (USB2+H05261)
Correct for Electrical Dark: No (USB2+H05261)
Strobe/Lamp Enabled: No (USB2+H05261)
Correct for Detector Non-linearity: No (USB2+H05261)
Correct for Stray Light: No (USB2+H05261)
Number of Pixels in Processed Spectrum: 2048
>>>>>Begin Processed Spectral Data<<<<<
365.73	0.00
365.92	0.00
366.12	0.00
366.32	0.00
366.52	0.00
366.72	0.00
366.91	0.00
367.11	0.00
367.31	0.00
367.51	0.00
367.70	0.00
367.90	0.00
368.10	0.00
368.30	0.00
368.49	0.00
368.69	0.00
368.89	0.00
369.09	0.00
369.28	0.00
369.48	0.00
369.68	0.00
369.87	0.00
370.07	0.00
370.27	0.00
370.47	400.23
370.66	2712.68
370.86	3112.91
371.06	3461.65
371.25	3309.52
371.45	2857.79
371.65	2663.53
371.84	2495.01
372.04	2682.25
372.24	3150.36
372.44	3215.90
372.63	3094.19
372.83	2871.84
373.03	2539.48
373.22	2291.38
373.42	2499.69
373.62	3145.68
373.81	3246.32
374.01	3045.04
374.21	2818.00
374.40	2583.95
374.60	2796.94
374.79	3169.09
374.99	3653.58
375.19	3824.44
375.38	3873.59
375.58	3772.94
375.78	3686.34
375.97	3648.90
376.17	3660.60
376.37	3854.86
376.56	3943.80
376.76	4308.93
376.95	4493.83
377.15	4805.12
377.35	4880.02
377.54	5130.45
377.74	5191.31
377.93	5238.12
378.13	4978.32
378.33	4702.14
378.52	4280.84
378.72	4133.39
378.91	4058.49
379.11	3955.51
379.31	3833.80
379.50	4060.83
379.70	4205.94
379.89	4828.53
380.09	5015.77
380.28	5193.65
380.48	5210.03
380.68	4990.02
380.87	4770.01
381.07	4498.51
381.26	4140.41
381.46	3824.44
381.65	3660.60
381.85	3758.90
382.04	3438.25
382.24	3222.92
382.43	3157.38
382.63	3080.14
382.83	3052.06
383.02	3124.62
383.22	3049.72
383.41	2986.52
383.61	3583.36
383.80	3908.69
384.00	4458.72
384.19	4961.94
384.39	5048.54
384.58	5048.54
384.78	4980.66
384.97	4905.76
385.17	4638.94
385.36	4407.23
385.56	4299.56
385.75	4547.66
385.95	5123.43
386.14	5315.36
386.34	5298.97
386.53	4943.21
386.72	4688.09
386.92	4830.87
387.11	5280.25
387.31	5315.36
387.50	5277.91
387.70	5053.22
387.89	5146.84
388.09	5235.78
388.28	5076.62
388.48	5263.86
388.67	5694.52
388.86	6387.32
389.06	6665.85
389.25	6970.12
389.45	6897.56
389.64	6904.58
389.84	6817.98
390.03	6541.80
390.22	6972.46
390.42	7096.50
390.61	7545.89
390.81	8030.38
391.00	8353.37
391.19	7943.78
391.39	7669.94
391.58	7267.36
391.78	6986.50
391.97	6736.06
392.16	6155.61
392.36	5380.89
392.55	4217.65
392.75	3368.03
392.94	2796.94
393.13	3049.72
393.33	3798.69
393.52	4873.00
393.71	5652.39
393.91	6312.42
394.10	6895.22
394.29	7672.28
394.49	8079.53
394.68	8741.90
394.88	8704.45
395.07	8915.10
395.26	8629.56
395.46	8617.85
395.65	7803.35
395.84	6628.40
396.04	5554.09
396.23	4514.89
396.42	3850.18
396.62	3887.63
396.81	4992.36
397.00	6410.73
397.19	7714.41
397.39	9172.56
397.58	9933.23
397.77	10483.26
397.97	11019.24
398.16	10820.30
398.35	11370.32
398.55	11545.86
398.74	12046.74
398.93	12533.57
399.12	12236.32
399.32	11840.77
399.51	12060.78
399.70	13128.06
399.90	12540.59
400.09	12582.72
400.28	12285.47
400.47	12613.15
400.67	13448.72
400.86	13502.55
401.05	13745.97
401.24	13760.01
401.44	14090.02
401.63	14237.48
401.82	14167.26
402.01	13839.59
402.21	14211.73
402.40	14359.19
402.59	13584.47
402.78	13107.00
402.97	13177.22
403.17	13685.11
403.36	14572.18
403.55	14665.80
403.74	15002.83
403.93	13848.95
404.13	12999.34
404.32	13132.75
404.51	13764.69
404.70	14633.03
404.89	14429.40
405.09	14193.01
405.28	13848.95
405.47	13987.04
405.66	13891.08
405.85	13451.06
406.05	13116.36
406.24	13453.40
406.43	14263.22
406.62	14504.30
406.81	14745.38
407.00	14387.27
407.20	13881.72
407.39	14104.07
407.58	14867.08
407.77	15428.81
407.96	15999.90
408.15	16116.93
408.34	15988.20
408.54	16781.64
408.73	16465.67
408.92	16533.54
409.11	15723.72
409.30	15035.60
409.49	13862.99
409.68	13228.71
409.87	13057.85
410.07	14228.12
410.26	15164.33
410.45	15803.30
410.64	16425.88
410.83	16730.15
411.02	17081.23
411.21	17671.04
411.40	17652.32
411.59	18045.53
411.78	17715.51
411.98	17874.67
412.17	17851.27
412.36	17462.74
412.55	17469.76
412.74	16877.60
412.93	16884.62
413.12	17523.59
413.31	19056.64
413.50	18953.66
413.69	18998.13
413.88	18218.73
414.07	17928.50
414.26	18511.30
414.45	18644.71
414.64	18333.42
414.83	18586.19
415.02	18438.74
415.22	18359.16
415.41	18869.40
415.60	19578.58
415.79	20229.25
415.98	20577.99
416.17	20212.87
416.36	20266.70
416.55	19688.59
416.74	18855.36
416.93	18427.04
417.12	18986.43
417.31	18888.12
417.50	19271.97
417.69	20093.50
417.88	19782.21
418.07	19618.37
418.26	19323.46
418.45	19730.72
418.64	20919.71
418.83	21345.69
419.02	20786.30
419.21	20102.86
419.39	19349.21
419.58	18380.23
419.77	19037.92
419.96	20334.57
420.15	21029.71
420.34	21823.16
420.53	22132.11
420.72	22345.09
420.91	22057.21
421.10	21968.27
421.29	21905.07
421.48	21156.10
421.67	22558.08
421.86	21263.77
422.05	18972.38
422.24	17853.61
422.43	18523.00
422.61	20645.87
422.80	21467.39
422.99	21172.49
423.18	20402.45
423.37	20365.00
423.56	20692.68
423.75	21348.03
423.94	21624.21
424.13	20081.80
424.32	20255.00
424.50	20292.44
424.69	20273.72
424.88	20496.07
425.07	20435.22
425.26	20395.43
425.45	19482.62
425.64	19566.88
425.83	20137.97
426.01	20446.92
426.20	21008.65
426.39	20996.95
426.58	19178.35
426.77	18080.64
426.96	18012.76
427.15	18623.64
427.33	20191.80
427.52	20376.70
427.71	20596.71
427.90	20407.13
428.09	20336.91
428.28	19538.79
428.46	18630.66
428.65	18747.69
428.84	19758.80
429.03	19353.89
429.22	18274.90
429.40	16802.71
429.59	15398.38
429.78	13902.78
429.97	14263.22
430.16	14331.10
430.34	14050.24
430.53	14731.33
430.72	15012.20
430.91	16886.97
431.10	19910.94
431.28	23101.09
431.47	24807.34
431.66	23950.70
431.85	21523.57
432.03	19936.68
432.22	20149.67
432.41	21781.03
432.60	23232.16
432.79	23960.06
432.97	24362.64
433.16	23115.13
433.35	20980.56
433.54	18668.11
433.72	18029.15
433.91	19410.06
434.10	21979.97
434.28	23129.17
434.47	24077.09
434.66	23009.81
434.85	22871.72
435.03	23398.34
435.22	23545.79
435.41	24629.46
435.59	25598.44
435.78	25350.34
435.97	25986.97
436.16	25563.33
436.34	25050.75
436.53	25118.63
436.72	25036.71
436.90	23880.49
437.09	23796.23
437.28	23178.33
437.46	24432.85
437.65	23644.09
437.84	21944.86
438.02	20725.44
438.21	20924.39
438.40	21963.59
438.58	23187.69
438.77	24329.87
438.96	24720.74
439.14	25483.75
439.33	26225.70
439.52	26169.53
439.70	25607.80
439.89	24641.16
440.08	24376.68
440.26	24678.61
440.45	25544.61
440.63	27770.46
440.82	28348.57
441.01	27608.96
441.19	28102.81
441.38	28542.83
441.57	29757.57
441.75	29298.83
441.94	30075.88
442.12	29343.30
442.31	30443.35
442.50	30059.50
442.68	29401.81
442.87	29479.05
443.05	28814.34
443.24	29734.17
443.43	30096.95
443.61	30689.10
443.80	30953.58
443.98	30122.69
444.17	29413.51
444.35	31204.02
444.54	31433.39
444.73	30518.25
444.91	29284.78
445.10	28304.10
445.28	27571.51
445.47	27168.94
445.65	27489.59
445.84	28292.40
446.02	28896.25
446.21	29443.94
446.39	29399.47
446.58	30225.68
446.77	30759.32
446.95	30792.09
447.14	31861.71
447.32	32156.62
447.51	31585.53
447.69	29909.71
447.88	30267.81
448.06	30672.72
448.25	31047.21
448.43	30621.23
448.62	30635.27
448.80	30457.39
448.99	30319.30
449.17	30934.86
449.36	31508.29
449.54	32479.61
449.73	32332.16
449.91	32879.85
450.10	34431.62
450.28	34471.41
450.46	34043.09
450.65	34085.22
450.83	33935.43
451.02	33488.38
451.20	33109.22
451.39	33778.61
451.57	33301.14
451.76	33284.76
451.94	32381.31
452.13	31541.06
452.31	30398.88
452.49	28739.44
452.68	29722.46
452.86	30328.66
453.05	30485.48
453.23	31786.82
453.42	32233.86
453.60	33024.96
453.78	32854.10
453.97	32229.18
454.15	32336.84
454.34	31412.33
454.52	31292.96
454.70	30960.61
454.89	31857.03
455.07	31917.89
455.26	32301.73
455.44	33624.14
455.62	33907.34
455.81	33532.86
455.99	33486.04
456.17	33481.36
456.36	34763.98
456.54	34508.86
456.73	34359.06
456.91	34703.12
457.09	35030.80
457.28	36189.36
457.46	33773.93
457.64	34335.66
457.83	32830.69
458.01	32919.63
458.19	33916.70
458.38	34693.76
458.56	35578.48
458.74	34714.83
458.93	33956.49
459.11	33668.61
459.29	33621.80
459.48	34253.74
459.66	33362.00
459.84	33942.45
460.03	34059.48
460.21	35384.22
460.39	35424.01
460.57	35351.45
460.76	35349.11
460.94	36142.55
461.12	35742.32
461.31	35978.72
461.49	35487.20
461.67	35754.02
461.85	36837.69
462.04	36198.73
462.22	36402.35
462.40	36217.45
462.59	35690.83
462.77	36020.84
462.95	36208.09
463.13	36086.38
463.32	34932.50
463.50	35285.92
463.68	35409.96
463.86	35704.87
464.05	34632.91
464.23	34239.70
464.41	34265.44
464.59	33570.30
464.78	35416.99
464.96	34794.40
465.14	33881.60
465.32	36133.19
465.50	36905.57
465.69	37799.65
465.87	36215.11
466.05	34988.67
466.23	33495.41
466.41	32760.48
466.60	34328.64
466.78	34167.14
466.96	34307.57
467.14	35461.46
467.32	35363.15
467.51	35225.06
467.69	33851.17
467.87	34974.63
468.05	35405.28
468.23	35117.40
468.41	35505.93
468.60	35512.95
468.78	36362.56
468.96	35711.89
469.14	35952.97
469.32	36268.94
469.50	34295.87
469.69	35194.64
469.87	34298.21
470.05	34096.92
470.23	34583.76
470.41	34766.32
470.59	34909.09
470.77	35239.11
470.95	36144.89
471.14	36360.22
471.32	36285.33
471.50	38588.41
471.68	38335.63
471.86	38759.27
472.04	38295.85
472.22	38520.54
472.40	37373.67
472.58	36835.35
472.77	36613.00
472.95	37184.09
473.13	38469.04
473.31	37268.35
473.49	37214.52
473.67	37944.76
473.85	38660.97
474.03	40201.04
474.21	40149.55
474.39	40437.44
474.57	40509.99
474.75	40460.84
474.93	39821.87
475.12	38595.43
475.30	39145.46
475.48	38574.37
475.66	38969.92
475.84	38115.62
476.02	39194.61
476.20	38333.29
476.38	39597.18
476.56	40156.57
476.74	40741.71
476.92	41324.50
477.10	41088.10
477.28	42328.59
477.46	42501.79
477.64	43002.66
477.82	43311.61
478.00	43414.60
478.18	42110.92
478.36	41689.62
478.54	42422.21
478.72	43269.48
478.90	45160.64
479.08	46335.59
479.26	45872.16
479.44	46564.96
479.62	45560.87
479.80	46061.74
479.98	45687.26
480.16	46581.34
480.34	44987.44
480.52	46532.19
480.70	46017.27
480.88	45724.71
481.06	46293.46
481.24	47084.56
481.41	48495.90
481.59	48545.05
481.77	48112.05
481.95	47592.45
482.13	47356.06
482.31	47828.85
482.49	48772.08
482.67	47964.60
482.85	48374.19
483.03	48580.16
483.21	49504.67
483.39	49116.14
483.57	48430.36
483.74	48561.44
483.92	48912.52
484.10	48638.67
484.28	49069.33
484.46	49057.63
484.64	50677.28
484.82	49462.54
485.00	48671.44
485.18	48596.54
485.35	45998.55
485.53	41092.79
485.71	38284.14
485.89	39435.69
486.07	42567.32
486.25	45125.53
486.43	47351.38
486.61	47936.51
486.78	47030.72
486.96	48472.49
487.14	49858.09
487.32	50738.13
487.50	51491.79
487.68	52748.65
487.85	53109.10
488.03	52605.88
488.21	51936.49
488.39	51852.23
488.57	50007.89
488.75	50188.11
488.92	52076.92
489.10	53574.86
489.28	54382.35
489.46	55290.48
489.64	55281.11
489.81	55700.07
489.99	55100.89
490.17	55290.48
490.35	55107.91
490.53	55173.45
490.70	54703.00
490.88	54714.70
491.06	55657.94
491.24	55903.70
491.41	54901.95
491.59	53375.92
491.77	53446.13
491.95	54040.63
492.13	55636.87
492.30	56018.38
492.48	56772.03
492.66	57308.02
492.84	56437.34
493.01	56324.99
493.19	56257.12
493.37	55868.59
493.54	56303.93
493.72	57193.33
493.90	57513.98
494.08	58096.78
494.25	57970.39
494.43	58585.95
494.61	58855.11
494.79	58766.17
494.96	58958.09
495.14	58497.01
495.32	57062.26
495.49	57403.98
495.67	58494.67
495.85	59175.76
496.02	59774.94
496.20	58972.14
496.38	58642.12
496.55	58632.76
496.73	59407.48
496.91	59496.42
497.09	59744.51
497.26	60016.02
497.44	59290.45
497.62	58614.04
497.79	58103.80
497.97	57322.06
498.14	57937.62
498.32	58990.86
498.50	59028.31
498.67	59077.46
498.85	59145.34
499.03	59725.79
499.20	59990.27
499.38	59496.42
499.56	58721.70
499.73	58754.47
499.91	58609.35
500.08	57963.37
500.26	57588.88
500.44	58541.48
500.61	58892.56
500.79	58628.08
500.97	58618.72
501.14	58064.01
501.32	57303.34
501.49	57778.46
501.67	58511.05
501.84	58401.05
502.02	58995.54
502.20	59730.47
502.37	59838.14
502.55	59730.47
502.72	60669.03
502.90	60676.05
503.07	60334.33
503.25	59482.37
503.43	58576.59
503.60	58113.16
503.78	58141.25
503.95	58583.61
504.13	59531.53
504.30	60060.49
504.48	59428.54
504.65	59819.41
504.83	59798.35
505.01	60664.35
505.18	60690.09
505.36	61188.63
505.53	61228.41
505.71	61226.07
505.88	61516.30
506.06	60966.27
506.23	60528.59
506.41	60374.12
506.58	60982.66
506.76	60533.28
506.93	59788.98
507.11	59917.71
507.28	60210.28
507.46	59447.27
507.63	59784.30
507.81	59117.25
507.98	59615.79
508.16	60722.86
508.33	60718.18
508.50	60989.68
508.68	61244.80
508.85	61675.46
509.03	62038.24
509.20	61181.60
509.38	60308.58
509.55	60598.81
509.73	60891.38
509.90	60636.26
510.08	60903.08
510.25	60287.52
510.42	60289.86
510.60	60736.90
510.77	61190.97
510.95	61104.37
511.12	61469.49
511.30	62094.41
511.47	62550.82
511.64	62206.76
511.82	62148.24
511.99	61059.90
512.17	61020.11
512.34	60210.28
512.51	60811.80
512.69	61048.19
512.86	60566.04
513.04	60994.36
513.21	60549.66
513.38	59854.52
513.56	59447.27
513.73	59260.02
513.90	60156.45
514.08	59847.50
514.25	60128.36
514.43	60523.91
514.60	60584.77
514.77	60669.03
514.95	61113.73
515.12	60788.39
515.29	61403.95
515.47	61979.73
515.64	61717.59
515.81	61188.63
515.99	60039.42
516.16	58525.10
516.33	56432.66
516.51	56699.48
516.68	55093.87
516.85	54230.21
517.03	56161.15
517.20	58274.66
517.37	59983.25
517.54	60924.14
517.72	59725.79
517.89	56919.49
518.06	55590.06
518.24	56577.77
518.41	58719.36
518.58	59760.90
518.75	59746.86
518.93	59597.06
519.10	59297.47
519.27	60264.11
519.45	60554.34
519.62	61296.29
519.79	61298.63
519.96	60893.72
520.14	60601.15
520.31	59449.61
520.48	59508.12
520.65	60472.42
520.83	61427.36
521.00	61270.54
521.17	60793.07
521.34	60898.40
521.52	61415.66
521.69	61621.62
521.86	61939.94
522.03	61439.06
522.20	60081.55
522.38	59557.27
522.55	59896.65
522.72	60329.65
522.89	59950.48
523.07	61001.38
523.24	61354.80
523.41	61961.00
523.58	62199.74
523.75	62269.95
523.92	62319.10
524.10	62003.13
524.27	61598.22
524.44	61174.58
524.61	60872.65
524.78	61319.70
524.96	61528.00
525.13	61427.36
525.30	62108.46
525.47	62382.30
525.64	62103.77
525.81	61305.65
525.98	59370.03
526.16	58356.58
526.33	58323.81
526.50	57867.40
526.67	58068.69
526.84	58766.17
527.01	59550.25
527.18	60023.04
527.36	60786.05
527.53	61677.80
527.70	61251.82
527.87	60006.65
528.04	61029.47
528.21	61436.72
528.38	61953.98
528.55	62731.04
528.72	62471.24
528.89	61986.75
529.07	61848.66
529.24	60788.39
529.41	60762.65
529.58	60491.15
529.75	61579.49
529.92	61481.19
530.09	61485.87
530.26	62386.98
530.43	63061.05
530.60	61930.58
530.77	62632.74
530.94	62642.10
531.11	61907.17
531.28	61890.79
531.46	62197.40
531.63	61968.02
531.80	61518.64
531.97	61242.46
532.14	61062.24
532.31	59606.42
532.48	59023.63
532.65	59192.15
532.82	59870.90
532.99	61792.48
533.16	61806.53
533.33	61769.08
533.50	61745.67
533.67	61467.15
533.84	61080.96
534.01	61338.42
534.18	61305.65
534.35	61083.30
534.52	60601.15
534.69	61172.24
534.86	61544.39
535.03	62216.12
535.20	62026.54
535.37	62592.95
535.54	62827.00
535.71	62478.26
535.88	62578.90
536.05	61296.29
536.22	60853.93
536.38	60935.85
536.55	59994.95
536.72	59791.33
536.89	60381.14
537.06	60463.06
537.23	60882.02
537.40	60760.31
537.57	60591.79
537.74	61148.84
537.91	61123.09
538.08	61174.58
538.25	61148.84
538.42	62082.71
538.59	61408.64
538.75	60638.60
538.92	59941.12
539.09	60516.89
539.26	60390.50
539.43	60331.99
539.60	59791.33
539.77	60643.28
539.94	60416.25
540.11	59678.98
540.28	59412.16
540.44	59105.55
540.61	59159.38
540.78	59594.72
540.95	60088.57
541.12	60285.18
541.29	60919.46
541.46	60736.90
541.62	60987.34
541.79	60402.21
541.96	59835.80
542.13	60072.19
542.30	60044.10
542.47	60449.02
542.63	60329.65
542.80	60149.43
542.97	59461.31
543.14	59690.68
543.31	60086.23
543.48	60821.16
543.64	60933.51
543.81	61886.10
543.98	61790.14
544.15	60364.76
544.32	60830.52
544.48	60456.04
544.65	60395.18
544.82	60949.89
544.99	59681.32
545.16	59341.94
545.32	59889.63
545.49	60378.80
545.66	60512.21
545.83	60493.49
546.00	60860.95
546.16	60397.52
546.33	60088.57
546.50	60395.18
546.67	60940.53
546.83	60133.04
547.00	60640.94
547.17	59456.63
547.34	58731.06
547.50	58724.04
547.67	59891.97
547.84	60601.15
548.00	60825.84
548.17	60088.57
548.34	60725.20
548.51	60779.03
548.67	60748.60
548.84	60542.64
549.01	60654.98
549.18	60236.03
549.34	60233.69
549.51	60697.11
549.68	60856.27
549.84	60093.25
550.01	59564.29
550.18	59402.80
550.34	59791.33
550.51	59962.18
550.68	60430.29
550.84	60495.83
551.01	59533.87
551.18	59323.22
551.34	59178.10
551.51	60044.10
551.68	60147.09
551.84	60591.79
552.01	59999.63
552.18	59508.12
552.34	59213.21
552.51	58787.24
552.68	58712.34
552.84	59313.86
553.01	59187.47
553.18	59657.91
553.34	59568.97
553.51	60041.76
553.67	59845.16
553.84	59910.69
554.01	59990.27
554.17	59522.16
554.34	59845.16
554.51	59615.79
554.67	59014.27
554.84	59306.83
555.00	58827.02
555.17	59086.82
555.33	59044.69
555.50	58433.81
555.67	59210.87
555.83	59220.23
556.00	58829.37
556.16	58695.95
556.33	58518.07
556.50	58672.55
556.66	58927.67
556.83	58387.00
556.99	58136.57
557.16	58588.29
557.32	58141.25
557.49	58768.51
557.65	58548.50
557.82	58972.14
557.98	59283.43
558.15	58085.07
558.32	57439.09
558.48	57331.42
558.65	57034.17
558.81	57495.26
558.98	58267.64
559.14	58272.32
559.31	58059.33
559.47	57591.22
559.64	57792.51
559.80	57200.35
559.97	57890.81
560.13	58557.86
560.30	59557.27
560.46	59669.62
560.63	59894.31
560.79	59779.62
560.96	58995.54
561.12	57979.75
561.29	57546.75
561.45	57851.02
561.61	58812.98
561.78	57993.79
561.94	58340.19
562.11	58365.94
562.27	57539.73
562.44	58543.82
562.60	58831.71
562.77	58946.39
562.93	58195.08
563.10	58410.41
563.26	58199.76
563.42	58726.38
563.59	58080.39
563.75	58115.50
563.92	57614.63
564.08	57134.82
564.24	58288.70
564.41	57380.57
564.57	58714.68
564.74	58176.36
564.90	57635.69
565.07	57219.08
565.23	56598.83
565.39	55929.44
565.56	56631.60
565.72	57090.35
565.88	55901.36
566.05	57668.46
566.21	57633.35
566.38	57457.81
566.54	57673.14
566.70	58433.81
566.87	57975.07
567.03	57736.34
567.19	58831.71
567.36	58918.31
567.52	57427.38
567.68	57043.54
567.85	56561.39
568.01	56713.52
568.17	56982.68
568.34	57319.72
568.50	56865.66
568.66	56516.92
568.83	56442.02
568.99	55994.98
569.15	56018.38
569.32	56341.38
569.48	56254.78
569.64	56016.04
569.81	56165.84
569.97	55994.98
570.13	54997.91
570.30	54712.36
570.46	54164.68
570.62	53911.90
570.78	54267.66
570.95	55021.31
571.11	55157.06
571.27	54372.99
571.43	55093.87
571.60	55096.21
571.76	56039.45
571.92	56308.61
572.09	56561.39
572.25	56170.52
572.41	56521.60
572.57	56193.92
572.74	56793.10
572.90	57406.32
573.06	56860.97
573.22	57017.79
573.38	56846.93
573.55	57998.48
573.71	56629.26
573.87	56378.82
574.03	56516.92
574.20	56093.28
574.36	55966.89
574.52	55381.76
574.68	55318.56
574.84	54707.68
575.01	54590.66
575.17	54752.15
575.33	55103.23
575.49	55454.31
575.65	54157.66
575.82	54635.13
575.98	54681.94
576.14	55873.27
576.30	56264.14
576.46	55248.35
576.62	54913.65
576.79	55009.61
576.95	55072.81
577.11	55379.42
577.27	55348.99
577.43	55863.91
577.59	55072.81
577.75	54005.52
577.92	53986.80
578.08	54309.79
578.24	54630.44
578.40	54356.60
578.56	53759.76
578.72	54148.29
578.88	53827.64
579.04	54227.87
579.21	54024.25
579.37	54372.99
579.53	54691.30
579.69	54040.63
579.85	53979.78
580.01	54155.32
580.17	53474.22
580.33	54766.20
580.49	54852.80
580.65	53399.32
580.82	54349.58
580.98	54829.39
581.14	54761.51
581.30	54548.53
581.46	53909.56
581.62	54101.48
581.78	54965.14
581.94	55332.60
582.10	55192.17
582.26	55217.92
582.42	55168.77
582.58	54024.25
582.74	54120.21
582.90	54333.20
583.06	54578.95
583.22	54525.12
583.38	54691.30
583.54	54876.20
583.70	55007.27
583.86	54948.76
584.02	53799.55
584.18	53893.18
584.34	53385.28
584.50	53546.78
584.66	53687.21
584.82	53656.78
584.98	53628.69
585.14	53329.11
585.30	52959.30
