SpectraSuite Data File
++++++++++++++++++++++++++++++++++++
Date: Mon Oct 07 14:53:38 GMT-05:00 2013
User: price-jones
Dark Spectrum Present: No
Reference Spectrum Present: No
Number of Sampled Component Spectra: 1
Spectrometers: USB2+H05261
Integration Time (usec): 100000 (USB2+H05261)
Spectra Averaged: 1 (USB2+H05261)
Boxcar Smoothing: 0 (USB2+H05261)
Correct for Electrical Dark: No (USB2+H05261)
Strobe/Lamp Enabled: No (USB2+H05261)
Correct for Detector Non-linearity: No (USB2+H05261)
Correct for Stray Light: No (USB2+H05261)
Number of Pixels in Processed Spectrum: 2048
>>>>>Begin Processed Spectral Data<<<<<
365.73	0.00
365.92	0.00
366.12	0.00
366.32	0.00
366.52	0.00
366.72	0.00
366.91	0.00
367.11	0.00
367.31	0.00
367.51	0.00
367.70	0.00
367.90	0.00
368.10	0.00
368.30	0.00
368.49	0.00
368.69	0.00
368.89	0.00
369.09	0.00
369.28	0.00
369.48	0.00
369.68	0.00
369.87	0.00
370.07	0.00
370.27	0.00
370.47	358.10
370.66	2216.49
370.86	2553.52
371.06	2874.18
371.25	2855.45
371.45	2541.82
371.65	2399.05
371.84	2155.63
372.04	2256.28
372.24	2684.59
372.44	2640.12
372.63	2759.49
372.83	2534.80
373.03	2113.50
373.22	2064.35
373.42	2066.69
373.62	2394.37
373.81	2738.43
374.01	2525.44
374.21	2303.09
374.40	2134.57
374.60	2373.30
374.79	2597.99
374.99	3077.80
375.19	3258.03
375.38	3339.94
375.58	2977.16
375.78	3023.97
375.97	3063.76
376.17	3314.20
376.37	3258.03
376.56	3208.87
376.76	3468.67
376.95	3667.62
377.15	3981.25
377.35	4084.23
377.54	4159.13
377.74	4306.59
377.93	4512.55
378.13	4294.88
378.33	4149.77
378.52	3700.39
378.72	3581.02
378.91	3559.95
379.11	3297.81
379.31	3265.05
379.50	3236.96
379.70	3485.06
379.89	3875.93
380.09	4056.15
380.28	4339.35
380.48	4369.78
380.68	4163.81
380.87	4145.09
381.07	3777.62
381.26	3501.44
381.46	3262.71
381.65	3316.54
381.85	3201.85
382.04	2848.43
382.24	2792.26
382.43	2703.32
382.63	2497.35
382.83	2607.36
383.02	2612.04
383.22	2619.06
383.41	2495.01
383.61	2878.86
383.80	3204.19
384.00	3639.53
384.19	4016.36
384.39	4341.69
384.58	4264.46
384.78	4201.26
384.97	4131.05
385.17	3875.93
385.36	3763.58
385.56	3602.08
385.75	3775.28
385.95	3995.29
386.14	4491.49
386.34	4381.48
386.53	4241.05
386.72	3882.95
386.92	4112.32
387.11	4060.83
387.31	4514.89
387.50	4414.25
387.70	4227.01
387.89	4215.30
388.09	4149.77
388.28	4318.29
388.48	4217.65
388.67	4643.62
388.86	5046.20
389.06	5497.92
389.25	5806.87
389.45	5867.72
389.64	5795.17
389.84	5872.40
390.03	5582.18
390.22	5640.69
390.42	5748.36
390.61	6244.55
390.81	6759.47
391.00	6785.21
391.19	6527.75
391.39	6480.94
391.58	6108.80
391.78	5600.90
391.97	5600.90
392.16	5228.76
392.36	4774.69
392.55	3796.35
392.75	3073.12
392.94	2455.22
393.13	2415.43
393.33	2850.77
393.52	3581.02
393.71	4500.85
393.91	5071.94
394.10	5607.92
394.29	6019.86
394.49	6544.14
394.68	7005.22
394.88	6981.82
395.07	7356.30
395.26	7267.36
395.46	7138.63
395.65	6733.72
395.84	5750.70
396.04	5069.60
396.23	4053.81
396.42	3356.33
396.62	3346.97
396.81	3688.68
397.00	4807.46
397.19	5874.74
397.39	7054.37
397.58	8011.65
397.77	8472.74
397.97	8809.78
398.16	9034.47
398.35	9296.61
398.55	9462.79
398.74	9928.55
398.93	10146.22
399.12	9839.61
399.32	9493.21
399.51	9715.56
399.70	10193.03
399.90	10267.93
400.09	10429.43
400.28	10293.68
400.47	10403.68
400.67	10853.06
400.86	11197.12
401.05	11066.05
401.24	11206.48
401.44	11405.43
401.63	11405.43
401.82	11616.08
402.01	11332.87
402.21	11510.75
402.40	11648.85
402.59	11304.79
402.78	10761.78
402.97	10633.05
403.17	10813.28
403.36	11499.05
403.55	11999.93
403.74	12135.68
403.93	11386.71
404.13	10707.95
404.32	10537.09
404.51	11136.27
404.70	11857.15
404.89	11936.73
405.09	11808.00
405.28	11410.11
405.47	11358.62
405.66	11241.59
405.85	11098.82
406.05	10651.78
406.24	10719.65
406.43	11173.72
406.62	11786.94
406.81	11873.54
407.00	11506.07
407.20	11023.92
407.39	11218.19
407.58	11852.47
407.77	12013.97
407.96	12428.24
408.15	12954.87
408.34	12720.81
408.54	13465.10
408.73	13488.51
408.92	13305.95
409.11	13128.06
409.30	12404.84
409.49	11557.57
409.68	10799.23
409.87	10450.49
410.07	11019.24
410.26	12084.19
410.45	12643.57
410.64	13025.08
410.83	13355.10
411.02	13696.82
411.21	14331.10
411.40	14281.95
411.59	14359.19
411.78	14059.60
411.98	14080.66
412.17	14406.00
412.36	13853.63
412.55	14022.15
412.74	13668.73
412.93	13184.24
413.12	13530.64
413.31	14672.82
413.50	14665.80
413.69	15082.41
413.88	14710.27
414.07	14230.46
414.26	14485.58
414.45	15082.41
414.64	14913.89
414.83	14960.70
415.02	14775.80
415.22	14679.84
415.41	14986.45
415.60	15356.25
415.79	15922.66
415.98	16549.93
416.17	16566.31
416.36	16194.17
416.55	15754.15
416.74	15115.18
416.93	14658.78
417.12	14878.79
417.31	15087.09
417.50	15281.36
417.69	15843.09
417.88	15658.18
418.07	15576.27
418.26	15105.82
418.45	15754.15
418.64	16044.37
418.83	16236.30
419.02	16559.29
419.21	16482.05
419.39	15618.39
419.58	14679.84
419.77	15028.58
419.96	15515.41
420.15	16460.99
420.34	16856.54
420.53	17462.74
420.72	17862.97
420.91	17825.52
421.10	17324.65
421.29	17579.76
421.48	16594.40
421.67	17488.48
421.86	17163.15
422.05	15962.45
422.24	14487.92
422.43	14052.58
422.61	15772.87
422.80	17018.04
422.99	16833.13
423.18	16318.22
423.37	15985.86
423.56	15971.82
423.75	16109.91
423.94	16554.61
424.13	15676.91
424.32	16025.65
424.50	16159.06
424.69	15798.62
424.88	15630.10
425.07	15735.42
425.26	15889.90
425.45	15587.97
425.64	15300.08
425.83	15295.40
426.01	15953.09
426.20	16699.72
426.39	16463.33
426.58	15269.66
426.77	13954.27
426.96	13624.26
427.15	14319.40
427.33	15161.99
427.52	15674.57
427.71	16088.84
427.90	15880.53
428.09	15541.16
428.28	15440.51
428.46	14878.79
428.65	14614.30
428.84	14820.27
429.03	15192.42
429.22	14487.92
429.40	13586.81
429.59	12418.88
429.78	10927.96
429.97	11059.03
430.16	11225.21
430.34	11300.11
430.53	11183.08
430.72	11150.31
430.91	12706.77
431.10	15201.78
431.28	17432.31
431.47	18691.52
431.66	19028.56
431.85	17537.63
432.03	16191.83
432.22	15314.13
432.41	15831.38
432.60	17912.12
432.79	18448.10
432.97	18988.77
433.16	18443.42
433.35	16884.62
433.54	15098.80
433.72	14143.86
433.91	14476.21
434.10	16322.90
434.28	17390.18
434.47	18546.40
434.66	18380.23
434.85	17710.83
435.03	17713.17
435.22	18368.52
435.41	19573.90
435.59	19269.63
435.78	19466.24
435.97	19803.27
436.16	20060.73
436.34	19936.68
436.53	19180.69
436.72	19545.81
436.90	18347.46
437.09	18600.24
437.28	18038.51
437.46	18967.70
437.65	18457.46
437.84	17427.63
438.02	16009.26
438.21	15571.58
438.40	16599.08
438.58	18059.57
438.77	18616.62
438.96	18642.37
439.14	19517.73
439.33	19686.25
439.52	20226.91
439.70	20051.37
439.89	19353.89
440.08	18958.34
440.26	18918.55
440.45	19552.84
440.63	20765.23
440.82	21937.84
441.01	21701.45
441.19	21429.94
441.38	21926.14
441.57	22981.72
441.75	22974.70
441.94	22672.77
442.12	22731.28
442.31	23627.71
442.50	23330.46
442.68	23271.95
442.87	22679.79
443.05	22160.19
443.24	22611.92
443.43	22972.36
443.61	23674.52
443.80	24004.53
443.98	22843.63
444.17	22333.39
444.35	23770.48
444.54	24217.52
444.73	23838.36
444.91	22993.42
445.10	22209.34
445.28	21167.80
445.47	20982.90
445.65	20987.58
445.84	21692.08
446.02	22286.58
446.21	22621.28
446.39	22726.60
446.58	22979.38
446.77	23293.01
446.95	23838.36
447.14	24180.07
447.32	24835.42
447.51	24210.50
447.69	23297.69
447.88	22883.42
448.06	23580.90
448.25	23744.73
448.43	23885.17
448.62	23379.61
448.80	23234.50
448.99	23283.65
449.17	23946.02
449.36	23885.17
449.54	24879.89
449.73	24709.04
449.91	25223.95
450.10	26321.66
450.28	26345.07
450.46	26494.86
450.65	26534.65
450.83	26148.46
451.02	25516.52
451.20	25125.65
451.39	25017.99
451.57	25104.59
451.76	24985.22
451.94	24933.73
452.13	24587.33
452.31	23527.06
452.49	22494.89
452.68	22389.56
452.86	22801.50
453.05	23131.51
453.23	23868.78
453.42	23978.79
453.60	24816.70
453.78	25127.99
453.97	24563.92
454.15	24865.85
454.34	23922.62
454.52	24329.87
454.70	24079.43
454.89	24283.06
455.07	24027.94
455.26	24884.58
455.44	25242.68
455.62	26139.10
455.81	26342.73
455.99	25977.61
456.17	25469.71
456.36	25635.89
456.54	26258.47
456.73	26590.83
456.91	26867.01
457.09	27517.68
457.28	27623.00
457.46	26487.84
457.64	26188.25
457.83	25514.18
458.01	24954.79
458.19	25387.79
458.38	25584.40
458.56	26824.88
458.74	26635.30
458.93	26274.85
459.11	25685.04
459.29	25745.89
459.48	25715.47
459.66	25546.95
459.84	25802.07
460.03	26677.43
460.21	26171.87
460.39	26703.17
460.57	27044.89
460.76	27503.64
460.94	27239.15
461.12	27051.91
461.31	27087.02
461.49	26775.73
461.67	27026.17
461.85	27747.05
462.04	27564.49
462.22	28449.21
462.40	27728.33
462.59	27613.64
462.77	27740.03
462.95	27686.20
463.13	27723.65
463.32	27180.64
463.50	27173.62
463.68	26890.41
463.86	27009.78
464.05	26913.82
464.23	26167.19
464.41	26174.21
464.59	25778.66
464.78	26658.70
464.96	26408.26
465.14	26387.20
465.32	27091.70
465.50	28018.55
465.69	28002.17
465.87	27325.75
466.05	26724.24
466.23	25680.36
466.41	24821.38
466.60	26038.46
466.78	25713.13
466.96	26621.25
467.14	27035.53
467.32	27070.64
467.51	27084.68
467.69	25521.20
467.87	26422.31
468.05	26576.78
468.23	27051.91
468.41	26881.05
468.60	26932.54
468.78	27297.67
468.96	26714.87
469.14	27669.81
469.32	27503.64
469.50	26581.46
469.69	26511.25
469.87	26349.75
470.05	26305.28
470.23	25881.64
470.41	26237.41
470.59	26785.09
470.77	26632.96
470.95	27302.35
471.14	27693.22
471.32	27688.54
471.50	29130.31
471.68	29467.34
471.86	29493.09
472.04	29432.24
472.22	29614.80
472.40	27889.82
472.58	28004.51
472.77	27889.82
472.95	28290.06
473.13	28919.66
473.31	27730.67
473.49	28261.97
473.67	29067.11
473.85	29163.08
474.03	29802.04
474.21	29921.41
474.39	30543.99
474.57	30263.13
474.75	30761.66
474.93	29846.51
475.12	29263.72
475.30	29659.27
475.48	29507.13
475.66	30258.45
475.84	30038.44
476.02	29331.59
476.20	29209.89
476.38	29256.70
476.56	30408.24
476.74	30724.21
476.92	31068.27
477.10	31644.04
477.28	32587.28
477.46	32631.75
477.64	32641.11
477.82	33420.51
478.00	32870.48
478.18	32093.43
478.36	32268.97
478.54	32231.52
478.72	32662.18
478.90	33401.79
479.08	34445.66
479.26	34841.21
479.44	34637.59
479.62	34457.37
479.80	34555.67
479.98	34972.28
480.16	35049.52
480.34	34845.90
480.52	34991.01
480.70	35590.19
480.88	34934.84
481.06	35761.05
481.24	36018.50
481.41	36648.11
481.59	37411.12
481.77	36903.23
481.95	36664.49
482.13	36339.16
482.31	36486.61
482.49	36886.84
482.67	36577.89
482.85	37301.12
483.03	37785.61
483.21	38270.10
483.39	38141.37
483.57	37184.09
483.74	36954.72
483.92	37750.50
484.10	37972.85
484.28	38485.43
484.46	38770.97
484.64	39569.10
484.82	38244.35
485.00	38244.35
485.18	37209.84
485.35	35967.01
485.53	33635.84
485.71	30497.18
485.89	29963.54
486.07	31463.82
486.25	34518.22
486.43	36350.86
486.61	37177.07
486.78	37287.07
486.96	37013.23
487.14	38672.67
487.32	39667.40
487.50	40992.14
487.68	41556.21
487.85	42092.19
488.03	42085.17
488.21	41996.23
488.39	41287.05
488.57	40669.15
488.75	40072.31
488.92	41216.83
489.10	43199.27
489.28	44945.31
489.46	45673.21
489.64	45551.51
489.81	46036.00
489.99	46003.23
490.17	45614.70
490.35	46052.38
490.53	45558.53
490.70	45029.57
490.88	44306.34
491.06	46026.63
491.24	46225.58
491.41	44624.65
491.59	42754.57
491.77	41785.58
491.95	43274.16
492.13	44540.39
492.30	46057.06
492.48	47597.13
492.66	48076.94
492.84	47859.27
493.01	47599.47
493.19	47070.51
493.37	46705.39
493.54	45769.18
493.72	46824.76
493.90	48289.93
494.08	49415.73
494.25	49914.26
494.43	49682.55
494.61	50642.17
494.79	50450.25
494.96	50230.24
495.14	49453.18
495.32	48105.03
495.49	47730.54
495.67	48863.36
495.85	50342.58
496.02	50986.23
496.20	50878.57
496.38	50255.98
496.55	50328.54
496.73	50639.83
496.91	50614.08
497.09	51426.25
497.26	51847.55
497.44	51276.46
497.62	50511.10
497.79	49734.04
497.97	48140.14
498.14	47892.04
498.32	49701.28
498.50	50398.76
498.67	51615.83
498.85	51285.82
499.03	51430.93
499.20	51880.31
499.38	51880.31
499.56	51774.99
499.73	50866.86
499.91	50593.02
500.08	50148.32
500.26	48996.77
500.44	49457.86
500.61	50576.64
500.79	50513.44
500.97	49989.16
501.14	49855.75
501.32	49359.56
501.49	49633.40
501.67	49965.76
501.84	50265.34
502.02	50454.93
502.20	51210.92
502.37	51332.63
502.55	51395.82
502.72	52034.79
502.90	52652.69
503.07	52081.60
503.25	51547.96
503.43	50660.90
503.60	49944.69
503.78	48910.17
503.95	49389.98
504.13	51290.50
504.30	52547.37
504.48	52006.70
504.65	51618.17
504.83	51922.44
505.01	52526.30
505.18	52746.31
505.36	53633.38
505.53	53607.63
505.71	53991.48
505.88	54028.93
506.06	53233.14
506.23	52865.68
506.41	52559.07
506.58	52425.66
506.76	52350.76
506.93	52446.72
507.11	52067.56
507.28	52598.86
507.46	51936.49
507.63	51105.60
507.81	50883.25
507.98	51393.48
508.16	52292.25
508.33	52584.82
508.50	53495.28
508.68	53516.35
508.85	54054.67
509.03	53904.88
509.20	53986.80
509.38	53141.86
509.55	52205.65
509.73	52207.99
509.90	53057.60
510.08	53352.51
510.25	53158.25
510.42	52701.84
510.60	52947.60
510.77	53111.44
510.95	53876.79
511.12	53996.16
511.30	54181.06
511.47	54637.47
511.64	54703.00
511.82	54405.75
511.99	53296.34
512.17	52636.31
512.34	52449.06
512.51	52362.46
512.69	52706.52
512.86	52849.30
513.04	53183.99
513.21	53289.32
513.38	52921.85
513.56	52296.93
513.73	51384.12
513.90	51901.38
514.08	52079.26
514.25	52205.65
514.43	52655.03
514.60	52617.58
514.77	52882.06
514.95	53160.59
515.12	52746.31
515.29	53158.25
515.47	53813.60
515.64	53741.04
515.81	53258.89
515.99	52851.64
516.16	50941.76
516.33	48261.85
516.51	46183.45
516.68	45434.48
516.85	45003.82
517.03	45261.28
517.20	48736.98
517.37	51744.56
517.54	52935.90
517.72	52378.85
517.89	49581.91
518.06	46366.01
518.24	46768.58
518.41	49504.67
518.58	51100.92
518.75	51779.67
518.93	51955.21
519.10	51728.18
519.27	52186.92
519.45	52390.55
519.62	53268.25
519.79	53916.58
519.96	53366.55
520.14	53027.18
520.31	52158.84
520.48	51873.29
520.65	52175.22
520.83	53626.35
521.00	53661.46
521.17	53509.33
521.34	52956.96
521.52	53553.80
521.69	54120.21
521.86	54415.11
522.03	54204.47
522.20	53008.45
522.38	51543.28
522.55	51880.31
522.72	52390.55
522.89	52633.97
523.07	52839.93
523.24	53069.31
523.41	54185.74
523.58	54316.81
523.75	54993.23
523.92	54693.64
524.10	54700.66
524.27	54878.54
524.44	54438.52
524.61	54396.39
524.78	54012.54
524.96	53923.60
525.13	53909.56
525.30	54365.96
525.47	54583.63
525.64	54602.36
525.81	53666.14
525.98	52332.04
526.16	50506.42
526.33	49858.09
526.50	49375.94
526.67	48619.95
526.84	49542.12
527.01	50707.71
527.18	51791.37
527.36	52530.98
527.53	53879.13
527.70	54270.00
527.87	53528.05
528.04	52942.92
528.21	53434.43
528.38	54365.96
528.55	54808.32
528.72	55203.88
528.89	55510.49
529.07	55023.65
529.24	54307.45
529.41	53832.32
529.58	52949.94
529.75	53041.22
529.92	53551.46
530.09	54089.78
530.26	54571.93
530.43	54810.67
530.60	54890.24
530.77	55210.90
530.94	55187.49
531.11	54974.50
531.28	54372.99
531.46	54288.73
531.63	54307.45
531.80	54380.01
531.97	53881.47
532.14	52985.05
532.31	51789.03
532.48	51049.42
532.65	50979.21
532.82	51908.40
532.99	53481.24
533.16	53925.94
533.33	54309.79
533.50	54167.02
533.67	53701.25
533.84	52701.84
534.01	53066.97
534.18	53322.08
534.35	53907.22
534.52	53361.87
534.69	53897.86
534.86	53965.73
535.03	54583.63
535.20	54838.75
535.37	55182.81
535.54	55519.85
535.71	55042.38
535.88	54787.26
536.05	53970.41
536.22	53645.08
536.38	52971.00
536.55	52889.09
536.72	51962.23
536.89	51770.31
537.06	52807.17
537.23	53748.06
537.40	54188.08
537.57	53937.65
537.74	53813.60
537.91	53947.01
538.08	53874.45
538.25	53558.48
538.42	54209.15
538.59	53705.93
538.75	53254.21
538.92	52685.46
539.09	52428.00
539.26	52055.85
539.43	52130.75
539.60	52095.64
539.77	52514.60
539.94	52692.48
540.11	51667.33
540.28	50803.67
540.44	51145.39
540.61	51339.65
540.78	51569.02
540.95	51997.34
541.12	52542.69
541.29	53090.37
541.46	53183.99
541.62	53263.57
541.79	53151.23
541.96	52275.87
542.13	52392.89
542.30	52708.86
542.47	52832.91
542.63	52622.26
542.80	52268.84
542.97	52542.69
543.14	52360.12
543.31	52458.43
543.48	53179.31
543.64	53874.45
543.81	54368.30
543.98	54239.57
544.15	53432.09
544.32	52575.45
544.48	52746.31
544.65	53251.87
544.82	53581.88
544.99	53322.08
545.16	52917.17
545.32	52720.57
545.49	53380.60
545.66	53911.90
545.83	53619.33
546.00	52942.92
546.16	52729.93
546.33	52690.14
546.50	52835.25
546.67	53221.44
546.83	52715.89
547.00	52762.70
547.17	51978.62
547.34	51063.47
547.50	51349.01
547.67	51840.53
547.84	51770.31
548.00	52381.19
548.17	52886.74
548.34	52790.78
548.51	52823.55
548.67	52666.73
548.84	52987.39
549.01	52975.69
549.18	52708.86
549.34	52594.18
549.51	52685.46
549.68	52495.88
549.84	52402.25
550.01	52163.52
550.18	51978.62
550.34	52285.23
550.51	52229.05
550.68	52472.47
550.84	51812.44
551.01	52151.82
551.18	51604.13
551.34	52121.39
551.51	52287.57
551.68	52727.59
551.84	52830.57
552.01	52486.51
552.18	52371.83
552.34	51508.17
552.51	51110.28
552.68	50930.06
552.84	51468.38
553.01	52048.83
553.18	51800.74
553.34	51903.72
553.51	51980.96
553.67	52105.01
553.84	52315.65
554.01	52444.38
554.17	52154.16
554.34	52102.67
554.51	52659.71
554.67	53139.52
554.84	52451.41
555.00	52392.89
555.17	51852.23
555.33	52081.60
555.50	51723.50
555.67	51683.71
555.83	51812.44
556.00	51489.45
556.16	51159.43
556.33	50845.80
556.50	50546.21
556.66	50288.75
556.83	50253.64
556.99	50590.68
557.16	50560.25
557.32	50887.93
557.49	50913.67
557.65	50923.04
557.82	51143.05
557.98	51091.55
558.15	50375.35
558.32	49324.45
558.48	48030.13
558.65	48699.53
558.81	48830.60
558.98	49010.82
559.14	49797.24
559.31	49642.76
559.47	49940.01
559.64	49277.64
559.80	48643.35
559.97	49193.38
560.13	49703.62
560.30	50801.33
560.46	51494.13
560.63	51917.76
560.79	51838.18
560.96	51072.83
561.12	49815.96
561.29	48631.65
561.45	48479.52
561.61	50038.31
561.78	49794.90
561.94	49895.54
562.11	49577.23
562.27	49799.58
562.44	49731.70
562.60	50241.94
562.77	50349.60
562.93	50321.52
563.10	50024.27
563.26	49502.33
563.42	49916.61
563.59	49027.20
563.75	49345.51
563.92	49385.30
564.08	49446.16
564.24	49640.42
564.41	49614.68
564.57	49673.19
564.74	49563.18
564.90	49495.31
565.07	49193.38
565.23	48648.03
565.39	47892.04
565.56	47580.75
565.72	47391.17
565.88	47744.59
566.05	48114.39
566.21	48231.42
566.38	48624.63
566.54	48566.12
566.70	48861.02
566.87	49291.68
567.03	49453.18
567.19	49518.71
567.36	49169.97
567.52	49095.08
567.68	48807.19
567.85	47728.20
568.01	47517.56
568.17	46845.82
568.34	47012.00
568.50	46726.46
568.66	47051.79
568.83	47753.95
568.99	48013.75
569.15	47929.49
569.32	47608.84
569.48	47475.43
569.64	47763.31
569.81	47189.88
569.97	47199.24
570.13	46759.22
570.30	46066.42
570.46	46103.87
570.62	44783.81
570.78	44966.37
570.95	45294.05
571.11	45965.78
571.27	46244.30
571.43	46962.85
571.60	47131.37
571.76	47482.45
571.92	47665.01
572.09	47894.38
572.25	47700.12
572.41	47817.14
572.57	47653.31
572.74	47943.53
572.90	46958.17
573.06	47065.83
573.22	47262.44
573.38	47086.90
573.55	46742.84
573.71	47370.10
573.87	46890.29
574.03	46667.94
574.20	46738.16
574.36	45865.14
574.52	45900.25
574.68	46330.90
574.84	45186.38
575.01	45226.17
575.17	44683.17
575.33	45207.45
575.49	45839.39
575.65	45504.70
575.82	45265.96
575.98	45216.81
576.14	45897.91
576.30	45935.35
576.46	46202.18
576.62	45720.02
576.79	45862.80
576.95	45284.68
577.11	45610.02
577.27	45186.38
577.43	45301.07
577.59	45223.83
577.75	44524.01
577.92	43931.86
578.08	43264.80
578.24	43833.55
578.40	43976.33
578.56	44350.81
578.72	44561.46
578.88	44727.64
579.04	44847.00
579.21	45258.94
579.37	45186.38
579.53	45258.94
579.69	44898.50
579.85	45301.07
580.01	45172.34
580.17	44406.98
580.33	44554.44
580.49	44528.69
580.65	44973.39
580.82	45184.04
580.98	45603.00
581.14	45059.99
581.30	45104.46
581.46	44521.67
581.62	45160.64
581.78	45247.24
581.94	45212.13
582.10	45029.57
582.26	45485.97
582.42	45308.09
582.58	45228.51
582.74	45375.97
582.90	45347.88
583.06	45191.06
583.22	44954.67
583.38	44788.49
583.54	45109.14
583.70	45148.93
583.86	44830.62
584.02	44399.96
584.18	44690.19
584.34	44282.94
584.50	44460.82
584.66	44734.66
584.82	43805.47
584.98	43723.55
585.14	43384.17
585.30	42644.56
