SpectraSuite Data File
++++++++++++++++++++++++++++++++++++
Date: Mon Oct 07 14:53:22 GMT-05:00 2013
User: price-jones
Dark Spectrum Present: No
Reference Spectrum Present: No
Number of Sampled Component Spectra: 1
Spectrometers: USB2+H05261
Integration Time (usec): 100000 (USB2+H05261)
Spectra Averaged: 1 (USB2+H05261)
Boxcar Smoothing: 0 (USB2+H05261)
Correct for Electrical Dark: No (USB2+H05261)
Strobe/Lamp Enabled: No (USB2+H05261)
Correct for Detector Non-linearity: No (USB2+H05261)
Correct for Stray Light: No (USB2+H05261)
Number of Pixels in Processed Spectrum: 2048
>>>>>Begin Processed Spectral Data<<<<<
365.73	0.00
365.92	0.00
366.12	0.00
366.32	0.00
366.52	0.00
366.72	0.00
366.91	0.00
367.11	0.00
367.31	0.00
367.51	0.00
367.70	0.00
367.90	0.00
368.10	0.00
368.30	0.00
368.49	0.00
368.69	0.00
368.89	0.00
369.09	0.00
369.28	0.00
369.48	0.00
369.68	0.00
369.87	0.00
370.07	0.00
370.27	0.00
370.47	592.16
370.66	3117.59
370.86	3602.08
371.06	3939.12
371.25	3929.76
371.45	3545.91
371.65	3297.81
371.84	2974.82
372.04	3297.81
372.24	3583.36
372.44	3733.15
372.63	3627.83
372.83	3438.25
373.03	3108.23
373.22	2736.09
373.42	3023.97
373.62	3513.14
373.81	3597.40
374.01	3693.37
374.21	3379.73
374.40	3126.96
374.60	3241.64
374.79	3438.25
374.99	4212.96
375.19	4430.63
375.38	4533.62
375.58	4325.31
375.78	4074.87
375.97	4163.81
376.17	4512.55
376.37	4320.63
376.56	4617.88
376.76	4819.16
376.95	5167.90
377.15	5488.56
377.35	5724.95
377.54	5959.00
377.74	5905.17
377.93	6015.18
378.13	5809.21
378.33	5729.63
378.52	5160.88
378.72	4961.94
378.91	4840.23
379.11	4727.88
379.31	4528.94
379.50	4519.57
379.70	5043.85
379.89	5568.13
380.09	5781.12
380.28	6181.35
380.48	5799.85
380.68	5816.23
380.87	5593.88
381.07	5205.35
381.26	4884.70
381.46	4514.89
381.65	4344.03
381.85	4198.92
382.04	4205.94
382.24	3737.84
382.43	3674.64
382.63	3588.04
382.83	3527.19
383.02	3543.57
383.22	3634.85
383.41	3625.49
383.61	3779.97
383.80	4442.34
384.00	4947.89
384.19	5638.35
384.39	5856.02
384.58	6029.22
384.78	5769.42
384.97	5643.03
385.17	5315.36
385.36	5235.78
385.56	4854.27
385.75	4983.00
385.95	5490.90
386.14	6005.81
386.34	6253.91
386.53	5771.76
386.72	5504.94
386.92	5643.03
387.11	5748.36
387.31	6043.26
387.50	6003.47
387.70	5743.67
387.89	5785.80
388.09	5830.27
388.28	5781.12
388.48	5888.79
388.67	6286.68
388.86	6764.15
389.06	7400.77
389.25	7845.48
389.45	7667.60
389.64	7894.63
389.84	7676.96
390.03	7527.16
390.22	7618.44
390.42	8079.53
390.61	8386.14
390.81	8898.72
391.00	9139.79
391.19	8901.06
391.39	8751.26
391.58	8187.19
391.78	7789.30
391.97	7566.95
392.16	6860.11
392.36	6551.16
392.55	5177.26
392.75	4121.68
392.94	3515.48
393.13	3286.11
393.33	3852.52
393.52	5015.77
393.71	6289.02
393.91	6836.70
394.10	7632.49
394.29	8336.99
394.49	8879.99
394.68	9628.96
394.88	9533.00
395.07	9748.33
395.26	9792.80
395.46	9420.66
395.65	8954.89
395.84	7960.16
396.04	6724.36
396.23	5322.38
396.42	4484.47
396.62	4337.01
396.81	5015.77
397.00	6352.21
397.19	8175.49
397.39	9846.63
397.58	10993.50
397.77	11531.82
397.97	12042.06
398.16	11892.26
398.35	12390.80
398.55	12910.40
398.74	13341.05
398.93	13591.49
399.12	13177.22
399.32	12772.30
399.51	13228.71
399.70	14043.21
399.90	14104.07
400.09	14015.13
400.28	13720.22
400.47	13980.02
400.67	14721.97
400.86	15190.08
401.05	15112.84
401.24	15028.58
401.44	15283.70
401.63	15293.06
401.82	15524.77
402.01	15367.96
402.21	15655.84
402.40	15662.86
402.59	14913.89
402.78	14539.41
402.97	14090.02
403.17	14574.52
403.36	15459.24
403.55	16084.16
403.74	16411.84
403.93	15609.03
404.13	14464.51
404.32	14141.52
404.51	14691.54
404.70	16145.02
404.89	15992.88
405.09	15665.21
405.28	15351.57
405.47	15070.71
405.66	15098.80
405.85	14864.74
406.05	14340.46
406.24	14410.68
406.43	15264.97
406.62	15719.04
406.81	15742.44
407.00	15510.73
407.20	15035.60
407.39	15077.73
407.58	15873.51
407.77	16547.59
407.96	16788.66
408.15	17163.15
408.34	17277.83
408.54	18171.92
408.73	18038.51
408.92	17830.20
409.11	17518.91
409.30	16301.83
409.49	15482.64
409.68	14595.58
409.87	14104.07
410.07	15105.82
410.26	15999.90
410.45	17179.53
410.64	17518.91
410.83	18129.79
411.02	18469.17
411.21	19133.88
411.40	19183.03
411.59	19330.48
411.78	18808.54
411.98	18675.13
412.17	19391.34
412.36	18328.74
412.55	18665.77
412.74	18132.13
412.93	17823.18
413.12	18097.02
413.31	19964.77
413.50	19864.13
413.69	20280.74
413.88	19557.52
414.07	18761.73
414.26	19101.11
414.45	19988.18
414.64	20137.97
414.83	20187.12
415.02	19711.99
415.22	19517.73
415.41	20318.19
415.60	20704.38
415.79	21235.68
415.98	22286.58
416.17	22237.43
416.36	21406.54
416.55	21174.83
416.74	20575.65
416.93	19693.27
417.12	19594.96
417.31	20156.69
417.50	20585.01
417.69	21074.18
417.88	21060.14
418.07	20863.54
418.26	20212.87
418.45	20709.06
418.64	21429.94
418.83	22307.65
419.02	21764.64
419.21	21631.23
419.39	20662.25
419.58	19711.99
419.77	19655.82
419.96	20849.49
420.15	21928.48
420.34	22754.69
420.53	23550.47
420.72	23662.82
420.91	23211.09
421.10	23159.60
421.29	23026.19
421.48	22073.59
421.67	23473.23
421.86	22909.16
422.05	21284.83
422.24	19391.34
422.43	18754.71
422.61	20622.46
422.80	22513.61
422.99	22349.78
423.18	21610.17
423.37	21362.07
423.56	20929.07
423.75	21551.65
423.94	22108.70
424.13	20989.92
424.32	21331.64
424.50	21165.46
424.69	20987.58
424.88	20884.60
425.07	20741.83
425.26	20872.90
425.45	20482.03
425.64	20224.57
425.83	20229.25
426.01	21589.10
426.20	21930.82
426.39	21713.15
426.58	20308.83
426.77	18665.77
426.96	18139.15
427.15	18745.35
427.33	20367.34
427.52	21181.85
427.71	21191.21
427.90	21067.16
428.09	21010.99
428.28	20229.25
428.46	19906.26
428.65	19239.20
428.84	19885.19
429.03	20154.35
429.22	19456.87
429.40	18017.44
429.59	16496.10
429.78	14546.43
429.97	14537.07
430.16	15012.20
430.34	14916.23
430.53	14792.19
430.72	15264.97
430.91	17006.33
431.10	20013.92
431.28	23047.26
431.47	24968.84
431.66	25429.92
431.85	23356.21
432.03	21095.25
432.22	20304.15
432.41	21294.19
432.60	23761.12
432.79	24285.40
432.97	24762.87
433.16	24547.54
433.35	22359.14
433.54	20112.22
433.72	18895.14
433.91	19421.77
434.10	21649.96
434.28	23403.02
434.47	24732.44
434.66	24444.56
434.85	23288.33
435.03	23550.47
435.22	23953.04
435.41	25282.47
435.59	25359.70
435.78	25745.89
435.97	26581.46
436.16	26749.98
436.34	26307.62
436.53	25525.88
436.72	25544.61
436.90	23845.38
437.09	24484.34
437.28	23936.66
437.46	24599.03
437.65	24589.67
437.84	23101.09
438.02	21195.89
438.21	20896.30
438.40	22176.58
438.58	23587.92
438.77	24526.47
438.96	25027.35
439.14	26054.84
439.33	26745.30
439.52	26967.65
439.70	26204.64
439.89	25841.85
440.08	24753.51
440.26	24938.41
440.45	26183.57
440.63	27510.66
440.82	29165.42
441.01	28493.68
441.19	28477.30
441.38	28711.35
441.57	29846.51
441.75	30054.82
441.94	30476.12
442.12	29958.86
442.31	30939.54
442.50	30773.36
442.68	30654.00
442.87	30017.37
443.05	29064.77
443.24	29996.31
443.43	30508.88
443.61	31028.48
443.80	31702.56
443.98	30015.03
444.17	29886.30
444.35	31440.42
444.54	31768.09
444.73	31522.34
444.91	30562.72
445.10	29261.38
445.28	27946.00
445.47	27358.52
445.65	27669.81
445.84	28458.57
446.02	29455.64
446.21	29448.62
446.39	29855.87
446.58	29914.39
446.77	30946.56
446.95	31353.82
447.14	31833.63
447.32	32435.14
447.51	31618.30
447.69	30618.89
447.88	30307.60
448.06	30558.03
448.25	31606.59
448.43	31775.11
448.62	31117.42
448.80	30988.69
448.99	31171.25
449.17	31484.89
449.36	31496.59
449.54	32498.34
449.73	32603.66
449.91	33422.85
450.10	34394.17
450.28	34822.49
450.46	34230.33
450.65	34370.77
450.83	33860.53
451.02	33663.93
451.20	33008.58
451.39	33422.85
451.57	33141.99
451.76	32940.70
451.94	32802.61
452.13	32275.99
452.31	30841.24
452.49	29481.39
452.68	29748.21
452.86	29745.87
453.05	30555.69
453.23	31349.14
453.42	32102.79
453.60	32556.85
453.78	32954.74
453.97	32687.92
454.15	32701.96
454.34	31976.40
454.52	32074.70
454.70	31412.33
454.89	31604.25
455.07	32088.74
455.26	32716.01
455.44	33666.27
455.62	33947.13
455.81	34405.88
455.99	34066.50
456.17	33703.71
456.36	33926.07
456.54	34459.71
456.73	34703.12
456.91	35416.99
457.09	35548.06
457.28	36172.98
457.46	35047.18
457.64	34363.75
457.83	33607.75
458.01	32648.13
458.19	33441.57
458.38	33535.20
458.56	35161.87
458.74	34927.81
458.93	34078.20
459.11	34143.74
459.29	34043.09
459.48	34316.93
459.66	33546.90
459.84	34450.35
460.03	34820.15
460.21	34532.26
460.39	35344.43
460.57	35227.40
460.76	35955.31
460.94	36205.75
461.12	35461.46
461.31	35346.77
461.49	35173.57
461.67	35409.96
461.85	36404.69
462.04	35971.69
462.22	36725.35
462.40	36229.15
462.59	36107.44
462.77	36196.38
462.95	36346.18
463.13	35959.99
463.32	35459.12
463.50	34906.75
463.68	35372.52
463.86	35356.13
464.05	34988.67
464.23	34029.05
464.41	34174.16
464.59	33853.51
464.78	35241.45
464.96	34876.32
465.14	34850.58
465.32	35658.06
465.50	36495.97
465.69	36727.69
465.87	36070.00
466.05	35220.38
466.23	33280.08
466.41	32711.33
466.60	34038.41
466.78	33935.43
466.96	34749.93
467.14	34574.39
467.32	35749.34
467.51	35653.38
467.69	33694.35
467.87	34618.86
468.05	35225.06
468.23	35091.65
468.41	35159.53
468.60	35079.95
468.78	35257.83
468.96	34754.61
469.14	35819.56
469.32	36114.47
469.50	34539.29
469.69	34679.72
469.87	34464.39
470.05	34110.97
470.23	34059.48
470.41	34040.75
470.59	35225.06
470.77	34810.79
470.95	35739.98
471.14	36154.26
471.32	36112.13
471.50	37780.93
471.68	38199.88
471.86	37834.76
472.04	38855.23
472.22	38429.26
472.40	36753.43
472.58	36589.59
472.77	35728.28
472.95	37013.23
473.13	37691.99
473.31	36765.14
473.49	37118.56
473.67	38389.47
473.85	38075.84
474.03	39299.94
474.21	39023.75
474.39	39505.90
474.57	39700.17
474.75	39295.25
474.93	39026.09
475.12	38286.48
475.30	38274.78
475.48	38721.82
475.66	39033.11
475.84	38726.50
476.02	38384.79
476.20	37401.76
476.38	38672.67
476.56	39842.94
476.74	39819.53
476.92	40285.30
477.10	40657.45
477.28	42064.11
477.46	42129.64
477.64	42328.59
477.82	42567.32
478.00	42759.25
478.18	41926.02
478.36	42286.46
478.54	41897.93
478.72	42026.66
478.90	43356.08
479.08	44404.64
479.26	44411.67
479.44	44308.68
479.62	44495.92
479.80	44870.41
479.98	44439.75
480.16	44919.56
480.34	44179.95
480.52	45137.23
480.70	45301.07
480.88	44957.01
481.06	45947.06
481.24	46141.32
481.41	47119.66
481.59	47840.55
481.77	47264.78
481.95	46880.93
482.13	46429.21
482.31	46536.87
482.49	47306.91
482.67	47117.32
482.85	47611.18
483.03	48076.94
483.21	48259.51
483.39	48486.54
483.57	47503.51
483.74	47756.29
483.92	47770.33
484.10	48037.16
484.28	48790.81
484.46	48739.32
484.64	49642.76
484.82	48334.40
485.00	48505.26
485.18	47604.16
485.35	46120.26
485.53	43124.37
485.71	39569.10
485.89	38778.00
486.07	40900.86
486.25	43779.72
486.43	46515.81
486.61	47428.62
486.78	47107.96
486.96	47295.21
487.14	48800.17
487.32	49822.98
487.50	50532.17
487.68	51510.51
487.85	51920.10
488.03	52032.45
488.21	51737.54
488.39	50974.53
488.57	50361.31
488.75	50167.04
488.92	51187.52
489.10	53127.82
489.28	54405.75
489.46	55021.31
489.64	54787.26
489.81	55110.25
489.99	54775.56
490.17	54681.94
490.35	55220.26
490.53	54309.79
490.70	54464.27
490.88	54185.74
491.06	55178.13
491.24	54981.52
491.41	54291.07
491.59	52577.79
491.77	51767.97
491.95	52971.00
492.13	53822.96
492.30	55077.49
492.48	56020.72
492.66	56575.43
492.84	56444.36
493.01	55877.95
493.19	55856.88
493.37	55201.53
493.54	54878.54
493.72	55618.15
493.90	56559.05
494.08	57198.01
494.25	57483.56
494.43	57748.04
494.61	58124.86
494.79	58101.46
494.96	57897.83
495.14	57336.10
495.32	56348.40
495.49	55723.47
495.67	56926.51
495.85	57961.03
496.02	58653.82
496.20	58342.53
496.38	57918.90
496.55	57691.86
496.73	58330.83
496.91	58239.55
497.09	58932.35
497.26	59103.21
497.44	58607.01
497.62	58080.39
497.79	57256.53
497.97	56231.37
498.14	56425.64
498.32	57530.37
498.50	58333.17
498.67	58958.09
498.85	58492.33
499.03	58827.02
499.20	59119.59
499.38	59056.40
499.56	58958.09
499.73	58522.76
499.91	58150.61
500.08	57481.22
500.26	57134.82
500.44	57453.13
500.61	57984.43
500.79	58038.26
500.97	57371.21
501.14	57364.19
501.32	57450.79
501.49	57354.83
501.67	57441.43
501.84	58066.35
502.02	58284.02
502.20	58436.16
502.37	58724.04
502.55	58607.01
502.72	59222.58
502.90	59709.41
503.07	59243.64
503.25	59023.63
503.43	58181.04
503.60	57705.91
503.78	56949.92
503.95	57551.43
504.13	58756.81
504.30	59590.04
504.48	59262.36
504.65	59056.40
504.83	58979.16
505.01	59613.44
505.18	59903.67
505.36	60523.91
505.53	60594.13
505.71	60769.67
505.88	60788.39
506.06	60037.08
506.23	59863.88
506.41	59461.31
506.58	59709.41
506.76	59852.18
506.93	59524.50
507.11	59604.08
507.28	59676.64
507.46	59075.12
507.63	58726.38
507.81	58478.28
507.98	58567.23
508.16	59337.26
508.33	59786.64
508.50	60109.64
508.68	60434.97
508.85	60793.07
509.03	60549.66
509.20	60530.93
509.38	59931.76
509.55	59442.59
509.73	59381.73
509.90	59929.42
510.08	60268.79
510.25	60055.81
510.42	60009.00
510.60	59849.84
510.77	60051.12
510.95	60666.69
511.12	60914.78
511.30	60989.68
511.47	61265.86
511.64	61090.32
511.82	60872.65
511.99	60154.11
512.17	59716.43
512.34	59365.35
512.51	59784.30
512.69	59690.68
512.86	59807.71
513.04	60004.31
513.21	60179.85
513.38	59840.48
513.56	59334.92
513.73	58897.24
513.90	59072.78
514.08	59100.87
514.25	59487.06
514.43	59536.21
514.60	59737.49
514.77	59901.33
514.95	59936.44
515.12	59807.71
515.29	59985.59
515.47	60320.29
515.64	60631.58
515.81	60289.86
515.99	59758.56
516.16	58419.77
516.33	56240.73
516.51	54763.85
516.68	54253.62
516.85	53614.65
517.03	54443.20
517.20	56762.67
517.37	58948.73
517.54	59868.56
517.72	59351.30
517.89	56970.98
518.06	55058.76
518.24	55288.13
518.41	57361.85
518.58	58506.37
518.75	58883.20
518.93	59049.38
519.10	58820.00
519.27	59203.85
519.45	59636.85
519.62	60109.64
519.79	60582.43
519.96	60362.42
520.14	59880.27
520.31	59025.97
520.48	59047.04
520.65	59423.86
520.83	60261.77
521.00	60561.36
521.17	60245.39
521.34	60058.15
521.52	60329.65
521.69	60736.90
521.86	61059.90
522.03	60884.36
522.20	59744.51
522.38	58595.31
522.55	58913.62
522.72	59367.69
522.89	59566.63
523.07	59641.53
523.24	59812.39
523.41	60612.85
523.58	61118.41
523.75	61418.00
523.92	61258.84
524.10	61233.10
524.27	61258.84
524.44	61055.21
524.61	60961.59
524.78	60804.78
524.96	60800.10
525.13	60449.02
525.30	60835.20
525.47	61415.66
525.64	61219.05
525.81	60612.85
525.98	59271.73
526.16	57928.26
526.33	57371.21
526.50	57116.09
526.67	56690.12
526.84	57415.68
527.01	58230.19
527.18	58934.69
527.36	59896.65
527.53	60729.88
527.70	60942.87
527.87	60376.46
528.04	59688.34
528.21	60233.69
528.38	61020.11
528.55	61392.25
528.72	61677.80
528.89	61867.38
529.07	61483.53
529.24	60896.06
529.41	60191.56
529.58	59807.71
529.75	59978.57
529.92	60198.58
530.09	60832.86
530.26	61312.67
530.43	61607.58
530.60	61565.45
530.77	61726.95
530.94	61832.27
531.11	61375.87
531.28	61099.68
531.46	60858.61
531.63	61034.15
531.80	60956.91
531.97	60331.99
532.14	59641.53
532.31	58796.60
532.48	58379.98
532.65	58024.22
532.82	59037.67
532.99	59959.84
533.16	60470.08
533.33	60821.16
533.50	60734.56
533.67	60121.34
533.84	59753.88
534.01	60214.96
534.18	60177.51
534.35	60348.37
534.52	60100.28
534.69	60411.57
534.86	60720.52
535.03	61052.87
535.20	61396.93
535.37	61677.80
535.54	61825.25
535.71	61240.12
535.88	61193.31
536.05	60413.91
536.22	60348.37
536.38	59983.25
536.55	59421.52
536.72	59040.01
536.89	58852.77
537.06	59980.91
537.23	60556.68
537.40	60753.29
537.57	60594.13
537.74	60329.65
537.91	60371.78
538.08	60149.43
538.25	60315.61
538.42	60807.12
538.59	60451.36
538.75	59945.80
538.92	59657.91
539.09	59510.46
539.26	59339.60
539.43	59114.91
539.60	59337.26
539.77	59552.59
539.94	59229.60
540.11	58569.57
540.28	57968.05
540.44	58232.53
540.61	58592.97
540.78	58653.82
540.95	59210.87
541.12	59426.20
541.29	59491.74
541.46	59840.48
541.62	59784.30
541.79	59819.41
541.96	59330.24
542.13	59421.52
542.30	59704.73
542.47	59763.24
542.63	59444.93
542.80	59458.97
542.97	59510.46
543.14	59250.66
543.31	59297.47
543.48	59821.75
543.64	60416.25
543.81	60757.97
543.98	60505.19
544.15	59847.50
544.32	59187.47
544.48	59524.50
544.65	59793.67
544.82	60320.29
544.99	59943.46
545.16	59547.91
545.32	59384.07
545.49	60062.83
545.66	60519.23
545.83	60128.36
546.00	59611.10
546.16	59482.37
546.33	59412.16
546.50	59646.21
546.67	59948.14
546.83	59484.72
547.00	59564.29
547.17	59002.56
547.34	58293.38
547.50	58293.38
547.67	58759.15
547.84	58922.99
548.00	59229.60
548.17	59714.09
548.34	59522.16
548.51	59573.66
548.67	59615.79
548.84	59611.10
549.01	59671.96
549.18	59341.94
549.34	59355.99
549.51	59669.62
549.68	59320.88
549.84	59025.97
550.01	59119.59
550.18	59105.55
550.34	58946.39
550.51	58974.48
550.68	59175.76
550.84	58717.02
551.01	58866.81
551.18	58738.08
551.34	58937.03
551.51	59267.05
551.68	59735.15
551.84	59597.06
552.01	59173.42
552.18	59220.23
552.34	58511.05
552.51	57989.11
552.68	58145.93
552.84	58588.29
553.01	58663.19
553.18	58714.68
553.34	58913.62
553.51	59023.63
553.67	59288.11
553.84	59178.10
554.01	59011.93
554.17	58995.54
554.34	58941.71
554.51	58958.09
554.67	59618.13
554.84	59168.74
555.00	58944.05
555.17	58752.13
555.33	58815.32
555.50	58810.64
555.67	58836.39
555.83	58494.67
556.00	58286.36
556.16	58319.13
556.33	58113.16
556.50	57834.64
556.66	57797.19
556.83	57539.73
556.99	57696.55
557.16	57836.98
557.32	58164.65
557.49	58384.66
557.65	58246.57
557.82	58190.40
557.98	58066.35
558.15	57586.54
558.32	57041.20
558.48	56327.33
558.65	56189.24
558.81	56786.08
558.98	56947.57
559.14	57186.31
559.31	57078.64
559.47	57092.69
559.64	56821.19
559.80	56477.13
559.97	56669.05
560.13	57038.86
560.30	58089.76
560.46	58426.79
560.63	58567.23
560.79	58632.76
560.96	58225.51
561.12	57315.04
561.29	56484.15
561.45	56392.87
561.61	57141.84
561.78	57420.36
561.94	57038.86
562.11	57015.45
562.27	56865.66
562.44	57216.74
562.60	57474.20
562.77	57797.19
562.93	57553.77
563.10	57705.91
563.26	56992.04
563.42	57137.16
563.59	57155.88
563.75	56882.04
563.92	57111.41
564.08	56767.35
564.24	57186.31
564.41	57415.68
564.57	57258.87
564.74	56886.72
564.90	56853.95
565.07	56708.84
565.23	56128.39
565.39	55803.05
565.56	55475.38
565.72	55451.97
565.88	55976.25
566.05	55812.41
566.21	56020.72
566.38	56413.93
566.54	56329.67
566.70	56594.15
566.87	56856.29
567.03	56975.66
567.19	57176.95
567.36	56765.01
567.52	56732.25
567.68	56322.65
567.85	55786.67
568.01	55667.30
568.17	55227.28
568.34	55407.50
568.50	54894.92
568.66	55466.02
568.83	55667.30
568.99	55866.25
569.15	55681.34
569.32	55870.93
569.48	55320.90
569.64	55477.72
569.81	55243.66
569.97	54983.86
570.13	54859.82
570.30	54363.62
570.46	54129.57
570.62	53820.62
570.78	53401.66
570.95	53935.30
571.11	54475.97
571.27	54644.49
571.43	54801.30
571.60	55346.65
571.76	55093.87
571.92	55583.04
572.09	55709.43
572.25	55592.40
572.41	55454.31
572.57	55505.80
572.74	55458.99
572.90	55089.19
573.06	55047.06
573.22	55021.31
573.38	55159.41
573.55	54948.76
573.71	55058.76
573.87	55171.11
574.03	54728.75
574.20	55114.94
574.36	54513.42
574.52	54422.14
574.68	54375.33
574.84	54064.03
575.01	53764.45
575.17	53612.31
575.33	53792.53
575.49	53916.58
575.65	54068.72
575.82	53783.17
575.98	53719.98
576.14	53865.09
576.30	54181.06
576.46	54298.09
576.62	54078.08
576.79	54134.25
576.95	53666.14
577.11	53701.25
577.27	54064.03
577.43	54003.18
577.59	53748.06
577.75	53331.45
577.92	52758.02
578.08	52615.24
578.24	52608.22
578.40	52889.09
578.56	53315.06
578.72	53109.10
578.88	53336.13
579.04	53359.53
579.21	53787.85
579.37	53638.06
579.53	53677.85
579.69	53813.60
579.85	53965.73
580.01	53649.76
580.17	53081.01
580.33	53064.63
580.49	53066.97
580.65	53425.07
580.82	53734.02
580.98	53710.61
581.14	53509.33
581.30	53715.29
581.46	53279.96
581.62	53698.91
581.78	53806.58
581.94	53696.57
582.10	53939.99
582.26	53780.83
582.42	53682.53
582.58	53581.88
582.74	53752.74
582.90	53750.40
583.06	53553.80
583.22	53432.09
583.38	53230.80
583.54	53317.40
583.70	52959.30
583.86	53530.39
584.02	53375.92
584.18	53317.40
584.34	53066.97
584.50	53155.91
584.66	52900.79
584.82	52514.60
584.98	52739.29
585.14	52320.34
585.30	51487.10
