SpectraSuite Data File
++++++++++++++++++++++++++++++++++++
Date: Mon Oct 07 14:54:57 GMT-05:00 2013
User: price-jones
Dark Spectrum Present: No
Reference Spectrum Present: No
Number of Sampled Component Spectra: 1
Spectrometers: USB2+H05261
Integration Time (usec): 10000 (USB2+H05261)
Spectra Averaged: 1 (USB2+H05261)
Boxcar Smoothing: 0 (USB2+H05261)
Correct for Electrical Dark: No (USB2+H05261)
Strobe/Lamp Enabled: No (USB2+H05261)
Correct for Detector Non-linearity: No (USB2+H05261)
Correct for Stray Light: No (USB2+H05261)
Number of Pixels in Processed Spectrum: 2048
>>>>>Begin Processed Spectral Data<<<<<
365.73	0.00
365.92	0.00
366.12	0.00
366.32	0.00
366.52	0.00
366.72	0.00
366.91	0.00
367.11	0.00
367.31	0.00
367.51	0.00
367.70	0.00
367.90	0.00
368.10	0.00
368.30	0.00
368.49	0.00
368.69	0.00
368.89	0.00
369.09	0.00
369.28	0.00
369.48	0.00
369.68	0.00
369.87	0.00
370.07	0.00
370.27	0.00
370.47	126.39
370.66	1481.56
370.86	1799.87
371.06	1870.09
371.25	1748.38
371.45	1572.84
371.65	1451.13
371.84	1348.15
372.04	1523.69
372.24	1813.92
372.44	1799.87
372.63	1746.04
372.83	1476.88
373.03	1413.68
373.22	1299.00
373.42	1483.90
373.62	1598.59
373.81	1708.59
374.01	1607.95
374.21	1535.39
374.40	1425.39
374.60	1570.50
374.79	1837.32
374.99	2108.82
375.19	2284.36
375.38	2076.06
375.58	2066.69
375.78	2010.52
375.97	1935.62
376.17	1982.43
376.37	2080.74
376.56	2289.04
376.76	2349.90
376.95	2553.52
377.15	2635.44
377.35	2654.17
377.54	2792.26
377.74	3000.57
377.93	2801.62
378.13	2715.02
378.33	2626.08
378.52	2396.71
378.72	2305.43
378.91	2314.79
379.11	2157.97
379.31	2125.21
379.50	2319.47
379.70	2480.97
379.89	2696.30
380.09	2792.26
380.28	2935.03
380.48	2860.13
380.68	2808.64
380.87	2588.63
381.07	2441.18
381.26	2174.36
381.46	2036.27
381.65	2125.21
381.85	2031.58
382.04	1893.49
382.24	1720.29
382.43	1582.20
382.63	1565.82
382.83	1582.20
383.02	1593.90
383.22	1652.42
383.41	1760.08
383.61	1832.64
383.80	2277.34
384.00	2408.41
384.19	2719.70
384.39	2832.05
384.58	2801.62
384.78	2857.79
384.97	2686.94
385.17	2581.61
385.36	2326.49
385.56	2331.17
385.75	2368.62
385.95	2757.15
386.14	2949.08
386.34	3045.04
386.53	2623.74
386.72	2661.19
386.92	2654.17
387.11	2705.66
387.31	2808.64
387.50	2808.64
387.70	2729.06
387.89	2712.68
388.09	2743.11
388.28	2740.77
388.48	2855.45
388.67	3014.61
388.86	3424.20
389.06	3527.19
389.25	3845.50
389.45	3735.50
389.64	3679.32
389.84	3646.55
390.03	3665.28
390.22	3536.55
390.42	3915.72
390.61	4102.96
390.81	4489.15
391.00	4386.16
391.19	4383.82
391.39	4046.79
391.58	3873.59
391.78	3679.32
391.97	3510.80
392.16	3253.34
392.36	2796.94
392.55	2319.47
392.75	1767.10
392.94	1493.26
393.13	1554.12
393.33	1987.11
393.52	2422.45
393.71	2981.84
393.91	3431.23
394.10	3609.11
394.29	4093.60
394.49	4229.35
394.68	4582.77
394.88	4603.83
395.07	4753.63
395.26	4678.73
395.46	4407.23
395.65	3995.29
395.84	3447.61
396.04	3002.91
396.23	2284.36
396.42	1984.77
396.62	2132.23
396.81	2649.49
397.00	3513.14
397.19	4098.28
397.39	4917.47
397.58	5231.10
397.77	5610.26
397.97	5748.36
398.16	5830.27
398.35	5984.75
398.55	6211.78
398.74	6408.39
398.93	6387.32
399.12	6448.18
399.32	6157.95
399.51	6527.75
399.70	6766.49
399.90	6539.46
400.09	6712.66
400.28	6862.45
400.47	6808.62
400.67	7197.15
400.86	7335.24
401.05	7082.46
401.24	7232.26
401.44	7302.47
401.63	7396.09
401.82	7393.75
402.01	7417.16
402.21	7332.90
402.40	7695.68
402.59	7536.52
402.78	7005.22
402.97	6918.62
403.17	7166.72
403.36	7405.46
403.55	7578.65
403.74	7576.31
403.93	7227.57
404.13	6717.34
404.32	6733.72
404.51	7260.34
404.70	7616.10
404.89	7545.89
405.09	7482.69
405.28	7295.45
405.47	7449.93
405.66	7281.41
405.85	7030.97
406.05	6796.92
406.24	7119.91
406.43	7311.83
406.62	7487.37
406.81	7487.37
407.00	7440.56
407.20	7126.93
407.39	7185.44
407.58	7648.87
407.77	7925.05
407.96	7861.86
408.15	8159.11
408.34	8505.51
408.54	8755.94
408.73	8538.27
408.92	8224.64
409.11	7784.62
409.30	7698.02
409.49	7346.94
409.68	6897.56
409.87	7021.61
410.07	7396.09
410.26	7700.36
410.45	8081.87
410.64	8341.67
410.83	8657.64
411.02	9064.89
411.21	9315.33
411.40	9282.56
411.59	9048.51
411.78	9153.84
411.98	8826.16
412.17	8957.23
412.36	8844.88
412.55	8828.50
412.74	8566.36
412.93	8416.57
413.12	8837.86
413.31	9390.23
413.50	9537.68
413.69	9397.25
413.88	8971.27
414.07	9041.49
414.26	9322.35
414.45	9493.21
414.64	9528.32
414.83	9530.66
415.02	9345.76
415.22	9380.87
415.41	9811.53
415.60	9795.14
415.79	10202.40
415.98	10162.61
416.17	10153.24
416.36	9811.53
416.55	9884.08
416.74	9551.73
416.93	9263.84
417.12	9378.53
417.31	9362.14
417.50	9460.45
417.69	9827.91
417.88	9987.07
418.07	9643.01
418.26	9575.13
418.45	9877.06
418.64	10347.51
418.83	10764.12
419.02	10097.07
419.21	9926.21
419.39	9511.94
419.58	9125.75
419.77	9479.17
419.96	9977.70
420.15	10656.46
420.34	10808.59
420.53	11150.31
420.72	11201.80
420.91	10909.24
421.10	10726.68
421.29	10862.43
421.48	10473.90
421.67	10801.57
421.86	10356.87
422.05	9212.35
422.24	8898.72
422.43	9156.18
422.61	9977.70
422.80	10604.97
422.99	10377.94
423.18	10181.33
423.37	9877.06
423.56	9940.26
423.75	10565.18
423.94	10808.59
424.13	10015.15
424.32	10001.11
424.50	9813.87
424.69	10054.94
424.88	9991.75
425.07	9774.08
425.26	9940.26
425.45	9661.73
425.64	9561.09
425.83	9846.63
426.01	10274.95
426.20	10134.52
426.39	10214.10
426.58	9462.79
426.77	8650.62
426.96	8795.73
427.15	8837.86
427.33	9720.24
427.52	9914.51
427.71	10036.22
427.90	9638.33
428.09	9624.28
428.28	9614.92
428.46	9170.22
428.65	9301.29
428.84	9448.74
429.03	9303.63
429.22	8690.41
429.40	8215.28
429.59	7655.89
429.78	6619.04
429.97	6787.55
430.16	6787.55
430.34	6726.70
430.53	6881.18
430.72	7323.54
430.91	8285.50
431.10	9628.96
431.28	10707.95
431.47	11634.80
431.66	11442.88
431.85	10211.76
432.03	9469.81
432.22	9338.74
432.41	10106.43
432.60	10956.05
432.79	11456.92
432.97	11623.10
433.16	11199.46
433.35	9900.47
433.54	9109.36
433.72	8966.59
433.91	9408.95
434.10	10441.13
434.28	11089.46
434.47	11487.35
434.66	10843.70
434.85	10963.07
435.03	11030.94
435.22	11225.21
435.41	11569.27
435.59	11719.06
435.78	11585.65
435.97	11964.82
436.16	12028.01
436.34	11934.39
436.53	11815.02
436.72	12037.38
436.90	11005.20
437.09	11180.74
437.28	11052.01
437.46	11634.80
437.65	11052.01
437.84	10181.33
438.02	9930.89
438.21	10118.14
438.40	10604.97
438.58	10712.63
438.77	11407.77
438.96	11655.87
439.14	11927.37
439.33	12051.42
439.52	12409.52
439.70	12259.73
439.89	11606.72
440.08	11529.48
440.26	11459.26
440.45	11908.65
440.63	13039.12
440.82	13378.50
441.01	12978.27
441.19	13181.90
441.38	13532.98
441.57	13460.42
441.75	13729.58
441.94	13813.84
442.12	13621.92
442.31	14113.43
442.50	14263.22
442.68	14211.73
442.87	13720.22
443.05	13561.06
443.24	13891.08
443.43	14005.77
443.61	14176.62
443.80	14391.95
443.98	13605.53
444.17	13612.56
444.35	14721.97
444.54	14759.42
444.73	14771.12
444.91	13387.86
445.10	13135.09
445.28	12819.11
445.47	12463.35
445.65	12479.74
445.84	12872.95
446.02	13401.91
446.21	13696.82
446.39	13914.48
446.58	14068.96
446.77	14263.22
446.95	14164.92
447.14	14600.26
447.32	14728.99
447.51	14167.26
447.69	13687.45
447.88	13710.86
448.06	13657.03
448.25	13902.78
448.43	14136.84
448.62	13980.02
448.80	13792.78
448.99	14101.73
449.17	14319.40
449.36	14242.16
449.54	14520.68
449.73	15159.65
449.91	15199.44
450.10	15852.45
450.28	15590.31
450.46	15002.83
450.65	15225.18
450.83	14998.15
451.02	15229.87
451.20	14937.30
451.39	14691.54
451.57	14611.96
451.76	14745.38
451.94	14558.13
452.13	14745.38
452.31	13713.20
452.49	13565.74
452.68	13572.77
452.86	13511.91
453.05	13865.33
453.23	14417.70
453.42	14586.22
453.60	14537.07
453.78	14824.95
453.97	14396.64
454.15	13942.57
454.34	14108.75
454.52	14590.90
454.70	14113.43
454.89	14047.90
455.07	14249.18
455.26	14611.96
455.44	14822.61
455.62	15262.63
455.81	15389.02
455.99	14827.29
456.17	15129.22
456.36	15047.30
456.54	15667.55
456.73	15513.07
456.91	15683.93
457.09	16140.33
457.28	15969.48
457.46	15543.50
457.64	15424.13
457.83	14679.84
458.01	14242.16
458.19	15115.18
458.38	14883.47
458.56	15587.97
458.74	15197.10
458.93	15190.08
459.11	14710.27
459.29	14794.53
459.48	15103.48
459.66	14569.83
459.84	14850.70
460.03	15075.39
460.21	15274.34
460.39	15716.70
460.57	15803.30
460.76	15779.89
460.94	15770.53
461.12	15550.52
461.31	15829.04
461.49	15796.28
461.67	15899.26
461.85	16130.97
462.04	15962.45
462.22	16088.84
462.40	15843.09
462.59	15676.91
462.77	15967.13
462.95	15859.47
463.13	16119.27
463.32	15578.61
463.50	15515.41
463.68	15484.98
463.86	15896.92
464.05	15697.97
464.23	14539.41
464.41	14951.34
464.59	14525.36
464.78	15147.95
464.96	15339.87
465.14	15197.10
465.32	15580.95
465.50	15857.13
465.69	15880.53
465.87	15410.09
466.05	14817.93
466.23	14497.28
466.41	14398.98
466.60	15470.94
466.78	15211.14
466.96	14831.97
467.14	15133.90
467.32	15374.98
467.51	15297.74
467.69	14626.01
467.87	14848.36
468.05	15098.80
468.23	14970.07
468.41	15323.49
468.60	15293.06
468.78	15143.27
468.96	15283.70
469.14	15513.07
469.32	15672.23
469.50	14949.00
469.69	14684.52
469.87	14576.86
470.05	14738.35
470.23	14846.02
470.41	15091.77
470.59	15417.11
470.77	14925.60
470.95	15339.87
471.14	15641.80
471.32	15646.48
471.50	16664.61
471.68	16774.62
471.86	16685.68
472.04	16355.66
472.22	16397.79
472.40	15648.82
472.58	15704.99
472.77	15662.86
472.95	16156.72
473.13	16294.81
473.31	16285.45
473.49	16084.16
473.67	15955.43
473.85	16067.78
474.03	16283.11
474.21	16535.88
474.39	16882.28
474.57	16720.79
474.75	16765.26
474.93	16917.39
475.12	16496.10
475.30	16332.26
475.48	16561.63
475.66	16538.23
475.84	16774.62
476.02	16496.10
476.20	15946.07
476.38	16498.44
476.56	16989.95
476.74	17359.75
476.92	17088.25
477.10	17741.26
477.28	17930.84
477.46	18054.89
477.64	18171.92
477.82	18174.26
478.00	18207.03
478.18	17980.00
478.36	17659.34
478.54	17467.42
478.72	18136.81
478.90	18768.76
479.08	18904.51
479.26	19269.63
479.44	18614.28
479.62	19150.26
479.80	19309.42
479.98	19129.20
480.16	19316.44
480.34	19168.99
480.52	19159.63
480.70	19021.53
480.88	19211.12
481.06	19850.08
481.24	20180.10
481.41	20409.47
481.59	20971.20
481.77	20294.79
481.95	20051.37
482.13	20493.73
482.31	20067.75
482.49	20589.69
482.67	20325.21
482.85	20549.90
483.03	20636.50
483.21	20725.44
483.39	20805.02
483.57	20889.28
483.74	20269.04
483.92	20720.76
484.10	20554.58
484.28	21048.44
484.46	21151.42
484.64	20926.73
484.82	20961.84
485.00	20919.71
485.18	19990.52
485.35	18920.89
485.53	16842.50
485.71	15822.02
485.89	16521.84
486.07	17539.97
486.25	19063.66
486.43	19953.07
486.61	18771.10
486.78	19594.96
486.96	20437.56
487.14	21366.75
487.32	22001.04
487.50	21923.80
487.68	21329.30
487.85	22565.10
488.03	22354.46
488.21	21701.45
488.39	21284.83
488.57	21628.89
488.75	20798.00
488.92	22462.12
489.10	24559.24
489.28	24418.81
489.46	25029.69
489.64	25221.61
489.81	25195.87
489.99	24655.20
490.17	24744.14
490.35	24903.30
490.53	24692.65
490.70	24208.16
490.88	24290.08
491.06	25074.16
491.24	24851.81
491.41	23840.70
491.59	22644.68
491.77	22410.63
491.95	23183.01
492.13	23552.81
492.30	24559.24
492.48	25535.24
492.66	25724.83
492.84	25509.50
493.01	25406.52
493.19	24627.12
493.37	24072.41
493.54	24119.22
493.72	25212.25
493.90	25781.00
494.08	26284.22
494.25	27143.19
494.43	27723.65
494.61	27988.13
494.79	27770.46
494.96	27517.68
495.14	26214.00
495.32	25713.13
495.49	25671.00
495.67	26373.16
495.85	28229.20
496.02	27805.56
496.20	28130.90
496.38	27679.18
496.55	27213.41
496.73	27707.26
496.91	27814.93
497.09	27826.63
497.26	28210.48
497.44	28154.30
497.62	27407.67
497.79	26696.15
497.97	25645.25
498.14	26153.15
498.32	27056.59
498.50	26939.57
498.67	28528.79
498.85	27529.38
499.03	27218.09
499.20	28283.03
499.38	27693.22
499.56	27140.85
499.73	27084.68
499.91	26679.77
500.08	26071.23
500.26	25795.04
500.44	26553.38
500.61	27211.07
500.79	26511.25
500.97	26167.19
501.14	26457.42
501.32	25706.10
501.49	25563.33
501.67	25984.63
501.84	27585.55
502.02	27145.53
502.20	26995.74
502.37	27793.86
502.55	27981.10
502.72	28599.01
502.90	28512.41
503.07	28166.01
503.25	27793.86
503.43	27129.15
503.60	25832.49
503.78	25687.38
503.95	26749.98
504.13	27089.36
504.30	28669.22
504.48	28704.33
504.65	28191.75
504.83	28278.35
505.01	28173.03
505.18	28435.17
505.36	29378.40
505.53	28793.27
505.71	29467.34
505.88	29776.30
506.06	29275.42
506.23	28769.86
506.41	28308.78
506.58	28226.86
506.76	27838.33
506.93	28238.56
507.11	27077.66
507.28	27927.27
507.46	27061.27
507.63	26843.60
507.81	26431.67
507.98	27096.38
508.16	28013.87
508.33	28240.90
508.50	27566.83
508.68	28428.15
508.85	29263.72
509.03	28950.09
509.20	28156.64
509.38	27828.97
509.55	27676.83
509.73	28144.94
509.90	28758.16
510.08	27697.90
510.25	27651.09
510.42	27721.30
510.60	27819.61
510.77	28694.97
510.95	29156.05
511.12	28779.23
511.30	29167.76
511.47	30052.48
511.64	29483.73
511.82	29165.42
511.99	28425.81
512.17	28198.77
512.34	27826.63
512.51	27400.65
512.69	27725.99
512.86	27976.42
513.04	28765.18
513.21	28100.47
513.38	27859.40
513.56	27410.01
513.73	26199.96
513.90	26281.88
514.08	26698.49
514.25	27145.53
514.43	27817.27
514.60	28147.28
514.77	28084.09
514.95	28514.75
515.12	27859.40
515.29	28074.73
515.47	28123.88
515.64	28161.33
515.81	28540.49
515.99	27213.41
516.16	25209.91
516.33	23599.62
516.51	22522.98
516.68	21757.62
516.85	21252.06
517.03	22396.59
517.20	24095.82
517.37	26515.93
517.54	26555.72
517.72	25680.36
517.89	23601.96
518.06	22838.95
518.24	23541.11
518.41	24702.01
518.58	25891.01
518.75	25975.27
518.93	26508.91
519.10	26005.69
519.27	26382.52
519.45	27094.04
519.62	27182.98
519.79	27718.96
519.96	27718.96
520.14	26661.04
520.31	26073.57
520.48	26464.44
520.65	26757.00
520.83	27197.02
521.00	27543.42
521.17	26864.67
521.34	26923.18
521.52	27222.77
521.69	27576.19
521.86	27768.12
522.03	27374.91
522.20	25916.75
522.38	24945.43
522.55	25420.56
522.72	25935.48
522.89	25659.29
523.07	26431.67
523.24	27318.73
523.41	27077.66
523.58	27119.79
523.75	26993.40
523.92	27976.42
524.10	28194.09
524.27	28238.56
524.44	28208.14
524.61	28201.11
524.78	27920.25
524.96	27365.54
525.13	27187.66
525.30	28631.77
525.47	28224.52
525.64	27873.44
525.81	26572.10
525.98	24999.26
526.16	23227.48
526.33	23569.19
526.50	23871.12
526.67	23796.23
526.84	23962.40
527.01	24802.66
527.18	25682.70
527.36	26331.03
527.53	27693.22
527.70	26813.18
527.87	25968.24
528.04	25977.61
528.21	26780.41
528.38	27271.92
528.55	28538.15
528.72	27880.46
528.89	27754.07
529.07	27875.78
529.24	26661.04
529.41	27124.47
529.58	26487.84
529.75	26143.78
529.92	26630.62
530.09	26775.73
530.26	27140.85
530.43	25626.53
530.60	27358.52
530.77	27630.02
530.94	28683.27
531.11	27295.33
531.28	26941.91
531.46	26757.00
531.63	27292.99
531.80	27248.52
531.97	26480.82
532.14	25191.19
532.31	24697.33
532.48	23728.35
532.65	23601.96
532.82	24325.19
532.99	25671.00
533.16	26525.29
533.33	27353.84
533.50	26780.41
533.67	26038.46
533.84	25825.47
534.01	25956.54
534.18	26298.26
534.35	25575.03
534.52	25869.94
534.69	26214.00
534.86	26349.75
535.03	26473.80
535.20	26806.16
535.37	26782.75
535.54	27508.32
535.71	26398.90
535.88	26157.83
536.05	25605.46
536.22	25542.27
536.38	24699.67
536.55	24863.51
536.72	24858.83
536.89	25113.95
537.06	25923.77
537.23	25912.07
537.40	25656.95
537.57	25755.26
537.74	25127.99
537.91	25399.49
538.08	26059.52
538.25	26080.59
538.42	25600.78
538.59	25806.75
538.75	25926.11
538.92	26057.18
539.09	24985.22
539.26	24184.76
539.43	24144.97
539.60	23971.77
539.77	23913.25
539.94	23185.35
540.11	23098.75
540.28	22508.93
540.44	23075.34
540.61	23260.24
540.78	23908.57
540.95	24994.58
541.12	24116.88
541.29	24709.04
541.46	24615.41
541.62	24648.18
541.79	24292.42
541.96	24137.94
542.13	24559.24
542.30	24856.49
542.47	24699.67
542.63	24123.90
542.80	23269.61
542.97	23957.72
543.14	23571.54
543.31	23833.68
543.48	25153.74
543.64	25139.69
543.81	25273.10
543.98	24751.17
544.15	24521.79
544.32	23798.57
544.48	24212.84
544.65	23826.65
544.82	24217.52
544.99	24484.34
545.16	24208.16
545.32	24919.68
545.49	25378.43
545.66	24996.92
545.83	25003.94
546.00	24395.40
546.16	24027.94
546.33	24056.03
546.50	24332.21
546.67	24673.93
546.83	24093.47
547.00	23964.75
547.17	23878.15
547.34	23594.94
547.50	23566.85
547.67	23431.10
547.84	23262.58
548.00	23908.57
548.17	23634.73
548.34	23255.56
548.51	23590.26
548.67	24713.72
548.84	24582.65
549.01	24606.05
549.18	24439.87
549.34	24781.59
549.51	23868.78
549.68	24271.36
549.84	23805.59
550.01	23955.38
550.18	23391.31
550.34	23150.24
550.51	23089.38
550.68	22822.56
550.84	22232.75
551.01	22281.90
551.18	21514.20
551.34	22092.32
551.51	23166.62
551.68	23929.64
551.84	22946.61
552.01	23447.49
552.18	23030.87
552.34	22944.27
552.51	22845.97
552.68	23456.85
552.84	22600.21
553.01	22766.39
553.18	23545.79
553.34	23510.68
553.51	22881.08
553.67	22342.75
553.84	23356.21
554.01	23821.97
554.17	22993.42
554.34	23250.88
554.51	24056.03
554.67	23676.86
554.84	22691.49
555.00	22951.29
555.17	22637.66
555.33	22878.74
555.50	23302.37
555.67	23101.09
555.83	22979.38
556.00	23014.49
556.16	22981.72
556.33	22473.82
556.50	22553.40
556.66	21532.93
556.83	21160.78
556.99	21392.50
557.16	22274.88
557.32	22228.07
557.49	22218.71
557.65	22260.84
557.82	21369.09
557.98	21666.34
558.15	22040.82
558.32	21282.49
558.48	20631.82
558.65	20336.91
558.81	20798.00
558.98	21085.89
559.14	21593.78
559.31	21226.32
559.47	20847.15
559.64	20577.99
559.80	21600.80
559.97	21184.19
560.13	21900.39
560.30	21916.78
560.46	22258.49
560.63	22368.50
560.79	22305.31
560.96	21495.48
561.12	21415.90
561.29	20613.10
561.45	20886.94
561.61	20510.11
561.78	20400.11
561.94	20624.80
562.11	20477.35
562.27	20884.60
562.44	21399.52
562.60	21404.20
562.77	22108.70
562.93	20952.48
563.10	21153.76
563.26	20989.92
563.42	20631.82
563.59	20306.49
563.75	20884.60
563.92	20802.68
564.08	20334.57
564.24	20573.31
564.41	19496.66
564.57	20475.01
564.74	19950.73
564.90	19686.25
565.07	20088.82
565.23	19487.30
565.39	19374.95
565.56	20259.68
565.72	19679.22
565.88	20325.21
566.05	19688.59
566.21	19915.62
566.38	19445.17
566.54	19524.75
566.70	19693.27
566.87	20112.22
567.03	20816.72
567.19	21317.60
567.36	19770.51
567.52	20067.75
567.68	19917.96
567.85	19981.15
568.01	19831.36
568.17	18733.65
568.34	18476.19
568.50	18899.83
568.66	18710.24
568.83	19089.41
568.99	19466.24
569.15	19417.08
569.32	19702.63
569.48	19796.25
569.64	19342.19
569.81	18476.19
569.97	18838.97
570.13	18696.20
570.30	18693.86
570.46	18504.28
570.62	17462.74
570.78	17135.06
570.95	17509.55
571.11	18008.08
571.27	18178.94
571.43	18033.83
571.60	18546.40
571.76	18862.38
571.92	18881.10
572.09	19168.99
572.25	18993.45
572.41	19412.40
572.57	19344.53
572.74	18979.40
572.90	18604.92
573.06	18593.22
573.22	18345.12
573.38	18167.24
573.55	18097.02
573.71	18153.20
573.87	18459.81
574.03	18689.18
574.20	18597.90
574.36	18408.31
574.52	18438.74
574.68	18223.41
574.84	17998.72
575.01	17848.93
575.17	18288.95
575.33	18010.42
575.49	17542.32
575.65	17869.99
575.82	17579.76
575.98	17593.81
576.14	17696.79
576.30	17720.20
576.46	17296.56
576.62	17706.15
576.79	17671.04
576.95	17268.47
577.11	17331.67
577.27	17013.35
577.43	17589.13
577.59	17118.68
577.75	17767.01
577.92	17067.19
578.08	16505.46
578.24	16915.05
578.40	16985.27
578.56	17165.49
578.72	16889.31
578.88	17256.77
579.04	17212.30
579.21	17055.48
579.37	17224.00
579.53	17202.94
579.69	17088.25
579.85	16751.21
580.01	16793.34
580.17	17032.08
580.33	16835.47
580.49	17146.76
580.65	17282.52
580.82	16875.26
580.98	17282.52
581.14	17205.28
581.30	17366.78
581.46	17282.52
581.62	17205.28
581.78	17277.83
581.94	17507.21
582.10	17130.38
582.26	16669.30
582.42	17106.98
582.58	17893.40
582.74	17305.92
582.90	16931.44
583.06	17315.28
583.22	17156.13
583.38	17504.87
583.54	17408.90
583.70	17170.17
583.86	16882.28
584.02	17200.60
584.18	17362.09
584.34	17408.90
584.50	17631.26
584.66	17039.10
584.82	16973.56
584.98	16863.56
585.14	16400.13
585.30	15946.07
585.46	15974.16
585.62	15674.57
585.78	16112.25
585.94	16299.49
586.10	16196.51
586.26	16510.14
586.42	16163.74
586.58	16678.66
586.74	16013.95
