SpectraSuite Data File
++++++++++++++++++++++++++++++++++++
Date: Mon Oct 07 14:53:58 GMT-05:00 2013
User: price-jones
Dark Spectrum Present: No
Reference Spectrum Present: No
Number of Sampled Component Spectra: 1
Spectrometers: USB2+H05261
Integration Time (usec): 100000 (USB2+H05261)
Spectra Averaged: 1 (USB2+H05261)
Boxcar Smoothing: 0 (USB2+H05261)
Correct for Electrical Dark: No (USB2+H05261)
Strobe/Lamp Enabled: No (USB2+H05261)
Correct for Detector Non-linearity: No (USB2+H05261)
Correct for Stray Light: No (USB2+H05261)
Number of Pixels in Processed Spectrum: 2048
>>>>>Begin Processed Spectral Data<<<<<
365.73	0.00
365.92	0.00
366.12	0.00
366.32	0.00
366.52	0.00
366.72	0.00
366.91	0.00
367.11	0.00
367.31	0.00
367.51	0.00
367.70	0.00
367.90	0.00
368.10	0.00
368.30	0.00
368.49	0.00
368.69	0.00
368.89	0.00
369.09	0.00
369.28	0.00
369.48	0.00
369.68	0.00
369.87	0.00
370.07	0.00
370.27	0.00
370.47	823.87
370.66	3871.25
370.86	4645.96
371.06	4985.34
371.25	4964.28
371.45	4564.04
371.65	3995.29
371.84	3826.78
372.04	3885.29
372.24	4500.85
372.44	4716.18
372.63	4627.24
372.83	4198.92
373.03	3927.42
373.22	3564.64
373.42	3632.51
373.62	4234.03
373.81	4491.49
374.01	4608.51
374.21	4152.11
374.40	3779.97
374.60	3953.16
374.79	4458.72
374.99	5165.56
375.19	5511.96
375.38	5738.99
375.58	5371.53
375.78	5179.61
375.97	5238.12
376.17	5474.51
376.37	5408.98
376.56	5514.30
376.76	5916.87
376.95	6349.87
377.15	6670.53
377.35	7005.22
377.54	7485.03
377.74	7316.51
377.93	7435.88
378.13	7379.71
378.33	6846.07
378.52	6204.76
378.72	6134.54
378.91	6258.59
379.11	5806.87
379.31	5874.74
379.50	5687.50
379.70	5987.09
379.89	6775.85
380.09	7012.24
380.28	7178.42
380.48	7318.86
380.68	7108.21
380.87	6836.70
381.07	6516.05
381.26	5909.85
381.46	5554.09
381.65	5509.62
381.85	5371.53
382.04	4971.30
382.24	4643.62
382.43	4425.95
382.63	4325.31
382.83	4297.22
383.02	4388.50
383.22	4283.18
383.41	4428.29
383.61	4709.16
383.80	5495.58
384.00	6176.67
384.19	6895.22
384.39	7201.83
384.58	7150.34
384.78	7047.35
384.97	6862.45
385.17	6590.95
385.36	6399.02
385.56	5973.05
385.75	6265.61
385.95	6616.69
386.14	7365.67
386.34	7566.95
386.53	6963.09
386.72	6511.37
386.92	6738.40
387.11	6946.71
387.31	7344.60
387.50	7105.87
387.70	7124.59
387.89	6906.92
388.09	6899.90
388.28	6967.77
388.48	7089.48
388.67	7630.15
388.86	8421.25
389.06	9001.70
389.25	9511.94
389.45	9397.25
389.64	9511.94
389.84	9249.80
390.03	9151.49
390.22	9408.95
390.42	9415.98
390.61	10071.33
390.81	10710.29
391.00	11110.52
391.19	10874.13
391.39	10565.18
391.58	9844.29
391.78	9327.03
391.97	9067.24
392.16	8629.56
392.36	7723.77
392.55	6164.97
392.75	5067.26
392.94	4016.36
393.13	4046.79
393.33	4706.82
393.52	5837.30
393.71	7358.64
393.91	8369.76
394.10	8915.10
394.29	9790.46
394.49	10375.59
394.68	11286.06
394.88	11353.94
395.07	11639.48
395.26	11433.52
395.46	11302.45
395.65	10651.78
395.84	9401.93
396.04	7805.69
396.23	6455.20
396.42	5355.15
396.62	5179.61
396.81	5996.45
397.00	7681.64
397.19	9631.30
397.39	11620.76
397.58	12868.27
397.77	13664.05
397.97	14368.55
398.16	14167.26
398.35	14808.57
398.55	15019.22
398.74	16121.61
398.93	16196.51
399.12	15936.71
399.32	15543.50
399.51	15810.32
399.70	16868.24
399.90	16592.06
400.09	16414.18
400.28	16402.47
400.47	16510.14
400.67	17453.37
400.86	17757.64
401.05	17860.63
401.24	17972.97
401.44	18375.55
401.63	18036.17
401.82	18504.28
402.01	18200.01
402.21	18286.61
402.40	18574.49
402.59	18080.64
402.78	17359.75
402.97	16786.32
403.17	17345.71
403.36	18415.34
403.55	19049.62
403.74	19463.90
403.93	18518.32
404.13	17069.53
404.32	16460.99
404.51	17525.93
404.70	18780.46
404.89	18600.24
405.09	18544.06
405.28	17799.77
405.47	18347.46
405.66	18073.62
405.85	17317.62
406.05	17448.69
406.24	16933.78
406.43	18127.45
406.62	18941.96
406.81	18867.06
407.00	18064.25
407.20	17720.20
407.39	17745.94
407.58	18721.95
407.77	19396.02
407.96	20051.37
408.15	20034.99
408.34	20102.86
408.54	21193.55
408.73	21287.17
408.92	21050.78
409.11	20575.65
409.30	19374.95
409.49	18658.75
409.68	16603.76
409.87	16198.85
410.07	17591.47
410.26	18885.78
410.45	20159.03
410.64	20477.35
410.83	21259.09
411.02	21617.19
411.21	22733.62
411.40	22417.65
411.59	22256.15
411.78	22010.40
411.98	21752.94
412.17	22462.12
412.36	22017.42
412.55	21912.10
412.74	21827.84
412.93	20889.28
413.12	21284.83
413.31	23262.58
413.50	23365.57
413.69	23690.90
413.88	23061.30
414.07	21982.31
414.26	22548.72
414.45	23433.44
414.64	23138.54
414.83	23208.75
415.02	23014.49
415.22	23091.73
415.41	23513.02
415.60	24203.48
415.79	25078.84
415.98	25476.73
416.17	25467.37
416.36	25212.25
416.55	24830.74
416.74	24086.45
416.93	22953.63
417.12	23253.22
417.31	23384.29
417.50	23608.98
417.69	24886.92
417.88	24889.26
418.07	24442.21
418.26	24077.09
418.45	23840.70
418.64	25008.62
418.83	25830.15
419.02	25350.34
419.21	25502.48
419.39	24041.98
419.58	23199.39
419.77	23065.98
419.96	24105.18
420.15	25596.10
420.34	26316.98
420.53	27124.47
420.72	27611.30
420.91	27288.31
421.10	27098.72
421.29	26478.48
421.48	25813.77
421.67	27580.87
421.86	26473.80
422.05	24730.10
422.24	22171.89
422.43	21816.13
422.61	23880.49
422.80	26157.83
422.99	26462.10
423.18	25198.21
423.37	24723.08
423.56	24884.58
423.75	25284.81
423.94	25736.53
424.13	24269.01
424.32	24936.07
424.50	24456.26
424.69	24208.16
424.88	24566.26
425.07	24580.31
425.26	24479.66
425.45	23847.72
425.64	23470.89
425.83	23374.93
426.01	24954.79
426.20	25408.86
426.39	25343.32
426.58	23250.88
426.77	21390.16
426.96	20978.22
427.15	21837.20
427.33	23648.77
427.52	24453.92
427.71	24617.75
427.90	24077.09
428.09	24264.33
428.28	23587.92
428.46	22852.99
428.65	22321.69
428.84	22977.04
429.03	23351.52
429.22	22342.75
429.40	20947.79
429.59	18857.70
429.78	16898.67
429.97	16826.11
430.16	17149.11
430.34	17184.21
430.53	16917.39
430.72	17451.03
430.91	19389.00
431.10	22611.92
431.28	26796.79
431.47	29170.10
431.66	28992.22
431.85	26780.41
432.03	24725.42
432.22	23412.38
432.41	24409.45
432.60	26937.23
432.79	28025.57
432.97	28638.80
433.16	28053.66
433.35	25879.30
433.54	23180.67
433.72	21752.94
433.91	22455.10
434.10	24987.56
434.28	26766.37
434.47	28137.92
434.66	27896.85
434.85	26960.63
435.03	27192.34
435.22	27662.79
435.41	29064.77
435.59	29305.85
435.78	29544.58
435.97	30314.62
436.16	30174.19
436.34	30235.04
436.53	29460.32
436.72	29565.65
436.90	27620.66
437.09	28046.64
437.28	27489.59
437.46	28383.68
437.65	28233.88
437.84	26164.85
438.02	24231.57
438.21	23847.72
438.40	25486.09
438.58	27552.79
438.77	28713.69
438.96	28456.23
439.14	29523.52
439.33	30260.79
439.52	30815.49
439.70	30265.47
439.89	29500.11
440.08	28474.96
440.26	28421.13
440.45	29521.18
440.63	31477.86
440.82	32809.63
441.01	33020.28
441.19	32027.89
441.38	32505.36
441.57	33876.91
441.75	34405.88
441.94	34401.19
442.12	34284.17
442.31	34918.45
442.50	35051.86
442.68	34906.75
442.87	34108.63
443.05	33525.83
443.24	34202.25
443.43	34866.96
443.61	35529.33
443.80	36140.21
443.98	34146.08
444.17	33832.44
444.35	35800.83
444.54	36123.83
444.73	36215.11
444.91	34670.36
445.10	33195.82
445.28	32027.89
445.47	31480.21
445.65	31651.06
445.84	32547.49
446.02	33411.15
446.21	33837.12
446.39	33895.64
446.58	34527.58
446.77	34892.71
446.95	35145.48
447.14	36346.18
447.32	36755.77
447.51	36095.74
447.69	34438.64
447.88	34230.33
448.06	34471.41
448.25	35482.52
448.43	35793.81
448.62	35115.06
448.80	34703.12
448.99	35124.42
449.17	35316.34
449.36	35290.60
449.54	36903.23
449.73	37413.46
449.91	37521.13
450.10	38469.04
450.28	39138.44
450.46	38789.70
450.65	38948.85
450.83	38398.83
451.02	37670.92
451.20	38115.62
451.39	37862.85
451.57	37296.44
451.76	37116.22
451.94	36556.83
452.13	36795.56
452.31	34918.45
452.49	33027.30
452.68	33792.65
452.86	33832.44
453.05	33867.55
453.23	34829.51
453.42	36034.89
453.60	36442.14
453.78	37347.93
453.97	36723.01
454.15	37301.12
454.34	35842.96
454.52	35988.08
454.70	35159.53
454.89	35658.06
455.07	35864.03
455.26	36313.41
455.44	37956.47
455.62	38555.64
455.81	38579.05
455.99	38099.24
456.17	37816.04
456.36	38068.81
456.54	39194.61
456.73	38588.41
456.91	39526.97
457.09	39945.92
457.28	40339.13
457.46	38820.13
457.64	38541.60
457.83	37727.10
458.01	37106.85
458.19	37617.09
458.38	38169.46
458.56	38925.45
458.74	38820.13
458.93	38349.68
459.11	38195.20
459.29	37727.10
459.48	38199.88
459.66	38003.28
459.84	38522.88
460.03	38878.64
460.21	38967.58
460.39	39402.92
460.57	39323.34
460.76	39704.85
460.94	40137.85
461.12	39725.91
461.31	39686.12
461.49	39882.73
461.67	40095.72
461.85	41127.89
462.04	40339.13
462.22	41214.49
462.40	40659.79
462.59	40364.88
462.77	40563.82
462.95	40744.05
463.13	39730.59
463.32	40006.78
463.50	39622.93
463.68	39222.70
463.86	40055.93
464.05	38827.15
464.23	38164.78
464.41	37930.72
464.59	37226.22
464.78	39419.30
464.96	38979.28
465.14	38487.77
465.32	39641.65
465.50	40762.77
465.69	40856.39
465.87	40226.79
466.05	38918.43
466.23	37694.33
466.41	36751.09
466.60	37722.41
466.78	37806.67
466.96	38295.85
467.14	39166.52
467.32	39501.22
467.51	39667.40
467.69	37771.57
467.87	38607.14
468.05	39541.01
468.23	38967.58
468.41	39189.93
468.60	39288.23
468.78	39278.87
468.96	39234.40
469.14	40133.17
469.32	39662.72
469.50	38473.73
469.69	38651.61
469.87	37677.94
470.05	38082.86
470.23	37668.58
470.41	38160.09
470.59	38939.49
470.77	38941.83
470.95	39454.41
471.14	39971.67
471.32	40095.72
471.50	42026.66
471.68	42148.37
471.86	42314.55
472.04	42665.63
472.22	42541.58
472.40	40957.03
472.58	40430.41
472.77	40128.48
472.95	40739.36
473.13	42190.50
473.31	41006.19
473.49	40889.16
473.67	41846.44
473.85	41813.67
474.03	42579.03
474.21	42948.83
474.39	44030.16
474.57	43658.01
474.75	43402.89
474.93	43285.87
475.12	42506.47
475.30	42660.94
475.48	42813.08
475.66	43269.48
475.84	42775.63
476.02	42450.30
476.20	41551.53
476.38	42258.37
476.56	43192.25
476.74	44154.21
476.92	44533.37
477.10	45081.06
477.28	45989.19
477.46	46206.86
477.64	46593.04
477.82	46504.10
478.00	46663.26
478.18	46057.06
478.36	46188.13
478.54	45750.45
478.72	46408.14
478.90	46880.93
479.08	48413.98
479.26	48818.89
479.44	48830.60
479.62	48285.25
479.80	48575.48
479.98	48924.22
480.16	49090.40
480.34	48458.45
480.52	48289.93
480.70	49202.74
480.88	49095.08
481.06	49389.98
481.24	50255.98
481.41	50677.28
481.59	51285.82
481.77	50866.86
481.95	50241.94
482.13	50541.53
482.31	50291.09
482.49	51028.36
482.67	50712.39
482.85	50836.44
483.03	51304.54
483.21	51999.68
483.39	51845.21
483.57	51332.63
483.74	50852.82
483.92	51213.26
484.10	51470.72
484.28	52200.97
484.46	52390.55
484.64	52821.21
484.82	51863.93
485.00	51456.68
485.18	51264.75
485.35	49972.78
485.53	47187.54
485.71	43714.19
485.89	42557.96
486.07	44432.73
486.25	47636.92
486.43	50213.85
486.61	50946.44
486.78	50761.54
486.96	50953.46
487.14	52399.91
487.32	53324.43
487.50	53897.86
487.68	54698.32
487.85	55058.76
488.03	55182.81
488.21	54600.02
488.39	53804.24
488.57	53673.16
488.75	53301.02
488.92	54007.86
489.10	56081.58
489.28	57179.29
489.46	57609.95
489.64	57385.25
489.81	57677.82
489.99	57169.93
490.17	57195.67
490.35	57586.54
490.53	57286.95
490.70	56713.52
490.88	56519.26
491.06	57595.90
491.24	57492.92
491.41	56736.93
491.59	55241.32
491.77	54660.87
491.95	55749.22
492.13	56568.41
492.30	57666.12
492.48	58426.79
492.66	58717.02
492.84	58731.06
493.01	58571.91
493.19	58150.61
493.37	57888.47
493.54	57623.99
493.72	58174.02
493.90	58976.82
494.08	59749.20
494.25	59817.07
494.43	59959.84
494.61	60343.69
494.79	60388.16
494.96	60221.98
495.14	59503.44
495.32	59152.36
495.49	58403.39
495.67	59358.33
495.85	60364.76
496.02	60788.39
496.20	60795.42
496.38	60339.01
496.55	59978.57
496.73	60615.19
496.91	60727.54
497.09	61394.59
497.26	61516.30
497.44	60858.61
497.62	60210.28
497.79	59683.66
497.97	58571.91
498.14	58749.79
498.32	59828.77
498.50	60519.23
498.67	61221.39
498.85	60779.03
499.03	61169.90
499.20	61165.22
499.38	61373.53
499.56	61116.07
499.73	60692.43
499.91	60453.70
500.08	60009.00
500.26	59222.58
500.44	59475.35
500.61	60296.88
500.79	60102.62
500.97	59700.04
501.14	59606.42
501.32	59501.10
501.49	59653.23
501.67	59742.17
501.84	60119.00
502.02	60481.78
502.20	61003.72
502.37	60666.69
502.55	60867.97
502.72	61223.73
502.90	61731.63
503.07	61600.56
503.25	60994.36
503.43	60411.57
503.60	59938.78
503.78	59056.40
503.95	59484.72
504.13	60638.60
504.30	61719.93
504.48	61413.32
504.65	61195.65
504.83	61109.05
505.01	61499.92
505.18	61890.79
505.36	62649.12
505.53	62501.67
505.71	62628.05
505.88	62817.64
506.06	62150.59
506.23	61946.96
506.41	61591.20
506.58	61565.45
506.76	61776.10
506.93	61616.94
507.11	61544.39
507.28	61769.08
507.46	61130.11
507.63	60537.96
507.81	60437.31
507.98	60544.98
508.16	61279.91
508.33	61883.76
508.50	62129.52
508.68	62340.17
508.85	62929.98
509.03	62784.87
509.20	62665.50
509.38	62185.69
509.55	61275.22
509.73	61413.32
509.90	61972.70
510.08	62185.69
510.25	62141.22
510.42	61792.48
510.60	61785.46
510.77	61893.13
510.95	62539.11
511.12	62597.63
511.30	62787.21
511.47	63196.80
511.64	63131.27
511.82	62864.45
511.99	62082.71
512.17	61654.39
512.34	61373.53
512.51	61682.48
512.69	61689.50
512.86	61916.53
513.04	62295.70
513.21	62143.56
513.38	61853.34
513.56	61406.30
513.73	60699.45
513.90	61090.32
514.08	61106.71
514.25	61357.14
514.43	61506.94
514.60	61661.41
514.77	61705.88
514.95	61705.88
515.12	61675.46
515.29	61867.38
515.47	62466.56
515.64	62766.15
515.81	62368.26
515.99	61839.29
516.16	60446.68
516.33	58309.77
516.51	57190.99
516.68	56336.69
516.85	56025.40
517.03	56463.08
517.20	58768.51
517.37	60940.53
517.54	61848.66
517.72	61378.21
517.89	59299.81
518.06	57244.82
518.24	57380.57
518.41	59461.31
518.58	60699.45
518.75	60713.50
518.93	60839.89
519.10	60673.71
519.27	61202.67
519.45	61282.25
519.62	61909.51
519.79	62183.35
519.96	62316.76
520.14	61659.07
520.31	60907.76
520.48	60940.53
520.65	61240.12
520.83	62094.41
521.00	62447.83
521.17	62152.93
521.34	61752.69
521.52	62173.99
521.69	62546.14
521.86	62995.52
522.03	62702.95
522.20	61703.54
522.38	60722.86
522.55	60669.03
522.72	61214.37
522.89	61200.33
523.07	61427.36
523.24	61537.36
523.41	62405.70
523.58	62965.09
523.75	63309.15
523.92	62974.45
524.10	63079.78
524.27	63007.22
524.44	62864.45
524.61	62623.37
524.78	62340.17
524.96	62396.34
525.13	62340.17
525.30	62550.82
525.47	62993.18
525.64	62878.49
525.81	62447.83
525.98	60994.36
526.16	59608.76
526.33	59100.87
526.50	58866.81
526.67	58632.76
526.84	58983.84
527.01	59805.37
527.18	60566.04
527.36	61368.85
527.53	62246.55
527.70	62494.64
527.87	61991.43
528.04	61560.77
528.21	62012.49
528.38	62700.61
528.55	63178.08
528.72	63465.97
528.89	63472.99
529.07	63297.45
529.24	62782.53
529.41	62117.82
529.58	61570.13
529.75	61647.37
529.92	62124.84
530.09	62525.07
530.26	62873.81
530.43	63135.95
530.60	63206.17
530.77	63313.83
530.94	63292.77
531.11	63147.65
531.28	62827.00
531.46	62410.38
531.63	62667.84
531.80	62518.05
531.97	62075.69
532.14	61399.27
532.31	60446.68
532.48	60044.10
532.65	60060.49
532.82	60673.71
532.99	61640.35
533.16	62021.86
533.33	62473.58
533.50	62410.38
533.67	61909.51
533.84	61324.38
534.01	61633.33
534.18	61738.65
534.35	61946.96
534.52	61902.49
534.69	62166.97
534.86	62288.68
535.03	62501.67
535.20	63025.95
535.37	63224.89
535.54	63290.43
535.71	63054.03
535.88	62777.85
536.05	62063.99
536.22	61759.72
536.38	61453.11
536.55	61006.06
536.72	60809.46
536.89	60537.96
537.06	61380.55
537.23	61968.02
537.40	62267.61
537.57	62190.37
537.74	62038.24
537.91	61921.21
538.08	61869.72
538.25	62003.13
538.42	62206.76
538.59	62040.58
538.75	61378.21
538.92	61247.14
539.09	61165.22
539.26	60917.12
539.43	60795.42
539.60	60942.87
539.77	61162.88
539.94	60977.98
540.11	60140.07
540.28	59655.57
540.44	59824.09
540.61	59966.87
540.78	60210.28
540.95	60722.86
541.12	60994.36
541.29	61319.70
541.46	61443.74
541.62	61595.88
541.79	61495.24
541.96	60797.76
542.13	60893.72
542.30	61120.75
542.47	61277.57
542.63	60963.93
542.80	60879.67
542.97	60919.46
543.14	60818.82
543.31	60893.72
543.48	61319.70
543.64	62169.31
543.81	62216.12
543.98	62223.14
544.15	61628.65
544.32	61120.75
544.48	60889.04
544.65	61506.94
544.82	61591.20
544.99	61333.74
545.16	61050.53
545.32	61062.24
545.49	61572.47
545.66	61946.96
545.83	61481.19
546.00	61254.16
546.16	60886.70
546.33	60900.74
546.50	61017.77
546.67	61427.36
546.83	61043.51
547.00	61169.90
547.17	60402.21
547.34	60088.57
547.50	59669.62
547.67	60231.35
547.84	60484.12
548.00	60849.25
548.17	61190.97
548.34	61036.49
548.51	60886.70
548.67	60992.02
548.84	61207.35
549.01	60987.34
549.18	60891.38
549.34	61029.47
549.51	60963.93
549.68	60975.64
549.84	60650.30
550.01	60544.98
550.18	60254.75
550.34	60488.80
550.51	60273.48
550.68	60715.84
550.84	60184.54
551.01	60355.39
551.18	60130.70
551.34	60395.18
551.51	60779.03
551.68	61015.43
551.84	61043.51
552.01	60977.98
552.18	60617.53
552.34	60046.44
552.51	59688.34
552.68	59634.51
552.84	59817.07
553.01	60320.29
553.18	60135.38
553.34	60306.24
553.51	60413.91
553.67	60640.94
553.84	60676.05
554.01	60624.56
554.17	60385.82
554.34	60596.47
554.51	60528.59
554.67	61022.45
554.84	60605.83
555.00	60271.14
555.17	60142.41
555.33	60133.04
555.50	60179.85
555.67	60041.76
555.83	59973.89
556.00	59866.22
556.16	59730.47
556.33	59295.13
556.50	59016.61
556.66	59477.69
556.83	59054.06
556.99	58955.75
557.16	59159.38
557.32	59437.90
557.49	59824.09
557.65	59505.78
557.82	59739.83
557.98	59451.95
558.15	58962.78
558.32	58431.47
558.48	57488.24
558.65	57785.49
558.81	58122.52
558.98	58277.00
559.14	58363.60
559.31	58553.18
559.47	58611.70
559.64	58398.71
559.80	57956.35
559.97	58138.91
560.13	58508.71
560.30	59189.81
560.46	59751.54
560.63	59849.84
560.79	59840.48
560.96	59590.04
561.12	58349.56
561.29	57806.55
561.45	58054.65
561.61	58485.31
561.78	58660.85
561.94	58567.23
562.11	58513.39
562.27	58230.19
562.44	58536.80
562.60	58817.66
562.77	59021.29
562.93	58852.77
563.10	58878.52
563.26	58309.77
563.42	58588.29
563.59	58253.59
563.75	58110.82
563.92	58295.72
564.08	58162.31
564.24	58546.16
564.41	58454.88
564.57	58305.09
564.74	58080.39
564.90	58307.43
565.07	57963.37
565.23	57766.76
565.39	57394.62
565.56	56966.30
565.72	56790.76
565.88	57104.39
566.05	57200.35
566.21	57446.11
566.38	57448.45
566.54	57614.63
566.70	58129.54
566.87	58272.32
567.03	58202.10
567.19	58454.88
567.36	58085.07
567.52	58096.78
567.68	57640.37
567.85	57190.99
568.01	56926.51
568.17	56678.41
568.34	56442.02
568.50	56383.51
568.66	56530.96
568.83	56853.95
568.99	57095.03
569.15	57361.85
569.32	56992.04
569.48	56914.81
569.64	56383.51
569.81	56650.33
569.97	56210.31
570.13	56334.35
570.30	55828.80
570.46	55655.60
570.62	55171.11
570.78	54923.01
570.95	54988.55
571.11	55847.52
571.27	55683.69
571.43	56095.62
571.60	56584.79
571.76	56528.62
571.92	56828.21
572.09	57022.47
572.25	57022.47
572.41	57003.75
572.57	56851.61
572.74	56783.74
572.90	56624.58
573.06	56622.24
573.22	56507.55
573.38	56460.74
573.55	56381.16
573.71	56608.20
573.87	56399.89
574.03	56303.93
574.20	56144.77
574.36	56156.47
574.52	55964.55
574.68	55683.69
574.84	55461.33
575.01	54869.18
575.17	54995.57
575.33	55341.97
575.49	55344.31
575.65	55524.53
575.82	55306.86
575.98	55194.51
576.14	55098.55
576.30	55358.35
576.46	55700.07
576.62	55564.32
576.79	55739.86
576.95	55047.06
577.11	55241.32
577.27	55206.22
577.43	55454.31
577.59	54901.95
577.75	54543.84
577.92	54195.10
578.08	53790.19
578.24	53881.47
578.40	54342.56
578.56	54436.18
578.72	54632.78
578.88	54513.42
579.04	54808.32
579.21	54965.14
579.37	54958.12
579.53	55253.03
579.69	55117.28
579.85	55161.75
580.01	54906.63
580.17	54623.42
580.33	54497.03
580.49	54518.10
580.65	54862.16
580.82	54925.35
580.98	54883.22
581.14	54824.71
581.30	54794.28
581.46	54543.84
581.62	55133.66
581.78	54705.34
581.94	55166.43
582.10	54918.33
582.26	55077.49
582.42	55000.25
582.58	54979.18
582.74	54859.82
582.90	54822.37
583.06	54869.18
583.22	54604.70
583.38	54742.79
583.54	54553.21
583.70	54508.74
583.86	54724.07
584.02	54438.52
584.18	54822.37
584.34	54394.05
584.50	54410.43
584.66	54274.68
584.82	53738.70
584.98	53818.28
585.14	53553.80
