SpectraSuite Data File
++++++++++++++++++++++++++++++++++++
Date: Mon Oct 07 14:54:57 GMT-05:00 2013
User: price-jones
Dark Spectrum Present: No
Reference Spectrum Present: No
Number of Sampled Component Spectra: 1
Spectrometers: USB2+H05261
Integration Time (usec): 10000 (USB2+H05261)
Spectra Averaged: 1 (USB2+H05261)
Boxcar Smoothing: 0 (USB2+H05261)
Correct for Electrical Dark: No (USB2+H05261)
Strobe/Lamp Enabled: No (USB2+H05261)
Correct for Detector Non-linearity: No (USB2+H05261)
Correct for Stray Light: No (USB2+H05261)
Number of Pixels in Processed Spectrum: 2048
>>>>>Begin Processed Spectral Data<<<<<
365.73	0.00
365.92	0.00
366.12	0.00
366.32	0.00
366.52	0.00
366.72	0.00
366.91	0.00
367.11	0.00
367.31	0.00
367.51	0.00
367.70	0.00
367.90	0.00
368.10	0.00
368.30	0.00
368.49	0.00
368.69	0.00
368.89	0.00
369.09	0.00
369.28	0.00
369.48	0.00
369.68	0.00
369.87	0.00
370.07	0.00
370.27	0.00
370.47	133.41
370.66	1394.96
370.86	1760.08
371.06	1827.96
371.25	1746.04
371.45	1682.85
371.65	1476.88
371.84	1416.02
372.04	1556.46
372.24	1717.95
372.44	1706.25
372.63	1746.04
372.83	1554.12
373.03	1378.58
373.22	1336.45
373.42	1472.20
373.62	1657.10
373.81	1739.02
374.01	1708.59
374.21	1427.73
374.40	1301.34
374.60	1582.20
374.79	1795.19
374.99	1970.73
375.19	2162.66
375.38	2113.50
375.58	2005.84
375.78	1912.22
375.97	2064.35
376.17	2115.84
376.37	2087.76
376.56	2237.55
376.76	2310.11
376.95	2513.74
377.15	2656.51
377.35	2822.69
377.54	2881.20
377.74	3030.99
377.93	2860.13
378.13	2874.18
378.33	2600.34
378.52	2335.85
378.72	2275.00
378.91	2303.09
379.11	2251.60
379.31	2120.53
379.50	2094.78
379.70	2324.15
379.89	2593.31
380.09	2750.13
380.28	2899.92
380.48	2806.30
380.68	2787.58
380.87	2640.12
381.07	2485.65
381.26	2230.53
381.46	2139.25
381.65	2066.69
381.85	2083.08
382.04	1809.23
382.24	1724.97
382.43	1607.95
382.63	1584.54
382.83	1579.86
383.02	1717.95
383.22	1638.38
383.41	1706.25
383.61	1914.56
383.80	2181.38
384.00	2504.37
384.19	2726.72
384.39	2932.69
384.58	2766.51
384.78	2717.36
384.97	2717.36
385.17	2572.25
385.36	2338.20
385.56	2380.32
385.75	2347.56
385.95	2675.23
386.14	2846.09
386.34	2766.51
386.53	2658.85
386.72	2644.81
386.92	2581.61
387.11	2810.98
387.31	2848.43
387.50	2843.75
387.70	2747.79
387.89	2724.38
388.09	2605.02
388.28	2733.75
388.48	2794.60
388.67	3183.13
388.86	3370.37
389.06	3667.62
389.25	3850.18
389.45	3758.90
389.64	3805.71
389.84	3751.88
390.03	3581.02
390.22	3716.77
390.42	3770.60
390.61	4142.75
390.81	4355.74
391.00	4554.68
391.19	4334.67
391.39	4198.92
391.58	3901.67
391.78	3548.25
391.97	3550.59
392.16	3248.66
392.36	2857.79
392.55	2141.59
392.75	1717.95
392.94	1392.62
393.13	1507.30
393.33	1947.33
393.52	2445.86
393.71	3070.78
393.91	3248.66
394.10	3730.81
394.29	4201.26
394.49	4449.36
394.68	4629.58
394.88	4660.01
395.07	4657.67
395.26	4809.80
395.46	4440.00
395.65	4109.98
395.84	3452.29
396.04	2937.37
396.23	2317.13
396.42	2005.84
396.62	2118.18
396.81	2572.25
397.00	3258.03
397.19	4135.73
397.39	4882.36
397.58	5364.51
397.77	5706.23
397.97	5731.97
398.16	5841.98
398.35	5970.71
398.55	6249.23
398.74	6492.65
398.93	6569.88
399.12	6445.84
399.32	6427.11
399.51	6415.41
399.70	6890.54
399.90	6628.40
400.09	6806.28
400.28	6813.30
400.47	6991.18
400.67	7070.76
400.86	7410.14
401.05	7164.38
401.24	7157.36
401.44	7459.29
401.63	7379.71
401.82	7625.47
402.01	7391.41
402.21	7613.76
402.40	7581.00
402.59	7323.54
402.78	6743.08
402.97	6874.15
403.17	7339.92
403.36	7592.70
403.55	7978.89
403.74	7843.14
403.93	7536.52
404.13	6867.13
404.32	6817.98
404.51	7302.47
404.70	7648.87
404.89	7691.00
405.09	7555.25
405.28	7365.67
405.47	7335.24
405.66	7262.68
405.85	7056.72
406.05	6988.84
406.24	7148.00
406.43	7281.41
406.62	7531.84
406.81	7646.53
407.00	7543.55
407.20	7056.72
407.39	7094.16
407.58	7819.73
407.77	7978.89
407.96	8156.77
408.15	8327.63
408.34	8128.68
408.54	8620.19
408.73	8589.77
408.92	8271.45
409.11	8030.38
409.30	7545.89
409.49	7180.76
409.68	6684.57
409.87	6958.41
410.07	7466.31
410.26	8051.44
410.45	8109.96
410.64	8549.98
410.83	8580.40
411.02	9100.00
411.21	9226.39
411.40	9095.32
411.59	9235.75
411.78	9163.20
411.98	9104.68
412.17	9202.99
412.36	8877.65
412.55	8699.77
412.74	8571.04
412.93	8528.91
413.12	8795.73
413.31	9350.44
413.50	9706.20
413.69	9558.75
413.88	9289.59
414.07	9305.97
414.26	9324.69
414.45	9504.92
414.64	9430.02
414.83	9652.37
415.02	9558.75
415.22	9334.06
415.41	9664.07
415.60	10083.03
415.79	10171.97
415.98	10326.44
416.17	10150.90
416.36	10073.67
416.55	9888.76
416.74	9591.52
416.93	9200.65
417.12	9399.59
417.31	9687.48
417.50	9647.69
417.69	9884.08
417.88	10012.81
418.07	9830.25
418.26	9825.57
418.45	10153.24
418.64	10443.47
418.83	10623.69
419.02	10609.65
419.21	10022.17
419.39	9919.19
419.58	9273.20
419.77	9380.87
419.96	10214.10
420.15	10480.92
420.34	11063.71
420.53	11279.04
420.72	11084.78
420.91	11042.65
421.10	10757.10
421.29	10974.77
421.48	10686.89
421.67	10918.60
421.86	10092.39
422.05	9497.89
422.24	9048.51
422.43	9268.52
422.61	9989.41
422.80	10352.19
422.99	10494.96
423.18	10186.01
423.37	10333.47
423.56	10125.16
423.75	10509.01
423.94	10478.58
424.13	9982.38
424.32	9689.82
424.50	9933.23
424.69	9867.70
424.88	10106.43
425.07	9940.26
425.26	9834.93
425.45	9570.45
425.64	9783.44
425.83	9989.41
426.01	10347.51
426.20	10473.90
426.39	10204.74
426.58	9418.32
426.77	8872.97
426.96	8709.13
427.15	9226.39
427.33	9799.82
427.52	9884.08
427.71	10092.39
427.90	9717.90
428.09	9666.41
428.28	9212.35
428.46	9144.47
428.65	9273.20
428.84	9427.68
429.03	9336.40
429.22	8938.51
429.40	8341.67
429.59	7597.38
429.78	6792.23
429.97	6946.71
430.16	6960.75
430.34	6979.48
430.53	7180.76
430.72	7274.38
430.91	8147.40
431.10	9774.08
431.28	10874.13
431.47	11669.91
431.66	11583.31
431.85	10394.32
432.03	9408.95
432.22	9516.62
432.41	10239.84
432.60	11117.54
432.79	11660.55
432.97	11623.10
433.16	11075.42
433.35	10169.63
433.54	9111.71
433.72	8938.51
433.91	9380.87
434.10	10286.65
434.28	11248.61
434.47	11346.92
434.66	10857.75
434.85	10984.13
435.03	11194.78
435.22	11094.14
435.41	11623.10
435.59	11716.72
435.78	11812.68
435.97	12503.14
436.16	11992.90
436.34	12035.03
436.53	12142.70
436.72	12107.59
436.90	11307.13
437.09	11295.43
437.28	11047.33
437.46	11398.41
437.65	11253.30
437.84	10317.08
438.02	9942.60
438.21	9816.21
438.40	10431.77
438.58	11344.58
438.77	11367.98
438.96	11559.91
439.14	12329.94
439.33	12231.64
439.52	12498.46
439.70	11960.14
439.89	11690.98
440.08	11562.25
440.26	11887.58
440.45	12194.19
440.63	12863.58
440.82	13497.87
441.01	12915.08
441.19	12959.55
441.38	13350.42
441.57	13610.22
441.75	13771.71
441.94	14045.55
442.12	13661.71
442.31	14270.25
442.50	14310.04
442.68	14132.15
442.87	13837.25
443.05	13757.67
443.24	13884.06
443.43	14181.31
443.61	14211.73
443.80	14878.79
443.98	13916.83
444.17	13767.03
444.35	14754.74
444.54	15154.97
444.73	14651.75
444.91	13937.89
445.10	13277.86
445.28	12964.23
445.47	12774.64
445.65	12786.35
445.84	13385.52
446.02	13933.21
446.21	13727.24
446.39	13813.84
446.58	14045.55
446.77	14228.12
446.95	14501.96
447.14	14572.18
447.32	14892.83
447.51	14485.58
447.69	13589.15
447.88	13638.30
448.06	14052.58
448.25	14277.27
448.43	14530.05
448.62	13900.44
448.80	14228.12
448.99	14471.53
449.17	14583.88
449.36	14260.88
449.54	14857.72
449.73	15382.00
449.91	15707.34
450.10	16030.33
450.28	15791.59
450.46	15559.88
450.65	15597.33
450.83	15484.98
451.02	15634.78
451.20	15300.08
451.39	15066.03
451.57	15101.14
451.76	14743.03
451.94	14750.06
452.13	14675.16
452.31	13816.18
452.49	13392.55
452.68	13619.58
452.86	13640.64
453.05	13769.37
453.23	14686.86
453.42	14944.32
453.60	14974.75
453.78	15087.09
453.97	14408.34
454.15	14448.13
454.34	14363.87
454.52	14153.22
454.70	14136.84
454.89	14258.54
455.07	14349.82
455.26	14785.16
455.44	15260.29
455.62	15302.42
455.81	15669.89
455.99	15042.62
456.17	15201.78
456.36	15206.46
456.54	15976.50
456.73	15384.34
456.91	16098.20
457.09	16030.33
457.28	16161.40
457.46	15566.90
457.64	15487.32
457.83	14583.88
458.01	14661.12
458.19	15173.69
458.38	15293.06
458.56	15503.71
458.74	15419.45
458.93	15433.49
459.11	15190.08
459.29	15173.69
459.48	15101.14
459.66	15161.99
459.84	15154.97
460.03	15618.39
460.21	15391.36
460.39	15885.22
460.57	16077.14
460.76	15861.81
460.94	16149.70
461.12	16002.24
461.31	16133.31
461.49	16264.38
461.67	16318.22
461.85	16613.12
462.04	16070.12
462.22	16283.11
462.40	16095.86
462.59	15983.52
462.77	15868.83
462.95	16266.72
463.13	16418.86
463.32	15974.16
463.50	15672.23
463.68	15751.81
463.86	16177.78
464.05	15747.12
464.23	15145.61
464.41	15213.48
464.59	15021.56
464.78	15667.55
464.96	15531.80
465.14	15330.51
465.32	15992.88
465.50	16189.49
465.69	16009.26
465.87	15768.19
466.05	15101.14
466.23	14499.62
466.41	14913.89
466.60	15370.30
466.78	15307.10
466.96	15131.56
467.14	15630.10
467.32	15932.03
467.51	15641.80
467.69	14911.55
467.87	14958.36
468.05	15356.25
468.23	15597.33
468.41	15943.73
468.60	15552.86
468.78	15391.36
468.96	15529.45
469.14	16016.29
469.32	16161.40
469.50	15410.09
469.69	14965.39
469.87	14754.74
470.05	14764.10
470.23	14867.08
470.41	14967.73
470.59	15557.54
470.77	15548.18
470.95	15571.58
471.14	16077.14
471.32	15775.21
471.50	16442.26
471.68	16931.44
471.86	16987.61
472.04	16631.85
472.22	16812.07
472.40	15585.63
472.58	15922.66
472.77	15639.46
472.95	16152.04
473.13	16676.32
473.31	16285.45
473.49	15992.88
473.67	16336.94
473.85	16072.46
474.03	16365.03
474.21	16833.13
474.39	16994.63
474.57	17181.87
474.75	17216.98
474.93	17273.15
475.12	16758.24
475.30	16720.79
475.48	17172.51
475.66	17179.53
475.84	16730.15
476.02	16549.93
476.20	16460.99
476.38	16676.32
476.56	17289.54
476.74	17511.89
476.92	17584.44
477.10	17830.20
477.28	18581.51
477.46	17987.02
477.64	18752.37
477.82	18738.33
478.00	18565.13
478.18	18656.41
478.36	18064.25
478.54	18064.25
478.72	18712.58
478.90	18899.83
479.08	19260.27
479.26	19510.71
479.44	19246.23
479.62	19164.31
479.80	19066.00
479.98	19232.18
480.16	19468.58
480.34	19723.69
480.52	19578.58
480.70	19475.60
480.88	19857.10
481.06	20308.83
481.24	20372.02
481.41	20755.87
481.59	21303.56
481.77	20524.16
481.95	20676.29
482.13	21177.17
482.31	20491.39
482.49	20723.10
482.67	20222.23
482.85	20276.06
483.03	20727.78
483.21	21296.53
483.39	21064.82
483.57	21006.31
483.74	20713.74
483.92	20959.50
484.10	21305.90
484.28	21359.73
484.46	21441.65
484.64	21099.93
484.82	21275.47
485.00	21544.63
485.18	20695.02
485.35	19761.14
485.53	17394.86
485.71	16383.75
485.89	16650.57
486.07	17631.26
486.25	19534.11
486.43	20278.40
486.61	19630.07
486.78	19763.48
486.96	21156.10
487.14	21858.26
487.32	22127.42
487.50	22574.47
487.68	22188.28
487.85	22948.95
488.03	22843.63
488.21	22448.08
488.39	21879.33
488.57	21734.21
488.75	21769.32
488.92	23197.05
489.10	24613.07
489.28	25081.18
489.46	24936.07
489.64	25823.13
489.81	25455.67
489.99	25331.62
490.17	25188.85
490.35	26118.04
490.53	25006.28
490.70	24741.80
490.88	25144.38
491.06	25633.55
491.24	24961.81
491.41	24128.58
491.59	22925.55
491.77	22595.53
491.95	23639.41
492.13	24116.88
492.30	24830.74
492.48	26204.64
492.66	26670.40
492.84	26232.72
493.01	25748.23
493.19	25022.67
493.37	24907.98
493.54	25067.14
493.72	26211.66
493.90	26555.72
494.08	27232.13
494.25	27690.88
494.43	27946.00
494.61	28868.17
494.79	28051.32
494.96	27845.35
495.14	26661.04
495.32	26232.72
495.49	26288.90
495.67	26986.38
495.85	28666.88
496.02	28943.06
496.20	28746.46
496.38	28247.93
496.55	27709.60
496.73	28313.46
496.91	28610.71
497.09	28615.39
497.26	28292.40
497.44	29020.30
497.62	28025.57
497.79	26995.74
497.97	25818.45
498.14	26246.77
498.32	27658.11
498.50	27730.67
498.67	29092.86
498.85	28451.55
499.03	28095.79
499.20	28996.90
499.38	28456.23
499.56	28128.56
499.73	28086.43
499.91	27402.99
500.08	26780.41
500.26	26448.05
500.44	27381.93
500.61	28098.13
500.79	27246.18
500.97	26705.51
501.14	27042.55
501.32	26321.66
501.49	26515.93
501.67	26904.46
501.84	27826.63
502.02	28098.13
502.20	28060.68
502.37	28442.19
502.55	28451.55
502.72	29163.08
502.90	29116.26
503.07	28933.70
503.25	28917.32
503.43	27520.02
503.60	26630.62
503.78	26375.50
503.95	27094.04
504.13	27590.24
504.30	29268.40
504.48	28905.62
504.65	28945.41
504.83	28884.55
505.01	28739.44
505.18	29212.23
505.36	30326.32
505.53	29771.61
505.71	30118.01
505.88	30115.67
506.06	29675.65
506.23	29303.51
506.41	29221.59
506.58	29132.65
506.76	28311.12
506.93	28875.19
507.11	27866.42
507.28	28842.42
507.46	27651.09
507.63	27438.10
507.81	27323.41
507.98	27763.43
508.16	28343.89
508.33	29226.27
508.50	28961.79
508.68	29001.58
508.85	30143.76
509.03	29951.84
509.20	28697.31
509.38	28528.79
509.55	27859.40
509.73	29172.44
509.90	29465.00
510.08	29240.31
510.25	28287.71
510.42	28397.72
510.60	28905.62
510.77	29254.36
510.95	30082.91
511.12	29631.18
511.30	29830.13
511.47	30771.02
511.64	30157.80
511.82	30291.21
511.99	28952.43
512.17	28692.63
512.34	28591.98
512.51	27934.29
512.69	28301.76
512.86	28465.60
513.04	29399.47
513.21	29078.82
513.38	28451.55
513.56	27887.48
513.73	27002.76
513.90	26824.88
514.08	27449.80
514.25	27854.72
514.43	28479.64
514.60	29053.07
514.77	28662.20
514.95	28701.99
515.12	28435.17
515.29	28783.91
515.47	28870.51
515.64	28816.68
515.81	29289.46
515.99	28435.17
516.16	26424.65
516.33	24594.35
516.51	23283.65
516.68	22595.53
516.85	21858.26
517.03	22948.95
517.20	24994.58
517.37	26995.74
517.54	27328.10
517.72	26092.29
517.89	24088.79
518.06	23098.75
518.24	24187.10
518.41	25582.06
518.58	26738.28
518.75	26747.64
518.93	26602.53
519.10	26782.75
519.27	27571.51
519.45	27295.33
519.62	28121.54
519.79	27927.27
519.96	28264.31
520.14	27234.47
520.31	27103.40
520.48	26815.52
520.65	27122.13
520.83	28472.62
521.00	28133.24
521.17	27931.95
521.34	27101.06
521.52	27814.93
521.69	28535.81
521.86	28676.24
522.03	27569.17
522.20	26764.03
522.38	25495.46
522.55	26281.88
522.72	26988.72
522.89	26553.38
523.07	27269.58
523.24	28231.54
523.41	27983.44
523.58	28430.49
523.75	27796.20
523.92	28795.61
524.10	28699.65
524.27	29181.80
524.44	28613.05
524.61	29455.64
524.78	28594.32
524.96	27931.95
525.13	28285.37
525.30	29041.37
525.47	29041.37
525.64	28666.88
525.81	27103.40
525.98	25839.51
526.16	24212.84
526.33	24051.34
526.50	24655.20
526.67	24498.39
526.84	24137.94
527.01	25773.98
527.18	26696.15
527.36	27342.14
527.53	28709.01
527.70	27763.43
527.87	26405.92
528.04	26361.45
528.21	27482.57
528.38	28290.06
528.55	29006.26
528.72	28861.15
528.89	28547.51
529.07	28517.09
529.24	27005.10
529.41	27716.62
529.58	27831.31
529.75	27072.98
529.92	27655.77
530.09	27758.75
530.26	27573.85
530.43	26562.74
530.60	27997.49
530.77	28795.61
530.94	29125.63
531.11	28306.44
531.28	27747.05
531.46	27665.13
531.63	27669.81
531.80	28032.60
531.97	27351.50
532.14	25790.36
532.31	25277.79
532.48	24259.65
532.65	24547.54
532.82	25273.10
532.99	26513.59
533.16	26934.88
533.33	27990.47
533.50	26988.72
533.67	26742.96
533.84	26665.72
534.01	26171.87
534.18	26932.54
534.35	27007.44
534.52	26560.40
534.69	27208.73
534.86	27220.43
535.03	27585.55
535.20	27814.93
535.37	27784.50
535.54	27784.50
535.71	26944.25
535.88	27030.85
536.05	26448.05
536.22	26286.56
536.38	25453.33
536.55	25699.08
536.72	25628.87
536.89	26293.58
537.06	26085.27
537.23	26387.20
537.40	26394.22
537.57	26478.48
537.74	25546.95
537.91	26031.44
538.08	26857.65
538.25	26909.14
538.42	26562.74
538.59	26628.27
538.75	26253.79
538.92	26286.56
539.09	25551.63
539.26	24889.26
539.43	25139.69
539.60	24678.61
539.77	24692.65
539.94	24163.69
540.11	23442.81
540.28	23569.19
540.44	23740.05
540.61	24123.90
540.78	24346.25
540.95	25422.90
541.12	24966.49
541.29	25778.66
541.46	25745.89
541.62	25699.08
541.79	25364.39
541.96	24774.57
542.13	25551.63
542.30	25895.69
542.47	25738.87
542.63	25289.49
542.80	24388.38
542.97	24582.65
543.14	24201.14
543.31	24980.54
543.48	25631.21
543.64	25809.09
543.81	25951.86
543.98	25500.14
544.15	25572.69
544.32	24589.67
544.48	25350.34
544.65	24732.44
544.82	24760.53
544.99	25261.40
545.16	25067.14
545.32	25518.86
545.49	25886.32
545.66	25834.83
545.83	26169.53
546.00	24842.45
546.16	25067.14
546.33	25256.72
546.50	25298.85
546.67	25462.69
546.83	24964.15
547.00	24844.79
547.17	24224.54
547.34	24538.18
547.50	24327.53
547.67	24231.57
547.84	24439.87
548.00	24999.26
548.17	24273.70
548.34	24294.76
548.51	24772.23
548.67	25603.12
548.84	25099.90
549.01	25303.53
549.18	25259.06
549.34	25432.26
549.51	24982.88
549.68	24687.97
549.84	24889.26
550.01	24959.47
550.18	23859.42
550.34	23618.35
550.51	23824.31
550.68	23838.36
550.84	23243.86
551.01	22984.06
551.18	22941.93
551.34	22712.56
551.51	23800.91
551.68	24496.05
551.84	23648.77
552.01	24521.79
552.18	23655.79
552.34	23243.86
552.51	23456.85
552.68	24156.67
552.84	23688.56
553.01	23400.68
553.18	24395.40
553.34	24283.06
553.51	23545.79
553.67	23180.67
553.84	24067.73
554.01	24292.42
554.17	23632.39
554.34	24360.30
554.51	24343.91
554.67	23782.18
554.84	23662.82
555.00	23082.36
555.17	23529.41
555.33	23672.18
555.50	24161.35
555.67	24020.92
555.83	23676.86
556.00	23456.85
556.16	23073.00
556.33	22979.38
556.50	23232.16
556.66	22174.24
556.83	21713.15
556.99	22373.18
557.16	22801.50
557.32	23388.97
557.49	22794.48
557.65	22955.97
557.82	21872.31
557.98	22366.16
558.15	22841.29
558.32	21687.40
558.48	21490.80
558.65	20809.70
558.81	21053.12
558.98	21748.26
559.14	21865.28
559.31	21764.64
559.47	21429.94
559.64	21202.91
559.80	21951.88
559.97	21968.27
560.13	22256.15
560.30	22333.39
560.46	23241.52
560.63	23262.58
560.79	23384.29
560.96	22405.95
561.12	21621.87
561.29	21259.09
561.45	21504.84
561.61	21252.06
561.78	21443.99
561.94	21635.91
562.11	21757.62
562.27	21830.18
562.44	22396.59
562.60	22019.76
562.77	22707.88
562.93	21694.43
563.10	21802.09
563.26	21781.03
563.42	21067.16
563.59	21116.31
563.75	21729.53
563.92	21404.20
564.08	21727.19
564.24	21350.37
564.41	20210.53
564.57	21130.36
564.74	20786.30
564.90	20482.03
565.07	20339.26
565.23	20154.35
565.39	20077.12
565.56	20793.32
565.72	20482.03
565.88	21151.42
566.05	20641.18
566.21	20512.46
566.38	20304.15
566.54	19688.59
566.70	20025.62
566.87	20519.48
567.03	21893.37
567.19	21797.41
567.36	20376.70
567.52	21034.39
567.68	20329.89
567.85	20231.59
568.01	19859.45
568.17	19314.10
568.34	18972.38
568.50	19475.60
568.66	19370.27
568.83	19576.24
568.99	20032.65
569.15	19695.61
569.32	20238.61
569.48	20381.38
569.64	19627.73
569.81	19517.73
569.97	19442.83
570.13	19620.71
570.30	19377.30
570.46	19215.80
570.62	18333.42
570.78	18003.40
570.95	18122.77
571.11	18895.14
571.27	18874.08
571.43	19157.28
571.60	19208.78
571.76	19257.93
571.92	19360.91
572.09	19887.53
572.25	19700.29
572.41	20013.92
572.57	19733.06
572.74	19234.52
572.90	19187.71
573.06	19309.42
573.22	19061.32
573.38	19147.92
573.55	18600.24
573.71	19016.85
573.87	19187.71
574.03	19248.57
574.20	19374.95
574.36	19098.77
574.52	19381.98
574.68	18838.97
574.84	18569.81
575.01	18602.58
575.17	18754.71
575.33	18586.19
575.49	18537.04
575.65	18466.83
575.82	18331.08
575.98	18047.87
576.14	18452.78
576.30	18492.57
576.46	17926.16
576.62	18104.04
576.79	18274.90
576.95	18073.62
577.11	17846.58
577.27	17846.58
577.43	17858.29
577.59	18040.85
577.75	18291.29
577.92	17376.14
578.08	17715.51
578.24	17525.93
578.40	17226.34
578.56	17603.17
578.72	17336.35
578.88	18363.84
579.04	18148.51
579.21	18111.07
579.37	17940.21
579.53	17923.82
579.69	17507.21
579.85	17547.00
580.01	17067.19
580.17	17486.14
580.33	17591.47
580.49	17280.18
580.65	17554.02
580.82	17542.32
580.98	17703.81
581.14	17427.63
581.30	18118.09
581.46	17984.68
581.62	17661.68
581.78	17731.90
581.94	18324.05
582.10	18017.44
582.26	17654.66
582.42	17631.26
582.58	18387.25
582.74	17722.54
582.90	17752.96
583.06	18026.81
583.22	18253.84
583.38	17809.14
583.54	18043.19
583.70	18101.70
583.86	17619.55
584.02	17675.73
584.18	17830.20
584.34	18068.94
584.50	18490.23
584.66	17942.55
584.82	17476.78
584.98	17273.15
585.14	17043.78
585.30	16573.33
585.46	16599.08
585.62	16439.92
585.78	17039.10
585.94	16688.02
586.10	16999.31
586.26	16812.07
586.42	17029.74
586.58	16929.09
586.74	16662.27
