SpectraSuite Data File
++++++++++++++++++++++++++++++++++++
Date: Mon Oct 07 14:54:59 GMT-05:00 2013
User: price-jones
Dark Spectrum Present: No
Reference Spectrum Present: No
Number of Sampled Component Spectra: 1
Spectrometers: USB2+H05261
Integration Time (usec): 10000 (USB2+H05261)
Spectra Averaged: 1 (USB2+H05261)
Boxcar Smoothing: 0 (USB2+H05261)
Correct for Electrical Dark: No (USB2+H05261)
Strobe/Lamp Enabled: No (USB2+H05261)
Correct for Detector Non-linearity: No (USB2+H05261)
Correct for Stray Light: No (USB2+H05261)
Number of Pixels in Processed Spectrum: 2048
>>>>>Begin Processed Spectral Data<<<<<
365.73	0.00
365.92	0.00
366.12	0.00
366.32	0.00
366.52	0.00
366.72	0.00
366.91	0.00
367.11	0.00
367.31	0.00
367.51	0.00
367.70	0.00
367.90	0.00
368.10	0.00
368.30	0.00
368.49	0.00
368.69	0.00
368.89	0.00
369.09	0.00
369.28	0.00
369.48	0.00
369.68	0.00
369.87	0.00
370.07	0.00
370.27	0.00
370.47	91.28
370.66	1394.96
370.86	1549.43
371.06	1790.51
371.25	1750.72
371.45	1542.41
371.65	1355.17
371.84	1331.76
372.04	1479.22
372.24	1607.95
372.44	1802.21
372.63	1540.07
372.83	1427.73
373.03	1394.96
373.22	1205.38
373.42	1404.32
373.62	1526.03
373.81	1729.66
374.01	1540.07
374.21	1409.00
374.40	1383.26
374.60	1544.75
374.79	1682.85
374.99	1935.62
375.19	1980.09
375.38	2073.71
375.58	1895.83
375.78	1961.37
375.97	1865.41
376.17	2047.97
376.37	2111.16
376.56	2038.61
376.76	2209.47
376.95	2368.62
377.15	2509.05
377.35	2560.55
377.54	2693.96
377.74	2722.04
377.93	2782.90
378.13	2647.15
378.33	2469.27
378.52	2345.22
378.72	2207.13
378.91	2307.77
379.11	2132.23
379.31	2003.50
379.50	2073.71
379.70	2347.56
379.89	2593.31
380.09	2768.85
380.28	2806.30
380.48	2766.51
380.68	2708.00
380.87	2595.65
381.07	2342.88
381.26	2228.19
381.46	2010.52
381.65	1991.80
381.85	1902.86
382.04	1834.98
382.24	1675.82
382.43	1596.25
382.63	1572.84
382.83	1589.22
383.02	1565.82
383.22	1483.90
383.41	1614.97
383.61	1858.39
383.80	2050.31
384.00	2340.54
384.19	2663.53
384.39	2890.56
384.58	2747.79
384.78	2693.96
384.97	2516.08
385.17	2396.71
385.36	2347.56
385.56	2314.79
385.75	2438.84
385.95	2502.03
386.14	2731.41
386.34	2883.54
386.53	2733.75
386.72	2513.74
386.92	2574.59
387.11	2670.55
387.31	2665.87
387.50	2911.63
387.70	2740.77
387.89	2658.85
388.09	2752.47
388.28	2785.24
388.48	2778.22
388.67	2984.18
388.86	3215.90
389.06	3574.00
389.25	3658.26
389.45	3786.99
389.64	3595.06
389.84	3478.04
390.03	3499.10
390.22	3632.51
390.42	3705.07
390.61	4133.39
390.81	4224.67
391.00	4322.97
391.19	4234.03
391.39	4011.68
391.58	3838.48
391.78	3658.26
391.97	3419.52
392.16	3307.18
392.36	2799.28
392.55	2155.63
392.75	1755.40
392.94	1495.60
393.13	1476.88
393.33	1872.43
393.52	2516.08
393.71	2953.76
393.91	3377.39
394.10	3583.36
394.29	3962.53
394.49	4241.05
394.68	4744.27
394.88	4739.58
395.07	4723.20
395.26	4662.35
395.46	4437.66
395.65	4037.42
395.84	3595.06
396.04	2909.29
396.23	2363.94
396.42	2062.01
396.62	2113.50
396.81	2539.48
397.00	3286.11
397.19	4072.53
397.39	4931.51
397.58	5195.99
397.77	5537.71
397.97	5764.74
398.16	5788.14
398.35	5996.45
398.55	6026.88
398.74	6298.38
398.93	6537.12
399.12	6373.28
399.32	6024.54
399.51	6340.51
399.70	6853.09
399.90	6478.60
400.09	6581.59
400.28	6593.29
400.47	6810.96
400.67	7110.55
400.86	7255.66
401.05	7171.40
401.24	7410.14
401.44	7494.40
401.63	7541.21
401.82	7384.39
402.01	7447.58
402.21	7496.74
402.40	7562.27
402.59	7122.25
402.78	6604.99
402.97	6832.02
403.17	7183.10
403.36	7609.08
403.55	7857.18
403.74	7662.91
403.93	7372.69
404.13	6927.99
404.32	7098.84
404.51	7335.24
404.70	7887.61
404.89	7693.34
405.09	7513.12
405.28	7234.60
405.47	7384.39
405.66	7360.98
405.85	6991.18
406.05	6995.86
406.24	7138.63
406.43	7269.70
406.62	7597.38
406.81	7686.32
407.00	7258.00
407.20	7143.32
407.39	7417.16
407.58	7611.42
407.77	8006.97
407.96	8334.65
408.15	8329.97
408.34	8486.78
408.54	8791.05
408.73	8624.87
408.92	8678.71
409.11	8339.33
409.30	7915.69
409.49	7407.80
409.68	7080.12
409.87	7206.51
410.07	7662.91
410.26	7953.14
410.45	8196.56
410.64	8549.98
410.83	8898.72
411.02	9224.05
411.21	9401.93
411.40	8997.02
411.59	9249.80
411.78	9397.25
411.98	8978.30
412.17	9139.79
412.36	9123.41
412.55	9123.41
412.74	9048.51
412.93	8685.73
413.12	9224.05
413.31	9727.27
413.50	9549.39
413.69	9820.89
413.88	9263.84
414.07	9217.03
414.26	9327.03
414.45	9734.29
414.64	9577.47
414.83	9652.37
415.02	9537.68
415.22	9703.86
415.41	10005.79
415.60	10523.05
415.79	10590.92
415.98	10614.33
416.17	10611.99
416.36	10354.53
416.55	10068.98
416.74	9710.88
416.93	9535.34
417.12	9476.83
417.31	9879.40
417.50	10115.80
417.69	10445.81
417.88	10391.98
418.07	10509.01
418.26	10232.82
418.45	10403.68
418.64	10661.14
418.83	11066.05
419.02	10544.11
419.21	10473.90
419.39	9865.36
419.58	9844.29
419.77	9680.46
419.96	10448.15
420.15	11005.20
420.34	11117.54
420.53	11489.69
420.72	11424.15
420.91	11445.22
421.10	11272.02
421.29	11248.61
421.48	10951.37
421.67	11323.51
421.86	10876.47
422.05	9895.78
422.24	9380.87
422.43	9685.14
422.61	10516.03
422.80	11164.36
422.99	10799.23
423.18	10565.18
423.37	10415.38
423.56	10658.80
423.75	10841.36
423.94	10988.82
424.13	10312.40
424.32	10125.16
424.50	10478.58
424.69	10637.73
424.88	10593.26
425.07	10443.47
425.26	10253.89
425.45	10139.20
425.64	10024.51
425.83	10178.99
426.01	10476.24
426.20	10724.33
426.39	10927.96
426.58	9879.40
426.77	9060.21
426.96	8978.30
427.15	9465.13
427.33	10083.03
427.52	10457.51
427.71	10501.98
427.90	10363.89
428.09	10097.07
428.28	9827.91
428.46	9736.63
428.65	9785.78
428.84	9923.87
429.03	9818.55
429.22	9469.81
429.40	8837.86
429.59	8018.68
429.78	7304.81
429.97	7440.56
430.16	7522.48
430.34	7414.82
430.53	7307.15
430.72	7873.56
430.91	8837.86
431.10	10438.79
431.28	12191.85
431.47	12807.41
431.66	12362.71
431.85	11035.63
432.03	10003.45
432.22	10382.62
432.41	10979.45
432.60	11714.38
432.79	12229.30
432.97	12252.70
433.16	11887.58
433.35	10799.23
433.54	9617.26
433.72	9666.41
433.91	9827.91
434.10	11014.56
434.28	11763.53
434.47	12194.19
434.66	11817.36
434.85	11534.16
435.03	11634.80
435.22	11840.77
435.41	12566.34
435.59	12561.66
435.78	12648.26
435.97	13198.28
436.16	13296.58
436.34	12868.27
436.53	12798.05
436.72	12861.24
436.90	11882.90
437.09	12390.80
437.28	12109.93
437.46	12374.41
437.65	12219.94
437.84	10995.84
438.02	10600.29
438.21	10794.55
438.40	10911.58
438.58	12196.53
438.77	12566.34
438.96	12315.90
439.14	13107.00
439.33	13200.62
439.52	13469.78
439.70	13357.44
439.89	12491.44
440.08	12540.59
440.26	12491.44
440.45	12945.50
440.63	14001.08
440.82	14363.87
441.01	14249.18
441.19	14436.42
441.38	14490.26
441.57	14754.74
441.75	14937.30
441.94	15279.02
442.12	15365.62
442.31	15660.52
442.50	15672.23
442.68	15087.09
442.87	14836.66
443.05	14822.61
443.24	14918.57
443.43	15232.21
443.61	15477.96
443.80	15637.12
443.98	14651.75
444.17	14913.89
444.35	15562.22
444.54	15807.98
444.73	15791.59
444.91	14956.02
445.10	14338.12
445.28	13760.01
445.47	13523.62
445.65	13933.21
445.84	14501.96
446.02	14764.10
446.21	15257.95
446.39	15143.27
446.58	15197.10
446.77	15400.72
446.95	15665.21
447.14	15941.39
447.32	16006.92
447.51	15726.06
447.69	15323.49
447.88	15304.76
448.06	15594.99
448.25	15583.29
448.43	15728.40
448.62	15531.80
448.80	15421.79
448.99	15496.69
449.17	15569.24
449.36	16013.95
449.54	16243.32
449.73	16559.29
449.91	16772.28
450.10	16805.05
450.28	17439.33
450.46	17352.73
450.65	17273.15
450.83	17174.85
451.02	16657.59
451.20	17085.91
451.39	16978.25
451.57	17209.96
451.76	16830.79
451.94	16245.66
452.13	16168.42
452.31	15332.85
452.49	14410.68
452.68	14951.34
452.86	14633.03
453.05	14977.09
453.23	15807.98
453.42	16397.79
453.60	16205.87
453.78	16482.05
453.97	16287.79
454.15	16180.12
454.34	15751.81
454.52	15824.36
454.70	15587.97
454.89	16023.31
455.07	16067.78
455.26	16252.68
455.44	16842.50
455.62	17193.58
455.81	17200.60
455.99	16905.69
456.17	16898.67
456.36	17326.99
456.54	17874.67
456.73	17434.65
456.91	17657.00
457.09	17811.48
457.28	18239.79
457.46	17778.71
457.64	17214.64
457.83	16620.14
458.01	16482.05
458.19	16886.97
458.38	17277.83
458.56	17734.24
458.74	17764.67
458.93	17151.45
459.11	17132.72
459.29	16898.67
459.48	16765.26
459.66	16395.45
459.84	16996.97
460.03	17334.01
460.21	17535.29
460.39	18267.88
460.57	18094.68
460.76	18197.67
460.94	18277.24
461.12	17895.74
461.31	17722.54
461.49	18319.37
461.67	17942.55
461.85	18569.81
462.04	18600.24
462.22	18532.36
462.40	18525.34
462.59	18398.95
462.77	18661.09
462.95	18450.44
463.13	18022.12
463.32	17898.08
463.50	17809.14
463.68	17738.92
463.86	17762.33
464.05	17357.41
464.23	17270.81
464.41	17259.11
464.59	16893.99
464.78	17832.54
464.96	17912.12
465.14	17598.49
465.32	18188.30
465.50	18574.49
465.69	18658.75
465.87	17902.76
466.05	17247.41
466.23	16554.61
466.41	16468.01
466.60	17572.74
466.78	17027.40
466.96	17465.08
467.14	17575.08
467.32	17745.94
467.51	17869.99
467.69	16954.84
467.87	17551.68
468.05	17649.98
468.23	17551.68
468.41	17788.07
468.60	17476.78
468.78	18073.62
468.96	17729.56
469.14	18127.45
469.32	18328.74
469.50	17240.39
469.69	17436.99
469.87	16802.71
470.05	17146.76
470.23	17451.03
470.41	17371.46
470.59	17235.70
470.77	17504.87
470.95	18157.88
471.14	18167.24
471.32	18164.90
471.50	19115.16
471.68	19311.76
471.86	19243.88
472.04	19239.20
472.22	19000.47
472.40	18061.91
472.58	18106.38
472.77	18253.84
472.95	18504.28
473.13	19180.69
473.31	18661.09
473.49	18930.25
473.67	19311.76
473.85	19321.12
474.03	19885.19
474.21	19693.27
474.39	20369.68
474.57	20173.08
474.75	20372.02
474.93	19524.75
475.12	19461.55
475.30	19594.96
475.48	19190.05
475.66	19489.64
475.84	19342.19
476.02	19386.66
476.20	18714.92
476.38	19381.98
476.56	20390.75
476.74	20444.58
476.92	20278.40
477.10	20624.80
477.28	21270.79
477.46	21252.06
477.64	21563.36
477.82	21783.37
478.00	22068.91
478.18	21111.63
478.36	21034.39
478.54	21816.13
478.72	21553.99
478.90	22775.75
479.08	22998.10
479.26	22544.04
479.44	22796.82
479.62	22618.94
479.80	22492.55
479.98	23208.75
480.16	23559.83
480.34	22530.00
480.52	23243.86
480.70	23630.05
480.88	23009.81
481.06	23496.64
481.24	23407.70
481.41	24013.90
481.59	25020.33
481.77	24535.84
481.95	24746.48
482.13	24610.73
482.31	24819.04
482.49	25043.73
482.67	24863.51
482.85	24842.45
483.03	25556.31
483.21	25851.22
483.39	25146.72
483.57	24615.41
483.74	24374.34
483.92	24638.82
484.10	25074.16
484.28	25589.08
484.46	25642.91
484.64	25722.49
484.82	24919.68
485.00	24849.47
485.18	24112.20
485.35	22958.31
485.53	20629.48
485.71	19594.96
485.89	19981.15
486.07	20830.77
486.25	22703.20
486.43	24261.99
486.61	24320.51
486.78	24643.50
486.96	24994.58
487.14	26244.43
487.32	25921.43
487.50	27438.10
487.68	27461.51
487.85	28184.73
488.03	28247.93
488.21	27655.77
488.39	26869.35
488.57	25947.18
488.75	26682.11
488.92	27910.89
489.10	29855.87
489.28	29921.41
489.46	30991.03
489.64	30670.38
489.81	30962.95
489.99	30911.46
490.17	30735.92
490.35	30972.31
490.53	30375.47
490.70	29247.33
490.88	29502.45
491.06	30705.49
491.24	30560.37
491.41	29472.03
491.59	28460.91
491.77	27529.38
491.95	28987.53
492.13	30265.47
492.30	31246.15
492.48	32294.71
492.66	32493.66
492.84	31627.66
493.01	31997.46
493.19	31496.59
493.37	31365.52
493.54	31658.09
493.72	33010.92
493.90	32428.12
494.08	33078.79
494.25	34029.05
494.43	34040.75
494.61	34457.37
494.79	33804.36
494.96	33895.64
495.14	32856.44
495.32	32919.63
495.49	32463.23
495.67	33579.67
495.85	34679.72
496.02	35431.03
496.20	35040.16
496.38	34682.06
496.55	34775.68
496.73	35215.70
496.91	35384.22
497.09	36119.15
497.26	35793.81
497.44	35379.54
497.62	34452.69
497.79	34057.14
497.97	32659.84
498.14	33226.24
498.32	34803.77
498.50	35428.69
498.67	34951.22
498.85	35768.07
499.03	36451.50
499.20	36706.62
499.38	36161.28
499.56	36205.75
499.73	35522.31
499.91	33912.02
500.08	33996.28
500.26	32355.57
500.44	33750.52
500.61	34831.85
500.79	34129.69
500.97	33619.46
501.14	33223.90
501.32	33153.69
501.49	33879.25
501.67	33706.05
501.84	34033.73
502.02	34649.29
502.20	34967.60
502.37	35222.72
502.55	35655.72
502.72	35178.25
502.90	36301.71
503.07	35480.18
503.25	34988.67
503.43	34052.45
503.60	33818.40
503.78	33357.32
503.95	34132.03
504.13	36259.58
504.30	37268.35
504.48	35913.18
504.65	35828.92
504.83	35718.92
505.01	36144.89
505.18	36521.72
505.36	36353.20
505.53	37331.54
505.71	38230.31
505.88	38717.14
506.06	37710.71
506.23	37551.56
506.41	36837.69
506.58	37240.26
506.76	36306.39
506.93	36844.71
507.11	35431.03
507.28	36343.84
507.46	35922.54
507.63	35063.57
507.81	34101.61
507.98	35028.46
508.16	36194.04
508.33	37280.05
508.50	37228.56
508.68	37383.04
508.85	39103.33
509.03	38258.40
509.20	37546.87
509.38	35534.01
509.55	36079.36
509.73	36779.18
509.90	36453.84
510.08	36638.75
510.25	36744.07
510.42	36114.47
510.60	36556.83
510.77	37502.40
510.95	39339.72
511.12	37858.17
511.30	39473.13
511.47	38827.15
511.64	38672.67
511.82	38202.22
511.99	36802.58
512.17	36884.50
512.34	36130.85
512.51	37209.84
512.69	36231.49
512.86	36400.01
513.04	37415.80
513.21	37682.62
513.38	36212.77
513.56	34710.14
513.73	33949.47
513.90	35199.32
514.08	34347.36
514.25	36282.98
514.43	36198.73
514.60	36107.44
514.77	35971.69
514.95	37031.96
515.12	36528.74
515.29	36318.09
515.47	36835.35
515.64	37041.32
515.81	37757.52
515.99	36360.22
516.16	33862.87
516.33	31674.47
516.51	30857.62
516.68	29474.37
516.85	29575.01
517.03	30686.76
517.20	33867.55
517.37	36252.56
517.54	36170.64
517.72	34920.79
517.89	32243.22
518.06	31147.85
518.24	32247.90
518.41	33184.12
518.58	35122.08
518.75	35452.09
518.93	35292.94
519.10	35115.06
519.27	35805.52
519.45	36823.65
519.62	37085.79
519.79	36676.19
519.96	37628.79
520.14	36690.24
520.31	35255.49
520.48	35096.33
520.65	35997.44
520.83	37422.83
521.00	37556.24
521.17	36547.47
521.34	37092.81
521.52	37198.13
521.69	36643.43
521.86	37633.47
522.03	37081.11
522.20	35894.46
522.38	35147.82
522.55	36086.38
522.72	36098.08
522.89	35859.35
523.07	36350.86
523.24	36126.17
523.41	38054.77
523.58	38022.00
523.75	37933.06
523.92	38426.92
524.10	38916.09
524.27	38815.44
524.44	38059.45
524.61	38054.77
524.78	37247.29
524.96	36863.44
525.13	36493.63
525.30	37895.61
525.47	38171.80
525.64	38649.27
525.81	37184.09
525.98	34876.32
526.16	34185.86
526.33	32783.88
526.50	31693.19
526.67	31992.78
526.84	32851.76
527.01	34352.04
527.18	35772.75
527.36	37287.07
527.53	36868.12
527.70	36793.22
527.87	36212.77
528.04	37165.37
528.21	36919.61
528.38	38447.98
528.55	39452.07
528.72	39976.35
528.89	39253.12
529.07	38534.58
529.24	37319.84
529.41	36961.74
529.58	37518.79
529.75	37338.57
529.92	38424.57
530.09	38721.82
530.26	38653.95
530.43	39065.88
530.60	38316.91
530.77	38810.76
530.94	38572.03
531.11	37790.29
531.28	36559.17
531.46	36615.34
531.63	36769.82
531.80	36790.88
531.97	35704.87
532.14	34911.43
532.31	34249.06
532.48	34827.17
532.65	34316.93
532.82	35070.59
532.99	37333.89
533.16	37914.34
533.33	37237.92
533.50	35821.90
533.67	36526.40
533.84	36746.41
534.01	36573.21
534.18	36215.11
534.35	37120.90
534.52	35690.83
534.69	37612.41
534.86	37481.34
535.03	36804.92
535.20	37872.21
535.37	38925.45
535.54	39122.05
535.71	38206.90
535.88	37677.94
536.05	36163.62
536.22	37036.64
536.38	36009.14
536.55	34998.03
536.72	34878.66
536.89	35115.06
537.06	35981.06
537.23	38202.22
537.40	37359.63
537.57	37289.42
537.74	37102.17
537.91	37446.23
538.08	36210.43
538.25	36397.67
538.42	37043.66
538.59	36622.36
538.75	35648.70
538.92	35882.75
539.09	36201.07
539.26	35999.78
539.43	35618.27
539.60	35042.50
539.77	36149.57
539.94	34518.22
540.11	33214.54
540.28	33968.19
540.44	33460.30
540.61	34768.66
540.78	35842.96
540.95	36156.60
541.12	36128.51
541.29	36149.57
541.46	35838.28
541.62	36659.81
541.79	36795.56
541.96	36690.24
542.13	34962.92
542.30	34857.60
542.47	35213.36
542.63	34766.32
542.80	35178.25
542.97	35730.62
543.14	35124.42
543.31	35550.40
543.48	36034.89
543.64	36095.74
543.81	37158.34
543.98	37109.19
544.15	35786.79
544.32	35372.52
544.48	36313.41
544.65	36236.17
544.82	36928.97
544.99	35632.32
545.16	35171.23
545.32	35501.25
545.49	36816.63
545.66	36074.68
545.83	35428.69
546.00	34733.55
546.16	35384.22
546.33	35353.79
546.50	34916.11
546.67	36098.08
546.83	35093.99
547.00	34911.43
547.17	34581.42
547.34	34314.59
547.50	34787.38
547.67	35402.94
547.84	35503.59
548.00	35826.58
548.17	35196.98
548.34	34955.90
548.51	35629.98
548.67	35894.46
548.84	35559.76
549.01	36261.92
549.18	35917.86
549.34	35449.75
549.51	35812.54
549.68	36463.21
549.84	35608.91
550.01	35173.57
550.18	35660.40
550.34	34965.26
550.51	35253.15
550.68	34859.94
550.84	35255.49
551.01	34979.31
551.18	35225.06
551.34	36119.15
551.51	34749.93
551.68	35585.50
551.84	36245.54
552.01	36325.11
552.18	34934.84
552.34	34710.14
552.51	34836.53
552.68	34998.03
552.84	35674.45
553.01	34801.43
553.18	34356.72
553.34	34487.79
553.51	35749.34
553.67	34946.54
553.84	34038.41
554.01	34270.12
554.17	34738.23
554.34	35522.31
554.51	34675.04
554.67	34775.68
554.84	35873.39
555.00	34899.73
555.17	34937.18
555.33	34380.13
555.50	35840.62
555.67	33708.40
555.83	33500.09
556.00	32552.17
556.16	33366.68
556.33	33172.41
556.50	34059.48
556.66	34017.35
556.83	34000.96
556.99	33214.54
557.16	33500.09
557.32	34106.29
557.49	34548.65
557.65	34274.80
557.82	34220.97
557.98	33741.16
558.15	33680.31
558.32	32748.78
558.48	31943.63
558.65	32055.98
558.81	30473.78
558.98	31330.41
559.14	32896.23
559.31	33476.68
559.47	32119.17
559.64	31295.30
559.80	30532.29
559.97	31810.22
560.13	32631.75
560.30	33572.64
560.46	34597.80
560.63	35173.57
560.79	35487.20
560.96	33584.35
561.12	31978.74
561.29	32093.43
561.45	31353.82
561.61	31395.95
561.78	31747.03
561.94	32664.52
562.11	32474.93
562.27	33394.76
562.44	33598.39
562.60	33713.08
562.77	33893.30
562.93	33158.37
563.10	32409.40
563.26	32584.94
563.42	32547.49
563.59	31667.45
563.75	31548.08
563.92	31660.43
564.08	32957.08
564.24	31538.72
564.41	31789.16
564.57	32896.23
564.74	32187.05
564.90	31683.83
565.07	30843.58
565.23	30103.97
565.39	30555.69
565.56	30792.09
565.72	30714.85
565.88	30225.68
566.05	30663.36
566.21	31363.18
566.38	30415.26
566.54	31243.81
566.70	31770.43
566.87	31960.02
567.03	31391.26
567.19	31791.50
567.36	31129.12
567.52	30871.67
567.68	31370.20
567.85	30522.93
568.01	28863.49
568.17	30064.18
568.34	30862.30
568.50	30794.43
568.66	31264.88
568.83	30899.75
568.99	30616.55
569.15	30859.96
569.32	31166.57
569.48	30906.77
569.64	29626.50
569.81	30017.37
569.97	29912.05
570.13	30157.80
570.30	29408.83
570.46	29212.23
570.62	28479.64
570.78	28662.20
570.95	29024.98
571.11	29809.06
571.27	30342.70
571.43	30026.73
571.60	29996.31
571.76	30106.31
571.92	30455.05
572.09	29881.62
572.25	30513.56
572.41	31599.57
572.57	32800.27
572.74	32205.77
572.90	30864.64
573.06	29818.42
573.22	29813.74
573.38	28837.74
573.55	29525.86
573.71	28765.18
573.87	29310.53
574.03	29965.88
574.20	30228.02
574.36	30471.43
574.52	31536.38
574.68	29825.45
574.84	28395.38
575.01	28135.58
575.17	28357.93
575.33	29027.32
575.49	27955.36
575.65	29165.42
575.82	29181.80
575.98	28437.51
576.14	28795.61
576.30	28208.14
576.46	28547.51
576.62	29462.66
576.79	29287.12
576.95	28968.81
577.11	28203.46
577.27	28643.48
577.43	28664.54
577.59	28606.03
577.75	28968.81
577.92	27508.32
578.08	27615.98
578.24	28458.57
578.40	27967.06
578.56	27840.67
578.72	28802.63
578.88	28814.34
579.04	28655.18
579.21	28966.47
579.37	28240.90
579.53	29509.47
579.69	29818.42
579.85	28720.71
580.01	27960.04
580.17	27938.97
580.33	28479.64
580.49	28498.36
580.65	27536.40
580.82	27978.76
580.98	28247.93
581.14	28584.96
581.30	27861.74
581.46	27807.90
581.62	28053.66
581.78	28311.12
581.94	28334.53
582.10	28676.24
582.26	28821.36
582.42	28650.50
582.58	28980.51
582.74	28898.59
582.90	28741.78
583.06	29401.81
583.22	28189.41
583.38	28945.41
583.54	28386.02
583.70	28826.04
583.86	28245.58
584.02	28135.58
584.18	29106.90
584.34	29287.12
584.50	28634.11
584.66	27777.48
584.82	28198.77
584.98	28142.60
585.14	27440.44
585.30	27213.41
585.46	26782.75
585.62	26637.64
585.78	26972.33
585.94	27536.40
586.10	26284.22
586.26	26717.22
586.42	27269.58
