SpectraSuite Data File
++++++++++++++++++++++++++++++++++++
Date: Mon Oct 07 14:53:58 GMT-05:00 2013
User: price-jones
Dark Spectrum Present: No
Reference Spectrum Present: No
Number of Sampled Component Spectra: 1
Spectrometers: USB2+H05261
Integration Time (usec): 100000 (USB2+H05261)
Spectra Averaged: 1 (USB2+H05261)
Boxcar Smoothing: 0 (USB2+H05261)
Correct for Electrical Dark: No (USB2+H05261)
Strobe/Lamp Enabled: No (USB2+H05261)
Correct for Detector Non-linearity: No (USB2+H05261)
Correct for Stray Light: No (USB2+H05261)
Number of Pixels in Processed Spectrum: 2048
>>>>>Begin Processed Spectral Data<<<<<
365.73	0.00
365.92	0.00
366.12	0.00
366.32	0.00
366.52	0.00
366.72	0.00
366.91	0.00
367.11	0.00
367.31	0.00
367.51	0.00
367.70	0.00
367.90	0.00
368.10	0.00
368.30	0.00
368.49	0.00
368.69	0.00
368.89	0.00
369.09	0.00
369.28	0.00
369.48	0.00
369.68	0.00
369.87	0.00
370.07	0.00
370.27	0.00
370.47	676.41
370.66	3386.76
370.86	3948.48
371.06	4224.67
371.25	4414.25
371.45	3911.04
371.65	3384.41
371.84	3267.39
372.04	3365.69
372.24	3838.48
372.44	3850.18
372.63	3803.37
372.83	3761.24
373.03	3251.00
373.22	2944.39
373.42	3187.81
373.62	3693.37
373.81	4037.42
374.01	3920.40
374.21	3667.62
374.40	3258.03
374.60	3449.95
374.79	3889.97
374.99	4599.15
375.19	4748.95
375.38	4961.94
375.58	4594.47
375.78	4519.57
375.97	4489.15
376.17	4638.94
376.37	4636.60
376.56	4964.28
376.76	5170.24
376.95	5366.85
377.15	6005.81
377.35	6050.28
377.54	6146.25
377.74	6333.49
377.93	6445.84
378.13	6300.72
378.33	5963.68
378.52	5430.04
378.72	5406.64
378.91	5177.26
379.11	5170.24
379.31	4767.67
379.50	4755.97
379.70	5280.25
379.89	5818.57
380.09	6059.65
380.28	6298.38
380.48	6413.07
380.68	6214.12
380.87	6033.90
381.07	5563.45
381.26	5172.58
381.46	4940.87
381.65	4718.52
381.85	4578.09
382.04	4243.39
382.24	4100.62
382.43	3997.64
382.63	3843.16
382.83	3850.18
383.02	3859.54
383.22	3815.07
383.41	3805.71
383.61	4163.81
383.80	4634.26
384.00	5376.21
384.19	6087.73
384.39	6167.31
384.58	6218.80
384.78	6214.12
384.97	6244.55
385.17	5776.44
385.36	5542.39
385.56	5352.81
385.75	5369.19
385.95	5834.96
386.14	6384.98
386.34	6333.49
386.53	6134.54
386.72	5858.36
386.92	5949.64
387.11	6061.99
387.31	6452.86
387.50	6310.08
387.70	6274.98
387.89	6113.48
388.09	6263.27
388.28	6244.55
388.48	6253.91
388.67	6663.51
388.86	7365.67
389.06	7861.86
389.25	8250.39
389.45	8344.01
389.64	8294.86
389.84	8320.60
390.03	8058.46
390.22	8126.34
390.42	8416.57
390.61	8753.60
390.81	9427.68
391.00	9633.64
391.19	9441.72
391.39	9329.38
391.58	8786.37
391.78	8234.00
391.97	7833.77
392.16	7606.74
392.36	6843.73
392.55	5469.83
392.75	4482.13
392.94	3545.91
393.13	3506.12
393.33	4166.15
393.52	5291.95
393.71	6448.18
393.91	7492.05
394.10	7786.96
394.29	8709.13
394.49	9537.68
394.68	10010.47
394.88	10101.75
395.07	10485.60
395.26	10471.56
395.46	10129.84
395.65	9387.89
395.84	8308.90
396.04	6984.16
396.23	5717.93
396.42	4896.40
396.62	4512.55
396.81	5320.04
397.00	6864.79
397.19	8505.51
397.39	10324.10
397.58	11358.62
397.77	12032.69
397.97	12659.96
398.16	12795.71
398.35	13298.92
398.55	13305.95
398.74	14209.39
398.93	14506.64
399.12	14097.05
399.32	13621.92
399.51	13858.31
399.70	14963.04
399.90	14759.42
400.09	15037.94
400.28	14560.47
400.47	14995.81
400.67	15396.04
400.86	15672.23
401.05	15913.30
401.24	15812.66
401.44	16114.59
401.63	16100.55
401.82	16601.42
402.01	16238.64
402.21	16634.19
402.40	16475.03
402.59	16065.44
402.78	15461.58
402.97	14721.97
403.17	15510.73
403.36	16236.30
403.55	17364.43
403.74	17488.48
403.93	16376.73
404.13	15154.97
404.32	14719.63
404.51	15536.48
404.70	16746.53
404.89	16945.48
405.09	16423.54
405.28	15948.41
405.47	16070.12
405.66	16072.46
405.85	15618.39
406.05	15169.01
406.24	15445.20
406.43	16035.01
406.62	16931.44
406.81	16933.78
407.00	15875.85
407.20	16058.42
407.39	16027.99
407.58	16519.50
407.77	17551.68
407.96	17631.26
408.15	17909.78
408.34	18279.58
408.54	18850.67
408.73	18902.17
408.92	18773.44
409.11	18235.11
409.30	17486.14
409.49	16456.31
409.68	15194.76
409.87	14607.28
410.07	15676.91
410.26	17006.33
410.45	17956.59
410.64	18410.65
410.83	19110.47
411.02	19475.60
411.21	20332.23
411.40	19845.40
411.59	19899.23
411.78	19777.53
411.98	19538.79
412.17	19819.66
412.36	19428.79
412.55	19552.84
412.74	19225.16
412.93	18867.06
413.12	18710.24
413.31	20706.72
413.50	21111.63
413.69	21537.61
413.88	20671.61
414.07	19662.84
414.26	19969.45
414.45	20943.11
414.64	20978.22
414.83	20905.66
415.02	20329.89
415.22	20762.89
415.41	21315.26
415.60	21282.49
415.79	22623.62
415.98	22958.31
416.17	22794.48
416.36	22604.89
416.55	22024.44
416.74	21420.58
416.93	20563.95
417.12	20994.61
417.31	21022.69
417.50	21345.69
417.69	22235.09
417.88	22359.14
418.07	21371.43
418.26	21579.74
418.45	21647.61
418.64	22431.69
418.83	23173.64
419.02	22785.12
419.21	22981.72
419.39	21507.18
419.58	20617.78
419.77	20397.77
419.96	21549.31
420.15	22712.56
420.34	23667.50
420.53	24060.71
420.72	24985.22
420.91	24875.21
421.10	24046.66
421.29	23955.38
421.48	23304.71
421.67	24287.74
421.86	23648.77
422.05	22097.00
422.24	19831.36
422.43	19300.06
422.61	21497.82
422.80	23489.62
422.99	23466.21
423.18	22607.23
423.37	22003.38
423.56	22153.17
423.75	22663.41
423.94	23014.49
424.13	21451.01
424.32	21755.28
424.50	21954.22
424.69	21729.53
424.88	22298.28
425.07	22008.06
425.26	22038.48
425.45	21661.66
425.64	21259.09
425.83	20945.45
426.01	22522.98
426.20	22876.40
426.39	22946.61
426.58	21071.84
426.77	19136.22
426.96	18967.70
427.15	19721.35
427.33	21249.72
427.52	22139.13
427.71	21855.92
427.90	21848.90
428.09	21563.36
428.28	21429.94
428.46	20505.43
428.65	20177.76
428.84	20463.30
429.03	21151.42
429.22	19836.04
429.40	18923.23
429.59	17018.04
429.78	15119.86
429.97	14883.47
430.16	15339.87
430.34	15426.47
430.53	15183.06
430.72	15693.29
430.91	17376.14
431.10	20065.41
431.28	23648.77
431.47	26005.69
431.66	26321.66
431.85	24077.09
432.03	21996.35
432.22	20973.54
432.41	21923.80
432.60	24184.76
432.79	25205.23
432.97	25649.93
433.16	25259.06
433.35	23122.15
433.54	20727.78
433.72	19599.65
433.91	20123.93
434.10	22387.22
434.28	24100.50
434.47	25280.13
434.66	24638.82
434.85	24350.93
435.03	24041.98
435.22	24657.54
435.41	26157.83
435.59	26050.16
435.78	26593.17
435.97	27505.98
436.16	27885.14
436.34	27087.02
436.53	26171.87
436.72	26389.54
436.90	25139.69
437.09	25458.01
437.28	24503.07
437.46	25298.85
437.65	25064.80
437.84	23751.76
438.02	21713.15
438.21	21769.32
438.40	22398.93
438.58	24505.41
438.77	25308.21
438.96	25844.20
439.14	26609.55
439.33	27159.58
439.52	27803.22
439.70	27300.01
439.89	26319.32
440.08	25568.01
440.26	25778.66
440.45	26780.41
440.63	28173.03
440.82	29530.54
441.01	29448.62
441.19	29041.37
441.38	29362.02
441.57	30504.20
441.75	31370.20
441.94	31091.68
442.12	30944.22
442.31	31342.11
442.50	31482.55
442.68	30574.42
442.87	30494.84
443.05	29965.88
443.24	30899.75
443.43	31412.33
443.61	31955.33
443.80	32451.53
443.98	30562.72
444.17	30548.67
444.35	31952.99
444.54	32800.27
444.73	32381.31
444.91	31077.63
445.10	30050.14
445.28	28587.30
445.47	28322.82
445.65	28238.56
445.84	28788.59
446.02	30047.80
446.21	30305.26
446.39	30632.93
446.58	31077.63
446.77	31564.46
446.95	31945.97
447.14	32781.54
447.32	33312.84
447.51	32290.03
447.69	31278.92
447.88	30874.01
448.06	31269.56
448.25	31777.45
448.43	32137.90
448.62	31550.42
448.80	31433.39
448.99	31524.68
449.17	31644.04
449.36	31875.76
449.54	33125.60
449.73	33710.74
449.91	33914.36
450.10	34941.86
450.28	35192.30
450.46	35260.17
450.65	34789.72
450.83	35101.01
451.02	33872.23
451.20	34010.32
451.39	33656.90
451.57	33621.80
451.76	33731.80
451.94	33605.41
452.13	33277.74
452.31	31494.25
452.49	29949.50
452.68	30272.49
452.86	30415.26
453.05	30817.83
453.23	31569.15
453.42	32156.62
453.60	33198.16
453.78	33425.19
453.97	33036.66
454.15	32769.84
454.34	32158.96
454.52	31941.29
454.70	31555.10
454.89	32652.81
455.07	31845.33
455.26	32858.78
455.44	33933.09
455.62	34387.15
455.81	34855.26
455.99	34260.76
456.17	34239.70
456.36	34033.73
456.54	35227.40
456.73	35306.98
456.91	35990.42
457.09	35934.24
457.28	36598.96
457.46	35037.82
457.64	34906.75
457.83	33750.52
458.01	32945.38
458.19	33954.15
458.38	33865.21
458.56	35381.88
458.74	35061.22
458.93	34494.82
459.11	34511.20
459.29	33961.17
459.48	34218.63
459.66	33759.89
459.84	34600.14
460.03	35021.44
460.21	35026.12
460.39	35541.03
460.57	35906.16
460.76	36360.22
460.94	36107.44
461.12	36077.02
461.31	36128.51
461.49	36243.20
461.67	35924.88
461.85	37010.89
462.04	36933.65
462.22	37329.20
462.40	36701.94
462.59	36715.98
462.77	36809.61
462.95	36854.08
463.13	36100.42
463.32	35887.43
463.50	35637.00
463.68	35938.93
463.86	35948.29
464.05	35283.58
464.23	34686.74
464.41	34349.70
464.59	33841.81
464.78	35512.95
464.96	35412.31
465.14	34838.87
465.32	35637.00
465.50	36767.48
465.69	37057.70
465.87	36306.39
466.05	35564.44
466.23	33818.40
466.41	32968.79
466.60	34260.76
466.78	33937.77
466.96	35026.12
467.14	35351.45
467.32	35283.58
467.51	35409.96
467.69	34345.02
467.87	34443.32
468.05	35328.05
468.23	35145.48
468.41	35201.66
468.60	35613.59
468.78	35714.23
468.96	35009.73
469.14	35833.60
469.32	36100.42
469.50	34586.10
469.69	34836.53
469.87	34326.30
470.05	34490.13
470.23	34295.87
470.41	34237.36
470.59	34733.55
470.77	34862.28
470.95	35611.25
471.14	36449.16
471.32	36051.27
471.50	38007.96
471.68	38124.99
471.86	38426.92
472.04	38796.72
472.22	38644.59
472.40	36823.65
472.58	36463.21
472.77	36147.23
472.95	36877.48
473.13	37598.37
473.31	37106.85
473.49	37258.99
473.67	37392.40
473.85	37919.02
474.03	38831.83
474.21	39154.82
474.39	39295.25
474.57	39576.12
474.75	39470.79
474.93	39131.42
475.12	38309.89
475.30	38445.64
475.48	38667.99
475.66	39070.56
475.84	38768.63
476.02	38492.45
476.20	37762.20
476.38	38464.36
476.56	39639.31
476.74	40374.24
476.92	40622.34
477.10	40877.46
477.28	41825.37
477.46	41984.53
477.64	42522.85
477.82	42438.59
478.00	42506.47
478.18	41921.34
478.36	41661.54
478.54	41830.05
478.72	41879.21
478.90	43269.48
479.08	44240.81
479.26	44404.64
479.44	44563.80
479.62	44313.36
479.80	44577.84
479.98	44758.06
480.16	44907.86
480.34	44411.67
480.52	44643.38
480.70	44769.77
480.88	45284.68
481.06	46368.35
481.24	45893.22
481.41	46894.97
481.59	47667.35
481.77	47386.49
481.95	47206.26
482.13	46621.13
482.31	46731.14
482.49	47199.24
482.67	46815.40
482.85	47175.84
483.03	47744.59
483.21	48100.35
483.39	48381.21
483.57	47711.82
483.74	47232.01
483.92	47709.48
484.10	47629.90
484.28	48245.46
484.46	48643.35
484.64	49572.55
484.82	48360.15
485.00	48144.82
485.18	47332.65
485.35	46188.13
485.53	42958.19
485.71	39337.38
485.89	38630.54
486.07	40950.01
486.25	43934.20
486.43	46579.00
486.61	47337.33
486.78	47026.04
486.96	47311.59
487.14	48882.09
487.32	49858.09
487.50	50457.27
487.68	51372.42
487.85	52250.12
488.03	51728.18
488.21	51620.52
488.39	50595.36
488.57	50010.23
488.75	49799.58
488.92	50988.57
489.10	53041.22
489.28	54052.33
489.46	54850.45
489.64	54557.89
489.81	54876.20
489.99	54227.87
490.17	54480.65
490.35	54845.77
490.53	54387.03
490.70	54176.38
490.88	53778.49
491.06	54787.26
491.24	54958.12
491.41	53649.76
491.59	52442.04
491.77	51625.20
491.95	52772.06
492.13	53396.98
492.30	54820.03
492.48	55608.79
492.66	55952.85
492.84	56100.30
493.01	55800.71
493.19	55246.00
493.37	55145.36
493.54	54665.55
493.72	55547.93
493.90	56545.00
494.08	56870.34
494.25	57396.96
494.43	57638.03
494.61	57663.78
494.79	57935.28
494.96	57560.79
495.14	57179.29
495.32	56360.10
495.49	55590.06
495.67	56757.99
495.85	57848.68
496.02	58164.65
496.20	58035.92
496.38	57666.12
496.55	57574.84
496.73	58028.90
496.91	57949.32
497.09	58667.87
497.26	58941.71
497.44	58384.66
497.62	57855.70
497.79	57027.15
497.97	55980.93
498.14	55987.95
498.32	57284.61
498.50	57932.94
498.67	58602.33
498.85	58190.40
499.03	58384.66
499.20	58684.25
499.38	58693.61
499.56	58644.46
499.73	58068.69
499.91	57752.72
500.08	57268.23
500.26	56652.67
500.44	57291.63
500.61	57991.45
500.79	57530.37
500.97	57123.11
501.14	57118.43
501.32	56970.98
501.49	56891.40
501.67	57003.75
501.84	57462.49
502.02	58045.29
502.20	58260.62
502.37	58157.63
502.55	58164.65
502.72	58925.33
502.90	59180.45
503.07	59004.91
503.25	58782.55
503.43	57818.25
503.60	57268.23
503.78	56449.04
503.95	56877.36
504.13	58340.19
504.30	59189.81
504.48	58857.45
504.65	58590.63
504.83	58494.67
505.01	59208.53
505.18	59517.48
505.36	60097.94
505.53	60032.40
505.71	60158.79
505.88	60577.75
506.06	59847.50
506.23	59458.97
506.41	59079.80
506.58	59552.59
506.76	59238.96
506.93	59138.32
507.11	58913.62
507.28	59316.20
507.46	58845.75
507.63	58164.65
507.81	57836.98
507.98	58085.07
508.16	59011.93
508.33	59309.18
508.50	59524.50
508.68	59922.40
508.85	60444.33
509.03	60444.33
509.20	60322.63
509.38	59632.17
509.55	58801.28
509.73	58948.73
509.90	59458.97
510.08	59721.11
510.25	59458.97
510.42	59269.39
510.60	59353.65
510.77	59648.55
510.95	60306.24
511.12	60182.19
511.30	60331.99
511.47	60739.24
511.64	60727.54
511.82	60500.51
511.99	59571.32
512.17	59327.90
512.34	58855.11
512.51	58848.09
512.69	59238.96
512.86	59320.88
513.04	59489.40
513.21	59667.28
513.38	59487.06
513.56	58752.13
513.73	58473.60
513.90	58445.52
514.08	58525.10
514.25	58791.92
514.43	58983.84
514.60	59143.00
514.77	59234.28
514.95	59487.06
515.12	59285.77
515.29	59606.42
515.47	59955.16
515.64	60205.60
515.81	59894.31
515.99	59152.36
516.16	57902.51
516.33	55819.44
516.51	54295.75
516.68	53572.52
516.85	53066.97
517.03	53186.33
517.20	56128.39
517.37	58401.05
517.54	59295.13
517.72	58625.74
517.89	56734.59
518.06	54389.37
518.24	54501.71
518.41	56732.25
518.58	57869.75
518.75	58349.56
518.93	58176.36
519.10	58035.92
519.27	58497.01
519.45	58962.78
519.62	59367.69
519.79	59821.75
519.96	59580.68
520.14	59150.02
520.31	58532.12
520.48	58513.39
520.65	59070.44
520.83	59770.26
521.00	59994.95
521.17	59753.88
521.34	59262.36
521.52	59529.19
521.69	60081.55
521.86	60505.19
522.03	60294.54
522.20	59037.67
522.38	57881.45
522.55	58218.49
522.72	58698.30
522.89	58848.09
523.07	58869.15
523.24	59274.07
523.41	60254.75
523.58	60411.57
523.75	60729.88
523.92	60460.72
524.10	60617.53
524.27	60743.92
524.44	60289.86
524.61	60308.58
524.78	60004.31
524.96	59838.14
525.13	60172.83
525.30	60020.70
525.47	60608.17
525.64	60406.89
525.81	59884.95
525.98	58408.07
526.16	57090.35
526.33	56484.15
526.50	56250.09
526.67	55894.33
526.84	56456.06
527.01	57322.06
527.18	58246.57
527.36	58864.47
527.53	59908.35
527.70	60111.98
527.87	59554.93
528.04	58988.52
528.21	59681.32
528.38	60156.45
528.55	60718.18
528.72	60889.04
528.89	60975.64
529.07	60814.14
529.24	60243.05
529.41	59597.06
529.58	59049.38
529.75	59100.87
529.92	59721.11
530.09	59990.27
530.26	60488.80
530.43	60596.47
530.60	60629.24
530.77	60849.25
530.94	60893.72
531.11	60645.62
531.28	60374.12
531.46	59889.63
531.63	60137.72
531.80	60114.32
531.97	59632.17
532.14	58904.26
532.31	58017.20
532.48	57336.10
532.65	57387.60
532.82	58323.81
532.99	59370.03
533.16	59571.32
533.33	60090.91
533.50	59863.88
533.67	59250.66
533.84	58763.83
534.01	59049.38
534.18	59236.62
534.35	59435.56
534.52	59386.41
534.69	59456.63
534.86	59814.73
535.03	60076.87
535.20	60360.08
535.37	60886.70
535.54	60800.10
535.71	60643.28
535.88	60315.61
536.05	59480.03
536.22	59391.09
536.38	59047.04
536.55	58541.48
536.72	58028.90
536.89	58033.58
537.06	58649.14
537.23	59639.19
537.40	59985.59
537.57	59866.22
537.74	59580.68
537.91	59627.49
538.08	59552.59
538.25	59320.88
538.42	59657.91
538.59	59627.49
538.75	59044.69
538.92	58585.95
539.09	58578.93
539.26	58361.26
539.43	58206.78
539.60	58466.58
539.77	58321.47
539.94	58372.96
540.11	57614.63
540.28	57120.77
540.44	57298.65
540.61	57228.44
540.78	57757.40
540.95	58024.22
541.12	58319.13
541.29	58958.09
541.46	58946.39
541.62	59035.33
541.79	58756.81
541.96	58583.61
542.13	58279.34
542.30	58401.05
542.47	58581.27
542.63	58429.13
542.80	58279.34
542.97	58234.87
543.14	58330.83
543.31	58162.31
543.48	58745.11
543.64	59510.46
543.81	59908.35
543.98	59756.22
544.15	59082.14
544.32	58244.23
544.48	58274.66
544.65	58775.53
544.82	59440.24
544.99	58937.03
545.16	58473.60
545.32	58298.06
545.49	59283.43
545.66	59484.72
545.83	59124.27
546.00	58702.98
546.16	58494.67
546.33	58447.86
546.50	58440.84
546.67	59079.80
546.83	58363.60
547.00	58632.76
547.17	57729.31
547.34	57279.93
547.50	57406.32
547.67	57848.68
547.84	57703.57
548.00	58204.44
548.17	58522.76
548.34	58468.92
548.51	58410.41
548.67	58265.30
548.84	58520.41
549.01	58475.94
549.18	58178.70
549.34	58527.44
549.51	58632.76
549.68	58412.75
549.84	58129.54
550.01	58064.01
550.18	57844.00
550.34	58085.07
550.51	58206.78
550.68	58124.86
550.84	57460.15
551.01	57553.77
551.18	57605.26
551.34	57909.53
551.51	58152.95
551.68	58433.81
551.84	58333.17
552.01	58262.96
552.18	58356.58
552.34	57516.32
552.51	57219.08
552.68	56924.17
552.84	57364.19
553.01	57645.05
553.18	57652.08
553.34	57591.22
553.51	57846.34
553.67	57984.43
553.84	58038.26
554.01	57902.51
554.17	57869.75
554.34	57841.66
554.51	58145.93
554.67	58363.60
554.84	58141.25
555.00	57719.95
555.17	57532.71
555.33	57729.31
555.50	57570.16
555.67	57645.05
555.83	57120.77
556.00	57202.69
556.16	56919.49
556.33	56825.87
556.50	56577.77
556.66	56722.88
556.83	56261.80
556.99	56573.09
557.16	56530.96
557.32	56919.49
557.49	57235.46
557.65	57069.28
557.82	57066.94
557.98	57073.96
558.15	56423.29
558.32	55458.99
558.48	54866.84
558.65	54824.71
558.81	55037.70
558.98	55531.55
559.14	55725.81
559.31	55845.18
559.47	56140.09
559.64	55552.62
559.80	55238.98
559.97	55634.53
560.13	55688.37
560.30	56935.87
560.46	57144.18
560.63	57305.68
560.79	57499.94
560.96	56781.40
561.12	55901.36
561.29	54990.89
561.45	55030.68
561.61	55688.37
561.78	55805.39
561.94	56030.08
562.11	55980.93
562.27	55550.27
562.44	56060.51
562.60	56135.41
562.77	56413.93
562.93	56320.31
563.10	56278.18
563.26	55648.58
563.42	55718.79
563.59	55751.56
563.75	55442.61
563.92	55533.89
564.08	55594.74
564.24	55891.99
564.41	55924.76
564.57	55721.13
564.74	55590.06
564.90	55515.17
565.07	55295.16
565.23	54969.82
565.39	54218.51
565.56	53925.94
565.72	53715.29
565.88	53991.48
566.05	54298.09
566.21	54796.62
566.38	54880.88
566.54	55154.72
566.70	55299.84
566.87	55489.42
567.03	55290.48
567.19	55597.09
567.36	55267.07
567.52	55433.25
567.68	55079.83
567.85	54206.81
568.01	53944.67
568.17	53815.94
568.34	53687.21
568.50	53762.11
568.66	53736.36
568.83	54181.06
568.99	54071.06
569.15	54461.93
569.32	54330.86
569.48	54134.25
569.64	53703.59
569.81	53436.77
569.97	53464.86
570.13	53544.44
570.30	52886.74
570.46	52594.18
570.62	51962.23
570.78	51531.57
570.95	52046.49
571.11	52863.34
571.27	52921.85
571.43	53078.67
571.60	53221.44
571.76	53783.17
571.92	54138.93
572.09	54028.93
572.25	54169.36
572.41	53832.32
572.57	53815.94
572.74	53825.30
572.90	53308.04
573.06	53488.26
573.22	53523.37
573.38	53612.31
573.55	53478.90
573.71	53399.32
573.87	53434.43
574.03	53385.28
574.20	53200.38
574.36	53209.74
574.52	52978.03
574.68	52687.80
574.84	52451.41
575.01	51796.06
575.17	51901.38
575.33	52156.50
575.49	52346.08
575.65	52369.49
575.82	52577.79
575.98	51969.26
576.14	52549.71
576.30	52662.05
576.46	52853.98
576.62	52657.37
576.79	52666.73
576.95	52163.52
577.11	52121.39
577.27	52289.91
577.43	52397.57
577.59	51688.39
577.75	51480.08
577.92	50967.51
578.08	50447.91
578.24	50672.60
578.40	51166.45
578.56	51110.28
578.72	51206.24
578.88	51466.04
579.04	51484.76
579.21	51208.58
579.37	51943.51
579.53	51782.01
579.69	51742.22
579.85	51945.85
580.01	51924.78
580.17	51648.60
580.33	51489.45
580.49	51459.02
580.65	51468.38
580.82	51821.80
580.98	51772.65
581.14	51625.20
581.30	51688.39
581.46	51618.17
581.62	51723.50
581.78	51648.60
581.94	51908.40
582.10	51615.83
582.26	51887.34
582.42	52006.70
582.58	52032.45
582.74	51641.58
582.90	51980.96
583.06	52062.88
583.22	51833.50
583.38	51779.67
583.54	51639.24
583.70	51444.98
583.86	51407.53
584.02	51323.27
584.18	51440.29
584.34	51337.31
584.50	51360.72
584.66	51058.79
584.82	50377.69
584.98	50974.53
585.14	50520.46
