SpectraSuite Data File
++++++++++++++++++++++++++++++++++++
Date: Mon Oct 07 14:54:56 GMT-05:00 2013
User: price-jones
Dark Spectrum Present: No
Reference Spectrum Present: No
Number of Sampled Component Spectra: 1
Spectrometers: USB2+H05261
Integration Time (usec): 10000 (USB2+H05261)
Spectra Averaged: 1 (USB2+H05261)
Boxcar Smoothing: 0 (USB2+H05261)
Correct for Electrical Dark: No (USB2+H05261)
Strobe/Lamp Enabled: No (USB2+H05261)
Correct for Detector Non-linearity: No (USB2+H05261)
Correct for Stray Light: No (USB2+H05261)
Number of Pixels in Processed Spectrum: 2048
>>>>>Begin Processed Spectral Data<<<<<
365.73	0.00
365.92	0.00
366.12	0.00
366.32	0.00
366.52	0.00
366.72	0.00
366.91	0.00
367.11	0.00
367.31	0.00
367.51	0.00
367.70	0.00
367.90	0.00
368.10	0.00
368.30	0.00
368.49	0.00
368.69	0.00
368.89	0.00
369.09	0.00
369.28	0.00
369.48	0.00
369.68	0.00
369.87	0.00
370.07	0.00
370.27	0.00
370.47	0.00
370.66	163.84
370.86	299.59
371.06	388.53
371.25	325.33
371.45	252.78
371.65	177.88
371.84	205.97
372.04	250.44
372.24	365.12
372.44	320.65
372.63	315.97
372.83	220.01
373.03	201.29
373.22	175.54
373.42	208.31
373.62	241.08
373.81	351.08
374.01	320.65
374.21	212.99
374.40	243.42
374.60	252.78
374.79	313.63
374.99	409.59
375.19	355.76
375.38	418.96
375.58	372.15
375.78	334.70
375.97	360.44
376.17	440.02
376.37	458.74
376.56	407.25
376.76	482.15
376.95	470.45
377.15	582.79
377.35	617.90
377.54	554.71
377.74	594.50
377.93	554.71
378.13	601.52
378.33	592.16
378.52	479.81
378.72	414.27
378.91	402.57
379.11	486.83
379.31	353.42
379.50	379.17
379.70	430.66
379.89	475.13
380.09	564.07
380.28	519.60
380.48	603.86
380.68	500.87
380.87	561.73
381.07	489.17
381.26	409.59
381.46	369.80
381.65	341.72
381.85	362.78
382.04	304.27
382.24	339.38
382.43	215.33
382.63	308.95
382.83	355.76
383.02	191.92
383.22	182.56
383.41	290.23
383.61	292.57
383.80	266.82
384.00	449.38
384.19	465.77
384.39	540.66
384.58	482.15
384.78	521.94
384.97	486.83
385.17	435.34
385.36	447.04
385.56	468.11
385.75	442.36
385.95	535.98
386.14	496.19
386.34	528.96
386.53	559.39
386.72	465.77
386.92	578.11
387.11	519.60
387.31	456.40
387.50	608.54
387.70	606.20
387.89	533.64
388.09	559.39
388.28	435.34
388.48	592.16
388.67	573.43
388.86	615.56
389.06	725.57
389.25	709.18
389.45	849.61
389.64	718.54
389.84	734.93
390.03	781.74
390.22	760.67
390.42	798.12
390.61	868.34
390.81	908.13
391.00	931.53
391.19	814.51
391.39	814.51
391.58	791.10
391.78	770.04
391.97	608.54
392.16	657.69
392.36	622.58
392.55	437.68
392.75	395.55
392.94	203.63
393.13	196.60
393.33	287.89
393.52	458.74
393.71	531.30
393.91	617.90
394.10	847.27
394.29	763.01
394.49	889.40
394.68	938.55
394.88	950.26
395.07	877.70
395.26	1015.79
395.46	1053.24
395.65	866.00
395.84	758.33
396.04	671.73
396.23	372.15
396.42	330.02
396.62	358.10
396.81	402.57
397.00	585.13
397.19	753.65
397.39	1008.77
397.58	1006.43
397.77	1081.33
397.97	1163.25
398.16	1097.71
398.35	1245.16
398.55	1411.34
398.74	1467.52
398.93	1406.66
399.12	1441.77
399.32	1317.72
399.51	1397.30
399.70	1593.90
399.90	1469.86
400.09	1364.53
400.28	1390.28
400.47	1455.81
400.67	1488.58
400.86	1582.20
401.05	1561.14
401.24	1526.03
401.44	1572.84
401.63	1605.61
401.82	1547.09
402.01	1619.65
402.21	1593.90
402.40	1575.18
402.59	1537.73
402.78	1533.05
402.97	1441.77
403.17	1575.18
403.36	1612.63
403.55	1633.69
403.74	1729.66
403.93	1549.43
404.13	1516.67
404.32	1399.64
404.51	1526.03
404.70	1689.87
404.89	1717.95
405.09	1603.27
405.28	1448.79
405.47	1650.08
405.66	1607.95
405.85	1537.73
406.05	1565.82
406.24	1488.58
406.43	1488.58
406.62	1605.61
406.81	1558.80
407.00	1626.67
407.20	1570.50
407.39	1490.92
407.58	1572.84
407.77	1729.66
407.96	1778.81
408.15	1743.70
408.34	1842.00
408.54	1977.75
408.73	1930.94
408.92	1741.36
409.11	1638.38
409.30	1605.61
409.49	1748.38
409.68	1345.81
409.87	1411.34
410.07	1509.65
410.26	1619.65
410.45	1741.36
410.64	1832.64
410.83	1870.09
411.02	1827.96
411.21	1975.41
411.40	1959.03
411.59	1940.30
411.78	1881.79
411.98	1863.07
412.17	1893.49
412.36	1954.35
412.55	1849.02
412.74	1762.42
412.93	1774.13
413.12	1909.88
413.31	2040.95
413.50	2045.63
413.69	2045.63
413.88	1968.39
414.07	1987.11
414.26	2033.93
414.45	2059.67
414.64	1968.39
414.83	2134.57
415.02	2094.78
415.22	2036.27
415.41	1996.48
415.60	2129.89
415.79	2183.72
415.98	2209.47
416.17	2209.47
416.36	2230.53
416.55	2211.81
416.74	2174.36
416.93	2019.88
417.12	1959.03
417.31	2045.63
417.50	2029.24
417.69	2153.29
417.88	2188.40
418.07	2033.93
418.26	2069.03
418.45	2146.27
418.64	2186.06
418.83	2221.17
419.02	2242.23
419.21	2139.25
419.39	2232.87
419.58	1944.99
419.77	2054.99
419.96	2211.81
420.15	2162.66
420.34	2303.09
420.53	2363.94
420.72	2392.03
420.91	2354.58
421.10	2338.20
421.29	2310.11
421.48	2078.40
421.67	2335.85
421.86	2225.85
422.05	2099.46
422.24	2010.52
422.43	1888.81
422.61	2122.87
422.80	2326.49
422.99	2218.83
423.18	2253.94
423.37	2197.76
423.56	2143.93
423.75	2232.87
423.94	2293.72
424.13	2099.46
424.32	2043.29
424.50	2090.10
424.69	2108.82
424.88	1994.14
425.07	1977.75
425.26	2031.58
425.45	2040.95
425.64	1966.05
425.83	1970.73
426.01	2097.12
426.20	2104.14
426.39	2129.89
426.58	1963.71
426.77	1846.68
426.96	1696.89
427.15	1937.96
427.33	2062.01
427.52	1998.82
427.71	2214.15
427.90	2090.10
428.09	2097.12
428.28	2069.03
428.46	1902.86
428.65	1905.20
428.84	1863.07
429.03	1952.01
429.22	1907.54
429.40	1820.94
429.59	1570.50
429.78	1334.11
429.97	1317.72
430.16	1376.24
430.34	1331.76
430.53	1376.24
430.72	1366.87
430.91	1600.93
431.10	1849.02
431.28	2342.88
431.47	2399.05
431.66	2544.16
431.85	2354.58
432.03	2073.71
432.22	1916.90
432.41	2017.54
432.60	2223.51
432.79	2359.26
432.97	2422.45
433.16	2401.39
433.35	2080.74
433.54	1774.13
433.72	1832.64
433.91	1891.15
434.10	2101.80
434.28	2195.42
434.47	2443.52
434.66	2382.67
434.85	2244.57
435.03	2291.38
435.22	2289.04
435.41	2490.33
435.59	2492.67
435.78	2530.12
435.97	2661.19
436.16	2576.93
436.34	2583.95
436.53	2352.24
436.72	2438.84
436.90	2296.07
437.09	2291.38
437.28	2317.13
437.46	2335.85
437.65	2434.16
437.84	2242.23
438.02	1991.80
438.21	1980.09
438.40	2113.50
438.58	2228.19
438.77	2373.30
438.96	2370.96
439.14	2511.39
439.33	2548.84
439.52	2635.44
439.70	2511.39
439.89	2473.95
440.08	2483.31
440.26	2359.26
440.45	2448.20
440.63	2651.83
440.82	2836.73
441.01	2738.43
441.19	2766.51
441.38	2679.91
441.57	2780.56
441.75	2916.31
441.94	3023.97
442.12	2846.09
442.31	3014.61
442.50	2897.58
442.68	2888.22
442.87	2874.18
443.05	2771.19
443.24	2965.46
443.43	2801.62
443.61	3014.61
443.80	3063.76
443.98	2930.35
444.17	2981.84
444.35	2960.78
444.54	3084.83
444.73	3047.38
444.91	2951.42
445.10	2745.45
445.28	2684.59
445.47	2555.86
445.65	2562.89
445.84	2708.00
446.02	2869.50
446.21	2822.69
446.39	3033.33
446.58	2885.88
446.77	2890.56
446.95	2967.80
447.14	3143.34
447.32	3176.11
447.51	3126.96
447.69	2899.92
447.88	2820.35
448.06	2951.42
448.25	2942.05
448.43	2972.48
448.62	2970.14
448.80	2911.63
448.99	3033.33
449.17	2995.89
449.36	3063.76
449.54	3047.38
449.73	3274.41
449.91	3272.07
450.10	3300.16
450.28	3201.85
450.46	3311.86
450.65	3304.84
450.83	3253.34
451.02	3290.79
451.20	3038.02
451.39	3110.57
451.57	3030.99
451.76	3122.27
451.94	3082.49
452.13	3101.21
452.31	3019.29
452.49	2796.94
452.68	2808.64
452.86	2862.48
453.05	2813.32
453.23	3007.59
453.42	3007.59
453.60	3056.74
453.78	3068.44
453.97	3077.80
454.15	3117.59
454.34	2930.35
454.52	2993.55
454.70	2979.50
454.89	2965.46
455.07	3014.61
455.26	2913.97
455.44	3155.04
455.62	3150.36
455.81	3283.77
455.99	3260.37
456.17	3389.10
456.36	3220.58
456.54	3304.84
456.73	3304.84
456.91	3351.65
457.09	3391.44
457.28	3466.33
457.46	3227.60
457.64	3241.64
457.83	3014.61
458.01	3049.72
458.19	3155.04
458.38	3145.68
458.56	3274.41
458.74	3293.13
458.93	3206.53
459.11	3206.53
459.29	3155.04
459.48	3164.40
459.66	3215.90
459.84	3187.81
460.03	3234.62
460.21	3258.03
460.39	3297.81
460.57	3218.24
460.76	3265.05
460.94	3283.77
461.12	3344.63
461.31	3318.88
461.49	3368.03
461.67	3246.32
461.85	3363.35
462.04	3368.03
462.22	3466.33
462.40	3421.86
462.59	3372.71
462.77	3384.41
462.95	3419.52
463.13	3253.34
463.32	3311.86
463.50	3321.22
463.68	3346.97
463.86	3201.85
464.05	3148.02
464.23	3211.22
464.41	3222.92
464.59	3096.53
464.78	3246.32
464.96	3258.03
465.14	3197.17
465.32	3239.30
465.50	3459.31
465.69	3566.98
465.87	3365.69
466.05	3136.32
466.23	3084.83
466.41	3173.77
466.60	3096.53
466.78	3068.44
466.96	3169.09
467.14	3173.77
467.32	3199.51
467.51	3192.49
467.69	3049.72
467.87	3248.66
468.05	3080.14
468.23	3213.56
468.41	3276.75
468.60	3335.26
468.78	3328.24
468.96	3192.49
469.14	3262.71
469.32	3328.24
469.50	3243.98
469.69	3215.90
469.87	3206.53
470.05	3105.89
470.23	3141.00
470.41	3286.11
470.59	3166.74
470.77	3208.87
470.95	3389.10
471.14	3337.60
471.32	3323.56
471.50	3494.42
471.68	3471.01
471.86	3431.23
472.04	3698.05
472.22	3569.32
472.40	3386.76
472.58	3243.98
472.77	3162.06
472.95	3351.65
473.13	3449.95
473.31	3442.93
473.49	3510.80
473.67	3646.55
473.85	3459.31
474.03	3510.80
474.21	3585.70
474.39	3662.94
474.57	3662.94
474.75	3620.81
474.93	3592.72
475.12	3550.59
475.30	3606.77
475.48	3527.19
475.66	3616.13
475.84	3581.02
476.02	3515.48
476.20	3503.78
476.38	3499.10
476.56	3658.26
476.74	3761.24
476.92	3609.11
477.10	3777.62
477.28	3845.50
477.46	3756.56
477.64	3953.16
477.82	3915.72
478.00	3936.78
478.18	3749.54
478.36	4011.68
478.54	3889.97
478.72	3840.82
478.90	4028.06
479.08	4189.56
479.26	4184.88
479.44	4131.05
479.62	4140.41
479.80	4124.02
479.98	4093.60
480.16	4184.88
480.34	3941.46
480.52	4238.71
480.70	4095.94
480.88	4140.41
481.06	4269.14
481.24	4414.25
481.41	4407.23
481.59	4360.42
481.77	4458.72
481.95	4294.88
482.13	4262.12
482.31	4301.90
482.49	4449.36
482.67	4259.78
482.85	4369.78
483.03	4447.02
483.21	4528.94
483.39	4531.28
483.57	4486.81
483.74	4449.36
483.92	4397.87
484.10	4559.36
484.28	4629.58
484.46	4524.26
484.64	4711.50
484.82	4657.67
485.00	4491.49
485.18	4468.08
485.35	4285.52
485.53	3852.52
485.71	3660.60
485.89	3522.51
486.07	3646.55
486.25	4032.74
486.43	4273.82
486.61	4432.97
486.78	4418.93
486.96	4360.42
487.14	4760.65
487.32	4669.37
487.50	4723.20
487.68	4917.47
487.85	5085.98
488.03	5083.64
488.21	4997.04
488.39	4936.19
488.57	4826.18
488.75	4723.20
488.92	4915.12
489.10	5282.59
489.28	5528.35
489.46	5589.20
489.64	5329.40
489.81	5610.26
489.99	5418.34
490.17	5542.39
490.35	5495.58
490.53	5511.96
490.70	5336.42
490.88	5268.55
491.06	5458.13
491.24	5416.00
491.41	5287.27
491.59	5039.17
491.77	5027.47
491.95	5149.18
492.13	5184.29
492.30	5455.79
492.48	5596.22
492.66	5830.27
492.84	5685.16
493.01	5675.80
493.19	5584.52
493.37	5500.26
493.54	5465.15
493.72	5621.97
493.90	5776.44
494.08	5940.28
494.25	5989.43
494.43	6083.05
494.61	6171.99
494.79	6132.20
494.96	6019.86
495.14	6029.22
495.32	5638.35
495.49	5652.39
495.67	5806.87
495.85	6207.10
496.02	6218.80
496.20	6265.61
496.38	6038.58
496.55	6073.69
496.73	6015.18
496.91	6333.49
497.09	6455.20
497.26	6300.72
497.44	6296.04
497.62	6143.91
497.79	6052.63
497.97	5668.78
498.14	5863.04
498.32	5858.36
498.50	6108.80
498.67	6368.60
498.85	6326.47
499.03	6237.53
499.20	6157.95
499.38	6466.90
499.56	6452.86
499.73	6188.38
499.91	5968.37
500.08	6132.20
500.26	5905.17
500.44	5863.04
500.61	5987.09
500.79	6122.84
500.97	5811.55
501.14	5865.38
501.32	5858.36
501.49	5891.13
501.67	5825.59
501.84	6094.76
502.02	6169.65
502.20	6176.67
502.37	6010.50
502.55	6164.97
502.72	6560.52
502.90	6408.39
503.07	6291.36
503.25	6298.38
503.43	6080.71
503.60	5731.97
503.78	5710.91
503.95	5916.87
504.13	6200.08
504.30	6317.11
504.48	6471.58
504.65	6324.13
504.83	6443.49
505.01	6588.61
505.18	6506.69
505.36	6532.44
505.53	6520.73
505.71	6626.06
505.88	6904.58
506.06	6509.03
506.23	6406.05
506.41	6403.71
506.58	6373.28
506.76	6382.64
506.93	6300.72
507.11	6345.19
507.28	6532.44
507.46	6251.57
507.63	6111.14
507.81	6078.37
507.98	6171.99
508.16	6359.24
508.33	6389.66
508.50	6532.44
508.68	6768.83
508.85	6773.51
509.03	6822.66
509.20	6633.08
509.38	6572.22
509.55	6399.02
509.73	6443.49
509.90	6380.30
510.08	6464.56
510.25	6520.73
510.42	6499.67
510.60	6464.56
510.77	6389.66
510.95	6581.59
511.12	6583.93
511.30	6619.04
511.47	6822.66
511.64	6705.63
511.82	6726.70
511.99	6602.65
512.17	6480.94
512.34	6434.13
512.51	6265.61
512.69	6588.61
512.86	6593.29
513.04	6593.29
513.21	6602.65
513.38	6410.73
513.56	6319.45
513.73	6078.37
513.90	6321.79
514.08	6253.91
514.25	6314.77
514.43	6331.15
514.60	6420.09
514.77	6394.34
514.95	6492.65
515.12	6253.91
515.29	6396.68
515.47	6427.11
515.64	6576.91
515.81	6614.35
515.99	6406.05
516.16	6202.42
516.33	5495.58
516.51	5317.70
516.68	5153.86
516.85	5085.98
517.03	5064.92
517.20	5757.72
517.37	6092.41
517.54	6373.28
517.72	6370.94
517.89	5790.49
518.06	4990.02
518.24	5390.25
518.41	5830.27
518.58	6162.63
518.75	6024.54
518.93	6164.97
519.10	6284.34
519.27	6321.79
519.45	6167.31
519.62	6202.42
519.79	6553.50
519.96	6422.43
520.14	6331.15
520.31	6176.67
520.48	6022.20
520.65	6169.65
520.83	6499.67
521.00	6583.93
521.17	6478.60
521.34	6342.85
521.52	6415.41
521.69	6693.93
521.86	6544.14
522.03	6600.31
522.20	6249.23
522.38	6047.94
522.55	5879.43
522.72	6005.81
522.89	6164.97
523.07	6167.31
523.24	6338.17
523.41	6579.25
523.58	6623.72
523.75	6715.00
523.92	6693.93
524.10	6705.63
524.27	6787.55
524.44	6544.14
524.61	6703.29
524.78	6417.75
524.96	6394.34
525.13	6377.96
525.30	6689.25
525.47	6813.30
525.64	6775.85
525.81	6502.01
525.98	6017.52
526.16	5720.27
526.33	5643.03
526.50	5633.67
526.67	5488.56
526.84	5556.43
527.01	5982.41
527.18	6181.35
527.36	6483.28
527.53	6459.88
527.70	6628.40
527.87	6392.00
528.04	6225.82
528.21	6258.59
528.38	6480.94
528.55	6722.02
528.72	6829.68
528.89	6764.15
529.07	6876.49
529.24	6551.16
529.41	6525.41
529.58	6190.72
529.75	6406.05
529.92	6429.45
530.09	6560.52
530.26	6487.96
530.43	6651.80
530.60	6686.91
530.77	6869.47
530.94	6974.80
531.11	6829.68
531.28	6651.80
531.46	6626.06
531.63	6417.75
531.80	6583.93
531.97	6478.60
532.14	6267.95
532.31	5968.37
532.48	5928.58
532.65	5895.81
532.82	6167.31
532.99	6312.42
533.16	6408.39
533.33	6483.28
533.50	6719.68
533.67	6368.60
533.84	6279.66
534.01	6338.17
534.18	6497.33
534.35	6384.98
534.52	6445.84
534.69	6485.62
534.86	6513.71
535.03	6600.31
535.20	6661.16
535.37	6672.87
535.54	6754.79
535.71	6644.78
535.88	6649.46
536.05	6403.71
536.22	6277.32
536.38	6328.81
536.55	6129.86
536.72	5966.03
536.89	5916.87
537.06	6174.33
537.23	6389.66
537.40	6366.26
537.57	6415.41
537.74	6321.79
537.91	6380.30
538.08	6436.47
538.25	6338.17
538.42	6352.21
538.59	6258.59
538.75	6314.77
538.92	6291.36
539.09	6050.28
539.26	6001.13
539.43	6036.24
539.60	5994.11
539.77	6200.08
539.94	5928.58
540.11	5877.09
540.28	5841.98
540.44	5748.36
540.61	5636.01
540.78	5893.47
540.95	6057.31
541.12	5977.73
541.29	6022.20
541.46	6125.18
541.62	6284.34
541.79	6349.87
541.96	6052.63
542.13	5926.24
542.30	6216.46
542.47	6146.25
542.63	6169.65
542.80	6115.82
542.97	6132.20
543.14	6015.18
543.31	5975.39
543.48	5935.60
543.64	6429.45
543.81	6509.03
543.98	6443.49
544.15	6155.61
544.32	6045.60
544.48	6085.39
544.65	6008.16
544.82	6307.74
544.99	6183.70
545.16	6120.50
545.32	6139.23
545.49	6242.21
545.66	6396.68
545.83	6277.32
546.00	6225.82
546.16	6186.04
546.33	6200.08
546.50	6066.67
546.67	6108.80
546.83	6012.84
547.00	6125.18
547.17	5923.90
547.34	5865.38
547.50	5680.48
547.67	5874.74
547.84	5902.83
548.00	5937.94
548.17	6057.31
548.34	6008.16
548.51	6139.23
548.67	5996.45
548.84	6169.65
549.01	6061.99
549.18	6118.16
549.34	6200.08
549.51	5923.90
549.68	5891.13
549.84	5975.39
550.01	5909.85
550.18	5851.34
550.34	5909.85
550.51	5933.26
550.68	5996.45
550.84	5813.89
551.01	5748.36
551.18	5863.04
551.34	6085.39
551.51	6033.90
551.68	5954.32
551.84	5944.96
552.01	5951.98
552.18	6003.47
552.34	5832.62
552.51	5851.34
552.68	5617.29
552.84	5823.25
553.01	5804.53
553.18	5816.23
553.34	5895.81
553.51	5980.07
553.67	5949.64
553.84	5788.14
554.01	5877.09
554.17	5909.85
554.34	5877.09
554.51	5879.43
554.67	5947.30
554.84	5987.09
555.00	5933.26
555.17	5783.46
555.33	5841.98
555.50	5884.11
555.67	5942.62
555.83	5879.43
556.00	5757.72
556.16	5558.77
556.33	5839.64
556.50	5441.75
556.66	5568.13
556.83	5631.33
556.99	5584.52
557.16	5699.20
557.32	5621.97
557.49	5558.77
557.65	5561.11
557.82	5610.26
557.98	5713.25
558.15	5563.45
558.32	5408.98
558.48	5245.14
558.65	5121.09
558.81	5444.09
558.98	5469.83
559.14	5301.31
559.31	5390.25
559.47	5423.02
559.64	5397.28
559.80	5195.99
559.97	5160.88
560.13	5521.32
560.30	5584.52
560.46	5647.71
560.63	5675.80
560.79	5643.03
560.96	5551.75
561.12	5401.96
561.29	5305.99
561.45	5137.48
561.61	5462.81
561.78	5317.70
561.94	5399.62
562.11	5259.18
562.27	5273.23
562.44	5411.32
562.60	5406.64
562.77	5724.95
562.93	5572.82
563.10	5401.96
563.26	5308.34
563.42	5352.81
563.59	5322.38
563.75	5481.53
563.92	5273.23
564.08	5317.70
564.24	5493.24
564.41	5313.02
564.57	5448.77
564.74	5277.91
564.90	5224.08
565.07	5411.32
565.23	5303.65
565.39	5093.01
565.56	4891.72
565.72	5083.64
565.88	5142.16
566.05	5156.20
566.21	5036.83
566.38	5160.88
566.54	5165.56
566.70	5165.56
566.87	5125.77
567.03	5226.42
567.19	5273.23
567.36	5313.02
567.52	5341.10
567.68	5170.24
567.85	5284.93
568.01	4975.98
568.17	4873.00
568.34	4917.47
568.50	4734.90
568.66	5116.41
568.83	5135.14
568.99	4961.94
569.15	5022.79
569.32	5219.39
569.48	5102.37
569.64	4910.44
569.81	4964.28
569.97	4905.76
570.13	4997.04
570.30	4671.71
570.46	4887.04
570.62	4758.31
570.78	4723.20
570.95	4798.10
571.11	4894.06
571.27	4807.46
571.43	4992.36
571.60	5076.62
571.76	4926.83
571.92	4919.81
572.09	4891.72
572.25	4961.94
572.41	4873.00
572.57	5128.11
572.74	5088.32
572.90	5071.94
573.06	5039.17
573.22	5004.07
573.38	4898.74
573.55	4905.76
573.71	5004.07
573.87	4929.17
574.03	4997.04
574.20	4896.40
574.36	4779.37
574.52	4910.44
574.68	4870.65
574.84	4767.67
575.01	4685.75
575.17	4638.94
575.33	4683.41
575.49	4767.67
575.65	4741.93
575.82	4662.35
575.98	4662.35
576.14	4720.86
576.30	4655.33
576.46	4627.24
576.62	4903.42
576.79	4755.97
576.95	4793.42
577.11	4603.83
577.27	4809.80
577.43	4744.27
577.59	4678.73
577.75	4655.33
577.92	4507.87
578.08	4468.08
578.24	4503.19
578.40	4517.23
578.56	4575.75
578.72	4552.34
578.88	4620.22
579.04	4535.96
579.21	4755.97
579.37	4695.11
579.53	4681.07
579.69	4648.30
579.85	4629.58
580.01	4800.44
580.17	4650.64
580.33	4662.35
580.49	4606.17
580.65	4760.65
580.82	4561.70
580.98	4671.71
581.14	4725.54
581.30	4571.07
581.46	4568.73
581.62	4816.82
581.78	4533.62
581.94	4676.39
582.10	4643.62
582.26	4599.15
582.42	4638.94
582.58	4849.59
582.74	4762.99
582.90	4568.73
583.06	4627.24
583.22	4645.96
583.38	4634.26
583.54	4475.10
583.70	4662.35
583.86	4624.90
584.02	4510.21
584.18	4594.47
584.34	4594.47
584.50	4486.81
584.66	4519.57
584.82	4437.66
584.98	4596.81
585.14	4269.14
585.30	4322.97
585.46	4198.92
585.62	4212.96
585.78	4278.50
585.94	4418.93
586.10	4517.23
586.26	4386.16
586.42	4348.72
586.58	4475.10
586.74	4372.12
586.90	4468.08
587.06	4290.20
587.22	4383.82
587.38	4367.44
587.54	4404.89
587.70	4437.66
587.86	4250.41
588.02	4161.47
588.18	4091.26
588.34	4042.11
588.49	3801.03
588.65	3641.87
588.81	3590.38
588.97	3777.62
589.13	3623.15
589.29	3641.87
589.45	3843.16
589.61	3831.46
589.77	3985.93
589.93	4016.36
590.08	4208.28
590.24	4224.67
590.40	4159.13
590.56	4161.47
590.72	4128.70
590.88	4042.11
591.04	4077.21
591.20	3950.82
591.35	4079.55
591.51	4065.51
591.67	4086.58
591.83	3988.27
591.99	4180.20
592.15	4035.08
592.31	4053.81
592.46	4152.11
592.62	3960.19
592.78	3927.42
592.94	4016.36
593.10	4177.86
593.26	4126.36
593.41	4194.24
593.57	3927.42
593.73	4086.58
593.89	3990.61
594.05	4011.68
594.20	3852.52
594.36	3911.04
594.52	3871.25
594.68	3859.54
594.84	3925.08
594.99	3906.35
595.15	3971.89
595.31	4138.07
595.47	3927.42
595.62	4095.94
595.78	4070.19
595.94	4049.13
596.10	3990.61
596.25	3899.33
596.41	3974.23
596.57	3969.55
596.73	3995.29
596.88	3936.78
597.04	3901.67
597.20	3826.78
597.36	3871.25
597.51	4070.19
597.67	3768.26
597.83	3950.82
597.99	3822.09
