SpectraSuite Data File
++++++++++++++++++++++++++++++++++++
Date: Mon Oct 07 14:54:59 GMT-05:00 2013
User: price-jones
Dark Spectrum Present: No
Reference Spectrum Present: No
Number of Sampled Component Spectra: 1
Spectrometers: USB2+H05261
Integration Time (usec): 10000 (USB2+H05261)
Spectra Averaged: 1 (USB2+H05261)
Boxcar Smoothing: 0 (USB2+H05261)
Correct for Electrical Dark: No (USB2+H05261)
Strobe/Lamp Enabled: No (USB2+H05261)
Correct for Detector Non-linearity: No (USB2+H05261)
Correct for Stray Light: No (USB2+H05261)
Number of Pixels in Processed Spectrum: 2048
>>>>>Begin Processed Spectral Data<<<<<
365.73	0.00
365.92	0.00
366.12	0.00
366.32	0.00
366.52	0.00
366.72	0.00
366.91	0.00
367.11	0.00
367.31	0.00
367.51	0.00
367.70	0.00
367.90	0.00
368.10	0.00
368.30	0.00
368.49	0.00
368.69	0.00
368.89	0.00
369.09	0.00
369.28	0.00
369.48	0.00
369.68	0.00
369.87	0.00
370.07	0.00
370.27	0.00
370.47	0.00
370.66	875.36
370.86	997.07
371.06	1130.48
371.25	1128.14
371.45	933.87
371.65	828.55
371.84	898.77
372.04	966.64
372.24	980.68
372.44	1090.69
372.63	1095.37
372.83	917.49
373.03	784.08
373.22	760.67
373.42	821.53
373.62	1123.46
373.81	1102.39
374.01	957.28
374.21	964.30
374.40	830.89
374.60	1057.92
374.79	1130.48
374.99	1329.42
375.19	1275.59
375.38	1350.49
375.58	1240.48
375.78	1219.42
375.97	1263.89
376.17	1273.25
376.37	1329.42
376.56	1366.87
376.76	1476.88
376.95	1556.46
377.15	1675.82
377.35	1724.97
377.54	1825.62
377.74	1781.15
377.93	1809.23
378.13	1727.32
378.33	1612.63
378.52	1507.30
378.72	1451.13
378.91	1418.36
379.11	1315.38
379.31	1376.24
379.50	1378.58
379.70	1549.43
379.89	1582.20
380.09	1783.49
380.28	1717.95
380.48	1795.19
380.68	1659.44
380.87	1626.67
381.07	1533.05
381.26	1423.05
381.46	1385.60
381.65	1299.00
381.85	1242.82
382.04	1102.39
382.24	1107.07
382.43	1036.86
382.63	947.92
382.83	973.66
383.02	990.05
383.22	1001.75
383.41	1046.22
383.61	999.41
383.80	1294.32
384.00	1455.81
384.19	1668.80
384.39	1741.36
384.58	1748.38
384.78	1652.42
384.97	1696.89
385.17	1554.12
385.36	1437.09
385.56	1474.54
385.75	1610.29
385.95	1722.63
386.14	1778.81
386.34	1778.81
386.53	1535.39
386.72	1584.54
386.92	1774.13
387.11	1778.81
387.31	1755.40
387.50	1664.12
387.70	1612.63
387.89	1724.97
388.09	1741.36
388.28	1783.49
388.48	1778.81
388.67	1905.20
388.86	2062.01
389.06	2200.10
389.25	2459.90
389.45	2349.90
389.64	2349.90
389.84	2249.25
390.03	2326.49
390.22	2291.38
390.42	2462.24
390.61	2691.62
390.81	2843.75
391.00	2881.20
391.19	2609.70
391.39	2551.18
391.58	2399.05
391.78	2314.79
391.97	2150.95
392.16	1989.46
392.36	1741.36
392.55	1273.25
392.75	983.02
392.94	866.00
393.13	978.34
393.33	1125.80
393.52	1561.14
393.71	1739.02
393.91	2111.16
394.10	2352.24
394.29	2597.99
394.49	2607.36
394.68	2864.82
394.88	2897.58
395.07	2909.29
395.26	2736.09
395.46	2869.50
395.65	2448.20
395.84	2235.21
396.04	1743.70
396.23	1401.98
396.42	1238.14
396.62	1345.81
396.81	1568.16
397.00	2073.71
397.19	2583.95
397.39	3087.17
397.58	3309.52
397.77	3419.52
397.97	3707.41
398.16	3716.77
398.35	3885.29
398.55	3847.84
398.74	4147.43
398.93	4224.67
399.12	4084.23
399.32	3908.69
399.51	4194.24
399.70	4236.37
399.90	4173.18
400.09	4201.26
400.28	4271.48
400.47	4337.01
400.67	4535.96
400.86	4575.75
401.05	4512.55
401.24	4718.52
401.44	4589.79
401.63	4767.67
401.82	4580.43
402.01	4613.20
402.21	4699.80
402.40	4739.58
402.59	4489.15
402.78	4131.05
402.97	4362.76
403.17	4458.72
403.36	4674.05
403.55	4777.03
403.74	4774.69
403.93	4610.86
404.13	4386.16
404.32	4514.89
404.51	4669.37
404.70	4821.50
404.89	4727.88
405.09	4627.24
405.28	4606.17
405.47	4681.07
405.66	4512.55
405.85	4402.55
406.05	4407.23
406.24	4477.44
406.43	4559.36
406.62	4770.01
406.81	4798.10
407.00	4648.30
407.20	4463.40
407.39	4418.93
407.58	4894.06
407.77	4903.42
407.96	4898.74
408.15	5081.30
408.34	5259.18
408.54	5341.10
408.73	5348.12
408.92	5231.10
409.11	5027.47
409.30	4884.70
409.49	4578.09
409.68	4203.60
409.87	4374.46
410.07	4650.64
410.26	4877.68
410.45	5018.11
410.64	5240.46
410.83	5600.90
411.02	5762.40
411.21	5755.38
411.40	5612.60
411.59	5832.62
411.78	5696.86
411.98	5628.99
412.17	5694.52
412.36	5612.60
412.55	5626.65
412.74	5233.44
412.93	5334.08
413.12	5472.17
413.31	5914.53
413.50	5961.34
413.69	5870.06
413.88	5696.86
414.07	5551.75
414.26	5790.49
414.45	5867.72
414.64	6001.13
414.83	5916.87
415.02	5825.59
415.22	5870.06
415.41	6036.24
415.60	6260.93
415.79	6399.02
415.98	6642.44
416.17	6530.09
416.36	6312.42
416.55	6434.13
416.74	5914.53
416.93	5827.93
417.12	5797.51
417.31	6179.01
417.50	6164.97
417.69	6263.27
417.88	6239.87
418.07	6214.12
418.26	5996.45
418.45	6204.76
418.64	6555.84
418.83	6794.58
419.02	6399.02
419.21	6338.17
419.39	6019.86
419.58	5841.98
419.77	5659.42
419.96	6225.82
420.15	6633.08
420.34	6754.79
420.53	6743.08
420.72	6897.56
420.91	6750.10
421.10	6888.20
421.29	6757.13
421.48	6754.79
421.67	6820.32
421.86	6377.96
422.05	5886.45
422.24	5598.56
422.43	5703.89
422.61	6312.42
422.80	6291.36
422.99	6363.92
423.18	6279.66
423.37	6370.94
423.56	6223.48
423.75	6373.28
423.94	6525.41
424.13	6216.46
424.32	6286.68
424.50	6216.46
424.69	6328.81
424.88	6136.88
425.07	6207.10
425.26	6183.70
425.45	5898.15
425.64	6001.13
425.83	6024.54
426.01	6293.70
426.20	6382.64
426.39	6267.95
426.58	5715.59
426.77	5460.47
426.96	5287.27
427.15	5558.77
427.33	6052.63
427.52	5888.79
427.71	6183.70
427.90	6024.54
428.09	5984.75
428.28	5727.29
428.46	5724.95
428.65	5650.05
428.84	5750.70
429.03	5746.02
429.22	5348.12
429.40	5181.95
429.59	4629.58
429.78	4109.98
429.97	4304.25
430.16	4175.52
430.34	4140.41
430.53	4222.33
430.72	4355.74
430.91	5046.20
431.10	5982.41
431.28	6724.36
431.47	7201.83
431.66	7108.21
431.85	6513.71
432.03	5951.98
432.22	5954.32
432.41	6445.84
432.60	7138.63
432.79	7183.10
432.97	7206.51
433.16	6796.92
433.35	6069.01
433.54	5666.44
433.72	5486.22
433.91	5631.33
434.10	6282.00
434.28	6635.42
434.47	7026.29
434.66	6715.00
434.85	6689.25
435.03	6764.15
435.22	6794.58
435.41	7316.51
435.59	7304.81
435.78	7513.12
435.97	7604.40
436.16	7569.29
436.34	7342.26
436.53	7229.91
436.72	7358.64
436.90	6979.48
437.09	7136.29
437.28	6839.05
437.46	7012.24
437.65	7007.56
437.84	6450.52
438.02	6298.38
438.21	6225.82
438.40	6333.49
438.58	6668.19
438.77	6965.43
438.96	7033.31
439.14	7566.95
439.33	7569.29
439.52	7494.40
439.70	7356.30
439.89	7255.66
440.08	7033.31
440.26	7150.34
440.45	7236.94
440.63	7749.51
440.82	8189.53
441.01	8177.83
441.19	8114.64
441.38	8271.45
441.57	8547.64
441.75	8367.42
441.94	8552.32
442.12	8325.29
442.31	8655.30
442.50	8798.07
442.68	8580.40
442.87	8299.54
443.05	8215.28
443.24	8659.98
443.43	8800.41
443.61	9022.77
443.80	8809.78
443.98	8203.58
444.17	8493.80
444.35	8915.10
444.54	8982.98
444.73	8840.20
444.91	8395.50
445.10	8145.06
445.28	7765.90
445.47	7730.79
445.65	7770.58
445.84	8065.49
446.02	8009.31
446.21	8531.25
446.39	8386.14
446.58	8475.08
446.77	8594.45
446.95	8631.90
447.14	9193.62
447.32	9158.52
447.51	8685.73
447.69	8306.56
447.88	8388.48
448.06	8554.66
448.25	8603.81
448.43	8634.24
448.62	8718.50
448.80	8730.20
448.99	8617.85
449.17	8678.71
449.36	8720.84
449.54	8821.48
449.73	9036.81
449.91	9284.91
450.10	9458.10
450.28	9692.16
450.46	9453.42
450.65	9207.67
450.83	9305.97
451.02	9210.01
451.20	9046.17
451.39	9200.65
451.57	9116.39
451.76	8990.00
451.94	8716.16
452.13	8599.13
452.31	8311.24
452.49	8166.13
452.68	8201.24
452.86	8149.75
453.05	8334.65
453.23	8599.13
453.42	8793.39
453.60	8833.18
453.78	8809.78
453.97	8805.10
454.15	8887.01
454.34	8510.19
454.52	8542.96
454.70	8451.67
454.89	8578.06
455.07	8826.16
455.26	8915.10
455.44	9238.09
455.62	9359.80
455.81	9430.02
455.99	9167.88
456.17	9074.26
456.36	9247.46
456.54	9268.52
456.73	9181.92
456.91	9231.07
457.09	9582.15
457.28	9654.71
457.46	9158.52
457.64	9320.01
457.83	9006.38
458.01	8678.71
458.19	9121.07
458.38	9252.14
458.56	9064.89
458.74	9240.44
458.93	9062.55
459.11	9238.09
459.29	9226.39
459.48	9259.16
459.66	8964.25
459.84	9011.06
460.03	9217.03
460.21	9170.22
460.39	9689.82
460.57	9734.29
460.76	9650.03
460.94	9617.26
461.12	9341.08
461.31	9523.64
461.49	9413.63
461.67	9387.89
461.85	9619.60
462.04	9706.20
462.22	9715.56
462.40	9598.54
462.59	9570.45
462.77	9542.36
462.95	9722.59
463.13	9813.87
463.32	9521.30
463.50	9221.71
463.68	9460.45
463.86	9301.29
464.05	9221.71
464.23	9039.15
464.41	9064.89
464.59	8901.06
464.78	9226.39
464.96	8802.75
465.14	9146.81
465.32	9392.57
465.50	9682.80
465.69	9617.26
465.87	9348.10
466.05	9048.51
466.23	8622.53
466.41	8575.72
466.60	8954.89
466.78	8891.70
466.96	9050.85
467.14	8950.21
467.32	9261.50
467.51	9210.01
467.69	8758.28
467.87	8631.90
468.05	8950.21
468.23	9191.28
468.41	9165.54
468.60	9041.49
468.78	9139.79
468.96	9261.50
469.14	9214.69
469.32	9345.76
469.50	8915.10
469.69	8833.18
469.87	8711.47
470.05	8840.20
470.23	8620.19
470.41	8861.27
470.59	8840.20
470.77	8826.16
470.95	9212.35
471.14	9233.41
471.32	9195.96
471.50	9778.76
471.68	9722.59
471.86	9886.42
472.04	9724.93
472.22	10258.57
472.40	9547.05
472.58	9233.41
472.77	9165.54
472.95	9240.44
473.13	9481.51
473.31	9430.02
473.49	9540.02
473.67	9764.72
473.85	9860.68
474.03	10083.03
474.21	9865.36
474.39	9858.34
474.57	10073.67
474.75	10169.63
474.93	9893.44
475.12	9479.17
475.30	9785.78
475.48	10101.75
475.66	10005.79
475.84	9441.72
476.02	9872.38
476.20	9596.20
476.38	9963.66
476.56	9984.73
476.74	10354.53
476.92	10029.20
477.10	10438.79
477.28	10558.16
477.46	10602.63
477.64	10726.68
477.82	10672.84
478.00	10743.06
478.18	10611.99
478.36	10399.00
478.54	10511.35
478.72	10663.48
478.90	10836.68
479.08	11089.46
479.26	11246.27
479.44	11300.11
479.62	10909.24
479.80	10906.90
479.98	11105.84
480.16	10981.79
480.34	10965.41
480.52	11316.49
480.70	11496.71
480.88	11595.01
481.06	11999.93
481.24	11611.40
481.41	11960.14
481.59	11873.54
481.77	11534.16
481.95	11662.89
482.13	11826.73
482.31	11824.39
482.49	11817.36
482.67	11878.22
482.85	11829.07
483.03	12414.20
483.21	12109.93
483.39	12093.55
483.57	12191.85
483.74	12053.76
483.92	11978.86
484.10	11960.14
484.28	12379.09
484.46	12233.98
484.64	12458.67
484.82	11964.82
485.00	11618.42
485.18	11595.01
485.35	11272.02
485.53	10054.94
485.71	9717.90
485.89	9963.66
486.07	10232.82
486.25	10977.11
486.43	11709.70
486.61	11599.70
486.78	11400.75
486.96	11595.01
487.14	12196.53
487.32	12507.82
487.50	12847.20
487.68	12978.27
487.85	13142.11
488.03	13064.87
488.21	13238.07
488.39	12685.70
488.57	12629.53
488.75	12657.62
488.92	13188.92
489.10	13872.36
489.28	14389.61
489.46	14174.28
489.64	14059.60
489.81	14359.19
489.99	14181.31
490.17	14319.40
490.35	14689.20
490.53	14387.27
490.70	14111.09
490.88	14176.62
491.06	14726.65
491.24	14272.59
491.41	13809.16
491.59	13327.01
491.77	12812.09
491.95	13584.47
492.13	13874.70
492.30	14202.37
492.48	15211.14
492.66	15475.62
492.84	15068.37
493.01	14682.18
493.19	14038.53
493.37	14485.58
493.54	14171.94
493.72	14787.50
493.90	15178.37
494.08	15410.09
494.25	15379.66
494.43	15702.65
494.61	16259.70
494.79	16037.35
494.96	15955.43
495.14	15199.44
495.32	14970.07
495.49	14916.23
495.67	15365.62
495.85	16222.25
496.02	16353.32
496.20	15861.81
496.38	15936.71
496.55	15864.15
496.73	15868.83
496.91	16329.92
497.09	16847.18
497.26	16285.45
497.44	16250.34
497.62	15955.43
497.79	15119.86
497.97	14822.61
498.14	15122.20
498.32	15393.70
498.50	15838.41
498.67	16765.26
498.85	16210.55
499.03	16414.18
499.20	16535.88
499.38	16243.32
499.56	16355.66
499.73	16100.55
499.91	15929.69
500.08	15592.65
500.26	15178.37
500.44	15358.60
500.61	15709.68
500.79	15283.70
500.97	15117.52
501.14	15105.82
501.32	15040.28
501.49	15543.50
501.67	15456.90
501.84	15449.88
502.02	15477.96
502.20	15634.78
502.37	15850.11
502.55	15967.13
502.72	16098.20
502.90	16741.85
503.07	16465.67
503.25	15878.19
503.43	15255.61
503.60	14839.00
503.78	14579.20
503.95	14988.79
504.13	15524.77
504.30	15903.94
504.48	15915.64
504.65	15819.68
504.83	15744.78
505.01	16325.24
505.18	16760.58
505.36	17369.12
505.53	16975.91
505.71	17184.21
505.88	17001.65
506.06	16673.98
506.23	16348.64
506.41	16145.02
506.58	16058.42
506.76	15948.41
506.93	16503.12
507.11	16100.55
507.28	15988.20
507.46	15648.82
507.63	15173.69
507.81	15337.53
507.98	15857.13
508.16	16077.14
508.33	15730.74
508.50	16589.72
508.68	16549.93
508.85	17008.67
509.03	16807.39
509.20	16624.83
509.38	15744.78
509.55	15360.94
509.73	15461.58
509.90	16013.95
510.08	16229.27
510.25	15892.24
510.42	15594.99
510.60	16472.69
510.77	16311.19
510.95	16528.86
511.12	16280.77
511.30	16688.02
511.47	16704.40
511.64	17043.78
511.82	16325.24
511.99	15824.36
512.17	15461.58
512.34	15948.41
512.51	15316.47
512.69	15880.53
512.86	15599.67
513.04	16006.92
513.21	15763.51
513.38	15775.21
513.56	15220.50
513.73	14993.47
513.90	15627.76
514.08	15161.99
514.25	15290.72
514.43	15744.78
514.60	16093.52
514.77	15737.76
514.95	16091.18
515.12	15810.32
515.29	15445.20
515.47	15847.77
515.64	16049.05
515.81	16482.05
515.99	15887.56
516.16	14642.39
516.33	13544.68
516.51	12800.39
516.68	12503.14
516.85	11974.18
517.03	12561.66
517.20	13657.03
517.37	15084.75
517.54	15508.39
517.72	14895.17
517.89	13444.04
518.06	12734.85
518.24	13107.00
518.41	14047.90
518.58	14544.09
518.75	14949.00
518.93	15061.35
519.10	15133.90
519.27	15211.14
519.45	15239.23
519.62	15335.19
519.79	15634.78
519.96	15583.29
520.14	15201.78
520.31	15019.22
520.48	14642.39
520.65	15126.88
520.83	15384.34
521.00	16105.23
521.17	15597.33
521.34	15386.68
521.52	15524.77
521.69	15681.59
521.86	15882.88
522.03	15604.35
522.20	14963.04
522.38	14618.99
522.55	14658.78
522.72	14801.55
522.89	14956.02
523.07	15494.35
523.24	15829.04
523.41	15648.82
523.58	16070.12
523.75	16039.69
523.92	16240.98
524.10	16315.87
524.27	15969.48
524.44	15529.45
524.61	15487.32
524.78	15545.84
524.96	15393.70
525.13	15714.36
525.30	15557.54
525.47	15613.71
525.64	15740.10
525.81	15070.71
525.98	14033.85
526.16	13420.63
526.33	13284.88
526.50	13181.90
526.67	13125.72
526.84	13411.27
527.01	14356.85
527.18	14675.16
527.36	15178.37
527.53	15365.62
527.70	15178.37
527.87	15213.48
528.04	14909.21
528.21	15005.17
528.38	15894.58
528.55	16306.51
528.72	15861.81
528.89	16060.76
529.07	15669.89
529.24	15250.93
529.41	15122.20
529.58	14773.46
529.75	14836.66
529.92	15094.11
530.09	15103.48
530.26	15281.36
530.43	15419.45
530.60	15391.36
530.77	16074.80
530.94	15442.85
531.11	15241.57
531.28	15131.56
531.46	15190.08
531.63	15192.42
531.80	15201.78
531.97	14810.91
532.14	14288.97
532.31	13778.73
532.48	13614.90
532.65	13818.52
532.82	14324.08
532.99	14913.89
533.16	15108.16
533.33	15234.55
533.50	14867.08
533.67	14366.21
533.84	14513.66
534.01	14279.61
534.18	14616.65
534.35	14635.37
534.52	14651.75
534.69	14930.28
534.86	15129.22
535.03	15367.96
535.20	15197.10
535.37	15391.36
535.54	15492.01
535.71	15215.82
535.88	15293.06
536.05	14916.23
536.22	14885.81
536.38	14492.60
536.55	13951.93
536.72	14080.66
536.89	14352.16
537.06	14244.50
537.23	14354.51
537.40	14462.17
537.57	14604.94
537.74	14345.14
537.91	14527.71
538.08	14656.43
538.25	14537.07
538.42	14546.43
538.59	14281.95
538.75	14185.99
538.92	13944.91
539.09	13628.94
539.26	13451.06
539.43	13565.74
539.60	13668.73
539.77	13437.02
539.94	13717.88
540.11	13596.17
540.28	12795.71
540.44	13064.87
540.61	13095.30
540.78	13235.73
540.95	13921.51
541.12	13652.34
541.29	14073.64
541.46	13900.44
541.62	13743.63
541.79	13650.00
541.96	13523.62
542.13	13511.91
542.30	13731.92
542.47	13738.94
542.63	13390.20
542.80	13242.75
542.97	13411.27
543.14	13357.44
543.31	13378.50
543.48	13598.51
543.64	14075.98
543.81	13862.99
543.98	13825.54
544.15	13710.86
544.32	13266.16
544.48	13764.69
544.65	13813.84
544.82	13469.78
544.99	13174.88
545.16	13596.17
545.32	13453.40
545.49	13589.15
545.66	14031.51
545.83	14230.46
546.00	13589.15
546.16	13401.91
546.33	13631.28
546.50	13535.32
546.67	13930.87
546.83	13605.53
547.00	13317.65
547.17	13163.17
547.34	13298.92
547.50	13043.81
547.67	13121.04
547.84	13256.79
548.00	13448.72
548.17	13273.18
548.34	13500.21
548.51	13151.47
548.67	13633.62
548.84	13830.23
549.01	13727.24
549.18	13516.59
549.34	13481.49
549.51	13394.89
549.68	13542.34
549.84	13535.32
550.01	13373.82
550.18	13053.17
550.34	12968.91
550.51	12723.15
550.68	12973.59
550.84	12517.18
551.01	12915.08
551.18	13011.04
551.34	12936.14
551.51	12985.29
551.68	13282.54
551.84	13004.02
552.01	13198.28
552.18	12748.90
552.34	12519.53
552.51	12437.61
552.68	12461.01
552.84	12512.50
553.01	13099.98
553.18	13006.36
553.34	12973.59
553.51	12659.96
553.67	12748.90
553.84	12781.67
554.01	12594.42
554.17	12812.09
554.34	12821.45
554.51	13055.51
554.67	13060.19
554.84	12870.61
555.00	12865.92
555.17	13046.15
555.33	12961.89
555.50	13369.14
555.67	12931.46
555.83	12835.50
556.00	12540.59
556.16	12336.96
556.33	12042.06
556.50	12252.70
556.66	11974.18
556.83	12049.08
556.99	12266.75
557.16	12198.87
557.32	12030.35
557.49	12606.13
557.65	12215.26
557.82	12470.37
557.98	12102.91
558.15	12058.44
558.32	11667.57
558.48	11445.22
558.65	11541.18
558.81	11550.54
558.98	11859.49
559.14	11740.13
559.31	11838.43
559.47	11665.23
559.64	11651.19
559.80	11386.71
559.97	11213.51
560.13	11850.13
560.30	12671.66
560.46	12739.54
560.63	12975.93
560.79	12556.97
560.96	12123.98
561.12	11758.85
561.29	11531.82
561.45	11286.06
561.61	11468.62
561.78	11669.91
561.94	11899.28
562.11	11585.65
562.27	11908.65
562.44	12009.29
562.60	11604.38
562.77	11939.07
562.93	11939.07
563.10	12126.32
563.26	11705.02
563.42	11384.37
563.59	11384.37
563.75	11562.25
563.92	11754.17
564.08	11494.37
564.24	11375.00
564.41	11250.96
564.57	11382.03
564.74	11487.35
564.90	11330.53
565.07	11304.79
565.23	11300.11
565.39	10949.03
565.56	10808.59
565.72	10813.28
565.88	11379.68
566.05	11075.42
566.21	10892.85
566.38	11094.14
566.54	10920.94
566.70	11262.66
566.87	11358.62
567.03	11456.92
567.19	11688.64
567.36	11110.52
567.52	11393.73
567.68	10939.66
567.85	11075.42
568.01	10328.78
568.17	10370.91
568.34	10368.57
568.50	10473.90
568.66	10614.33
568.83	10553.48
568.99	10555.82
569.15	10768.80
569.32	10724.33
569.48	10932.64
569.64	10729.02
569.81	10558.16
569.97	10672.84
570.13	10429.43
570.30	10335.81
570.46	10174.31
570.62	9839.61
570.78	9958.98
570.95	9909.83
571.11	10354.53
571.27	10499.64
571.43	10471.56
571.60	10480.92
571.76	10600.29
571.92	10607.31
572.09	10455.17
572.25	10097.07
572.41	10808.59
572.57	10424.75
572.74	10375.59
572.90	10342.83
573.06	10607.31
573.22	10370.91
573.38	10656.46
573.55	10651.78
573.71	10431.77
573.87	10469.22
574.03	10527.73
574.20	10380.28
574.36	10038.56
574.52	10356.87
574.68	10296.02
574.84	9771.74
575.01	9738.97
575.17	9701.52
575.33	9710.88
575.49	9722.59
575.65	9816.21
575.82	9792.80
575.98	9937.91
576.14	9966.00
576.30	10162.61
576.46	9748.33
576.62	9764.72
576.79	10171.97
576.95	9926.21
577.11	9872.38
577.27	9963.66
577.43	9851.31
577.59	9823.23
577.75	9823.23
577.92	9973.02
578.08	9572.79
578.24	9284.91
578.40	9565.77
578.56	9366.82
578.72	9074.26
578.88	9430.02
579.04	9535.34
579.21	9584.49
579.37	9603.22
579.53	9701.52
579.69	9528.32
579.85	9348.10
580.01	9200.65
580.17	9195.96
580.33	9497.89
580.49	9558.75
580.65	9462.79
580.82	9497.89
580.98	9359.80
581.14	9263.84
581.30	9638.33
581.46	9750.67
581.62	9628.96
581.78	9935.57
581.94	10136.86
582.10	9703.86
582.26	9682.80
582.42	9586.83
582.58	9870.04
582.74	9982.38
582.90	9600.88
583.06	9947.28
583.22	9820.89
583.38	9399.59
583.54	9612.58
583.70	9558.75
583.86	9530.66
584.02	9884.08
584.18	9572.79
584.34	9741.31
584.50	9996.43
584.66	9685.14
584.82	9465.13
584.98	9200.65
585.14	9200.65
585.30	9032.13
585.46	8985.32
585.62	8875.31
585.78	9217.03
585.94	8819.14
586.10	9242.78
586.26	9291.93
586.42	9331.72
586.58	9118.73
586.74	9057.87
586.90	8875.31
587.06	9090.64
587.22	8648.28
587.38	8669.34
587.54	8894.04
587.70	8638.92
587.86	8786.37
588.02	8767.65
588.18	8264.43
588.34	8128.68
588.49	7962.50
588.65	7489.71
588.81	7468.65
588.97	7452.27
589.13	7597.38
589.29	7602.06
589.45	7705.04
589.61	7953.14
589.77	8212.94
589.93	8133.36
590.08	8571.04
590.24	8470.40
590.40	8521.89
590.56	8407.20
590.72	8322.94
