SpectraSuite Data File
++++++++++++++++++++++++++++++++++++
Date: Mon Oct 07 14:54:58 GMT-05:00 2013
User: price-jones
Dark Spectrum Present: No
Reference Spectrum Present: No
Number of Sampled Component Spectra: 1
Spectrometers: USB2+H05261
Integration Time (usec): 10000 (USB2+H05261)
Spectra Averaged: 1 (USB2+H05261)
Boxcar Smoothing: 0 (USB2+H05261)
Correct for Electrical Dark: No (USB2+H05261)
Strobe/Lamp Enabled: No (USB2+H05261)
Correct for Detector Non-linearity: No (USB2+H05261)
Correct for Stray Light: No (USB2+H05261)
Number of Pixels in Processed Spectrum: 2048
>>>>>Begin Processed Spectral Data<<<<<
365.73	0.00
365.92	0.00
366.12	0.00
366.32	0.00
366.52	0.00
366.72	0.00
366.91	0.00
367.11	0.00
367.31	0.00
367.51	0.00
367.70	0.00
367.90	0.00
368.10	0.00
368.30	0.00
368.49	0.00
368.69	0.00
368.89	0.00
369.09	0.00
369.28	0.00
369.48	0.00
369.68	0.00
369.87	0.00
370.07	0.00
370.27	0.00
370.47	210.65
370.66	1453.47
370.86	1746.04
371.06	1746.04
371.25	1827.96
371.45	1556.46
371.65	1488.58
371.84	1411.34
372.04	1455.81
372.24	1710.93
372.44	1748.38
372.63	1591.56
372.83	1509.65
373.03	1322.40
373.22	1284.95
373.42	1334.11
373.62	1547.09
373.81	1675.82
374.01	1614.97
374.21	1460.49
374.40	1441.77
374.60	1371.55
374.79	1666.46
374.99	2001.16
375.19	2263.30
375.38	2085.42
375.58	2031.58
375.78	1916.90
375.97	1914.56
376.17	2026.90
376.37	2087.76
376.56	2214.15
376.76	2296.07
376.95	2373.30
377.15	2581.61
377.35	2761.83
377.54	2731.41
377.74	2909.29
377.93	2780.56
378.13	2672.89
378.33	2537.14
378.52	2321.81
378.72	2211.81
378.91	2310.11
379.11	2139.25
379.31	2150.95
379.50	2211.81
379.70	2246.91
379.89	2530.12
380.09	2693.96
380.28	2895.24
380.48	2888.22
380.68	2796.94
380.87	2583.95
381.07	2305.43
381.26	2167.34
381.46	1959.03
381.65	2012.86
381.85	1842.00
382.04	1767.10
382.24	1722.63
382.43	1614.97
382.63	1603.27
382.83	1558.80
383.02	1579.86
383.22	1703.91
383.41	1661.78
383.61	1856.04
383.80	2083.08
384.00	2466.92
384.19	2640.12
384.39	2703.32
384.58	2745.45
384.78	2715.02
384.97	2574.59
385.17	2420.11
385.36	2375.64
385.56	2263.30
385.75	2394.37
385.95	2588.63
386.14	2773.53
386.34	2754.81
386.53	2708.00
386.72	2485.65
386.92	2677.57
387.11	2689.28
387.31	2853.11
387.50	2738.43
387.70	2740.77
387.89	2635.44
388.09	2759.49
388.28	2691.62
388.48	2850.77
388.67	2942.05
388.86	3405.48
389.06	3522.51
389.25	3836.14
389.45	3639.53
389.64	3684.00
389.84	3702.73
390.03	3440.59
390.22	3698.05
390.42	3892.31
390.61	4109.98
390.81	4198.92
391.00	4269.14
391.19	4194.24
391.39	4135.73
391.58	3674.64
391.78	3543.57
391.97	3625.49
392.16	3094.19
392.36	2724.38
392.55	2260.96
392.75	1774.13
392.94	1320.06
393.13	1568.16
393.33	1949.67
393.52	2293.72
393.71	2984.18
393.91	3344.63
394.10	3735.50
394.29	4035.08
394.49	4198.92
394.68	4727.88
394.88	4587.45
395.07	4725.54
395.26	4730.22
395.46	4409.57
395.65	4044.45
395.84	3412.50
396.04	2963.12
396.23	2382.67
396.42	2010.52
396.62	1987.11
396.81	2551.18
397.00	3225.26
397.19	4180.20
397.39	4697.46
397.58	5310.68
397.77	5479.19
397.97	5738.99
398.16	5685.16
398.35	6031.56
398.55	6148.59
398.74	6155.61
398.93	6450.52
399.12	6312.42
399.32	6225.82
399.51	6483.28
399.70	6745.42
399.90	6420.09
400.09	6555.84
400.28	6654.14
400.47	6693.93
400.67	7070.76
400.86	7265.02
401.05	7178.42
401.24	7276.73
401.44	7375.03
401.63	7218.21
401.82	7140.97
402.01	7428.86
402.21	7573.97
402.40	7513.12
402.59	7145.66
402.78	6712.66
402.97	6703.29
403.17	7171.40
403.36	7473.33
403.55	7578.65
403.74	7585.68
403.93	7173.74
404.13	6902.24
404.32	6773.51
404.51	7164.38
404.70	7548.23
404.89	7564.61
405.09	7541.21
405.28	7070.76
405.47	7157.36
405.66	7363.33
405.85	6918.62
406.05	6902.24
406.24	7068.42
406.43	7368.01
406.62	7524.82
406.81	7447.58
407.00	7178.42
407.20	7082.46
407.39	7140.97
407.58	7784.62
407.77	7915.69
407.96	7941.44
408.15	8348.69
408.34	8081.87
408.54	8627.21
408.73	8599.13
408.92	8313.58
409.11	7899.31
409.30	7606.74
409.49	7178.42
409.68	6794.58
409.87	6995.86
410.07	7236.94
410.26	7740.15
410.45	8098.25
410.64	8327.63
410.83	8498.49
411.02	8987.66
411.21	9142.13
411.40	9013.40
411.59	8889.35
411.78	9100.00
411.98	8894.04
412.17	9071.92
412.36	8823.82
412.55	8699.77
412.74	8538.27
412.93	8423.59
413.12	8802.75
413.31	9373.85
413.50	9523.64
413.69	9458.10
413.88	9034.47
414.07	8915.10
414.26	9165.54
414.45	9451.08
414.64	9495.55
414.83	9376.19
415.02	9181.92
415.22	9497.89
415.41	9607.90
415.60	9921.53
415.79	10279.63
415.98	10253.89
416.17	10361.55
416.36	9940.26
416.55	9802.16
416.74	9432.36
416.93	9259.16
417.12	9312.99
417.31	9687.48
417.50	9561.09
417.69	9898.13
417.88	10111.11
418.07	9724.93
418.26	9675.77
418.45	10031.54
418.64	10340.49
418.83	10485.60
419.02	10354.53
419.21	10029.20
419.39	9502.58
419.58	9280.22
419.77	9549.39
419.96	10155.58
420.15	10509.01
420.34	10761.78
420.53	11321.17
420.72	11382.03
420.91	10834.34
421.10	10757.10
421.29	10766.46
421.48	10546.45
421.67	10974.77
421.86	10335.81
422.05	9446.40
422.24	8929.14
422.43	9029.79
422.61	9973.02
422.80	10623.69
422.99	10235.16
423.18	9923.87
423.37	10061.96
423.56	10164.95
423.75	10424.75
423.94	10490.28
424.13	9834.93
424.32	9813.87
424.50	9865.36
424.69	9984.73
424.88	10059.62
425.07	9762.37
425.26	9753.01
425.45	9664.07
425.64	9689.82
425.83	9858.34
426.01	10689.23
426.20	10272.61
426.39	10019.83
426.58	9217.03
426.77	8957.23
426.96	8751.26
427.15	8938.51
427.33	9743.65
427.52	9872.38
427.71	10033.88
427.90	9617.26
428.09	9696.84
428.28	9390.23
428.46	9284.91
428.65	9181.92
428.84	9401.93
429.03	9467.47
429.22	8814.46
429.40	8219.96
429.59	7550.57
429.78	6829.68
429.97	6801.60
430.16	6785.21
430.34	6860.11
430.53	6810.96
430.72	7262.68
430.91	8156.77
431.10	9769.40
431.28	11000.52
431.47	11482.67
431.66	11580.97
431.85	10546.45
432.03	9633.64
432.22	9797.48
432.41	10263.25
432.60	11152.65
432.79	11463.94
432.97	11719.06
433.16	11190.10
433.35	10111.11
433.54	9184.26
433.72	9151.49
433.91	9507.26
434.10	10616.67
434.28	11044.99
434.47	11700.34
434.66	10862.43
434.85	11075.42
435.03	11272.02
435.22	11412.45
435.41	11868.86
435.59	11740.13
435.78	12217.60
435.97	12299.52
436.16	12266.75
436.34	12278.45
436.53	12020.99
436.72	11948.43
436.90	11190.10
437.09	11131.59
437.28	11002.86
437.46	11510.75
437.65	11232.23
437.84	10253.89
438.02	10040.90
438.21	10111.11
438.40	10487.94
438.58	11143.29
438.77	11384.37
438.96	11758.85
439.14	12287.81
439.33	12163.76
439.52	12510.16
439.70	12114.61
439.89	11833.75
440.08	11520.12
440.26	11735.45
440.45	12269.09
440.63	13172.54
440.82	13902.78
441.01	12950.18
441.19	13200.62
441.38	13788.10
441.57	13797.46
441.75	14050.24
441.94	14195.35
442.12	13811.50
442.31	14373.23
442.50	14286.63
442.68	14291.31
442.87	14061.94
443.05	13884.06
443.24	14078.32
443.43	14075.98
443.61	14450.47
443.80	14874.10
443.98	14036.19
444.17	14249.18
444.35	14897.51
444.54	15007.52
444.73	14850.70
444.91	13827.88
445.10	13277.86
445.28	12947.84
445.47	12823.80
445.65	12975.93
445.84	13406.59
446.02	13743.63
446.21	13870.01
446.39	13996.40
446.58	14017.47
446.77	14600.26
446.95	14738.35
447.14	15087.09
447.32	15253.27
447.51	14853.04
447.69	14015.13
447.88	13783.41
448.06	14300.67
448.25	14682.18
448.43	14506.64
448.62	14331.10
448.80	14073.64
448.99	14239.82
449.17	14508.98
449.36	14670.48
449.54	14878.79
449.73	15267.31
449.91	15358.60
450.10	15901.60
450.28	16030.33
450.46	15529.45
450.65	15529.45
450.83	15653.50
451.02	15557.54
451.20	15246.25
451.39	15105.82
451.57	15110.50
451.76	15192.42
451.94	14661.12
452.13	14656.43
452.31	13867.67
452.49	13453.40
452.68	13877.04
452.86	13752.99
453.05	14169.60
453.23	14991.13
453.42	15023.90
453.60	14801.55
453.78	15316.47
453.97	14750.06
454.15	14789.85
454.34	14560.47
454.52	14551.11
454.70	14717.29
454.89	14516.00
455.07	14527.71
455.26	14726.65
455.44	15173.69
455.62	15503.71
455.81	15735.42
455.99	15070.71
456.17	15489.67
456.36	15522.43
456.54	15936.71
456.73	16056.08
456.91	16358.00
457.09	15871.17
457.28	16374.39
457.46	15679.25
457.64	15719.04
457.83	15007.52
458.01	14761.76
458.19	15335.19
458.38	15084.75
458.56	15730.74
458.74	15770.53
458.93	15580.95
459.11	15353.91
459.29	15171.35
459.48	15304.76
459.66	15161.99
459.84	15344.55
460.03	15941.39
460.21	15747.12
460.39	16269.06
460.57	16332.26
460.76	16575.67
460.94	16140.33
461.12	16095.86
461.31	16376.73
461.49	16369.71
461.67	16311.19
461.85	16769.94
462.04	16755.90
462.22	16486.73
462.40	16547.59
462.59	16077.14
462.77	16355.66
462.95	16435.24
463.13	16563.97
463.32	16276.09
463.50	15864.15
463.68	15948.41
463.86	16215.23
464.05	15917.98
464.23	15211.14
464.41	15063.69
464.59	15248.59
464.78	15922.66
464.96	15503.71
465.14	15480.30
465.32	16388.43
465.50	16683.34
465.69	16643.55
465.87	16065.44
466.05	15749.46
466.23	15115.18
466.41	15047.30
466.60	16063.10
466.78	15742.44
466.96	15389.02
467.14	15695.63
467.32	16128.63
467.51	15906.28
467.69	15243.91
467.87	15475.62
468.05	15714.36
468.23	15833.72
468.41	15585.63
468.60	15847.77
468.78	15850.11
468.96	15681.59
469.14	16091.18
469.32	16486.73
469.50	15325.83
469.69	15377.32
469.87	15061.35
470.05	15257.95
470.23	15428.81
470.41	15749.46
470.59	15524.77
470.77	15370.30
470.95	15829.04
471.14	16121.61
471.32	16299.49
471.50	17429.97
471.68	17205.28
471.86	17453.37
472.04	17128.04
472.22	17036.76
472.40	16563.97
472.58	16407.16
472.77	16084.16
472.95	16603.76
473.13	17003.99
473.31	16666.95
473.49	16732.49
473.67	16924.41
473.85	16870.58
474.03	16861.22
474.21	17188.89
474.39	17369.12
474.57	17385.50
474.75	17610.19
474.93	17563.38
475.12	17184.21
475.30	17451.03
475.48	17523.59
475.66	17668.70
475.84	17193.58
476.02	17191.23
476.20	17334.01
476.38	17013.35
476.56	17378.48
476.74	18164.90
476.92	18246.82
477.10	18328.74
477.28	19082.39
477.46	18747.69
477.64	18771.10
477.82	18930.25
478.00	18932.59
478.18	18745.35
478.36	18759.39
478.54	18293.63
478.72	19358.57
478.90	19885.19
479.08	19807.95
479.26	19826.68
479.44	19473.26
479.62	19920.30
479.80	20067.75
479.98	20098.18
480.16	20437.56
480.34	20259.68
480.52	20170.74
480.70	20196.48
480.88	20140.31
481.06	20783.96
481.24	21062.48
481.41	21720.17
481.59	21909.75
481.77	21172.49
481.95	20987.58
482.13	21371.43
482.31	20781.62
482.49	21708.47
482.67	21193.55
482.85	21305.90
483.03	21460.37
483.21	21816.13
483.39	21584.42
483.57	21858.26
483.74	21366.75
483.92	21535.27
484.10	21905.07
484.28	22108.70
484.46	22354.46
484.64	21731.87
484.82	21961.25
485.00	22153.17
485.18	21137.38
485.35	20180.10
485.53	18061.91
485.71	17057.82
485.89	17458.06
486.07	18487.89
486.25	20025.62
486.43	21020.35
486.61	20215.21
486.78	20641.18
486.96	21338.66
487.14	22209.34
487.32	22593.19
487.50	23023.85
487.68	22745.33
487.85	23690.90
488.03	23704.95
488.21	23065.98
488.39	22368.50
488.57	22785.12
488.75	22902.14
488.92	23974.11
489.10	25883.98
489.28	25872.28
489.46	26536.99
489.64	27140.85
489.81	26515.93
489.99	25504.82
490.17	26197.62
490.35	27065.96
490.53	26218.68
490.70	25673.34
490.88	26071.23
491.06	27019.14
491.24	26497.20
491.41	25057.78
491.59	24276.04
491.77	23920.28
491.95	24884.58
492.13	25720.15
492.30	26352.09
492.48	27861.74
492.66	28056.00
492.84	27337.46
493.01	26967.65
493.19	26146.12
493.37	25771.64
493.54	26321.66
493.72	27016.80
493.90	27936.63
494.08	28290.06
494.25	29469.69
494.43	29142.01
494.61	29890.98
494.79	29631.18
494.96	29420.53
495.14	28041.96
495.32	27285.97
495.49	27346.82
495.67	28137.92
495.85	29930.77
496.02	30110.99
496.20	29766.93
496.38	29551.60
496.55	29493.09
496.73	29727.14
496.91	29434.58
497.09	29958.86
497.26	29862.90
497.44	30422.28
497.62	29504.79
497.79	28657.52
497.97	27590.24
498.14	27971.74
498.32	29156.05
498.50	29528.20
498.67	30616.55
498.85	29717.78
499.03	29268.40
499.20	29909.71
499.38	29862.90
499.56	29394.79
499.73	29209.89
499.91	28790.93
500.08	28292.40
500.26	27683.86
500.44	28641.14
500.61	29261.38
500.79	28276.01
500.97	28053.66
501.14	28046.64
501.32	27676.83
501.49	27590.24
501.67	28060.68
501.84	29184.14
502.02	28842.42
502.20	29298.83
502.37	30169.51
502.55	30342.70
502.72	30323.98
502.90	30773.36
503.07	30314.62
503.25	30529.95
503.43	29359.68
503.60	27805.56
503.78	27503.64
503.95	28741.78
504.13	29315.21
504.30	30595.48
504.48	30984.01
504.65	30288.87
504.83	30190.57
505.01	30146.10
505.18	30630.59
505.36	31578.51
505.53	31405.31
505.71	31976.40
505.88	31960.02
506.06	31742.35
506.23	31140.83
506.41	30501.86
506.58	30466.75
506.76	30221.00
506.93	30522.93
507.11	29078.82
507.28	30508.88
507.46	29668.63
507.63	29062.43
507.81	28453.89
507.98	29083.50
508.16	30408.24
508.33	31171.25
508.50	30162.48
508.68	31484.89
508.85	32070.02
509.03	31363.18
509.20	30228.02
509.38	30347.39
509.55	29872.26
509.73	30705.49
509.90	31021.46
510.08	30401.22
510.25	29806.72
510.42	30176.53
510.60	30216.32
510.77	31393.61
510.95	32051.30
511.12	30785.07
511.30	31426.37
511.47	32236.20
511.64	31737.66
511.82	31585.53
511.99	30700.81
512.17	30609.53
512.34	30471.43
512.51	30075.88
512.69	30270.15
512.86	30890.39
513.04	31370.20
513.21	30855.28
513.38	30731.23
513.56	29979.92
513.73	28917.32
513.90	28552.20
514.08	29355.00
514.25	29993.97
514.43	30515.90
514.60	30588.46
514.77	30658.68
514.95	30419.94
515.12	30052.48
515.29	31002.74
515.47	31353.82
515.64	31009.76
515.81	30939.54
515.99	30429.30
516.16	27627.68
516.33	26195.28
516.51	24975.86
516.68	23896.87
516.85	23405.36
517.03	24758.19
517.20	26644.66
517.37	29008.60
517.54	29556.28
517.72	27470.87
517.89	26176.55
518.06	25303.53
518.24	25771.64
518.41	27618.32
518.58	28737.10
518.75	28973.49
518.93	28510.07
519.10	28437.51
519.27	29043.71
519.45	29319.89
519.62	30295.89
519.79	30602.50
519.96	30462.07
520.14	29493.09
520.31	29289.46
520.48	28879.87
520.65	29738.85
520.83	29958.86
521.00	29745.87
521.17	29837.15
521.34	28755.82
521.52	29200.52
521.69	30597.82
521.86	30955.93
522.03	29802.04
522.20	28910.30
522.38	27929.61
522.55	27824.29
522.72	29024.98
522.89	28411.76
523.07	29207.55
523.24	30359.09
523.41	30106.31
523.58	30031.41
523.75	29701.40
523.92	31438.08
524.10	31058.91
524.27	31173.60
524.44	31199.34
524.61	31508.29
524.78	31337.43
524.96	30801.45
525.13	30696.13
525.30	31297.64
525.47	31693.19
525.64	31236.79
525.81	29034.35
525.98	27445.12
526.16	26544.02
526.33	26218.68
526.50	26459.76
526.67	26469.12
526.84	26555.72
527.01	28133.24
527.18	28751.14
527.36	29034.35
527.53	30338.02
527.70	30045.46
527.87	28594.32
528.04	28744.12
528.21	29823.11
528.38	30178.87
528.55	31732.98
528.72	31009.76
528.89	31218.07
529.07	31019.12
529.24	29516.50
529.41	30209.29
529.58	29134.99
529.75	29067.11
529.92	29399.47
530.09	29806.72
530.26	29872.26
530.43	29017.96
530.60	30969.97
530.77	31218.07
530.94	32165.98
531.11	30501.86
531.28	30099.29
531.46	29895.66
531.63	30221.00
531.80	30611.87
531.97	29355.00
532.14	27878.12
532.31	27094.04
532.48	26642.32
532.65	26712.53
532.82	27480.23
532.99	28599.01
533.16	30204.61
533.33	31000.40
533.50	30373.13
533.67	28994.56
533.84	29102.22
534.01	28737.10
534.18	29214.57
534.35	28957.11
534.52	29095.20
534.69	29465.00
534.86	29298.83
535.03	29858.21
535.20	30225.68
535.37	30157.80
535.54	30789.75
535.71	29738.85
535.88	29837.15
536.05	28704.33
536.22	28545.17
536.38	27840.67
536.55	28442.19
536.72	28128.56
536.89	27810.25
537.06	28903.28
537.23	29146.69
537.40	29418.19
537.57	29441.60
537.74	28257.29
537.91	28526.45
538.08	29565.65
538.25	29736.51
538.42	28762.84
538.59	28884.55
538.75	29308.19
538.92	28624.75
539.09	27627.68
539.26	27138.51
539.43	26752.32
539.60	26958.29
539.77	27098.72
539.94	26405.92
540.11	25876.96
540.28	25345.66
540.44	26132.08
540.61	26698.49
540.78	26747.64
540.95	28343.89
541.12	27433.42
541.29	28224.52
541.46	27835.99
541.62	27835.99
541.79	26892.76
541.96	26700.83
542.13	27803.22
542.30	28147.28
542.47	27880.46
542.63	27374.91
542.80	26551.04
542.97	26962.97
543.14	26546.36
543.31	26675.09
543.48	27988.13
543.64	28327.50
543.81	28889.23
543.98	28250.27
544.15	27805.56
544.32	26644.66
544.48	27857.06
544.65	26906.80
544.82	27215.75
544.99	27716.62
545.16	27578.53
545.32	27887.48
545.49	28517.09
545.66	28467.94
545.83	27896.85
546.00	27763.43
546.16	27185.32
546.33	27267.24
546.50	27520.02
546.67	27475.55
546.83	26899.78
547.00	26920.84
547.17	26637.64
547.34	26780.41
547.50	26778.07
547.67	26604.87
547.84	26363.79
548.00	27030.85
548.17	26630.62
548.34	26771.05
548.51	26558.06
548.67	27578.53
548.84	27674.49
549.01	27749.39
549.18	28081.75
549.34	28154.30
549.51	27725.99
549.68	27587.89
549.84	26661.04
550.01	27274.26
550.18	26169.53
550.34	26661.04
550.51	26333.37
550.68	25785.68
550.84	25142.03
551.01	25340.98
551.18	24954.79
551.34	25184.16
551.51	26483.16
551.68	27449.80
551.84	26363.79
552.01	26567.42
552.18	25958.88
552.34	25769.30
552.51	25823.13
552.68	26710.19
552.84	26022.08
553.01	26260.81
553.18	26995.74
553.34	26904.46
553.51	26139.10
553.67	26164.85
553.84	27388.95
554.01	27365.54
554.17	25879.30
554.34	26656.36
554.51	27197.02
554.67	26806.16
554.84	25881.64
555.00	25912.07
555.17	26103.99
555.33	25809.09
555.50	26757.00
555.67	26143.78
555.83	26235.06
556.00	26146.12
556.16	25975.27
556.33	25804.41
556.50	25708.44
556.66	25046.07
556.83	24437.53
556.99	24819.04
557.16	25355.02
557.32	25387.79
557.49	25364.39
557.65	25479.07
557.82	24126.24
557.98	24706.70
558.15	25549.29
558.32	24411.79
558.48	23229.82
558.65	23805.59
558.81	23683.88
558.98	23953.04
559.14	24552.22
559.31	24631.80
559.47	24400.08
559.64	23655.79
559.80	24975.86
559.97	24027.94
560.13	24943.09
560.30	24982.88
560.46	25216.93
560.63	25453.33
560.79	25935.48
560.96	24858.83
561.12	24086.45
561.29	24034.96
561.45	23707.29
561.61	23770.48
561.78	23737.71
561.94	24013.90
562.11	23707.29
562.27	24126.24
562.44	24723.08
562.60	24606.05
562.77	25188.85
562.93	24121.56
563.10	24163.69
563.26	23974.11
563.42	23330.46
563.59	23255.56
563.75	24018.58
563.92	23840.70
564.08	23648.77
564.24	23672.18
564.41	22438.72
564.57	23016.83
564.74	23101.09
564.90	22843.63
565.07	22654.05
565.23	22108.70
565.39	22228.07
565.56	23094.07
565.72	22721.92
565.88	23255.56
566.05	22445.74
566.21	23049.60
566.38	22333.39
566.54	22726.60
566.70	22312.33
566.87	22841.29
567.03	24011.56
567.19	24414.13
567.36	22616.60
567.52	23470.89
567.68	22944.27
567.85	22724.26
568.01	22824.90
568.17	21982.31
568.34	21144.40
568.50	21687.40
568.66	21486.12
568.83	21994.01
568.99	22335.73
569.15	21928.48
569.32	23077.68
569.48	22178.92
569.64	21713.15
569.81	20922.05
569.97	21638.25
570.13	21834.86
570.30	21219.30
570.46	21247.38
570.62	20102.86
570.78	19939.02
570.95	20053.71
571.11	20985.24
571.27	21142.06
571.43	20891.62
571.60	21661.66
571.76	21682.72
571.92	21926.14
572.09	22309.99
572.25	21979.97
572.41	22810.86
572.57	22260.84
572.74	21553.99
572.90	21811.45
573.06	21750.60
573.22	21170.15
573.38	21214.62
573.55	21043.76
573.71	21163.12
573.87	21624.21
574.03	21474.42
574.20	21624.21
574.36	21029.71
574.52	21099.93
574.68	20837.79
574.84	20758.21
575.01	21050.78
575.17	20908.01
575.33	20917.37
575.49	20514.80
575.65	20971.20
575.82	20362.66
575.98	20678.63
576.14	20566.29
576.30	20547.56
576.46	20088.82
576.62	20807.36
576.79	20512.46
576.95	20128.61
577.11	19798.59
577.27	19763.48
577.43	20011.58
577.59	19761.14
577.75	20627.14
577.92	19824.34
578.08	19484.96
578.24	19353.89
578.40	19531.77
578.56	19695.61
578.72	19711.99
578.88	20372.02
579.04	20159.03
579.21	20152.01
579.37	20180.10
579.53	19711.99
579.69	19389.00
579.85	19262.61
580.01	19297.72
580.17	19449.85
580.33	19410.06
580.49	19550.49
580.65	19634.75
580.82	19688.59
580.98	19508.37
581.14	19545.81
581.30	20372.02
581.46	19974.13
581.62	19695.61
581.78	19814.98
581.94	20315.85
582.10	20126.27
582.26	19868.81
582.42	19672.20
582.58	20854.17
582.74	20353.30
582.90	19662.84
583.06	20116.90
583.22	19932.00
583.38	20664.59
583.54	20273.72
583.70	20425.86
583.86	19798.59
584.02	19908.60
584.18	20006.90
584.34	19817.32
584.50	20739.49
584.66	20294.79
584.82	19711.99
584.98	20037.33
585.14	19278.99
585.30	18469.17
585.46	18544.06
585.62	18398.95
585.78	18679.82
585.94	18796.84
586.10	18984.09
586.26	18956.00
586.42	18927.91
586.58	19307.08
586.74	18457.46
