SpectraSuite Data File
++++++++++++++++++++++++++++++++++++
Date: Mon Oct 07 14:53:59 GMT-05:00 2013
User: price-jones
Dark Spectrum Present: No
Reference Spectrum Present: No
Number of Sampled Component Spectra: 1
Spectrometers: USB2+H05261
Integration Time (usec): 100000 (USB2+H05261)
Spectra Averaged: 1 (USB2+H05261)
Boxcar Smoothing: 0 (USB2+H05261)
Correct for Electrical Dark: No (USB2+H05261)
Strobe/Lamp Enabled: No (USB2+H05261)
Correct for Detector Non-linearity: No (USB2+H05261)
Correct for Stray Light: No (USB2+H05261)
Number of Pixels in Processed Spectrum: 2048
>>>>>Begin Processed Spectral Data<<<<<
365.73	0.00
365.92	0.00
366.12	0.00
366.32	0.00
366.52	0.00
366.72	0.00
366.91	0.00
367.11	0.00
367.31	0.00
367.51	0.00
367.70	0.00
367.90	0.00
368.10	0.00
368.30	0.00
368.49	0.00
368.69	0.00
368.89	0.00
369.09	0.00
369.28	0.00
369.48	0.00
369.68	0.00
369.87	0.00
370.07	0.00
370.27	0.00
370.47	702.16
370.66	3482.72
370.86	4238.71
371.06	4524.26
371.25	4425.95
371.45	4109.98
371.65	3679.32
371.84	3442.93
372.04	3646.55
372.24	4011.68
372.44	4184.88
372.63	4114.66
372.83	3934.44
373.03	3410.16
373.22	3274.41
373.42	3267.39
373.62	3918.06
373.81	4255.09
374.01	4161.47
374.21	3639.53
374.40	3557.61
374.60	3442.93
374.79	3969.55
374.99	4842.57
375.19	4987.68
375.38	5116.41
375.58	4671.71
375.78	4781.71
375.97	4746.61
376.17	4971.30
376.37	4896.40
376.56	4992.36
376.76	5327.06
376.95	5710.91
377.15	6061.99
377.35	6438.81
377.54	6752.45
377.74	6672.87
377.93	6738.40
378.13	6340.51
378.33	6239.87
378.52	5776.44
378.72	5556.43
378.91	5638.35
379.11	5327.06
379.31	5163.22
379.50	4983.00
379.70	5357.49
379.89	5973.05
380.09	6384.98
380.28	6658.82
380.48	6675.21
380.68	6499.67
380.87	6340.51
381.07	5888.79
381.26	5423.02
381.46	5142.16
381.65	4983.00
381.85	4821.50
382.04	4465.74
382.24	4278.50
382.43	3932.10
382.63	4189.56
382.83	4060.83
383.02	3922.74
383.22	4095.94
383.41	4098.28
383.61	4355.74
383.80	4844.91
384.00	5549.41
384.19	6146.25
384.39	6595.63
384.58	6504.35
384.78	6303.06
384.97	6361.58
385.17	5921.56
385.36	5802.19
385.56	5526.00
385.75	5685.16
385.95	6104.12
386.14	6691.59
386.34	6930.33
386.53	6600.31
386.72	6061.99
386.92	6061.99
387.11	6457.54
387.31	6675.21
387.50	6778.19
387.70	6392.00
387.89	6352.21
388.09	6366.26
388.28	6289.02
388.48	6443.49
388.67	6869.47
388.86	7648.87
389.06	8196.56
389.25	8503.17
389.45	8587.43
389.64	8393.16
389.84	8418.91
390.03	8376.78
390.22	8318.26
390.42	8702.11
390.61	9331.72
390.81	10029.20
391.00	10005.79
391.19	9919.19
391.39	9481.51
391.58	8968.93
391.78	8456.36
391.97	8140.38
392.16	7843.14
392.36	7049.69
392.55	5790.49
392.75	4503.19
392.94	3695.71
393.13	3592.72
393.33	4292.54
393.52	5427.70
393.71	6855.43
393.91	7590.36
394.10	8299.54
394.29	8954.89
394.49	9823.23
394.68	10567.52
394.88	10265.59
395.07	10913.92
395.26	10700.93
395.46	10391.98
395.65	9813.87
395.84	8732.54
396.04	7442.90
396.23	5888.79
396.42	5006.41
396.62	4795.76
396.81	5420.68
397.00	7126.93
397.19	8919.78
397.39	10565.18
397.58	11815.02
397.77	12732.51
397.97	13221.69
398.16	13521.27
398.35	13825.54
398.55	14059.60
398.74	14829.63
398.93	14913.89
399.12	15047.30
399.32	14054.92
399.51	14520.68
399.70	15632.44
399.90	15517.75
400.09	15363.28
400.28	15232.21
400.47	15337.53
400.67	16173.10
400.86	16636.53
401.05	16617.80
401.24	16549.93
401.44	16898.67
401.63	16769.94
401.82	16964.20
402.01	17104.64
402.21	16954.84
402.40	17252.09
402.59	16837.81
402.78	15864.15
402.97	15389.02
403.17	16257.36
403.36	17209.96
403.55	17776.37
403.74	18157.88
403.93	17055.48
404.13	15761.17
404.32	15424.13
404.51	16381.41
404.70	17521.25
404.89	17441.67
405.09	17343.37
405.28	16683.34
405.47	16769.94
405.66	16629.51
405.85	16395.45
406.05	15590.31
406.24	16084.16
406.43	16821.43
406.62	17294.22
406.81	17577.42
407.00	16823.77
407.20	16306.51
407.39	16596.74
407.58	17259.11
407.77	18090.00
407.96	18410.65
408.15	18780.46
408.34	18604.92
408.54	19740.08
408.73	19807.95
408.92	19267.29
409.11	18916.21
409.30	18071.28
409.49	16996.97
409.68	15714.36
409.87	15421.79
410.07	16219.91
410.26	17345.71
410.45	18677.48
410.64	19260.27
410.83	19566.88
411.02	19847.74
411.21	20744.17
411.40	20863.54
411.59	20711.40
411.78	20826.09
411.98	20212.87
412.17	21010.99
412.36	20395.43
412.55	20421.17
412.74	19594.96
412.93	19140.90
413.12	19538.79
413.31	21343.35
413.50	21610.17
413.69	22195.30
413.88	21329.30
414.07	20624.80
414.26	20826.09
414.45	21797.41
414.64	21898.05
414.83	21879.33
415.02	21277.81
415.22	21460.37
415.41	22080.61
415.60	22675.11
415.79	23173.64
415.98	24006.87
416.17	24016.24
416.36	22960.66
416.55	23035.55
416.74	21951.88
416.93	21315.26
417.12	21628.89
417.31	21799.75
417.50	22209.34
417.69	22927.89
417.88	22799.16
418.07	22689.15
418.26	22087.64
418.45	22537.02
418.64	22820.22
418.83	24465.62
419.02	23433.44
419.21	23737.71
419.39	22300.62
419.58	21518.89
419.77	21542.29
419.96	22288.92
420.15	23669.84
420.34	24350.93
420.53	25144.38
420.72	25560.99
420.91	25514.18
421.10	24900.96
421.29	24940.75
421.48	24039.64
421.67	25242.68
421.86	24570.94
422.05	23112.79
422.24	20465.64
422.43	20004.56
422.61	22232.75
422.80	24091.13
422.99	24503.07
423.18	23440.47
423.37	22780.43
423.56	22927.89
423.75	23468.55
423.94	23690.90
424.13	22663.41
424.32	22934.91
424.50	22462.12
424.69	22015.08
424.88	22663.41
425.07	22602.55
425.26	22471.48
425.45	22195.30
425.64	21404.20
425.83	21937.84
426.01	23400.68
426.20	23592.60
426.39	23548.13
426.58	21715.49
426.77	20451.60
426.96	19351.55
427.15	20222.23
427.33	21986.99
427.52	22719.58
427.71	22445.74
427.90	22302.96
428.09	22651.70
428.28	21923.80
428.46	21252.06
428.65	20723.10
428.84	21476.76
429.03	21551.65
429.22	20718.42
429.40	19693.27
429.59	17516.57
429.78	15538.82
429.97	15524.77
430.16	15798.62
430.34	15932.03
430.53	16067.78
430.72	16135.65
430.91	18162.56
431.10	21118.65
431.28	24582.65
431.47	26998.08
431.66	26888.07
431.85	24954.79
432.03	22651.70
432.22	21429.94
432.41	22888.10
432.60	25067.14
432.79	26033.78
432.97	26859.99
433.16	26132.08
433.35	23955.38
433.54	21738.90
433.72	20140.31
433.91	21099.93
434.10	23091.73
434.28	25003.94
434.47	26080.59
434.66	25820.79
434.85	25172.46
435.03	25015.65
435.22	25645.25
435.41	27342.14
435.59	27552.79
435.78	27571.51
435.97	28388.36
436.16	28599.01
436.34	27943.66
436.53	27199.37
436.72	27278.94
436.90	26167.19
437.09	25865.26
437.28	25308.21
437.46	26534.65
437.65	25984.63
437.84	24582.65
438.02	22630.64
438.21	22157.85
438.40	23608.98
438.58	25671.00
438.77	26490.18
438.96	26373.16
439.14	27742.37
439.33	28168.35
439.52	28591.98
439.70	28123.88
439.89	27585.55
440.08	26462.10
440.26	26923.18
440.45	27428.74
440.63	29046.05
440.82	30906.77
441.01	30597.82
441.19	29937.79
441.38	30469.09
441.57	31630.00
441.75	32383.65
441.94	32320.46
442.12	31545.74
442.31	32818.99
442.50	32353.23
442.68	31667.45
442.87	31756.39
443.05	31508.29
443.24	31517.65
443.43	32128.53
443.61	33165.39
443.80	33741.16
443.98	31754.05
444.17	31400.63
444.35	33132.62
444.54	34054.79
444.73	33291.78
444.91	32385.99
445.10	30522.93
445.28	29642.88
445.47	29130.31
445.65	29106.90
445.84	29951.84
446.02	31131.47
446.21	31578.51
446.39	31421.69
446.58	32058.32
446.77	32566.21
446.95	32584.94
447.14	33996.28
447.32	34256.08
447.51	33806.70
447.69	32177.68
447.88	31910.86
448.06	32055.98
448.25	33193.48
448.43	33413.49
448.62	32842.40
448.80	32385.99
448.99	32744.09
449.17	33020.28
449.36	32620.05
449.54	34153.10
449.73	34354.38
449.91	35335.07
450.10	36212.77
450.28	36353.20
450.46	36465.55
450.65	35992.76
450.83	36041.91
451.02	35101.01
451.20	35166.55
451.39	35243.79
451.57	34862.28
451.76	34513.54
451.94	34342.68
452.13	34129.69
452.31	32669.20
452.49	30756.98
452.68	31601.91
452.86	31536.38
453.05	31852.35
453.23	32526.42
453.42	33710.74
453.60	34572.05
453.78	34883.34
453.97	34546.31
454.15	34157.78
454.34	33422.85
454.52	33347.95
454.70	32685.58
454.89	33425.19
455.07	33560.94
455.26	33895.64
455.44	35175.91
455.62	35988.08
455.81	36275.96
455.99	35662.74
456.17	35421.67
456.36	35585.50
456.54	36201.07
456.73	36430.44
456.91	37156.00
457.09	37532.83
457.28	37668.58
457.46	36362.56
457.64	35754.02
457.83	34778.02
458.01	34366.09
458.19	35267.19
458.38	35529.33
458.56	36608.32
458.74	36236.17
458.93	35587.85
459.11	35433.37
459.29	35164.21
459.48	35929.56
459.66	35498.91
459.84	35779.77
460.03	36367.24
460.21	35903.82
460.39	36800.24
460.57	36886.84
460.76	37256.65
460.94	37415.80
461.12	37036.64
461.31	37266.01
461.49	36629.38
461.67	37247.29
461.85	37949.45
462.04	37867.53
462.22	38572.03
462.40	38134.35
462.59	37837.10
462.77	38216.27
462.95	37881.57
463.13	37446.23
463.32	37085.79
463.50	37017.91
463.68	36898.55
463.86	37043.66
464.05	36624.70
464.23	35938.93
464.41	35793.81
464.59	35103.35
464.78	37144.30
464.96	36266.60
465.14	36201.07
465.32	37500.06
465.50	37923.70
465.69	38253.72
465.87	37209.84
466.05	36603.64
466.23	34768.66
466.41	34094.58
466.60	35438.05
466.78	35267.19
466.96	36203.41
467.14	36350.86
467.32	37022.59
467.51	36821.31
467.69	35447.41
467.87	35878.07
468.05	36573.21
468.23	36514.70
468.41	36554.49
468.60	36676.19
468.78	37083.45
468.96	36332.14
469.14	36980.46
469.32	37364.31
469.50	36264.26
469.69	35981.06
469.87	35461.46
470.05	35133.78
470.23	35737.64
470.41	35681.47
470.59	36315.75
470.77	36020.84
470.95	37132.60
471.14	37195.79
471.32	37558.58
471.50	39470.79
471.68	39536.33
471.86	39658.04
472.04	40238.49
472.22	40168.27
472.40	37998.60
472.58	37818.38
472.77	37207.50
472.95	38216.27
473.13	39349.09
473.31	38515.86
473.49	38401.17
473.67	39246.10
473.85	39126.74
474.03	40341.47
474.21	40264.24
474.39	40364.88
474.57	40947.67
474.75	41151.30
474.93	40376.58
475.12	39473.13
475.30	39599.52
475.48	39756.34
475.66	40648.08
475.84	39985.71
476.02	39709.53
476.20	39220.36
476.38	39746.98
476.56	40730.00
476.74	41502.38
476.92	41462.59
477.10	42506.47
477.28	43082.24
477.46	43501.20
477.64	44149.53
477.82	43758.66
478.00	44156.55
478.18	42981.60
478.36	42927.77
478.54	43000.32
478.72	43683.76
478.90	44823.60
479.08	45411.07
479.26	46295.80
479.44	46305.16
479.62	45904.93
479.80	45900.25
479.98	46160.05
480.16	46410.48
480.34	45720.02
480.52	46321.54
480.70	46667.94
480.88	46312.18
481.06	47189.88
481.24	46902.00
481.41	48406.96
481.59	48699.53
481.77	48531.01
481.95	47739.91
482.13	47899.06
482.31	48210.35
482.49	48112.05
482.67	48362.49
482.85	48449.09
483.03	49041.24
483.21	49656.81
483.39	49558.50
483.57	48622.29
483.74	48423.34
483.92	48807.19
484.10	48811.87
484.28	49799.58
484.46	49996.18
484.64	50541.53
484.82	49736.38
485.00	49008.48
485.18	48802.51
485.35	47515.22
485.53	44121.44
485.71	40594.25
485.89	39627.61
486.07	41837.08
486.25	45031.91
486.43	47400.53
486.61	48488.88
486.78	48245.46
486.96	48411.64
487.14	49942.35
487.32	50415.14
487.50	51620.52
487.68	52315.65
487.85	52868.02
488.03	52755.68
488.21	52692.48
488.39	51667.33
488.57	51281.14
488.75	50983.89
488.92	51810.10
489.10	53703.59
489.28	55246.00
489.46	55517.51
489.64	55643.90
489.81	55601.77
489.99	55442.61
490.17	55391.12
490.35	55796.03
490.53	55302.18
490.70	55040.04
490.88	54965.14
491.06	55833.48
491.24	55749.22
491.41	54892.58
491.59	53401.66
491.77	52404.59
491.95	53563.16
492.13	54672.57
492.30	55744.54
492.48	56645.65
492.66	57078.64
492.84	56942.89
493.01	56673.73
493.19	56121.37
493.37	55955.19
493.54	55639.22
493.72	56411.59
493.90	57249.50
494.08	57993.79
494.25	58195.08
494.43	58152.95
494.61	58649.14
494.79	58796.60
494.96	58567.23
495.14	57963.37
495.32	57003.75
495.49	56509.89
495.67	57448.45
495.85	58726.38
496.02	58925.33
496.20	59086.82
496.38	58499.35
496.55	58532.12
496.73	58859.79
496.91	59044.69
497.09	59585.36
497.26	59686.00
497.44	59187.47
497.62	58576.59
497.79	58049.97
497.97	56835.23
498.14	56863.32
498.32	57918.90
498.50	58787.24
498.67	59152.36
498.85	59278.75
499.03	59161.72
499.20	59517.48
499.38	59606.42
499.56	59655.57
499.73	59084.48
499.91	58532.12
500.08	58323.81
500.26	57661.44
500.44	58019.54
500.61	58710.00
500.79	58323.81
500.97	58113.16
501.14	57825.28
501.32	57907.19
501.49	57715.27
501.67	57832.30
501.84	58487.65
502.02	58721.70
502.20	58922.99
502.37	59262.36
502.55	59215.55
502.72	59576.00
502.90	60207.94
503.07	59833.46
503.25	59414.50
503.43	58717.02
503.60	58230.19
503.78	57396.96
503.95	57724.63
504.13	58960.44
504.30	60062.83
504.48	59796.01
504.65	59295.13
504.83	59473.01
505.01	60032.40
505.18	60425.61
505.36	61125.43
505.53	60818.82
505.71	61087.98
505.88	61144.16
506.06	60491.15
506.23	60207.94
506.41	59884.95
506.58	60294.54
506.76	60086.23
506.93	60006.65
507.11	59929.42
507.28	59943.46
507.46	59299.81
507.63	58983.84
507.81	58820.00
507.98	59093.85
508.16	59877.93
508.33	60097.94
508.50	60453.70
508.68	60757.97
508.85	61427.36
509.03	61153.52
509.20	61165.22
509.38	60505.19
509.55	59592.38
509.73	59632.17
509.90	60451.36
510.08	60687.75
510.25	60446.68
510.42	60203.26
510.60	60062.83
510.77	60306.24
510.95	61080.96
511.12	61071.60
511.30	61392.25
511.47	61703.54
511.64	61485.87
511.82	61277.57
511.99	60507.53
512.17	59861.54
512.34	59704.73
512.51	59859.20
512.69	59999.63
512.86	60013.68
513.04	60591.79
513.21	60580.09
513.38	60074.53
513.56	59737.49
513.73	59260.02
513.90	59414.50
514.08	59334.92
514.25	59807.71
514.43	59903.67
514.60	59927.08
514.77	60236.03
514.95	60280.50
515.12	60161.13
515.29	60406.89
515.47	60720.52
515.64	60982.66
515.81	60533.28
515.99	60147.09
516.16	58796.60
516.33	56715.86
516.51	55133.66
516.68	54651.51
516.85	54183.40
517.03	54466.61
517.20	57024.81
517.37	59147.68
517.54	60093.25
517.72	59723.45
517.89	57654.42
518.06	55164.09
518.24	55524.53
518.41	57537.39
518.58	58761.49
518.75	59014.27
518.93	59035.33
519.10	59255.34
519.27	59552.59
519.45	59650.89
519.62	60533.28
519.79	60640.94
519.96	60610.51
520.14	60079.21
520.31	59416.84
520.48	59194.49
520.65	59583.02
520.83	60699.45
521.00	60779.03
521.17	60537.96
521.34	60062.83
521.52	60505.19
521.69	60949.89
521.86	61258.84
522.03	60947.55
522.20	59847.50
522.38	58855.11
522.55	58770.85
522.72	59451.95
522.89	59512.80
523.07	59908.35
523.24	60095.60
523.41	61015.43
523.58	61179.26
523.75	61602.90
523.92	61382.89
524.10	61490.55
524.27	61310.33
524.44	61244.80
524.61	61010.74
524.78	60856.27
524.96	60788.39
525.13	60746.26
525.30	61020.11
525.47	61340.76
525.64	61247.14
525.81	60753.29
525.98	59388.75
526.16	57972.73
526.33	57434.41
526.50	57003.75
526.67	56807.14
526.84	57146.52
527.01	58127.20
527.18	58915.96
527.36	59824.09
527.53	60509.87
527.70	60774.35
527.87	60339.01
528.04	59861.54
528.21	60313.26
528.38	60977.98
528.55	61647.37
528.72	61539.71
528.89	61815.89
529.07	61563.11
529.24	61137.13
529.41	60481.78
529.58	59943.46
529.75	59906.01
529.92	60594.13
530.09	60711.16
530.26	61219.05
530.43	61701.20
530.60	61378.21
530.77	61586.52
530.94	61874.40
531.11	61223.73
531.28	61087.98
531.46	60898.40
531.63	60985.00
531.80	60996.70
531.97	60544.98
532.14	59744.51
532.31	58930.01
532.48	58152.95
532.65	57982.09
532.82	59157.04
532.99	60200.92
533.16	60348.37
533.33	60809.46
533.50	60757.97
533.67	60193.90
533.84	59700.04
534.01	59913.03
534.18	60041.76
534.35	60240.71
534.52	60051.12
534.69	60432.63
534.86	60697.11
535.03	60985.00
535.20	61336.08
535.37	61783.12
535.54	61764.40
535.71	61436.72
535.88	61233.10
536.05	60715.84
536.22	60207.94
536.38	59826.43
536.55	59353.65
536.72	59054.06
536.89	58773.19
537.06	59737.49
537.23	60493.49
537.40	60722.86
537.57	60640.94
537.74	60460.72
537.91	60273.48
538.08	60437.31
538.25	60313.26
538.42	60636.26
538.59	60301.56
538.75	59760.90
538.92	59681.32
539.09	59388.75
539.26	59245.98
539.43	59093.85
539.60	59231.94
539.77	59285.77
539.94	59250.66
540.11	58454.88
540.28	58017.20
540.44	58239.55
540.61	58162.31
540.78	58429.13
540.95	59124.27
541.12	59245.98
541.29	59458.97
541.46	59784.30
541.62	59952.82
541.79	59669.62
541.96	59171.08
542.13	59063.42
542.30	59208.53
542.47	59393.43
542.63	59166.40
542.80	59002.56
542.97	59255.34
543.14	59147.68
543.31	59320.88
543.48	59517.48
543.64	60390.50
543.81	60605.83
543.98	60542.64
544.15	59739.83
544.32	59068.10
544.48	59358.33
544.65	59737.49
544.82	59898.99
544.99	59772.60
545.16	59442.59
545.32	59178.10
545.49	59945.80
545.66	60353.05
545.83	60088.57
546.00	59669.62
546.16	59311.52
546.33	59257.68
546.50	59281.09
546.67	59742.17
546.83	59323.22
547.00	59374.71
547.17	58590.63
547.34	58174.02
547.50	58085.07
547.67	58766.17
547.84	58681.91
548.00	59152.36
548.17	59353.65
548.34	59260.02
548.51	59423.86
548.67	59529.19
548.84	59522.16
549.01	59320.88
549.18	59255.34
549.34	59238.96
549.51	59133.63
549.68	59175.76
549.84	58780.21
550.01	58822.34
550.18	58742.77
550.34	58824.68
550.51	59035.33
550.68	58862.13
550.84	58422.11
551.01	58588.29
551.18	58480.63
551.34	58691.27
551.51	59063.42
551.68	59433.22
551.84	59360.67
552.01	59194.49
552.18	59049.38
552.34	58347.21
552.51	57773.78
552.68	57787.83
552.84	58244.23
553.01	58534.46
553.18	58403.39
553.34	58450.20
553.51	58494.67
553.67	58838.73
553.84	59063.42
554.01	58969.80
554.17	58679.57
554.34	58871.49
554.51	58852.77
554.67	59035.33
554.84	58894.90
555.00	58497.01
555.17	58262.96
555.33	58225.51
555.50	58459.56
555.67	58372.96
555.83	58387.00
556.00	57970.39
556.16	58019.54
556.33	57673.14
556.50	57705.91
556.66	57593.56
556.83	57502.28
556.99	57315.04
557.16	57504.62
557.32	57563.14
557.49	58080.39
557.65	57862.72
557.82	57921.24
557.98	57722.29
558.15	57382.91
558.32	56505.21
558.48	55608.79
558.65	55922.42
558.81	56278.18
558.98	56594.15
559.14	56685.43
559.31	56809.48
559.47	56917.15
559.64	56530.96
559.80	56385.85
559.97	56383.51
560.13	56537.98
560.30	57593.56
560.46	57939.96
560.63	58328.49
560.79	58113.16
560.96	57616.97
561.12	56800.12
561.29	55938.80
561.45	56034.77
561.61	56324.99
561.78	57057.58
561.94	56732.25
562.11	56718.20
562.27	56409.25
562.44	56945.23
562.60	57022.47
562.77	57237.80
562.93	57319.72
563.10	57024.81
563.26	56699.48
563.42	56568.41
563.59	56444.36
563.75	56388.19
563.92	56247.75
564.08	56341.38
564.24	56594.15
564.41	56781.40
564.57	56699.48
564.74	56640.96
564.90	56336.69
565.07	56353.08
565.23	56062.85
565.39	55517.51
565.56	55168.77
565.72	54810.67
565.88	55138.34
566.05	55339.63
566.21	55648.58
566.38	55669.64
566.54	55728.16
566.70	56142.43
566.87	56348.40
567.03	56224.35
567.19	56610.54
567.36	56212.65
567.52	56018.38
567.68	55543.25
567.85	55468.36
568.01	55002.59
568.17	54398.73
568.34	54691.30
568.50	54637.47
568.66	54588.31
568.83	54934.71
568.99	55159.41
569.15	55449.63
569.32	55536.23
569.48	54721.72
569.64	54915.99
569.81	54234.89
569.97	54525.12
570.13	54384.69
570.30	53844.02
570.46	53605.29
570.62	52933.56
570.78	52858.66
570.95	52987.39
571.11	53666.14
571.27	54064.03
571.43	54272.34
571.60	54796.62
571.76	54604.70
571.92	54911.31
572.09	54913.65
572.25	55128.98
572.41	54859.82
572.57	55089.19
572.74	54796.62
572.90	54454.90
573.06	54473.63
573.22	54700.66
573.38	54529.80
573.55	54607.04
573.71	54487.67
573.87	54677.25
574.03	54410.43
574.20	54555.55
574.36	54038.29
574.52	54253.62
574.68	53673.16
574.84	53581.88
575.01	53029.52
575.17	52669.08
575.33	53043.56
575.49	53450.81
575.65	53544.44
575.82	53013.13
575.98	53230.80
576.14	53209.74
576.30	53750.40
576.46	53794.87
576.62	53584.22
576.79	53364.21
576.95	53073.99
577.11	52863.34
577.27	53141.86
577.43	53418.05
577.59	52875.04
577.75	52430.34
577.92	51838.18
578.08	51882.66
578.24	51571.36
578.40	52011.38
578.56	52343.74
578.72	52442.04
578.88	52690.14
579.04	52933.56
579.21	53029.52
579.37	53062.29
579.53	52856.32
579.69	52804.83
579.85	53106.76
580.01	52879.72
580.17	52317.99
580.33	52467.79
580.49	52292.25
580.65	52708.86
580.82	52879.72
580.98	52835.25
581.14	52559.07
581.30	52872.70
581.46	52601.20
581.62	52931.22
581.78	52793.12
581.94	53191.01
582.10	52956.96
582.26	53048.24
582.42	52861.00
582.58	53036.54
582.74	52636.31
582.90	52755.68
583.06	52769.72
583.22	52767.38
583.38	52547.37
583.54	52587.16
583.70	52633.97
583.86	52439.70
584.02	52507.58
584.18	52383.53
584.34	52371.83
584.50	52158.84
584.66	52179.90
584.82	51917.76
584.98	51473.06
585.14	51363.06
