SpectraSuite Data File
++++++++++++++++++++++++++++++++++++
Date: Mon Oct 07 14:53:49 GMT-05:00 2013
User: price-jones
Dark Spectrum Present: No
Reference Spectrum Present: No
Number of Sampled Component Spectra: 1
Spectrometers: USB2+H05261
Integration Time (usec): 100000 (USB2+H05261)
Spectra Averaged: 1 (USB2+H05261)
Boxcar Smoothing: 0 (USB2+H05261)
Correct for Electrical Dark: No (USB2+H05261)
Strobe/Lamp Enabled: No (USB2+H05261)
Correct for Detector Non-linearity: No (USB2+H05261)
Correct for Stray Light: No (USB2+H05261)
Number of Pixels in Processed Spectrum: 2048
>>>>>Begin Processed Spectral Data<<<<<
365.73	0.00
365.92	0.00
366.12	0.00
366.32	0.00
366.52	0.00
366.72	0.00
366.91	0.00
367.11	0.00
367.31	0.00
367.51	0.00
367.70	0.00
367.90	0.00
368.10	0.00
368.30	0.00
368.49	0.00
368.69	0.00
368.89	0.00
369.09	0.00
369.28	0.00
369.48	0.00
369.68	0.00
369.87	0.00
370.07	0.00
370.27	0.00
370.47	566.41
370.66	2679.91
370.86	3281.43
371.06	3665.28
371.25	3756.56
371.45	3365.69
371.65	2986.52
371.84	2705.66
372.04	2913.97
372.24	3300.16
372.44	3363.35
372.63	3323.56
372.83	3066.10
373.03	2806.30
373.22	2422.45
373.42	2722.04
373.62	3199.51
373.81	3405.48
374.01	3356.33
374.21	3042.70
374.40	2747.79
374.60	2810.98
374.79	3290.79
374.99	3777.62
375.19	4114.66
375.38	4224.67
375.58	3873.59
375.78	3936.78
375.97	3960.19
376.17	4166.15
376.37	3953.16
376.56	4109.98
376.76	4388.50
376.95	4660.01
377.15	5081.30
377.35	5291.95
377.54	5455.79
377.74	5640.69
377.93	5624.31
378.13	5364.51
378.33	5109.39
378.52	4802.78
378.72	4695.11
378.91	4521.92
379.11	4329.99
379.31	4215.30
379.50	4091.26
379.70	4564.04
379.89	4994.70
380.09	5214.71
380.28	5437.06
380.48	5504.94
380.68	5284.93
380.87	5231.10
381.07	4877.68
381.26	4465.74
381.46	4138.07
381.65	4044.45
381.85	4032.74
382.04	3791.67
382.24	3641.87
382.43	3405.48
382.63	3150.36
382.83	3234.62
383.02	3325.90
383.22	3363.35
383.41	3400.80
383.61	3583.36
383.80	4077.21
384.00	4514.89
384.19	5006.41
384.39	5451.11
384.58	5423.02
384.78	5146.84
384.97	5245.14
385.17	5036.83
385.36	4751.29
385.56	4601.49
385.75	4692.77
385.95	5078.96
386.14	5600.90
386.34	5561.11
386.53	5336.42
386.72	4975.98
386.92	5018.11
387.11	5343.44
387.31	5497.92
387.50	5563.45
387.70	5205.35
387.89	5153.86
388.09	5221.74
388.28	5329.40
388.48	5348.12
388.67	5837.30
388.86	6363.92
389.06	6778.19
389.25	7349.28
389.45	7276.73
389.64	7250.98
389.84	6993.52
390.03	7068.42
390.22	7033.31
390.42	7274.38
390.61	7754.19
390.81	8166.13
391.00	8468.06
391.19	8344.01
391.39	8049.10
391.58	7370.35
391.78	7159.70
391.97	6939.69
392.16	6347.53
392.36	5813.89
392.55	4638.94
392.75	3705.07
392.94	3094.19
393.13	3040.36
393.33	3581.02
393.52	4667.03
393.71	5703.89
393.91	6392.00
394.10	6843.73
394.29	7555.25
394.49	8032.72
394.68	8695.09
394.88	8795.73
395.07	9235.75
395.26	8954.89
395.46	9048.51
395.65	8098.25
395.84	7290.77
396.04	6090.07
396.23	4868.31
396.42	4177.86
396.62	3941.46
396.81	4568.73
397.00	5902.83
397.19	7389.07
397.39	8753.60
397.58	10148.56
397.77	10635.39
397.97	11185.42
398.16	11220.53
398.35	11611.40
398.55	11854.81
398.74	12161.42
398.93	12526.55
399.12	12306.54
399.32	11910.99
399.51	12109.93
399.70	12891.67
399.90	12961.89
400.09	12966.57
400.28	12493.78
400.47	13053.17
400.67	13441.70
400.86	13848.95
401.05	13968.32
401.24	14008.11
401.44	14115.77
401.63	14286.63
401.82	14370.89
402.01	14352.16
402.21	14324.08
402.40	14410.68
402.59	13898.10
402.78	13563.40
402.97	12903.37
403.17	13451.06
403.36	14478.55
403.55	14857.72
403.74	15169.01
403.93	14523.02
404.13	13107.00
404.32	12896.35
404.51	13664.05
404.70	14792.19
404.89	14724.31
405.09	14546.43
405.28	14092.37
405.47	13881.72
405.66	14050.24
405.85	13750.65
406.05	13287.22
406.24	13511.91
406.43	14083.00
406.62	14675.16
406.81	14597.92
407.00	14164.92
407.20	13764.69
407.39	13987.04
407.58	14546.43
407.77	15016.88
407.96	15714.36
408.15	15988.20
408.34	16009.26
408.54	16559.29
408.73	16720.79
408.92	16526.52
409.11	16006.92
409.30	15126.88
409.49	14326.42
409.68	13296.58
409.87	12840.18
410.07	13661.71
410.26	14761.76
410.45	15534.14
410.64	16229.27
410.83	16512.48
411.02	16795.68
411.21	17795.09
411.40	17678.07
411.59	17563.38
411.78	17547.00
411.98	17167.83
412.17	17729.56
412.36	17273.15
412.55	17287.20
412.74	17083.57
412.93	16666.95
413.12	16896.33
413.31	18324.05
413.50	18249.16
413.69	18792.16
413.88	18132.13
414.07	17252.09
414.26	18094.68
414.45	18265.54
414.64	18506.62
414.83	18471.51
415.02	18094.68
415.22	17996.38
415.41	18492.57
415.60	19183.03
415.79	20161.37
415.98	20336.91
416.17	20535.86
416.36	19798.59
416.55	19316.44
416.74	18775.78
416.93	18136.81
417.12	18263.20
417.31	18541.72
417.50	19068.34
417.69	19344.53
417.88	19491.98
418.07	18977.06
418.26	19005.15
418.45	19091.75
418.64	19836.04
418.83	20339.26
419.02	20051.37
419.21	20273.72
419.39	19005.15
419.58	18202.35
419.77	18384.91
419.96	19365.59
420.15	20095.84
420.34	20575.65
420.53	21486.12
420.72	22031.46
420.91	21785.71
421.10	21434.63
421.29	21425.26
421.48	20505.43
421.67	21514.20
421.86	20793.32
422.05	19604.33
422.24	17607.85
422.43	17383.16
422.61	19019.19
422.80	20547.56
422.99	20798.00
423.18	20044.35
423.37	19702.63
423.56	19321.12
423.75	20004.56
423.94	20428.20
424.13	19466.24
424.32	19520.07
424.50	19800.93
424.69	19255.59
424.88	19248.57
425.07	19428.79
425.26	19201.76
425.45	19035.58
425.64	18799.18
425.83	18743.01
426.01	19800.93
426.20	20107.54
426.39	20393.09
426.58	18733.65
426.77	17399.54
426.96	16732.49
427.15	17369.12
427.33	18902.17
427.52	19407.72
427.71	19580.92
427.90	19110.47
428.09	19286.01
428.28	18864.72
428.46	18106.38
428.65	18001.06
428.84	18328.74
429.03	18422.36
429.22	17607.85
429.40	16819.09
429.59	15049.64
429.78	13090.62
429.97	13329.35
430.16	13394.89
430.34	13591.49
430.53	13589.15
430.72	14019.81
430.91	15426.47
431.10	17839.56
431.28	21483.78
431.47	23126.83
431.66	23644.09
431.85	21205.25
432.03	19913.28
432.22	18710.24
432.41	19346.87
432.60	21392.50
432.79	22181.26
432.97	22906.82
433.16	22614.26
433.35	20711.40
433.54	18321.71
433.72	17177.19
433.91	17743.60
434.10	19784.55
434.28	21350.37
434.47	22345.09
434.66	22326.37
434.85	21717.83
435.03	21401.86
435.22	22214.02
435.41	23550.47
435.59	23370.25
435.78	23669.84
435.97	24168.37
436.16	24524.13
436.34	24018.58
436.53	23714.31
436.72	23784.52
436.90	22558.08
437.09	22340.41
437.28	21689.74
437.46	22361.48
437.65	22761.71
437.84	21123.33
438.02	19468.58
438.21	19391.34
438.40	20416.49
438.58	22270.20
438.77	22644.68
438.96	22874.06
439.14	23714.31
439.33	24549.88
439.52	24760.53
439.70	24669.25
439.89	23770.48
440.08	23239.18
440.26	22710.22
440.45	23601.96
440.63	25240.34
440.82	26579.12
441.01	26359.11
441.19	26057.18
441.38	26192.94
441.57	27466.19
441.75	27733.01
441.94	27929.61
442.12	27393.63
442.31	28257.29
442.50	28219.84
442.68	27592.58
442.87	27754.07
443.05	26686.79
443.24	27292.99
443.43	27915.57
443.61	28531.13
443.80	28779.23
443.98	27199.37
444.17	26939.57
444.35	28664.54
444.54	29467.34
444.73	28816.68
444.91	27814.93
445.10	26684.45
445.28	25446.30
445.47	25308.21
445.65	25502.48
445.84	25998.67
446.02	27080.00
446.21	27433.42
446.39	27695.56
446.58	28088.77
446.77	28292.40
446.95	28554.54
447.14	29333.93
447.32	29940.13
447.51	29202.86
447.69	28030.26
447.88	27433.42
448.06	28030.26
448.25	28828.38
448.43	28975.83
448.62	28198.77
448.80	28673.90
448.99	28467.94
449.17	28797.95
449.36	28432.83
449.54	29558.63
449.73	30237.38
449.91	30611.87
450.10	31344.45
450.28	31693.19
450.46	31222.75
450.65	31639.36
450.83	31253.17
451.02	30417.60
451.20	30625.91
451.39	30396.54
451.57	30127.38
451.76	30176.53
451.94	30228.02
452.13	29865.24
452.31	28271.33
452.49	26796.79
452.68	27218.09
452.86	27267.24
453.05	27592.58
453.23	28491.34
453.42	29256.70
453.60	29993.97
453.78	30202.27
453.97	30026.73
454.15	29806.72
454.34	29027.32
454.52	29380.74
454.70	29083.50
454.89	29247.33
455.07	29434.58
455.26	29481.39
455.44	30759.32
455.62	31040.18
455.81	31496.59
455.99	31407.65
456.17	30731.23
456.36	30813.15
456.54	31779.79
456.73	32100.45
456.91	32283.01
457.09	32472.59
457.28	32795.59
457.46	32121.51
457.64	31351.48
457.83	30866.98
458.01	29858.21
458.19	30506.54
458.38	30717.19
458.56	32144.92
458.74	31952.99
458.93	31405.31
459.11	30616.55
459.29	31061.25
459.48	31285.94
459.66	31122.10
459.84	31309.35
460.03	31527.02
460.21	31360.84
460.39	31985.76
460.57	32463.23
460.76	32943.04
460.94	33202.84
461.12	32285.35
461.31	32503.02
461.49	32294.71
461.67	32210.45
461.85	33771.59
462.04	33027.30
462.22	33296.46
462.40	33336.25
462.59	33251.99
462.77	33284.76
462.95	33340.93
463.13	33041.34
463.32	32460.89
463.50	32453.87
463.68	32294.71
463.86	32362.59
464.05	31679.15
464.23	31564.46
464.41	31527.02
464.59	30773.36
464.78	32229.18
464.96	32128.53
465.14	31892.14
465.32	32236.20
465.50	33230.93
465.69	33380.72
465.87	32828.35
466.05	32184.71
466.23	30520.59
466.41	29699.06
466.60	30813.15
466.78	30675.06
466.96	31218.07
467.14	32030.23
467.32	32718.35
467.51	32294.71
467.69	30848.26
467.87	31955.33
468.05	32013.85
468.23	31960.02
468.41	32098.11
468.60	32147.26
468.78	32240.88
468.96	31983.42
469.14	32875.16
469.32	32971.13
469.50	31641.70
469.69	31800.86
469.87	31353.82
470.05	30801.45
470.23	31597.23
470.41	31360.84
470.59	31903.84
470.77	32226.84
470.95	32411.74
471.14	32716.01
471.32	32947.72
471.50	34632.91
471.68	34801.43
471.86	35346.77
472.04	34983.99
472.22	35611.25
472.40	33682.65
472.58	33331.57
472.77	33024.96
472.95	33443.91
473.13	34656.31
473.31	33464.98
473.49	33406.47
473.67	34347.36
473.85	34703.12
474.03	35803.17
474.21	35531.67
474.39	36128.51
474.57	36168.30
474.75	36313.41
474.93	35391.24
475.12	35044.84
475.30	35171.23
475.48	35321.02
475.66	35775.09
475.84	35419.33
476.02	34859.94
476.20	34300.55
476.38	35068.25
476.56	36524.06
476.74	36507.68
476.92	36910.25
477.10	37551.56
477.28	38335.63
477.46	38213.93
477.64	38600.12
477.82	38857.57
478.00	39243.76
478.18	38625.86
478.36	38438.62
478.54	37984.55
478.72	38906.73
478.90	39463.77
479.08	40870.43
479.26	41443.87
479.44	40507.65
479.62	40659.79
479.80	40741.71
479.98	40748.73
480.16	41549.19
480.34	40664.47
480.52	40903.20
480.70	41057.68
480.88	41605.36
481.06	42398.80
481.24	42880.95
481.41	43533.96
481.59	44179.95
481.77	43414.60
481.95	42930.11
482.13	43138.41
482.31	43217.99
482.49	43826.53
482.67	43229.69
482.85	43407.58
483.03	44435.07
483.21	44676.15
483.39	44582.52
483.57	43709.50
483.74	43739.93
483.92	44137.82
484.10	44362.51
484.28	45380.65
484.46	45350.22
484.64	46391.76
484.82	44737.00
485.00	44547.42
485.18	43721.21
485.35	42644.56
485.53	39608.89
485.71	36449.16
485.89	35463.80
486.07	37226.22
486.25	40596.59
486.43	42803.72
486.61	43590.14
486.78	43805.47
486.96	43753.97
487.14	45361.92
487.32	46656.24
487.50	47171.16
487.68	48048.86
487.85	48926.56
488.03	48575.48
488.21	48060.56
488.39	47524.58
488.57	46576.66
488.75	46005.57
488.92	47304.57
489.10	49914.26
489.28	51482.42
489.46	52191.61
489.64	51913.08
489.81	52074.58
489.99	51512.85
490.17	51463.70
490.35	52301.61
490.53	51627.54
490.70	51351.35
490.88	50948.78
491.06	52229.05
491.24	51999.68
491.41	51337.31
491.59	49387.64
491.77	48086.31
491.95	49724.68
492.13	50836.44
492.30	52123.73
492.48	53071.65
492.66	53659.12
492.84	53546.78
493.01	53490.60
493.19	52832.91
493.37	52367.15
493.54	52189.27
493.72	52797.80
493.90	53752.74
494.08	54738.11
494.25	54915.99
494.43	55049.40
494.61	55414.52
494.79	55526.87
494.96	55236.64
495.14	54581.29
495.32	53521.03
495.49	53165.27
495.67	54108.50
495.85	55683.69
496.02	56142.43
496.20	55824.12
496.38	55199.19
496.55	55201.53
496.73	55695.39
496.91	55849.86
497.09	56596.49
497.26	56690.12
497.44	55952.85
497.62	55512.83
497.79	54801.30
497.97	53324.43
498.14	53673.16
498.32	54593.00
498.50	55353.67
498.67	56336.69
498.85	56254.78
499.03	56095.62
499.20	56465.42
499.38	56591.81
499.56	56341.38
499.73	55847.52
499.91	55487.08
500.08	55009.61
500.26	54408.09
500.44	54721.72
500.61	55295.16
500.79	55285.79
500.97	54897.27
501.14	54630.44
501.32	54808.32
501.49	54628.10
501.67	54646.83
501.84	55267.07
502.02	55660.28
502.20	55927.10
502.37	56086.26
502.55	55903.70
502.72	56671.39
502.90	57045.88
503.07	56750.97
503.25	56500.53
503.43	55615.81
503.60	54930.03
503.78	53996.16
503.95	54710.02
504.13	56315.63
504.30	57043.54
504.48	56790.76
504.65	56442.02
504.83	56533.30
505.01	56835.23
505.18	57462.49
505.36	57963.37
505.53	58237.21
505.71	58209.12
505.88	58225.51
506.06	57645.05
506.23	57045.88
506.41	56970.98
506.58	57188.65
506.76	57200.35
506.93	57148.86
507.11	56853.95
507.28	57059.92
507.46	56669.05
507.63	55957.53
507.81	55852.20
507.98	56266.48
508.16	56673.73
508.33	57205.03
508.50	57743.36
508.68	57942.30
508.85	58365.94
509.03	58459.56
509.20	58157.63
509.38	57792.51
509.55	56975.66
509.73	57015.45
509.90	57350.15
510.08	57621.65
510.25	57626.33
510.42	57378.23
510.60	57099.71
510.77	57525.69
510.95	58089.76
511.12	58246.57
511.30	58525.10
511.47	58705.32
511.64	58691.27
511.82	58581.27
511.99	57401.64
512.17	57174.61
512.34	56765.01
512.51	57198.01
512.69	56849.27
512.86	57263.55
513.04	57687.18
513.21	57631.01
513.38	57375.89
513.56	56818.84
513.73	56170.52
513.90	56423.29
514.08	56479.47
514.25	56931.19
514.43	56982.68
514.60	57183.97
514.77	57240.14
514.95	57394.62
515.12	57303.34
515.29	57523.35
515.47	57982.09
515.64	58223.17
515.81	57752.72
515.99	57279.93
516.16	55655.60
516.33	53375.92
516.51	51894.36
516.68	50887.93
516.85	50440.89
517.03	51157.09
517.20	53748.06
517.37	56116.68
517.54	57378.23
517.72	56889.06
517.89	54457.24
518.06	52093.30
518.24	52025.43
518.41	54361.28
518.58	55721.13
518.75	56104.98
518.93	56210.31
519.10	56067.53
519.27	56743.95
519.45	56711.18
519.62	57724.63
519.79	58049.97
519.96	57701.23
520.14	57104.39
520.31	56133.07
520.48	56411.59
520.65	56640.96
520.83	57780.81
521.00	58110.82
521.17	57729.31
521.34	57195.67
521.52	57729.31
521.69	58145.93
521.86	58829.37
522.03	58195.08
522.20	57050.56
522.38	56121.37
522.55	56009.02
522.72	56626.92
522.89	56818.84
523.07	56996.73
523.24	57310.36
523.41	58120.18
523.58	58377.64
523.75	59004.91
523.92	58700.64
524.10	58635.10
524.27	59028.31
524.44	58440.84
524.61	58174.02
524.78	58185.72
524.96	58078.05
525.13	58197.42
525.30	58328.49
525.47	58735.74
525.64	58719.36
525.81	58124.86
525.98	56385.85
526.16	55171.11
526.33	54464.27
526.50	53881.47
526.67	53544.44
526.84	54323.83
527.01	55414.52
527.18	56219.67
527.36	56945.23
527.53	57862.72
527.70	58183.38
527.87	57558.45
528.04	57272.91
528.21	57722.29
528.38	58354.24
528.55	58918.31
528.72	58988.52
528.89	59222.58
529.07	59011.93
529.24	58384.66
529.41	57858.04
529.58	57057.58
529.75	57160.56
529.92	57719.95
530.09	57851.02
530.26	58599.99
530.43	58841.07
530.60	58798.94
530.77	59339.60
530.94	59327.90
531.11	58862.13
531.28	58281.68
531.46	58288.70
531.63	58487.65
531.80	58124.86
531.97	57949.32
532.14	57001.41
532.31	55964.55
532.48	55671.98
532.65	55346.65
532.82	56156.47
532.99	57546.75
533.16	57764.42
533.33	58328.49
533.50	57968.05
533.67	57441.43
533.84	57212.06
534.01	57350.15
534.18	57394.62
534.35	57708.25
534.52	57420.36
534.69	57567.82
534.86	58080.39
535.03	58260.62
535.20	58688.93
535.37	59157.04
535.54	59098.53
535.71	58873.84
535.88	58478.28
536.05	57712.93
536.22	57701.23
536.38	57261.21
536.55	56790.76
536.72	56252.44
536.89	56121.37
537.06	56889.06
537.23	57961.03
537.40	58108.48
537.57	57951.66
537.74	57900.17
537.91	57851.02
538.08	57668.46
538.25	57762.08
538.42	57928.26
538.59	57797.19
538.75	57116.09
538.92	56886.72
539.09	56816.50
539.26	56622.24
539.43	56144.77
539.60	56488.83
539.77	56584.79
539.94	56425.64
540.11	55749.22
540.28	55044.72
540.44	55175.79
540.61	55559.64
540.78	55845.18
540.95	56322.65
541.12	56655.01
541.29	56839.91
541.46	57219.08
541.62	57317.38
541.79	57153.54
541.96	56554.36
542.13	56470.11
542.30	56554.36
542.47	57031.83
542.63	56818.84
542.80	56376.48
542.97	56722.88
543.14	56371.80
543.31	56516.92
543.48	57109.07
543.64	57858.04
543.81	58157.63
543.98	58117.84
544.15	57319.72
544.32	56657.35
544.48	56879.70
544.65	57284.61
544.82	57614.63
544.99	57141.84
545.16	56912.47
545.32	56537.98
545.49	57375.89
545.66	57839.32
545.83	57373.55
546.00	57183.97
546.16	56706.50
546.33	56746.29
546.50	56814.16
546.67	57375.89
546.83	57050.56
547.00	56685.43
547.17	56196.26
547.34	55587.72
547.50	55664.96
547.67	56046.47
547.84	55887.31
548.00	56371.80
548.17	56931.19
548.34	56640.96
548.51	56694.80
548.67	56680.75
548.84	56968.64
549.01	56924.17
549.18	56678.41
549.34	56662.03
549.51	56671.39
549.68	56676.07
549.84	56158.81
550.01	55971.57
550.18	56074.55
550.34	56247.75
550.51	56416.27
550.68	56315.63
550.84	55753.90
551.01	56165.84
551.18	55915.40
551.34	56088.60
551.51	56561.39
551.68	56722.88
551.84	56978.00
552.01	56320.31
552.18	56535.64
552.34	55840.50
552.51	55320.90
552.68	55072.81
552.84	55948.17
553.01	55957.53
553.18	55866.25
553.34	56004.34
553.51	56332.01
553.67	56435.00
553.84	56430.32
554.01	56371.80
554.17	56053.49
554.34	56097.96
554.51	56168.18
554.67	56622.24
554.84	56442.02
555.00	55969.23
555.17	55901.36
555.33	56004.34
555.50	55868.59
555.67	55915.40
555.83	55796.03
556.00	55297.50
556.16	55374.73
556.33	54876.20
556.50	54859.82
556.66	54930.03
556.83	54436.18
556.99	54672.57
557.16	54841.09
557.32	54962.80
557.49	55477.72
557.65	55140.68
557.82	55084.51
557.98	55033.02
558.15	54707.68
558.32	53872.11
558.48	52804.83
558.65	52989.73
558.81	53535.07
558.98	53904.88
559.14	54054.67
559.31	54113.19
559.47	54138.93
559.64	53638.06
559.80	53429.75
559.97	53432.09
560.13	53867.43
560.30	54880.88
560.46	55377.08
560.63	55711.77
560.79	55564.32
560.96	55262.39
561.12	54209.15
561.29	53069.31
561.45	53031.86
561.61	53970.41
561.78	54223.19
561.94	54082.76
562.11	54031.27
562.27	54131.91
562.44	53993.82
562.60	54740.45
562.77	54869.18
562.93	54801.30
563.10	54433.84
563.26	53914.24
563.42	53888.49
563.59	53701.25
563.75	53975.09
563.92	53881.47
564.08	53916.58
564.24	54007.86
564.41	54045.31
564.57	53862.75
564.74	53832.32
564.90	53652.10
565.07	53560.82
565.23	52989.73
565.39	52444.38
565.56	52069.90
565.72	52268.84
565.88	52378.85
566.05	52357.78
566.21	52814.19
566.38	53031.86
566.54	53111.44
566.70	53766.79
566.87	53609.97
567.03	53602.95
567.19	54066.38
567.36	53464.86
567.52	53609.97
567.68	53160.59
567.85	52526.30
568.01	52095.64
568.17	51826.48
568.34	51662.64
568.50	51824.14
568.66	52053.51
568.83	52435.02
568.99	52285.23
569.15	52617.58
569.32	52364.81
569.48	52051.17
569.64	52172.88
569.81	51845.21
569.97	51664.99
570.13	51381.78
570.30	50981.55
570.46	50609.40
570.62	49881.50
570.78	49705.96
570.95	50211.51
571.11	51007.29
571.27	51166.45
571.43	51133.68
571.60	51812.44
571.76	51938.83
571.92	52252.46
572.09	52523.96
572.25	52250.12
572.41	52329.70
572.57	51969.26
572.74	51887.34
572.90	51353.69
573.06	51407.53
573.22	51770.31
573.38	52076.92
573.55	51899.04
573.71	51875.63
573.87	51917.76
574.03	51416.89
574.20	51604.13
574.36	51143.05
574.52	51346.67
574.68	50681.96
574.84	50342.58
575.01	49771.49
575.17	49624.04
575.33	49808.94
575.49	50546.21
575.65	50724.09
575.82	50169.38
575.98	50188.11
576.14	49890.86
576.30	50866.86
576.46	50869.20
576.62	50546.21
576.79	50988.57
576.95	50202.15
577.11	50578.98
577.27	50239.60
577.43	50642.17
577.59	50035.97
577.75	49429.77
577.92	48713.57
578.08	48491.22
578.24	48575.48
578.40	49017.84
578.56	49076.35
578.72	49408.71
578.88	49621.70
579.04	49848.73
579.21	49595.95
579.37	50057.04
579.53	50026.61
579.69	49708.30
579.85	50092.15
580.01	49813.62
580.17	49457.86
580.33	49209.76
580.49	49528.08
580.65	49874.48
580.82	49869.79
580.98	50019.59
581.14	49471.90
581.30	50019.59
581.46	49698.94
581.62	49762.13
581.78	49996.18
581.94	50150.66
582.10	49808.94
582.26	50368.33
582.42	50244.28
582.58	50204.49
582.74	49996.18
582.90	49691.91
583.06	49879.16
583.22	49682.55
583.38	49523.40
583.54	49705.96
583.70	49656.81
583.86	49443.82
584.02	49521.05
584.18	49907.24
584.34	49830.01
584.50	49586.59
584.66	48980.39
584.82	48774.42
584.98	48687.82
585.14	48472.49
585.30	47267.12
