SpectraSuite Data File
++++++++++++++++++++++++++++++++++++
Date: Mon Oct 07 14:55:02 GMT-05:00 2013
User: price-jones
Dark Spectrum Present: No
Reference Spectrum Present: No
Number of Sampled Component Spectra: 1
Spectrometers: USB2+H05261
Integration Time (usec): 10000 (USB2+H05261)
Spectra Averaged: 1 (USB2+H05261)
Boxcar Smoothing: 0 (USB2+H05261)
Correct for Electrical Dark: No (USB2+H05261)
Strobe/Lamp Enabled: No (USB2+H05261)
Correct for Detector Non-linearity: No (USB2+H05261)
Correct for Stray Light: No (USB2+H05261)
Number of Pixels in Processed Spectrum: 2048
>>>>>Begin Processed Spectral Data<<<<<
365.73	0.00
365.92	0.00
366.12	0.00
366.32	0.00
366.52	0.00
366.72	0.00
366.91	0.00
367.11	0.00
367.31	0.00
367.51	0.00
367.70	0.00
367.90	0.00
368.10	0.00
368.30	0.00
368.49	0.00
368.69	0.00
368.89	0.00
369.09	0.00
369.28	0.00
369.48	0.00
369.68	0.00
369.87	0.00
370.07	0.00
370.27	0.00
370.47	407.25
370.66	2499.69
370.86	3021.63
371.06	3178.45
371.25	3157.38
371.45	2684.59
371.65	2417.77
371.84	2459.90
372.04	2656.51
372.24	2906.95
372.44	3162.06
372.63	2878.86
372.83	2492.67
373.03	2415.43
373.22	2204.78
373.42	2445.86
373.62	2825.03
373.81	2977.16
374.01	2801.62
374.21	2490.33
374.40	2459.90
374.60	2780.56
374.79	3117.59
374.99	3543.57
375.19	3672.30
375.38	3620.81
375.58	3405.48
375.78	3384.41
375.97	3447.61
376.17	3590.38
376.37	3639.53
376.56	3712.09
376.76	4014.02
376.95	4086.58
377.15	4418.93
377.35	4531.28
377.54	4894.06
377.74	4933.85
377.93	4978.32
378.13	4603.83
378.33	4451.70
378.52	4102.96
378.72	3962.53
378.91	3852.52
379.11	3705.07
379.31	3616.13
379.50	3819.75
379.70	4004.66
379.89	4451.70
380.09	4454.04
380.28	4840.23
380.48	4788.74
380.68	4737.24
380.87	4538.30
381.07	4133.39
381.26	3672.30
381.46	3662.94
381.65	3428.88
381.85	3445.27
382.04	3304.84
382.24	2988.86
382.43	2956.10
382.63	2801.62
382.83	2827.37
383.02	2820.35
383.22	2944.39
383.41	2895.24
383.61	3183.13
383.80	3653.58
384.00	4088.92
384.19	4685.75
384.39	4725.54
384.58	4727.88
384.78	4430.63
384.97	4594.47
385.17	4367.44
385.36	4109.98
385.56	3957.85
385.75	4259.78
385.95	4681.07
386.14	4973.64
386.34	4933.85
386.53	4566.39
386.72	4294.88
386.92	4585.11
387.11	4926.83
387.31	4777.03
387.50	4863.63
387.70	4528.94
387.89	4638.94
388.09	4805.12
388.28	4727.88
388.48	4844.91
388.67	5406.64
388.86	5837.30
389.06	6033.90
389.25	6719.68
389.45	6593.29
389.64	6434.13
389.84	6202.42
390.03	6305.40
390.22	6499.67
390.42	6808.62
390.61	7019.27
390.81	7508.44
391.00	7634.83
391.19	7585.68
391.39	6939.69
391.58	6761.81
391.78	6527.75
391.97	6129.86
392.16	5633.67
392.36	5078.96
392.55	3896.99
392.75	3108.23
392.94	2710.34
393.13	2855.45
393.33	3513.14
393.52	4432.97
393.71	5233.44
393.91	5867.72
394.10	6450.52
394.29	7183.10
394.49	7585.68
394.68	7934.42
394.88	7955.48
395.07	8236.35
395.26	8154.43
395.46	7861.86
395.65	7180.76
395.84	6258.59
396.04	5081.30
396.23	4222.33
396.42	3665.28
396.62	3747.20
396.81	4550.00
397.00	5734.31
397.19	7293.11
397.39	8379.12
397.58	9305.97
397.77	9825.57
397.97	10242.18
398.16	10286.65
398.35	10607.31
398.55	10881.15
398.74	11428.84
398.93	11548.20
399.12	11211.17
399.32	10710.29
399.51	11391.39
399.70	12063.12
399.90	11847.79
400.09	11770.55
400.28	11506.07
400.47	11995.25
400.67	12514.84
400.86	12814.43
401.05	12631.87
401.24	12821.45
401.44	12854.22
401.63	13083.59
401.82	12996.99
402.01	13025.08
402.21	13511.91
402.40	13514.25
402.59	12755.92
402.78	12196.53
402.97	12060.78
403.17	12723.15
403.36	13558.72
403.55	13942.57
403.74	13750.65
403.93	12989.97
404.13	12023.33
404.32	12091.21
404.51	12877.63
404.70	13617.24
404.89	13610.22
405.09	13214.66
405.28	13050.83
405.47	12945.50
405.66	13158.49
405.85	12720.81
406.05	12402.50
406.24	12718.47
406.43	13247.43
406.62	13425.31
406.81	13490.85
407.00	13252.11
407.20	12774.64
407.39	12971.25
407.58	13886.40
407.77	14185.99
407.96	14642.39
408.15	15215.82
408.34	15225.18
408.54	15529.45
408.73	15585.63
408.92	15187.74
409.11	14719.63
409.30	13958.96
409.49	13123.38
409.68	12351.01
409.87	12638.89
410.07	13121.04
410.26	14047.90
410.45	14895.17
410.64	15054.33
410.83	15829.04
411.02	16093.52
411.21	16475.03
411.40	16187.14
411.59	16528.86
411.78	16161.40
411.98	16425.88
412.17	16189.49
412.36	16063.10
412.55	16149.70
412.74	15864.15
412.93	15524.77
413.12	15971.82
413.31	17481.46
413.50	17619.55
413.69	17888.71
413.88	16718.45
414.07	16643.55
414.26	17291.88
414.45	17525.93
414.64	17214.64
414.83	17118.68
415.02	17268.47
415.22	17163.15
415.41	17848.93
415.60	18305.33
415.79	18682.16
415.98	18958.34
416.17	18981.74
416.36	18710.24
416.55	18424.70
416.74	17584.44
416.93	17160.81
417.12	17532.95
417.31	17415.93
417.50	17806.80
417.69	18310.01
417.88	18068.94
418.07	18251.50
418.26	18150.85
418.45	18394.27
418.64	19140.90
418.83	19859.45
419.02	19187.71
419.21	18738.33
419.39	18097.02
419.58	17631.26
419.77	17666.36
419.96	19014.51
420.15	19339.85
420.34	20255.00
420.53	20601.40
420.72	20786.30
420.91	20680.97
421.10	20304.15
421.29	20346.28
421.48	19733.06
421.67	20533.52
421.86	19433.47
422.05	17792.75
422.24	16629.51
422.43	17378.48
422.61	19271.97
422.80	19866.47
422.99	19316.44
423.18	18534.70
423.37	19044.94
423.56	19257.93
423.75	19541.13
423.94	19761.14
424.13	18766.42
424.32	18731.31
424.50	18604.92
424.69	18750.03
424.88	19129.20
425.07	18761.73
425.26	18616.62
425.45	17867.65
425.64	18024.47
425.83	18609.60
426.01	19208.78
426.20	19377.30
426.39	19096.43
426.58	17970.63
426.77	16671.64
426.96	16692.70
427.15	17242.73
427.33	18871.74
427.52	18799.18
427.71	19126.86
427.90	18853.02
428.09	18775.78
428.28	18059.57
428.46	17135.06
428.65	17336.35
428.84	17980.00
429.03	17867.65
429.22	16931.44
429.40	15665.21
429.59	14108.75
429.78	13050.83
429.97	13193.60
430.16	13186.58
430.34	13167.85
430.53	13762.35
430.72	14413.02
430.91	16142.67
431.10	18871.74
431.28	21546.97
431.47	22820.22
431.66	22614.26
431.85	19789.23
432.03	18457.46
432.22	18506.62
432.41	19655.82
432.60	21200.57
432.79	22015.08
432.97	22544.04
433.16	21488.46
433.35	19412.40
433.54	17422.95
433.72	17062.51
433.91	17853.61
434.10	20257.34
434.28	21479.10
434.47	22530.00
434.66	21116.31
434.85	21055.46
435.03	21432.29
435.22	21809.11
435.41	22721.92
435.59	23159.60
435.78	23503.66
435.97	24074.75
436.16	24278.38
436.34	23527.06
436.53	23119.81
436.72	23365.57
436.90	22174.24
437.09	21994.01
437.28	21884.01
437.46	22600.21
437.65	21937.84
437.84	20238.61
438.02	19314.10
438.21	19784.55
438.40	20154.35
438.58	21329.30
438.77	22317.01
438.96	22443.40
439.14	23730.69
439.33	24077.09
439.52	24603.71
439.70	23576.22
439.89	22740.64
440.08	22363.82
440.26	22471.48
440.45	23424.08
440.63	25413.54
440.82	26359.11
441.01	25472.05
441.19	25783.34
441.38	26562.74
441.57	27295.33
441.75	27316.39
441.94	27756.41
442.12	27220.43
442.31	27943.66
442.50	27828.97
442.68	27117.45
442.87	27421.72
443.05	26668.06
443.24	27637.05
443.43	27922.59
443.61	28236.22
443.80	29034.35
443.98	27520.02
444.17	26829.56
444.35	28329.84
444.54	29872.26
444.73	28503.04
444.91	27005.10
445.10	26085.27
445.28	25333.96
445.47	25408.86
445.65	25172.46
445.84	26284.22
446.02	26787.43
446.21	27377.25
446.39	27569.17
446.58	27763.43
446.77	28545.17
446.95	28254.95
447.14	29535.22
447.32	29575.01
447.51	29160.73
447.69	27845.35
447.88	27934.29
448.06	28718.37
448.25	28510.07
448.43	28479.64
448.62	28327.50
448.80	28343.89
448.99	27882.80
449.17	28786.25
449.36	29041.37
449.54	29738.85
449.73	30213.98
449.91	30480.80
450.10	31054.23
450.28	31391.26
450.46	31686.17
450.65	32025.55
450.83	31234.45
451.02	30576.76
451.20	30705.49
451.39	30558.03
451.57	30909.11
451.76	30551.01
451.94	29675.65
452.13	29067.11
452.31	27613.64
452.49	26899.78
452.68	27131.49
452.86	27452.14
453.05	28067.70
453.23	29380.74
453.42	29834.81
453.60	30333.34
453.78	30010.35
453.97	29675.65
454.15	29867.58
454.34	28533.47
454.52	28886.89
454.70	28425.81
454.89	29411.17
455.07	29387.77
455.26	29619.48
455.44	30644.63
455.62	31606.59
455.81	31105.72
455.99	31360.84
456.17	31646.38
456.36	32203.43
456.54	32149.60
456.73	31491.91
456.91	32521.74
457.09	32285.35
457.28	33500.09
457.46	31791.50
457.64	31159.55
457.83	30740.60
458.01	30150.78
458.19	31360.84
458.38	32336.84
458.56	32442.17
458.74	32140.24
458.93	31234.45
459.11	30937.20
459.29	30586.12
459.48	31761.07
459.66	31346.79
459.84	31136.15
460.03	32170.66
460.21	32418.76
460.39	32559.19
460.57	32744.09
460.76	32512.38
460.94	32900.91
461.12	33216.88
461.31	32713.67
461.49	32900.91
461.67	33078.79
461.85	33507.11
462.04	33174.75
462.22	33598.39
462.40	33717.76
462.59	33359.66
462.77	33656.90
462.95	33001.55
463.13	32914.95
463.32	32634.09
463.50	32222.16
463.68	33008.58
463.86	33193.48
464.05	32041.93
464.23	31435.74
464.41	31721.28
464.59	31597.23
464.78	32835.38
464.96	32634.09
465.14	32039.59
465.32	33362.00
465.50	34258.42
465.69	34513.54
465.87	33577.33
466.05	32580.26
466.23	30796.77
466.41	30885.71
466.60	31934.27
466.78	31470.84
466.96	31735.32
467.14	32765.16
467.32	32573.24
467.51	32547.49
467.69	31299.98
467.87	32154.28
468.05	32985.17
468.23	33024.96
468.41	32325.14
468.60	32903.25
468.78	33687.33
468.96	32898.57
469.14	33064.75
469.32	33464.98
469.50	31901.50
469.69	32203.43
469.87	32126.19
470.05	31819.58
470.23	31337.43
470.41	32357.91
470.59	32400.04
470.77	32283.01
470.95	33434.55
471.14	34031.39
471.32	33886.28
471.50	35597.21
471.68	35491.88
471.86	36411.71
472.04	35072.93
472.22	35880.41
472.40	34246.72
472.58	34326.30
472.77	33818.40
472.95	34433.96
473.13	35496.56
473.31	33865.21
473.49	33881.60
473.67	35377.20
473.85	35637.00
474.03	37003.87
474.21	37589.00
474.39	37284.73
474.57	37364.31
474.75	37092.81
474.93	36804.92
475.12	35810.20
475.30	36175.32
475.48	35161.87
475.66	35505.93
475.84	35407.62
476.02	35761.05
476.20	35070.59
476.38	36428.10
476.56	37469.64
476.74	38309.89
476.92	38007.96
477.10	38455.00
477.28	39119.71
477.46	39056.52
477.64	40128.48
477.82	40463.18
478.00	40072.31
478.18	39103.33
478.36	38955.88
478.54	39679.10
478.72	39409.94
478.90	41839.42
479.08	43234.38
479.26	42387.10
479.44	42923.08
479.62	41408.76
479.80	42782.65
479.98	42384.76
480.16	43250.76
480.34	42543.92
480.52	43681.42
480.70	43325.66
480.88	43014.37
481.06	43934.20
481.24	44009.09
481.41	45057.65
481.59	45745.77
481.77	44318.04
481.95	44083.99
482.13	43915.47
482.31	44591.89
482.49	45186.38
482.67	44772.11
482.85	44847.00
483.03	44903.18
483.21	46328.56
483.39	45174.68
483.57	45301.07
483.74	45228.51
483.92	46188.13
484.10	45738.75
484.28	45834.71
484.46	45551.51
484.64	47445.00
484.82	46658.58
485.00	45874.50
485.18	44753.38
485.35	43323.32
485.53	38089.88
485.71	35903.82
485.89	36187.02
486.07	39112.69
486.25	42206.88
486.43	44011.43
486.61	44119.10
486.78	43995.05
486.96	45476.61
487.14	47007.32
487.32	47466.06
487.50	48212.70
487.68	49815.96
487.85	50836.44
488.03	49448.50
488.21	49233.17
488.39	48835.28
488.57	47625.22
488.75	47742.25
488.92	49331.47
489.10	51138.36
489.28	52158.84
489.46	53717.64
489.64	53066.97
489.81	53380.60
489.99	52315.65
490.17	52734.61
490.35	52718.23
490.53	52465.45
490.70	51805.42
490.88	51791.37
491.06	53102.07
491.24	53476.56
491.41	51917.76
491.59	49982.14
491.77	50522.80
491.95	51877.97
492.13	53097.39
492.30	53921.26
492.48	54443.20
492.66	54981.52
492.84	54653.85
493.01	54171.70
493.19	54225.53
493.37	53453.15
493.54	54059.35
493.72	54871.52
493.90	55199.19
494.08	55384.10
494.25	55627.51
494.43	56083.92
494.61	56638.62
494.79	56615.22
494.96	56928.85
495.14	56364.78
495.32	55014.29
495.49	55320.90
495.67	56196.26
495.85	56924.17
496.02	57614.63
496.20	57322.06
496.38	56814.16
496.55	56769.69
496.73	57616.97
496.91	57535.05
497.09	57366.53
497.26	57879.11
497.44	57308.02
497.62	56458.40
497.79	55473.04
497.97	54548.53
498.14	55863.91
498.32	56919.49
498.50	56844.59
498.67	56851.61
498.85	57174.61
499.03	57750.38
499.20	58190.40
499.38	57478.88
499.56	57106.73
499.73	56619.90
499.91	56453.72
500.08	55870.93
500.26	55444.95
500.44	56294.56
500.61	56708.84
500.79	56413.93
500.97	56697.14
501.14	55456.65
501.32	55330.26
501.49	55629.85
501.67	56137.75
501.84	56502.87
502.02	56891.40
502.20	57818.25
502.37	57806.55
502.55	57635.69
502.72	57916.56
502.90	58546.16
503.07	58262.96
503.25	57001.41
503.43	56278.18
503.60	56006.68
503.78	55669.64
503.95	56020.72
504.13	57635.69
504.30	57670.80
504.48	57408.66
504.65	57411.00
504.83	57525.69
505.01	58234.87
505.18	58803.62
505.36	58876.18
505.53	59175.76
505.71	59105.55
505.88	59395.77
506.06	58663.19
506.23	58700.64
506.41	58459.56
506.58	58585.95
506.76	58616.38
506.93	57935.28
507.11	57771.44
507.28	58159.97
507.46	57621.65
507.63	57701.23
507.81	56750.97
507.98	57394.62
508.16	58623.40
508.33	58466.58
508.50	58967.46
508.68	59330.24
508.85	59473.01
509.03	59674.30
509.20	59025.97
509.38	58038.26
509.55	57834.64
509.73	58089.76
509.90	58599.99
510.08	58911.28
510.25	58089.76
510.42	58209.12
510.60	58752.13
510.77	59206.19
510.95	59157.04
511.12	59269.39
511.30	59746.86
511.47	59966.87
511.64	59702.38
511.82	60037.08
511.99	58688.93
512.17	58887.88
512.34	58515.73
512.51	58344.87
512.69	58934.69
512.86	58763.83
513.04	58913.62
513.21	58480.63
513.38	57469.51
513.56	57385.25
513.73	56821.19
513.90	57879.11
514.08	58061.67
514.25	57432.07
514.43	58078.05
514.60	58349.56
514.77	58410.41
514.95	58749.79
515.12	58377.64
515.29	59051.72
515.47	59339.60
515.64	59189.81
515.81	59014.27
515.99	58106.14
516.16	56037.11
516.33	53837.00
516.51	53804.24
516.68	52303.95
516.85	51774.99
517.03	53570.18
517.20	55964.55
517.37	57923.58
517.54	58735.74
517.72	57219.08
517.89	54459.58
518.06	53326.77
518.24	54712.36
518.41	56582.45
518.58	57120.77
518.75	57111.41
518.93	57560.79
519.10	56598.83
519.27	57930.60
519.45	58365.94
519.62	58850.43
519.79	59091.51
519.96	58195.08
520.14	58230.19
520.31	56994.39
520.48	57532.71
520.65	58342.53
520.83	58958.09
521.00	59051.72
521.17	58599.99
521.34	58599.99
521.52	59110.23
521.69	59157.04
521.86	59611.10
522.03	59381.73
522.20	57701.23
522.38	57509.30
522.55	57984.43
522.72	58515.73
522.89	57921.24
523.07	58319.13
523.24	59100.87
523.41	60027.72
523.58	60308.58
523.75	60331.99
523.92	59901.33
524.10	59657.91
524.27	59332.58
524.44	59325.56
524.61	59025.97
524.78	59430.88
524.96	59430.88
525.13	59440.24
525.30	59908.35
525.47	60114.32
525.64	59962.18
525.81	59135.98
525.98	57326.74
526.16	56207.97
526.33	56264.14
526.50	55681.34
526.67	55842.84
526.84	56149.45
527.01	57205.03
527.18	57794.85
527.36	58670.21
527.53	59898.99
527.70	58976.82
527.87	57347.81
528.04	58784.90
528.21	59306.83
528.38	59966.87
528.55	60683.07
528.72	60460.72
528.89	60037.08
529.07	59709.41
529.24	58539.14
529.41	58527.44
529.58	58436.16
529.75	59187.47
529.92	59531.53
530.09	59407.48
530.26	59957.50
530.43	60753.29
530.60	59655.57
530.77	60074.53
530.94	60535.62
531.11	59686.00
531.28	59868.56
531.46	59852.18
531.63	59786.64
531.80	59051.72
531.97	58555.52
532.14	58787.24
532.31	57364.19
532.48	56912.47
532.65	56910.13
532.82	57666.12
532.99	59199.17
533.16	59367.69
533.33	59262.36
533.50	59489.40
533.67	59480.03
533.84	58658.51
534.01	58993.20
534.18	59348.96
534.35	58953.41
534.52	58195.08
534.69	58932.35
534.86	59290.45
535.03	59739.83
535.20	59554.93
535.37	60324.97
535.54	60563.70
535.71	60278.16
535.88	60732.22
536.05	59260.02
536.22	58738.08
536.38	58492.33
536.55	57448.45
536.72	57396.96
536.89	58176.36
537.06	58316.79
537.23	58859.79
537.40	58981.50
537.57	58522.76
537.74	59215.55
537.91	59072.78
538.08	58883.20
538.25	58672.55
538.42	59423.86
538.59	58918.31
538.75	58033.58
538.92	57549.09
539.09	57914.22
539.26	57776.12
539.43	57710.59
539.60	58099.12
539.77	58585.95
539.94	58155.29
540.11	57375.89
540.28	57162.90
540.44	56608.20
540.61	56807.14
540.78	57382.91
540.95	58319.13
541.12	58202.10
541.29	58845.75
541.46	58904.26
541.62	58780.21
541.79	58014.86
541.96	57406.32
542.13	57317.38
542.30	57797.19
542.47	58265.30
542.63	58136.57
542.80	57867.40
542.97	57523.35
543.14	57277.59
543.31	57396.96
543.48	58459.56
543.64	59112.57
543.81	60102.62
543.98	59620.47
544.15	57961.03
544.32	58644.46
544.48	58155.29
544.65	58433.81
544.82	58885.54
544.99	57371.21
545.16	57080.98
545.32	57242.48
545.49	58064.01
545.66	58199.76
545.83	58024.22
546.00	58164.65
546.16	58328.49
546.33	58384.66
546.50	58326.15
546.67	58710.00
546.83	57799.53
547.00	58557.86
547.17	57069.28
547.34	56294.56
547.50	56701.82
547.67	57661.44
547.84	58302.74
548.00	58169.33
548.17	58073.37
548.34	58099.12
548.51	58368.28
548.67	58876.18
548.84	58555.52
549.01	58602.33
549.18	58007.84
549.34	58080.39
549.51	58195.08
549.68	58136.57
549.84	57808.89
550.01	57450.79
550.18	56999.07
550.34	57216.74
550.51	57785.49
550.68	58127.20
550.84	57977.41
551.01	56877.36
551.18	57102.05
551.34	56516.92
551.51	58068.69
551.68	57780.81
551.84	57645.05
552.01	57614.63
552.18	57425.04
552.34	56739.27
552.51	56678.41
552.68	56395.21
552.84	56678.41
553.01	56975.66
553.18	57818.25
553.34	57855.70
553.51	57701.23
553.67	57315.04
553.84	56970.98
554.01	57703.57
554.17	56935.87
554.34	57668.46
554.51	57331.42
554.67	56741.61
554.84	56664.37
555.00	56952.26
555.17	56708.84
555.33	56549.68
555.50	55896.67
555.67	56921.83
555.83	57017.79
556.00	56512.23
556.16	56081.58
556.33	55910.72
556.50	56324.99
556.66	56683.09
556.83	56238.39
556.99	55707.09
557.16	55863.91
557.32	55959.87
557.49	56034.77
557.65	55938.80
557.82	56399.89
557.98	56662.03
558.15	55554.96
558.32	55047.06
558.48	54216.17
558.65	54202.13
558.81	54906.63
558.98	55449.63
559.14	55725.81
559.31	55473.04
559.47	55025.99
559.64	54784.92
559.80	54480.65
559.97	55569.00
560.13	56280.52
560.30	57106.73
560.46	57258.87
560.63	57785.49
560.79	57305.68
560.96	56849.27
561.12	55496.44
561.29	54962.80
561.45	54843.43
561.61	56329.67
561.78	55683.69
561.94	56271.16
562.11	56460.74
562.27	55105.57
562.44	56140.09
562.60	56357.76
562.77	56545.00
562.93	55360.69
563.10	55227.28
563.26	55393.46
563.42	55882.63
563.59	55222.60
563.75	55009.61
563.92	55358.35
564.08	54480.65
564.24	55444.95
564.41	54904.29
564.57	56140.09
564.74	55475.38
564.90	54574.27
565.07	54941.74
565.23	53654.44
565.39	53975.09
565.56	53963.39
565.72	54108.50
565.88	53003.77
566.05	54995.57
566.21	55566.66
566.38	54972.16
566.54	54855.14
566.70	55444.95
566.87	55075.15
567.03	54440.86
567.19	55917.74
567.36	56114.34
567.52	54700.66
567.68	54623.42
567.85	53670.82
568.01	53532.73
568.17	54141.27
568.34	54593.00
568.50	54042.97
568.66	54225.53
568.83	53350.17
568.99	53017.82
569.15	53607.63
569.32	54026.59
569.48	53801.89
569.64	53326.77
569.81	53401.66
569.97	52914.83
570.13	52605.88
570.30	52320.34
570.46	51667.33
570.62	50415.14
570.78	50857.50
570.95	52046.49
571.11	51873.29
571.27	51470.72
571.43	51887.34
571.60	51503.49
571.76	52879.72
571.92	53223.78
572.09	53858.07
572.25	53853.39
572.41	54529.80
572.57	54143.61
572.74	54209.15
572.90	55107.91
573.06	54321.49
573.22	54033.61
573.38	53923.60
573.55	55110.25
573.71	53691.89
573.87	53853.39
574.03	53848.71
574.20	53401.66
574.36	53378.26
574.52	52692.48
574.68	52299.27
574.84	51894.36
575.01	51735.20
575.17	52680.78
575.33	52521.62
575.49	52690.14
575.65	51758.61
575.82	52261.82
575.98	51416.89
576.14	52746.31
576.30	53200.38
576.46	51903.72
576.62	52076.92
576.79	52177.56
576.95	52004.36
577.11	52388.21
577.27	52341.40
577.43	52758.02
577.59	51351.35
577.75	50525.14
577.92	50567.27
578.08	51208.58
578.24	51686.05
578.40	51536.26
578.56	50754.52
578.72	51009.64
578.88	50878.57
579.04	51440.29
579.21	50824.73
579.37	51297.52
579.53	51686.05
579.69	51093.89
579.85	51100.92
580.01	51262.41
580.17	50791.97
580.33	51765.63
580.49	51910.74
580.65	50143.64
580.82	50581.32
580.98	51707.12
581.14	52032.45
581.30	51615.83
581.46	51302.20
581.62	51459.02
581.78	52144.80
581.94	52088.62
582.10	52861.00
582.26	52467.79
582.42	52353.10
582.58	50806.01
582.74	50574.30
582.90	50906.65
583.06	51000.27
583.22	51655.62
583.38	51356.03
583.54	51887.34
583.70	52165.86
583.86	51540.94
584.02	51100.92
584.18	51136.02
584.34	50061.72
584.50	49715.32
584.66	49998.52
584.82	50504.08
584.98	50635.15
585.14	50298.11
585.30	50167.04
