SpectraSuite Data File
++++++++++++++++++++++++++++++++++++
Date: Mon Oct 07 14:53:50 GMT-05:00 2013
User: price-jones
Dark Spectrum Present: No
Reference Spectrum Present: No
Number of Sampled Component Spectra: 1
Spectrometers: USB2+H05261
Integration Time (usec): 100000 (USB2+H05261)
Spectra Averaged: 1 (USB2+H05261)
Boxcar Smoothing: 0 (USB2+H05261)
Correct for Electrical Dark: No (USB2+H05261)
Strobe/Lamp Enabled: No (USB2+H05261)
Correct for Detector Non-linearity: No (USB2+H05261)
Correct for Stray Light: No (USB2+H05261)
Number of Pixels in Processed Spectrum: 2048
>>>>>Begin Processed Spectral Data<<<<<
365.73	0.00
365.92	0.00
366.12	0.00
366.32	0.00
366.52	0.00
366.72	0.00
366.91	0.00
367.11	0.00
367.31	0.00
367.51	0.00
367.70	0.00
367.90	0.00
368.10	0.00
368.30	0.00
368.49	0.00
368.69	0.00
368.89	0.00
369.09	0.00
369.28	0.00
369.48	0.00
369.68	0.00
369.87	0.00
370.07	0.00
370.27	0.00
370.47	566.41
370.66	2911.63
370.86	3562.30
371.06	4002.32
371.25	4117.00
371.45	3475.70
371.65	3272.07
371.84	2935.03
372.04	3220.58
372.24	3630.17
372.44	3854.86
372.63	3815.07
372.83	3478.04
373.03	3084.83
373.22	2827.37
373.42	2958.44
373.62	3335.26
373.81	3756.56
374.01	3651.24
374.21	3353.99
374.40	3061.42
374.60	3166.74
374.79	3606.77
374.99	4173.18
375.19	4519.57
375.38	4421.27
375.58	4177.86
375.78	4161.47
375.97	4208.28
376.17	4458.72
376.37	4346.37
376.56	4482.13
376.76	4699.80
376.95	5165.56
377.15	5481.53
377.35	5713.25
377.54	5860.70
377.74	5912.19
377.93	6012.84
378.13	6125.18
378.33	5680.48
378.52	5174.92
378.72	5011.09
378.91	4903.42
379.11	4837.89
379.31	4486.81
379.50	4503.19
379.70	4837.89
379.89	5268.55
380.09	5533.03
380.28	6015.18
380.48	6038.58
380.68	5675.80
380.87	5778.78
381.07	5261.52
381.26	4905.76
381.46	4458.72
381.65	4318.29
381.85	4250.41
382.04	4070.19
382.24	3801.03
382.43	3538.89
382.63	3485.06
382.83	3508.46
383.02	3646.55
383.22	3482.72
383.41	3538.89
383.61	3889.97
383.80	4383.82
384.00	4901.08
384.19	5792.83
384.39	5916.87
384.58	5930.92
384.78	5771.76
384.97	5650.05
385.17	5334.08
385.36	4980.66
385.56	4800.44
385.75	4999.38
385.95	5617.29
386.14	5947.30
386.34	5860.70
386.53	5769.42
386.72	5444.09
386.92	5607.92
387.11	5769.42
387.31	6010.50
387.50	5729.63
387.70	5781.12
387.89	5607.92
388.09	5710.91
388.28	5776.44
388.48	5792.83
388.67	6150.93
388.86	6820.32
389.06	7372.69
389.25	7768.24
389.45	7758.88
389.64	7999.95
389.84	7606.74
390.03	7522.48
390.22	7468.65
390.42	7950.80
390.61	8379.12
390.81	8931.48
391.00	9055.53
391.19	9001.70
391.39	8671.68
391.58	8145.06
391.78	7831.43
391.97	7428.86
392.16	7016.93
392.36	6274.98
392.55	5034.49
392.75	3974.23
392.94	3309.52
393.13	3274.41
393.33	3908.69
393.52	5043.85
393.71	5994.11
393.91	6869.47
394.10	7379.71
394.29	8072.51
394.49	8730.20
394.68	9202.99
394.88	9479.17
395.07	9778.76
395.26	9593.86
395.46	9607.90
395.65	8748.92
395.84	7878.24
396.04	6586.27
396.23	5521.32
396.42	4437.66
396.62	4365.10
396.81	4945.55
397.00	6384.98
397.19	8119.32
397.39	9458.10
397.58	10736.04
397.77	11616.08
397.97	11662.89
398.16	12018.65
398.35	12475.06
398.55	12835.50
398.74	13001.68
398.93	13385.52
399.12	13437.02
399.32	12943.16
399.51	13041.46
399.70	13907.46
399.90	13886.40
400.09	14019.81
400.28	13825.54
400.47	13781.07
400.67	14581.54
400.86	14965.39
401.05	14906.87
401.24	14892.83
401.44	15103.48
401.63	15190.08
401.82	15438.17
402.01	15262.63
402.21	15573.92
402.40	15754.15
402.59	15161.99
402.78	14326.42
402.97	14087.68
403.17	14485.58
403.36	15400.72
403.55	16147.36
403.74	16355.66
403.93	15515.41
404.13	14146.20
404.32	13973.00
404.51	14705.59
404.70	15576.27
404.89	15941.39
405.09	15899.26
405.28	15026.24
405.47	14984.11
405.66	15091.77
405.85	14855.38
406.05	14237.48
406.24	14534.73
406.43	15012.20
406.62	15529.45
406.81	15882.88
407.00	15098.80
407.20	15009.86
407.39	14963.04
407.58	15351.57
407.77	16369.71
407.96	16863.56
408.15	16762.92
408.34	16943.14
408.54	17769.35
408.73	17783.39
408.92	17603.17
409.11	17561.04
409.30	16292.47
409.49	15382.00
409.68	14317.06
409.87	13816.18
410.07	14513.66
410.26	15704.99
410.45	17231.02
410.64	17104.64
410.83	17930.84
411.02	18523.00
411.21	19215.80
411.40	18831.95
411.59	19019.19
411.78	18511.30
411.98	18565.13
412.17	18897.49
412.36	18567.47
412.55	18691.52
412.74	18188.30
412.93	17532.95
413.12	18061.91
413.31	19489.64
413.50	19850.08
413.69	19948.39
413.88	19154.94
414.07	18579.17
414.26	19035.58
414.45	19941.36
414.64	19852.42
414.83	19924.98
415.02	19461.55
415.22	19381.98
415.41	19847.74
415.60	20503.09
415.79	21422.92
415.98	21640.59
416.17	21652.30
416.36	21181.85
416.55	20922.05
416.74	20425.86
416.93	19215.80
417.12	19592.62
417.31	20009.24
417.50	20067.75
417.69	20903.32
417.88	20809.70
418.07	20554.58
418.26	20233.93
418.45	20339.26
418.64	21074.18
418.83	21961.25
419.02	21626.55
419.21	21390.16
419.39	20601.40
419.58	19531.77
419.77	19538.79
419.96	20404.79
420.15	21528.25
420.34	22223.39
420.53	23009.81
420.72	23157.26
420.91	23253.22
421.10	22845.97
421.29	22530.00
421.48	21841.88
421.67	23002.78
421.86	22342.75
422.05	21015.67
422.24	18860.04
422.43	18551.09
422.61	20559.27
422.80	22178.92
422.99	22167.21
423.18	21280.15
423.37	20893.96
423.56	20847.15
423.75	21324.62
423.94	21881.67
424.13	20313.51
424.32	21090.57
424.50	21001.63
424.69	20444.58
424.88	20893.96
425.07	20467.98
425.26	20858.85
425.45	20655.23
425.64	20121.59
425.83	20229.25
426.01	21240.36
426.20	21516.54
426.39	21469.73
426.58	19910.94
426.77	18441.08
426.96	17858.29
427.15	18647.05
427.33	20039.67
427.52	20751.19
427.71	21179.51
427.90	20479.69
428.09	20524.16
428.28	20060.73
428.46	19709.65
428.65	18930.25
428.84	19606.67
429.03	19660.50
429.22	18836.63
429.40	18118.09
429.59	16145.02
429.78	14434.08
429.97	14558.13
430.16	14707.93
430.34	14410.68
430.53	14469.19
430.72	15028.58
430.91	16545.25
431.10	19520.07
431.28	22682.13
431.47	24449.24
431.66	24807.34
431.85	22796.82
432.03	20800.34
432.22	19704.97
432.41	20666.93
432.60	23000.44
432.79	23754.10
432.97	24659.88
433.16	24037.30
433.35	22015.08
433.54	19653.48
433.72	18548.75
433.91	18843.65
434.10	21394.84
434.28	22963.00
434.47	23917.93
434.66	23777.50
434.85	22953.63
435.03	22939.59
435.22	23723.67
435.41	25142.03
435.59	25326.94
435.78	25598.44
435.97	25542.27
436.16	26518.27
436.34	25874.62
436.53	25060.12
436.72	25298.85
436.90	24175.39
437.09	23866.44
437.28	23564.51
437.46	24474.98
437.65	24264.33
437.84	22665.75
438.02	21081.21
438.21	20709.06
438.40	21855.92
438.58	23435.78
438.77	24238.59
438.96	24470.30
439.14	25261.40
439.33	26143.78
439.52	26300.60
439.70	26134.42
439.89	25596.10
440.08	24556.90
440.26	24786.27
440.45	24957.13
440.63	26710.19
440.82	28587.30
441.01	27922.59
441.19	27487.25
441.38	28276.01
441.57	29174.78
441.75	29649.91
441.94	29848.85
442.12	29252.02
442.31	30075.88
442.50	29830.13
442.68	29731.83
442.87	29247.33
443.05	29055.41
443.24	29165.42
443.43	29729.48
443.61	30354.41
443.80	30920.82
443.98	29064.77
444.17	28671.56
444.35	30717.19
444.54	31255.51
444.73	31154.87
444.91	29570.33
445.10	28460.91
445.28	27461.51
445.47	27140.85
445.65	27239.15
445.84	27950.68
446.02	28938.38
446.21	29008.60
446.39	29436.92
446.58	29720.12
446.77	30096.95
446.95	30338.02
447.14	31061.25
447.32	32402.38
447.51	31234.45
447.69	30108.65
447.88	29687.36
448.06	30050.14
448.25	30923.16
448.43	30646.97
448.62	30246.74
448.80	30277.17
448.99	30396.54
449.17	30445.69
449.36	30838.90
449.54	31639.36
449.73	32233.86
449.91	32723.03
450.10	33137.30
450.28	33684.99
450.46	33649.88
450.65	33591.37
450.83	33347.95
451.02	32781.54
451.20	32790.91
451.39	32177.68
451.57	32261.94
451.76	32304.07
451.94	31723.62
452.13	31585.53
452.31	29879.28
452.49	28503.04
452.68	29092.86
452.86	29013.28
453.05	29844.17
453.23	30417.60
453.42	31110.40
453.60	31777.45
453.78	31866.39
453.97	31290.62
454.15	31679.15
454.34	31243.81
454.52	31000.40
454.70	30735.92
454.89	30881.03
455.07	30911.46
455.26	31379.56
455.44	32767.50
455.62	33448.60
455.81	33429.87
455.99	33223.90
456.17	32701.96
456.36	32914.95
456.54	33848.83
456.73	34003.30
456.91	34504.18
457.09	34628.23
457.28	34976.97
457.46	34033.73
457.64	33546.90
457.83	32428.12
458.01	31871.07
458.19	32701.96
458.38	32872.82
458.56	33729.46
458.74	33809.04
458.93	33125.60
459.11	33017.94
459.29	32758.14
459.48	33193.48
459.66	32589.62
459.84	33490.73
460.03	33647.54
460.21	33380.72
460.39	34625.89
460.57	34209.27
460.76	34700.78
460.94	34731.21
461.12	34274.80
461.31	34419.92
461.49	34555.67
461.67	34335.66
461.85	35086.97
462.04	35204.00
462.22	34920.79
462.40	35707.21
462.59	35321.02
462.77	35154.85
462.95	35421.67
463.13	34808.45
463.32	34607.16
463.50	34286.51
463.68	34345.02
463.86	34611.84
464.05	33834.78
464.23	33266.03
464.41	32669.20
464.59	32584.94
464.78	34333.32
464.96	34101.61
465.14	33773.93
465.32	34377.79
465.50	35571.46
465.69	35634.66
465.87	34925.47
466.05	34050.11
466.23	32826.01
466.41	31840.65
466.60	32863.46
466.78	32849.42
466.96	33303.48
467.14	33722.44
467.32	33998.62
467.51	34625.89
467.69	32659.84
467.87	33560.94
468.05	33907.34
468.23	33993.94
468.41	33923.72
468.60	33961.17
468.78	34813.13
468.96	33787.97
469.14	34859.94
469.32	34820.15
469.50	33521.15
469.69	34068.84
469.87	32503.02
470.05	32945.38
470.23	33085.81
470.41	33652.22
470.59	33610.09
470.77	33537.54
470.95	34478.43
471.14	34899.73
471.32	35321.02
471.50	36924.29
471.68	36622.36
471.86	37099.83
472.04	37163.03
472.22	37397.08
472.40	35899.14
472.58	34895.05
472.77	34904.41
472.95	35536.35
473.13	36336.82
473.31	35370.18
473.49	36210.43
473.67	36772.16
473.85	36769.82
474.03	37258.99
474.21	37376.01
474.39	38040.73
474.57	38431.60
474.75	38497.13
474.93	38195.20
475.12	37074.09
475.30	37284.73
475.48	37247.29
475.66	38010.30
475.84	37577.30
476.02	37003.87
476.20	36706.62
476.38	37570.28
476.56	38754.59
476.74	38965.24
476.92	39079.92
477.10	39454.41
477.28	40706.60
477.46	40854.05
477.64	41406.42
477.82	41317.48
478.00	40863.41
478.18	40357.86
478.36	40451.48
478.54	40484.25
478.72	41109.17
478.90	42089.85
479.08	42878.61
479.26	43901.43
479.44	43407.58
479.62	42990.96
479.80	43136.07
479.98	43576.09
480.16	43620.56
480.34	42766.27
480.52	43655.67
480.70	43744.61
480.88	43585.46
481.06	44643.38
481.24	44790.83
481.41	45701.30
481.59	46110.89
481.77	46087.49
481.95	45523.42
482.13	45420.44
482.31	45045.95
482.49	45476.61
482.67	45464.91
482.85	46199.83
483.03	46380.06
483.21	46852.84
483.39	46918.38
483.57	46085.15
483.74	46073.45
483.92	46237.28
484.10	46492.40
484.28	47655.65
484.46	47765.65
484.64	47845.23
484.82	47196.90
485.00	46988.60
485.18	46316.86
485.35	44938.29
485.53	41591.32
485.71	38157.75
485.89	37277.71
486.07	39065.88
486.25	42749.88
486.43	44996.80
486.61	46003.23
486.78	45670.87
486.96	45794.92
487.14	47381.80
487.32	48336.74
487.50	49689.57
487.68	50436.20
487.85	51210.92
488.03	50784.94
488.21	50651.53
488.39	49406.37
488.57	49155.93
488.75	48388.24
488.92	49401.69
489.10	51964.57
489.28	53263.57
489.46	53780.83
489.64	53549.12
489.81	53811.26
489.99	53818.28
490.17	53783.17
490.35	53696.57
490.53	53659.12
490.70	53020.16
490.88	53081.01
491.06	54031.27
491.24	54031.27
491.41	52835.25
491.59	51262.41
491.77	50361.31
491.95	51433.27
492.13	52708.86
492.30	54223.19
492.48	54960.46
492.66	55283.45
492.84	55341.97
493.01	55049.40
493.19	54616.40
493.37	54157.66
493.54	53968.07
493.72	54602.36
493.90	55477.72
494.08	56217.33
494.25	56435.00
494.43	56776.72
494.61	57169.93
494.79	57076.30
494.96	57003.75
495.14	56257.12
495.32	55442.61
495.49	54880.88
495.67	55657.94
495.85	57031.83
496.02	57446.11
496.20	57366.53
496.38	56954.60
496.55	56893.74
496.73	57324.40
496.91	57453.13
497.09	58026.56
497.26	58000.82
497.44	57771.44
497.62	57216.74
497.79	56713.52
497.97	55269.41
498.14	55267.07
498.32	56423.29
498.50	57223.76
498.67	57986.77
498.85	57631.01
499.03	58155.29
499.20	57996.13
499.38	58082.73
499.56	57904.85
499.73	57492.92
499.91	57116.09
500.08	56383.51
500.26	55882.63
500.44	56392.87
500.61	57167.58
500.79	56879.70
500.97	56626.92
501.14	56493.51
501.32	56268.82
501.49	56245.41
501.67	56507.55
501.84	57085.67
502.02	57092.69
502.20	57319.72
502.37	57605.26
502.55	57663.78
502.72	58141.25
502.90	58642.12
503.07	58216.14
503.25	58054.65
503.43	57221.42
503.60	56741.61
503.78	55817.10
503.95	56200.94
504.13	57762.08
504.30	58431.47
504.48	58094.44
504.65	58101.46
504.83	58003.16
505.01	58518.07
505.18	58773.19
505.36	59419.18
505.53	59477.69
505.71	59819.41
505.88	59681.32
506.06	59241.30
506.23	58791.92
506.41	58337.85
506.58	58625.74
506.76	58796.60
506.93	58803.62
507.11	58417.43
507.28	58637.44
507.46	58148.27
507.63	57626.33
507.81	57240.14
507.98	57687.18
508.16	58188.06
508.33	58794.26
508.50	59070.44
508.68	59374.71
508.85	59664.94
509.03	59817.07
509.20	59896.65
509.38	59025.97
509.55	58330.83
509.73	58408.07
509.90	58756.81
510.08	59215.55
510.25	58904.26
510.42	59035.33
510.60	58812.98
510.77	59023.63
510.95	59599.40
511.12	59681.32
511.30	59943.46
511.47	60172.83
511.64	60046.44
511.82	59880.27
511.99	59119.59
512.17	58857.45
512.34	58286.36
512.51	58394.03
512.69	58602.33
512.86	58740.42
513.04	59037.67
513.21	59192.15
513.38	58651.48
513.56	58333.17
513.73	57544.41
513.90	57722.29
514.08	58054.65
514.25	58450.20
514.43	58417.43
514.60	58728.72
514.77	58705.32
514.95	58869.15
515.12	58787.24
515.29	59093.85
515.47	59529.19
515.64	59643.87
515.81	59306.83
515.99	58609.35
516.16	57270.57
516.33	55262.39
516.51	53359.53
516.68	52659.71
516.85	52367.15
517.03	52626.95
517.20	55168.77
517.37	57832.30
517.54	58775.53
517.72	58368.28
517.89	56123.71
518.06	53558.48
518.24	53937.65
518.41	56023.06
518.58	57375.89
518.75	57652.08
518.93	57752.72
519.10	57736.34
519.27	57984.43
519.45	58468.92
519.62	59112.57
519.79	59426.20
519.96	59281.09
520.14	58747.45
520.31	57944.64
520.48	57659.10
520.65	58211.46
520.83	59199.17
521.00	59515.14
521.17	59199.17
521.34	58707.66
521.52	59075.12
521.69	59632.17
521.86	60161.13
522.03	59920.05
522.20	58738.08
522.38	57446.11
522.55	57343.12
522.72	58059.33
522.89	58333.17
523.07	58328.49
523.24	58740.42
523.41	59332.58
523.58	59987.93
523.75	60236.03
523.92	60203.26
524.10	60140.07
524.27	59985.59
524.44	59856.86
524.61	59798.35
524.78	59358.33
524.96	59671.96
525.13	59358.33
525.30	59576.00
525.47	60083.89
525.64	59777.28
525.81	59370.03
525.98	58078.05
526.16	56575.43
526.33	56051.15
526.50	55723.47
526.67	55114.94
526.84	55990.30
527.01	56788.42
527.18	57652.08
527.36	58403.39
527.53	59337.26
527.70	59561.95
527.87	59096.19
528.04	58623.40
528.21	59023.63
528.38	59859.20
528.55	60334.33
528.72	60488.80
528.89	60537.96
529.07	60474.76
529.24	59779.62
529.41	59054.06
529.58	58679.57
529.75	58726.38
529.92	59168.74
530.09	59625.15
530.26	59997.29
530.43	60168.15
530.60	60336.67
530.77	60509.87
530.94	60706.47
531.11	60058.15
531.28	59695.36
531.46	59566.63
531.63	59929.42
531.80	59643.87
531.97	59355.99
532.14	58412.75
532.31	57549.09
532.48	56947.57
532.65	56816.50
532.82	57841.66
532.99	58993.20
533.16	59166.40
533.33	59681.32
533.50	59510.46
533.67	58838.73
533.84	58504.03
534.01	58539.14
534.18	58876.18
534.35	59124.27
534.52	58981.50
534.69	59082.14
534.86	59395.77
535.03	59594.72
535.20	60179.85
535.37	60425.61
535.54	60652.64
535.71	60081.55
535.88	59917.71
536.05	59267.05
536.22	58841.07
536.38	58539.14
536.55	57993.79
536.72	57485.90
536.89	57638.03
537.06	58389.34
537.23	59215.55
537.40	59377.05
537.57	59348.96
537.74	59323.22
537.91	59304.49
538.08	58906.60
538.25	58852.77
538.42	59318.54
538.59	59220.23
538.75	58614.04
538.92	58445.52
539.09	58003.16
539.26	58150.61
539.43	57675.48
539.60	57944.64
539.77	58064.01
539.94	58080.39
540.11	57289.29
540.28	56800.12
540.44	56839.91
540.61	57176.95
540.78	57242.48
540.95	57904.85
541.12	58159.97
541.29	58321.47
541.46	58742.77
541.62	58630.42
541.79	58424.45
541.96	57954.00
542.13	58071.03
542.30	58298.06
542.47	58419.77
542.63	58026.56
542.80	57829.96
542.97	58113.16
543.14	57818.25
543.31	57829.96
543.48	58588.29
543.64	59178.10
543.81	59512.80
543.98	59103.21
544.15	58672.55
544.32	58213.80
544.48	57846.34
544.65	58583.61
544.82	59002.56
544.99	58417.43
545.16	58342.53
545.32	57846.34
545.49	58700.64
545.66	58958.09
545.83	58794.26
546.00	58288.70
546.16	58159.97
546.33	58000.82
546.50	58145.93
546.67	58499.35
546.83	58059.33
547.00	58234.87
547.17	57598.24
547.34	56919.49
547.50	57031.83
547.67	57427.38
547.84	57499.94
548.00	57776.12
548.17	58433.81
548.34	58253.59
548.51	58092.10
548.67	58361.26
548.84	58511.05
549.01	58333.17
549.18	58085.07
549.34	58054.65
549.51	58003.16
549.68	57921.24
549.84	57609.95
550.01	57829.96
550.18	57584.20
550.34	57485.90
550.51	57846.34
550.68	57794.85
550.84	57441.43
551.01	57214.40
551.18	57169.93
551.34	57516.32
551.51	57855.70
551.68	58019.54
551.84	58216.14
552.01	58019.54
552.18	57911.88
552.34	57027.15
552.51	56816.50
552.68	56638.62
552.84	57057.58
553.01	57293.97
553.18	57350.15
553.34	57329.08
553.51	57216.74
553.67	57513.98
553.84	57855.70
554.01	57794.85
554.17	57579.52
554.34	57588.88
554.51	57743.36
554.67	58054.65
554.84	57759.74
555.00	57467.17
555.17	57331.42
555.33	57457.81
555.50	57371.21
555.67	57385.25
555.83	57174.61
556.00	56919.49
556.16	56800.12
556.33	56446.70
556.50	56109.66
556.66	56289.88
556.83	56186.90
556.99	56109.66
557.16	56222.01
557.32	56774.37
557.49	56776.72
557.65	56746.29
557.82	56589.47
557.98	56423.29
558.15	56109.66
558.32	55318.56
558.48	54588.31
558.65	54878.54
558.81	55145.36
558.98	55458.99
559.14	55730.50
559.31	55627.51
559.47	55620.49
559.64	55093.87
559.80	54925.35
559.97	54726.41
560.13	55533.89
560.30	56472.45
560.46	56839.91
560.63	57223.76
560.79	57134.82
560.96	56715.86
561.12	55606.45
561.29	54644.49
561.45	54908.97
561.61	55365.37
561.78	55604.11
561.94	55540.91
562.11	55456.65
562.27	55337.29
562.44	55810.07
562.60	56097.96
562.77	56179.88
562.93	56142.43
563.10	56039.45
563.26	55388.78
563.42	55590.06
563.59	55166.43
563.75	55103.23
563.92	55393.46
564.08	55313.88
564.24	55688.37
564.41	55674.32
564.57	55667.30
564.74	55393.46
564.90	55412.18
565.07	55011.95
565.23	54616.40
565.39	53858.07
565.56	53806.58
565.72	53839.34
565.88	54377.67
566.05	54049.99
566.21	54464.27
566.38	54684.28
566.54	54490.01
566.70	55128.98
566.87	55248.35
567.03	55365.37
567.19	55477.72
567.36	55187.49
567.52	55077.49
567.68	54621.08
567.85	54316.81
568.01	53811.26
568.17	53375.92
568.34	53366.55
568.50	53396.98
568.66	53638.06
568.83	53911.90
568.99	53937.65
569.15	54085.10
569.32	54099.14
569.48	53783.17
569.64	53825.30
569.81	53476.56
569.97	53233.14
570.13	53055.26
570.30	52746.31
570.46	52266.50
570.62	51664.99
570.78	51344.33
570.95	51723.50
571.11	52624.60
571.27	52900.79
571.43	53038.88
571.60	53116.12
571.76	53532.73
571.92	53682.53
572.09	53703.59
572.25	53822.96
572.41	53790.19
572.57	53600.61
572.74	53848.71
572.90	53151.23
573.06	53336.13
573.22	53413.37
573.38	53404.00
573.55	53352.51
573.71	53567.84
573.87	53441.45
574.03	53097.39
574.20	53188.67
574.36	52825.89
574.52	52336.72
574.68	52596.52
574.84	52198.63
575.01	51683.71
575.17	51503.49
575.33	51971.60
575.49	52327.36
575.65	52423.32
575.82	52261.82
575.98	51938.83
576.14	52334.38
576.30	52430.34
576.46	52624.60
576.62	52624.60
576.79	52612.90
576.95	51950.53
577.11	51934.15
577.27	52030.11
577.43	52186.92
577.59	51683.71
577.75	51367.74
577.92	50237.26
578.08	50567.27
578.24	50667.92
578.40	50871.54
578.56	51412.21
578.72	51381.78
578.88	51531.57
579.04	51468.38
579.21	51271.78
579.37	51765.63
579.53	51611.15
579.69	51526.89
579.85	52002.02
580.01	51938.83
580.17	51086.87
580.33	51096.24
580.49	51171.13
580.65	51143.05
580.82	51805.42
580.98	51653.28
581.14	51236.67
581.30	51629.88
581.46	51559.66
581.62	51714.14
581.78	51688.39
581.94	51817.12
582.10	51470.72
582.26	51985.64
582.42	51817.12
582.58	51615.83
582.74	51686.05
582.90	51990.32
583.06	51304.54
583.22	51271.78
583.38	51140.71
583.54	51435.61
583.70	51475.40
583.86	51332.63
584.02	51220.28
584.18	51484.76
584.34	50979.21
584.50	50894.95
584.66	50887.93
584.82	50553.23
584.98	50485.36
585.14	50101.51
585.30	49357.22
