SpectraSuite Data File
++++++++++++++++++++++++++++++++++++
Date: Mon Oct 07 14:54:59 GMT-05:00 2013
User: price-jones
Dark Spectrum Present: No
Reference Spectrum Present: No
Number of Sampled Component Spectra: 1
Spectrometers: USB2+H05261
Integration Time (usec): 10000 (USB2+H05261)
Spectra Averaged: 1 (USB2+H05261)
Boxcar Smoothing: 0 (USB2+H05261)
Correct for Electrical Dark: No (USB2+H05261)
Strobe/Lamp Enabled: No (USB2+H05261)
Correct for Detector Non-linearity: No (USB2+H05261)
Correct for Stray Light: No (USB2+H05261)
Number of Pixels in Processed Spectrum: 2048
>>>>>Begin Processed Spectral Data<<<<<
365.73	0.00
365.92	0.00
366.12	0.00
366.32	0.00
366.52	0.00
366.72	0.00
366.91	0.00
367.11	0.00
367.31	0.00
367.51	0.00
367.70	0.00
367.90	0.00
368.10	0.00
368.30	0.00
368.49	0.00
368.69	0.00
368.89	0.00
369.09	0.00
369.28	0.00
369.48	0.00
369.68	0.00
369.87	0.00
370.07	0.00
370.27	0.00
370.47	37.45
370.66	873.02
370.86	1048.56
371.06	1170.27
371.25	1130.48
371.45	1036.86
371.65	823.87
371.84	840.25
372.04	1025.15
372.24	1132.82
372.44	1046.22
372.63	1100.05
372.83	973.66
373.03	823.87
373.22	844.93
373.42	858.98
373.62	1011.11
373.81	1043.88
374.01	1022.81
374.21	917.49
374.40	933.87
374.60	1032.18
374.79	1149.20
374.99	1378.58
375.19	1451.13
375.38	1394.96
375.58	1331.76
375.78	1259.21
375.97	1242.82
376.17	1301.34
376.37	1364.53
376.56	1416.02
376.76	1563.48
376.95	1720.29
377.15	1727.32
377.35	1846.68
377.54	1891.15
377.74	1991.80
377.93	1860.73
378.13	1834.98
378.33	1589.22
378.52	1612.63
378.72	1526.03
378.91	1458.15
379.11	1507.30
379.31	1394.96
379.50	1451.13
379.70	1600.93
379.89	1673.48
380.09	1870.09
380.28	1902.86
380.48	1776.47
380.68	1811.57
380.87	1727.32
381.07	1549.43
381.26	1455.81
381.46	1348.15
381.65	1301.34
381.85	1233.46
382.04	1156.22
382.24	1046.22
382.43	1076.65
382.63	1027.50
382.83	961.96
383.02	1109.41
383.22	1036.86
383.41	1050.90
383.61	1214.74
383.80	1376.24
384.00	1558.80
384.19	1729.66
384.39	1912.22
384.58	1867.75
384.78	1788.17
384.97	1818.60
385.17	1607.95
385.36	1504.96
385.56	1558.80
385.75	1598.59
385.95	1863.07
386.14	1842.00
386.34	1820.94
386.53	1767.10
386.72	1664.12
386.92	1788.17
387.11	1715.61
387.31	1827.96
387.50	1851.36
387.70	1785.83
387.89	1739.02
388.09	1877.11
388.28	1823.28
388.48	1952.01
388.67	2022.22
388.86	2338.20
389.06	2485.65
389.25	2544.16
389.45	2452.88
389.64	2495.01
389.84	2429.48
390.03	2455.22
390.22	2469.27
390.42	2569.91
390.61	2698.64
390.81	2857.79
391.00	3009.93
391.19	2822.69
391.39	2677.57
391.58	2612.04
391.78	2406.07
391.97	2338.20
392.16	2146.27
392.36	1944.99
392.55	1413.68
392.75	1196.01
392.94	915.15
393.13	933.87
393.33	1282.61
393.52	1563.48
393.71	2019.88
393.91	2200.10
394.10	2394.37
394.29	2693.96
394.49	2895.24
394.68	3028.65
394.88	2967.80
395.07	3176.11
395.26	3162.06
395.46	2939.71
395.65	2773.53
395.84	2312.45
396.04	1952.01
396.23	1544.75
396.42	1437.09
396.62	1303.68
396.81	1734.34
397.00	2125.21
397.19	2605.02
397.39	3201.85
397.58	3672.30
397.77	3812.73
397.97	3747.20
398.16	3882.95
398.35	4046.79
398.55	4173.18
398.74	4234.03
398.93	4475.10
399.12	4109.98
399.32	4304.25
399.51	4351.06
399.70	4550.00
399.90	4503.19
400.09	4496.17
400.28	4540.64
400.47	4493.83
400.67	4821.50
400.86	4961.94
401.05	4770.01
401.24	4706.82
401.44	5022.79
401.63	5064.92
401.82	5097.69
402.01	5027.47
402.21	5020.45
402.40	5055.56
402.59	4727.88
402.78	4631.92
402.97	4596.81
403.17	4800.44
403.36	5100.03
403.55	5219.39
403.74	5163.22
403.93	5046.20
404.13	4519.57
404.32	4503.19
404.51	4938.53
404.70	5156.20
404.89	5123.43
405.09	5111.73
405.28	4978.32
405.47	4924.49
405.66	4767.67
405.85	4617.88
406.05	4547.66
406.24	4828.53
406.43	4894.06
406.62	5146.84
406.81	5254.50
407.00	4816.82
407.20	4840.23
407.39	4954.91
407.58	5062.58
407.77	5224.08
407.96	5310.68
408.15	5425.36
408.34	5509.62
408.54	5708.57
408.73	5738.99
408.92	5628.99
409.11	5418.34
409.30	4938.53
409.49	4830.87
409.68	4540.64
409.87	4517.23
410.07	4816.82
410.26	5219.39
410.45	5427.70
410.64	5785.80
410.83	5919.21
411.02	6080.71
411.21	6139.23
411.40	6073.69
411.59	6289.02
411.78	6043.26
411.98	5933.26
412.17	6073.69
412.36	6106.46
412.55	5951.98
412.74	5982.41
412.93	5633.67
413.12	5795.17
413.31	6436.47
413.50	6214.12
413.69	6228.17
413.88	6113.48
414.07	6050.28
414.26	6225.82
414.45	6239.87
414.64	6342.85
414.83	6195.40
415.02	6267.95
415.22	6326.47
415.41	6544.14
415.60	6747.76
415.79	6764.15
415.98	6949.05
416.17	6981.82
416.36	6932.67
416.55	6810.96
416.74	6532.44
416.93	6305.40
417.12	6377.96
417.31	6523.07
417.50	6682.23
417.69	6794.58
417.88	6747.76
418.07	6579.25
418.26	6506.69
418.45	6600.31
418.64	6956.07
418.83	7087.14
419.02	6867.13
419.21	6761.81
419.39	6436.47
419.58	6242.21
419.77	6422.43
419.96	6544.14
420.15	6927.99
420.34	7279.07
420.53	7377.37
420.72	7552.91
420.91	7302.47
421.10	7307.15
421.29	7419.50
421.48	7213.53
421.67	7330.56
421.86	6965.43
422.05	6345.19
422.24	6010.50
422.43	5984.75
422.61	6663.51
422.80	7103.53
422.99	7087.14
423.18	6789.89
423.37	6853.09
423.56	6916.28
423.75	6881.18
423.94	7045.01
424.13	6658.82
424.32	6696.27
424.50	6691.59
424.69	6745.42
424.88	6855.43
425.07	6555.84
425.26	6551.16
425.45	6338.17
425.64	6286.68
425.83	6520.73
426.01	6822.66
426.20	6951.39
426.39	6862.45
426.58	6424.77
426.77	5900.49
426.96	5914.53
427.15	6076.03
427.33	6663.51
427.52	6722.02
427.71	6581.59
427.90	6499.67
428.09	6668.19
428.28	6328.81
428.46	6157.95
428.65	6101.78
428.84	6207.10
429.03	6279.66
429.22	5774.10
429.40	5628.99
429.59	5158.54
429.78	4468.08
429.97	4613.20
430.16	4538.30
430.34	4545.32
430.53	4557.02
430.72	4940.87
430.91	5561.11
431.10	6597.97
431.28	7485.03
431.47	7988.25
431.66	7845.48
431.85	7049.69
432.03	6614.35
432.22	6593.29
432.41	6925.65
432.60	7672.28
432.79	7740.15
432.97	7681.64
433.16	7667.60
433.35	6771.17
433.54	6179.01
433.72	5891.13
433.91	6258.59
434.10	6820.32
434.28	7552.91
434.47	7712.07
434.66	7494.40
434.85	7321.20
435.03	7250.98
435.22	7545.89
435.41	7868.88
435.59	7999.95
435.78	8028.04
435.97	8205.92
436.16	8159.11
436.34	8058.46
436.53	7997.61
436.72	7978.89
436.90	7456.95
437.09	7489.71
437.28	7470.99
437.46	7630.15
437.65	7576.31
437.84	7138.63
438.02	6773.51
438.21	6703.29
438.40	6764.15
438.58	7155.02
438.77	7480.35
438.96	7712.07
439.14	7932.08
439.33	8159.11
439.52	8315.92
439.70	8133.36
439.89	8030.38
440.08	7786.96
440.26	7765.90
440.45	8086.55
440.63	8870.63
440.82	9060.21
441.01	8547.64
441.19	8842.54
441.38	9114.05
441.57	9128.09
441.75	9245.12
441.94	9437.04
442.12	9511.94
442.31	9652.37
442.50	9652.37
442.68	9350.44
442.87	9062.55
443.05	9055.53
443.24	9423.00
443.43	9624.28
443.61	9657.05
443.80	9872.38
443.98	9415.98
444.17	9446.40
444.35	9633.64
444.54	9987.07
444.73	9839.61
444.91	9202.99
445.10	8870.63
445.28	8566.36
445.47	8472.74
445.65	8482.10
445.84	8688.07
446.02	9217.03
446.21	9345.76
446.39	9043.83
446.58	9406.61
446.77	9441.72
446.95	9528.32
447.14	9987.07
447.32	9926.21
447.51	9523.64
447.69	9362.14
447.88	9385.55
448.06	9591.52
448.25	9451.08
448.43	9692.16
448.62	9568.11
448.80	9411.29
448.99	9500.23
449.17	9839.61
449.36	9575.13
449.54	10071.33
449.73	10204.74
449.91	10537.09
450.10	10312.40
450.28	10738.38
450.46	10424.75
450.65	10303.04
450.83	10153.24
451.02	10094.73
451.20	10017.49
451.39	10359.21
451.57	10134.52
451.76	10005.79
451.94	9624.28
452.13	9472.15
452.31	9469.81
452.49	8978.30
452.68	9280.22
452.86	9188.94
453.05	9331.72
453.23	9919.19
453.42	9991.75
453.60	10031.54
453.78	9968.34
453.97	9877.06
454.15	9785.78
454.34	9568.11
454.52	9540.02
454.70	9406.61
454.89	9537.68
455.07	9886.42
455.26	10176.65
455.44	10389.64
455.62	10373.25
455.81	10333.47
455.99	10321.76
456.17	10239.84
456.36	10609.65
456.54	10586.24
456.73	10436.45
456.91	10445.81
457.09	10513.69
457.28	10979.45
457.46	10340.49
457.64	10178.99
457.83	9809.19
458.01	9760.03
458.19	10232.82
458.38	10272.61
458.56	10663.48
458.74	10712.63
458.93	9914.51
459.11	10090.05
459.29	10146.22
459.48	10040.90
459.66	10263.25
459.84	10368.57
460.03	10244.52
460.21	10611.99
460.39	10813.28
460.57	10668.16
460.76	10874.13
460.94	10822.64
461.12	10473.90
461.31	10721.99
461.49	10640.08
461.67	10792.21
461.85	11283.72
462.04	10696.25
462.22	11061.37
462.40	10974.77
462.59	10705.61
462.77	10932.64
462.95	10743.06
463.13	10532.41
463.32	10675.18
463.50	10441.13
463.68	10817.96
463.86	10434.11
464.05	10221.12
464.23	10267.93
464.41	10235.16
464.59	10094.73
464.78	10459.85
464.96	10431.77
465.14	10188.35
465.32	10757.10
465.50	11002.86
465.69	10897.53
465.87	10707.95
466.05	10127.50
466.23	9832.59
466.41	9619.60
466.60	10054.94
466.78	10141.54
466.96	10401.34
467.14	10399.00
467.32	10628.37
467.51	10492.62
467.69	9870.04
467.87	9741.31
468.05	10218.78
468.23	10403.68
468.41	10265.59
468.60	10040.90
468.78	10560.50
468.96	10462.19
469.14	10616.67
469.32	10555.82
469.50	9863.02
469.69	9982.38
469.87	10017.49
470.05	9886.42
470.23	10064.30
470.41	10188.35
470.59	10417.72
470.77	10333.47
470.95	10300.70
471.14	10923.28
471.32	10794.55
471.50	11400.75
471.68	11265.00
471.86	11499.05
472.04	11372.66
472.22	11290.74
472.40	10827.32
472.58	10761.78
472.77	10590.92
472.95	10869.45
473.13	10888.17
473.31	10829.66
473.49	10853.06
473.67	10902.22
473.85	11342.24
474.03	11548.20
474.21	11300.11
474.39	11431.18
474.57	11335.21
474.75	11543.52
474.93	11431.18
475.12	11220.53
475.30	11154.99
475.48	11342.24
475.66	11126.91
475.84	11169.04
476.02	11124.57
476.20	10902.22
476.38	11257.98
476.56	11758.85
476.74	11868.86
476.92	11786.94
477.10	11822.05
477.28	12201.21
477.46	12439.95
477.64	12383.77
477.82	12285.47
478.00	12528.89
478.18	12262.07
478.36	11971.84
478.54	12196.53
478.72	12322.92
478.90	12706.77
479.08	12954.87
479.26	12996.99
479.44	13020.40
479.62	12776.98
479.80	12784.01
479.98	12449.31
480.16	12847.20
480.34	12931.46
480.52	13238.07
480.70	13284.88
480.88	13018.06
481.06	13811.50
481.24	13699.16
481.41	13816.18
481.59	14083.00
481.77	13930.87
481.95	13427.65
482.13	13617.24
482.31	13752.99
482.49	14295.99
482.67	13881.72
482.85	13741.29
483.03	14057.26
483.21	14094.71
483.39	14071.30
483.57	13694.47
483.74	13935.55
483.92	13907.46
484.10	14148.54
484.28	14153.22
484.46	14623.67
484.64	14626.01
484.82	14111.09
485.00	13752.99
485.18	13657.03
485.35	13137.43
485.53	11995.25
485.71	11084.78
485.89	11499.05
486.07	12238.66
486.25	12877.63
486.43	13432.33
486.61	13694.47
486.78	13694.47
486.96	13752.99
487.14	14675.16
487.32	14462.17
487.50	14998.15
487.68	15360.94
487.85	15719.04
488.03	15566.90
488.21	15138.58
488.39	15066.03
488.57	14927.94
488.75	15030.92
488.92	16002.24
489.10	16519.50
489.28	16498.44
489.46	16690.36
489.64	16879.94
489.81	16840.15
489.99	16816.75
490.17	16744.19
490.35	17193.58
490.53	16559.29
490.70	16606.10
490.88	16442.26
491.06	17202.94
491.24	16655.25
491.41	16229.27
491.59	15206.46
491.77	15445.20
491.95	16269.06
492.13	16381.41
492.30	17301.24
492.48	17516.57
492.66	18457.46
492.84	18029.15
493.01	17881.69
493.19	17226.34
493.37	17097.61
493.54	17011.01
493.72	17460.40
493.90	18335.76
494.08	18216.39
494.25	18923.23
494.43	19044.94
494.61	19260.27
494.79	19335.17
494.96	19536.45
495.14	17991.70
495.32	17933.18
495.49	17628.92
495.67	18136.81
495.85	19051.96
496.02	19267.29
496.20	18789.82
496.38	18338.10
496.55	18752.37
496.73	18979.40
496.91	19442.83
497.09	19908.60
497.26	19042.60
497.44	19604.33
497.62	18960.68
497.79	18265.54
497.97	17598.49
498.14	18195.32
498.32	18944.30
498.50	19417.08
498.67	19410.06
498.85	19377.30
499.03	19096.43
499.20	19433.47
499.38	19274.31
499.56	19374.95
499.73	19019.19
499.91	18909.19
500.08	18792.16
500.26	18012.76
500.44	18724.29
500.61	18597.90
500.79	18630.66
500.97	18167.24
501.14	17933.18
501.32	18071.28
501.49	18696.20
501.67	18934.93
501.84	19000.47
502.02	19016.85
502.20	18813.23
502.37	19143.24
502.55	19194.73
502.72	19246.23
502.90	20091.16
503.07	19695.61
503.25	18981.74
503.43	18412.99
503.60	17809.14
503.78	17731.90
503.95	17891.06
504.13	19295.38
504.30	19733.06
504.48	19456.87
504.65	19538.79
504.83	19522.41
505.01	19852.42
505.18	20360.32
505.36	21006.31
505.53	20760.55
505.71	20690.34
505.88	20718.42
506.06	20058.39
506.23	19932.00
506.41	19482.62
506.58	20004.56
506.76	19852.42
506.93	19981.15
507.11	19616.03
507.28	19412.40
507.46	18719.60
507.63	19014.51
507.81	18686.84
507.98	19218.14
508.16	19599.65
508.33	19585.60
508.50	20159.03
508.68	20034.99
508.85	20493.73
509.03	20709.06
509.20	19974.13
509.38	19346.87
509.55	19264.95
509.73	19590.28
509.90	19782.21
510.08	19632.41
510.25	19440.49
510.42	18771.10
510.60	19845.40
510.77	19499.00
510.95	20006.90
511.12	20095.84
511.30	20524.16
511.47	20243.29
511.64	20154.35
511.82	19463.90
511.99	18785.14
512.17	18787.48
512.34	19520.07
512.51	19627.73
512.69	19047.28
512.86	18890.46
513.04	19730.72
513.21	19091.75
513.38	18853.02
513.56	18623.64
513.73	18190.64
513.90	18752.37
514.08	18506.62
514.25	18747.69
514.43	19105.79
514.60	19274.31
514.77	19101.11
514.95	19506.02
515.12	19215.80
515.29	19300.06
515.47	19499.00
515.64	19716.67
515.81	19803.27
515.99	18841.31
516.16	17830.20
516.33	16355.66
516.51	15854.79
516.68	15061.35
516.85	14927.94
517.03	15424.13
517.20	16783.98
517.37	18651.73
517.54	18963.02
517.72	18043.19
517.89	16444.60
518.06	15988.20
518.24	16730.15
518.41	17996.38
518.58	18403.63
518.75	18331.08
518.93	18214.05
519.10	18125.11
519.27	18876.42
519.45	19234.52
519.62	19243.88
519.79	19227.50
519.96	19026.21
520.14	18398.95
520.31	18092.34
520.48	18412.99
520.65	18071.28
520.83	19133.88
521.00	19536.45
521.17	19328.14
521.34	19115.16
521.52	19407.72
521.69	20163.72
521.86	19529.43
522.03	19316.44
522.20	18253.84
522.38	18431.72
522.55	18401.29
522.72	18541.72
522.89	18232.77
523.07	19164.31
523.24	19515.39
523.41	19267.29
523.58	19431.13
523.75	19527.09
523.92	19932.00
524.10	20119.24
524.27	20030.30
524.44	19112.81
524.61	19185.37
524.78	19466.24
524.96	19190.05
525.13	18939.62
525.30	19311.76
525.47	19241.54
525.64	19335.17
525.81	18420.02
525.98	17539.97
526.16	16805.05
526.33	16559.29
526.50	16453.97
526.67	16240.98
526.84	16854.20
527.01	17422.95
527.18	18003.40
527.36	18878.76
527.53	19452.19
527.70	18602.58
527.87	18647.05
528.04	18998.13
528.21	18813.23
528.38	19386.66
528.55	19957.75
528.72	19962.43
528.89	19772.85
529.07	19192.39
529.24	19124.52
529.41	17994.04
529.58	18317.03
529.75	18445.76
529.92	18745.35
530.09	18789.82
530.26	19021.53
530.43	18918.55
530.60	19236.86
530.77	19517.73
530.94	19370.27
531.11	19089.41
531.28	19051.96
531.46	18850.67
531.63	18883.44
531.80	18600.24
531.97	19066.00
532.14	17888.71
532.31	16847.18
532.48	16645.89
532.65	17149.11
532.82	18155.54
532.99	19082.39
533.16	18745.35
533.33	19014.51
533.50	19007.49
533.67	18141.49
533.84	17825.52
534.01	18059.57
534.18	18326.39
534.35	18576.83
534.52	18143.83
534.69	18616.62
534.86	18604.92
535.03	19515.39
535.20	19419.42
535.37	19168.99
535.54	19442.83
535.71	19293.04
535.88	19370.27
536.05	18532.36
536.22	18782.80
536.38	18127.45
536.55	17317.62
536.72	17453.37
536.89	18010.42
537.06	17708.49
537.23	18101.70
537.40	18101.70
537.57	18829.61
537.74	18127.45
537.91	17949.57
538.08	17996.38
538.25	17970.63
538.42	18239.79
538.59	17998.72
538.75	17916.80
538.92	17455.72
539.09	16879.94
539.26	16638.87
539.43	16994.63
539.60	16938.46
539.77	16755.90
539.94	16849.52
540.11	16762.92
540.28	16360.34
540.44	16304.17
540.61	16329.92
540.78	16617.80
540.95	17570.40
541.12	17715.51
541.29	17369.12
541.46	17069.53
541.62	17294.22
541.79	16748.87
541.96	16575.67
542.13	16641.21
542.30	17465.08
542.47	17261.45
542.63	17095.27
542.80	16861.22
542.97	16856.54
543.14	16601.42
543.31	16318.22
543.48	17071.87
543.64	17385.50
543.81	17451.03
543.98	17214.64
544.15	16931.44
544.32	16746.53
544.48	17186.55
544.65	17547.00
544.82	17170.17
544.99	17001.65
545.16	17177.19
545.32	16397.79
545.49	17074.21
545.66	17315.28
545.83	17799.77
546.00	17167.83
546.16	16809.73
546.33	17179.53
546.50	17310.60
546.67	17640.62
546.83	17151.45
547.00	16863.56
547.17	16695.04
547.34	16765.26
547.50	16060.76
547.67	16369.71
547.84	16837.81
548.00	16999.31
548.17	16943.14
548.34	16697.38
548.51	16819.09
548.67	16793.34
548.84	17055.48
549.01	16915.05
549.18	16580.36
549.34	17109.32
549.51	16828.45
549.68	16688.02
549.84	16898.67
550.01	16933.78
550.18	16947.82
550.34	16479.71
550.51	16133.31
550.68	16126.29
550.84	16149.70
551.01	16435.24
551.18	16587.38
551.34	16863.56
551.51	16828.45
551.68	16762.92
551.84	16718.45
552.01	16533.54
552.18	16159.06
552.34	15548.18
552.51	15634.78
552.68	15468.60
552.84	15566.90
553.01	16453.97
553.18	16105.23
553.34	16114.59
553.51	15955.43
553.67	16257.36
553.84	16332.26
554.01	16360.34
554.17	16388.43
554.34	16358.00
554.51	16645.89
554.67	16947.82
554.84	16503.12
555.00	16198.85
555.17	16365.03
555.33	16341.62
555.50	16442.26
555.67	16116.93
555.83	15964.79
556.00	15470.94
556.16	15407.75
556.33	15733.08
556.50	15314.13
556.66	14930.28
556.83	15035.60
556.99	15367.96
557.16	15117.52
557.32	15274.34
557.49	15749.46
557.65	15592.65
557.82	15873.51
557.98	15161.99
558.15	15199.44
558.32	14609.62
558.48	14560.47
558.65	14473.87
558.81	14469.19
558.98	14831.97
559.14	14841.34
559.31	15309.44
559.47	15005.17
559.64	14745.38
559.80	14265.57
559.97	14396.64
560.13	15548.18
560.30	15536.48
560.46	16116.93
560.63	16734.83
560.79	16374.39
560.96	15658.18
561.12	14946.66
561.29	14478.55
561.45	14656.43
561.61	14710.27
561.78	14672.82
561.94	14766.44
562.11	14916.23
562.27	14932.62
562.44	15112.84
562.60	15229.87
562.77	14977.09
562.93	15342.21
563.10	15330.51
563.26	14340.46
563.42	15075.39
563.59	14633.03
563.75	14588.56
563.92	14623.67
564.08	14396.64
564.24	14408.34
564.41	14258.54
564.57	14457.49
564.74	14272.59
564.90	14209.39
565.07	14207.05
565.23	13657.03
565.39	13951.93
565.56	13954.27
565.72	14108.75
565.88	13991.72
566.05	14480.89
566.21	14052.58
566.38	13699.16
566.54	14520.68
566.70	14611.96
566.87	14097.05
567.03	14595.58
567.19	14860.06
567.36	13713.20
567.52	14003.43
567.68	13994.06
567.85	13493.19
568.01	13238.07
568.17	13373.82
568.34	13085.94
568.50	13528.30
568.66	13500.21
568.83	13502.55
568.99	13474.46
569.15	13350.42
569.32	13193.60
569.48	13502.55
569.64	13720.22
569.81	13668.73
569.97	13214.66
570.13	13298.92
570.30	13088.28
570.46	12821.45
570.62	12634.21
570.78	12784.01
570.95	12634.21
571.11	13128.06
571.27	13177.22
571.43	13469.78
571.60	13331.69
571.76	13528.30
571.92	13577.45
572.09	13607.87
572.25	13266.16
572.41	13699.16
572.57	13689.79
572.74	13668.73
572.90	13380.84
573.06	13614.90
573.22	13312.97
573.38	13921.51
573.55	13795.12
573.71	13596.17
573.87	13596.17
574.03	13207.64
574.20	13041.46
574.36	12699.75
574.52	12767.62
574.68	13174.88
574.84	12725.49
575.01	12418.88
575.17	12170.79
575.33	12552.29
575.49	12418.88
575.65	12348.67
575.82	12250.36
575.98	12620.17
576.14	12491.44
576.30	12493.78
576.46	12706.77
576.62	12725.49
576.79	12819.11
576.95	12674.00
577.11	12730.17
577.27	12451.65
577.43	12657.62
577.59	12512.50
577.75	12774.64
577.92	12276.11
578.08	12306.54
578.24	12269.09
578.40	12327.60
578.56	11999.93
578.72	12159.08
578.88	12023.33
579.04	12154.40
579.21	12255.04
579.37	12362.71
579.53	12226.96
579.69	12273.77
579.85	12259.73
580.01	11798.64
580.17	11751.83
580.33	12505.48
580.49	12688.04
580.65	12367.39
580.82	12037.38
580.98	11990.56
581.14	11892.26
581.30	11999.93
581.46	12250.36
581.62	12205.89
581.78	12482.08
581.94	12564.00
582.10	12182.49
582.26	12198.87
582.42	12475.06
582.58	12664.64
582.74	12390.80
582.90	12655.28
583.06	12938.48
583.22	12826.14
583.38	12379.09
583.54	12276.11
583.70	12131.00
583.86	12451.65
584.02	12191.85
584.18	12177.81
584.34	12196.53
584.50	12545.27
584.66	12311.22
584.82	11953.12
584.98	11840.77
585.14	11545.86
585.30	11513.10
585.46	11250.96
585.62	11290.74
585.78	11452.24
585.94	11304.79
586.10	11236.91
586.26	11604.38
586.42	11875.88
586.58	11585.65
586.74	11749.49
586.90	11824.39
587.06	11522.46
587.22	11358.62
587.38	10965.41
587.54	11360.96
587.70	10874.13
587.86	10874.13
588.02	11124.57
588.18	10583.90
588.34	10171.97
