SpectraSuite Data File
++++++++++++++++++++++++++++++++++++
Date: Mon Oct 07 14:53:34 GMT-05:00 2013
User: price-jones
Dark Spectrum Present: No
Reference Spectrum Present: No
Number of Sampled Component Spectra: 1
Spectrometers: USB2+H05261
Integration Time (usec): 100000 (USB2+H05261)
Spectra Averaged: 1 (USB2+H05261)
Boxcar Smoothing: 0 (USB2+H05261)
Correct for Electrical Dark: No (USB2+H05261)
Strobe/Lamp Enabled: No (USB2+H05261)
Correct for Detector Non-linearity: No (USB2+H05261)
Correct for Stray Light: No (USB2+H05261)
Number of Pixels in Processed Spectrum: 2048
>>>>>Begin Processed Spectral Data<<<<<
365.73	0.00
365.92	0.00
366.12	0.00
366.32	0.00
366.52	0.00
366.72	0.00
366.91	0.00
367.11	0.00
367.31	0.00
367.51	0.00
367.70	0.00
367.90	0.00
368.10	0.00
368.30	0.00
368.49	0.00
368.69	0.00
368.89	0.00
369.09	0.00
369.28	0.00
369.48	0.00
369.68	0.00
369.87	0.00
370.07	0.00
370.27	0.00
370.47	685.78
370.66	3627.83
370.86	4133.39
371.06	4512.55
371.25	4624.90
371.45	4138.07
371.65	3730.81
371.84	3431.23
372.04	3625.49
372.24	4095.94
372.44	4372.12
372.63	4329.99
372.83	4037.42
373.03	3590.38
373.22	3222.92
373.42	3389.10
373.62	3922.74
373.81	4166.15
374.01	4229.35
374.21	3763.58
374.40	3412.50
374.60	3623.15
374.79	4093.60
374.99	4863.63
375.19	5214.71
375.38	5268.55
375.58	4875.34
375.78	4816.82
375.97	4945.55
376.17	5160.88
376.37	5062.58
376.56	5179.61
376.76	5540.05
376.95	5781.12
377.15	6225.82
377.35	6359.24
377.54	6637.76
377.74	6885.86
377.93	6895.22
378.13	6726.70
378.33	6422.43
378.52	5975.39
378.72	5668.78
378.91	5540.05
379.11	5563.45
379.31	5369.19
379.50	5221.74
379.70	5610.26
379.89	6176.67
380.09	6523.07
380.28	6808.62
380.48	6717.34
380.68	6684.57
380.87	6335.83
381.07	6045.60
381.26	5603.24
381.46	5034.49
381.65	5158.54
381.85	4880.02
382.04	4709.16
382.24	4423.61
382.43	4215.30
382.63	4145.09
382.83	4138.07
383.02	4222.33
383.22	4315.95
383.41	4145.09
383.61	4437.66
383.80	5188.97
384.00	5717.93
384.19	6368.60
384.39	6750.10
384.58	6719.68
384.78	6607.33
384.97	6520.73
385.17	6132.20
385.36	5895.81
385.56	5626.65
385.75	5760.06
385.95	6303.06
386.14	6988.84
386.34	7005.22
386.53	6588.61
386.72	6312.42
386.92	6354.55
387.11	6464.56
387.31	6864.79
387.50	6771.17
387.70	6616.69
387.89	6413.07
388.09	6640.10
388.28	6691.59
388.48	6717.34
388.67	7178.42
388.86	7896.97
389.06	8528.91
389.25	8997.02
389.45	9025.11
389.64	8793.39
389.84	8840.20
390.03	8795.73
390.22	8681.05
390.42	9118.73
390.61	9834.93
390.81	10476.24
391.00	10600.29
391.19	10207.08
391.39	10059.62
391.58	9465.13
391.78	8994.68
391.97	8685.73
392.16	8035.06
392.36	7225.23
392.55	5804.53
392.75	4608.51
392.94	3812.73
393.13	3978.91
393.33	4545.32
393.52	5746.02
393.71	6967.77
393.91	7906.33
394.10	8386.14
394.29	9399.59
394.49	10277.29
394.68	11080.10
394.88	11063.71
395.07	11276.70
395.26	11421.81
395.46	10778.17
395.65	10155.58
395.84	9160.86
396.04	7719.09
396.23	6193.06
396.42	5338.76
396.62	4873.00
396.81	5841.98
397.00	7412.48
397.19	9249.80
397.39	11154.99
397.58	12444.63
397.77	13011.04
397.97	13378.50
398.16	13752.99
398.35	14377.91
398.55	14527.71
398.74	15180.71
398.93	15648.82
399.12	15405.41
399.32	15101.14
399.51	15091.77
399.70	16142.67
399.90	15761.17
400.09	16308.85
400.28	15852.45
400.47	16276.09
400.67	16863.56
400.86	17394.86
401.05	17369.12
401.24	17315.28
401.44	17668.70
401.63	17184.21
401.82	18036.17
402.01	17933.18
402.21	17827.86
402.40	18078.30
402.59	17422.95
402.78	16678.66
402.97	16184.80
403.17	17001.65
403.36	17818.50
403.55	18310.01
403.74	18979.40
403.93	17951.91
404.13	16751.21
404.32	16276.09
404.51	16769.94
404.70	18251.50
404.89	18249.16
405.09	18001.06
405.28	17462.74
405.47	17455.72
405.66	17308.26
405.85	16856.54
406.05	16496.10
406.24	16896.33
406.43	17432.31
406.62	18466.83
406.81	18132.13
407.00	17420.61
407.20	17177.19
407.39	17371.46
407.58	17907.44
407.77	18717.26
407.96	19379.64
408.15	19782.21
408.34	19728.38
408.54	20570.97
408.73	20748.85
408.92	20212.87
409.11	19946.05
409.30	18806.20
409.49	17678.07
409.68	16521.84
409.87	15941.39
410.07	17350.39
410.26	18780.46
410.45	19707.31
410.64	20077.12
410.83	20739.49
411.02	21474.42
411.21	21984.65
411.40	21610.17
411.59	21933.16
411.78	21633.57
411.98	21333.98
412.17	21968.27
412.36	21696.77
412.55	21610.17
412.74	21163.12
412.93	20748.85
413.12	20727.78
413.31	22754.69
413.50	22700.86
413.69	23295.35
413.88	22750.01
414.07	21675.70
414.26	22256.15
414.45	22778.09
414.64	22796.82
414.83	22717.24
415.02	22394.25
415.22	22368.50
415.41	22850.65
415.60	23828.99
415.79	24884.58
415.98	25055.43
416.17	25170.12
416.36	24610.73
416.55	24311.14
416.74	23733.03
416.93	23061.30
417.12	22869.37
417.31	23220.45
417.50	23468.55
417.69	24528.81
417.88	24259.65
418.07	23889.85
418.26	23630.05
418.45	24130.92
418.64	24919.68
418.83	25617.16
419.02	25254.38
419.21	25032.03
419.39	24018.58
419.58	22590.85
419.77	22845.97
419.96	23756.44
420.15	25362.04
420.34	25975.27
420.53	26775.73
420.72	27000.42
420.91	27220.43
421.10	26324.01
421.29	26113.36
421.48	25490.77
421.67	27075.32
421.86	25844.20
422.05	24348.59
422.24	21942.52
422.43	21699.11
422.61	23836.02
422.80	25729.51
422.99	25977.61
423.18	24802.66
423.37	24224.54
423.56	24407.11
423.75	24912.66
423.94	25298.85
424.13	23709.63
424.32	24482.00
424.50	24552.22
424.69	23857.08
424.88	24238.59
425.07	23974.11
425.26	24252.63
425.45	23962.40
425.64	23440.47
425.83	23229.82
426.01	24781.59
426.20	25172.46
426.39	25193.53
426.58	23461.53
426.77	21741.24
426.96	20985.24
427.15	21561.02
427.33	23304.71
427.52	24283.06
427.71	24819.04
427.90	24224.54
428.09	24053.69
428.28	23311.74
428.46	22555.74
428.65	22089.98
428.84	22693.83
429.03	23559.83
429.22	22050.19
429.40	21085.89
429.59	18986.43
429.78	16847.18
429.97	16685.68
430.16	17085.91
430.34	17092.93
430.53	17069.53
430.72	17481.46
430.91	19171.33
431.10	22415.31
431.28	26661.04
431.47	28863.49
431.66	29017.96
431.85	26941.91
432.03	24706.70
432.22	23094.07
432.41	24266.67
432.60	26586.15
432.79	27704.92
432.97	28687.95
433.16	28304.10
433.35	25862.92
433.54	23061.30
433.72	21673.36
433.91	21947.20
434.10	24657.54
434.28	26831.90
434.47	28030.26
434.66	27683.86
434.85	26824.88
435.03	26792.11
435.22	27505.98
435.41	29287.12
435.59	29226.27
435.78	29902.68
435.97	30387.18
436.16	30597.82
436.34	30143.76
436.53	29366.70
436.72	29537.56
436.90	28245.58
437.09	28222.18
437.28	27424.06
437.46	28369.63
437.65	28493.68
437.84	26820.20
438.02	24191.78
438.21	23758.78
438.40	25209.91
438.58	27543.42
438.77	28252.61
438.96	28503.04
439.14	29708.42
439.33	30246.74
439.52	31309.35
439.70	30366.11
439.89	29291.80
440.08	29071.79
440.26	28842.42
440.45	29687.36
440.63	31697.88
440.82	33092.83
441.01	32491.32
441.19	32294.71
441.38	33083.47
441.57	34195.23
441.75	34436.30
441.94	34745.25
442.12	34237.36
442.31	35082.29
442.50	35445.07
442.68	34682.06
442.87	33942.45
443.05	33785.63
443.24	34326.30
443.43	34881.00
443.61	35969.35
443.80	35988.08
443.98	34253.74
444.17	33703.71
444.35	35800.83
444.54	36641.09
444.73	36376.61
444.91	34572.05
445.10	33167.73
445.28	31913.20
445.47	31414.67
445.65	32009.17
445.84	32863.46
446.02	33663.93
446.21	34361.40
446.39	34246.72
446.58	34754.61
446.77	35192.30
446.95	35407.62
447.14	36708.96
447.32	37177.07
447.51	36524.06
447.69	35189.95
447.88	34653.97
448.06	34967.60
448.25	35683.81
448.43	36402.35
448.62	35241.45
448.80	34848.24
448.99	35356.13
449.17	36158.94
449.36	35803.17
449.54	36802.58
449.73	37537.51
449.91	38089.88
450.10	39166.52
450.28	39784.43
450.46	39484.84
450.65	39835.92
450.83	39007.37
451.02	38373.08
451.20	38305.21
451.39	37670.92
451.57	37780.93
451.76	37986.89
451.94	37605.39
452.13	36842.37
452.31	35674.45
452.49	33404.13
452.68	34302.89
452.86	34345.02
453.05	34873.98
453.23	35798.49
453.42	36421.08
453.60	37242.60
453.78	37825.40
453.97	37041.32
454.15	37823.06
454.34	36809.61
454.52	36854.08
454.70	35880.41
454.89	36336.82
455.07	36390.65
455.26	37188.77
455.44	38576.71
455.62	39054.18
455.81	39232.06
455.99	39164.18
456.17	38499.47
456.36	38548.62
456.54	39784.43
456.73	39510.58
456.91	40538.08
457.09	40486.59
457.28	41024.91
457.46	39632.29
457.64	39339.72
457.83	38330.95
458.01	37872.21
458.19	37930.72
458.38	38717.14
458.56	39840.60
458.74	39573.78
458.93	38965.24
459.11	38710.12
459.29	38546.28
459.48	38862.26
459.66	38817.78
459.84	39229.72
460.03	39381.85
460.21	39700.17
460.39	40402.33
460.57	41240.24
460.76	40975.76
460.94	41008.53
461.12	40060.61
461.31	40849.37
461.49	40517.01
461.67	40568.51
461.85	41706.01
462.04	41448.55
462.22	42174.11
462.40	41624.09
462.59	41228.54
462.77	41420.46
462.95	41839.42
463.13	41006.19
463.32	40800.22
463.50	40336.79
463.68	40603.61
463.86	40947.67
464.05	39997.41
464.23	39445.05
464.41	38986.30
464.59	38813.10
464.78	40437.44
464.96	40416.37
465.14	39672.08
465.32	40680.85
465.50	41654.51
465.69	42225.60
465.87	41254.28
466.05	40086.36
466.23	38447.98
466.41	37708.37
466.60	38679.69
466.78	38803.74
466.96	39732.93
467.14	39803.15
467.32	40802.56
467.51	40821.28
467.69	38658.63
467.87	39585.48
468.05	40325.09
468.23	40172.96
468.41	40327.43
468.60	40395.31
468.78	40657.45
468.96	39669.74
469.14	41212.15
469.32	40865.75
469.50	39533.99
469.69	39758.68
469.87	38920.77
470.05	39199.29
470.23	39311.64
470.41	39292.91
470.59	39903.79
470.77	39962.31
470.95	40968.74
471.14	41006.19
471.32	41125.55
471.50	43496.52
471.68	43332.68
471.86	44058.24
472.04	43473.11
472.22	43941.22
472.40	42047.72
472.58	41804.31
472.77	41436.84
472.95	42394.12
473.13	43386.51
473.31	41916.65
473.49	42293.48
473.67	43070.54
473.85	43063.52
474.03	44194.00
474.21	44355.49
474.39	44961.69
474.57	45057.65
474.75	45052.97
474.93	44706.57
475.12	43938.88
475.30	44327.41
475.48	43978.67
475.66	44304.00
475.84	44474.86
476.02	43433.32
476.20	43124.37
476.38	43751.63
476.56	45191.06
476.74	45612.36
476.92	45935.35
477.10	46377.72
477.28	47725.86
477.46	47353.72
477.64	47924.81
477.82	47906.08
478.00	48175.25
478.18	47592.45
478.36	47842.89
478.54	47700.12
478.72	47849.91
478.90	48907.83
479.08	49532.76
479.26	50101.51
479.44	50143.64
479.62	49741.06
479.80	49787.88
479.98	50050.02
480.16	50494.72
480.34	49818.30
480.52	50298.11
480.70	50113.21
480.88	50506.42
481.06	51077.51
481.24	51313.90
481.41	52196.29
481.59	52446.72
481.77	52364.81
481.95	51889.68
482.13	51800.74
482.31	51856.91
482.49	52409.28
482.67	52102.67
482.85	52231.40
483.03	52903.13
483.21	53279.96
483.39	53394.64
483.57	52514.60
483.74	52350.76
483.92	52612.90
484.10	52648.01
484.28	53518.69
484.46	53958.71
484.64	54227.87
484.82	53125.48
485.00	53045.90
485.18	52477.15
485.35	51316.25
485.53	48561.44
485.71	45205.11
485.89	44315.70
486.07	46518.15
486.25	49614.68
486.43	51599.45
486.61	52346.08
486.78	52334.38
486.96	52109.69
487.14	53624.01
487.32	54321.49
487.50	55040.04
487.68	55774.97
487.85	56240.73
488.03	56142.43
488.21	55835.82
488.39	55182.81
488.57	54663.21
488.75	54522.78
488.92	55100.89
489.10	57233.12
489.28	57916.56
489.46	58726.38
489.64	58429.13
489.81	58939.37
489.99	58424.45
490.17	58241.89
490.35	58724.04
490.53	58370.62
490.70	57972.73
490.88	58010.18
491.06	58941.71
491.24	58770.85
491.41	58089.76
491.59	56708.84
491.77	56020.72
491.95	57013.11
492.13	57970.39
492.30	58805.96
492.48	59732.81
492.66	60203.26
492.84	59840.48
493.01	59793.67
493.19	59330.24
493.37	59105.55
493.54	58841.07
493.72	59543.23
493.90	60203.26
494.08	60919.46
494.25	61139.47
494.43	61118.41
494.61	61567.79
494.79	61595.88
494.96	61315.01
495.14	60975.64
495.32	60109.64
495.49	59730.47
495.67	60289.86
495.85	61530.34
496.02	62007.81
496.20	61846.32
496.38	61652.05
496.55	61265.86
496.73	61771.42
496.91	61801.85
497.09	62321.44
497.26	62326.13
497.44	62134.20
497.62	61778.44
497.79	60919.46
497.97	59936.44
498.14	59938.78
498.32	60889.04
498.50	61712.91
498.67	62197.40
498.85	62159.95
499.03	62155.27
499.20	62436.13
499.38	62443.15
499.56	62246.55
499.73	61874.40
499.91	61717.59
500.08	61207.35
500.26	60591.79
500.44	60994.36
500.61	61623.96
500.79	61436.72
500.97	61172.24
501.14	60839.89
501.32	60856.27
501.49	60917.12
501.67	61087.98
501.84	61476.51
502.02	61673.12
502.20	61879.08
502.37	62014.83
502.55	62049.94
502.72	62726.36
502.90	62955.73
503.07	62885.51
503.25	62347.19
503.43	61687.16
503.60	61305.65
503.78	60683.07
503.95	60830.52
504.13	62131.86
504.30	62864.45
504.48	62927.64
504.65	62326.13
504.83	62576.56
505.01	62948.71
505.18	63187.44
505.36	63934.07
505.53	63718.74
505.71	64011.31
505.88	64034.72
506.06	63784.28
506.23	63346.60
506.41	62883.17
506.58	63180.42
506.76	63231.91
506.93	63131.27
507.11	62913.60
507.28	63135.95
507.46	62585.92
507.63	62042.92
507.81	61909.51
507.98	62054.62
508.16	62885.51
508.33	63227.23
508.50	63601.72
508.68	63580.65
508.85	64282.81
509.03	64170.47
509.20	64168.13
509.38	63552.57
509.55	62794.23
509.73	62876.15
509.90	63276.38
510.08	63615.76
510.25	63416.82
510.42	63173.40
510.60	63157.02
510.77	63674.27
510.95	64027.70
511.12	64062.80
511.30	64505.16
511.47	64509.85
511.64	64495.80
511.82	64376.43
511.99	63629.80
512.17	63206.17
512.34	62929.98
512.51	63154.68
512.69	63145.31
512.86	63133.61
513.04	63608.74
513.21	63636.83
513.38	63201.49
513.56	62873.81
513.73	62291.02
513.90	62504.01
514.08	62773.17
514.25	62653.80
514.43	62951.05
514.60	63032.97
514.77	63124.25
514.95	63290.43
515.12	63185.10
515.29	63288.09
515.47	63831.09
515.64	63990.25
515.81	63728.11
515.99	63124.25
516.16	62033.56
516.33	59913.03
516.51	58953.41
516.68	58148.27
516.85	57680.16
517.03	57954.00
517.20	60264.11
517.37	62494.64
517.54	63355.96
517.72	62972.11
517.89	60935.85
518.06	58717.02
518.24	58955.75
518.41	60673.71
518.58	62052.28
518.75	62316.76
518.93	62473.58
519.10	62148.24
519.27	62773.17
519.45	62906.58
519.62	63461.29
519.79	63854.50
519.96	63922.37
520.14	63304.47
520.31	62426.77
520.48	62489.96
520.65	62906.58
520.83	63744.49
521.00	64030.04
521.17	63714.06
521.34	63292.77
521.52	63597.04
521.69	64151.74
521.86	64399.84
522.03	64315.58
522.20	63283.40
522.38	62267.61
522.55	62150.59
522.72	62651.46
522.89	62843.38
523.07	63061.05
523.24	63238.93
523.41	64247.71
523.58	64313.24
523.75	64774.33
523.92	64715.81
524.10	64603.47
524.27	64570.70
524.44	64523.89
524.61	64126.00
524.78	64118.98
524.96	63966.84
525.13	64065.14
525.30	64271.11
525.47	64694.75
525.64	64547.29
525.81	63903.65
525.98	62745.08
526.16	61373.53
526.33	60704.13
526.50	60596.47
526.67	60247.73
526.84	60743.92
527.01	61689.50
527.18	62457.20
527.36	63119.57
527.53	63941.10
527.70	64193.87
527.87	63561.93
528.04	63267.02
528.21	63772.58
528.38	64343.67
528.55	64685.39
528.72	64954.55
528.89	65153.49
529.07	64954.55
529.24	64294.52
529.41	63756.19
529.58	63140.63
529.75	63395.75
529.92	63681.30
530.09	64032.38
530.26	64617.51
530.43	64823.48
530.60	64743.90
530.77	64881.99
530.94	65158.17
531.11	64690.07
531.28	64477.08
531.46	64163.45
531.63	64280.47
531.80	64301.54
531.97	63903.65
532.14	63159.36
532.31	62248.89
532.48	61717.59
532.65	61719.93
532.82	62424.43
532.99	63538.52
533.16	63819.39
533.33	64163.45
533.50	64111.95
533.67	63351.28
533.84	63288.09
534.01	63318.51
534.18	63526.82
534.35	63641.51
534.52	63613.42
534.69	63765.56
534.86	64175.15
535.03	64207.92
535.20	64720.49
535.37	65151.15
535.54	65069.23
535.71	64928.80
535.88	64427.93
536.05	63987.91
536.22	63498.73
536.38	63529.16
536.55	63044.67
536.72	62443.15
536.89	62447.83
537.06	63149.99
537.23	63840.45
537.40	64030.04
537.57	64100.25
537.74	63917.69
537.91	63746.83
538.08	63826.41
538.25	64020.67
538.42	64095.57
538.59	63824.07
538.75	63189.78
538.92	63147.65
539.09	62775.51
539.26	62894.88
539.43	62585.92
539.60	62562.52
539.77	62855.09
539.94	62705.29
540.11	62122.50
540.28	61506.94
540.44	61595.88
540.61	61848.66
540.78	62136.54
540.95	62548.48
541.12	62822.32
541.29	63004.88
541.46	63292.77
541.62	63461.29
541.79	63203.83
541.96	62782.53
542.13	62777.85
542.30	62951.05
542.47	63358.30
542.63	62934.66
542.80	62637.42
542.97	62639.76
543.14	62614.01
543.31	62876.15
543.48	63138.29
543.64	63901.31
543.81	64294.52
543.98	64004.29
544.15	63487.03
544.32	62885.51
544.48	62834.02
544.65	63304.47
544.82	63739.81
544.99	63559.59
545.16	63126.59
545.32	62719.34
545.49	63430.86
545.66	63800.66
545.83	63529.16
546.00	63154.68
546.16	62906.58
546.33	62941.69
546.50	63241.28
546.67	63346.60
546.83	62824.66
547.00	62979.14
547.17	62571.88
547.34	61874.40
547.50	61876.74
547.67	62560.18
547.84	62508.69
548.00	62768.49
548.17	63128.93
548.34	62848.06
548.51	63004.88
548.67	62983.82
548.84	63098.50
549.01	63028.29
549.18	63011.90
549.34	62965.09
549.51	62848.06
549.68	62869.13
549.84	62578.90
550.01	62585.92
550.18	62670.18
550.34	62520.39
550.51	62611.67
550.68	62504.01
550.84	62239.53
551.01	62321.44
551.18	62178.67
551.34	62419.75
551.51	62791.89
551.68	62925.30
551.84	63065.73
552.01	62866.79
552.18	62763.81
552.34	62136.54
552.51	61820.57
552.68	61654.39
552.84	62078.03
553.01	62349.53
553.18	62225.48
553.34	62333.15
553.51	62415.07
553.67	62609.33
553.84	62752.10
554.01	62684.23
554.17	62326.13
554.34	62539.11
554.51	62717.00
554.67	62763.81
554.84	62876.15
555.00	62445.49
555.17	62164.63
555.33	62361.23
555.50	61982.07
555.67	62363.57
555.83	62085.05
556.00	61815.89
556.16	61801.85
556.33	61443.74
556.50	61368.85
556.66	61413.32
556.83	61200.33
556.99	61387.57
557.16	61312.67
557.32	61689.50
557.49	61860.36
557.65	61764.40
557.82	61836.95
557.98	61502.26
558.15	61148.84
558.32	60617.53
558.48	59627.49
558.65	60030.06
558.81	60369.44
558.98	60512.21
559.14	60835.20
559.31	60977.98
559.47	61013.08
559.64	60594.13
559.80	60205.60
559.97	60229.01
560.13	60633.92
560.30	61462.47
560.46	61886.10
560.63	62129.52
560.79	62049.94
560.96	61755.03
561.12	60825.84
561.29	59859.20
561.45	60172.83
561.61	60556.68
561.78	61080.96
561.94	60921.80
562.11	60884.36
562.27	60633.92
562.44	61008.40
562.60	61254.16
562.77	61237.78
562.93	61268.20
563.10	61144.16
563.26	60554.34
563.42	60645.62
563.59	60498.17
563.75	60495.83
563.92	60537.96
564.08	60514.55
564.24	60767.33
564.41	60739.24
564.57	60776.69
564.74	60713.50
564.90	60580.09
565.07	60364.76
565.23	59976.23
565.39	59571.32
565.56	59435.56
565.72	59025.97
565.88	59597.06
566.05	59416.84
566.21	59915.37
566.38	60041.76
566.54	59906.01
566.70	60285.18
566.87	60444.33
567.03	60615.19
567.19	60816.48
567.36	60406.89
567.52	60250.07
567.68	60100.28
567.85	59608.76
568.01	59278.75
568.17	58944.05
568.34	59103.21
568.50	59044.69
568.66	59145.34
568.83	59311.52
568.99	59370.03
569.15	59561.95
569.32	59681.32
569.48	59168.74
569.64	59320.88
569.81	59009.59
569.97	58857.45
570.13	58850.43
570.30	58560.20
570.46	57937.62
570.62	57703.57
570.78	57441.43
570.95	57794.85
571.11	58354.24
571.27	58700.64
571.43	58660.85
571.60	58981.50
571.76	59334.92
571.92	59587.70
572.09	59484.72
572.25	59468.33
572.41	59358.33
572.57	59278.75
572.74	59398.12
572.90	58932.35
573.06	58976.82
573.22	59023.63
573.38	59025.97
573.55	59077.46
573.71	59231.94
573.87	59051.72
574.03	58852.77
574.20	58827.02
574.36	58583.61
574.52	58508.71
574.68	58152.95
574.84	58064.01
575.01	57642.71
575.17	57516.32
575.33	57858.04
575.49	58017.20
575.65	58136.57
575.82	58115.50
575.98	57729.31
576.14	58145.93
576.30	57946.98
576.46	58349.56
576.62	57993.79
576.79	58293.38
576.95	57937.62
577.11	58054.65
577.27	58073.37
577.43	58033.58
577.59	57825.28
577.75	57373.55
577.92	56917.15
578.08	56598.83
578.24	56589.47
578.40	56893.74
578.56	57031.83
578.72	57284.61
578.88	57151.20
579.04	57649.74
579.21	57434.41
579.37	57820.59
579.53	57813.57
579.69	57705.91
579.85	57705.91
580.01	57769.10
580.17	57525.69
580.33	57268.23
580.49	57361.85
580.65	57343.12
580.82	57602.92
580.98	57621.65
581.14	57343.12
581.30	57682.50
581.46	57631.01
581.62	57684.84
581.78	57670.80
581.94	57771.44
582.10	57759.74
582.26	57801.87
582.42	57787.83
582.58	57874.43
582.74	57666.12
582.90	57762.08
583.06	57808.89
583.22	57595.90
583.38	57343.12
583.54	57373.55
583.70	57205.03
583.86	57279.93
584.02	57347.81
584.18	57340.78
584.34	57565.48
584.50	57347.81
584.66	57038.86
584.82	56839.91
584.98	56795.44
585.14	56512.23
