SpectraSuite Data File
++++++++++++++++++++++++++++++++++++
Date: Mon Oct 07 14:53:09 GMT-05:00 2013
User: price-jones
Dark Spectrum Present: No
Reference Spectrum Present: No
Number of Sampled Component Spectra: 1
Spectrometers: USB2+H05261
Integration Time (usec): 100000 (USB2+H05261)
Spectra Averaged: 1 (USB2+H05261)
Boxcar Smoothing: 0 (USB2+H05261)
Correct for Electrical Dark: No (USB2+H05261)
Strobe/Lamp Enabled: No (USB2+H05261)
Correct for Detector Non-linearity: No (USB2+H05261)
Correct for Stray Light: No (USB2+H05261)
Number of Pixels in Processed Spectrum: 2048
>>>>>Begin Processed Spectral Data<<<<<
365.73	0.00
365.92	0.00
366.12	0.00
366.32	0.00
366.52	0.00
366.72	0.00
366.91	0.00
367.11	0.00
367.31	0.00
367.51	0.00
367.70	0.00
367.90	0.00
368.10	0.00
368.30	0.00
368.49	0.00
368.69	0.00
368.89	0.00
369.09	0.00
369.28	0.00
369.48	0.00
369.68	0.00
369.87	0.00
370.07	0.00
370.27	0.00
370.47	767.70
370.66	3777.62
370.86	4454.04
371.06	4650.64
371.25	4917.47
371.45	4313.61
371.65	3866.56
371.84	3616.13
372.04	3824.44
372.24	4273.82
372.44	4493.83
372.63	4397.87
372.83	3920.40
373.03	3698.05
373.22	3314.20
373.42	3496.76
373.62	4030.40
373.81	4407.23
374.01	4280.84
374.21	3908.69
374.40	3641.87
374.60	3843.16
374.79	4344.03
374.99	5001.72
375.19	5322.38
375.38	5474.51
375.58	5214.71
375.78	4945.55
375.97	5060.24
376.17	5195.99
376.37	5205.35
376.56	5228.76
376.76	5722.61
376.95	6113.48
377.15	6487.96
377.35	6766.49
377.54	7052.03
377.74	7068.42
377.93	7255.66
378.13	6745.42
378.33	6581.59
378.52	6134.54
378.72	5944.96
378.91	5776.44
379.11	5652.39
379.31	5373.87
379.50	5394.93
379.70	5951.98
379.89	6420.09
380.09	6771.17
380.28	7082.46
380.48	6834.36
380.68	6855.43
380.87	6703.29
381.07	6171.99
381.26	5820.91
381.46	5228.76
381.65	5151.52
381.85	5151.52
382.04	4746.61
382.24	4493.83
382.43	4329.99
382.63	4252.75
382.83	4273.82
383.02	4215.30
383.22	4205.94
383.41	4297.22
383.61	4610.86
383.80	5221.74
384.00	5856.02
384.19	6726.70
384.39	6754.79
384.58	6745.42
384.78	6787.55
384.97	6731.38
385.17	6420.09
385.36	6043.26
385.56	5710.91
385.75	6113.48
385.95	6637.76
386.14	7180.76
386.34	7398.43
386.53	6946.71
386.72	6389.66
386.92	6530.09
387.11	6799.26
387.31	7253.32
387.50	7023.95
387.70	6607.33
387.89	6722.02
388.09	6771.17
388.28	6829.68
388.48	6869.47
388.67	7520.14
388.86	8198.90
389.06	8667.00
389.25	9128.09
389.45	9125.75
389.64	9343.42
389.84	9195.96
390.03	8975.95
390.22	9135.11
390.42	9100.00
390.61	9895.78
390.81	10611.99
391.00	10848.38
391.19	10785.19
391.39	10228.14
391.58	9535.34
391.78	9071.92
391.97	8741.90
392.16	8189.53
392.36	7496.74
392.55	5935.60
392.75	4711.50
392.94	3911.04
393.13	3948.48
393.33	4718.52
393.52	5783.46
393.71	7201.83
393.91	8236.35
394.10	8889.35
394.29	9727.27
394.49	10558.16
394.68	11428.84
394.88	11400.75
395.07	11676.93
395.26	11772.89
395.46	11124.57
395.65	10712.63
395.84	9011.06
396.04	7719.09
396.23	6179.01
396.42	5296.63
396.62	5268.55
396.81	5942.62
397.00	7784.62
397.19	9488.53
397.39	11536.50
397.58	13057.85
397.77	13469.78
397.97	14038.53
398.16	14303.01
398.35	14941.98
398.55	15384.34
398.74	15690.95
398.93	16257.36
399.12	15477.96
399.32	15269.66
399.51	15644.14
399.70	16681.00
399.90	16432.90
400.09	16570.99
400.28	16346.30
400.47	16353.32
400.67	17231.02
400.86	17881.69
401.05	17713.17
401.24	17708.49
401.44	17891.06
401.63	18115.75
401.82	18260.86
402.01	18340.44
402.21	18272.56
402.40	18611.94
402.59	18073.62
402.78	17034.42
402.97	16898.67
403.17	17535.29
403.36	18473.85
403.55	18937.27
403.74	19442.83
403.93	18361.50
404.13	17078.89
404.32	16739.51
404.51	17408.90
404.70	18822.59
404.89	18799.18
405.09	18424.70
405.28	18120.43
405.47	17621.89
405.66	17598.49
405.85	17558.70
406.05	17261.45
406.24	17359.75
406.43	17935.53
406.62	18684.50
406.81	18993.45
407.00	18251.50
407.20	17724.88
407.39	17975.31
407.58	18876.42
407.77	19227.50
407.96	19903.92
408.15	20009.24
408.34	20320.53
408.54	21500.16
408.73	21282.49
408.92	21003.97
409.11	20587.35
409.30	19405.38
409.49	17912.12
409.68	16992.29
409.87	16615.46
410.07	17591.47
410.26	18696.20
410.45	20350.96
410.64	20699.70
410.83	21453.35
411.02	21792.73
411.21	22595.53
411.40	22635.32
411.59	22520.63
411.78	22642.34
411.98	22176.58
412.17	22480.85
412.36	22150.83
412.55	22059.55
412.74	21867.63
412.93	21245.04
413.12	21493.14
413.31	23843.04
413.50	23723.67
413.69	24444.56
413.88	23278.97
414.07	22347.44
414.26	23033.21
414.45	23480.25
414.64	23620.69
414.83	23894.53
415.02	23124.49
415.22	23271.95
415.41	23730.69
415.60	24276.04
415.79	25619.50
415.98	26309.96
416.17	26199.96
416.36	25376.09
416.55	25013.31
416.74	24144.97
416.93	23318.76
417.12	23459.19
417.31	23894.53
417.50	24276.04
417.69	24854.15
417.88	25165.44
418.07	24503.07
418.26	24294.76
418.45	24823.72
418.64	25151.40
418.83	26113.36
419.02	26071.23
419.21	25790.36
419.39	24507.75
419.58	23515.36
419.77	23765.80
419.96	24776.91
420.15	25734.19
420.34	26738.28
420.53	27873.44
420.72	27995.15
420.91	28041.96
421.10	27520.02
421.29	27328.10
421.48	26342.73
421.67	27835.99
421.86	26583.80
422.05	25102.25
422.24	22394.25
422.43	22377.86
422.61	24933.73
422.80	26438.69
422.99	26757.00
423.18	25549.29
423.37	25455.67
423.56	25415.88
423.75	25844.20
423.94	26085.27
424.13	25127.99
424.32	25273.10
424.50	25001.60
424.69	25329.28
424.88	25401.83
425.07	25071.82
425.26	24903.30
425.45	24407.11
425.64	23927.30
425.83	23908.57
426.01	25563.33
426.20	25888.67
426.39	25963.56
426.58	24046.66
426.77	21940.18
426.96	21542.29
427.15	22167.21
427.33	24149.65
427.52	25186.50
427.71	24966.49
427.90	24805.00
428.09	24678.61
428.28	24306.46
428.46	23393.65
428.65	23009.81
428.84	23791.55
429.03	23974.11
429.22	22703.20
429.40	21525.91
429.59	19374.95
429.78	17451.03
429.97	17448.69
430.16	17745.94
430.34	17727.22
430.53	17575.08
430.72	18085.32
430.91	20376.70
431.10	23754.10
431.28	27744.71
431.47	29462.66
431.66	30085.25
431.85	27281.28
432.03	25603.12
432.22	24077.09
432.41	24872.87
432.60	27646.41
432.79	29099.88
432.97	29766.93
433.16	28851.78
433.35	26504.23
433.54	23882.83
433.72	22597.87
433.91	23129.17
434.10	25783.34
434.28	27747.05
434.47	29305.85
434.66	28641.14
434.85	28072.39
435.03	27623.00
435.22	28437.51
435.41	30164.82
435.59	30064.18
435.78	30476.12
435.97	31578.51
436.16	31704.90
436.34	30859.96
436.53	30403.56
436.72	30764.00
436.90	28797.95
437.09	29188.82
437.28	28203.46
437.46	29305.85
437.65	29460.32
437.84	27012.12
438.02	25001.60
438.21	25102.25
438.40	26368.48
438.58	28519.43
438.77	29495.43
438.96	29844.17
439.14	30522.93
439.33	31763.41
439.52	31952.99
439.70	31512.97
439.89	30312.28
440.08	30092.27
440.26	30000.99
440.45	31030.82
440.63	33214.54
440.82	34843.56
441.01	33785.63
441.19	33851.17
441.38	34305.23
441.57	35515.29
441.75	35871.05
441.94	36046.59
442.12	36098.08
442.31	36416.40
442.50	36533.42
442.68	35906.16
442.87	35789.13
443.05	35110.38
443.24	36098.08
443.43	36177.66
443.61	37130.26
443.80	37106.85
443.98	35714.23
444.17	35330.39
444.35	37368.99
444.54	38249.03
444.73	37167.71
444.91	35910.84
445.10	34501.84
445.28	33317.53
445.47	32577.92
445.65	33146.67
445.84	34045.43
446.02	35005.05
446.21	35253.15
446.39	35763.39
446.58	36191.70
446.77	36458.52
446.95	37202.82
447.14	37668.58
447.32	39042.48
447.51	37729.44
447.69	36376.61
447.88	36100.42
448.06	36774.50
448.25	37408.78
448.43	37209.84
448.62	36561.51
448.80	36758.11
448.99	36919.61
449.17	37373.67
449.36	37083.45
449.54	38628.20
449.73	39124.40
449.91	39522.29
450.10	40889.16
450.28	40942.99
450.46	40715.96
450.65	40495.95
450.83	40624.68
451.02	39737.62
451.20	39615.91
451.39	39613.57
451.57	39358.45
451.76	39515.26
451.94	38770.97
452.13	38660.97
452.31	36828.33
452.49	35154.85
452.68	35229.74
452.86	35526.99
453.05	36271.28
453.23	37322.18
453.42	38174.14
453.60	38583.73
453.78	39037.80
453.97	38836.51
454.15	39110.35
454.34	38230.31
454.52	38082.86
454.70	37413.46
454.89	37668.58
455.07	37954.13
455.26	38775.66
455.44	40414.03
455.62	41418.12
455.81	40577.87
455.99	40802.56
456.17	40076.99
456.36	40425.73
456.54	41364.29
456.73	41596.00
456.91	41848.78
457.09	41816.01
457.28	42920.74
457.46	41331.52
457.64	40772.13
457.83	39917.84
458.01	39185.25
458.19	40133.17
458.38	40334.45
458.56	41319.82
458.74	41366.63
458.93	40676.17
459.11	40502.97
459.29	40446.80
459.48	40893.84
459.66	40392.97
459.84	40987.46
460.03	41375.99
460.21	41085.76
460.39	42391.78
460.57	42003.25
460.76	42665.63
460.94	43255.44
461.12	42115.60
461.31	42099.22
461.49	42424.55
461.67	41947.08
461.85	43597.16
462.04	43082.24
462.22	43466.09
462.40	43159.48
462.59	43482.47
462.77	43196.93
462.95	43086.92
463.13	42356.67
463.32	42300.50
463.50	42103.90
463.68	41734.09
463.86	42361.36
464.05	41914.31
464.23	41202.79
464.41	40545.10
464.59	40650.42
464.78	42019.64
464.96	41797.29
465.14	41535.15
465.32	42618.81
465.50	43606.52
465.69	43629.93
465.87	42909.04
466.05	41965.81
466.23	40151.89
466.41	39269.51
466.60	40392.97
466.78	40444.46
466.96	41319.82
467.14	41855.80
467.32	42618.81
467.51	42225.60
467.69	40662.13
467.87	41111.51
468.05	42087.51
468.23	42021.98
468.41	42368.38
468.60	42036.02
468.78	42272.42
468.96	42085.17
469.14	42721.80
469.32	43143.09
469.50	40987.46
469.69	41715.37
469.87	40446.80
470.05	40814.26
470.23	41015.55
470.41	41207.47
470.59	41612.38
470.77	41666.22
470.95	43056.50
471.14	43129.05
471.32	42976.92
471.50	45141.91
471.68	45347.88
471.86	45794.92
472.04	45446.18
472.22	45823.01
472.40	43761.00
472.58	43810.15
472.77	42904.36
472.95	44065.27
473.13	45186.38
473.31	44121.44
473.49	44116.76
473.67	45305.75
473.85	45382.99
474.03	46412.82
474.21	46171.75
474.39	46733.48
474.57	47030.72
474.75	46920.72
474.93	46616.45
475.12	45275.32
475.30	45750.45
475.48	45778.54
475.66	46740.50
475.84	46115.58
476.02	45982.16
476.20	45242.56
476.38	45858.12
476.56	47232.01
476.74	47611.18
476.92	47730.54
477.10	48418.66
477.28	49441.48
477.46	49560.84
477.64	49886.18
477.82	49879.16
478.00	49837.03
478.18	49301.04
478.36	49310.41
478.54	49567.87
478.72	49631.06
478.90	50375.35
479.08	51592.43
479.26	51695.41
479.44	51805.42
479.62	51491.79
479.80	51461.36
479.98	51409.87
480.16	51964.57
480.34	51643.92
480.52	51833.50
480.70	52224.37
480.88	52247.78
481.06	52669.08
481.24	52673.76
481.41	53532.73
481.59	54113.19
481.77	53853.39
481.95	53460.18
482.13	53392.30
482.31	53434.43
482.49	53808.92
482.67	53890.83
482.85	54094.46
483.03	54365.96
483.21	54585.97
483.39	54876.20
483.57	54199.79
483.74	53853.39
483.92	54396.39
484.10	54365.96
484.28	55021.31
484.46	55276.43
484.64	55681.34
484.82	55004.93
485.00	54703.00
485.18	53820.62
485.35	52940.58
485.53	50373.01
485.71	46740.50
485.89	46972.21
486.07	48329.72
486.25	51489.45
486.43	53441.45
486.61	53935.30
486.78	54017.22
486.96	54349.58
487.14	55229.62
487.32	55791.35
487.50	56931.19
487.68	57216.74
487.85	57659.10
488.03	57602.92
488.21	57214.40
488.39	56610.54
488.57	56411.59
488.75	56161.15
488.92	56879.70
489.10	58607.01
489.28	59402.80
489.46	60189.22
489.64	59859.20
489.81	59908.35
489.99	59613.44
490.17	59997.29
490.35	60161.13
490.53	59627.49
490.70	59578.34
490.88	59227.26
491.06	60362.42
491.24	60121.34
491.41	59192.15
491.59	58038.26
491.77	57535.05
491.95	58541.48
492.13	59159.38
492.30	60207.94
492.48	60963.93
492.66	61434.38
492.84	61190.97
493.01	60954.57
493.19	60601.15
493.37	60430.29
493.54	59978.57
493.72	60893.72
493.90	61677.80
494.08	62129.52
494.25	62433.79
494.43	62534.43
494.61	62965.09
494.79	63002.54
494.96	62796.57
495.14	62269.95
495.32	61366.51
495.49	61109.05
495.67	61914.19
495.85	63051.69
496.02	63304.47
496.20	63079.78
496.38	62777.85
496.55	62733.38
496.73	63281.06
496.91	63231.91
497.09	63739.81
497.26	63744.49
497.44	63447.24
497.62	62911.26
497.79	62323.78
497.97	61394.59
498.14	61350.12
498.32	62340.17
498.50	63147.65
498.67	63646.19
498.85	63575.97
499.03	63669.59
499.20	63842.79
499.38	63868.54
499.56	63749.17
499.73	63269.36
499.91	63096.16
500.08	62590.61
500.26	62073.35
500.44	62368.26
500.61	62911.26
500.79	62740.40
500.97	62382.30
501.14	62464.22
501.32	62272.29
501.49	62330.81
501.67	62454.86
501.84	62948.71
502.02	63131.27
502.20	63295.11
502.37	63575.97
502.55	63515.12
502.72	64126.00
502.90	64371.75
503.07	64067.48
503.25	63934.07
503.43	62972.11
503.60	62539.11
503.78	62075.69
503.95	62539.11
504.13	63585.33
504.30	64224.30
504.48	64065.14
504.65	63987.91
504.83	63840.45
505.01	64463.03
505.18	64750.92
505.36	65235.41
505.53	65263.50
505.71	65389.89
505.88	65535.00
506.06	64872.63
506.23	64605.81
506.41	64371.75
506.58	64699.43
506.76	64666.66
506.93	64540.27
507.11	64266.43
507.28	64364.73
507.46	64088.55
507.63	63505.76
507.81	63412.13
507.98	63662.57
508.16	64236.00
508.33	64488.78
508.50	65165.20
508.68	65120.73
508.85	65535.00
509.03	65535.00
509.20	65453.08
509.38	64896.03
509.55	64097.91
509.73	64390.48
509.90	64750.92
510.08	64914.76
510.25	64865.61
510.42	64659.64
510.60	64580.06
510.77	65094.98
510.95	65474.15
511.12	65474.15
511.30	65535.00
511.47	65535.00
511.64	65535.00
511.82	65535.00
511.99	65071.57
512.17	64654.96
512.34	64313.24
512.51	64640.92
512.69	64767.30
512.86	64767.30
513.04	64989.66
513.21	65113.70
513.38	64697.09
513.56	64362.39
513.73	63800.66
513.90	64088.55
514.08	64037.06
514.25	64495.80
514.43	64603.47
514.60	64544.95
514.77	64687.73
514.95	64683.04
515.12	64912.42
515.29	64912.42
515.47	65455.42
515.64	65535.00
515.81	65261.16
515.99	64748.58
516.16	63379.37
516.33	61422.68
516.51	60364.76
516.68	59753.88
516.85	59327.90
517.03	60004.31
517.20	62082.71
517.37	63950.46
517.54	64889.01
517.72	64491.12
517.89	62314.42
518.06	60402.21
518.24	61015.43
518.41	62529.75
518.58	63728.11
518.75	63807.68
518.93	64015.99
519.10	63803.00
519.27	64233.66
519.45	64512.19
519.62	65041.15
519.79	65492.87
519.96	65190.94
520.14	64746.24
520.31	64186.85
520.48	64133.02
520.65	64465.38
520.83	65373.50
521.00	65485.85
521.17	65188.60
521.34	64844.54
521.52	65289.24
521.69	65535.00
521.86	65535.00
522.03	65535.00
522.20	64491.12
522.38	63634.48
522.55	63810.03
522.72	64271.11
522.89	64399.84
523.07	64629.21
523.24	65071.57
523.41	65535.00
523.58	65535.00
523.75	65535.00
523.92	65535.00
524.10	65535.00
524.27	65535.00
524.44	65535.00
524.61	65535.00
524.78	65535.00
524.96	65535.00
525.13	65535.00
525.30	65535.00
525.47	65535.00
525.64	65535.00
525.81	65481.17
525.98	64310.90
526.16	63264.68
526.33	62621.03
526.50	62260.59
526.67	61937.60
526.84	62642.10
527.01	63245.96
527.18	64097.91
527.36	64982.63
527.53	65535.00
527.70	65535.00
527.87	65317.33
528.04	64856.24
528.21	65413.29
528.38	65535.00
528.55	65535.00
528.72	65535.00
528.89	65535.00
529.07	65535.00
529.24	65535.00
529.41	65403.93
529.58	64975.61
529.75	65062.21
529.92	65408.61
530.09	65535.00
530.26	65535.00
530.43	65535.00
530.60	65535.00
530.77	65535.00
530.94	65535.00
531.11	65535.00
531.28	65535.00
531.46	65535.00
531.63	65535.00
531.80	65535.00
531.97	65324.35
532.14	64814.12
532.31	64008.97
532.48	63264.68
532.65	63552.57
532.82	64268.77
532.99	65106.68
533.16	65471.81
533.33	65535.00
533.50	65535.00
533.67	65151.15
533.84	64781.35
534.01	65050.51
534.18	65223.71
534.35	65317.33
534.52	65144.13
534.69	65420.31
534.86	65535.00
535.03	65535.00
535.20	65535.00
535.37	65535.00
535.54	65535.00
535.71	65535.00
535.88	65535.00
536.05	65535.00
536.22	65176.90
536.38	64952.21
536.55	64587.08
536.72	64299.20
536.89	64273.45
537.06	64994.34
537.23	65535.00
537.40	65535.00
537.57	65535.00
537.74	65535.00
537.91	65420.31
538.08	65401.59
538.25	65535.00
538.42	65535.00
538.59	65535.00
538.75	64947.53
538.92	64802.41
539.09	64573.04
539.26	64502.82
539.43	64308.56
539.60	64603.47
539.77	64701.77
539.94	64540.27
540.11	63882.58
540.28	63274.04
540.44	63585.33
540.61	63840.45
540.78	63795.98
540.95	64240.68
541.12	64542.61
541.29	64837.52
541.46	65006.04
541.62	65139.45
541.79	64996.68
541.96	64526.23
542.13	64474.74
542.30	64587.08
542.47	64975.61
542.63	64608.15
542.80	64472.40
542.97	64699.43
543.14	64390.48
543.31	64633.89
543.48	64996.68
543.64	65535.00
543.81	65535.00
543.98	65535.00
544.15	65130.09
544.32	64661.98
544.48	64774.33
544.65	65209.67
544.82	65417.97
544.99	65092.64
545.16	64935.82
545.32	64788.37
545.49	65368.82
545.66	65535.00
545.83	65186.26
546.00	64949.87
546.16	64629.21
546.33	64708.79
546.50	64779.01
546.67	65144.13
546.83	64729.86
547.00	64926.46
547.17	64172.81
547.34	63810.03
547.50	63667.25
547.67	64123.66
547.84	64074.51
548.00	64559.00
548.17	65017.74
548.34	64699.43
548.51	64889.01
548.67	64881.99
548.84	64853.90
549.01	64872.63
549.18	64811.77
549.34	64554.32
549.51	64704.11
549.68	64669.00
549.84	64397.50
550.01	64346.01
550.18	64193.87
550.34	64474.74
550.51	64439.63
550.68	64441.97
550.84	64034.72
551.01	64142.38
551.18	63950.46
551.34	64486.44
551.51	64683.04
551.68	65027.10
551.84	64837.52
552.01	64718.15
552.18	64519.21
552.34	63779.60
552.51	63571.29
552.68	63571.29
552.84	63957.48
553.01	64060.46
553.18	64081.53
553.34	64144.72
553.51	64226.64
553.67	64594.10
553.84	64685.39
554.01	64343.67
554.17	64292.18
554.34	64367.07
554.51	64528.57
554.67	64959.23
554.84	64685.39
555.00	64392.82
555.17	64189.19
555.33	64217.28
555.50	64008.97
555.67	64177.49
555.83	64015.99
556.00	63756.19
556.16	63840.45
556.33	63414.47
556.50	63348.94
556.66	63407.45
556.83	63084.46
556.99	63243.62
557.16	63393.41
557.32	63704.70
557.49	63723.43
557.65	63683.64
557.82	63615.76
557.98	63496.39
558.15	62941.69
558.32	62363.57
558.48	61806.53
558.65	62000.79
558.81	62405.70
558.98	62548.48
559.14	62822.32
559.31	62939.35
559.47	62890.19
559.64	62567.20
559.80	62267.61
559.97	62443.15
560.13	62597.63
560.30	63386.39
560.46	63819.39
560.63	64177.49
560.79	64186.85
560.96	63784.28
561.12	62728.70
561.29	62120.16
561.45	62094.41
561.61	62740.40
561.78	62937.01
561.94	62843.38
562.11	62644.44
562.27	62782.53
562.44	62866.79
562.60	63367.66
562.77	63281.06
562.93	63360.64
563.10	63131.27
563.26	62667.84
563.42	62929.98
563.59	62719.34
563.75	62583.58
563.92	62688.91
564.08	62389.32
564.24	62929.98
564.41	62794.23
564.57	62646.78
564.74	62604.65
564.90	62515.71
565.07	62337.83
565.23	62068.67
565.39	61563.11
565.56	61413.32
565.72	61190.97
565.88	61673.12
566.05	61614.60
566.21	61963.34
566.38	62026.54
566.54	61890.79
566.70	62588.27
566.87	62569.54
567.03	62494.64
567.19	62831.68
567.36	62588.27
567.52	62389.32
567.68	62068.67
567.85	61865.04
568.01	61389.91
568.17	61069.26
568.34	61130.11
568.50	61207.35
568.66	61205.01
568.83	61598.22
568.99	61420.34
569.15	61630.99
569.32	61703.54
569.48	61490.55
569.64	61338.42
569.81	61034.15
569.97	61099.68
570.13	60879.67
570.30	60629.24
570.46	60261.77
570.62	60006.65
570.78	59697.70
570.95	59791.33
571.11	60544.98
571.27	60566.04
571.43	61003.72
571.60	61319.70
571.76	61244.80
571.92	61628.65
572.09	61729.29
572.25	61413.32
572.41	61579.49
572.57	61567.79
572.74	61333.74
572.90	61017.77
573.06	61034.15
573.22	61183.94
573.38	61223.73
573.55	61244.80
573.71	61160.54
573.87	61345.44
574.03	61153.52
574.20	61050.53
574.36	60963.93
574.52	60781.37
574.68	60509.87
574.84	60133.04
575.01	59786.64
575.17	59976.23
575.33	60135.38
575.49	60406.89
575.65	60502.85
575.82	60182.19
575.98	60126.02
576.14	60324.97
576.30	60376.46
576.46	60608.17
576.62	60409.23
576.79	60449.02
576.95	60130.70
577.11	60193.90
577.27	60168.15
577.43	60348.37
577.59	60097.94
577.75	59646.21
577.92	59262.36
578.08	58960.44
578.24	59011.93
578.40	59358.33
578.56	59440.24
578.72	59442.59
578.88	59803.03
579.04	59863.88
579.21	59870.90
579.37	59915.37
579.53	60020.70
579.69	59725.79
579.85	60182.19
580.01	59723.45
580.17	59318.54
580.33	59414.50
580.49	59444.93
580.65	59884.95
580.82	59868.56
580.98	59737.49
581.14	59597.06
581.30	59861.54
581.46	59686.00
581.62	59978.57
581.78	59910.69
581.94	60315.61
582.10	60172.83
582.26	60130.70
582.42	60172.83
582.58	60062.83
582.74	60088.57
582.90	60182.19
583.06	60023.04
583.22	59969.21
583.38	59957.50
583.54	59849.84
583.70	59767.92
583.86	59681.32
584.02	59812.39
584.18	59742.17
584.34	59779.62
584.50	59674.30
584.66	59377.05
584.82	59215.55
584.98	59313.86
585.14	58817.66
