SpectraSuite Data File
++++++++++++++++++++++++++++++++++++
Date: Mon Oct 07 14:52:58 GMT-05:00 2013
User: price-jones
Dark Spectrum Present: No
Reference Spectrum Present: No
Number of Sampled Component Spectra: 1
Spectrometers: USB2+H05261
Integration Time (usec): 100000 (USB2+H05261)
Spectra Averaged: 1 (USB2+H05261)
Boxcar Smoothing: 0 (USB2+H05261)
Correct for Electrical Dark: No (USB2+H05261)
Strobe/Lamp Enabled: No (USB2+H05261)
Correct for Detector Non-linearity: No (USB2+H05261)
Correct for Stray Light: No (USB2+H05261)
Number of Pixels in Processed Spectrum: 2048
>>>>>Begin Processed Spectral Data<<<<<
365.73	0.00
365.92	0.00
366.12	0.00
366.32	0.00
366.52	0.00
366.72	0.00
366.91	0.00
367.11	0.00
367.31	0.00
367.51	0.00
367.70	0.00
367.90	0.00
368.10	0.00
368.30	0.00
368.49	0.00
368.69	0.00
368.89	0.00
369.09	0.00
369.28	0.00
369.48	0.00
369.68	0.00
369.87	0.00
370.07	0.00
370.27	0.00
370.47	449.38
370.66	2789.92
370.86	3414.84
371.06	3440.59
371.25	3702.73
371.45	3227.60
371.65	2876.52
371.84	2813.32
372.04	2981.84
372.24	3253.34
372.44	3309.52
372.63	3370.37
372.83	3131.64
373.03	2764.17
373.22	2553.52
373.42	2567.57
373.62	3033.33
373.81	3410.16
374.01	3344.63
374.21	3026.31
374.40	2792.26
374.60	3033.33
374.79	3330.58
374.99	3674.64
375.19	4037.42
375.38	4014.02
375.58	3737.84
375.78	3913.38
375.97	3852.52
376.17	4086.58
376.37	3995.29
376.56	4021.04
376.76	4379.14
376.95	4634.26
377.15	4947.89
377.35	5114.07
377.54	5432.38
377.74	5465.15
377.93	5488.56
378.13	5238.12
378.33	5254.50
378.52	4547.66
378.72	4414.25
378.91	4463.40
379.11	4329.99
379.31	3997.64
379.50	4177.86
379.70	4418.93
379.89	4849.59
380.09	5331.74
380.28	5530.69
380.48	5488.56
380.68	5226.42
380.87	5001.72
381.07	4683.41
381.26	4224.67
381.46	4091.26
381.65	3976.57
381.85	4025.72
382.04	3705.07
382.24	3478.04
382.43	3246.32
382.63	3190.15
382.83	3246.32
383.02	3253.34
383.22	3314.20
383.41	3269.73
383.61	3543.57
383.80	3953.16
384.00	4601.49
384.19	5165.56
384.39	5376.21
384.58	5277.91
384.78	5242.80
384.97	5062.58
385.17	4774.69
385.36	4863.63
385.56	4575.75
385.75	4477.44
385.95	5039.17
386.14	5554.09
386.34	5320.04
386.53	5186.63
386.72	4980.66
386.92	5104.71
387.11	5362.17
387.31	5565.79
387.50	5561.11
387.70	5240.46
387.89	5165.56
388.09	5151.52
388.28	5221.74
388.48	5291.95
388.67	5832.62
388.86	6237.53
389.06	6782.87
389.25	7119.91
389.45	7194.81
389.64	7103.53
389.84	7047.35
390.03	6970.12
390.22	6759.47
390.42	7136.29
390.61	7719.09
390.81	8025.70
391.00	8383.80
391.19	8226.98
391.39	8002.29
391.58	7522.48
391.78	7173.74
391.97	6747.76
392.16	6307.74
392.36	5898.15
392.55	4730.22
392.75	3646.55
392.94	3005.25
393.13	3016.95
393.33	3702.73
393.52	4587.45
393.71	5612.60
393.91	6406.05
394.10	6836.70
394.29	7667.60
394.49	8051.44
394.68	8641.26
394.88	8659.98
395.07	9104.68
395.26	8858.93
395.46	8545.30
395.65	8208.26
395.84	7138.63
396.04	6113.48
396.23	4795.76
396.42	4109.98
396.62	4035.08
396.81	4830.87
397.00	6047.94
397.19	7363.33
397.39	8847.22
397.58	9973.02
397.77	10455.17
397.97	11000.52
398.16	11005.20
398.35	11290.74
398.55	11583.31
398.74	12131.00
398.93	12493.78
399.12	12212.92
399.32	11676.93
399.51	12231.64
399.70	12741.88
399.90	12636.55
400.09	12882.31
400.28	12730.17
400.47	12566.34
400.67	13013.38
400.86	13640.64
401.05	13469.78
401.24	13579.79
401.44	13841.93
401.63	14022.15
401.82	13935.55
402.01	14160.24
402.21	14094.71
402.40	14281.95
402.59	13745.97
402.78	13135.09
402.97	12966.57
403.17	13584.47
403.36	14122.79
403.55	14785.16
403.74	14998.15
403.93	14160.24
404.13	13345.73
404.32	12631.87
404.51	13680.43
404.70	14441.11
404.89	14565.15
405.09	14347.48
405.28	13855.97
405.47	13855.97
405.66	13710.86
405.85	13542.34
406.05	13359.78
406.24	13441.70
406.43	13975.34
406.62	14597.92
406.81	14494.94
407.00	13671.07
407.20	13837.25
407.39	13792.78
407.58	14361.53
407.77	15279.02
407.96	15515.41
408.15	15573.92
408.34	15768.19
408.54	16470.35
408.73	16608.44
408.92	16163.74
409.11	15770.53
409.30	14993.47
409.49	14045.55
409.68	13174.88
409.87	12978.27
410.07	13689.79
410.26	14679.84
410.45	15447.54
410.64	16053.73
410.83	16563.97
411.02	16915.05
411.21	17626.57
411.40	17392.52
411.59	17624.23
411.78	17439.33
411.98	16851.86
412.17	17572.74
412.36	17020.38
412.55	17415.93
412.74	16849.52
412.93	16379.07
413.12	16594.40
413.31	18295.97
413.50	18731.31
413.69	18548.75
413.88	17851.27
414.07	17287.20
414.26	17806.80
414.45	18508.96
414.64	18202.35
414.83	18576.83
415.02	18239.79
415.22	18090.00
415.41	18462.15
415.60	19040.26
415.79	19714.33
415.98	20299.47
416.17	20388.41
416.36	19667.52
416.55	19452.19
416.74	18675.13
416.93	18211.71
417.12	18429.38
417.31	18317.03
417.50	18689.18
417.69	19515.39
417.88	19389.00
418.07	19058.98
418.26	18909.19
418.45	19225.16
418.64	19784.55
418.83	20283.08
419.02	20280.74
419.21	19922.64
419.39	18754.71
419.58	18221.07
419.77	18352.14
419.96	19248.57
420.15	19967.11
420.34	21074.18
420.53	21333.98
420.72	22043.17
420.91	21537.61
421.10	21214.62
421.29	21123.33
421.48	20369.68
421.67	21357.39
421.86	20671.61
422.05	19297.72
422.24	17317.62
422.43	17577.42
422.61	19030.90
422.80	20489.05
422.99	20531.18
423.18	19892.21
423.37	19344.53
423.56	19740.08
423.75	19971.79
423.94	20425.86
424.13	19241.54
424.32	19349.21
424.50	19513.05
424.69	19452.19
424.88	19377.30
425.07	19353.89
425.26	19318.78
425.45	19007.49
425.64	18897.49
425.83	18789.82
426.01	19777.53
426.20	20182.44
426.39	20252.66
426.58	18698.54
426.77	17366.78
426.96	16854.20
427.15	17326.99
427.33	18885.78
427.52	19793.91
427.71	19508.37
427.90	19421.77
428.09	19206.44
428.28	18740.67
428.46	18113.41
428.65	17762.33
428.84	18401.29
429.03	18567.47
429.22	17345.71
429.40	16491.41
429.59	15028.58
429.78	13275.52
429.97	13364.46
430.16	13600.85
430.34	13493.19
430.53	13839.59
430.72	14204.71
430.91	15288.38
431.10	18244.48
431.28	21425.26
431.47	23690.90
431.66	23398.34
431.85	21394.84
432.03	19775.19
432.22	18918.55
432.41	19531.77
432.60	21532.93
432.79	22703.20
432.97	23248.54
433.16	22525.32
433.35	20531.18
433.54	18239.79
433.72	17493.16
433.91	17853.61
434.10	19974.13
434.28	21802.09
434.47	22754.69
434.66	22249.13
434.85	21799.75
435.03	21668.68
435.22	22199.98
435.41	23557.49
435.59	23550.47
435.78	23896.87
435.97	24418.81
436.16	24411.79
436.34	24044.32
436.53	23412.38
436.72	23948.36
436.90	22527.66
437.09	22628.30
437.28	21947.20
437.46	22724.26
437.65	22735.96
437.84	21198.23
438.02	19379.64
438.21	19477.94
438.40	20561.61
438.58	22324.03
438.77	22773.41
438.96	22806.18
439.14	24105.18
439.33	24496.05
439.52	25022.67
439.70	24397.74
439.89	23814.95
440.08	23468.55
440.26	23501.32
440.45	24063.05
440.63	25596.10
440.82	26618.91
441.01	26199.96
441.19	26457.42
441.38	26899.78
441.57	27651.09
441.75	27875.78
441.94	27718.96
442.12	27550.45
442.31	28313.46
442.50	28641.14
442.68	28056.00
442.87	27754.07
443.05	27435.76
443.24	27828.97
443.43	28217.50
443.61	28444.53
443.80	29432.24
443.98	27662.79
444.17	27812.59
444.35	28929.02
444.54	30101.63
444.73	29287.12
444.91	28252.61
445.10	27110.43
445.28	26218.68
445.47	25642.91
445.65	25748.23
445.84	26579.12
446.02	27070.64
446.21	27655.77
446.39	27573.85
446.58	28404.74
446.77	28936.04
446.95	28989.88
447.14	29841.83
447.32	30249.08
447.51	29057.75
447.69	28496.02
447.88	28041.96
448.06	28685.61
448.25	29060.09
448.43	29427.56
448.62	28830.72
448.80	28442.19
448.99	28545.17
449.17	29200.52
449.36	29069.45
449.54	30368.45
449.73	30965.29
449.91	30801.45
450.10	32011.51
450.28	31978.74
450.46	32243.22
450.65	32002.14
450.83	31821.92
451.02	30967.63
451.20	31246.15
451.39	31180.62
451.57	30866.98
451.76	30948.90
451.94	30855.28
452.13	29984.60
452.31	28753.48
452.49	27234.47
452.68	27623.00
452.86	27983.44
453.05	28276.01
453.23	29053.07
453.42	29937.79
453.60	30441.01
453.78	30609.53
453.97	30213.98
454.15	30223.34
454.34	29584.37
454.52	30260.79
454.70	29329.25
454.89	29603.10
455.07	29539.90
455.26	30047.80
455.44	31407.65
455.62	31922.57
455.81	31709.58
455.99	31365.52
456.17	31613.62
456.36	31590.21
456.54	32678.56
456.73	32236.20
456.91	32872.82
457.09	33069.43
457.28	33350.29
457.46	32226.84
457.64	32353.23
457.83	31435.74
458.01	30536.97
458.19	31442.76
458.38	31494.25
458.56	32505.36
458.74	32292.37
458.93	31974.06
459.11	31665.11
459.29	31615.96
459.48	31791.50
459.66	31627.66
459.84	31913.20
460.03	32217.47
460.21	32505.36
460.39	32964.10
460.57	33153.69
460.76	33706.05
460.94	33525.83
461.12	33528.17
461.31	33235.61
461.49	33326.89
461.67	33277.74
461.85	34328.64
462.04	34160.12
462.22	34871.64
462.40	33940.11
462.59	33787.97
462.77	34015.01
462.95	33806.70
463.13	33563.28
463.32	33270.72
463.50	33024.96
463.68	33362.00
463.86	33069.43
464.05	32804.95
464.23	32236.20
464.41	32098.11
464.59	31737.66
464.78	33633.50
464.96	32751.12
465.14	32409.40
465.32	33584.35
465.50	33869.89
465.69	34448.00
465.87	33853.51
466.05	32641.11
466.23	31388.92
466.41	31316.37
466.60	32027.89
466.78	31835.97
466.96	32470.25
467.14	32589.62
467.32	33310.50
467.51	32989.85
467.69	32093.43
467.87	32388.33
468.05	33146.67
468.23	33076.45
468.41	33001.55
468.60	32486.64
468.78	33776.27
468.96	33422.85
469.14	33560.94
469.32	33652.22
469.50	32301.73
469.69	32060.66
469.87	32273.65
470.05	32217.47
470.23	31990.44
470.41	32041.93
470.59	32921.98
470.77	32802.61
470.95	33591.37
471.14	33832.44
471.32	34066.50
471.50	35117.40
471.68	35601.89
471.86	36037.23
472.04	36231.49
472.22	35969.35
472.40	34522.90
472.58	34113.31
472.77	33921.38
472.95	34476.09
473.13	35798.49
473.31	34981.65
473.49	34848.24
473.67	35817.22
473.85	35988.08
474.03	36753.43
474.21	36568.53
474.39	37099.83
474.57	37193.45
474.75	37469.64
474.93	37144.30
475.12	36282.98
475.30	36046.59
475.48	36285.33
475.66	36844.71
475.84	36360.22
476.02	36472.57
476.20	35445.07
476.38	36605.98
476.56	37497.72
476.74	37916.68
476.92	37762.20
477.10	39388.88
477.28	39519.95
477.46	39943.58
477.64	40208.06
477.82	40072.31
478.00	40414.03
478.18	39889.75
478.36	39878.05
478.54	39782.09
478.72	39772.72
478.90	41184.07
479.08	42108.58
479.26	42703.07
479.44	42344.97
479.62	41811.33
479.80	42043.04
479.98	42169.43
480.16	42670.31
480.34	42344.97
480.52	42511.15
480.70	43255.44
480.88	43014.37
481.06	43950.58
481.24	43894.41
481.41	45001.48
481.59	44807.22
481.77	45050.63
481.95	44409.32
482.13	44430.39
482.31	44168.25
482.49	45296.39
482.67	45141.91
482.85	45390.01
483.03	46167.07
483.21	45825.35
483.39	46153.02
483.57	45366.60
483.74	45432.14
483.92	45331.50
484.10	45689.60
484.28	46536.87
484.46	47016.68
484.64	47672.03
484.82	46600.07
485.00	45823.01
485.18	44992.12
485.35	43353.74
485.53	40556.80
485.71	36971.10
485.89	37448.57
486.07	38990.98
486.25	42246.67
486.43	44474.86
486.61	45043.61
486.78	45074.04
486.96	45022.54
487.14	46927.74
487.32	47824.17
487.50	49261.26
487.68	49624.04
487.85	50033.63
488.03	49979.80
488.21	49734.04
488.39	48816.55
488.57	48374.19
488.75	47859.27
488.92	49291.68
489.10	51253.05
489.28	52563.75
489.46	53502.31
489.64	52975.69
489.81	53249.53
489.99	52685.46
490.17	53347.83
490.35	53286.98
490.53	52802.49
490.70	52456.09
490.88	52722.91
491.06	53581.88
491.24	53279.96
491.41	52315.65
491.59	50408.12
491.77	50237.26
491.95	51026.02
492.13	52533.32
492.30	53645.08
492.48	54623.42
492.66	55100.89
492.84	54869.18
493.01	54953.44
493.19	53858.07
493.37	53605.29
493.54	53375.92
493.72	54255.96
493.90	55196.85
494.08	55821.78
494.25	56093.28
494.43	56306.27
494.61	56676.07
494.79	56774.37
494.96	56463.08
495.14	55842.84
495.32	55117.28
495.49	54497.03
495.67	55618.15
495.85	56701.82
496.02	57179.29
496.20	56889.06
496.38	56589.47
496.55	56617.56
496.73	57003.75
496.91	57071.62
497.09	57488.24
497.26	57757.40
497.44	57418.02
497.62	56528.62
497.79	55985.61
497.97	54567.25
498.14	54927.69
498.32	56257.12
498.50	57027.15
498.67	57584.20
498.85	57448.45
499.03	57607.61
499.20	57827.62
499.38	57759.74
499.56	57607.61
499.73	57265.89
499.91	56727.56
500.08	56280.52
500.26	55636.87
500.44	56170.52
500.61	56835.23
500.79	56556.70
500.97	56301.59
501.14	56306.27
501.32	56009.02
501.49	56037.11
501.67	56207.97
501.84	56870.34
502.02	57027.15
502.20	57340.78
502.37	57605.26
502.55	57443.77
502.72	57961.03
502.90	58473.60
503.07	57970.39
503.25	57743.36
503.43	56875.02
503.60	56456.06
503.78	55676.66
503.95	56121.37
504.13	57528.03
504.30	58241.89
504.48	58181.04
504.65	57820.59
504.83	57970.39
505.01	58319.13
505.18	58686.59
505.36	59173.42
505.53	59220.23
505.71	59517.48
505.88	59512.80
506.06	59089.16
506.23	58667.87
506.41	58398.71
506.58	58632.76
506.76	58583.61
506.93	58415.09
507.11	58199.76
507.28	58639.78
507.46	58120.18
507.63	57457.81
507.81	57296.31
507.98	57661.44
508.16	58258.27
508.33	58705.32
508.50	58981.50
508.68	59302.15
508.85	59756.22
509.03	59781.96
509.20	59585.36
509.38	58880.86
509.55	58073.37
509.73	58298.06
509.90	58862.13
510.08	58941.71
510.25	58820.00
510.42	58658.51
510.60	58756.81
510.77	58993.20
510.95	59351.30
511.12	59646.21
511.30	59973.89
511.47	60236.03
511.64	60076.87
511.82	59718.77
511.99	58922.99
512.17	58602.33
512.34	58199.76
512.51	58672.55
512.69	58714.68
512.86	58578.93
513.04	59110.23
513.21	59016.61
513.38	58782.55
513.56	58190.40
513.73	57673.14
513.90	57799.53
514.08	58089.76
514.25	58220.83
514.43	58525.10
514.60	58738.08
514.77	58796.60
514.95	58780.21
515.12	58922.99
515.29	59023.63
515.47	59550.25
515.64	59618.13
515.81	59325.56
515.99	58410.41
516.16	57247.16
516.33	54934.71
516.51	53762.11
516.68	52971.00
516.85	52458.43
517.03	53216.76
517.20	55599.43
517.37	57909.53
517.54	58894.90
517.72	58211.46
517.89	55711.77
518.06	53867.43
518.24	54279.36
518.41	56287.54
518.58	57722.29
518.75	57668.46
518.93	58141.25
519.10	57631.01
519.27	58277.00
519.45	58560.20
519.62	59077.46
519.79	59421.52
519.96	59330.24
520.14	58728.72
520.31	58000.82
520.48	58094.44
520.65	58316.79
520.83	59395.77
521.00	59597.06
521.17	59128.95
521.34	58913.62
521.52	59260.02
521.69	59831.11
521.86	60025.38
522.03	59686.00
522.20	58375.30
522.38	57659.10
522.55	57951.66
522.72	58260.62
522.89	58206.78
523.07	58508.71
523.24	58855.11
523.41	59812.39
523.58	59983.25
523.75	60399.86
523.92	60221.98
524.10	60444.33
524.27	60104.96
524.44	59992.61
524.61	59856.86
524.78	59536.21
524.96	59826.43
525.13	59723.45
525.30	59831.11
525.47	60348.37
525.64	60196.24
525.81	59456.63
525.98	57982.09
526.16	56868.00
526.33	56259.46
526.50	55873.27
526.67	55746.88
526.84	56413.93
527.01	57228.44
527.18	58071.03
527.36	58876.18
527.53	59662.60
527.70	59924.74
527.87	59227.26
528.04	58958.09
528.21	59426.20
528.38	59723.45
528.55	60430.29
528.72	61008.40
528.89	60872.65
529.07	60678.39
529.24	60030.06
529.41	59437.90
529.58	58958.09
529.75	59021.29
529.92	59330.24
530.09	59725.79
530.26	60257.09
530.43	60570.72
530.60	60423.27
530.77	60652.64
530.94	60975.64
531.11	60324.97
531.28	60095.60
531.46	60069.85
531.63	60177.51
531.80	59833.46
531.97	59709.41
532.14	58794.26
532.31	57595.90
532.48	57176.95
532.65	57268.23
532.82	58049.97
532.99	59302.15
533.16	59412.16
533.33	59969.21
533.50	59765.58
533.67	59281.09
533.84	58899.58
534.01	59025.97
534.18	59114.91
534.35	59341.94
534.52	58979.16
534.69	59543.23
534.86	59547.91
535.03	59896.65
535.20	60603.49
535.37	60741.58
535.54	60797.76
535.71	60439.65
535.88	60191.56
536.05	59636.85
536.22	58993.20
536.38	59037.67
536.55	58497.01
536.72	57785.49
536.89	57942.30
537.06	58897.24
537.23	59583.02
537.40	59910.69
537.57	59753.88
537.74	59543.23
537.91	59615.79
538.08	59449.61
538.25	59583.02
538.42	59819.41
538.59	59400.46
538.75	58841.07
538.92	58960.44
539.09	58550.84
539.26	58330.83
539.43	58358.92
539.60	58482.97
539.77	58754.47
539.94	58330.83
540.11	57420.36
540.28	57301.00
540.44	57336.10
540.61	57799.53
540.78	57495.26
540.95	58129.54
541.12	58578.93
541.29	58841.07
541.46	59138.32
541.62	58960.44
541.79	58878.52
541.96	58457.22
542.13	58394.03
542.30	58628.08
542.47	58693.61
542.63	58487.65
542.80	58384.66
542.97	58410.41
543.14	58361.26
543.31	58560.20
543.48	58672.55
543.64	59786.64
543.81	59817.07
543.98	59664.94
544.15	59000.22
544.32	58618.72
544.48	58866.81
544.65	59105.55
544.82	59437.90
544.99	59126.61
545.16	58656.17
545.32	58555.52
545.49	59353.65
545.66	59585.36
545.83	58990.86
546.00	58766.17
546.16	58639.78
546.33	58592.97
546.50	58672.55
546.67	59032.99
546.83	58782.55
547.00	58724.04
547.17	57965.71
547.34	57488.24
547.50	57488.24
547.67	57881.45
547.84	58141.25
548.00	58436.16
548.17	59009.59
548.34	58595.31
548.51	58592.97
548.67	58995.54
548.84	58915.96
549.01	58642.12
549.18	58635.10
549.34	58473.60
549.51	58714.68
549.68	58574.25
549.84	58293.38
550.01	58237.21
550.18	58202.10
550.34	58188.06
550.51	58241.89
550.68	58571.91
550.84	57738.68
551.01	58312.11
551.18	58049.97
551.34	58316.79
551.51	58239.55
551.68	58922.99
551.84	58726.38
552.01	58457.22
552.18	58295.72
552.34	57539.73
552.51	57359.51
552.68	57289.29
552.84	57916.56
553.01	57916.56
553.18	57726.97
553.34	57897.83
553.51	58040.60
553.67	58260.62
553.84	58557.86
554.01	58403.39
554.17	58305.09
554.34	58199.76
554.51	58501.69
554.67	58899.58
554.84	58576.59
555.00	57979.75
555.17	58028.90
555.33	58181.04
555.50	57872.09
555.67	58124.86
555.83	57757.40
556.00	57322.06
556.16	57411.00
556.33	56896.08
556.50	57118.43
556.66	57148.86
556.83	56697.14
556.99	56992.04
557.16	57104.39
557.32	57301.00
557.49	57757.40
557.65	57380.57
557.82	57469.51
557.98	57209.71
558.15	57078.64
558.32	56219.67
558.48	55292.82
558.65	55835.82
558.81	55833.48
558.98	56144.77
559.14	56383.51
559.31	56346.06
559.47	56603.52
559.64	56172.86
559.80	55519.85
559.97	55901.36
560.13	56294.56
560.30	57207.37
560.46	57623.99
560.63	58211.46
560.79	57841.66
560.96	57621.65
561.12	56353.08
561.29	55437.93
561.45	55667.30
561.61	56334.35
561.78	56790.76
561.94	56474.79
562.11	56224.35
562.27	56348.40
562.44	56509.89
562.60	56779.06
562.77	57127.80
562.93	56942.89
563.10	56853.95
563.26	56170.52
563.42	56500.53
563.59	56121.37
563.75	56116.68
563.92	56186.90
564.08	56154.13
564.24	56699.48
564.41	56495.85
564.57	56348.40
564.74	56357.76
564.90	56243.07
565.07	56107.32
565.23	55512.83
565.39	54913.65
565.56	55056.42
565.72	54703.00
565.88	55047.06
566.05	55049.40
566.21	55330.26
566.38	55702.41
566.54	55552.62
566.70	55915.40
566.87	56250.09
567.03	56175.20
567.19	56542.66
567.36	56095.62
567.52	56018.38
567.68	55559.64
567.85	55203.88
568.01	54918.33
568.17	54164.68
568.34	54424.48
568.50	54429.16
568.66	54651.51
568.83	54911.31
568.99	54887.90
569.15	55267.07
569.32	55128.98
569.48	54813.01
569.64	54805.98
569.81	54344.90
569.97	54284.04
570.13	54197.44
570.30	53495.28
570.46	53446.13
570.62	52844.62
570.78	52753.33
570.95	53071.65
571.11	53701.25
571.27	53965.73
571.43	54265.32
571.60	54770.88
571.76	54944.08
571.92	55161.75
572.09	55112.59
572.25	55042.38
572.41	55196.85
572.57	55025.99
572.74	55121.96
572.90	54422.14
573.06	54494.69
573.22	54695.98
573.38	54459.58
573.55	54447.88
573.71	54717.04
573.87	54600.02
574.03	54447.88
574.20	54349.58
574.36	54061.69
574.52	53928.28
574.68	53450.81
574.84	53396.98
575.01	52893.77
575.17	52947.60
575.33	53352.51
575.49	53595.93
575.65	53518.69
575.82	53464.86
575.98	53120.80
576.14	53425.07
576.30	53499.97
576.46	53748.06
576.62	53691.89
576.79	53663.80
576.95	53469.54
577.11	53120.80
577.27	53338.47
577.43	53427.41
577.59	52886.74
577.75	52465.45
577.92	51669.67
578.08	51885.00
578.24	51742.22
578.40	52126.07
578.56	52381.19
578.72	52353.10
578.88	53064.63
579.04	52971.00
579.21	52858.66
579.37	52781.42
579.53	52973.34
579.69	53102.07
579.85	53076.33
580.01	52769.72
580.17	52608.22
580.33	52257.14
580.49	52619.92
580.65	53031.86
580.82	53085.69
580.98	52795.46
581.14	52994.41
581.30	53191.01
581.46	53006.11
581.62	53125.48
581.78	53083.35
581.94	53392.30
582.10	53057.60
582.26	53457.84
582.42	53195.70
582.58	53015.47
582.74	53329.11
582.90	53137.18
583.06	53006.11
583.22	52891.43
583.38	52868.02
583.54	52727.59
583.70	52552.05
583.86	52851.64
584.02	52718.23
584.18	52556.73
584.34	52746.31
584.50	52596.52
584.66	52336.72
584.82	52163.52
584.98	51997.34
585.14	51796.06
585.30	50827.07
