SpectraSuite Data File
++++++++++++++++++++++++++++++++++++
Date: Mon Oct 07 14:54:56 GMT-05:00 2013
User: price-jones
Dark Spectrum Present: No
Reference Spectrum Present: No
Number of Sampled Component Spectra: 1
Spectrometers: USB2+H05261
Integration Time (usec): 10000 (USB2+H05261)
Spectra Averaged: 1 (USB2+H05261)
Boxcar Smoothing: 0 (USB2+H05261)
Correct for Electrical Dark: No (USB2+H05261)
Strobe/Lamp Enabled: No (USB2+H05261)
Correct for Detector Non-linearity: No (USB2+H05261)
Correct for Stray Light: No (USB2+H05261)
Number of Pixels in Processed Spectrum: 2048
>>>>>Begin Processed Spectral Data<<<<<
365.73	0.00
365.92	0.00
366.12	0.00
366.32	0.00
366.52	0.00
366.72	0.00
366.91	0.00
367.11	0.00
367.31	0.00
367.51	0.00
367.70	0.00
367.90	0.00
368.10	0.00
368.30	0.00
368.49	0.00
368.69	0.00
368.89	0.00
369.09	0.00
369.28	0.00
369.48	0.00
369.68	0.00
369.87	0.00
370.07	0.00
370.27	0.00
370.47	0.00
370.66	121.71
370.86	161.50
371.06	203.63
371.25	208.31
371.45	182.56
371.65	166.18
371.84	124.05
372.04	145.11
372.24	224.69
372.44	243.42
372.63	191.92
372.83	121.71
373.03	149.79
373.22	81.92
373.42	154.48
373.62	208.31
373.81	280.86
374.01	255.12
374.21	212.99
374.40	252.78
374.60	152.13
374.79	266.82
374.99	322.99
375.19	367.46
375.38	318.31
375.58	318.31
375.78	301.93
375.97	332.36
376.17	381.51
376.37	344.06
376.56	292.57
376.76	355.76
376.95	440.02
377.15	484.49
377.35	428.32
377.54	566.41
377.74	615.56
377.93	603.86
378.13	440.02
378.33	430.66
378.52	379.17
378.72	330.02
378.91	379.17
379.11	383.85
379.31	353.42
379.50	341.72
379.70	362.78
379.89	416.62
380.09	540.66
380.28	451.72
380.48	442.36
380.68	449.38
380.87	482.15
381.07	458.74
381.26	348.74
381.46	395.55
381.65	334.70
381.85	294.91
382.04	187.24
382.24	243.42
382.43	231.71
382.63	154.48
382.83	187.24
383.02	227.03
383.22	210.65
383.41	217.67
383.61	248.10
383.80	339.38
384.00	388.53
384.19	414.27
384.39	437.68
384.58	594.50
384.78	463.43
384.97	395.55
385.17	388.53
385.36	430.66
385.56	360.44
385.75	393.21
385.95	484.49
386.14	498.53
386.34	421.30
386.53	395.55
386.72	423.64
386.92	489.17
387.11	447.04
387.31	524.28
387.50	528.96
387.70	538.32
387.89	519.60
388.09	451.72
388.28	470.45
388.48	449.38
388.67	489.17
388.86	657.69
389.06	627.26
389.25	711.52
389.45	643.65
389.64	660.03
389.84	690.46
390.03	753.65
390.22	664.71
390.42	786.42
390.61	800.46
390.81	837.91
391.00	786.42
391.19	856.64
391.39	784.08
391.58	779.40
391.78	737.27
391.97	660.03
392.16	585.13
392.36	554.71
392.55	393.21
392.75	252.78
392.94	119.37
393.13	56.17
393.33	285.55
393.52	341.72
393.71	440.02
393.91	615.56
394.10	667.05
394.29	685.78
394.49	751.31
394.68	882.38
394.88	868.34
395.07	1029.84
395.26	877.70
395.46	856.64
395.65	793.44
395.84	664.71
396.04	528.96
396.23	369.80
396.42	332.36
396.62	250.44
396.81	278.52
397.00	486.83
397.19	741.95
397.39	866.00
397.58	1121.12
397.77	1130.48
397.97	1181.97
398.16	1158.57
398.35	1158.57
398.55	1242.82
398.74	1280.27
398.93	1315.38
399.12	1315.38
399.32	1240.48
399.51	1277.93
399.70	1310.70
399.90	1392.62
400.09	1406.66
400.28	1329.42
400.47	1348.15
400.67	1483.90
400.86	1542.41
401.05	1331.76
401.24	1476.88
401.44	1509.65
401.63	1586.88
401.82	1481.56
402.01	1612.63
402.21	1497.94
402.40	1600.93
402.59	1453.47
402.78	1462.83
402.97	1387.94
403.17	1404.32
403.36	1565.82
403.55	1689.87
403.74	1624.33
403.93	1483.90
404.13	1401.98
404.32	1413.68
404.51	1348.15
404.70	1673.48
404.89	1584.54
405.09	1476.88
405.28	1472.20
405.47	1453.47
405.66	1481.56
405.85	1362.19
406.05	1430.07
406.24	1359.85
406.43	1413.68
406.62	1493.26
406.81	1540.07
407.00	1399.64
407.20	1383.26
407.39	1497.94
407.58	1547.09
407.77	1575.18
407.96	1603.27
408.15	1610.29
408.34	1678.16
408.54	1776.47
408.73	1753.06
408.92	1755.40
409.11	1633.69
409.30	1504.96
409.49	1394.96
409.68	1348.15
409.87	1387.94
410.07	1444.11
410.26	1624.33
410.45	1671.14
410.64	1645.40
410.83	1706.25
411.02	1739.02
411.21	1888.81
411.40	1870.09
411.59	1884.13
411.78	1776.47
411.98	1799.87
412.17	1907.54
412.36	1774.13
412.55	1778.81
412.74	1825.62
412.93	1809.23
413.12	1720.29
413.31	1886.47
413.50	2031.58
413.69	2010.52
413.88	1884.13
414.07	1790.51
414.26	1907.54
414.45	1846.68
414.64	2005.84
414.83	1984.77
415.02	1879.45
415.22	1914.56
415.41	1966.05
415.60	2043.29
415.79	2066.69
415.98	2211.81
416.17	2176.70
416.36	2085.42
416.55	2010.52
416.74	1942.64
416.93	1898.17
417.12	1921.58
417.31	2005.84
417.50	1963.71
417.69	2031.58
417.88	2024.56
418.07	2050.31
418.26	1970.73
418.45	2078.40
418.64	2087.76
418.83	2026.90
419.02	2129.89
419.21	2076.06
419.39	2047.97
419.58	1867.75
419.77	1839.66
419.96	1863.07
420.15	2155.63
420.34	2239.89
420.53	2118.18
420.72	2382.67
420.91	2246.91
421.10	2237.55
421.29	2209.47
421.48	2097.12
421.67	2230.53
421.86	2134.57
422.05	2036.27
422.24	1879.45
422.43	1736.68
422.61	2038.61
422.80	2172.02
422.99	2099.46
423.18	2069.03
423.37	2005.84
423.56	2083.08
423.75	2064.35
423.94	2087.76
424.13	1975.41
424.32	1961.37
424.50	1886.47
424.69	1893.49
424.88	2038.61
425.07	1914.56
425.26	1982.43
425.45	2054.99
425.64	1937.96
425.83	1863.07
426.01	2141.59
426.20	2190.74
426.39	2127.55
426.58	1928.60
426.77	1769.44
426.96	1678.16
427.15	1739.02
427.33	1930.94
427.52	2097.12
427.71	1987.11
427.90	1994.14
428.09	2036.27
428.28	1926.26
428.46	1877.11
428.65	1853.70
428.84	1827.96
429.03	1980.09
429.22	1820.94
429.40	1699.23
429.59	1575.18
429.78	1380.92
429.97	1287.29
430.16	1352.83
430.34	1348.15
430.53	1425.39
430.72	1355.17
430.91	1467.52
431.10	1858.39
431.28	2230.53
431.47	2401.39
431.66	2356.92
431.85	2136.91
432.03	1994.14
432.22	1813.92
432.41	1930.94
432.60	2186.06
432.79	2359.26
432.97	2403.73
433.16	2253.94
433.35	2045.63
433.54	1865.41
433.72	1739.02
433.91	1846.68
434.10	1994.14
434.28	2174.36
434.47	2218.83
434.66	2139.25
434.85	2228.19
435.03	2239.89
435.22	2197.76
435.41	2408.41
435.59	2394.37
435.78	2429.48
435.97	2497.35
436.16	2525.44
436.34	2469.27
436.53	2347.56
436.72	2340.54
436.90	2356.92
437.09	2284.36
437.28	2169.68
437.46	2282.02
437.65	2228.19
437.84	2134.57
438.02	2050.31
438.21	1954.35
438.40	2017.54
438.58	2244.57
438.77	2286.70
438.96	2345.22
439.14	2415.43
439.33	2431.82
439.52	2485.65
439.70	2487.99
439.89	2349.90
440.08	2242.23
440.26	2328.83
440.45	2387.35
440.63	2541.82
440.82	2675.23
441.01	2635.44
441.19	2715.02
441.38	2726.72
441.57	2700.98
441.75	2710.34
441.94	2808.64
442.12	2869.50
442.31	2888.22
442.50	2853.11
442.68	2855.45
442.87	2836.73
443.05	2773.53
443.24	2864.82
443.43	2827.37
443.61	2916.31
443.80	2953.76
443.98	2771.19
444.17	2909.29
444.35	2977.16
444.54	2977.16
444.73	2864.82
444.91	2801.62
445.10	2771.19
445.28	2623.74
445.47	2513.74
445.65	2527.78
445.84	2443.52
446.02	2677.57
446.21	2682.25
446.39	2771.19
446.58	2789.92
446.77	2841.41
446.95	2904.60
447.14	2944.39
447.32	2967.80
447.51	2855.45
447.69	2839.07
447.88	2780.56
448.06	2820.35
448.25	2949.08
448.43	2949.08
448.62	2885.88
448.80	2836.73
448.99	2960.78
449.17	2743.11
449.36	2841.41
449.54	2965.46
449.73	3077.80
449.91	3131.64
450.10	3124.62
450.28	3169.09
450.46	3187.81
450.65	3103.55
450.83	3108.23
451.02	3038.02
451.20	3236.96
451.39	3089.51
451.57	3180.79
451.76	3126.96
451.94	2988.86
452.13	2986.52
452.31	2904.60
452.49	2782.90
452.68	2792.26
452.86	2764.17
453.05	2726.72
453.23	2829.71
453.42	2928.01
453.60	2984.18
453.78	2991.20
453.97	2970.14
454.15	3077.80
454.34	2913.97
454.52	2937.37
454.70	2925.67
454.89	2871.84
455.07	3047.38
455.26	2986.52
455.44	3068.44
455.62	3206.53
455.81	3183.13
455.99	3061.42
456.17	3038.02
456.36	3047.38
456.54	3155.04
456.73	3166.74
456.91	3166.74
457.09	3290.79
457.28	3396.12
457.46	3243.98
457.64	3110.57
457.83	3014.61
458.01	2923.33
458.19	3091.85
458.38	3005.25
458.56	3293.13
458.74	3066.10
458.93	3157.38
459.11	3103.55
459.29	3007.59
459.48	3000.57
459.66	3038.02
459.84	3098.87
460.03	3192.49
460.21	3199.51
460.39	3131.64
460.57	3117.59
460.76	3243.98
460.94	3222.92
461.12	3269.73
461.31	3258.03
461.49	3229.94
461.67	3232.28
461.85	3260.37
462.04	3187.81
462.22	3332.92
462.40	3288.45
462.59	3290.79
462.77	3363.35
462.95	3466.33
463.13	3262.71
463.32	3183.13
463.50	3117.59
463.68	3236.96
463.86	3164.40
464.05	3183.13
464.23	2998.23
464.41	3110.57
464.59	3030.99
464.78	3281.43
464.96	3180.79
465.14	3222.92
465.32	3274.41
465.50	3325.90
465.69	3398.46
465.87	3234.62
466.05	3232.28
466.23	2977.16
466.41	2906.95
466.60	3023.97
466.78	3016.95
466.96	3089.51
467.14	3176.11
467.32	3141.00
467.51	3126.96
467.69	3197.17
467.87	3145.68
468.05	3117.59
468.23	3089.51
468.41	3150.36
468.60	3260.37
468.78	3218.24
468.96	3201.85
469.14	3183.13
469.32	3269.73
469.50	3171.43
469.69	2930.35
469.87	3150.36
470.05	3016.95
470.23	2960.78
470.41	2949.08
470.59	3047.38
470.77	3243.98
470.95	3199.51
471.14	3300.16
471.32	3248.66
471.50	3391.44
471.68	3515.48
471.86	3400.80
472.04	3370.37
472.22	3583.36
472.40	3232.28
472.58	3229.94
472.77	3286.11
472.95	3234.62
473.13	3215.90
473.31	3283.77
473.49	3255.69
473.67	3384.41
473.85	3393.78
474.03	3531.87
474.21	3623.15
474.39	3590.38
474.57	3557.61
474.75	3648.90
474.93	3375.05
475.12	3545.91
475.30	3482.72
475.48	3433.57
475.66	3459.31
475.84	3438.25
476.02	3426.54
476.20	3377.39
476.38	3438.25
476.56	3543.57
476.74	3618.47
476.92	3534.21
477.10	3534.21
477.28	3826.78
477.46	3698.05
477.64	3887.63
477.82	3805.71
478.00	3707.41
478.18	3775.28
478.36	3772.94
478.54	3810.39
478.72	3805.71
478.90	3955.51
479.08	3960.19
479.26	4007.00
479.44	3941.46
479.62	3922.74
479.80	3882.95
479.98	4142.75
480.16	3997.64
480.34	4159.13
480.52	3976.57
480.70	4074.87
480.88	4173.18
481.06	4166.15
481.24	4063.17
481.41	4196.58
481.59	4311.27
481.77	4229.35
481.95	4194.24
482.13	4259.78
482.31	4182.54
482.49	4322.97
482.67	4407.23
482.85	4388.50
483.03	4351.06
483.21	4486.81
483.39	4416.59
483.57	4409.57
483.74	4318.29
483.92	4205.94
484.10	4351.06
484.28	4465.74
484.46	4458.72
484.64	4463.40
484.82	4402.55
485.00	4458.72
485.18	4248.07
485.35	4095.94
485.53	3667.62
485.71	3456.97
485.89	3332.92
486.07	3571.66
486.25	3929.76
486.43	4273.82
486.61	4308.93
486.78	4210.62
486.96	4166.15
487.14	4280.84
487.32	4592.13
487.50	4770.01
487.68	4854.27
487.85	4812.14
488.03	4889.38
488.21	4828.53
488.39	4718.52
488.57	4636.60
488.75	4545.32
488.92	4566.39
489.10	5041.51
489.28	5200.67
489.46	5345.78
489.64	5329.40
489.81	5413.66
489.99	5259.18
490.17	5263.86
490.35	5465.15
490.53	5224.08
490.70	5282.59
490.88	5238.12
491.06	5439.40
491.24	5411.32
491.41	5151.52
491.59	4849.59
491.77	4732.56
491.95	4826.18
492.13	5270.89
492.30	5284.93
492.48	5687.50
492.66	5689.84
492.84	5624.31
493.01	5675.80
493.19	5427.70
493.37	5439.40
493.54	5329.40
493.72	5535.37
493.90	5727.29
494.08	5795.17
494.25	5762.40
494.43	5895.81
494.61	5928.58
494.79	6033.90
494.96	5914.53
495.14	5879.43
495.32	5556.43
495.49	5547.07
495.67	5720.27
495.85	5944.96
496.02	6225.82
496.20	6118.16
496.38	5893.47
496.55	6061.99
496.73	6045.60
496.91	6108.80
497.09	6193.06
497.26	6193.06
497.44	6246.89
497.62	5923.90
497.79	5898.15
497.97	5565.79
498.14	5652.39
498.32	5832.62
498.50	5989.43
498.67	6174.33
498.85	5919.21
499.03	6218.80
499.20	6239.87
499.38	6265.61
499.56	6183.70
499.73	6155.61
499.91	5984.75
500.08	5781.12
500.26	5715.59
500.44	5755.38
500.61	5926.24
500.79	5914.53
500.97	5727.29
501.14	5738.99
501.32	5647.71
501.49	5813.89
501.67	5776.44
501.84	5760.06
502.02	5921.56
502.20	5851.34
502.37	5907.51
502.55	6155.61
502.72	6057.31
502.90	6347.53
503.07	6204.76
503.25	6092.41
503.43	5944.96
503.60	5912.19
503.78	5696.86
503.95	5722.61
504.13	6015.18
504.30	6101.78
504.48	6267.95
504.65	6148.59
504.83	6054.97
505.01	6340.51
505.18	6455.20
505.36	6558.18
505.53	6466.90
505.71	6565.20
505.88	6637.76
506.06	6473.92
506.23	6197.74
506.41	6218.80
506.58	6396.68
506.76	6469.24
506.93	6270.30
507.11	6267.95
507.28	6237.53
507.46	6239.87
507.63	5921.56
507.81	5879.43
507.98	5949.64
508.16	6312.42
508.33	6235.19
508.50	6551.16
508.68	6541.80
508.85	6640.10
509.03	6569.88
509.20	6457.54
509.38	6427.11
509.55	6171.99
509.73	6188.38
509.90	6363.92
510.08	6242.21
510.25	6239.87
510.42	6305.40
510.60	6246.89
510.77	6235.19
510.95	6413.07
511.12	6537.12
511.30	6466.90
511.47	6654.14
511.64	6670.53
511.82	6726.70
511.99	6314.77
512.17	6155.61
512.34	6183.70
512.51	6099.44
512.69	6270.30
512.86	6377.96
513.04	6298.38
513.21	6132.20
513.38	6373.28
513.56	6017.52
513.73	6050.28
513.90	6157.95
514.08	6092.41
514.25	6148.59
514.43	6235.19
514.60	6207.10
514.77	6179.01
514.95	6289.02
515.12	6251.57
515.29	6314.77
515.47	6551.16
515.64	6579.25
515.81	6410.73
515.99	6171.99
516.16	5970.71
516.33	5418.34
516.51	5224.08
516.68	4898.74
516.85	4865.97
517.03	5057.90
517.20	5315.36
517.37	5968.37
517.54	6403.71
517.72	6019.86
517.89	5636.01
518.06	5195.99
518.24	5214.71
518.41	5706.23
518.58	5849.00
518.75	6169.65
518.93	5949.64
519.10	6054.97
519.27	6052.63
519.45	6232.85
519.62	6321.79
519.79	6490.31
519.96	6441.15
520.14	6258.59
520.31	6113.48
520.48	5940.28
520.65	6026.88
520.83	6195.40
521.00	6406.05
521.17	6282.00
521.34	6349.87
521.52	6239.87
521.69	6296.04
521.86	6324.13
522.03	6429.45
522.20	6260.93
522.38	5888.79
522.55	5816.23
522.72	6099.44
522.89	6310.08
523.07	6258.59
523.24	6368.60
523.41	6504.35
523.58	6410.73
523.75	6530.09
523.92	6600.31
524.10	6387.32
524.27	6626.06
524.44	6516.05
524.61	6377.96
524.78	6483.28
524.96	6377.96
525.13	6228.17
525.30	6340.51
525.47	6417.75
525.64	6581.59
525.81	6415.41
525.98	6005.81
526.16	5699.20
526.33	5565.79
526.50	5355.15
526.67	5245.14
526.84	5591.54
527.01	5764.74
527.18	5710.91
527.36	6160.29
527.53	6270.30
527.70	6279.66
527.87	6401.37
528.04	6190.72
528.21	6221.14
528.38	6471.58
528.55	6520.73
528.72	6682.23
528.89	6569.88
529.07	6745.42
529.24	6525.41
529.41	6307.74
529.58	6179.01
529.75	6078.37
529.92	6127.52
530.09	6314.77
530.26	6572.22
530.43	6558.18
530.60	6567.54
530.77	6623.72
530.94	6546.48
531.11	6509.03
531.28	6291.36
531.46	6312.42
531.63	6382.64
531.80	6319.45
531.97	6242.21
532.14	6115.82
532.31	5797.51
532.48	5795.17
532.65	5837.30
532.82	5872.40
532.99	6136.88
533.16	6141.57
533.33	6303.06
533.50	6384.98
533.67	6073.69
533.84	5998.79
534.01	6076.03
534.18	6059.65
534.35	6167.31
534.52	6064.33
534.69	6069.01
534.86	6373.28
535.03	6424.77
535.20	6612.01
535.37	6457.54
535.54	6736.06
535.71	6331.15
535.88	6415.41
536.05	6209.44
536.22	6305.40
536.38	6141.57
536.55	6026.88
536.72	5767.08
536.89	5968.37
537.06	5970.71
537.23	6181.35
537.40	6305.40
537.57	6061.99
537.74	6230.51
537.91	6085.39
538.08	6370.94
538.25	6256.25
538.42	6232.85
538.59	6420.09
538.75	5996.45
538.92	5865.38
539.09	5893.47
539.26	5907.51
539.43	5863.04
539.60	6017.52
539.77	5870.06
539.94	5820.91
540.11	5849.00
540.28	5586.86
540.44	5617.29
540.61	5589.20
540.78	5551.75
540.95	5708.57
541.12	6001.13
541.29	5872.40
541.46	6174.33
541.62	6080.71
541.79	5856.02
541.96	5825.59
542.13	5774.10
542.30	5959.00
542.47	5912.19
542.63	5877.09
542.80	5874.74
542.97	5951.98
543.14	6026.88
543.31	5968.37
543.48	6036.24
543.64	6101.78
543.81	6314.77
543.98	6031.56
544.15	6146.25
544.32	5886.45
544.48	5935.60
544.65	6024.54
544.82	6092.41
544.99	6087.73
545.16	5966.03
545.32	5877.09
545.49	5851.34
545.66	6209.44
545.83	6181.35
546.00	6033.90
546.16	5863.04
546.33	5806.87
546.50	5884.11
546.67	5949.64
546.83	5820.91
547.00	5729.63
547.17	5593.88
547.34	5530.69
547.50	5561.11
547.67	5879.43
547.84	5722.61
548.00	5762.40
548.17	6024.54
548.34	5898.15
548.51	5893.47
548.67	5781.12
548.84	6029.22
549.01	5783.46
549.18	5884.11
549.34	6017.52
549.51	5797.51
549.68	5853.68
549.84	5734.31
550.01	5792.83
550.18	5790.49
550.34	5577.50
550.51	5715.59
550.68	5799.85
550.84	5748.36
551.01	5692.18
551.18	5724.95
551.34	5678.14
551.51	5877.09
551.68	5715.59
551.84	5748.36
552.01	5757.72
552.18	5757.72
552.34	5605.58
552.51	5582.18
552.68	5507.28
552.84	5675.80
553.01	5673.46
553.18	5734.31
553.34	5628.99
553.51	5631.33
553.67	5804.53
553.84	5844.32
554.01	5830.27
554.17	5556.43
554.34	5671.12
554.51	5687.50
554.67	5638.35
554.84	5689.84
555.00	5813.89
555.17	5760.06
555.33	5689.84
555.50	5870.06
555.67	5650.05
555.83	5645.37
556.00	5579.84
556.16	5600.90
556.33	5453.45
556.50	5413.66
556.66	5439.40
556.83	5284.93
556.99	5298.97
557.16	5441.75
557.32	5577.50
557.49	5392.59
557.65	5518.98
557.82	5423.02
557.98	5476.85
558.15	5324.72
558.32	5256.84
558.48	4966.62
558.65	5057.90
558.81	5224.08
558.98	5179.61
559.14	5399.62
559.31	5254.50
559.47	5406.64
559.64	5226.42
559.80	5174.92
559.97	5329.40
560.13	5277.91
560.30	5406.64
560.46	5626.65
560.63	5621.97
560.79	5650.05
560.96	5383.23
561.12	5455.79
561.29	4985.34
561.45	5177.26
561.61	5179.61
561.78	5268.55
561.94	5320.04
562.11	5291.95
562.27	5203.01
562.44	5252.16
562.60	5329.40
562.77	5366.85
562.93	5366.85
563.10	5352.81
563.26	5224.08
563.42	5210.03
563.59	5242.80
563.75	5069.60
563.92	5039.17
564.08	5296.63
564.24	5289.61
564.41	5303.65
564.57	5062.58
564.74	5184.29
564.90	5071.94
565.07	5111.73
565.23	5100.03
565.39	4802.78
565.56	4997.04
565.72	4908.10
565.88	4959.60
566.05	5074.28
566.21	5050.88
566.38	4975.98
566.54	5144.50
566.70	5114.07
566.87	5074.28
567.03	5366.85
567.19	5334.08
567.36	5181.95
567.52	5071.94
567.68	4959.60
567.85	4980.66
568.01	4978.32
568.17	4903.42
568.34	4741.93
568.50	4882.36
568.66	4854.27
568.83	4997.04
568.99	5039.17
569.15	5097.69
569.32	4887.04
569.48	4917.47
569.64	4781.71
569.81	4858.95
569.97	4936.19
570.13	4873.00
570.30	4713.84
570.46	4681.07
570.62	4533.62
570.78	4638.94
570.95	4725.54
571.11	4873.00
571.27	4713.84
571.43	4809.80
571.60	4896.40
571.76	5013.43
571.92	5020.45
572.09	4915.12
572.25	4936.19
572.41	4903.42
572.57	4910.44
572.74	4830.87
572.90	4772.35
573.06	4767.67
573.22	4856.61
573.38	4880.02
573.55	4870.65
573.71	4823.84
573.87	4741.93
574.03	4744.27
574.20	4774.69
574.36	4802.78
574.52	4744.27
574.68	4718.52
574.84	4688.09
575.01	4627.24
575.17	4507.87
575.33	4540.64
575.49	4491.49
575.65	4828.53
575.82	4751.29
575.98	4561.70
576.14	4498.51
576.30	4432.97
576.46	4777.03
576.62	4667.03
576.79	4699.80
576.95	4566.39
577.11	4657.67
577.27	4517.23
577.43	4521.92
577.59	4660.01
577.75	4479.79
577.92	4463.40
578.08	4414.25
578.24	4283.18
578.40	4344.03
578.56	4479.79
578.72	4447.02
578.88	4645.96
579.04	4547.66
579.21	4519.57
579.37	4550.00
579.53	4482.13
579.69	4531.28
579.85	4550.00
580.01	4557.02
580.17	4519.57
580.33	4463.40
580.49	4540.64
580.65	4442.34
580.82	4629.58
580.98	4620.22
581.14	4507.87
581.30	4545.32
581.46	4514.89
581.62	4470.42
581.78	4540.64
581.94	4709.16
582.10	4498.51
582.26	4514.89
582.42	4599.15
582.58	4414.25
582.74	4390.84
582.90	4500.85
583.06	4655.33
583.22	4526.60
583.38	4388.50
583.54	4500.85
583.70	4432.97
583.86	4381.48
584.02	4337.01
584.18	4526.60
584.34	4451.70
584.50	4538.30
584.66	4578.09
584.82	4421.27
584.98	4379.14
585.14	4236.37
585.30	4215.30
585.46	4128.70
585.62	4170.83
585.78	4105.30
585.94	4461.06
586.10	4362.76
586.26	4299.56
586.42	4498.51
586.58	4472.76
586.74	4557.02
586.90	4496.17
587.06	4241.05
587.22	4269.14
587.38	4205.94
587.54	4259.78
587.70	4332.33
587.86	4264.46
588.02	4152.11
588.18	4051.47
588.34	4014.02
588.49	3679.32
588.65	3417.18
588.81	3515.48
588.97	3566.98
589.13	3407.82
589.29	3541.23
589.45	3499.10
589.61	3700.39
589.77	3885.29
589.93	3796.35
590.08	3953.16
590.24	3887.63
590.40	3964.87
590.56	4011.68
590.72	4072.53
590.88	3922.74
591.04	3981.25
591.20	4009.34
591.35	3885.29
591.51	3906.35
591.67	3852.52
591.83	4117.00
591.99	3999.98
592.15	3920.40
592.31	3854.86
592.46	3899.33
592.62	4039.76
592.78	3953.16
592.94	3997.64
593.10	3831.46
593.26	3995.29
593.41	4028.06
593.57	3911.04
593.73	3974.23
593.89	3948.48
594.05	3948.48
594.20	3826.78
594.36	3901.67
594.52	3684.00
594.68	3873.59
594.84	3775.28
594.99	3796.35
595.15	3894.65
595.31	3794.01
595.47	3927.42
595.62	3932.10
595.78	3922.74
595.94	3969.55
596.10	4025.72
596.25	3969.55
596.41	3927.42
596.57	3803.37
596.73	3857.20
596.88	3943.80
597.04	3765.92
597.20	3812.73
597.36	3789.33
597.51	3824.44
597.67	3847.84
597.83	3709.75
597.99	3875.93
