SpectraSuite Data File
++++++++++++++++++++++++++++++++++++
Date: Mon Oct 07 14:52:57 GMT-05:00 2013
User: price-jones
Dark Spectrum Present: No
Reference Spectrum Present: No
Number of Sampled Component Spectra: 1
Spectrometers: USB2+H05261
Integration Time (usec): 100000 (USB2+H05261)
Spectra Averaged: 1 (USB2+H05261)
Boxcar Smoothing: 0 (USB2+H05261)
Correct for Electrical Dark: No (USB2+H05261)
Strobe/Lamp Enabled: No (USB2+H05261)
Correct for Detector Non-linearity: No (USB2+H05261)
Correct for Stray Light: No (USB2+H05261)
Number of Pixels in Processed Spectrum: 2048
>>>>>Begin Processed Spectral Data<<<<<
365.73	0.00
365.92	0.00
366.12	0.00
366.32	0.00
366.52	0.00
366.72	0.00
366.91	0.00
367.11	0.00
367.31	0.00
367.51	0.00
367.70	0.00
367.90	0.00
368.10	0.00
368.30	0.00
368.49	0.00
368.69	0.00
368.89	0.00
369.09	0.00
369.28	0.00
369.48	0.00
369.68	0.00
369.87	0.00
370.07	0.00
370.27	0.00
370.47	390.87
370.66	2375.64
370.86	2782.90
371.06	3066.10
371.25	3021.63
371.45	2626.08
371.65	2445.86
371.84	2326.49
372.04	2370.96
372.24	2789.92
372.44	2876.52
372.63	2871.84
372.83	2607.36
373.03	2375.64
373.22	2183.72
373.42	2366.28
373.62	2612.04
373.81	2818.00
374.01	2780.56
374.21	2574.59
374.40	2387.35
374.60	2480.97
374.79	2832.05
374.99	3215.90
375.19	3538.89
375.38	3541.23
375.58	3227.60
375.78	3330.58
375.97	3297.81
376.17	3393.78
376.37	3478.04
376.56	3550.59
376.76	3684.00
376.95	3882.95
377.15	4325.31
377.35	4437.66
377.54	4554.68
377.74	4554.68
377.93	4755.97
378.13	4585.11
378.33	4381.48
378.52	4007.00
378.72	3896.99
378.91	3857.20
379.11	3709.75
379.31	3611.45
379.50	3499.10
379.70	3939.12
379.89	4409.57
380.09	4519.57
380.28	4528.94
380.48	4610.86
380.68	4582.77
380.87	4325.31
381.07	4107.64
381.26	3676.98
381.46	3513.14
381.65	3454.63
381.85	3279.09
382.04	3194.83
382.24	3061.42
382.43	2949.08
382.63	2722.04
382.83	2724.38
383.02	2832.05
383.22	2757.15
383.41	2764.17
383.61	2949.08
383.80	3438.25
384.00	3875.93
384.19	4290.20
384.39	4664.69
384.58	4526.60
384.78	4498.51
384.97	4447.02
385.17	4131.05
385.36	3934.44
385.56	3880.61
385.75	3920.40
385.95	4379.14
386.14	4800.44
386.34	4643.62
386.53	4470.42
386.72	4147.43
386.92	4276.16
387.11	4498.51
387.31	4819.16
387.50	4741.93
387.70	4421.27
387.89	4430.63
388.09	4519.57
388.28	4657.67
388.48	4568.73
388.67	4861.29
388.86	5357.49
389.06	5898.15
389.25	6204.76
389.45	6120.50
389.64	6092.41
389.84	6003.47
390.03	5984.75
390.22	6045.60
390.42	6286.68
390.61	6609.67
390.81	7002.88
391.00	6970.12
391.19	7005.22
391.39	7063.74
391.58	6267.95
391.78	5944.96
391.97	5799.85
392.16	5469.83
392.36	4908.10
392.55	3868.91
392.75	3227.60
392.94	2616.72
393.13	2586.29
393.33	3180.79
393.52	3957.85
393.71	4922.15
393.91	5458.13
394.10	5940.28
394.29	6527.75
394.49	6944.37
394.68	7524.82
394.88	7517.80
395.07	7878.24
395.26	7604.40
395.46	7353.96
395.65	7215.87
395.84	6094.76
396.04	5280.25
396.23	4222.33
396.42	3496.76
396.62	3417.18
396.81	3918.06
397.00	5200.67
397.19	6511.37
397.39	7620.78
397.58	8753.60
397.77	8943.19
397.97	9675.77
398.16	9586.83
398.35	9970.68
398.55	10078.35
398.74	10506.66
398.93	10635.39
399.12	10637.73
399.32	10361.55
399.51	10560.50
399.70	11180.74
399.90	10927.96
400.09	11016.90
400.28	10869.45
400.47	10986.47
400.67	11658.21
400.86	11726.08
401.05	11749.49
401.24	11967.16
401.44	12184.83
401.63	12252.70
401.82	12086.53
402.01	12147.38
402.21	12184.83
402.40	12208.23
402.59	11721.40
402.78	11417.13
402.97	10864.77
403.17	11709.70
403.36	12116.95
403.55	12468.03
403.74	12992.31
403.93	12233.98
404.13	11115.20
404.32	11185.42
404.51	11709.70
404.70	12449.31
404.89	12201.21
405.09	12271.43
405.28	11922.69
405.47	12109.93
405.66	11723.74
405.85	11613.74
406.05	11466.28
406.24	11485.01
406.43	12030.35
406.62	12524.21
406.81	12622.51
407.00	12088.87
407.20	11978.86
407.39	12098.23
407.58	12425.90
407.77	13167.85
407.96	13502.55
408.15	13521.27
408.34	13621.92
408.54	14321.74
408.73	13980.02
408.92	13771.71
409.11	13621.92
409.30	13004.02
409.49	12294.83
409.68	11417.13
409.87	10998.18
410.07	11882.90
410.26	12840.18
410.45	13734.26
410.64	13830.23
410.83	14237.48
411.02	14523.02
411.21	15176.03
411.40	14979.43
411.59	15150.29
411.78	14801.55
411.98	14792.19
412.17	15068.37
412.36	14553.45
412.55	14958.36
412.74	14436.42
412.93	14010.45
413.12	14242.16
413.31	15955.43
413.50	15606.69
413.69	15882.88
413.88	15407.75
414.07	15061.35
414.26	15253.27
414.45	15875.85
414.64	15917.98
414.83	16269.06
415.02	15714.36
415.22	15492.01
415.41	16233.96
415.60	16255.02
415.79	17085.91
415.98	17476.78
416.17	17163.15
416.36	16889.31
416.55	16706.74
416.74	16313.53
416.93	15777.55
417.12	15681.59
417.31	15941.39
417.50	16152.04
417.69	16528.86
417.88	16627.17
418.07	16491.41
418.26	16386.09
418.45	16386.09
418.64	17228.68
418.83	17764.67
419.02	17268.47
419.21	17008.67
419.39	16362.69
419.58	15641.80
419.77	15712.02
419.96	16514.82
420.15	17315.28
420.34	17891.06
420.53	18588.53
420.72	18864.72
420.91	18733.65
421.10	18431.72
421.29	18127.45
421.48	17722.54
421.67	18691.52
421.86	17968.29
422.05	16479.71
422.24	15447.54
422.43	15124.54
422.61	16695.04
422.80	17743.60
422.99	17961.27
423.18	17376.14
423.37	16952.50
423.56	17039.10
423.75	17172.51
423.94	17790.41
424.13	16737.17
424.32	16826.11
424.50	16929.09
424.69	16709.08
424.88	16800.37
425.07	16573.33
425.26	16596.74
425.45	16350.98
425.64	16212.89
425.83	16086.50
426.01	17018.04
426.20	17652.32
426.39	17467.42
426.58	16121.61
426.77	14899.85
426.96	14303.01
427.15	15030.92
427.33	16229.27
427.52	16706.74
427.71	17123.36
427.90	16540.57
428.09	16585.04
428.28	16240.98
428.46	15929.69
428.65	15489.67
428.84	15740.10
429.03	15948.41
429.22	15180.71
429.40	14429.40
429.59	13025.08
429.78	11454.58
429.97	11789.28
430.16	11686.29
430.34	11735.45
430.53	11861.84
430.72	12091.21
430.91	13493.19
431.10	16088.84
431.28	18551.09
431.47	19950.73
431.66	20109.88
431.85	18469.17
432.03	16959.52
432.22	16463.33
432.41	16767.60
432.60	19019.19
432.79	19431.13
432.97	19887.53
433.16	19494.32
433.35	17685.09
433.54	16058.42
433.72	14930.28
433.91	15475.62
434.10	17481.46
434.28	18609.60
434.47	19447.51
434.66	19154.94
434.85	18789.82
435.03	18625.98
435.22	19229.84
435.41	20224.57
435.59	20444.58
435.78	20493.73
435.97	21158.44
436.16	21331.64
436.34	20676.29
436.53	20563.95
436.72	20662.25
436.90	19360.91
437.09	19477.94
437.28	19105.79
437.46	20114.56
437.65	19506.02
437.84	18352.14
438.02	16851.86
438.21	16905.69
438.40	17961.27
438.58	19197.07
438.77	20149.67
438.96	20004.56
439.14	20673.95
439.33	21118.65
439.52	21572.72
439.70	20954.82
439.89	20709.06
440.08	20023.28
440.26	20240.95
440.45	20699.70
440.63	22246.79
440.82	23328.12
441.01	22850.65
441.19	22600.21
441.38	23283.65
441.57	23786.86
441.75	24329.87
441.94	24142.63
442.12	24201.14
442.31	24582.65
442.50	24264.33
442.68	24692.65
442.87	23838.36
443.05	23665.16
443.24	23976.45
443.43	24601.37
443.61	24762.87
443.80	25380.77
443.98	24109.86
444.17	23800.91
444.35	25422.90
444.54	25556.31
444.73	25462.69
444.91	24369.66
445.10	23590.26
445.28	22277.22
445.47	22113.38
445.65	22398.93
445.84	23133.86
446.02	23709.63
446.21	23859.42
446.39	23821.97
446.58	24570.94
446.77	24957.13
446.95	24863.51
447.14	25769.30
447.32	26052.50
447.51	25579.71
447.69	24772.23
447.88	24079.43
448.06	24673.93
448.25	25659.29
448.43	25858.24
448.62	24807.34
448.80	24680.95
448.99	25097.56
449.17	25064.80
449.36	25376.09
449.54	26281.88
449.73	26672.74
449.91	27028.51
450.10	27431.08
450.28	27608.96
450.46	27831.31
450.65	27995.15
450.83	27337.46
451.02	27063.61
451.20	26939.57
451.39	26974.67
451.57	26434.01
451.76	26389.54
451.94	26387.20
452.13	25827.81
452.31	24858.83
452.49	23672.18
452.68	24350.93
452.86	23990.49
453.05	24505.41
453.23	25130.33
453.42	25642.91
453.60	26134.42
453.78	26244.43
453.97	26363.79
454.15	26214.00
454.34	25408.86
454.52	25830.15
454.70	25434.60
454.89	25720.15
455.07	25565.67
455.26	25944.84
455.44	27103.40
455.62	27833.65
455.81	27323.41
455.99	27250.86
456.17	26986.38
456.36	27431.08
456.54	27810.25
456.73	27658.11
456.91	28540.49
457.09	28489.00
457.28	29172.44
457.46	27924.93
457.64	28313.46
457.83	27037.87
458.01	26202.30
458.19	26852.97
458.38	27288.31
458.56	28276.01
458.74	28023.23
458.93	27632.36
459.11	27756.41
459.29	27681.52
459.48	27194.68
459.66	27218.09
459.84	27524.70
460.03	27955.36
460.21	27922.59
460.39	28683.27
460.57	28739.44
460.76	28898.59
460.94	29001.58
461.12	28655.18
461.31	28706.67
461.49	28620.07
461.67	28767.52
461.85	29631.18
462.04	29322.23
462.22	30169.51
462.40	29462.66
462.59	29387.77
462.77	29532.88
462.95	29560.97
463.13	29252.02
463.32	28870.51
463.50	28659.86
463.68	28835.40
463.86	28870.51
464.05	28325.16
464.23	27447.46
464.41	27557.47
464.59	27232.13
464.78	28814.34
464.96	28840.08
465.14	28086.43
465.32	29219.25
465.50	29422.87
465.69	30008.01
465.87	29123.29
466.05	28456.23
466.23	27316.39
466.41	26752.32
466.60	27718.96
466.78	27016.80
466.96	27740.03
467.14	28320.48
467.32	28388.36
467.51	29001.58
467.69	27445.12
467.87	28306.44
468.05	28666.88
468.23	28697.31
468.41	28355.59
468.60	28741.78
468.78	29013.28
468.96	28582.62
469.14	29046.05
469.32	29191.16
469.50	27800.88
469.69	28037.28
469.87	27854.72
470.05	27807.90
470.23	27693.22
470.41	27730.67
470.59	28423.47
470.77	28435.17
470.95	28788.59
471.14	29123.29
471.32	29347.98
471.50	30726.55
471.68	30775.70
471.86	31321.05
472.04	31765.75
472.22	31662.77
472.40	29923.75
472.58	29773.95
472.77	29202.86
472.95	30115.67
473.13	30717.19
473.31	30129.72
473.49	30326.32
473.67	30555.69
473.85	30815.49
474.03	31543.40
474.21	31592.55
474.39	32397.70
474.57	32383.65
474.75	32079.38
474.93	32385.99
475.12	31454.46
475.30	31276.58
475.48	31775.11
475.66	31931.93
475.84	31709.58
476.02	31087.00
476.20	30555.69
476.38	31740.00
476.56	32765.16
476.74	32924.32
476.92	32931.34
477.10	33680.31
477.28	34696.10
477.46	34141.39
477.64	34927.81
477.82	34953.56
478.00	35033.14
478.18	34677.38
478.36	34401.19
478.54	34352.04
478.72	34525.24
478.90	35529.33
479.08	36313.41
479.26	37036.64
479.44	36802.58
479.62	36797.90
479.80	36758.11
479.98	36704.28
480.16	36844.71
480.34	36952.38
480.52	37251.97
480.70	37558.58
480.88	37427.51
481.06	38363.72
481.24	38572.03
481.41	39405.26
481.59	39922.52
481.77	39683.78
481.95	38703.10
482.13	38415.21
482.31	39112.69
482.49	39082.27
482.67	39313.98
482.85	39896.77
483.03	40093.38
483.21	40465.52
483.39	40509.99
483.57	39634.63
483.74	39604.20
483.92	39536.33
484.10	39943.58
484.28	41085.76
484.46	41280.03
484.64	41741.11
484.82	40711.28
485.00	40247.85
485.18	39288.23
485.35	38307.55
485.53	35105.70
485.71	32070.02
485.89	31945.97
486.07	34110.97
486.25	36765.14
486.43	38618.84
486.61	39370.15
486.78	39187.59
486.96	39276.53
487.14	41158.32
487.32	42466.68
487.50	43468.43
487.68	44449.11
487.85	44952.33
488.03	44514.65
488.21	43887.39
488.39	43519.92
488.57	42724.14
488.75	42281.78
488.92	44329.75
489.10	46253.67
489.28	47721.18
489.46	48708.89
489.64	48107.37
489.81	48428.02
489.99	48088.65
490.17	48175.25
490.35	48542.71
490.53	47676.71
490.70	47681.39
490.88	47428.62
491.06	48289.93
491.24	48484.20
491.41	47164.14
491.59	45371.28
491.77	44449.11
491.95	45846.41
492.13	47449.68
492.30	48818.89
492.48	50169.38
492.66	50169.38
492.84	50499.40
493.01	50021.93
493.19	49207.42
493.37	48629.31
493.54	48486.54
493.72	49134.87
493.90	50539.19
494.08	51192.20
494.25	52112.03
494.43	51983.30
494.61	52671.42
494.79	52603.54
494.96	52144.80
495.14	51653.28
495.32	50635.15
495.49	49593.61
495.67	51070.49
495.85	52523.96
496.02	53361.87
496.20	52846.96
496.38	52140.11
496.55	52191.61
496.73	52947.60
496.91	53233.14
497.09	53588.91
497.26	53961.05
497.44	53090.37
497.62	52610.56
497.79	51683.71
497.97	50445.57
498.14	50358.97
498.32	51980.96
498.50	52921.85
498.67	53567.84
498.85	53193.36
499.03	53516.35
499.20	53654.44
499.38	53844.02
499.56	53579.54
499.73	53034.20
499.91	52540.35
500.08	51681.37
500.26	51388.80
500.44	51810.10
500.61	52589.50
500.79	52570.77
500.97	51845.21
501.14	51770.31
501.32	51793.71
501.49	51955.21
501.67	52142.45
501.84	52610.56
502.02	52383.53
502.20	53230.80
502.37	53389.96
502.55	53268.25
502.72	54082.76
502.90	54789.60
503.07	54239.57
503.25	53801.89
503.43	52680.78
503.60	52072.24
503.78	51098.58
503.95	51679.03
504.13	53560.82
504.30	54157.66
504.48	53895.52
504.65	53581.88
504.83	53827.64
505.01	54464.27
505.18	54878.54
505.36	55517.51
505.53	55430.91
505.71	55709.43
505.88	55744.54
506.06	55178.13
506.23	54511.08
506.41	54260.64
506.58	54707.68
506.76	54576.61
506.93	54693.64
507.11	54124.89
507.28	54548.53
507.46	54054.67
507.63	53130.16
507.81	53099.73
507.98	53544.44
508.16	54370.64
508.33	54611.72
508.50	55330.26
508.68	55370.05
508.85	55950.51
509.03	55976.25
509.20	55599.43
509.38	54995.57
509.55	54185.74
509.73	54440.86
509.90	55114.94
510.08	55082.17
510.25	55075.15
510.42	54794.28
510.60	54691.30
510.77	54925.35
510.95	55707.09
511.12	55798.37
511.30	56067.53
511.47	56458.40
511.64	56296.91
511.82	55962.21
511.99	55079.83
512.17	54695.98
512.34	54237.23
512.51	54536.82
512.69	54583.63
512.86	54927.69
513.04	55159.41
513.21	55117.28
513.38	54911.31
513.56	54326.17
513.73	53474.22
513.90	53701.25
514.08	53954.03
514.25	54365.96
514.43	54745.13
514.60	54698.32
514.77	54700.66
514.95	55152.38
515.12	54986.21
515.29	55054.08
515.47	55643.90
515.64	55770.28
515.81	55650.92
515.99	54768.54
516.16	52821.21
516.33	50309.82
516.51	48877.41
516.68	47695.44
516.85	47019.02
517.03	48432.71
517.20	51466.04
517.37	54164.68
517.54	55077.49
517.72	54181.06
517.89	51323.27
518.06	48699.53
518.24	49427.43
518.41	51899.04
518.58	53464.86
518.75	53605.29
518.93	53853.39
519.10	53647.42
519.27	54295.75
519.45	54433.84
519.62	55288.13
519.79	55393.46
519.96	55435.59
520.14	54539.16
520.31	53914.24
520.48	54026.59
520.65	54195.10
520.83	55477.72
521.00	55517.51
521.17	55590.06
521.34	55084.51
521.52	55456.65
521.69	56044.13
521.86	56254.78
522.03	55945.83
522.20	54759.17
522.38	53511.67
522.55	53659.12
522.72	54279.36
522.89	54681.94
523.07	54794.28
523.24	55061.10
523.41	56006.68
523.58	56406.91
523.75	56472.45
523.92	56762.67
524.10	56498.19
524.27	56765.01
524.44	56191.58
524.61	55962.21
524.78	55828.80
524.96	55796.03
525.13	56067.53
525.30	56212.65
525.47	56643.30
525.64	56353.08
525.81	55756.24
525.98	54035.95
526.16	52732.27
526.33	51840.53
526.50	51217.94
526.67	51007.29
526.84	51721.16
527.01	52788.44
527.18	53911.90
527.36	54728.75
527.53	55760.92
527.70	55976.25
527.87	55234.30
528.04	55112.59
528.21	55564.32
528.38	56104.98
528.55	56846.93
528.72	56893.74
528.89	57038.86
529.07	56772.03
529.24	56317.97
529.41	55391.12
529.58	54934.71
529.75	55117.28
529.92	55557.30
530.09	55833.48
530.26	56505.21
530.43	56970.98
530.60	57010.77
530.77	56961.62
530.94	56966.30
531.11	56640.96
531.28	56086.26
531.46	55983.27
531.63	56350.74
531.80	56163.50
531.97	55498.78
532.14	54721.72
532.31	53593.59
532.48	52865.68
532.65	53261.23
532.82	54026.59
532.99	55381.76
533.16	55636.87
533.33	56350.74
533.50	55962.21
533.67	55309.20
533.84	54894.92
534.01	55011.95
534.18	55463.67
534.35	55341.97
534.52	55409.84
534.69	55430.91
534.86	56039.45
535.03	56416.27
535.20	56809.48
535.37	57062.26
535.54	57155.88
535.71	56535.64
535.88	56442.02
536.05	55746.88
536.22	55377.08
536.38	54845.77
536.55	54621.08
536.72	53956.37
536.89	54267.66
537.06	54866.84
537.23	55950.51
537.40	56009.02
537.57	56093.28
537.74	55824.12
537.91	55611.13
538.08	55770.28
538.25	55774.97
538.42	55779.65
538.59	55718.79
538.75	54726.41
538.92	54852.80
539.09	54562.57
539.26	54457.24
539.43	54145.95
539.60	54382.35
539.77	54532.14
539.94	54262.98
540.11	53581.88
540.28	52910.15
540.44	53081.01
540.61	53492.94
540.78	53371.24
540.95	53982.12
541.12	54525.12
541.29	54841.09
541.46	55171.11
541.62	55189.83
541.79	54890.24
541.96	54433.84
542.13	54525.12
542.30	54848.11
542.47	54810.67
542.63	54768.54
542.80	54445.54
542.97	54674.91
543.14	54384.69
543.31	54417.46
543.48	54934.71
543.64	55985.61
543.81	56523.94
543.98	55910.72
544.15	55281.11
544.32	54604.70
544.48	54878.54
544.65	55248.35
544.82	55604.11
544.99	54915.99
545.16	54784.92
545.32	54438.52
545.49	55505.80
545.66	55835.82
545.83	55503.46
546.00	54911.31
546.16	54693.64
546.33	54672.57
546.50	54866.84
546.67	55330.26
546.83	54859.82
547.00	54667.89
547.17	54000.84
547.34	53427.41
547.50	53588.91
547.67	53918.92
547.84	53942.33
548.00	54384.69
548.17	55096.21
548.34	54777.90
548.51	54649.17
548.67	54897.27
548.84	55002.59
549.01	54637.47
549.18	54429.16
549.34	54492.35
549.51	54869.18
549.68	54300.43
549.84	54419.80
550.01	54307.45
550.18	53986.80
550.34	54010.20
550.51	54232.55
550.68	54387.03
550.84	53792.53
551.01	54115.53
551.18	53907.22
551.34	54316.81
551.51	54419.80
551.68	54703.00
551.84	54695.98
552.01	54522.78
552.18	54492.35
552.34	53504.65
552.51	53432.09
552.68	52851.64
552.84	53757.42
553.01	54040.63
553.18	53647.42
553.34	53928.28
553.51	53773.81
553.67	54487.67
553.84	54583.63
554.01	54389.37
554.17	54017.22
554.34	54106.16
554.51	54195.10
554.67	54714.70
554.84	54574.27
555.00	54279.36
555.17	53869.77
555.33	53659.12
555.50	53907.22
555.67	53787.85
555.83	53506.99
556.00	53191.01
556.16	53652.10
556.33	52697.16
556.50	52662.05
556.66	52753.33
556.83	52477.15
556.99	52851.64
557.16	52907.81
557.32	53095.05
557.49	53680.19
557.65	53228.46
557.82	53102.07
557.98	52781.42
558.15	52596.52
558.32	51655.62
558.48	50817.71
558.65	50873.88
558.81	51304.54
558.98	51430.93
559.14	51938.83
559.31	51852.23
559.47	52053.51
559.64	51821.80
559.80	51297.52
559.97	51456.68
560.13	52034.79
560.30	52741.63
560.46	53418.05
560.63	53724.66
560.79	53698.91
560.96	53139.52
561.12	52058.20
561.29	50798.99
561.45	51000.27
561.61	51873.29
561.78	52481.83
561.94	51950.53
562.11	51840.53
562.27	51700.09
562.44	52067.56
562.60	52538.01
562.77	52795.46
562.93	52573.11
563.10	52648.01
563.26	51814.78
563.42	51580.73
563.59	51721.16
563.75	51840.53
563.92	52053.51
564.08	51840.53
564.24	52090.96
564.41	52102.67
564.57	52142.45
564.74	51723.50
564.90	51449.66
565.07	51444.98
565.23	51213.26
565.39	50431.52
565.56	49855.75
565.72	49972.78
565.88	50363.65
566.05	50424.50
566.21	50539.19
566.38	50871.54
566.54	51281.14
566.70	51576.04
566.87	51533.92
567.03	51580.73
567.19	51800.74
567.36	51758.61
567.52	51540.94
567.68	50848.14
567.85	50543.87
568.01	50012.57
568.17	49488.29
568.34	49670.85
568.50	49139.55
568.66	49830.01
568.83	49914.26
568.99	50248.96
569.15	50794.31
569.32	50445.57
569.48	49982.14
569.64	49614.68
569.81	49572.55
569.97	49394.67
570.13	49766.81
570.30	48629.31
570.46	48292.27
570.62	47615.86
570.78	47573.73
570.95	48186.95
571.11	48828.26
571.27	49272.96
571.43	49602.97
571.60	49801.92
571.76	50096.83
571.92	50543.87
572.09	50541.53
572.25	50621.11
572.41	50555.57
572.57	49895.54
572.74	49977.46
572.90	49661.49
573.06	49530.42
573.22	49537.44
573.38	49811.28
573.55	49219.13
573.71	50017.25
573.87	49846.39
574.03	49404.03
574.20	49553.82
574.36	49153.59
574.52	49052.95
574.68	48615.27
574.84	48217.38
575.01	47751.61
575.17	47777.36
575.33	47966.94
575.49	48280.57
575.65	48395.26
575.82	48514.62
575.98	47885.02
576.14	48498.24
576.30	48732.29
576.46	48626.97
576.62	48673.78
576.79	48573.14
576.95	48142.48
577.11	47723.52
577.27	48521.65
577.43	48346.11
577.59	47660.33
577.75	47224.99
577.92	46354.31
578.08	46588.36
578.24	46550.91
578.40	46857.52
578.56	47100.94
578.72	47482.45
578.88	47447.34
579.04	47459.04
579.21	47529.26
579.37	47613.52
579.53	47749.27
579.69	47906.08
579.85	47751.61
580.01	47489.47
580.17	47168.82
580.33	47327.97
580.49	47196.90
580.65	47428.62
580.82	47934.17
580.98	47531.60
581.14	47564.37
581.30	47655.65
581.46	47772.67
581.62	48020.77
581.78	47842.89
581.94	47833.53
582.10	48175.25
582.26	47988.00
582.42	47957.58
582.58	48353.13
582.74	48346.11
582.90	47973.96
583.06	48079.28
583.22	47571.39
583.38	47419.25
583.54	47173.50
583.70	47388.83
583.86	47983.32
584.02	47505.85
584.18	47927.15
584.34	47384.15
584.50	47421.59
584.66	47021.36
584.82	46777.95
584.98	46335.59
585.14	45717.68
585.30	45052.97
