SpectraSuite Data File
++++++++++++++++++++++++++++++++++++
Date: Mon Oct 07 14:53:40 GMT-05:00 2013
User: price-jones
Dark Spectrum Present: No
Reference Spectrum Present: No
Number of Sampled Component Spectra: 1
Spectrometers: USB2+H05261
Integration Time (usec): 100000 (USB2+H05261)
Spectra Averaged: 1 (USB2+H05261)
Boxcar Smoothing: 0 (USB2+H05261)
Correct for Electrical Dark: No (USB2+H05261)
Strobe/Lamp Enabled: No (USB2+H05261)
Correct for Detector Non-linearity: No (USB2+H05261)
Correct for Stray Light: No (USB2+H05261)
Number of Pixels in Processed Spectrum: 2048
>>>>>Begin Processed Spectral Data<<<<<
365.73	0.00
365.92	0.00
366.12	0.00
366.32	0.00
366.52	0.00
366.72	0.00
366.91	0.00
367.11	0.00
367.31	0.00
367.51	0.00
367.70	0.00
367.90	0.00
368.10	0.00
368.30	0.00
368.49	0.00
368.69	0.00
368.89	0.00
369.09	0.00
369.28	0.00
369.48	0.00
369.68	0.00
369.87	0.00
370.07	0.00
370.27	0.00
370.47	433.00
370.66	2848.43
370.86	3454.63
371.06	3693.37
371.25	3810.39
371.45	3337.60
371.65	2984.18
371.84	2883.54
372.04	2993.55
372.24	3335.26
372.44	3552.93
372.63	3295.47
372.83	3260.37
373.03	2766.51
373.22	2516.08
373.42	2857.79
373.62	3164.40
373.81	3456.97
374.01	3524.85
374.21	3023.97
374.40	2913.97
374.60	2972.48
374.79	3431.23
374.99	3878.27
375.19	4334.67
375.38	4355.74
375.58	3971.89
375.78	4149.77
375.97	4154.45
376.17	4278.50
376.37	4102.96
376.56	4278.50
376.76	4264.46
376.95	4681.07
377.15	5188.97
377.35	5341.10
377.54	5715.59
377.74	5724.95
377.93	5804.53
378.13	5680.48
378.33	5390.25
378.52	4884.70
378.72	4613.20
378.91	4671.71
379.11	4486.81
379.31	4250.41
379.50	4250.41
379.70	4648.30
379.89	5027.47
380.09	5507.28
380.28	5481.53
380.48	5790.49
380.68	5607.92
380.87	5467.49
381.07	4966.62
381.26	4561.70
381.46	4264.46
381.65	4109.98
381.85	4222.33
382.04	3918.06
382.24	3709.75
382.43	3452.29
382.63	3421.86
382.83	3386.76
383.02	3590.38
383.22	3529.53
383.41	3330.58
383.61	3744.86
383.80	4102.96
384.00	4706.82
384.19	5291.95
384.39	5617.29
384.58	5631.33
384.78	5334.08
384.97	5327.06
385.17	5046.20
385.36	5020.45
385.56	4713.84
385.75	4716.18
385.95	5130.45
386.14	5703.89
386.34	5736.65
386.53	5378.55
386.72	5191.31
386.92	5210.03
387.11	5453.45
387.31	5572.82
387.50	5612.60
387.70	5434.72
387.89	5420.68
388.09	5547.07
388.28	5430.04
388.48	5621.97
388.67	5989.43
388.86	6626.06
389.06	7045.01
389.25	7569.29
389.45	7630.15
389.64	7452.27
389.84	7508.44
390.03	7379.71
390.22	7215.87
390.42	7466.31
390.61	8224.64
390.81	8652.96
391.00	8634.24
391.19	8711.47
391.39	8346.35
391.58	7611.42
391.78	7225.23
391.97	7178.42
392.16	6740.74
392.36	6253.91
392.55	4901.08
392.75	3985.93
392.94	3197.17
393.13	3063.76
393.33	3737.84
393.52	4816.82
393.71	5767.08
393.91	6424.77
394.10	7091.82
394.29	7868.88
394.49	8315.92
394.68	9029.79
394.88	9114.05
395.07	9561.09
395.26	9584.49
395.46	8938.51
395.65	8706.79
395.84	7691.00
396.04	6558.18
396.23	5294.29
396.42	4425.95
396.62	4102.96
396.81	4718.52
397.00	6169.65
397.19	7798.66
397.39	9247.46
397.58	10331.12
397.77	11147.97
397.97	11349.26
398.16	11295.43
398.35	11927.37
398.55	12100.57
398.74	12751.24
398.93	13121.04
399.12	12849.54
399.32	12140.36
399.51	12622.51
399.70	13797.46
399.90	13123.38
400.09	13518.93
400.28	13097.64
400.47	13355.10
400.67	13717.88
400.86	14424.72
401.05	14469.19
401.24	14504.30
401.44	14728.99
401.63	14740.69
401.82	14904.53
402.01	14916.23
402.21	15129.22
402.40	15026.24
402.59	14712.61
402.78	13811.50
402.97	13514.25
403.17	14043.21
403.36	14944.32
403.55	15389.02
403.74	15672.23
403.93	15126.88
404.13	14078.32
404.32	13422.97
404.51	14017.47
404.70	15337.53
404.89	15611.37
405.09	15103.48
405.28	14626.01
405.47	14661.12
405.66	14932.62
405.85	14120.45
406.05	13809.16
406.24	14157.90
406.43	14663.46
406.62	15222.84
406.81	15494.35
407.00	14672.82
407.20	14197.69
407.39	14745.38
407.58	15239.23
407.77	15925.00
407.96	16512.48
408.15	16585.04
408.34	16725.47
408.54	17341.03
408.73	17273.15
408.92	17078.89
409.11	16889.31
409.30	15838.41
409.49	14850.70
409.68	14017.47
409.87	13249.77
410.07	14246.84
410.26	15534.14
410.45	16393.11
410.64	16844.84
410.83	17481.46
411.02	17921.48
411.21	18579.17
411.40	18394.27
411.59	18204.69
411.78	18347.46
411.98	17996.38
412.17	18480.87
412.36	17916.80
412.55	17923.82
412.74	17633.60
412.93	17198.26
413.12	17341.03
413.31	19218.14
413.50	19140.90
413.69	19454.53
413.88	18560.45
414.07	18242.14
414.26	18705.56
414.45	19152.60
414.64	19311.76
414.83	19330.48
415.02	18981.74
415.22	18787.48
415.41	19541.13
415.60	19941.36
415.79	20608.42
415.98	21057.80
416.17	21261.43
416.36	20823.75
416.55	20666.93
416.74	19674.54
416.93	19105.79
417.12	19229.84
417.31	19302.40
417.50	19337.51
417.69	20346.28
417.88	20280.74
418.07	20039.67
418.26	19967.11
418.45	19686.25
418.64	20673.95
418.83	21738.90
419.02	21085.89
419.21	21167.80
419.39	20091.16
419.58	19302.40
419.77	18946.64
419.96	19894.55
420.15	21142.06
420.34	21912.10
420.53	22321.69
420.72	22848.31
420.91	22867.03
421.10	22324.03
421.29	22324.03
421.48	21706.13
421.67	22902.14
421.86	21764.64
422.05	20575.65
422.24	18403.63
422.43	18260.86
422.61	20049.03
422.80	21715.49
422.99	21720.17
423.18	21020.35
423.37	20699.70
423.56	20594.37
423.75	21067.16
423.94	21289.51
424.13	20334.57
424.32	20500.75
424.50	20659.91
424.69	20037.33
424.88	20114.56
425.07	20217.55
425.26	20360.32
425.45	20159.03
425.64	19840.72
425.83	19964.77
426.01	20568.63
426.20	21422.92
426.39	20964.18
426.58	19410.06
426.77	18188.30
426.96	17193.58
427.15	18335.76
427.33	19569.22
427.52	20711.40
427.71	20648.21
427.90	20329.89
428.09	20315.85
428.28	19697.95
428.46	19178.35
428.65	18700.88
428.84	19178.35
429.03	19391.34
429.22	18799.18
429.40	17834.88
429.59	15587.97
429.78	13994.06
429.97	14223.44
430.16	14228.12
430.34	14288.97
430.53	14092.37
430.72	14761.76
430.91	15941.39
431.10	18939.62
431.28	22551.06
431.47	24229.23
431.66	24835.42
431.85	22501.91
432.03	20790.98
432.22	19491.98
432.41	20641.18
432.60	22892.78
432.79	23590.26
432.97	24137.94
433.16	23501.32
433.35	21568.04
433.54	19585.60
433.72	18160.22
433.91	18944.30
434.10	21025.03
434.28	22663.41
434.47	23562.17
434.66	23386.63
434.85	22860.01
435.03	22214.02
435.22	23288.33
435.41	24629.46
435.59	24697.33
435.78	25113.95
435.97	25701.42
436.16	25841.85
436.34	25642.91
436.53	24790.95
436.72	24805.00
436.90	23765.80
437.09	23442.81
437.28	23171.30
437.46	23983.47
437.65	23915.59
437.84	22342.75
438.02	20255.00
438.21	20147.33
438.40	21556.33
438.58	23410.04
438.77	23962.40
438.96	24086.45
439.14	25130.33
439.33	25804.41
439.52	26181.23
439.70	25750.57
439.89	24716.06
440.08	24315.83
440.26	24238.59
440.45	24889.26
440.63	26614.23
440.82	28100.47
441.01	27868.76
441.19	27337.46
441.38	27674.49
441.57	28854.12
441.75	29312.87
441.94	29394.79
442.12	29376.06
442.31	30008.01
442.50	29675.65
442.68	29509.47
442.87	28952.43
443.05	28760.50
443.24	28947.75
443.43	29488.41
443.61	30335.68
443.80	30834.22
443.98	28973.49
444.17	28954.77
444.35	30749.96
444.54	31072.95
444.73	30965.29
444.91	29467.34
445.10	28311.12
445.28	27175.96
445.47	26614.23
445.65	26953.61
445.84	27520.02
446.02	28608.37
446.21	28926.68
446.39	29116.26
446.58	29708.42
446.77	29596.07
446.95	30101.63
447.14	31136.15
447.32	31817.24
447.51	30876.35
447.69	29905.02
447.88	29500.11
448.06	29837.15
448.25	30464.41
448.43	30675.06
448.62	30239.72
448.80	29640.54
448.99	30213.98
449.17	30375.47
449.36	29890.98
449.54	31653.40
449.73	32343.86
449.91	32025.55
450.10	33191.14
450.28	33813.72
450.46	33362.00
450.65	33600.73
450.83	33362.00
451.02	32421.10
451.20	32301.73
451.39	31955.33
451.57	31908.52
451.76	32128.53
451.94	31950.65
452.13	31601.91
452.31	30108.65
452.49	28271.33
452.68	28723.05
452.86	29057.75
453.05	29448.62
453.23	30361.43
453.42	30649.32
453.60	31777.45
453.78	32135.56
453.97	31875.76
454.15	31653.40
454.34	30876.35
454.52	30944.22
454.70	30841.24
454.89	30944.22
455.07	31152.53
455.26	31405.31
455.44	32479.61
455.62	33022.62
455.81	33481.36
455.99	33244.97
456.17	32718.35
456.36	32940.70
456.54	33844.15
456.73	33816.06
456.91	34684.40
457.09	34438.64
457.28	35019.10
457.46	33970.54
457.64	33560.94
457.83	32369.61
458.01	32046.62
458.19	32886.87
458.38	32921.98
458.56	33940.11
458.74	33792.65
458.93	33399.44
459.11	33364.34
459.29	33083.47
459.48	33186.46
459.66	32910.27
459.84	33684.99
460.03	33865.21
460.21	32975.81
460.39	34396.51
460.57	34206.93
460.76	34848.24
460.94	35189.95
461.12	34305.23
461.31	34607.16
461.49	34277.15
461.67	34485.45
461.85	35723.60
462.04	35510.61
462.22	35381.88
462.40	35700.19
462.59	35580.82
462.77	35136.12
462.95	35688.49
463.13	35402.94
463.32	34675.04
463.50	34546.31
463.68	34738.23
463.86	34494.82
464.05	34094.58
464.23	33521.15
464.41	33532.86
464.59	32840.06
464.78	34195.23
464.96	34232.68
465.14	33940.11
465.32	35016.75
465.50	35660.40
465.69	35824.24
465.87	35426.35
466.05	34326.30
466.23	32940.70
466.41	31960.02
466.60	33116.24
466.78	33226.24
466.96	33486.04
467.14	33806.70
467.32	34937.18
467.51	34628.23
467.69	33160.71
467.87	33823.08
468.05	34108.63
468.23	34309.91
468.41	34167.14
468.60	34253.74
468.78	34993.35
468.96	33825.42
469.14	35470.82
469.32	35035.48
469.50	33699.03
469.69	33766.91
469.87	33584.35
470.05	33275.40
470.23	33027.30
470.41	33347.95
470.59	34007.98
470.77	34136.71
470.95	35005.05
471.14	35328.05
471.32	35166.55
471.50	37221.54
471.68	37366.65
471.86	37574.96
472.04	37600.71
472.22	37790.29
472.40	35978.72
472.58	35887.43
472.77	35641.68
472.95	35814.88
473.13	36758.11
473.31	35957.65
473.49	36460.87
473.67	36720.66
473.85	36842.37
474.03	37916.68
474.21	38174.14
474.39	38581.39
474.57	38635.22
474.75	38672.67
474.93	38553.30
475.12	37249.63
475.30	37563.26
475.48	37666.24
475.66	38450.32
475.84	37727.10
476.02	37099.83
476.20	37027.28
476.38	37497.72
476.56	38742.89
476.74	39201.63
476.92	39321.00
477.10	39526.97
477.28	40926.61
477.46	41329.18
477.64	41530.47
477.82	41521.10
478.00	42108.58
478.18	41303.43
478.36	41155.98
478.54	41076.40
478.72	41607.70
478.90	42305.18
479.08	43716.53
479.26	43590.14
479.44	44069.95
479.62	43117.35
479.80	43328.00
479.98	43632.27
480.16	43765.68
480.34	43447.36
480.52	44086.33
480.70	44549.76
480.88	44158.89
481.06	44781.47
481.24	45399.37
481.41	46548.57
481.59	46686.67
481.77	46597.73
481.95	46134.30
482.13	45815.99
482.31	45968.12
482.49	46506.44
482.67	46295.80
482.85	47096.26
483.03	47545.64
483.21	47793.74
483.39	47543.30
483.57	46794.33
483.74	46515.81
483.92	46733.48
484.10	47117.32
484.28	47842.89
484.46	48079.28
484.64	48460.79
484.82	47753.95
485.00	47330.31
485.18	46899.65
485.35	45516.40
485.53	42466.68
485.71	38871.62
485.89	38043.07
486.07	39943.58
486.25	43255.44
486.43	45631.08
486.61	46361.33
486.78	46075.79
486.96	46681.98
487.14	48121.41
487.32	48825.92
487.50	49890.86
487.68	50927.72
487.85	51672.01
488.03	51178.15
488.21	50894.95
488.39	50560.25
488.57	49876.82
488.75	49394.67
488.92	50223.22
489.10	52552.05
489.28	53780.83
489.46	54396.39
489.64	54138.93
489.81	54471.29
489.99	53984.46
490.17	53977.43
490.35	54553.21
490.53	53977.43
490.70	53677.85
490.88	53296.34
491.06	54576.61
491.24	54490.01
491.41	53385.28
491.59	52250.12
491.77	50880.91
491.95	52102.67
492.13	53286.98
492.30	54440.86
492.48	55344.31
492.66	55910.72
492.84	55793.69
493.01	55395.80
493.19	55023.65
493.37	54686.62
493.54	54623.42
493.72	55030.68
493.90	56322.65
494.08	56655.01
494.25	56851.61
494.43	57113.75
494.61	57492.92
494.79	57736.34
494.96	57317.38
495.14	56818.84
495.32	56037.11
495.49	55215.58
495.67	56343.72
495.85	57659.10
496.02	57982.09
496.20	57998.48
496.38	57570.16
496.55	57504.62
496.73	57652.08
496.91	57916.56
497.09	58482.97
497.26	58787.24
497.44	58143.59
497.62	57609.95
497.79	57036.51
497.97	55693.05
498.14	55800.71
498.32	57073.96
498.50	57696.55
498.67	58387.00
498.85	58204.44
499.03	58316.79
499.20	58288.70
499.38	58564.88
499.56	58562.54
499.73	58108.48
499.91	57696.55
500.08	57167.58
500.26	56638.62
500.44	56893.74
500.61	57525.69
500.79	57598.24
500.97	57050.56
501.14	57095.03
501.32	56793.10
501.49	56678.41
501.67	57090.35
501.84	57467.17
502.02	57701.23
502.20	58071.03
502.37	58356.58
502.55	58312.11
502.72	58607.01
502.90	59058.74
503.07	58899.58
503.25	58564.88
503.43	57984.43
503.60	57310.36
503.78	56435.00
503.95	56767.35
504.13	58059.33
504.30	59072.78
504.48	58763.83
504.65	58473.60
504.83	58670.21
505.01	58962.78
505.18	59365.35
505.36	60072.19
505.53	59973.89
505.71	60446.68
505.88	60299.22
506.06	59803.03
506.23	59409.82
506.41	59075.12
506.58	59227.26
506.76	59363.01
506.93	59365.35
507.11	58993.20
507.28	59105.55
507.46	58637.44
507.63	57937.62
507.81	57958.69
507.98	58387.00
508.16	58918.31
508.33	59561.95
508.50	59725.79
508.68	59983.25
508.85	60472.42
509.03	60374.12
509.20	60362.42
509.38	59536.21
509.55	59028.31
509.73	59086.82
509.90	59543.23
510.08	59936.44
510.25	59655.57
510.42	59327.90
510.60	59536.21
510.77	59718.77
510.95	60013.68
511.12	60240.71
511.30	60580.09
511.47	61015.43
511.64	60879.67
511.82	60629.24
511.99	59875.58
512.17	59564.29
512.34	58927.67
512.51	59257.68
512.69	59208.53
512.86	59351.30
513.04	59772.60
513.21	59929.42
513.38	59611.10
513.56	58913.62
513.73	58403.39
513.90	58635.10
514.08	58698.30
514.25	58948.73
514.43	59150.02
514.60	59194.49
514.77	59480.03
514.95	59494.08
515.12	59554.93
515.29	59552.59
515.47	60280.50
515.64	60264.11
515.81	59866.22
515.99	59475.35
516.16	58117.84
516.33	56083.92
516.51	54415.11
516.68	53546.78
516.85	53345.49
517.03	53668.48
517.20	56158.81
517.37	58759.15
517.54	59590.04
517.72	59262.36
517.89	57088.01
518.06	54754.49
518.24	54616.40
518.41	56961.62
518.58	58251.25
518.75	58415.09
518.93	58607.01
519.10	58230.19
519.27	59037.67
519.45	58866.81
519.62	59744.51
519.79	60151.77
519.96	59924.74
520.14	59552.59
520.31	58679.57
520.48	58642.12
520.65	59004.91
520.83	59887.29
521.00	60212.62
521.17	59966.87
521.34	59622.81
521.52	59716.43
521.69	60453.70
521.86	60917.12
522.03	60530.93
522.20	59227.26
522.38	58557.86
522.55	58262.96
522.72	59152.36
522.89	59147.68
523.07	59306.83
523.24	59664.94
523.41	60336.67
523.58	60652.64
523.75	61139.47
523.92	61106.71
524.10	60760.31
524.27	61062.24
524.44	60757.97
524.61	60493.49
524.78	60360.08
524.96	60313.26
525.13	60439.65
525.30	60453.70
525.47	60921.80
525.64	60938.19
525.81	60327.31
525.98	59114.91
526.16	57556.11
526.33	56882.04
526.50	56715.86
526.67	56135.41
526.84	56619.90
527.01	57731.65
527.18	58714.68
527.36	59316.20
527.53	60179.85
527.70	60308.58
527.87	59922.40
528.04	59456.63
528.21	60247.73
528.38	60622.22
528.55	61275.22
528.72	61333.74
528.89	61645.03
529.07	61272.88
529.24	60884.36
529.41	60144.75
529.58	59517.48
529.75	59887.29
529.92	60121.34
530.09	60259.43
530.26	60921.80
530.43	60975.64
530.60	61207.35
530.77	61368.85
530.94	61577.15
531.11	61139.47
531.28	60797.76
531.46	60788.39
531.63	60484.12
531.80	60629.24
531.97	60226.66
532.14	59580.68
532.31	58415.09
532.48	57879.11
532.65	57820.59
532.82	58787.24
532.99	59807.71
533.16	59978.57
533.33	60568.38
533.50	60472.42
533.67	59936.44
533.84	59274.07
534.01	59793.67
534.18	59913.03
534.35	60102.62
534.52	59915.37
534.69	60114.32
534.86	60217.30
535.03	60598.81
535.20	61118.41
535.37	61429.70
535.54	61406.30
535.71	61216.71
535.88	60912.44
536.05	60137.72
536.22	59920.05
536.38	59707.07
536.55	59309.18
536.72	58595.31
536.89	58660.85
537.06	59351.30
537.23	60041.76
537.40	60341.35
537.57	60367.10
537.74	60186.88
537.91	60119.00
538.08	60114.32
538.25	60114.32
538.42	60126.02
538.59	60107.30
538.75	59674.30
538.92	59344.28
539.09	59210.87
539.26	59086.82
539.43	58712.34
539.60	59065.76
539.77	59220.23
539.94	58890.22
540.11	58328.49
540.28	57736.34
540.44	57897.83
540.61	57977.41
540.78	58438.50
540.95	58759.15
541.12	59224.92
541.29	59421.52
541.46	59653.23
541.62	59636.85
541.79	59522.16
541.96	58899.58
542.13	58920.65
542.30	59049.38
542.47	59531.53
542.63	59325.56
542.80	59000.22
542.97	59152.36
543.14	58937.03
543.31	58965.12
543.48	59400.46
543.64	60062.83
543.81	60610.51
543.98	60245.39
544.15	59728.13
544.32	59100.87
544.48	59187.47
544.65	59587.70
544.82	59936.44
544.99	59674.30
545.16	59444.93
545.32	59018.95
545.49	59758.56
545.66	60231.35
545.83	59880.27
546.00	59501.10
546.16	59049.38
546.33	59304.49
546.50	59227.26
546.67	59767.92
546.83	59477.69
547.00	59388.75
547.17	58794.26
547.34	58192.74
547.50	58092.10
547.67	58527.44
547.84	58541.48
548.00	58934.69
548.17	59358.33
548.34	59107.89
548.51	59128.95
548.67	59215.55
548.84	59388.75
549.01	59206.19
549.18	59248.32
549.34	59189.81
549.51	59229.60
549.68	59152.36
549.84	59014.27
550.01	58824.68
550.18	58604.67
550.34	59009.59
550.51	58834.05
550.68	58841.07
550.84	58555.52
551.01	58663.19
551.18	58555.52
551.34	58700.64
551.51	58932.35
551.68	59283.43
551.84	59353.65
552.01	59238.96
552.18	59035.33
552.34	58155.29
552.51	57708.25
552.68	57724.63
552.84	58216.14
553.01	58543.82
553.18	58728.72
553.34	58581.27
553.51	58740.42
553.67	59117.25
553.84	59173.42
554.01	59040.01
554.17	58794.26
554.34	58719.36
554.51	58922.99
554.67	59276.41
554.84	59103.21
555.00	58693.61
555.17	58684.25
555.33	58351.90
555.50	58515.73
555.67	58684.25
555.83	58365.94
556.00	58019.54
556.16	58082.73
556.33	57584.20
556.50	57378.23
556.66	57588.88
556.83	57535.05
556.99	57483.56
557.16	57546.75
557.32	58014.86
557.49	58129.54
557.65	58131.89
557.82	57827.62
557.98	57822.93
558.15	57399.30
558.32	56743.95
558.48	55800.71
558.65	56009.02
558.81	56437.34
558.98	56774.37
559.14	56772.03
559.31	56942.89
559.47	56933.53
559.64	56605.86
559.80	56259.46
559.97	56495.85
560.13	56715.86
560.30	57509.30
560.46	58122.52
560.63	58199.76
560.79	58321.47
560.96	57895.49
561.12	56865.66
561.29	56210.31
561.45	56144.77
561.61	56765.01
561.78	57193.33
561.94	56921.83
562.11	56952.26
562.27	56690.12
562.44	57247.16
562.60	57354.83
562.77	57682.50
562.93	57481.22
563.10	57099.71
563.26	56734.59
563.42	57076.30
563.59	56540.32
563.75	56706.50
563.92	56697.14
564.08	56657.35
564.24	56839.91
564.41	56905.44
564.57	56823.53
564.74	56687.78
564.90	56683.09
565.07	56502.87
565.23	56116.68
565.39	55524.53
565.56	55395.80
565.72	55154.72
565.88	55763.26
566.05	55550.27
566.21	55866.25
566.38	55870.93
566.54	56067.53
566.70	56481.81
566.87	56640.96
567.03	56755.65
567.19	56753.31
567.36	56633.94
567.52	56420.95
567.68	56512.23
567.85	55730.50
568.01	55243.66
568.17	55131.32
568.34	54958.12
568.50	55051.74
568.66	55147.70
568.83	55281.11
568.99	55608.79
569.15	55468.36
569.32	55587.72
569.48	55288.13
569.64	55175.79
569.81	55288.13
569.97	54618.74
570.13	54805.98
570.30	54396.39
570.46	54026.59
570.62	53200.38
570.78	53268.25
570.95	53701.25
571.11	54110.85
571.27	54457.24
571.43	54796.62
571.60	54899.61
571.76	55004.93
571.92	55517.51
572.09	55400.48
572.25	55690.71
572.41	55388.78
572.57	55473.04
572.74	55454.31
572.90	54773.22
573.06	54946.42
573.22	55136.00
573.38	55018.97
573.55	54913.65
573.71	55229.62
573.87	55025.99
574.03	54724.07
574.20	54824.71
574.36	54419.80
574.52	54475.97
574.68	54284.04
574.84	53970.41
575.01	53497.62
575.17	53277.61
575.33	53432.09
575.49	54136.59
575.65	54206.81
575.82	53813.60
575.98	53556.14
576.14	54021.90
576.30	54073.40
576.46	54239.57
576.62	54244.26
576.79	54389.37
576.95	53654.44
577.11	53722.32
577.27	53794.87
577.43	53787.85
577.59	53607.63
577.75	53298.68
577.92	52722.91
578.08	52449.06
578.24	52472.47
578.40	52608.22
578.56	52884.40
578.72	52879.72
578.88	53092.71
579.04	53324.43
579.21	53511.67
579.37	53514.01
579.53	53652.10
579.69	53312.72
579.85	53436.77
580.01	53392.30
580.17	53130.16
580.33	53031.86
580.49	53062.29
580.65	53322.08
580.82	53289.32
580.98	53415.71
581.14	53368.90
581.30	53399.32
581.46	53401.66
581.62	53413.37
581.78	53270.59
581.94	53687.21
582.10	53705.93
582.26	53612.31
582.42	53581.88
582.58	53614.65
582.74	53694.23
582.90	53446.13
583.06	53368.90
583.22	53371.24
583.38	53298.68
583.54	53109.10
583.70	53118.46
583.86	53420.39
584.02	53237.83
584.18	53326.77
584.34	53158.25
584.50	53120.80
584.66	52856.32
584.82	52608.22
584.98	52385.87
585.14	51966.91
585.30	51253.05
