SpectraSuite Data File
++++++++++++++++++++++++++++++++++++
Date: Mon Oct 07 14:53:39 GMT-05:00 2013
User: price-jones
Dark Spectrum Present: No
Reference Spectrum Present: No
Number of Sampled Component Spectra: 1
Spectrometers: USB2+H05261
Integration Time (usec): 100000 (USB2+H05261)
Spectra Averaged: 1 (USB2+H05261)
Boxcar Smoothing: 0 (USB2+H05261)
Correct for Electrical Dark: No (USB2+H05261)
Strobe/Lamp Enabled: No (USB2+H05261)
Correct for Detector Non-linearity: No (USB2+H05261)
Correct for Stray Light: No (USB2+H05261)
Number of Pixels in Processed Spectrum: 2048
>>>>>Begin Processed Spectral Data<<<<<
365.73	0.00
365.92	0.00
366.12	0.00
366.32	0.00
366.52	0.00
366.72	0.00
366.91	0.00
367.11	0.00
367.31	0.00
367.51	0.00
367.70	0.00
367.90	0.00
368.10	0.00
368.30	0.00
368.49	0.00
368.69	0.00
368.89	0.00
369.09	0.00
369.28	0.00
369.48	0.00
369.68	0.00
369.87	0.00
370.07	0.00
370.27	0.00
370.47	182.56
370.66	1687.53
370.86	1980.09
371.06	2132.23
371.25	2167.34
371.45	1884.13
371.65	1783.49
371.84	1582.20
372.04	1776.47
372.24	1806.89
372.44	2029.24
372.63	1912.22
372.83	1837.32
373.03	1736.68
373.22	1437.09
373.42	1544.75
373.62	1891.15
373.81	1956.69
374.01	2118.18
374.21	1860.73
374.40	1619.65
374.60	1675.82
374.79	1973.07
374.99	2326.49
375.19	2464.58
375.38	2513.74
375.58	2413.09
375.78	2293.72
375.97	2319.47
376.17	2443.52
376.37	2406.07
376.56	2431.82
376.76	2558.21
376.95	2810.98
377.15	2953.76
377.35	3098.87
377.54	3239.30
377.74	3248.66
377.93	3452.29
378.13	3304.84
378.33	3122.27
378.52	2796.94
378.72	2736.09
378.91	2696.30
379.11	2647.15
379.31	2544.16
379.50	2534.80
379.70	2614.38
379.89	2960.78
380.09	3082.49
380.28	3403.14
380.48	3288.45
380.68	3236.96
380.87	3129.30
381.07	2899.92
381.26	2665.87
381.46	2614.38
381.65	2452.88
381.85	2408.41
382.04	2232.87
382.24	2094.78
382.43	2012.86
382.63	1996.48
382.83	1853.70
383.02	1991.80
383.22	1966.05
383.41	1970.73
383.61	2019.88
383.80	2424.80
384.00	2799.28
384.19	2871.84
384.39	3241.64
384.58	3222.92
384.78	3089.51
384.97	3084.83
385.17	3063.76
385.36	2834.39
385.56	2740.77
385.75	2703.32
385.95	3110.57
386.14	3342.28
386.34	3466.33
386.53	3295.47
386.72	3023.97
386.92	3038.02
387.11	3173.77
387.31	3335.26
387.50	3372.71
387.70	3187.81
387.89	3206.53
388.09	3145.68
388.28	3171.43
388.48	3309.52
388.67	3398.46
388.86	3969.55
389.06	4180.20
389.25	4344.03
389.45	4442.34
389.64	4355.74
389.84	4404.89
390.03	4437.66
390.22	4280.84
390.42	4360.42
390.61	4514.89
390.81	4975.98
391.00	5095.35
391.19	5078.96
391.39	5027.47
391.58	4664.69
391.78	4365.10
391.97	4264.46
392.16	3873.59
392.36	3506.12
392.55	2857.79
392.75	2260.96
392.94	1842.00
393.13	1834.98
393.33	2188.40
393.52	2780.56
393.71	3494.42
393.91	3908.69
394.10	4088.92
394.29	4610.86
394.49	4997.04
394.68	5460.47
394.88	5254.50
395.07	5547.07
395.26	5495.58
395.46	5376.21
395.65	5027.47
395.84	4498.51
396.04	3880.61
396.23	2988.86
396.42	2506.71
396.62	2368.62
396.81	2895.24
397.00	3789.33
397.19	4617.88
397.39	5427.70
397.58	6071.35
397.77	6464.56
397.97	6883.52
398.16	6689.25
398.35	7166.72
398.55	7150.34
398.74	7606.74
398.93	7756.54
399.12	7627.81
399.32	7220.55
399.51	7489.71
399.70	8070.17
399.90	7681.64
400.09	7953.14
400.28	7758.88
400.47	7985.91
400.67	8351.03
400.86	8479.76
401.05	8519.55
401.24	8458.70
401.44	8622.53
401.63	8554.66
401.82	8695.09
402.01	8655.30
402.21	9125.75
402.40	8901.06
402.59	8652.96
402.78	8098.25
402.97	7936.76
403.17	8390.82
403.36	8454.02
403.55	9252.14
403.74	9195.96
403.93	8868.29
404.13	8234.00
404.32	7955.48
404.51	8381.46
404.70	9121.07
404.89	9151.49
405.09	8896.38
405.28	8620.19
405.47	8645.94
405.66	8531.25
405.85	8549.98
406.05	8147.40
406.24	8376.78
406.43	8566.36
406.62	8961.91
406.81	9219.37
407.00	8732.54
407.20	8638.92
407.39	8732.54
407.58	9156.18
407.77	9364.48
407.96	9612.58
408.15	9724.93
408.34	9825.57
408.54	10139.20
408.73	10232.82
408.92	10085.37
409.11	9956.64
409.30	9551.73
409.49	8690.41
409.68	8259.75
409.87	8351.03
410.07	8407.20
410.26	8985.32
410.45	9757.69
410.64	10157.92
410.83	10317.08
411.02	10399.00
411.21	10853.06
411.40	10789.87
411.59	11157.33
411.78	10853.06
411.98	10799.23
412.17	10991.16
412.36	10829.66
412.55	10670.50
412.74	10361.55
412.93	10417.72
413.12	10354.53
413.31	11342.24
413.50	11447.56
413.69	11644.17
413.88	11358.62
414.07	10766.46
414.26	11009.88
414.45	11447.56
414.64	11442.88
414.83	11414.79
415.02	11356.28
415.22	11316.49
415.41	11613.74
415.60	11932.05
415.79	12315.90
415.98	12606.13
416.17	12685.70
416.36	12159.08
416.55	11906.31
416.74	11676.93
416.93	11393.73
417.12	11206.48
417.31	11449.90
417.50	11695.66
417.69	11871.20
417.88	11894.60
418.07	11955.46
418.26	11864.18
418.45	11932.05
418.64	12271.43
418.83	12830.82
419.02	12601.44
419.21	12355.69
419.39	12013.97
419.58	11279.04
419.77	11372.66
419.96	11948.43
420.15	12573.36
420.34	13135.09
420.53	13383.18
420.72	13245.09
420.91	13626.60
421.10	13266.16
421.29	13387.86
421.48	12957.21
421.67	13614.90
421.86	13043.81
422.05	12468.03
422.24	10857.75
422.43	10801.57
422.61	11852.47
422.80	13130.41
422.99	12823.80
423.18	12465.69
423.37	12231.64
423.56	12128.66
423.75	12475.06
423.94	12854.22
424.13	11992.90
424.32	12224.62
424.50	11967.16
424.69	12149.72
424.88	12173.13
425.07	11875.88
425.26	11922.69
425.45	12081.85
425.64	11627.78
425.83	11602.04
426.01	12334.62
426.20	12732.51
426.39	12748.90
426.58	11735.45
426.77	10675.18
426.96	10324.10
427.15	10871.79
427.33	11730.76
427.52	12269.09
427.71	12339.30
427.90	11941.41
428.09	12098.23
428.28	11925.03
428.46	11442.88
428.65	11180.74
428.84	11538.84
429.03	11861.84
429.22	10934.98
429.40	10466.88
429.59	9589.17
429.78	8322.94
429.97	8568.70
430.16	8594.45
430.34	8500.83
430.53	8482.10
430.72	8727.86
430.91	9715.56
431.10	11477.99
431.28	13322.33
431.47	14389.61
431.66	14532.39
431.85	13404.25
432.03	12339.30
432.22	11571.61
432.41	12222.28
432.60	13420.63
432.79	14223.44
432.97	14204.71
433.16	14141.52
433.35	12896.35
433.54	11641.82
433.72	10773.49
433.91	11349.26
434.10	12383.77
434.28	13387.86
434.47	14291.31
434.66	13919.17
434.85	13378.50
435.03	13446.38
435.22	13991.72
435.41	14843.68
435.59	14857.72
435.78	15023.90
435.97	15250.93
436.16	15524.77
436.34	15262.63
436.53	14726.65
436.72	14944.32
436.90	14083.00
437.09	14160.24
437.28	13734.26
437.46	14560.47
437.65	14129.81
437.84	13425.31
438.02	12348.67
438.21	11793.96
438.40	12842.52
438.58	13767.03
438.77	14391.95
438.96	14408.34
439.14	14984.11
439.33	15297.74
439.52	15953.09
439.70	15461.58
439.89	14918.57
440.08	14394.29
440.26	14773.46
440.45	15044.96
440.63	15985.86
440.82	17022.72
441.01	16615.46
441.19	16362.69
441.38	16596.74
441.57	17020.38
441.75	17598.49
441.94	17703.81
442.12	17666.36
442.31	17853.61
442.50	17944.89
442.68	17436.99
442.87	17352.73
443.05	17121.02
443.24	17624.23
443.43	17645.30
443.61	18174.26
443.80	18324.05
443.98	17303.58
444.17	17233.36
444.35	18239.79
444.54	18546.40
444.73	18417.68
444.91	17696.79
445.10	16802.71
445.28	16393.11
445.47	15985.86
445.65	16011.60
445.84	16524.18
446.02	17322.30
446.21	17523.59
446.39	17547.00
446.58	17453.37
446.77	18080.64
446.95	18178.94
447.14	18820.25
447.32	19033.24
447.51	18438.74
447.69	17916.80
447.88	17584.44
448.06	17860.63
448.25	18082.98
448.43	18237.45
448.62	18122.77
448.80	17872.33
448.99	18066.60
449.17	18317.03
449.36	18356.82
449.54	18939.62
449.73	19066.00
449.91	19534.11
450.10	20276.06
450.28	20308.83
450.46	20077.12
450.65	20348.62
450.83	19749.44
451.02	19524.75
451.20	19363.25
451.39	19262.61
451.57	19325.80
451.76	19211.12
451.94	19358.57
452.13	18614.28
452.31	18155.54
452.49	17008.67
452.68	17434.65
452.86	17312.94
453.05	17830.20
453.23	18087.66
453.42	18328.74
453.60	19246.23
453.78	19587.94
453.97	19014.51
454.15	18946.64
454.34	18398.95
454.52	18862.38
454.70	18647.05
454.89	18604.92
455.07	18766.42
455.26	18911.53
455.44	19651.14
455.62	19805.61
455.81	20175.42
455.99	19866.47
456.17	19723.69
456.36	19632.41
456.54	20224.57
456.73	20280.74
456.91	20383.73
457.09	20697.36
457.28	21106.95
457.46	20194.14
457.64	20386.07
457.83	19627.73
458.01	19108.13
458.19	19726.04
458.38	19681.56
458.56	20467.98
458.74	20505.43
458.93	20123.93
459.11	19850.08
459.29	19601.99
459.48	19548.15
459.66	19695.61
459.84	19997.54
460.03	20259.68
460.21	20037.33
460.39	20945.45
460.57	20779.28
460.76	21296.53
460.94	20924.39
461.12	20975.88
461.31	21041.42
461.49	20650.55
461.67	20816.72
461.85	21614.85
462.04	21546.97
462.22	22057.21
462.40	21769.32
462.59	21546.97
462.77	21369.09
462.95	21331.64
463.13	21116.31
463.32	20882.26
463.50	20720.76
463.68	20919.71
463.86	20751.19
464.05	20498.41
464.23	20376.70
464.41	19992.86
464.59	19625.39
464.78	20685.65
464.96	20538.20
465.14	20402.45
465.32	20741.83
465.50	21532.93
465.69	21509.52
465.87	20875.24
466.05	20634.16
466.23	19934.34
466.41	19403.04
466.60	19641.78
466.78	19531.77
466.96	20336.91
467.14	20545.22
467.32	21095.25
467.51	21111.63
467.69	19990.52
467.87	20273.72
468.05	20442.24
468.23	21069.50
468.41	20570.97
468.60	20521.82
468.78	21240.36
468.96	20603.74
469.14	21214.62
469.32	21043.76
469.50	20119.24
469.69	20556.93
469.87	20058.39
470.05	20039.67
470.23	20053.71
470.41	20224.57
470.59	20196.48
470.77	20357.98
470.95	20767.57
471.14	21006.31
471.32	21018.01
471.50	22586.17
471.68	22625.96
471.86	22558.08
472.04	22522.98
472.22	22890.44
472.40	21745.92
472.58	21504.84
472.77	21102.27
472.95	21649.96
473.13	22005.72
473.31	21926.14
473.49	21762.30
473.67	22122.74
473.85	22530.00
474.03	23030.87
474.21	22899.80
474.39	23484.94
474.57	23428.76
474.75	23728.35
474.93	22988.74
475.12	22841.29
475.30	22742.99
475.48	22684.47
475.66	23569.19
475.84	22869.37
476.02	22970.02
476.20	22565.10
476.38	22850.65
476.56	23506.00
476.74	23833.68
476.92	23929.64
477.10	24250.29
477.28	24709.04
477.46	25305.87
477.64	25247.36
477.82	25221.61
478.00	25568.01
478.18	25078.84
478.36	24994.58
478.54	24847.13
478.72	25118.63
478.90	25738.87
479.08	26780.41
479.26	26991.06
479.44	26923.18
479.62	26590.83
479.80	26637.64
479.98	26654.02
480.16	27087.02
480.34	26883.39
480.52	27101.06
480.70	26789.77
480.88	27007.44
481.06	27971.74
481.24	28240.90
481.41	28451.55
481.59	28849.44
481.77	28395.38
481.95	28191.75
482.13	28463.25
482.31	28074.73
482.49	28762.84
482.67	28620.07
482.85	28563.90
483.03	29055.41
483.21	29418.19
483.39	29472.03
483.57	28996.90
483.74	28636.45
483.92	28428.15
484.10	28945.41
484.28	29722.46
484.46	30361.43
484.64	30478.46
484.82	29453.30
485.00	29483.73
485.18	29034.35
485.35	27756.41
485.53	26129.74
485.71	23562.17
485.89	23007.47
486.07	24592.01
486.25	26604.87
486.43	28299.42
486.61	28945.41
486.78	28725.39
486.96	28739.44
487.14	30000.99
487.32	30574.42
487.50	31321.05
487.68	32168.32
487.85	32615.37
488.03	32615.37
488.21	32081.72
488.39	31498.93
488.57	31295.30
488.75	30520.59
488.92	31936.61
489.10	33544.56
489.28	35498.91
489.46	35959.99
489.64	36266.60
489.81	36121.49
489.99	35267.19
490.17	35627.63
490.35	36114.47
490.53	35447.41
490.70	35304.64
490.88	35007.39
491.06	36273.62
491.24	36041.91
491.41	35218.04
491.59	32992.19
491.77	32299.39
491.95	33703.71
492.13	35021.44
492.30	36168.30
492.48	37240.26
492.66	38094.56
492.84	37832.42
493.01	37563.26
493.19	36570.87
493.37	36854.08
493.54	36378.95
493.72	36645.77
493.90	38263.08
494.08	39082.27
494.25	39805.49
494.43	39917.84
494.61	40818.94
494.79	40439.78
494.96	40025.50
495.14	39468.45
495.32	37809.01
495.49	37654.54
495.67	38560.33
495.85	40172.96
496.02	41244.92
496.20	40744.05
496.38	40163.59
496.55	40236.15
496.73	40528.72
496.91	40589.57
497.09	41649.83
497.26	42492.43
497.44	41172.36
497.62	40673.83
497.79	39536.33
497.97	37481.34
498.14	37907.32
498.32	38955.88
498.50	40776.81
498.67	41448.55
498.85	41530.47
499.03	41624.09
499.20	42181.13
499.38	42260.71
499.56	41724.73
499.73	41120.87
499.91	40552.12
500.08	39990.39
500.26	38946.51
500.44	39491.86
500.61	40479.57
500.79	40212.74
500.97	39267.17
501.14	39295.25
501.32	39335.04
501.49	39641.65
501.67	39529.31
501.84	40568.51
502.02	40636.38
502.20	41352.58
502.37	41455.57
502.55	41446.21
502.72	42476.04
502.90	42696.05
503.07	42305.18
503.25	41174.70
503.43	40877.46
503.60	40144.87
503.78	38979.28
503.95	39470.79
504.13	41778.56
504.30	42911.38
504.48	42651.58
504.65	42244.33
504.83	41970.49
505.01	42557.96
505.18	43299.91
505.36	44362.51
505.53	44547.42
505.71	44519.33
505.88	44641.04
506.06	43585.46
506.23	43220.33
506.41	43122.03
506.58	43264.80
506.76	42817.76
506.93	42806.06
507.11	42895.00
507.28	43126.71
507.46	42277.10
507.63	41345.56
507.81	40641.06
507.98	41553.87
508.16	42490.09
508.33	43445.02
508.50	43569.07
508.68	44252.51
508.85	44921.90
509.03	44914.88
509.20	44320.38
509.38	43777.38
509.55	42906.70
509.73	42682.01
509.90	43243.74
510.08	44271.23
510.25	43681.42
510.42	43613.54
510.60	43079.90
510.77	43875.68
510.95	44580.18
511.12	44751.04
511.30	45106.80
511.47	45907.27
511.64	45404.05
511.82	44610.61
511.99	43592.48
512.17	43105.65
512.34	42380.08
512.51	43199.27
512.69	43168.84
512.86	43154.80
513.04	43964.62
513.21	44355.49
513.38	43379.49
513.56	42747.54
513.73	41626.43
513.90	42000.91
514.08	42281.78
514.25	42707.76
514.43	42967.55
514.60	43239.06
514.77	43707.16
514.95	43533.96
515.12	43318.64
515.29	43945.90
515.47	44477.20
515.64	44854.03
515.81	44140.16
515.99	42930.11
516.16	40935.97
516.33	38197.54
516.51	36081.70
516.68	35323.36
516.85	34827.17
517.03	35534.01
517.20	38663.31
517.37	41907.29
517.54	43599.50
517.72	43131.39
517.89	39374.83
518.06	36598.96
518.24	36580.23
518.41	39873.37
518.58	41661.54
518.75	41886.23
518.93	41706.01
519.10	41991.55
519.27	42869.25
519.45	43365.45
519.62	44196.34
519.79	44006.75
519.96	43997.39
520.14	43395.87
520.31	42143.69
520.48	41928.36
520.65	42557.96
520.83	44116.76
521.00	44732.32
521.17	44151.87
521.34	43672.06
521.52	43812.49
521.69	44914.88
521.86	45462.57
522.03	45155.96
522.20	43421.62
522.38	41743.45
522.55	41467.27
522.72	42366.04
522.89	42773.29
523.07	43005.00
523.24	43601.84
523.41	44966.37
523.58	45240.21
523.75	45909.61
523.92	45780.88
524.10	45603.00
524.27	46078.13
524.44	45338.52
524.61	45074.04
524.78	45261.28
524.96	44823.60
525.13	44741.68
525.30	45289.37
525.47	46583.68
525.64	45792.58
525.81	44362.51
525.98	42417.53
526.16	40332.11
526.33	39782.09
526.50	39002.69
526.67	38415.21
526.84	39168.87
527.01	40669.15
527.18	42454.98
527.36	43283.53
527.53	44552.10
527.70	44629.34
527.87	44002.07
528.04	43215.65
528.21	44341.45
528.38	45427.46
528.55	46099.19
528.72	46476.02
528.89	46775.61
529.07	46499.42
529.24	45411.07
529.41	44566.14
529.58	43763.34
529.75	43468.43
529.92	44294.64
530.09	45055.31
530.26	45813.65
530.43	46480.70
530.60	46323.88
530.77	46424.53
530.94	46878.59
531.11	46052.38
531.28	45387.67
531.46	45146.59
531.63	45500.01
531.80	45167.66
531.97	44259.53
532.14	43377.15
532.31	41968.15
532.48	41373.65
532.65	41053.00
532.82	42124.96
532.99	44123.78
533.16	44416.35
533.33	45553.85
533.50	45006.16
533.67	44306.34
533.84	43681.42
534.01	43971.64
534.18	44067.61
534.35	44238.47
534.52	44046.54
534.69	44456.14
534.86	45223.83
535.03	45649.81
535.20	45944.72
535.37	46347.29
535.54	46611.77
535.71	46487.72
535.88	46089.83
536.05	44737.00
536.22	44186.97
536.38	43768.02
536.55	43213.31
536.72	42054.75
536.89	42307.52
537.06	43917.81
537.23	44704.23
537.40	44989.78
537.57	45069.36
537.74	45258.94
537.91	44465.50
538.08	44975.73
538.25	44921.90
538.42	45333.84
538.59	44402.30
538.75	43491.83
538.92	43243.74
539.09	42733.50
539.26	42880.95
539.43	42649.24
539.60	42712.44
539.77	43330.34
539.94	42934.79
540.11	42110.92
540.28	41017.89
540.44	41581.96
540.61	41366.63
540.78	42564.98
540.95	42754.57
541.12	43161.82
541.29	43519.92
541.46	44161.23
541.62	44177.61
541.79	43768.02
541.96	42834.14
542.13	42873.93
542.30	43498.86
542.47	43990.37
542.63	43100.97
542.80	42616.47
542.97	42930.11
543.14	42735.84
543.31	42890.32
543.48	43927.17
543.64	44844.66
543.81	45635.77
543.98	45038.93
544.15	43952.92
544.32	42955.85
544.48	43522.26
544.65	43456.73
544.82	44378.90
544.99	44121.44
545.16	43213.31
545.32	43044.79
545.49	44421.03
545.66	44985.10
545.83	44629.34
546.00	43737.59
546.16	43232.04
546.33	43306.93
546.50	43126.71
546.67	43924.83
546.83	43208.63
547.00	43044.79
547.17	42515.83
547.34	41750.48
547.50	41415.78
547.67	42047.72
547.84	42412.85
548.00	42831.80
548.17	43452.05
548.34	43475.45
548.51	43117.35
548.67	43093.94
548.84	43175.86
549.01	43578.43
549.18	43323.32
549.34	43283.53
549.51	43145.44
549.68	42918.40
549.84	42707.76
550.01	42567.32
550.18	42029.00
550.34	42852.87
550.51	42817.76
550.68	42803.72
550.84	41874.52
551.01	42380.08
551.18	41888.57
551.34	42244.33
551.51	42960.53
551.68	43192.25
551.84	42885.64
552.01	42726.48
552.18	42733.50
552.34	41799.63
552.51	41163.00
552.68	41097.47
552.84	41577.28
553.01	42167.09
553.18	41724.73
553.34	42033.68
553.51	42298.16
553.67	42419.87
553.84	43058.84
554.01	42726.48
554.17	42726.48
554.34	42277.10
554.51	42742.86
554.67	43330.34
554.84	42969.90
555.00	42347.31
555.17	42071.13
555.33	42197.52
555.50	42363.70
555.67	42040.70
555.83	41755.16
556.00	41170.02
556.16	41336.20
556.33	41020.23
556.50	40353.18
556.66	40313.39
556.83	40268.92
556.99	40669.15
557.16	40737.02
557.32	40985.12
557.49	40861.07
557.65	41200.45
557.82	41219.17
557.98	41116.19
558.15	40093.38
558.32	39431.01
558.48	38450.32
558.65	38738.21
558.81	38733.53
558.98	39068.22
559.14	39667.40
559.31	40243.17
559.47	40165.93
559.64	39435.69
559.80	39313.98
559.97	38969.92
560.13	39379.51
560.30	40835.33
560.46	42003.25
560.63	41766.86
560.79	41942.40
560.96	41507.06
561.12	39798.47
561.29	38555.64
561.45	38623.52
561.61	39498.88
561.78	39917.84
561.94	39515.26
562.11	39632.29
562.27	39555.05
562.44	39702.51
562.60	40428.07
562.77	40526.38
562.93	40367.22
563.10	40093.38
563.26	39643.99
563.42	39585.48
563.59	39306.96
563.75	39470.79
563.92	39667.40
564.08	39400.58
564.24	39690.80
564.41	40177.64
564.57	39648.68
564.74	39508.24
564.90	39358.45
565.07	39257.81
565.23	38902.04
565.39	37654.54
565.56	37603.05
565.72	37579.64
565.88	37799.65
566.05	38033.71
566.21	38693.74
566.38	38635.22
566.54	38843.53
566.70	39124.40
566.87	39229.72
567.03	39171.21
567.19	39707.19
567.36	38880.98
567.52	39201.63
567.68	38759.27
567.85	37827.74
568.01	37558.58
568.17	36779.18
568.34	36751.09
568.50	36708.96
568.66	37399.42
568.83	37628.79
568.99	37881.57
569.15	37801.99
569.32	38026.68
569.48	37584.32
569.64	37153.66
569.81	37289.42
569.97	36849.39
570.13	36961.74
570.30	35840.62
570.46	35805.52
570.62	35049.52
570.78	35180.59
570.95	35608.91
571.11	36439.80
571.27	36505.34
571.43	36755.77
571.60	37691.99
571.76	37111.53
571.92	37764.54
572.09	38038.39
572.25	37626.45
572.41	37923.70
572.57	37696.67
572.74	37453.25
572.90	36760.45
573.06	36935.99
573.22	37249.63
573.38	37188.77
573.55	37022.59
573.71	37371.33
573.87	37284.73
574.03	36788.54
574.20	36875.14
574.36	36634.06
574.52	36245.54
574.68	36254.90
574.84	35601.89
575.01	35461.46
575.17	35119.74
575.33	35215.70
575.49	36002.12
575.65	35576.14
575.82	35496.56
575.98	35522.31
576.14	35709.55
576.30	36107.44
576.46	36601.30
576.62	36219.79
576.79	36198.73
576.95	35498.91
577.11	35377.20
577.27	35674.45
577.43	35618.27
577.59	35304.64
577.75	34855.26
577.92	34073.52
578.08	34153.10
578.24	34164.80
578.40	33979.90
578.56	34724.19
578.72	35028.46
578.88	34918.45
579.04	35049.52
579.21	35218.04
579.37	35318.68
579.53	35571.46
579.69	35044.84
579.85	35615.93
580.01	35510.61
580.17	34815.47
580.33	34581.42
580.49	35185.27
580.65	35314.00
580.82	35363.15
580.98	35185.27
581.14	35157.19
581.30	35578.48
581.46	35309.32
581.62	35489.54
581.78	35353.79
581.94	35613.59
582.10	35814.88
582.26	35885.09
582.42	35480.18
582.58	35646.36
582.74	35732.96
582.90	35910.84
583.06	35587.85
583.22	35182.93
583.38	35381.88
583.54	35194.64
583.70	35159.53
583.86	35529.33
584.02	34803.77
584.18	35131.44
584.34	35108.04
584.50	34778.02
584.66	34644.61
584.82	34192.89
584.98	34644.61
585.14	33670.95
585.30	32767.50
585.46	33088.15
585.62	33057.73
585.78	33317.53
585.94	32982.83
