SpectraSuite Data File
++++++++++++++++++++++++++++++++++++
Date: Mon Oct 07 14:53:11 GMT-05:00 2013
User: price-jones
Dark Spectrum Present: No
Reference Spectrum Present: No
Number of Sampled Component Spectra: 1
Spectrometers: USB2+H05261
Integration Time (usec): 100000 (USB2+H05261)
Spectra Averaged: 1 (USB2+H05261)
Boxcar Smoothing: 0 (USB2+H05261)
Correct for Electrical Dark: No (USB2+H05261)
Strobe/Lamp Enabled: No (USB2+H05261)
Correct for Detector Non-linearity: No (USB2+H05261)
Correct for Stray Light: No (USB2+H05261)
Number of Pixels in Processed Spectrum: 2048
>>>>>Begin Processed Spectral Data<<<<<
365.73	0.00
365.92	0.00
366.12	0.00
366.32	0.00
366.52	0.00
366.72	0.00
366.91	0.00
367.11	0.00
367.31	0.00
367.51	0.00
367.70	0.00
367.90	0.00
368.10	0.00
368.30	0.00
368.49	0.00
368.69	0.00
368.89	0.00
369.09	0.00
369.28	0.00
369.48	0.00
369.68	0.00
369.87	0.00
370.07	0.00
370.27	0.00
370.47	1020.47
370.66	4828.53
370.86	5790.49
371.06	6260.93
371.25	6127.52
371.45	5596.22
371.65	4912.78
371.84	4746.61
372.04	5043.85
372.24	5626.65
372.44	5596.22
372.63	5404.30
372.83	5123.43
373.03	4709.16
373.22	4322.97
373.42	4542.98
373.62	5174.92
373.81	5600.90
374.01	5453.45
374.21	4983.00
374.40	4725.54
374.60	4915.12
374.79	5724.95
374.99	6494.99
375.19	6801.60
375.38	6766.49
375.58	6403.71
375.78	6310.08
375.97	6499.67
376.17	6857.77
376.37	6691.59
376.56	7028.63
376.76	7335.24
376.95	7714.41
377.15	8142.72
377.35	8533.59
377.54	8875.31
377.74	8947.87
377.93	9224.05
378.13	8905.74
378.33	8463.38
378.52	7651.21
378.72	7328.22
378.91	7398.43
379.11	7070.76
379.31	6956.07
379.50	7042.67
379.70	7461.63
379.89	8299.54
380.09	8615.51
380.28	8985.32
380.48	8905.74
380.68	8681.05
380.87	8470.40
381.07	7854.84
381.26	7375.03
381.46	6815.64
381.65	6619.04
381.85	6441.15
382.04	5942.62
382.24	5638.35
382.43	5460.47
382.63	5359.83
382.83	5425.36
383.02	5359.83
383.22	5366.85
383.41	5568.13
383.61	5816.23
383.80	6778.19
384.00	7569.29
384.19	8545.30
384.39	8887.01
384.58	8587.43
384.78	8596.79
384.97	8423.59
385.17	7997.61
385.36	7674.62
385.56	7302.47
385.75	7655.89
385.95	8290.18
386.14	8844.88
386.34	8716.16
386.53	8507.85
386.72	8002.29
386.92	8234.00
387.11	8664.66
387.31	8718.50
387.50	8786.37
387.70	8662.32
387.89	8229.32
388.09	8627.21
388.28	8631.90
388.48	8777.01
388.67	9191.28
388.86	10317.08
389.06	11035.63
389.25	11534.16
389.45	11590.33
389.64	11456.92
389.84	11117.54
390.03	11225.21
390.22	11194.78
390.42	11728.42
390.61	12428.24
390.81	13266.16
391.00	13308.29
391.19	13202.96
391.39	12926.78
391.58	11894.60
391.78	11262.66
391.97	10932.64
392.16	10129.84
392.36	9228.73
392.55	7351.62
392.75	5991.77
392.94	5001.72
393.13	5027.47
393.33	6015.18
393.52	7602.06
393.71	9062.55
393.91	10284.31
394.10	11005.20
394.29	12138.02
394.49	13104.66
394.68	14195.35
394.88	14001.08
395.07	14703.25
395.26	14567.49
395.46	13778.73
395.65	12879.97
395.84	11527.14
396.04	9518.96
396.23	7803.35
396.42	6396.68
396.62	6471.58
396.81	7667.60
397.00	9640.67
397.19	12074.82
397.39	14375.57
397.58	15988.20
397.77	17083.57
397.97	17570.40
398.16	17626.57
398.35	18572.15
398.55	19066.00
398.74	19454.53
398.93	20046.69
399.12	19782.21
399.32	19087.07
399.51	19419.42
399.70	20620.12
399.90	20259.68
400.09	20526.50
400.28	20278.40
400.47	20498.41
400.67	21591.44
400.86	22099.34
401.05	21895.71
401.24	22230.41
401.44	22309.99
401.63	22148.49
401.82	22843.63
402.01	22530.00
402.21	22897.46
402.40	23061.30
402.59	22300.62
402.78	21139.72
402.97	20533.52
403.17	21626.55
403.36	22740.64
403.55	23683.88
403.74	24034.96
403.93	22600.21
404.13	20924.39
404.32	20828.43
404.51	21998.70
404.70	23552.81
404.89	23290.67
405.09	22773.41
405.28	22300.62
405.47	22106.36
405.66	21986.99
405.85	21490.80
406.05	20982.90
406.24	21514.20
406.43	22827.24
406.62	22923.21
406.81	23480.25
407.00	22576.81
407.20	21888.69
407.39	22089.98
407.58	23161.94
407.77	23896.87
407.96	24662.22
408.15	24842.45
408.34	25022.67
408.54	26511.25
408.73	26647.00
408.92	26038.46
409.11	25214.59
409.30	23648.77
409.49	22363.82
409.68	20940.77
409.87	20697.36
410.07	21848.90
410.26	23651.11
410.45	25027.35
410.64	25406.52
410.83	25993.99
411.02	26977.01
411.21	27623.00
411.40	27447.46
411.59	27515.34
411.78	27271.92
411.98	27166.60
412.17	27791.52
412.36	26642.32
412.55	26838.92
412.74	26480.82
412.93	25731.85
413.12	26689.13
413.31	28959.45
413.50	29369.04
413.69	29628.84
413.88	28109.83
414.07	27665.13
414.26	28474.96
414.45	29039.03
414.64	29277.76
414.83	29032.00
415.02	28549.85
415.22	28519.43
415.41	29132.65
415.60	30314.62
415.79	30920.82
415.98	31875.76
416.17	31569.15
416.36	30998.06
416.55	30419.94
416.74	29542.24
416.93	28545.17
417.12	28687.95
417.31	29502.45
417.50	29879.28
417.69	30253.76
417.88	30829.54
418.07	30391.86
418.26	29685.01
418.45	29972.90
418.64	31391.26
418.83	31988.10
419.02	32027.89
419.21	31197.00
419.39	29909.71
419.58	28449.21
419.77	29151.37
419.96	30429.30
420.15	31454.46
420.34	32816.65
420.53	33792.65
420.72	34185.86
420.91	34078.20
421.10	33464.98
421.29	33677.97
421.48	31770.43
421.67	33776.27
421.86	32425.78
422.05	30520.59
422.24	27674.49
422.43	27133.83
422.61	30300.58
422.80	32299.39
422.99	32603.66
423.18	31255.51
423.37	31035.50
423.56	30700.81
423.75	32095.77
423.94	32294.71
424.13	30244.40
424.32	30625.91
424.50	30857.62
424.69	30569.74
424.88	30969.97
425.07	30256.11
425.26	30132.06
425.45	30331.00
425.64	29453.30
425.83	29773.95
426.01	31269.56
426.20	32283.01
426.39	31370.20
426.58	29116.26
426.77	27213.41
426.96	26284.22
427.15	27562.15
427.33	29472.03
427.52	30639.95
427.71	30572.08
427.90	30663.36
428.09	30202.27
428.28	29392.45
428.46	28411.76
428.65	27599.60
428.84	29160.73
429.03	29149.03
429.22	27744.71
429.40	26494.86
429.59	23812.61
429.78	21413.56
429.97	21301.22
430.16	21673.36
430.34	21715.49
430.53	21535.27
430.72	22445.74
430.91	25013.31
431.10	28966.47
431.28	33972.88
431.47	36191.70
431.66	36739.39
431.85	32776.86
432.03	30628.25
432.22	29656.93
432.41	31412.33
432.60	34113.31
432.79	35456.78
432.97	36067.66
433.16	35316.34
433.35	31868.73
433.54	29097.54
433.72	27250.86
433.91	28669.22
434.10	31728.30
434.28	34213.95
434.47	35302.30
434.66	34684.40
434.85	33806.70
435.03	33640.52
435.22	34717.17
435.41	36439.80
435.59	36694.92
435.78	36975.78
435.97	38026.68
436.16	38089.88
436.34	37422.83
436.53	37013.23
436.72	36524.06
436.90	34558.01
437.09	35002.71
437.28	34855.26
437.46	35864.03
437.65	35515.29
437.84	33184.12
438.02	30813.15
438.21	30967.63
438.40	32147.26
438.58	35063.57
438.77	35765.73
438.96	36238.51
439.14	38066.47
439.33	38260.74
439.52	38979.28
439.70	37689.65
439.89	37078.77
440.08	36222.13
440.26	36350.86
440.45	37659.22
440.63	39821.87
440.82	41375.99
441.01	41034.27
441.19	40694.89
441.38	41137.26
441.57	42841.17
441.75	42939.47
441.94	43655.67
442.12	43028.41
442.31	44149.53
442.50	43615.88
442.68	43107.99
442.87	42738.18
443.05	42501.79
443.24	43351.40
443.43	44069.95
443.61	44247.83
443.80	45078.72
443.98	42794.36
444.17	42906.70
444.35	44119.10
444.54	45308.09
444.73	44776.79
444.91	43150.12
445.10	41818.35
445.28	40446.80
445.47	39487.18
445.65	39739.96
445.84	40690.21
446.02	42454.98
446.21	42815.42
446.39	42810.74
446.58	43700.14
446.77	44215.06
446.95	44811.90
447.14	45500.01
447.32	46087.49
447.51	45237.87
447.69	43482.47
447.88	43892.07
448.06	43962.28
448.25	44662.10
448.43	45109.14
448.62	44687.85
448.80	44233.78
448.99	44332.09
449.17	44928.92
449.36	44786.15
449.54	46134.30
449.73	46630.49
449.91	47311.59
450.10	48193.97
450.28	48486.54
450.46	48257.17
450.65	48287.59
450.83	47765.65
451.02	47536.28
451.20	47098.60
451.39	47014.34
451.57	47114.98
451.76	46801.35
451.94	46681.98
452.13	45731.73
452.31	44041.86
452.49	41991.55
452.68	42621.16
452.86	43056.50
453.05	43332.68
453.23	45031.91
453.42	45319.79
453.60	46024.29
453.78	46958.17
453.97	46241.96
454.15	46480.70
454.34	45640.45
454.52	45715.34
454.70	44954.67
454.89	45317.45
455.07	45755.13
455.26	46234.94
455.44	47770.33
455.62	48278.23
455.81	48378.87
455.99	48065.24
456.17	47693.10
456.36	47594.79
456.54	49048.27
456.73	48884.43
456.91	49364.24
457.09	49448.50
457.28	50178.75
457.46	48626.97
457.64	48168.22
457.83	47079.88
458.01	46263.03
458.19	47636.92
458.38	47842.89
458.56	48921.88
458.74	48725.27
458.93	47971.62
459.11	47952.90
459.29	47782.04
459.48	47796.08
459.66	47543.30
459.84	47938.85
460.03	48437.39
460.21	48893.79
460.39	49605.31
460.57	49539.78
460.76	50000.86
460.94	50508.76
461.12	49542.12
461.31	49656.81
461.49	49954.05
461.67	50075.76
461.85	51051.76
462.04	50349.60
462.22	50794.31
462.40	50639.83
462.59	50337.90
462.77	50312.16
462.95	50630.47
463.13	49874.48
463.32	49918.95
463.50	49488.29
463.68	49436.80
463.86	49712.98
464.05	49027.20
464.23	48301.64
464.41	48051.20
464.59	47372.44
464.78	49336.15
464.96	48973.37
465.14	48765.06
465.32	49860.43
465.50	50604.72
465.69	50892.61
465.87	50089.80
466.05	49116.14
466.23	47395.85
466.41	46571.98
466.60	48048.86
466.78	48121.41
466.96	48928.90
467.14	49254.23
467.32	49694.25
467.51	49453.18
467.69	48105.03
467.87	48849.32
468.05	49219.13
468.23	49446.16
468.41	49366.58
468.60	49378.28
468.78	49741.06
468.96	49560.84
469.14	49705.96
469.32	50024.27
469.50	48552.07
469.69	48804.85
469.87	47845.23
470.05	48215.04
470.23	48280.57
470.41	48299.30
470.59	49469.56
470.77	49659.15
470.95	49516.37
471.14	50342.58
471.32	50501.74
471.50	51976.28
471.68	52273.52
471.86	52296.93
472.04	52458.43
472.22	52542.69
472.40	50780.26
472.58	50679.62
472.77	50305.13
472.95	51529.23
473.13	52207.99
473.31	51175.81
473.49	51114.96
473.67	51983.30
473.85	52135.43
474.03	52933.56
474.21	52863.34
474.39	53176.97
474.57	53551.46
474.75	53455.50
474.93	52725.25
475.12	52465.45
475.30	52224.37
475.48	52907.81
475.66	53001.43
475.84	52729.93
476.02	52116.71
476.20	51803.08
476.38	52743.97
476.56	53745.72
476.74	53986.80
476.92	53916.58
477.10	54255.96
477.28	55491.76
477.46	55449.63
477.64	55749.22
477.82	55777.31
478.00	55948.17
478.18	55281.11
478.36	55290.48
478.54	55351.33
478.72	55650.92
478.90	56343.72
479.08	56481.81
479.26	57275.25
479.44	57130.14
479.62	56811.82
479.80	57071.62
479.98	56992.04
480.16	57366.53
480.34	56640.96
480.52	56994.39
480.70	57073.96
480.88	57499.94
481.06	57932.94
481.24	57958.69
481.41	58560.20
481.59	58965.12
481.77	58981.50
481.95	58433.81
482.13	58347.21
482.31	58419.77
482.49	58862.13
482.67	58789.58
482.85	59143.00
483.03	59304.49
483.21	59594.72
483.39	59355.99
483.57	58960.44
483.74	58997.88
483.92	59128.95
484.10	59388.75
484.28	59744.51
484.46	59913.03
484.64	60434.97
484.82	59784.30
485.00	59400.46
485.18	58789.58
485.35	58155.29
485.53	55884.97
485.71	53130.16
485.89	53104.41
486.07	54705.34
486.25	57013.11
486.43	58358.92
486.61	58789.58
486.78	58913.62
486.96	58843.41
487.14	60030.06
487.32	60411.57
487.50	61378.21
487.68	61834.61
487.85	62066.33
488.03	62017.17
488.21	61715.25
488.39	61291.61
488.57	60872.65
488.75	60715.84
488.92	61364.17
489.10	63016.58
489.28	63959.82
489.46	64486.44
489.64	64214.94
489.81	64329.62
489.99	63891.94
490.17	64205.58
490.35	64507.50
490.53	64114.29
490.70	63779.60
490.88	63767.90
491.06	64367.07
491.24	64327.28
491.41	63634.48
491.59	62459.54
491.77	62181.01
491.95	62908.92
492.13	63601.72
492.30	64633.89
492.48	65141.79
492.66	65535.00
492.84	65462.44
493.01	65092.64
493.19	64935.82
493.37	64694.75
493.54	64540.27
493.72	65228.39
493.90	65535.00
494.08	65535.00
494.25	65535.00
494.43	65535.00
494.61	65535.00
494.79	65535.00
494.96	65535.00
495.14	65535.00
495.32	65535.00
495.49	65307.97
495.67	65535.00
495.85	65535.00
496.02	65535.00
496.20	65535.00
496.38	65535.00
496.55	65535.00
496.73	65535.00
496.91	65535.00
497.09	65535.00
497.26	65535.00
497.44	65535.00
497.62	65535.00
497.79	65535.00
497.97	65535.00
498.14	65535.00
498.32	65535.00
498.50	65535.00
498.67	65535.00
498.85	65535.00
499.03	65535.00
499.20	65535.00
499.38	65535.00
499.56	65535.00
499.73	65535.00
499.91	65535.00
500.08	65535.00
500.26	65535.00
500.44	65535.00
500.61	65535.00
500.79	65535.00
500.97	65535.00
501.14	65535.00
501.32	65535.00
501.49	65535.00
501.67	65535.00
501.84	65535.00
502.02	65535.00
502.20	65535.00
502.37	65535.00
502.55	65535.00
502.72	65535.00
502.90	65535.00
503.07	65535.00
503.25	65535.00
503.43	65535.00
503.60	65535.00
503.78	65535.00
503.95	65535.00
504.13	65535.00
504.30	65535.00
504.48	65535.00
504.65	65535.00
504.83	65535.00
505.01	65535.00
505.18	65535.00
505.36	65535.00
505.53	65535.00
505.71	65535.00
505.88	65535.00
506.06	65535.00
506.23	65535.00
506.41	65535.00
506.58	65535.00
506.76	65535.00
506.93	65535.00
507.11	65535.00
507.28	65535.00
507.46	65535.00
507.63	65535.00
507.81	65535.00
507.98	65535.00
508.16	65535.00
508.33	65535.00
508.50	65535.00
508.68	65535.00
508.85	65535.00
509.03	65535.00
509.20	65535.00
509.38	65535.00
509.55	65535.00
509.73	65535.00
509.90	65535.00
510.08	65535.00
510.25	65535.00
510.42	65535.00
510.60	65535.00
510.77	65535.00
510.95	65535.00
511.12	65535.00
511.30	65535.00
511.47	65535.00
511.64	65535.00
511.82	65535.00
511.99	65535.00
512.17	65535.00
512.34	65535.00
512.51	65535.00
512.69	65535.00
512.86	65535.00
513.04	65535.00
513.21	65535.00
513.38	65535.00
513.56	65535.00
513.73	65535.00
513.90	65535.00
514.08	65535.00
514.25	65535.00
514.43	65535.00
514.60	65535.00
514.77	65535.00
514.95	65535.00
515.12	65535.00
515.29	65535.00
515.47	65535.00
515.64	65535.00
515.81	65535.00
515.99	65535.00
516.16	65535.00
516.33	65535.00
516.51	65535.00
516.68	63994.93
516.85	63503.42
517.03	64121.32
517.20	65535.00
517.37	65535.00
517.54	65535.00
517.72	65535.00
517.89	65535.00
518.06	65535.00
518.24	65251.80
518.41	65535.00
518.58	65535.00
518.75	65535.00
518.93	65535.00
519.10	65535.00
519.27	65535.00
519.45	65535.00
519.62	65535.00
519.79	65535.00
519.96	65535.00
520.14	65535.00
520.31	65535.00
520.48	65535.00
520.65	65535.00
520.83	65535.00
521.00	65535.00
521.17	65535.00
521.34	65535.00
521.52	65535.00
521.69	65535.00
521.86	65535.00
522.03	65535.00
522.20	65535.00
522.38	65535.00
522.55	65535.00
522.72	65535.00
522.89	65535.00
523.07	65535.00
523.24	65535.00
523.41	65535.00
523.58	65535.00
523.75	65535.00
523.92	65535.00
524.10	65535.00
524.27	65535.00
524.44	65535.00
524.61	65535.00
524.78	65535.00
524.96	65535.00
525.13	65535.00
525.30	65535.00
525.47	65535.00
525.64	65535.00
525.81	65535.00
525.98	65535.00
526.16	65535.00
526.33	65535.00
526.50	65535.00
526.67	65535.00
526.84	65535.00
527.01	65535.00
527.18	65535.00
527.36	65535.00
527.53	65535.00
527.70	65535.00
527.87	65535.00
528.04	65535.00
528.21	65535.00
528.38	65535.00
528.55	65535.00
528.72	65535.00
528.89	65535.00
529.07	65535.00
529.24	65535.00
529.41	65535.00
529.58	65535.00
529.75	65535.00
529.92	65535.00
530.09	65535.00
530.26	65535.00
530.43	65535.00
530.60	65535.00
530.77	65535.00
530.94	65535.00
531.11	65535.00
531.28	65535.00
531.46	65535.00
531.63	65535.00
531.80	65535.00
531.97	65535.00
532.14	65535.00
532.31	65535.00
532.48	65535.00
532.65	65535.00
532.82	65535.00
532.99	65535.00
533.16	65535.00
533.33	65535.00
533.50	65535.00
533.67	65535.00
533.84	65535.00
534.01	65535.00
534.18	65535.00
534.35	65535.00
534.52	65535.00
534.69	65535.00
534.86	65535.00
535.03	65535.00
535.20	65535.00
535.37	65535.00
535.54	65535.00
535.71	65535.00
535.88	65535.00
536.05	65535.00
536.22	65535.00
536.38	65535.00
536.55	65535.00
536.72	65535.00
536.89	65535.00
537.06	65535.00
537.23	65535.00
537.40	65535.00
537.57	65535.00
537.74	65535.00
537.91	65535.00
538.08	65535.00
538.25	65535.00
538.42	65535.00
538.59	65535.00
538.75	65535.00
538.92	65535.00
539.09	65535.00
539.26	65535.00
539.43	65535.00
539.60	65535.00
539.77	65535.00
539.94	65535.00
540.11	65535.00
540.28	65535.00
540.44	65535.00
540.61	65535.00
540.78	65535.00
540.95	65535.00
541.12	65535.00
541.29	65535.00
541.46	65535.00
541.62	65535.00
541.79	65535.00
541.96	65535.00
542.13	65535.00
542.30	65535.00
542.47	65535.00
542.63	65535.00
542.80	65535.00
542.97	65535.00
543.14	65535.00
543.31	65535.00
543.48	65535.00
543.64	65535.00
543.81	65535.00
543.98	65535.00
544.15	65535.00
544.32	65535.00
544.48	65535.00
544.65	65535.00
544.82	65535.00
544.99	65535.00
545.16	65535.00
545.32	65535.00
545.49	65535.00
545.66	65535.00
545.83	65535.00
546.00	65535.00
546.16	65535.00
546.33	65535.00
546.50	65535.00
546.67	65535.00
546.83	65535.00
547.00	65535.00
547.17	65535.00
547.34	65535.00
547.50	65535.00
547.67	65535.00
547.84	65535.00
548.00	65535.00
548.17	65535.00
548.34	65535.00
548.51	65535.00
548.67	65535.00
548.84	65535.00
549.01	65535.00
549.18	65535.00
549.34	65535.00
549.51	65535.00
549.68	65535.00
549.84	65535.00
550.01	65535.00
550.18	65535.00
550.34	65535.00
550.51	65535.00
550.68	65535.00
550.84	65535.00
551.01	65535.00
551.18	65535.00
551.34	65535.00
551.51	65535.00
551.68	65535.00
551.84	65535.00
552.01	65535.00
552.18	65535.00
552.34	65535.00
552.51	65535.00
552.68	65535.00
552.84	65535.00
553.01	65535.00
553.18	65535.00
553.34	65535.00
553.51	65535.00
553.67	65535.00
553.84	65535.00
554.01	65535.00
554.17	65535.00
554.34	65535.00
554.51	65535.00
554.67	65535.00
554.84	65535.00
555.00	65535.00
555.17	65535.00
555.33	65535.00
555.50	65535.00
555.67	65535.00
555.83	65535.00
556.00	65535.00
556.16	65535.00
556.33	65535.00
556.50	65535.00
556.66	65535.00
556.83	65535.00
556.99	65535.00
557.16	65535.00
557.32	65535.00
557.49	65535.00
557.65	65535.00
557.82	65535.00
557.98	65535.00
558.15	65535.00
558.32	65535.00
558.48	65535.00
558.65	65535.00
558.81	65535.00
558.98	65535.00
559.14	65535.00
559.31	65535.00
559.47	65535.00
559.64	65535.00
559.80	65535.00
559.97	65535.00
560.13	65535.00
560.30	65535.00
560.46	65535.00
560.63	65535.00
560.79	65535.00
560.96	65535.00
561.12	65535.00
561.29	65535.00
561.45	65535.00
561.61	65535.00
561.78	65535.00
561.94	65535.00
562.11	65535.00
562.27	65535.00
562.44	65535.00
562.60	65535.00
562.77	65535.00
562.93	65535.00
563.10	65535.00
563.26	65535.00
563.42	65535.00
563.59	65535.00
563.75	65535.00
563.92	65535.00
564.08	65535.00
564.24	65535.00
564.41	65535.00
564.57	65535.00
564.74	65535.00
564.90	65535.00
565.07	65535.00
565.23	65535.00
565.39	65535.00
565.56	65467.12
565.72	65314.99
565.88	65535.00
566.05	65492.87
566.21	65535.00
566.38	65535.00
566.54	65535.00
566.70	65535.00
566.87	65535.00
567.03	65535.00
567.19	65535.00
567.36	65535.00
567.52	65535.00
567.68	65535.00
567.85	65535.00
568.01	65417.97
568.17	65240.09
568.34	65195.62
568.50	65179.24
568.66	65270.52
568.83	65535.00
568.99	65535.00
569.15	65535.00
569.32	65535.00
569.48	65535.00
569.64	65401.59
569.81	65247.11
569.97	65034.13
570.13	65116.04
570.30	64624.53
570.46	64338.99
570.62	63990.25
570.78	63980.88
570.95	64100.25
571.11	64523.89
571.27	64793.05
571.43	65034.13
571.60	65263.50
571.76	65520.96
571.92	65520.96
572.09	65535.00
572.25	65535.00
572.41	65495.21
572.57	65298.61
572.74	65378.18
572.90	65125.41
573.06	65242.43
573.22	65127.75
573.38	65326.69
573.55	65123.07
573.71	65223.71
573.87	65029.44
574.03	64996.68
574.20	65024.76
574.36	64905.40
574.52	64743.90
574.68	64699.43
574.84	64289.84
575.01	63786.62
575.17	63819.39
575.33	64313.24
575.49	64598.79
575.65	64615.17
575.82	64395.16
575.98	64011.31
576.14	64296.86
576.30	64371.75
576.46	64678.36
576.62	64416.22
576.79	64533.25
576.95	64308.56
577.11	64259.41
577.27	64149.40
577.43	64161.11
577.59	63987.91
577.75	63414.47
577.92	63234.25
578.08	62934.66
578.24	63091.48
578.40	63536.18
578.56	63484.69
578.72	63519.80
578.88	63693.00
579.04	63810.03
579.21	63915.35
579.37	63650.87
579.53	63969.18
579.69	63828.75
579.85	63999.61
580.01	63812.37
580.17	63393.41
580.33	63365.32
580.49	63650.87
580.65	63861.52
580.82	64065.14
580.98	63875.56
581.14	63737.47
581.30	63847.47
581.46	63739.81
581.62	64025.35
581.78	63978.54
581.94	64004.29
582.10	64102.59
582.26	64212.60
582.42	64247.71
582.58	64324.94
582.74	64032.38
582.90	64289.84
583.06	63884.92
583.22	63812.37
583.38	63875.56
583.54	64037.06
583.70	63824.07
583.86	63833.43
584.02	63730.45
584.18	63845.13
584.34	63739.81
584.50	63529.16
584.66	63737.47
584.82	63285.75
584.98	63330.22
