SpectraSuite Data File
++++++++++++++++++++++++++++++++++++
Date: Mon Oct 07 14:53:44 GMT-05:00 2013
User: price-jones
Dark Spectrum Present: No
Reference Spectrum Present: No
Number of Sampled Component Spectra: 1
Spectrometers: USB2+H05261
Integration Time (usec): 100000 (USB2+H05261)
Spectra Averaged: 1 (USB2+H05261)
Boxcar Smoothing: 0 (USB2+H05261)
Correct for Electrical Dark: No (USB2+H05261)
Strobe/Lamp Enabled: No (USB2+H05261)
Correct for Detector Non-linearity: No (USB2+H05261)
Correct for Stray Light: No (USB2+H05261)
Number of Pixels in Processed Spectrum: 2048
>>>>>Begin Processed Spectral Data<<<<<
365.73	0.00
365.92	0.00
366.12	0.00
366.32	0.00
366.52	0.00
366.72	0.00
366.91	0.00
367.11	0.00
367.31	0.00
367.51	0.00
367.70	0.00
367.90	0.00
368.10	0.00
368.30	0.00
368.49	0.00
368.69	0.00
368.89	0.00
369.09	0.00
369.28	0.00
369.48	0.00
369.68	0.00
369.87	0.00
370.07	0.00
370.27	0.00
370.47	650.67
370.66	3487.40
370.86	4100.62
371.06	4353.40
371.25	4470.42
371.45	3829.12
371.65	3510.80
371.84	3269.73
372.04	3583.36
372.24	3915.72
372.44	4084.23
372.63	4102.96
372.83	3803.37
373.03	3262.71
373.22	3094.19
373.42	3232.28
373.62	3550.59
373.81	3920.40
374.01	4046.79
374.21	3562.30
374.40	3304.84
374.60	3503.78
374.79	3913.38
374.99	4697.46
375.19	5053.22
375.38	5027.47
375.58	4575.75
375.78	4601.49
375.97	4706.82
376.17	4903.42
376.37	4842.57
376.56	5034.49
376.76	5277.91
376.95	5465.15
377.15	5919.21
377.35	6221.14
377.54	6361.58
377.74	6480.94
377.93	6654.14
378.13	6340.51
378.33	6221.14
378.52	5717.93
378.72	5533.03
378.91	5369.19
379.11	5329.40
379.31	5020.45
379.50	5041.51
379.70	5401.96
379.89	6026.88
380.09	6251.57
380.28	6410.73
380.48	6424.77
380.68	6354.55
380.87	6352.21
381.07	5748.36
381.26	5324.72
381.46	5071.94
381.65	4816.82
381.85	4798.10
382.04	4648.30
382.24	4140.41
382.43	4058.49
382.63	3957.85
382.83	3932.10
383.02	4072.53
383.22	3978.91
383.41	3950.82
383.61	4177.86
383.80	4723.20
384.00	5455.79
384.19	6106.46
384.39	6434.13
384.58	6654.14
384.78	6448.18
384.97	6354.55
385.17	5961.34
385.36	5687.50
385.56	5430.04
385.75	5533.03
385.95	6153.27
386.14	6675.21
386.34	6724.36
386.53	6424.77
386.72	5970.71
386.92	6083.05
387.11	6305.40
387.31	6572.22
387.50	6738.40
387.70	6356.90
387.89	6120.50
388.09	6338.17
388.28	6253.91
388.48	6434.13
388.67	6801.60
388.86	7637.17
389.06	7957.82
389.25	8376.78
389.45	8554.66
389.64	8683.39
389.84	8449.33
390.03	8430.61
390.22	8257.41
390.42	8671.68
390.61	9268.52
390.81	9989.41
391.00	10132.18
391.19	9865.36
391.39	9635.99
391.58	9153.84
391.78	8592.11
391.97	8388.48
392.16	7634.83
392.36	7129.27
392.55	5636.01
392.75	4620.22
392.94	3845.50
393.13	3660.60
393.33	4283.18
393.52	5488.56
393.71	6738.40
393.91	7562.27
394.10	8021.02
394.29	9090.64
394.49	9666.41
394.68	10607.31
394.88	10499.64
395.07	10832.00
395.26	10729.02
395.46	10700.93
395.65	10052.60
395.84	8758.28
396.04	7360.98
396.23	5898.15
396.42	4943.21
396.62	4641.28
396.81	5631.33
397.00	7218.21
397.19	9025.11
397.39	10815.62
397.58	11878.22
397.77	12690.38
397.97	13289.56
398.16	13191.26
398.35	13668.73
398.55	14195.35
398.74	14984.11
398.93	15014.54
399.12	14604.94
399.32	14111.09
399.51	14656.43
399.70	15829.04
399.90	15625.42
400.09	15374.98
400.28	15412.43
400.47	15503.71
400.67	16039.69
400.86	16903.35
401.05	16627.17
401.24	16812.07
401.44	16788.66
401.63	17109.32
401.82	17429.97
402.01	17434.65
402.21	17425.29
402.40	17202.94
402.59	16931.44
402.78	15880.53
402.97	15672.23
403.17	16329.92
403.36	17329.33
403.55	17654.66
403.74	18087.66
403.93	17202.94
404.13	15800.96
404.32	15623.08
404.51	16435.24
404.70	17420.61
404.89	17727.22
405.09	17504.87
405.28	16774.62
405.47	17043.78
405.66	16748.87
405.85	16226.93
406.05	15901.60
406.24	15917.98
406.43	16739.51
406.62	17483.80
406.81	17516.57
407.00	16964.20
407.20	16458.65
407.39	16610.78
407.58	17219.32
407.77	18141.49
407.96	18850.67
408.15	18808.54
408.34	19056.64
408.54	19875.83
408.73	20170.74
408.92	19761.14
409.11	18867.06
409.30	18235.11
409.49	17289.54
409.68	15906.28
409.87	15449.88
410.07	16657.59
410.26	17855.95
410.45	18944.30
410.64	19803.27
410.83	19999.88
411.02	20332.23
411.21	21561.02
411.40	20648.21
411.59	21284.83
411.78	20959.50
411.98	20634.16
412.17	21261.43
412.36	20486.71
412.55	20711.40
412.74	20332.23
412.93	20070.09
413.12	19903.92
413.31	21930.82
413.50	22012.74
413.69	22600.21
413.88	21802.09
414.07	21146.74
414.26	21404.20
414.45	21902.73
414.64	22078.27
414.83	22052.53
415.02	21858.26
415.22	21958.91
415.41	22384.88
415.60	23063.64
415.79	24032.62
415.98	24271.36
416.17	24711.38
416.36	23573.88
416.55	23576.22
416.74	22815.54
416.93	21743.58
417.12	21968.27
417.31	22263.18
417.50	22759.37
417.69	23391.31
417.88	23379.61
418.07	22998.10
418.26	22747.67
418.45	22930.23
418.64	23756.44
418.83	24606.05
419.02	24261.99
419.21	24041.98
419.39	23012.15
419.58	22199.98
419.77	22019.76
419.96	22689.15
420.15	24233.91
420.34	24725.42
420.53	25935.48
420.72	26263.15
420.91	26382.52
421.10	25832.49
421.29	25319.92
421.48	24416.47
421.67	25900.37
421.86	25270.76
422.05	23651.11
422.24	21015.67
422.43	20460.96
422.61	22979.38
422.80	24992.24
422.99	25104.59
423.18	24114.54
423.37	23543.45
423.56	23693.24
423.75	23990.49
423.94	24257.31
424.13	23005.13
424.32	23442.81
424.50	23524.72
424.69	22750.01
424.88	23201.73
425.07	23248.54
425.26	23136.20
425.45	23133.86
425.64	22349.78
425.83	22656.39
426.01	23819.63
426.20	24671.59
426.39	24088.79
426.58	22651.70
426.77	20961.84
426.96	20130.95
427.15	20477.35
427.33	22963.00
427.52	23257.90
427.71	23388.97
427.90	23293.01
428.09	23452.17
428.28	22682.13
428.46	21923.80
428.65	21441.65
428.84	22139.13
429.03	22244.45
429.22	21252.06
429.40	20559.27
429.59	18696.20
429.78	16086.50
429.97	16360.34
430.16	16592.06
430.34	16613.12
430.53	16453.97
430.72	16711.42
430.91	18719.60
431.10	21685.06
431.28	25804.41
431.47	27920.25
431.66	28196.43
431.85	25909.73
432.03	23761.12
432.22	22419.99
432.41	23597.28
432.60	25682.70
432.79	27154.90
432.97	27910.89
433.16	27164.26
433.35	24821.38
433.54	22647.02
433.72	20650.55
433.91	21263.77
434.10	23999.85
434.28	25710.78
434.47	27049.57
434.66	26972.33
434.85	26237.41
435.03	26005.69
435.22	26611.89
435.41	28379.00
435.59	28109.83
435.78	28774.55
435.97	29518.84
436.16	29741.19
436.34	28940.72
436.53	28613.05
436.72	28491.34
436.90	26916.16
437.09	26888.07
437.28	26281.88
437.46	27676.83
437.65	27388.95
437.84	25563.33
438.02	23103.43
438.21	23063.64
438.40	24517.11
438.58	26672.74
438.77	27421.72
438.96	27363.20
439.14	28891.57
439.33	29759.91
439.52	29867.58
439.70	29074.13
439.89	28311.12
440.08	27747.05
440.26	27765.78
440.45	28481.98
440.63	30658.68
440.82	32175.34
441.01	32072.36
441.19	31538.72
441.38	31971.72
441.57	32767.50
441.75	33687.33
441.94	33816.06
442.12	33804.36
442.31	33621.80
442.50	33818.40
442.68	33649.88
442.87	32891.55
443.05	32828.35
443.24	33024.96
443.43	34015.01
443.61	34574.39
443.80	34902.07
443.98	32751.12
444.17	33163.05
444.35	34979.31
444.54	35445.07
444.73	35028.46
444.91	34141.39
445.10	32428.12
445.28	30986.35
445.47	30108.65
445.65	30773.36
445.84	31491.91
446.02	32503.02
446.21	33390.08
446.39	33322.21
446.58	33230.93
446.77	33799.68
446.95	34581.42
447.14	35541.03
447.32	35849.99
447.51	35150.17
447.69	33825.42
447.88	33392.42
448.06	33837.12
448.25	34675.04
448.43	34930.16
448.62	34038.41
448.80	34178.84
448.99	34176.50
449.17	34541.63
449.36	34213.95
449.54	35857.01
449.73	35974.03
449.91	36849.39
450.10	37998.60
450.28	38513.52
450.46	38047.75
450.65	37717.73
450.83	37773.91
451.02	37137.28
451.20	36362.56
451.39	36730.03
451.57	36521.72
451.76	37120.90
451.94	36491.29
452.13	35833.60
452.31	34127.35
452.49	32634.09
452.68	33039.00
452.86	33233.27
453.05	33420.51
453.23	34459.71
453.42	35253.15
453.60	35938.93
453.78	36318.09
453.97	36060.63
454.15	36156.60
454.34	35295.28
454.52	35538.69
454.70	34822.49
454.89	35152.51
455.07	35377.20
455.26	35772.75
455.44	37130.26
455.62	37982.21
455.81	37865.19
455.99	37813.70
456.17	37191.11
456.36	37511.77
456.54	38698.42
456.73	38567.35
456.91	38700.76
457.09	39187.59
457.28	39545.69
457.46	38408.19
457.64	37914.34
457.83	36711.30
458.01	36123.83
458.19	36992.17
458.38	37769.22
458.56	38618.84
458.74	38464.36
458.93	37982.21
459.11	37724.75
459.29	36790.88
459.48	37486.02
459.66	37277.71
459.84	37930.72
460.03	38792.04
460.21	38026.68
460.39	39304.62
460.57	38859.91
460.76	39672.08
460.94	39601.86
461.12	39070.56
461.31	39707.19
461.49	39405.26
461.67	38969.92
461.85	40727.66
462.04	40018.48
462.22	40587.23
462.40	40088.70
462.59	39615.91
462.77	40304.02
462.95	40161.25
463.13	39454.41
463.32	39431.01
463.50	39000.35
463.68	38927.79
463.86	39337.38
464.05	38403.51
464.23	38036.05
464.41	38005.62
464.59	36903.23
464.78	38644.59
464.96	38462.02
465.14	38209.25
465.32	39379.51
465.50	40378.92
465.69	40727.66
465.87	39791.45
466.05	38916.09
466.23	37036.64
466.41	36280.64
466.60	37338.57
466.78	37104.51
466.96	38185.84
467.14	39051.84
467.32	39218.02
467.51	39185.25
467.69	37263.67
467.87	38405.85
468.05	38810.76
468.23	39103.33
468.41	38806.08
468.60	38836.51
468.78	39433.35
468.96	38930.13
469.14	39838.26
469.32	40032.52
469.50	38174.14
469.69	38389.47
469.87	38054.77
470.05	37734.12
470.23	37928.38
470.41	37612.41
470.59	38497.13
470.77	38906.73
470.95	39253.12
471.14	39735.27
471.32	39751.66
471.50	42398.80
471.68	42396.46
471.86	42766.27
472.04	42967.55
472.22	43098.62
472.40	40657.45
472.58	40194.02
472.77	39768.04
472.95	40364.88
473.13	41649.83
473.31	40840.01
473.49	40648.08
473.67	41432.16
473.85	42029.00
474.03	42880.95
474.21	42686.69
474.39	43262.46
474.57	43828.87
474.75	43391.19
474.93	43578.43
475.12	42260.71
475.30	42036.02
475.48	42532.22
475.66	43119.69
475.84	42845.85
476.02	42419.87
476.20	41827.71
476.38	42586.05
476.56	43489.49
476.74	44032.50
476.92	44402.30
477.10	45207.45
477.28	45998.55
477.46	46340.27
477.64	46614.11
477.82	46717.09
478.00	47000.30
478.18	46579.00
478.36	46422.19
478.54	45867.48
478.72	46529.85
478.90	47157.11
479.08	48273.55
479.26	48781.45
479.44	48465.47
479.62	48444.41
479.80	48633.99
479.98	48456.11
480.16	48949.96
480.34	48229.08
480.52	49090.40
480.70	48921.88
480.88	49153.59
481.06	49602.97
481.24	50354.29
481.41	51065.81
481.59	51475.40
481.77	51079.85
481.95	50602.38
482.13	50454.93
482.31	50562.59
482.49	51316.25
482.67	50944.10
482.85	51229.65
483.03	51849.89
483.21	52247.78
483.39	52046.49
483.57	51435.61
483.74	51444.98
483.92	51147.73
484.10	51489.45
484.28	52509.92
484.46	52971.00
484.64	53118.46
484.82	52207.99
485.00	51859.25
485.18	51473.06
485.35	50089.80
485.53	47178.18
485.71	43540.99
485.89	42784.99
486.07	44781.47
486.25	48275.89
486.43	50567.27
486.61	51173.47
486.78	51019.00
486.96	51124.32
487.14	52397.57
487.32	53413.37
487.50	54042.97
487.68	54747.47
487.85	55136.00
488.03	55103.23
488.21	54721.72
488.39	54267.66
488.57	53689.55
488.75	53408.68
488.92	54049.99
489.10	56041.79
489.28	57258.87
489.46	57825.28
489.64	57591.22
489.81	57867.40
489.99	57467.17
490.17	57322.06
490.35	57923.58
490.53	57544.41
490.70	56987.36
490.88	56893.74
491.06	57949.32
491.24	57813.57
491.41	57233.12
491.59	55697.73
491.77	54899.61
491.95	55714.11
492.13	56940.55
492.30	57907.19
492.48	58831.71
492.66	59110.23
492.84	58876.18
493.01	59068.10
493.19	58382.32
493.37	58138.91
493.54	58122.52
493.72	58632.76
493.90	59292.79
494.08	60037.08
494.25	60294.54
494.43	60441.99
494.61	60612.85
494.79	60580.09
494.96	60540.30
495.14	59973.89
495.32	59337.26
495.49	58824.68
495.67	59629.83
495.85	60678.39
496.02	61197.99
496.20	61001.38
496.38	60605.83
496.55	60353.05
496.73	61116.07
496.91	61085.64
497.09	61619.28
497.26	61764.40
497.44	61158.20
497.62	60741.58
497.79	60055.81
497.97	58960.44
498.14	59150.02
498.32	60030.06
498.50	60931.17
498.67	61602.90
498.85	61284.59
499.03	61483.53
499.20	61675.46
499.38	61715.25
499.56	61488.21
499.73	61024.79
499.91	60828.18
500.08	60498.17
500.26	59597.06
500.44	60020.70
500.61	60697.11
500.79	60493.49
500.97	60259.43
501.14	60107.30
501.32	59959.84
501.49	59852.18
501.67	60179.85
501.84	60566.04
502.02	60856.27
502.20	61160.54
502.37	61263.52
502.55	61247.14
502.72	61968.02
502.90	62192.72
503.07	61858.02
503.25	61783.12
503.43	60959.25
503.60	60367.10
503.78	60009.00
503.95	59959.84
504.13	61336.08
504.30	62185.69
504.48	61836.95
504.65	61616.94
504.83	61607.58
505.01	62096.75
505.18	62284.00
505.36	62979.14
505.53	62878.49
505.71	63276.38
505.88	63395.75
506.06	62709.97
506.23	62592.95
506.41	61876.74
506.58	62312.08
506.76	62230.16
506.93	62471.24
507.11	62134.20
507.28	62227.82
507.46	61808.87
507.63	61132.45
507.81	60996.70
507.98	61462.47
508.16	62145.90
508.33	62417.41
508.50	62740.40
508.68	62892.54
508.85	63224.89
509.03	63288.09
509.20	63245.96
509.38	62560.18
509.55	61881.42
509.73	62014.83
509.90	62464.22
510.08	62712.31
510.25	62667.84
510.42	62447.83
510.60	62377.62
510.77	62588.27
510.95	63075.10
511.12	63164.04
511.30	63353.62
511.47	63646.19
511.64	63880.24
511.82	63393.41
511.99	62761.47
512.17	62394.00
512.34	62026.54
512.51	62150.59
512.69	62363.57
512.86	62260.59
513.04	62724.02
513.21	62798.91
513.38	62581.24
513.56	62113.14
513.73	61425.02
513.90	61614.60
514.08	61645.03
514.25	61942.28
514.43	62272.29
514.60	62218.46
514.77	62457.20
514.95	62536.77
515.12	62489.96
515.29	62583.58
515.47	62997.86
515.64	63182.76
515.81	62880.83
515.99	62473.58
516.16	61176.92
516.33	58848.09
516.51	57806.55
516.68	57216.74
516.85	56933.53
517.03	56914.81
517.20	59388.75
517.37	61525.66
517.54	62527.41
517.72	62115.48
517.89	59938.78
518.06	57921.24
518.24	57986.77
518.41	60039.42
518.58	61158.20
518.75	61504.60
518.93	61455.45
519.10	61572.47
519.27	61778.44
519.45	61923.55
519.62	62515.71
519.79	62958.07
519.96	62745.08
520.14	62539.11
520.31	61614.60
520.48	61867.38
520.65	61923.55
520.83	62878.49
521.00	63267.02
521.17	63011.90
521.34	62609.33
521.52	62724.02
521.69	63213.19
521.86	63810.03
522.03	63309.15
522.20	62288.68
522.38	61265.86
522.55	61338.42
522.72	61937.60
522.89	61998.45
523.07	62223.14
523.24	62316.76
523.41	63201.49
523.58	63554.91
523.75	64189.19
523.92	63735.13
524.10	63847.47
524.27	63746.83
524.44	63700.02
524.61	63508.10
524.78	63278.72
524.96	63236.59
525.13	63063.39
525.30	63405.11
525.47	63838.11
525.64	63744.49
525.81	63152.33
525.98	61780.78
526.16	60605.83
526.33	59978.57
526.50	59840.48
526.67	59302.15
526.84	60037.08
527.01	60830.52
527.18	61436.72
527.36	62365.91
527.53	62967.43
527.70	63456.60
527.87	62892.54
528.04	62391.66
528.21	62967.43
528.38	63522.14
528.55	64137.70
528.72	64100.25
528.89	64322.60
529.07	64133.02
529.24	63608.74
529.41	62944.03
529.58	62321.44
529.75	62621.03
529.92	62929.98
530.09	63297.45
530.26	63723.43
530.43	63924.71
530.60	63973.86
530.77	64303.88
530.94	64343.67
531.11	63908.33
531.28	63622.78
531.46	63470.65
531.63	63522.14
531.80	63381.71
531.97	62852.75
532.14	62358.89
532.31	61544.39
532.48	60942.87
532.65	60666.69
532.82	61623.96
532.99	62719.34
533.16	63014.24
533.33	63688.32
533.50	63288.09
533.67	62794.23
533.84	62265.27
534.01	62569.54
534.18	62695.93
534.35	62932.32
534.52	62761.47
534.69	63025.95
534.86	63236.59
535.03	63449.58
535.20	63763.21
535.37	64402.18
535.54	64268.77
535.71	63901.31
535.88	63721.08
536.05	63039.99
536.22	62780.19
536.38	62532.09
536.55	62103.77
536.72	61476.51
536.89	61415.66
537.06	62237.19
537.23	63077.44
537.40	63128.93
537.57	63238.93
537.74	62876.15
537.91	62965.09
538.08	62817.64
538.25	63089.14
538.42	63042.33
538.59	62843.38
538.75	62412.73
538.92	62141.22
539.09	62106.12
539.26	61797.16
539.43	61757.38
539.60	61757.38
539.77	61942.28
539.94	61958.66
540.11	61226.07
540.28	60772.01
540.44	60764.99
540.61	61036.49
540.78	61275.22
540.95	61729.29
541.12	62087.39
541.29	62181.01
541.46	62651.46
541.62	62557.84
541.79	62368.26
541.96	61783.12
542.13	61663.75
542.30	62244.21
542.47	62253.57
542.63	62148.24
542.80	61902.49
542.97	61829.93
543.14	61975.05
543.31	61764.40
543.48	62230.16
543.64	62915.94
543.81	63271.70
543.98	62915.94
544.15	62396.34
544.32	62031.22
544.48	62138.88
544.65	62403.36
544.82	62768.49
544.99	62452.51
545.16	62164.63
545.32	61806.53
545.49	62719.34
545.66	63096.16
545.83	62817.64
546.00	62443.15
546.16	62021.86
546.33	61935.26
546.50	61993.77
546.67	62539.11
546.83	62269.95
547.00	62164.63
547.17	61633.33
547.34	61127.77
547.50	60968.61
547.67	61497.58
547.84	61474.17
548.00	61893.13
548.17	62281.66
548.34	62241.87
548.51	62085.05
548.67	62246.55
548.84	62096.75
549.01	62223.14
549.18	61930.58
549.34	61930.58
549.51	61834.61
549.68	62078.03
549.84	61780.78
550.01	61621.62
550.18	61467.15
550.34	61729.29
550.51	61717.59
550.68	61710.56
550.84	61380.55
551.01	61434.38
551.18	61394.59
551.34	61602.90
551.51	61750.35
551.68	62096.75
551.84	62386.98
552.01	62113.14
552.18	61780.78
552.34	61207.35
552.51	60743.92
552.68	60664.35
552.84	61406.30
553.01	61591.20
553.18	61380.55
553.34	61310.33
553.51	61572.47
553.67	61958.66
553.84	61836.95
554.01	61827.59
554.17	61553.75
554.34	61539.71
554.51	61773.76
554.67	61923.55
554.84	61698.86
555.00	61677.80
555.17	61366.51
555.33	61560.77
555.50	61277.57
555.67	61513.96
555.83	61296.29
556.00	60989.68
556.16	60860.95
556.33	60439.65
556.50	60633.92
556.66	60481.78
556.83	60336.67
556.99	60526.25
557.16	60629.24
557.32	60851.59
557.49	61116.07
557.65	60947.55
557.82	60928.83
557.98	60793.07
558.15	60378.80
558.32	59477.69
558.48	58979.16
558.65	59077.46
558.81	59402.80
558.98	59746.86
559.14	60001.97
559.31	59887.29
559.47	60121.34
559.64	59334.92
559.80	59346.62
559.97	59379.39
560.13	59810.05
560.30	60413.91
560.46	60954.57
560.63	61446.08
560.79	61120.75
560.96	60956.91
561.12	60023.04
561.29	59171.08
561.45	59210.87
561.61	59671.96
561.78	59999.63
561.94	59838.14
562.11	60006.65
562.27	59580.68
562.44	59955.16
562.60	60221.98
562.77	60474.76
562.93	60397.52
563.10	60229.01
563.26	59702.38
563.42	59704.73
563.59	59405.14
563.75	59622.81
563.92	59863.88
564.08	59819.41
564.24	59994.95
564.41	59641.53
564.57	59922.40
564.74	59674.30
564.90	59484.72
565.07	59552.59
565.23	59192.15
565.39	58710.00
565.56	58307.43
565.72	58342.53
565.88	58609.35
566.05	58843.41
566.21	58663.19
566.38	58937.03
566.54	59086.82
566.70	59323.22
566.87	59730.47
567.03	59538.55
567.19	59952.82
567.36	59538.55
567.52	59505.78
567.68	59222.58
567.85	58625.74
568.01	58375.30
568.17	58000.82
568.34	58136.57
568.50	58082.73
568.66	58230.19
568.83	58372.96
568.99	58323.81
569.15	58735.74
569.32	58721.70
569.48	58312.11
569.64	58401.05
569.81	57904.85
569.97	57930.60
570.13	58003.16
570.30	57460.15
570.46	57109.07
570.62	56683.09
570.78	56570.75
570.95	56835.23
571.11	57726.97
571.27	57659.10
571.43	57776.12
571.60	57979.75
571.76	58234.87
571.92	58368.28
572.09	58513.39
572.25	58667.87
572.41	58342.53
572.57	58120.18
572.74	58548.50
572.90	57986.77
573.06	58164.65
573.22	58110.82
573.38	58258.27
573.55	58131.89
573.71	58244.23
573.87	58192.74
574.03	57851.02
574.20	58141.25
574.36	57511.64
574.52	57535.05
574.68	57333.76
574.84	56912.47
575.01	56821.19
575.17	56484.15
575.33	56769.69
575.49	56914.81
575.65	57350.15
575.82	57057.58
575.98	56671.39
576.14	57092.69
576.30	57223.76
576.46	57492.92
576.62	57441.43
576.79	57146.52
576.95	56996.73
577.11	57008.43
577.27	57043.54
577.43	57027.15
577.59	56952.26
577.75	56453.72
577.92	55613.47
578.08	55894.33
578.24	55824.12
578.40	55955.19
578.56	56376.48
578.72	56069.87
578.88	56432.66
579.04	56594.15
579.21	56547.34
579.37	56603.52
579.53	56753.31
579.69	56818.84
579.85	56776.72
580.01	56769.69
580.17	56172.86
580.33	56315.63
580.49	56535.64
580.65	56477.13
580.82	56697.14
580.98	56662.03
581.14	56505.21
581.30	56591.81
581.46	56640.96
581.62	56540.32
581.78	56633.94
581.94	57123.11
582.10	56839.91
582.26	57092.69
582.42	56603.52
582.58	56891.40
582.74	56821.19
582.90	56704.16
583.06	57048.22
583.22	56509.89
583.38	56601.18
583.54	56633.94
583.70	56512.23
583.86	56413.93
584.02	56282.86
584.18	56816.50
584.34	56446.70
584.50	56285.20
584.66	56016.04
584.82	55931.78
584.98	55891.99
585.14	55716.45
