SpectraSuite Data File
++++++++++++++++++++++++++++++++++++
Date: Mon Oct 07 14:52:55 GMT-05:00 2013
User: price-jones
Dark Spectrum Present: No
Reference Spectrum Present: No
Number of Sampled Component Spectra: 1
Spectrometers: USB2+H05261
Integration Time (usec): 100000 (USB2+H05261)
Spectra Averaged: 1 (USB2+H05261)
Boxcar Smoothing: 0 (USB2+H05261)
Correct for Electrical Dark: No (USB2+H05261)
Strobe/Lamp Enabled: No (USB2+H05261)
Correct for Detector Non-linearity: No (USB2+H05261)
Correct for Stray Light: No (USB2+H05261)
Number of Pixels in Processed Spectrum: 2048
>>>>>Begin Processed Spectral Data<<<<<
365.73	0.00
365.92	0.00
366.12	0.00
366.32	0.00
366.52	0.00
366.72	0.00
366.91	0.00
367.11	0.00
367.31	0.00
367.51	0.00
367.70	0.00
367.90	0.00
368.10	0.00
368.30	0.00
368.49	0.00
368.69	0.00
368.89	0.00
369.09	0.00
369.28	0.00
369.48	0.00
369.68	0.00
369.87	0.00
370.07	0.00
370.27	0.00
370.47	454.06
370.66	2359.26
370.86	2888.22
371.06	3141.00
371.25	3098.87
371.45	2808.64
371.65	2523.10
371.84	2305.43
372.04	2616.72
372.24	2785.24
372.44	2981.84
372.63	2949.08
372.83	2675.23
373.03	2417.77
373.22	2157.97
373.42	2307.77
373.62	2808.64
373.81	2923.33
374.01	2906.95
374.21	2586.29
374.40	2520.76
374.60	2588.63
374.79	2822.69
374.99	3335.26
375.19	3515.48
375.38	3616.13
375.58	3349.31
375.78	3405.48
375.97	3389.10
376.17	3527.19
376.37	3431.23
376.56	3698.05
376.76	3831.46
376.95	4149.77
377.15	4442.34
377.35	4491.49
377.54	4734.90
377.74	4844.91
377.93	4730.22
378.13	4606.17
378.33	4475.10
378.52	4166.15
378.72	3969.55
378.91	4004.66
379.11	3908.69
379.31	3616.13
379.50	3751.88
379.70	4011.68
379.89	4332.33
380.09	4758.31
380.28	4648.30
380.48	4613.20
380.68	4674.05
380.87	4519.57
381.07	4149.77
381.26	3836.14
381.46	3548.25
381.65	3543.57
381.85	3475.70
382.04	3176.11
382.24	2944.39
382.43	2960.78
382.63	2876.52
382.83	2822.69
383.02	2810.98
383.22	2846.09
383.41	2780.56
383.61	3141.00
383.80	3449.95
384.00	3913.38
384.19	4414.25
384.39	4664.69
384.58	4685.75
384.78	4603.83
384.97	4601.49
385.17	4360.42
385.36	4028.06
385.56	3925.08
385.75	4119.34
385.95	4561.70
386.14	4873.00
386.34	4741.93
386.53	4683.41
386.72	4449.36
386.92	4369.78
387.11	4592.13
387.31	4826.18
387.50	4650.64
387.70	4540.64
387.89	4566.39
388.09	4575.75
388.28	4631.92
388.48	4627.24
388.67	5100.03
388.86	5504.94
389.06	5949.64
389.25	6305.40
389.45	6260.93
389.64	6176.67
389.84	6207.10
390.03	6153.27
390.22	6197.74
390.42	6359.24
390.61	6656.48
390.81	7173.74
391.00	7375.03
391.19	7126.93
391.39	7180.76
391.58	6590.95
391.78	6181.35
391.97	6076.03
392.16	5741.33
392.36	5090.67
392.55	3953.16
392.75	3157.38
392.94	2637.78
393.13	2602.68
393.33	3145.68
393.52	4140.41
393.71	5034.49
393.91	5500.26
394.10	6043.26
394.29	6729.04
394.49	7133.95
394.68	7826.75
394.88	7634.83
395.07	8035.06
395.26	7836.11
395.46	7662.91
395.65	7267.36
395.84	6354.55
396.04	5380.89
396.23	4212.96
396.42	3562.30
396.62	3552.93
396.81	4329.99
397.00	5317.70
397.19	6579.25
397.39	7772.92
397.58	8753.60
397.77	9139.79
397.97	9582.15
398.16	9591.52
398.35	10345.17
398.55	10384.96
398.74	10883.49
398.93	10991.16
399.12	10616.67
399.32	10459.85
399.51	10635.39
399.70	11585.65
399.90	11026.26
400.09	11342.24
400.28	11052.01
400.47	11154.99
400.67	12032.69
400.86	12180.15
401.05	12128.66
401.24	12334.62
401.44	12351.01
401.63	12486.76
401.82	12608.47
402.01	12353.35
402.21	12802.73
402.40	12664.64
402.59	12053.76
402.78	11754.17
402.97	11517.78
403.17	11779.92
403.36	12676.34
403.55	13011.04
403.74	13429.99
403.93	12444.63
404.13	11868.86
404.32	11386.71
404.51	12056.10
404.70	12936.14
404.89	12896.35
405.09	12559.31
405.28	12250.36
405.47	12503.14
405.66	12119.29
405.85	11985.88
406.05	11452.24
406.24	11761.19
406.43	12191.85
406.62	12620.17
406.81	12849.54
407.00	12262.07
407.20	12025.67
407.39	12372.07
407.58	12620.17
407.77	13259.13
407.96	13654.69
408.15	13767.03
408.34	14080.66
408.54	14883.47
408.73	14846.02
408.92	14452.81
409.11	14270.25
409.30	13202.96
409.49	12477.40
409.68	11822.05
409.87	11494.37
410.07	12039.72
410.26	12999.34
410.45	13987.04
410.64	14277.27
410.83	14747.72
411.02	15117.52
411.21	15627.76
411.40	15417.11
411.59	15604.35
411.78	15335.19
411.98	15440.51
412.17	15646.48
412.36	15171.35
412.55	15480.30
412.74	14920.92
412.93	14647.07
413.12	14623.67
413.31	16126.29
413.50	16212.89
413.69	16648.23
413.88	15995.22
414.07	15307.10
414.26	15573.92
414.45	16243.32
414.64	16194.17
414.83	16318.22
415.02	15955.43
415.22	15815.00
415.41	16123.95
415.60	16781.64
415.79	17294.22
415.98	18104.04
416.17	17970.63
416.36	17638.28
416.55	17036.76
416.74	16620.14
416.93	16201.19
417.12	16219.91
417.31	16315.87
417.50	16725.47
417.69	17401.88
417.88	17195.92
418.07	16975.91
418.26	17118.68
418.45	16945.48
418.64	17479.12
418.83	18541.72
419.02	17867.65
419.21	17413.59
419.39	17001.65
419.58	16046.71
419.77	16212.89
419.96	16772.28
420.15	18134.47
420.34	18523.00
420.53	19421.77
420.72	19433.47
420.91	19054.30
421.10	19021.53
421.29	18785.14
421.48	18108.72
421.67	18988.77
421.86	18389.59
422.05	17151.45
422.24	15697.97
422.43	15538.82
422.61	17184.21
422.80	18616.62
422.99	18403.63
423.18	17804.46
423.37	17455.72
423.56	17266.13
423.75	17884.03
423.94	18022.12
424.13	17362.09
424.32	17193.58
424.50	17441.67
424.69	17240.39
424.88	17397.20
425.07	17053.14
425.26	17235.70
425.45	17125.70
425.64	16482.05
425.83	16856.54
426.01	17987.02
426.20	18281.92
426.39	18029.15
426.58	16755.90
426.77	15513.07
426.96	14920.92
427.15	15309.44
427.33	16755.90
427.52	17355.07
427.71	17568.06
427.90	17348.05
428.09	17436.99
428.28	16489.07
428.46	16032.67
428.65	15777.55
428.84	16381.41
429.03	16512.48
429.22	15571.58
429.40	15054.33
429.59	13322.33
429.78	12020.99
429.97	12116.95
430.16	12156.74
430.34	12163.76
430.53	12329.94
430.72	12453.99
430.91	14097.05
431.10	16191.83
431.28	19229.84
431.47	20943.11
431.66	20828.43
431.85	18515.98
432.03	17231.02
432.22	16779.30
432.41	17458.06
432.60	19222.82
432.79	20407.13
432.97	20807.36
433.16	20002.22
433.35	18347.46
433.54	16465.67
433.72	15281.36
433.91	16133.31
434.10	17930.84
434.28	19363.25
434.47	20116.90
434.66	19906.26
434.85	19597.31
435.03	19257.93
435.22	19814.98
435.41	21088.23
435.59	21151.42
435.78	21455.69
435.97	21996.35
436.16	22143.81
436.34	21284.83
436.53	21301.22
436.72	21191.21
436.90	20180.10
437.09	19822.00
437.28	19763.48
437.46	20486.71
437.65	20173.08
437.84	18899.83
438.02	17537.63
438.21	17434.65
438.40	18387.25
438.58	19913.28
438.77	20362.66
438.96	20837.79
439.14	21535.27
439.33	21970.61
439.52	22590.85
439.70	21776.34
439.89	21509.52
440.08	20896.30
440.26	21020.35
440.45	21553.99
440.63	22911.50
440.82	23882.83
441.01	23831.33
441.19	23400.68
441.38	23861.76
441.57	24849.47
441.75	24933.73
441.94	25369.07
442.12	25294.17
442.31	25359.70
442.50	25429.92
442.68	25050.75
442.87	24975.86
443.05	24692.65
443.24	24905.64
443.43	25366.73
443.61	26066.55
443.80	26024.42
443.98	24580.31
444.17	24428.17
444.35	25813.77
444.54	26581.46
444.73	26429.33
444.91	25090.54
445.10	24056.03
445.28	23136.20
445.47	22745.33
445.65	22661.07
445.84	23840.70
446.02	24556.90
446.21	24596.69
446.39	24737.12
446.58	24961.81
446.77	25511.84
446.95	26169.53
447.14	26595.51
447.32	27346.82
447.51	26368.48
447.69	25582.06
447.88	24788.61
448.06	25851.22
448.25	26141.44
448.43	26340.39
448.62	25851.22
448.80	25511.84
448.99	25734.19
449.17	26174.21
449.36	26019.74
449.54	26658.70
449.73	27468.53
449.91	28294.74
450.10	28360.27
450.28	28856.46
450.46	28823.70
450.65	28734.76
450.83	28407.08
451.02	27676.83
451.20	27751.73
451.39	27639.39
451.57	27426.40
451.76	27538.74
451.94	27442.78
452.13	26988.72
452.31	25528.22
452.49	24645.84
452.68	24702.01
452.86	24814.36
453.05	25223.95
453.23	26057.18
453.42	26352.09
453.60	27445.12
453.78	27482.57
453.97	27215.75
454.15	27323.41
454.34	26740.62
454.52	27187.66
454.70	26171.87
454.89	26714.87
455.07	26881.05
455.26	27484.91
455.44	28051.32
455.62	28650.50
455.81	28673.90
455.99	28561.56
456.17	27899.19
456.36	28617.73
456.54	29378.40
456.73	29443.94
456.91	29759.91
457.09	29633.52
457.28	30543.99
457.46	29139.67
457.64	28987.53
457.83	28133.24
458.01	27637.05
458.19	28416.44
458.38	28371.97
458.56	29266.06
458.74	28826.04
458.93	28797.95
459.11	28769.86
459.29	28292.40
459.48	28374.31
459.66	28369.63
459.84	28816.68
460.03	29027.32
460.21	29008.60
460.39	29598.41
460.57	29420.53
460.76	29982.26
460.94	30382.49
461.12	29862.90
461.31	30141.42
461.49	29961.20
461.67	30000.99
461.85	31089.34
462.04	30480.80
462.22	30969.97
462.40	30820.17
462.59	30698.47
462.77	30300.58
462.95	30211.64
463.13	29942.47
463.32	29827.79
463.50	30029.07
463.68	30174.19
463.86	29795.02
464.05	29275.42
464.23	28680.92
464.41	28945.41
464.59	28233.88
464.78	29642.88
464.96	29338.62
465.14	29544.58
465.32	30389.52
465.50	30890.39
465.69	30862.30
465.87	30291.21
466.05	29282.44
466.23	28306.44
466.41	27410.01
466.60	28320.48
466.78	28762.84
466.96	29013.28
467.14	29694.38
467.32	29771.61
467.51	29965.88
467.69	28711.35
467.87	29106.90
468.05	29525.86
468.23	29488.41
468.41	29560.97
468.60	29575.01
468.78	29848.85
468.96	29930.77
469.14	30333.34
469.32	30345.05
469.50	29055.41
469.69	29467.34
469.87	29127.97
470.05	28554.54
470.23	28739.44
470.41	28861.15
470.59	29591.39
470.77	29551.60
470.95	30054.82
471.14	30382.49
471.32	30408.24
471.50	32175.34
471.68	31960.02
471.86	32797.93
472.04	32535.79
472.22	32793.25
472.40	31089.34
472.58	31250.83
472.77	30136.74
472.95	31367.86
473.13	32116.83
473.31	31555.10
473.49	31267.22
473.67	31707.24
473.85	32275.99
474.03	33198.16
474.21	32938.36
474.39	33125.60
474.57	33549.24
474.75	33160.71
474.93	33247.31
475.12	32947.72
475.30	32517.06
475.48	32591.96
475.66	33092.83
475.84	33057.73
476.02	32371.95
476.20	32048.96
476.38	33195.82
476.56	33759.89
476.74	34120.33
476.92	34424.60
477.10	34878.66
477.28	36053.61
477.46	35878.07
477.64	36240.86
477.82	36371.92
478.00	36584.91
478.18	35730.62
478.36	35505.93
478.54	35929.56
478.72	35934.24
478.90	36800.24
479.08	38124.99
479.26	38415.21
479.44	38101.58
479.62	38352.02
479.80	37956.47
479.98	38209.25
480.16	38389.47
480.34	37794.97
480.52	38693.74
480.70	38555.64
480.88	38670.33
481.06	39686.12
481.24	39505.90
481.41	41013.21
481.59	40994.48
481.77	40870.43
481.95	40088.70
482.13	40528.72
482.31	40184.66
482.49	40980.44
482.67	40655.11
482.85	41095.13
483.03	41628.77
483.21	42188.16
483.39	41944.74
483.57	41172.36
483.74	40800.22
483.92	41715.37
484.10	41453.23
484.28	42309.86
484.46	42794.36
484.64	43374.81
484.82	42426.89
485.00	41780.90
485.18	41127.89
485.35	39625.27
485.53	36697.26
485.71	33287.10
485.89	33202.84
486.07	35505.93
486.25	38148.39
486.43	40151.89
486.61	41277.69
486.78	41081.08
486.96	41015.55
487.14	42768.61
487.32	43618.22
487.50	44961.69
487.68	45841.73
487.85	46019.61
488.03	46274.73
488.21	45666.19
488.39	44802.53
488.57	43828.87
488.75	43676.74
488.92	45125.53
489.10	47861.61
489.28	48961.67
489.46	49879.16
489.64	49586.59
489.81	49900.22
489.99	49661.49
490.17	49572.55
490.35	50108.53
490.53	48900.81
490.70	48762.72
490.88	48800.17
491.06	49687.23
491.24	50185.77
491.41	48362.49
491.59	46464.32
491.77	46124.94
491.95	47391.17
492.13	48694.85
492.30	50356.63
492.48	51009.64
492.66	51524.55
492.84	51812.44
493.01	51178.15
493.19	50712.39
493.37	50272.37
493.54	50082.78
493.72	50955.80
493.90	51828.82
494.08	52722.91
494.25	53181.65
494.43	53483.58
494.61	53457.84
494.79	53837.00
494.96	53413.37
495.14	53169.95
495.32	51594.77
495.49	51093.89
495.67	52540.35
495.85	53996.16
496.02	54419.80
496.20	53811.26
496.38	53450.81
496.55	53443.79
496.73	54047.65
496.91	54190.42
497.09	54646.83
497.26	54871.52
497.44	54019.56
497.62	53787.85
497.79	52978.03
497.97	51688.39
498.14	51742.22
498.32	53258.89
498.50	53867.43
498.67	54658.53
498.85	54429.16
499.03	54836.41
499.20	54878.54
499.38	54876.20
499.56	54740.45
499.73	54024.25
499.91	53869.77
500.08	53165.27
500.26	52346.08
500.44	53024.84
500.61	53738.70
500.79	53741.04
500.97	53216.76
501.14	52942.92
501.32	52743.97
501.49	52905.47
501.67	53137.18
501.84	53567.84
502.02	54145.95
502.20	54377.67
502.37	54534.48
502.55	54557.89
502.72	55257.71
502.90	55435.59
503.07	55243.66
503.25	54593.00
503.43	53790.19
503.60	53411.02
503.78	52683.12
503.95	53038.88
504.13	54628.10
504.30	55508.14
504.48	55323.24
504.65	54887.90
504.83	54965.14
505.01	55620.49
505.18	56151.79
505.36	56322.65
505.53	56530.96
505.71	56809.48
505.88	56788.42
506.06	56032.42
506.23	55601.77
506.41	55306.86
506.58	55613.47
506.76	55821.78
506.93	55594.74
507.11	55325.58
507.28	55721.13
507.46	54944.08
507.63	54508.74
507.81	54365.96
507.98	54698.32
508.16	55250.69
508.33	55812.41
508.50	56268.82
508.68	56528.62
508.85	56975.66
509.03	56933.53
509.20	56907.79
509.38	55964.55
509.55	55096.21
509.73	55318.56
509.90	56011.36
510.08	55908.38
510.25	56170.52
510.42	55781.99
510.60	55781.99
510.77	56329.67
510.95	56790.76
511.12	56903.10
511.30	57179.29
511.47	57584.20
511.64	57286.95
511.82	56949.92
511.99	56205.62
512.17	55929.44
512.34	55559.64
512.51	55489.42
512.69	55774.97
512.86	55796.03
513.04	56399.89
513.21	56463.08
513.38	55992.64
513.56	55281.11
513.73	54742.79
513.90	55089.19
514.08	55157.06
514.25	55430.91
514.43	55868.59
514.60	55655.60
514.77	56072.21
514.95	55901.36
515.12	55931.78
515.29	56048.81
515.47	56582.45
515.64	56823.53
515.81	56481.81
515.99	55681.34
516.16	54415.11
516.33	51749.24
516.51	50202.15
516.68	49382.96
516.85	48877.41
517.03	49572.55
517.20	52828.23
517.37	55161.75
517.54	56086.26
517.72	55522.19
517.89	52545.03
518.06	50583.66
518.24	50780.26
518.41	53399.32
518.58	54595.34
518.75	54770.88
518.93	54983.86
519.10	54913.65
519.27	55332.60
519.45	55611.13
519.62	56390.53
519.79	56612.88
519.96	56247.75
520.14	55952.85
520.31	55220.26
520.48	55220.26
520.65	55655.60
520.83	56413.93
521.00	56832.89
521.17	56292.22
521.34	56039.45
521.52	56488.83
521.69	57003.75
521.86	57380.57
522.03	57155.88
522.20	55583.04
522.38	54742.79
522.55	54717.04
522.72	55402.82
522.89	55777.31
523.07	55793.69
523.24	56060.51
523.41	56905.44
523.58	57361.85
523.75	57715.27
523.92	57642.71
524.10	57654.42
524.27	57518.67
524.44	57436.75
524.61	57350.15
524.78	57172.27
524.96	56793.10
525.13	57013.11
525.30	57317.38
525.47	57544.41
525.64	57481.22
525.81	56868.00
525.98	55231.96
526.16	53621.67
526.33	53038.88
526.50	52442.04
526.67	52486.51
526.84	53048.24
527.01	54143.61
527.18	55009.61
527.36	55992.64
527.53	56891.40
527.70	57092.69
527.87	56498.19
528.04	56191.58
528.21	56371.80
528.38	57237.80
528.55	57787.83
528.72	58087.42
528.89	58288.70
529.07	57867.40
529.24	57331.42
529.41	56781.40
529.58	55934.12
529.75	56322.65
529.92	56662.03
530.09	56970.98
530.26	57623.99
530.43	57996.13
530.60	57862.72
530.77	58017.20
530.94	58017.20
531.11	57813.57
531.28	57338.44
531.46	56999.07
531.63	57279.93
531.80	57275.25
531.97	56488.83
532.14	56097.96
532.31	54677.25
532.48	54073.40
532.65	54459.58
532.82	54920.67
532.99	56512.23
533.16	56779.06
533.33	57141.84
533.50	57183.97
533.67	56535.64
533.84	55964.55
534.01	56299.25
534.18	56587.13
534.35	56629.26
534.52	56353.08
534.69	56659.69
534.86	56938.21
535.03	57467.17
535.20	57762.08
535.37	58419.77
535.54	58040.60
535.71	57841.66
535.88	57581.86
536.05	56858.63
536.22	56193.92
536.38	56128.39
536.55	55561.98
536.72	55030.68
536.89	55208.56
537.06	56018.38
537.23	57008.43
537.40	57003.75
537.57	57139.50
537.74	56692.46
537.91	56647.99
538.08	56884.38
538.25	56860.97
538.42	56938.21
538.59	56694.80
538.75	56044.13
538.92	55948.17
539.09	55882.63
539.26	55337.29
539.43	55353.67
539.60	55592.40
539.77	55884.97
539.94	55599.43
540.11	54679.60
540.28	54286.39
540.44	54145.95
540.61	54550.87
540.78	55187.49
540.95	55341.97
541.12	55700.07
541.29	55814.76
541.46	56521.60
541.62	56329.67
541.79	56203.28
541.96	55370.05
542.13	55332.60
542.30	56060.51
542.47	55941.14
542.63	55709.43
542.80	55512.83
542.97	55681.34
543.14	55503.46
543.31	55629.85
543.48	56212.65
543.64	56919.49
543.81	57319.72
543.98	57062.26
544.15	56285.20
544.32	55641.56
544.48	56095.62
544.65	56430.32
544.82	56680.75
544.99	56196.26
545.16	55856.88
545.32	55938.80
545.49	56657.35
545.66	56940.55
545.83	56402.23
546.00	56156.47
546.16	55781.99
546.33	55805.39
546.50	55781.99
546.67	56498.19
546.83	55810.07
547.00	56102.64
547.17	55112.59
547.34	54436.18
547.50	54864.50
547.67	55025.99
547.84	55337.29
548.00	56020.72
548.17	55973.91
548.34	56027.74
548.51	56016.04
548.67	56020.72
548.84	55821.78
549.01	56030.08
549.18	55629.85
549.34	55477.72
549.51	55618.15
549.68	55784.33
549.84	55480.06
550.01	55388.78
550.18	55133.66
550.34	55164.09
550.51	55348.99
550.68	55416.86
550.84	54930.03
551.01	55086.85
551.18	55047.06
551.34	55246.00
551.51	55639.22
551.68	55866.25
551.84	55693.05
552.01	55751.56
552.18	55505.80
552.34	54827.05
552.51	54555.55
552.68	54349.58
552.84	54672.57
553.01	55203.88
553.18	54817.69
553.34	55154.72
553.51	55356.01
553.67	55629.85
553.84	55798.37
554.01	55374.73
554.17	55388.78
554.34	55597.09
554.51	55468.36
554.67	55870.93
554.84	56048.81
555.00	55384.10
555.17	55025.99
555.33	55098.55
555.50	54925.35
555.67	54930.03
555.83	54649.17
556.00	54475.97
556.16	54438.52
556.33	54071.06
556.50	54227.87
556.66	54061.69
556.83	53851.05
556.99	54075.74
557.16	54057.01
557.32	54309.79
557.49	54487.67
557.65	54316.81
557.82	54550.87
557.98	54443.20
558.15	53745.72
558.32	52800.15
558.48	52189.27
558.65	52343.74
558.81	52891.43
558.98	53095.05
559.14	53085.69
559.31	53242.51
559.47	53127.82
559.64	53209.74
559.80	52402.25
559.97	53214.42
560.13	53036.54
560.30	54307.45
560.46	54485.33
560.63	54941.74
560.79	54787.26
560.96	54541.50
561.12	53069.31
561.29	52584.82
561.45	52617.58
561.61	52987.39
561.78	53427.41
561.94	53263.57
562.11	53350.17
562.27	53083.35
562.44	53605.29
562.60	53549.12
562.77	53872.11
562.93	54094.46
563.10	53684.87
563.26	53212.08
563.42	53095.05
563.59	53153.57
563.75	53104.41
563.92	53179.31
564.08	53083.35
564.24	53326.77
564.41	53656.78
564.57	53181.65
564.74	53385.28
564.90	53286.98
565.07	52725.25
565.23	52418.64
565.39	51880.31
565.56	51283.48
565.72	51517.53
565.88	51938.83
566.05	51854.57
566.21	52374.17
566.38	52446.72
566.54	52411.62
566.70	52669.08
566.87	53106.76
567.03	53031.86
567.19	53202.72
567.36	52863.34
567.52	52900.79
567.68	52177.56
567.85	51870.95
568.01	51159.43
568.17	50904.31
568.34	51061.13
568.50	51105.60
568.66	50986.23
568.83	51662.64
568.99	51634.56
569.15	51599.45
569.32	51650.94
569.48	51433.27
569.64	51070.49
569.81	50939.42
569.97	50693.66
570.13	51026.02
570.30	50347.26
570.46	49684.89
570.62	49125.50
570.78	48945.28
570.95	49499.99
571.11	50478.33
571.27	50717.07
571.43	50939.42
571.60	51388.80
571.76	51079.85
571.92	51681.37
572.09	51817.12
572.25	51882.66
572.41	51629.88
572.57	51758.61
572.74	51475.40
572.90	51063.47
573.06	50803.67
573.22	51035.38
573.38	50890.27
573.55	50958.14
573.71	51199.22
573.87	51384.12
574.03	50838.78
574.20	51117.30
574.36	50181.09
574.52	50162.36
574.68	50066.40
574.84	49499.99
575.01	49155.93
575.17	49059.97
575.33	49305.73
575.49	49738.72
575.65	49993.84
575.82	49598.29
575.98	49347.86
576.14	49560.84
576.30	49888.52
576.46	50117.89
576.62	50206.83
576.79	49979.80
576.95	49572.55
577.11	49368.92
577.27	49530.42
577.43	50085.12
577.59	49542.12
577.75	48692.50
577.92	48105.03
578.08	48257.17
578.24	47969.28
578.40	48825.92
578.56	48648.03
578.72	48765.06
578.88	48877.41
579.04	49303.38
579.21	49371.26
579.37	48877.41
579.53	49687.23
579.69	49385.30
579.85	49612.34
580.01	49354.88
580.17	48877.41
580.33	48430.36
580.49	48453.77
580.65	49193.38
580.82	49481.27
580.98	49041.24
581.14	48891.45
581.30	49090.40
581.46	49177.00
581.62	49167.63
581.78	49347.86
581.94	49207.42
582.10	49457.86
582.26	49769.15
582.42	49251.89
582.58	49663.83
582.74	49399.35
582.90	49277.64
583.06	49483.61
583.22	49528.08
583.38	49055.29
583.54	49139.55
583.70	48910.17
583.86	49160.61
584.02	48900.81
584.18	48926.56
584.34	48804.85
584.50	48942.94
584.66	48704.21
584.82	48158.86
584.98	48083.97
585.14	47552.66
585.30	46518.15
