SpectraSuite Data File
++++++++++++++++++++++++++++++++++++
Date: Mon Oct 07 14:53:56 GMT-05:00 2013
User: price-jones
Dark Spectrum Present: No
Reference Spectrum Present: No
Number of Sampled Component Spectra: 1
Spectrometers: USB2+H05261
Integration Time (usec): 100000 (USB2+H05261)
Spectra Averaged: 1 (USB2+H05261)
Boxcar Smoothing: 0 (USB2+H05261)
Correct for Electrical Dark: No (USB2+H05261)
Strobe/Lamp Enabled: No (USB2+H05261)
Correct for Detector Non-linearity: No (USB2+H05261)
Correct for Stray Light: No (USB2+H05261)
Number of Pixels in Processed Spectrum: 2048
>>>>>Begin Processed Spectral Data<<<<<
365.73	0.00
365.92	0.00
366.12	0.00
366.32	0.00
366.52	0.00
366.72	0.00
366.91	0.00
367.11	0.00
367.31	0.00
367.51	0.00
367.70	0.00
367.90	0.00
368.10	0.00
368.30	0.00
368.49	0.00
368.69	0.00
368.89	0.00
369.09	0.00
369.28	0.00
369.48	0.00
369.68	0.00
369.87	0.00
370.07	0.00
370.27	0.00
370.47	505.56
370.66	2778.22
370.86	3215.90
371.06	3513.14
371.25	3779.97
371.45	3302.50
371.65	3002.91
371.84	2565.23
372.04	2939.71
372.24	3185.47
372.44	3389.10
372.63	3267.39
372.83	3021.63
373.03	2827.37
373.22	2530.12
373.42	2686.94
373.62	2869.50
373.81	3379.73
374.01	3414.84
374.21	3087.17
374.40	2708.00
374.60	2867.16
374.79	3248.66
374.99	3744.86
375.19	4100.62
375.38	4117.00
375.58	3782.31
375.78	3749.54
375.97	3824.44
376.17	4072.53
376.37	4105.30
376.56	4182.54
376.76	4367.44
376.95	4568.73
377.15	4875.34
377.35	5097.69
377.54	5245.14
377.74	5458.13
377.93	5430.04
378.13	5266.21
378.33	5188.97
378.52	4599.15
378.72	4442.34
378.91	4383.82
379.11	4194.24
379.31	4198.92
379.50	4128.70
379.70	4540.64
379.89	5027.47
380.09	5320.04
380.28	5350.46
380.48	5425.36
380.68	5256.84
380.87	5160.88
381.07	4734.90
381.26	4475.10
381.46	4196.58
381.65	4049.13
381.85	3812.73
382.04	3812.73
382.24	3452.29
382.43	3279.09
382.63	3133.98
382.83	3323.56
383.02	3201.85
383.22	3311.86
383.41	3293.13
383.61	3389.10
383.80	3929.76
384.00	4517.23
384.19	5139.82
384.39	5343.44
384.58	5259.18
384.78	5188.97
384.97	5062.58
385.17	4767.67
385.36	4606.17
385.56	4484.47
385.75	4552.34
385.95	4933.85
386.14	5511.96
386.34	5355.15
386.53	5214.71
386.72	4786.40
386.92	4980.66
387.11	5245.14
387.31	5467.49
387.50	5324.72
387.70	5125.77
387.89	5137.48
388.09	5156.20
388.28	5303.65
388.48	5231.10
388.67	5816.23
388.86	6431.79
389.06	6595.63
389.25	6827.34
389.45	7103.53
389.64	7021.61
389.84	7157.36
390.03	6909.26
390.22	6953.73
390.42	7073.10
390.61	7517.80
390.81	8290.18
391.00	8168.47
391.19	8145.06
391.39	8079.53
391.58	7503.76
391.78	6927.99
391.97	6700.95
392.16	6097.10
392.36	5729.63
392.55	4678.73
392.75	3726.13
392.94	3014.61
393.13	2843.75
393.33	3445.27
393.52	4662.35
393.71	5530.69
393.91	6209.44
394.10	6757.13
394.29	7440.56
394.49	7857.18
394.68	8662.32
394.88	8683.39
395.07	9018.08
395.26	8816.80
395.46	8498.49
395.65	8131.02
395.84	7220.55
396.04	5767.08
396.23	4851.93
396.42	4070.19
396.62	3946.14
396.81	4503.19
397.00	5734.31
397.19	7250.98
397.39	8313.58
397.58	9738.97
397.77	10171.97
397.97	10707.95
398.16	10778.17
398.35	11082.44
398.55	11487.35
398.74	11946.09
398.93	12241.00
399.12	12100.57
399.32	11559.91
399.51	11824.39
399.70	12765.28
399.90	12575.70
400.09	12713.79
400.28	12395.48
400.47	12631.87
400.67	12975.93
400.86	13516.59
401.05	13327.01
401.24	13605.53
401.44	13895.76
401.63	13855.97
401.82	13657.03
402.01	13888.74
402.21	14047.90
402.40	14190.67
402.59	13694.47
402.78	13034.44
402.97	12788.69
403.17	12894.01
403.36	13858.31
403.55	14352.16
403.74	14764.10
403.93	13806.82
404.13	13027.42
404.32	12568.68
404.51	13495.53
404.70	14214.07
404.89	14207.05
405.09	14064.28
405.28	13584.47
405.47	13668.73
405.66	13783.41
405.85	13270.84
406.05	12882.31
406.24	13029.76
406.43	13720.22
406.62	14249.18
406.81	14092.37
407.00	13671.07
407.20	13486.17
407.39	13558.72
407.58	13914.48
407.77	14499.62
407.96	15145.61
408.15	15250.93
408.34	15349.23
408.54	16044.37
408.73	16280.77
408.92	15892.24
409.11	15353.91
409.30	14820.27
409.49	13806.82
409.68	12903.37
409.87	12524.21
410.07	13350.42
410.26	14443.45
410.45	15241.57
410.64	15751.81
410.83	16091.18
411.02	16767.60
411.21	17427.63
411.40	16978.25
411.59	16959.52
411.78	17015.69
411.98	16596.74
412.17	17191.23
412.36	16919.73
412.55	16762.92
412.74	16327.58
412.93	15969.48
413.12	16109.91
413.31	17495.50
413.50	17680.41
413.69	17862.97
413.88	17362.09
414.07	16805.05
414.26	17207.62
414.45	17727.22
414.64	17823.18
414.83	17994.04
415.02	17743.60
415.22	17563.38
415.41	17951.91
415.60	18377.89
415.79	19131.54
415.98	19655.82
416.17	19810.29
416.36	19288.35
416.55	18843.65
416.74	18359.16
416.93	17659.34
417.12	17631.26
417.31	18010.42
417.50	18197.67
417.69	19159.63
417.88	18478.53
418.07	18523.00
418.26	18342.78
418.45	18331.08
418.64	19012.17
418.83	19751.78
419.02	19524.75
419.21	19283.67
419.39	18033.83
419.58	17383.16
419.77	17493.16
419.96	18551.09
420.15	19503.68
420.34	19859.45
420.53	20566.29
420.72	20999.29
420.91	20896.30
421.10	20671.61
421.29	20311.17
421.48	19477.94
421.67	20678.63
421.86	20269.04
422.05	18977.06
422.24	16774.62
422.43	16575.67
422.61	18492.57
422.80	20142.65
422.99	20074.77
423.18	19309.42
423.37	18883.44
423.56	18876.42
423.75	18970.04
423.94	19562.20
424.13	18602.58
424.32	19030.90
424.50	18754.71
424.69	18267.88
424.88	18677.48
425.07	18740.67
425.26	18768.76
425.45	18225.75
425.64	17987.02
425.83	17715.51
426.01	19316.44
426.20	19571.56
426.39	19176.01
426.58	18111.07
426.77	16566.31
426.96	16081.82
427.15	16638.87
427.33	17790.41
427.52	18867.06
427.71	18883.44
427.90	18583.85
428.09	18602.58
428.28	18146.17
428.46	17458.06
428.65	17088.25
428.84	17514.23
429.03	17872.33
429.22	16854.20
429.40	16128.63
429.59	14757.08
429.78	12638.89
429.97	12697.41
430.16	13076.57
430.34	13224.03
430.53	13184.24
430.72	13153.81
430.91	14686.86
431.10	17137.40
431.28	20191.80
431.47	22263.18
431.66	22473.82
431.85	20486.71
432.03	18869.40
432.22	17947.23
432.41	18539.38
432.60	20725.44
432.79	21348.03
432.97	21994.01
433.16	21413.56
433.35	19688.59
433.54	17965.95
433.72	16578.01
433.91	17076.55
434.10	19103.45
434.28	20814.38
434.47	21446.33
434.66	21364.41
434.85	20896.30
435.03	20535.86
435.22	21289.51
435.41	22551.06
435.59	22583.83
435.78	22595.53
435.97	23276.63
436.16	23531.75
436.34	22855.33
436.53	22427.01
436.72	22693.83
436.90	21221.64
437.09	21076.52
437.28	21069.50
437.46	21804.43
437.65	21539.95
437.84	20348.62
438.02	18480.87
438.21	18471.51
438.40	19651.14
438.58	20877.58
438.77	21322.28
438.96	22054.87
439.14	22845.97
439.33	23323.44
439.52	23410.04
439.70	23255.56
439.89	22611.92
440.08	21989.33
440.26	21811.45
440.45	22843.63
440.63	24423.49
440.82	25200.55
441.01	25099.90
441.19	25062.46
441.38	25350.34
441.57	25900.37
441.75	26377.84
441.94	26953.61
442.12	26609.55
442.31	27225.11
442.50	26874.03
442.68	26724.24
442.87	26370.82
443.05	25715.47
443.24	26129.74
443.43	26946.59
443.61	27311.71
443.80	27948.34
443.98	26120.38
444.17	25832.49
444.35	27520.02
444.54	28240.90
444.73	27688.54
444.91	26380.18
445.10	25474.39
445.28	24575.62
445.47	23873.46
445.65	24173.05
445.84	24950.11
446.02	25523.54
446.21	26164.85
446.39	26204.64
446.58	26946.59
446.77	27112.77
446.95	27178.30
447.14	28065.36
447.32	28369.63
447.51	27630.02
447.69	26668.06
447.88	26443.37
448.06	26616.57
448.25	27725.99
448.43	27782.16
448.62	26724.24
448.80	26977.01
448.99	27119.79
449.17	27597.26
449.36	27384.27
449.54	28334.53
449.73	28727.74
449.91	29125.63
450.10	30052.48
450.28	30415.26
450.46	29989.28
450.65	29685.01
450.83	29708.42
451.02	29221.59
451.20	29032.00
451.39	28947.75
451.57	29106.90
451.76	28966.47
451.94	28662.20
452.13	28430.49
452.31	26930.20
452.49	25914.41
452.68	25773.98
452.86	26258.47
453.05	26597.85
453.23	27091.70
453.42	27543.42
453.60	28355.59
453.78	28680.92
453.97	28353.25
454.15	28290.06
454.34	27805.56
454.52	28116.86
454.70	27393.63
454.89	27777.48
455.07	27433.42
455.26	28219.84
455.44	29443.94
455.62	29956.52
455.81	29858.21
455.99	29888.64
456.17	29406.49
456.36	29834.81
456.54	30050.14
456.73	30103.97
456.91	30724.21
457.09	31000.40
457.28	31323.39
457.46	30558.03
457.64	29633.52
457.83	29380.74
458.01	28397.72
458.19	28893.91
458.38	29708.42
458.56	30436.33
458.74	30316.96
458.93	29565.65
459.11	29380.74
459.29	29181.80
459.48	29378.40
459.66	29544.58
459.84	29605.44
460.03	29921.41
460.21	30359.09
460.39	30728.89
460.57	31068.27
460.76	31037.84
460.94	31285.94
461.12	30752.30
461.31	30838.90
461.49	30794.43
461.67	30946.56
461.85	31824.26
462.04	31662.77
462.22	32301.73
462.40	31686.17
462.59	31531.70
462.77	31754.05
462.95	31889.80
463.13	31253.17
463.32	30845.92
463.50	30534.63
463.68	30691.44
463.86	31136.15
464.05	30244.40
464.23	29771.61
464.41	29446.28
464.59	29106.90
464.78	30698.47
464.96	30288.87
465.14	30066.52
465.32	30831.88
465.50	31700.22
465.69	31358.50
465.87	31440.42
466.05	30401.22
466.23	29076.48
466.41	28463.25
466.60	28868.17
466.78	29266.06
466.96	30192.91
467.14	30192.91
467.32	30541.65
467.51	30852.94
467.69	29317.55
467.87	29928.43
468.05	30181.21
468.23	30485.48
468.41	30574.42
468.60	30476.12
468.78	30656.34
468.96	30515.90
469.14	31440.42
469.32	30710.17
469.50	29652.25
469.69	30190.57
469.87	29221.59
470.05	29020.30
470.23	29685.01
470.41	29996.31
470.59	30244.40
470.77	30082.91
470.95	30789.75
471.14	31428.71
471.32	31496.59
471.50	32690.26
471.68	32641.11
471.86	33528.17
472.04	33205.18
472.22	33371.36
472.40	31952.99
472.58	31646.38
472.77	31068.27
472.95	32142.58
473.13	33013.26
473.31	31723.62
473.49	32119.17
473.67	32797.93
473.85	32458.55
474.03	34132.03
474.21	33453.28
474.39	34253.74
474.57	34459.71
474.75	34136.71
474.93	34047.77
475.12	33085.81
475.30	33268.37
475.48	33352.63
475.66	33722.44
475.84	33369.02
476.02	33031.98
476.20	32477.27
476.38	32999.21
476.56	34476.09
476.74	34653.97
476.92	34944.20
477.10	35314.00
477.28	36491.29
477.46	36257.24
477.64	36886.84
477.82	36769.82
478.00	37263.67
478.18	36617.68
478.36	36407.03
478.54	36416.40
478.72	36924.29
478.90	37495.38
479.08	38597.77
479.26	39122.05
479.44	38658.63
479.62	38455.00
479.80	38602.46
479.98	38787.36
480.16	39058.86
480.34	38543.94
480.52	38990.98
480.70	39271.85
480.88	39086.95
481.06	40020.82
481.24	40540.42
481.41	41453.23
481.59	42047.72
481.77	41399.40
481.95	40271.26
482.13	40507.65
482.31	40612.98
482.49	41118.53
482.67	41223.86
482.85	41654.51
483.03	41904.95
483.21	42614.13
483.39	42305.18
483.57	41469.61
483.74	41556.21
483.92	41876.86
484.10	41888.57
484.28	42777.97
484.46	43023.73
484.64	43306.93
484.82	42515.83
485.00	42143.69
485.18	41106.83
485.35	40084.01
485.53	37509.43
485.71	33689.67
485.89	33411.15
486.07	35189.95
486.25	37961.15
486.43	40449.14
486.61	41050.66
486.78	40802.56
486.96	41181.73
487.14	42827.12
487.32	43587.80
487.50	44788.49
487.68	45734.07
487.85	46719.43
488.03	46733.48
488.21	45806.62
488.39	45162.98
488.57	44472.52
488.75	44062.93
488.92	45329.16
489.10	47372.44
489.28	49631.06
489.46	50157.68
489.64	49822.98
489.81	50162.36
489.99	49682.55
490.17	49567.87
490.35	49696.59
490.53	49394.67
490.70	49071.67
490.88	49125.50
491.06	49993.84
491.24	49848.73
491.41	48933.58
491.59	46878.59
491.77	46068.76
491.95	47494.15
492.13	48736.98
492.30	49851.07
492.48	51056.45
492.66	51714.14
492.84	51533.92
493.01	51302.20
493.19	51084.53
493.37	50602.38
493.54	49654.47
493.72	51040.06
493.90	51852.23
494.08	52828.23
494.25	53123.14
494.43	53254.21
494.61	53773.81
494.79	53841.68
494.96	53499.97
495.14	53228.46
495.32	51679.03
495.49	51379.44
495.67	52158.84
495.85	53633.38
496.02	54178.72
496.20	54045.31
496.38	53652.10
496.55	53251.87
496.73	54005.52
496.91	53916.58
497.09	54583.63
497.26	54951.10
497.44	54499.37
497.62	53659.12
497.79	52849.30
497.97	51538.60
498.14	51634.56
498.32	52839.93
498.50	53722.32
498.67	54391.71
498.85	54169.36
499.03	54623.42
499.20	54855.14
499.38	54663.21
499.56	54567.25
499.73	54232.55
499.91	53813.60
500.08	53169.95
500.26	52215.01
500.44	52772.06
500.61	53551.46
500.79	53586.57
500.97	52694.82
501.14	52898.45
501.32	52582.48
501.49	52580.13
501.67	52875.04
501.84	53558.48
502.02	53654.44
502.20	53958.71
502.37	54218.51
502.55	54195.10
502.72	54815.35
502.90	55330.26
503.07	55168.77
503.25	54887.90
503.43	53975.09
503.60	53214.42
503.78	52296.93
503.95	53102.07
504.13	54265.32
504.30	55091.53
504.48	55063.44
504.65	54756.83
504.83	54796.62
505.01	55332.60
505.18	55847.52
505.36	55969.23
505.53	56324.99
505.71	56746.29
505.88	56537.98
506.06	55700.07
506.23	55629.85
506.41	55070.46
506.58	55421.55
506.76	55454.31
506.93	55236.64
507.11	55231.96
507.28	55311.54
507.46	54885.56
507.63	54202.13
507.81	53897.86
507.98	54258.30
508.16	54850.45
508.33	55346.65
508.50	55550.27
508.68	56032.42
508.85	56727.56
509.03	56779.06
509.20	56519.26
509.38	55725.81
509.55	54967.48
509.73	54688.96
509.90	55538.57
510.08	55929.44
510.25	55929.44
510.42	55489.42
510.60	55660.28
510.77	55873.27
510.95	56137.75
511.12	56411.59
511.30	56889.06
511.47	57027.15
511.64	57130.14
511.82	56678.41
511.99	55931.78
512.17	55360.69
512.34	55091.53
512.51	54976.84
512.69	55267.07
512.86	55360.69
513.04	55767.94
513.21	55810.07
513.38	55655.60
513.56	54585.97
513.73	54422.14
513.90	54728.75
514.08	54593.00
514.25	55114.94
514.43	55224.94
514.60	55384.10
514.77	55337.29
514.95	55402.82
515.12	55533.89
515.29	55583.04
515.47	56200.94
515.64	56474.79
515.81	56069.87
515.99	55353.67
516.16	54021.90
516.33	51035.38
516.51	49560.84
516.68	48484.20
516.85	48219.72
517.03	48479.52
517.20	51435.61
517.37	54253.62
517.54	55592.40
517.72	55136.00
517.89	52341.40
518.06	49123.16
518.24	50040.65
518.41	52516.94
518.58	53932.96
518.75	54417.46
518.93	54220.85
519.10	54225.53
519.27	54646.83
519.45	54810.67
519.62	55709.43
519.79	56147.11
519.96	55987.95
520.14	55412.18
520.31	54611.72
520.48	54607.04
520.65	54873.86
520.83	55693.05
521.00	56397.55
521.17	55847.52
521.34	55505.80
521.52	55697.73
521.69	56554.36
521.86	56872.68
522.03	56549.68
522.20	55107.91
522.38	53970.41
522.55	54202.13
522.72	54567.25
522.89	54798.96
523.07	55175.79
523.24	55473.04
523.41	56320.31
523.58	56793.10
523.75	57158.22
523.92	56935.87
524.10	56898.42
524.27	56926.51
524.44	56701.82
524.61	56257.12
524.78	56488.83
524.96	56238.39
525.13	56289.88
525.30	56435.00
525.47	56947.57
525.64	56863.32
525.81	56072.21
525.98	54525.12
526.16	53048.24
526.33	52259.48
526.50	51704.77
526.67	51325.61
526.84	51971.60
527.01	53261.23
527.18	54021.90
527.36	55306.86
527.53	56016.04
527.70	56207.97
527.87	55789.01
528.04	55398.14
528.21	55676.66
528.38	56549.68
528.55	57186.31
528.72	57415.68
528.89	57719.95
529.07	57464.83
529.24	56692.46
529.41	56060.51
529.58	55133.66
529.75	55716.45
529.92	55983.27
530.09	56282.86
530.26	56757.99
530.43	56882.04
530.60	57073.96
530.77	57403.98
530.94	57425.04
531.11	56846.93
531.28	56521.60
531.46	56444.36
531.63	56491.17
531.80	56334.35
531.97	55838.16
532.14	55152.38
532.31	54040.63
532.48	53191.01
532.65	53317.40
532.82	54468.95
532.99	55414.52
533.16	55931.78
533.33	56491.17
533.50	56109.66
533.67	55805.39
533.84	55311.54
534.01	55430.91
534.18	55594.74
534.35	55697.73
534.52	55552.62
534.69	55868.59
534.86	56128.39
535.03	56481.81
535.20	56903.10
535.37	57207.37
535.54	57279.93
535.71	57092.69
535.88	56741.61
536.05	56016.04
536.22	55641.56
536.38	55290.48
536.55	54740.45
536.72	54302.77
536.89	54220.85
537.06	54773.22
537.23	55894.33
537.40	56226.69
537.57	55976.25
537.74	55774.97
537.91	55704.75
538.08	55854.54
538.25	55671.98
538.42	55987.95
538.59	55910.72
538.75	55091.53
538.92	54831.73
539.09	54614.06
539.26	54415.11
539.43	53867.43
539.60	54213.83
539.77	54541.50
539.94	54468.95
540.11	53387.62
540.28	53008.45
540.44	53291.66
540.61	53303.36
540.78	53848.71
540.95	54347.24
541.12	54805.98
541.29	54962.80
541.46	55121.96
541.62	55208.56
541.79	55072.81
541.96	54099.14
542.13	54319.15
542.30	54621.08
542.47	54930.03
542.63	54508.74
542.80	54438.52
542.97	54677.25
543.14	54138.93
543.31	54424.48
543.48	55037.70
543.64	55833.48
543.81	56046.47
543.98	55917.74
544.15	55196.85
544.32	54714.70
544.48	54768.54
544.65	55414.52
544.82	55693.05
544.99	55009.61
545.16	54789.60
545.32	54553.21
545.49	55402.82
545.66	55819.44
545.83	55503.46
546.00	55138.34
546.16	54490.01
546.33	54609.38
546.50	54532.14
546.67	55028.34
546.83	54667.89
547.00	54724.07
547.17	53874.45
547.34	53073.99
547.50	53289.32
547.67	53862.75
547.84	53832.32
548.00	54349.58
548.17	54822.37
548.34	54452.56
548.51	54831.73
548.67	54616.40
548.84	54986.21
549.01	54747.47
549.18	54578.95
549.34	54480.65
549.51	54543.84
549.68	54492.35
549.84	54134.25
550.01	54216.17
550.18	53822.96
550.34	53923.60
550.51	54274.68
550.68	54225.53
550.84	53570.18
551.01	53853.39
551.18	53656.78
551.34	53944.67
551.51	54518.10
551.68	54710.02
551.84	54859.82
552.01	54131.91
552.18	54475.97
552.34	53556.14
552.51	53048.24
552.68	52849.30
552.84	53499.97
553.01	53787.85
553.18	53467.20
553.34	53748.06
553.51	53977.43
553.67	54223.19
553.84	54094.46
554.01	54026.59
554.17	54000.84
554.34	54096.80
554.51	54354.26
554.67	54576.61
554.84	54344.90
555.00	53961.05
555.17	53600.61
555.33	53654.44
555.50	53450.81
555.67	53776.15
555.83	53111.44
556.00	53214.42
556.16	53092.71
556.33	52615.24
556.50	52769.72
556.66	52821.21
556.83	51899.04
556.99	52226.71
557.16	52378.85
557.32	52877.38
557.49	53195.70
557.65	53179.31
557.82	53095.05
557.98	52561.41
558.15	52254.80
558.32	51220.28
558.48	50279.39
558.65	50824.73
558.81	50848.14
558.98	51334.97
559.14	51461.36
559.31	51805.42
559.47	51952.87
559.64	51084.53
559.80	50960.48
559.97	50798.99
560.13	51543.28
560.30	52605.88
560.46	53373.58
560.63	53319.74
560.79	53270.59
560.96	52945.26
561.12	51646.26
561.29	50499.40
561.45	50677.28
561.61	51334.97
561.78	51838.18
561.94	51800.74
562.11	51669.67
562.27	51110.28
562.44	51435.61
562.60	52055.85
562.77	52229.05
562.93	52236.08
563.10	52100.32
563.26	51199.22
563.42	51323.27
563.59	51157.09
563.75	50834.10
563.92	51175.81
564.08	50965.17
564.24	51433.27
564.41	51636.90
564.57	51512.85
564.74	51292.84
564.90	51381.78
565.07	50904.31
565.23	50312.16
565.39	49804.26
565.56	49785.54
565.72	49329.13
565.88	49528.08
566.05	49897.88
566.21	50244.28
566.38	50127.25
566.54	50174.06
566.70	50986.23
566.87	51180.49
567.03	51243.69
567.19	51250.71
567.36	51011.98
567.52	50878.57
567.68	50403.44
567.85	49720.00
568.01	49509.35
568.17	48928.90
568.34	48825.92
568.50	48854.00
568.66	48945.28
568.83	49485.95
568.99	49595.95
569.15	49556.16
569.32	49818.30
569.48	49319.77
569.64	49226.15
569.81	49153.59
569.97	48933.58
570.13	48652.72
570.30	48154.18
570.46	47723.52
570.62	46871.57
570.78	46740.50
570.95	46955.83
571.11	48203.33
571.27	48334.40
571.43	48512.28
571.60	48839.96
571.76	48903.15
571.92	49010.82
572.09	49612.34
572.25	49474.24
572.41	49504.67
572.57	49509.35
572.74	49289.34
572.90	48605.91
573.06	48573.14
573.22	48830.60
573.38	48818.89
573.55	48809.53
573.71	49162.95
573.87	48835.28
574.03	48884.43
574.20	48573.14
574.36	48346.11
574.52	48119.07
574.68	48051.20
574.84	47374.78
575.01	46593.04
575.17	46845.82
575.33	46763.90
575.49	47267.12
575.65	47702.46
575.82	47463.72
575.98	47100.94
576.14	47594.79
576.30	47461.38
576.46	47859.27
576.62	47728.20
576.79	47971.62
576.95	47330.31
577.11	47061.15
577.27	47276.48
577.43	47353.72
577.59	46997.96
577.75	46672.62
577.92	45720.02
578.08	45287.03
578.24	45504.70
578.40	45968.12
578.56	45991.53
578.72	46124.94
578.88	46864.55
579.04	46504.10
579.21	46796.67
579.37	46862.21
579.53	46663.26
579.69	46480.70
579.85	46969.87
580.01	46637.51
580.17	46279.41
580.33	45958.76
580.49	46483.04
580.65	46192.81
580.82	46967.53
580.98	46773.27
581.14	46754.54
581.30	46410.48
581.46	46499.42
581.62	46674.96
581.78	46670.28
581.94	46850.50
582.10	46972.21
582.26	47037.75
582.42	46749.86
582.58	46869.23
582.74	46686.67
582.90	46906.68
583.06	46834.12
583.22	46593.04
583.38	46358.99
583.54	46272.39
583.70	46267.71
583.86	46403.46
584.02	46719.43
584.18	46623.47
584.34	45902.59
584.50	45783.22
584.66	45518.74
584.82	45160.64
584.98	45373.63
585.14	44832.96
585.30	44538.05
