SpectraSuite Data File
++++++++++++++++++++++++++++++++++++
Date: Mon Oct 07 14:52:55 GMT-05:00 2013
User: price-jones
Dark Spectrum Present: No
Reference Spectrum Present: No
Number of Sampled Component Spectra: 1
Spectrometers: USB2+H05261
Integration Time (usec): 100000 (USB2+H05261)
Spectra Averaged: 1 (USB2+H05261)
Boxcar Smoothing: 0 (USB2+H05261)
Correct for Electrical Dark: No (USB2+H05261)
Strobe/Lamp Enabled: No (USB2+H05261)
Correct for Detector Non-linearity: No (USB2+H05261)
Correct for Stray Light: No (USB2+H05261)
Number of Pixels in Processed Spectrum: 2048
>>>>>Begin Processed Spectral Data<<<<<
365.73	0.00
365.92	0.00
366.12	0.00
366.32	0.00
366.52	0.00
366.72	0.00
366.91	0.00
367.11	0.00
367.31	0.00
367.51	0.00
367.70	0.00
367.90	0.00
368.10	0.00
368.30	0.00
368.49	0.00
368.69	0.00
368.89	0.00
369.09	0.00
369.28	0.00
369.48	0.00
369.68	0.00
369.87	0.00
370.07	0.00
370.27	0.00
370.47	325.33
370.66	2424.80
370.86	2785.24
371.06	2960.78
371.25	3105.89
371.45	2635.44
371.65	2380.32
371.84	2249.25
372.04	2431.82
372.24	2689.28
372.44	2843.75
372.63	2827.37
372.83	2700.98
373.03	2314.79
373.22	2057.33
373.42	2200.10
373.62	2534.80
373.81	2757.15
374.01	2708.00
374.21	2462.24
374.40	2218.83
374.60	2445.86
374.79	2719.70
374.99	3307.18
375.19	3492.08
375.38	3349.31
375.58	3236.96
375.78	3070.78
375.97	3115.25
376.17	3396.12
376.37	3375.05
376.56	3337.60
376.76	3676.98
376.95	3971.89
377.15	4156.79
377.35	4231.69
377.54	4552.34
377.74	4542.98
377.93	4652.98
378.13	4531.28
378.33	4252.75
378.52	3887.63
378.72	3721.45
378.91	3702.73
379.11	3602.08
379.31	3592.72
379.50	3318.88
379.70	3854.86
379.89	4250.41
380.09	4372.12
380.28	4608.51
380.48	4472.76
380.68	4358.08
380.87	4287.86
381.07	3985.93
381.26	3545.91
381.46	3337.60
381.65	3403.14
381.85	3335.26
382.04	3045.04
382.24	2937.37
382.43	2736.09
382.63	2700.98
382.83	2733.75
383.02	2768.85
383.22	2682.25
383.41	2785.24
383.61	2979.50
383.80	3452.29
384.00	3798.69
384.19	4208.28
384.39	4404.89
384.58	4458.72
384.78	4564.04
384.97	4454.04
385.17	4175.52
385.36	3829.12
385.56	3747.20
385.75	3960.19
385.95	4208.28
386.14	4411.91
386.34	4540.64
386.53	4320.63
386.72	4121.68
386.92	4215.30
387.11	4304.25
387.31	4540.64
387.50	4475.10
387.70	4367.44
387.89	4344.03
388.09	4337.01
388.28	4318.29
388.48	4400.21
388.67	4826.18
388.86	5146.84
389.06	5617.29
389.25	6024.54
389.45	6029.22
389.64	5954.32
389.84	5891.13
390.03	5872.40
390.22	5849.00
390.42	6040.92
390.61	6565.20
390.81	6927.99
391.00	6958.41
391.19	7052.03
391.39	6640.10
391.58	6277.32
391.78	5968.37
391.97	5617.29
392.16	5413.66
392.36	4880.02
392.55	3964.87
392.75	3073.12
392.94	2445.86
393.13	2607.36
393.33	3082.49
393.52	4037.42
393.71	4837.89
393.91	5313.02
394.10	5783.46
394.29	6298.38
394.49	6944.37
394.68	7379.71
394.88	7447.58
395.07	7688.66
395.26	7548.23
395.46	7288.43
395.65	6888.20
395.84	5975.39
396.04	5015.77
396.23	4035.08
396.42	3375.05
396.62	3375.05
396.81	3915.72
397.00	5114.07
397.19	6438.81
397.39	7349.28
397.58	8566.36
397.77	8896.38
397.97	9144.47
398.16	9242.78
398.35	9437.04
398.55	9851.31
398.74	10509.01
398.93	10438.79
399.12	10312.40
399.32	10186.01
399.51	10349.85
399.70	10619.01
399.90	10960.73
400.09	10759.44
400.28	10745.40
400.47	10883.49
400.67	11461.60
400.86	11501.39
401.05	11463.94
401.24	11407.77
401.44	12081.85
401.63	12109.93
401.82	11695.66
402.01	11758.85
402.21	12133.34
402.40	12299.52
402.59	11606.72
402.78	11124.57
402.97	11040.31
403.17	11187.76
403.36	11976.52
403.55	12594.42
403.74	12739.54
403.93	12180.15
404.13	11246.27
404.32	11070.73
404.51	11552.88
404.70	12538.25
404.89	12128.66
405.09	12166.10
405.28	11854.81
405.47	11658.21
405.66	11829.07
405.85	11494.37
406.05	11253.30
406.24	11494.37
406.43	11950.78
406.62	12273.77
406.81	12453.99
407.00	11981.20
407.20	11690.98
407.39	11800.98
407.58	12343.99
407.77	12730.17
407.96	13434.68
408.15	13568.09
408.34	13549.36
408.54	14218.75
408.73	14059.60
408.92	14003.43
409.11	13256.79
409.30	12718.47
409.49	11878.22
409.68	11279.04
409.87	10888.17
410.07	11712.04
410.26	12706.77
410.45	13425.31
410.64	13364.46
410.83	14031.51
411.02	14434.08
411.21	14909.21
411.40	14633.03
411.59	14829.63
411.78	14752.40
411.98	14565.15
412.17	15068.37
412.36	14368.55
412.55	14537.07
412.74	14183.65
412.93	13994.06
413.12	14246.84
413.31	15489.67
413.50	15756.49
413.69	15847.77
413.88	15073.05
414.07	14583.88
414.26	15213.48
414.45	15580.95
414.64	15468.60
414.83	15723.72
415.02	15257.95
415.22	15325.83
415.41	15798.62
415.60	16142.67
415.79	16805.05
415.98	17235.70
416.17	17104.64
416.36	16823.77
416.55	16561.63
416.74	15939.05
416.93	15552.86
417.12	15531.80
417.31	15697.97
417.50	16100.55
417.69	16280.77
417.88	16418.86
418.07	16329.92
418.26	16137.99
418.45	16365.03
418.64	17291.88
418.83	17472.10
419.02	17404.22
419.21	17011.01
419.39	16149.70
419.58	15290.72
419.77	15496.69
419.96	16374.39
420.15	17128.04
420.34	17434.65
420.53	18389.59
420.72	18590.88
420.91	18422.36
421.10	18146.17
421.29	18132.13
421.48	17472.10
421.67	18494.91
421.86	17642.96
422.05	16666.95
422.24	14993.47
422.43	14787.50
422.61	16594.40
422.80	17874.67
422.99	17612.53
423.18	16966.54
423.37	16573.33
423.56	16762.92
423.75	17001.65
423.94	17401.88
424.13	16257.36
424.32	16472.69
424.50	16463.33
424.69	16332.26
424.88	16720.79
425.07	16568.65
425.26	16372.05
425.45	16189.49
425.64	16205.87
425.83	15936.71
426.01	17039.10
426.20	17476.78
426.39	17228.68
426.58	15770.53
426.77	14740.69
426.96	14258.54
427.15	14899.85
427.33	16161.40
427.52	16514.82
427.71	16776.96
427.90	16404.81
428.09	16336.94
428.28	15943.73
428.46	15529.45
428.65	15367.96
428.84	16013.95
429.03	16135.65
429.22	15211.14
429.40	14331.10
429.59	13069.55
429.78	11297.77
429.97	11660.55
430.16	11597.35
430.34	11798.64
430.53	11712.04
430.72	11913.33
430.91	13540.00
431.10	15611.37
431.28	18239.79
431.47	19826.68
431.66	19882.85
431.85	18075.96
432.03	16582.70
432.22	16065.44
432.41	17015.69
432.60	18441.08
432.79	19515.39
432.97	19669.86
433.16	19124.52
433.35	17336.35
433.54	15868.83
433.72	14984.11
433.91	15648.82
434.10	17516.57
434.28	18586.19
434.47	19445.17
434.66	19307.08
434.85	18525.34
435.03	18530.02
435.22	19056.64
435.41	20025.62
435.59	20159.03
435.78	20893.96
435.97	21062.48
436.16	21214.62
436.34	20718.42
436.53	20386.07
436.72	20250.32
436.90	19117.50
437.09	19068.34
437.28	18885.78
437.46	19711.99
437.65	19496.66
437.84	18118.09
438.02	16608.44
438.21	16336.94
438.40	17483.80
438.58	19129.20
438.77	19440.49
438.96	19836.04
439.14	20482.03
439.33	20903.32
439.52	21469.73
439.70	20971.20
439.89	20336.91
440.08	20013.92
440.26	20154.35
440.45	20805.02
440.63	21891.03
440.82	23021.51
441.01	22670.43
441.19	22710.22
441.38	22815.54
441.57	23641.75
441.75	23995.17
441.94	24318.17
442.12	23793.89
442.31	24498.39
442.50	24474.98
442.68	24044.32
442.87	23775.16
443.05	23246.20
443.24	23927.30
443.43	24294.76
443.61	24372.00
443.80	24982.88
443.98	23854.74
444.17	23789.20
444.35	25172.46
444.54	25607.80
444.73	25032.03
444.91	24308.80
445.10	22855.33
445.28	22078.27
445.47	21907.41
445.65	21954.22
445.84	22677.45
446.02	23545.79
446.21	23857.08
446.39	23726.01
446.58	24034.96
446.77	24465.62
446.95	24552.22
447.14	25383.11
447.32	25811.43
447.51	25270.76
447.69	24442.21
447.88	24126.24
448.06	24463.28
448.25	25092.88
448.43	25406.52
448.62	24779.25
448.80	24376.68
448.99	25135.01
449.17	25123.31
449.36	25071.82
449.54	25909.73
449.73	26604.87
449.91	26560.40
450.10	27131.49
450.28	27559.81
450.46	27260.22
450.65	27545.76
450.83	26920.84
451.02	26625.93
451.20	26614.23
451.39	26778.07
451.57	26419.97
451.76	26661.04
451.94	26146.12
452.13	25851.22
452.31	24266.67
452.49	23508.34
452.68	23910.91
452.86	24123.90
453.05	24156.67
453.23	24673.93
453.42	25357.36
453.60	26134.42
453.78	26286.56
453.97	26012.71
454.15	25975.27
454.34	25319.92
454.52	25738.87
454.70	25390.13
454.89	25596.10
455.07	25408.86
455.26	25923.77
455.44	26932.54
455.62	27482.57
455.81	27501.29
455.99	27260.22
456.17	27281.28
456.36	27089.36
456.54	27817.27
456.73	27817.27
456.91	28453.89
457.09	28772.21
457.28	29064.77
457.46	28208.14
457.64	27625.34
457.83	26927.86
458.01	26377.84
458.19	26834.24
458.38	27255.54
458.56	28397.72
458.74	27728.33
458.93	27021.48
459.11	27054.25
459.29	27218.09
459.48	27124.47
459.66	27278.94
459.84	27721.30
460.03	27901.53
460.21	27644.07
460.39	28685.61
460.57	28435.17
460.76	29034.35
460.94	28905.62
461.12	28453.89
461.31	29350.32
461.49	28552.20
461.67	28716.03
461.85	29621.82
462.04	29263.72
462.22	29851.19
462.40	29043.71
462.59	29352.66
462.77	29385.43
462.95	29170.10
463.13	28772.21
463.32	28844.76
463.50	28278.35
463.68	28669.22
463.86	28362.61
464.05	28329.84
464.23	27562.15
464.41	27285.97
464.59	27136.17
464.78	28465.60
464.96	28271.33
465.14	28030.26
465.32	28961.79
465.50	29617.14
465.69	29848.85
465.87	28936.04
466.05	28308.78
466.23	26969.99
466.41	26450.39
466.60	27475.55
466.78	27089.36
466.96	27522.36
467.14	28364.95
467.32	28872.85
467.51	28903.28
467.69	27395.97
467.87	27957.70
468.05	28613.05
468.23	28198.77
468.41	28257.29
468.60	28280.69
468.78	28926.68
468.96	28077.07
469.14	29301.17
469.32	29146.69
469.50	28350.91
469.69	27784.50
469.87	27562.15
470.05	27515.34
470.23	27360.86
470.41	27168.94
470.59	28381.34
470.77	28020.89
470.95	28652.84
471.14	28985.19
471.32	29198.18
471.50	30628.25
471.68	30995.71
471.86	31105.72
472.04	31236.79
472.22	31395.95
472.40	29701.40
472.58	29441.60
472.77	29338.62
472.95	30279.51
473.13	30616.55
473.31	29865.24
473.49	30242.06
473.67	30628.25
473.85	30756.98
474.03	31353.82
474.21	31445.10
474.39	31950.65
474.57	31826.60
474.75	32299.39
474.93	31864.05
475.12	31232.11
475.30	31112.74
475.48	31452.12
475.66	31859.37
475.84	31571.49
476.02	31129.12
476.20	30684.42
476.38	31625.32
476.56	32570.90
476.74	32795.59
476.92	32959.42
477.10	33612.43
477.28	34213.95
477.46	34291.19
477.64	34658.65
477.82	34660.99
478.00	35147.82
478.18	34211.61
478.36	34316.93
478.54	34288.85
478.72	34396.51
478.90	35377.20
479.08	36512.36
479.26	37015.57
479.44	36320.43
479.62	36659.81
479.80	36708.96
479.98	36741.73
480.16	36849.39
480.34	36238.51
480.52	37109.19
480.70	36634.06
480.88	37092.81
481.06	37984.55
481.24	38092.22
481.41	39388.88
481.59	39323.34
481.77	39414.62
481.95	38445.64
482.13	38361.38
482.31	38494.79
482.49	39536.33
482.67	39068.22
482.85	39459.09
483.03	40013.80
483.21	40905.54
483.39	40343.81
483.57	39789.11
483.74	39636.97
483.92	39447.39
484.10	39746.98
484.28	40512.33
484.46	41174.70
484.64	41350.24
484.82	40439.78
485.00	40144.87
485.18	39655.70
485.35	38295.85
485.53	35189.95
485.71	32252.58
485.89	32383.65
486.07	33577.33
486.25	36723.01
486.43	38684.37
486.61	39695.49
486.78	38726.50
486.96	39283.55
487.14	41134.92
487.32	42190.50
487.50	43054.15
487.68	43931.86
487.85	44484.22
488.03	44645.72
488.21	44130.80
488.39	43702.48
488.57	42492.43
488.75	41858.14
488.92	43590.14
489.10	46117.92
489.28	47529.26
489.46	48065.24
489.64	48002.05
489.81	48184.61
489.99	47512.88
490.17	47592.45
490.35	48327.38
490.53	48149.50
490.70	47601.82
490.88	47395.85
491.06	48069.92
491.24	47971.62
491.41	47356.06
491.59	45010.84
491.77	44329.75
491.95	45511.72
492.13	46955.83
492.30	48603.56
492.48	49806.60
492.66	50064.06
492.84	49844.05
493.01	50185.77
493.19	49020.18
493.37	48708.89
493.54	48303.98
493.72	49401.69
493.90	50806.01
494.08	51452.00
494.25	51608.81
494.43	51833.50
494.61	52495.88
494.79	52292.25
494.96	52128.41
495.14	51145.39
495.32	50705.37
495.49	50003.20
495.67	50852.82
495.85	52554.39
496.02	53099.73
496.20	52982.71
496.38	52437.36
496.55	52332.04
496.73	52638.65
496.91	52823.55
497.09	53577.20
497.26	53572.52
497.44	53212.08
497.62	52446.72
497.79	51487.10
497.97	50085.12
498.14	50433.86
498.32	51664.99
498.50	52699.50
498.67	53286.98
498.85	53137.18
499.03	53317.40
499.20	53932.96
499.38	53577.20
499.56	53317.40
499.73	52884.40
499.91	52353.10
500.08	51543.28
500.26	51178.15
500.44	51814.78
500.61	52617.58
500.79	52163.52
500.97	51798.40
501.14	51594.77
501.32	51482.42
501.49	51693.07
501.67	52053.51
501.84	52587.16
502.02	52559.07
502.20	53195.70
502.37	53113.78
502.55	53200.38
502.72	53998.50
502.90	54337.88
503.07	53734.02
503.25	53642.74
503.43	52538.01
503.60	51922.44
503.78	51231.99
503.95	51566.68
504.13	53181.65
504.30	54096.80
504.48	54049.99
504.65	53563.16
504.83	53687.21
505.01	54501.71
505.18	54688.96
505.36	55487.08
505.53	55348.99
505.71	55789.01
505.88	55367.71
506.06	54920.67
506.23	54773.22
506.41	54197.44
506.58	54569.59
506.76	54511.08
506.93	54380.01
507.11	54176.38
507.28	54260.64
507.46	53694.23
507.63	53043.56
507.81	53144.20
507.98	53167.61
508.16	54162.34
508.33	54688.96
508.50	54937.05
508.68	55320.90
508.85	55927.10
509.03	55746.88
509.20	55695.39
509.38	54761.51
509.55	54113.19
509.73	54354.26
509.90	54766.20
510.08	54972.16
510.25	54876.20
510.42	54805.98
510.60	54651.51
510.77	55079.83
510.95	55524.53
511.12	55660.28
511.30	56060.51
511.47	56488.83
511.64	56367.12
511.82	55683.69
511.99	54958.12
512.17	54518.10
512.34	54195.10
512.51	54394.05
512.69	54639.81
512.86	54703.00
513.04	55133.66
513.21	55288.13
513.38	54829.39
513.56	54412.77
513.73	53460.18
513.90	53972.75
514.08	53719.98
514.25	54209.15
514.43	54588.31
514.60	54529.80
514.77	54726.41
514.95	54688.96
515.12	54754.49
515.29	54925.35
515.47	55407.50
515.64	55550.27
515.81	55150.04
515.99	54454.90
516.16	52954.62
516.33	50223.22
516.51	48760.38
516.68	47442.66
516.85	46883.27
517.03	48030.13
517.20	51285.82
517.37	54033.61
517.54	54937.05
517.72	54204.47
517.89	51236.67
518.06	48624.63
518.24	49710.64
518.41	51812.44
518.58	53422.73
518.75	53420.39
518.93	53757.42
519.10	53872.11
519.27	54024.25
519.45	54475.97
519.62	55208.56
519.79	55372.39
519.96	55260.05
520.14	54768.54
520.31	53741.04
520.48	53888.49
520.65	54473.63
520.83	55351.33
521.00	55767.94
521.17	55409.84
521.34	54843.43
521.52	55437.93
521.69	55810.07
521.86	56353.08
522.03	55800.71
522.20	54766.20
522.38	53588.91
522.55	53612.31
522.72	54351.92
522.89	54328.52
523.07	54574.27
523.24	54983.86
523.41	56053.49
523.58	56268.82
523.75	56748.63
523.92	56423.29
524.10	56589.47
524.27	56193.92
524.44	56027.74
524.61	56048.81
524.78	55924.76
524.96	55721.13
525.13	55929.44
525.30	56250.09
525.47	56685.43
525.64	56420.95
525.81	55571.34
525.98	53804.24
526.16	52472.47
526.33	51660.30
526.50	51133.68
526.67	51173.47
526.84	51934.15
527.01	52844.62
527.18	53748.06
527.36	54815.35
527.53	55695.39
527.70	55913.06
527.87	55377.08
528.04	54838.75
528.21	55627.51
528.38	56200.94
528.55	56882.04
528.72	56846.93
528.89	57226.10
529.07	56985.02
529.24	56086.26
529.41	55636.87
529.58	54693.64
529.75	54955.78
529.92	55395.80
530.09	55957.53
530.26	56638.62
530.43	56825.87
530.60	56725.22
530.77	56978.00
530.94	56961.62
531.11	56629.26
531.28	56285.20
531.46	56023.06
531.63	56390.53
531.80	55994.98
531.97	55552.62
532.14	55014.29
532.31	53734.02
532.48	53102.07
532.65	52797.80
532.82	54237.23
532.99	55203.88
533.16	55533.89
533.33	56142.43
533.50	55992.64
533.67	55330.26
533.84	54986.21
534.01	55379.42
534.18	55295.16
534.35	55622.83
534.52	55365.37
534.69	55498.78
534.86	56041.79
535.03	56018.38
535.20	56809.48
535.37	57144.18
535.54	57095.03
535.71	56629.26
535.88	56348.40
536.05	55592.40
536.22	55484.74
536.38	54831.73
536.55	54258.30
536.72	53893.18
536.89	53759.76
537.06	54822.37
537.23	55938.80
537.40	56030.08
537.57	55533.89
537.74	55601.77
537.91	55571.34
538.08	55669.64
538.25	55880.29
538.42	56032.42
538.59	55763.26
538.75	54857.48
538.92	54780.24
539.09	54703.00
539.26	54160.00
539.43	54370.64
539.60	54347.24
539.77	54461.93
539.94	54473.63
540.11	53460.18
540.28	52870.36
540.44	53193.36
540.61	53371.24
540.78	53771.47
540.95	54255.96
541.12	54674.91
541.29	54749.81
541.46	55037.70
541.62	55285.79
541.79	54749.81
541.96	54384.69
542.13	54382.35
542.30	54642.15
542.47	55150.04
542.63	54480.65
542.80	54541.50
542.97	54761.51
543.14	54209.15
543.31	54475.97
543.48	54894.92
543.64	55945.83
543.81	56030.08
543.98	55789.01
544.15	55168.77
544.32	54698.32
544.48	54798.96
544.65	55297.50
544.82	55543.25
544.99	55161.75
545.16	54728.75
545.32	54384.69
545.49	55512.83
545.66	55990.30
545.83	55201.53
546.00	55007.27
546.16	54284.04
546.33	54656.19
546.50	54712.36
546.67	54939.39
546.83	54663.21
547.00	54733.43
547.17	53881.47
547.34	53310.38
547.50	53511.67
547.67	54124.89
547.84	53762.11
548.00	54567.25
548.17	54808.32
548.34	54752.15
548.51	54834.07
548.67	54869.18
548.84	54703.00
549.01	54693.64
549.18	54632.78
549.34	54560.23
549.51	54724.07
549.68	54525.12
549.84	54024.25
550.01	54141.27
550.18	54035.95
550.34	54141.27
550.51	54005.52
550.68	54300.43
550.84	53771.47
551.01	53764.45
551.18	53984.46
551.34	54017.22
551.51	54497.03
551.68	54862.16
551.84	54712.36
552.01	54433.84
552.18	54241.92
552.34	53457.84
552.51	53272.93
552.68	53162.93
552.84	53790.19
553.01	53785.51
553.18	53729.34
553.34	53701.25
553.51	54380.01
553.67	54248.94
553.84	54459.58
554.01	54358.94
554.17	54181.06
554.34	54272.34
554.51	54604.70
554.67	54784.92
554.84	54480.65
555.00	54157.66
555.17	53748.06
555.33	53954.03
555.50	53598.27
555.67	53738.70
555.83	53682.53
556.00	53258.89
556.16	53181.65
556.33	52938.24
556.50	52694.82
556.66	52699.50
556.83	52573.11
556.99	52746.31
557.16	52711.20
557.32	52938.24
557.49	53380.60
557.65	53282.30
557.82	53120.80
557.98	53038.88
558.15	52411.62
558.32	51657.96
558.48	50724.09
558.65	51014.32
558.81	51173.47
558.98	51742.22
559.14	51779.67
559.31	51861.59
559.47	52156.50
559.64	51489.45
559.80	51133.68
559.97	51344.33
560.13	52034.79
560.30	52743.97
560.46	53357.19
560.63	53549.12
560.79	53427.41
560.96	53078.67
561.12	51732.86
561.29	50688.98
561.45	51145.39
561.61	51894.36
561.78	52210.33
561.94	52205.65
562.11	51777.33
562.27	51978.62
562.44	51978.62
562.60	52362.46
562.77	52680.78
562.93	52940.58
563.10	52605.88
563.26	52086.28
563.42	51662.64
563.59	51758.61
563.75	51758.61
563.92	51482.42
564.08	51627.54
564.24	52100.32
564.41	52348.42
564.57	51976.28
564.74	51807.76
564.90	51522.21
565.07	51393.48
565.23	51194.54
565.39	50162.36
565.56	50178.75
565.72	49553.82
565.88	50335.56
566.05	50281.73
566.21	50466.63
566.38	50759.20
566.54	50841.12
566.70	51154.75
566.87	51835.84
567.03	51629.88
567.19	51868.61
567.36	51779.67
567.52	51358.38
567.68	50990.91
567.85	50014.91
568.01	49680.21
568.17	49350.20
568.34	49757.45
568.50	49499.99
568.66	49628.72
568.83	50099.17
568.99	50010.23
569.15	50555.57
569.32	50293.43
569.48	49745.75
569.64	49666.17
569.81	49357.22
569.97	49179.34
570.13	49146.57
570.30	48666.76
570.46	48273.55
570.62	47405.21
570.78	47487.13
570.95	47896.72
571.11	48638.67
571.27	48900.81
571.43	49361.90
571.60	49790.22
571.76	49769.15
571.92	50333.22
572.09	50349.60
572.25	50316.84
572.41	50438.54
572.57	50272.37
572.74	49972.78
572.90	49308.07
573.06	49359.56
573.22	49429.77
573.38	49492.97
573.55	49595.95
573.71	49485.95
573.87	49766.81
574.03	49497.65
574.20	49099.76
574.36	48802.51
574.52	48500.58
574.68	48591.86
574.84	47789.06
575.01	47320.95
575.17	47793.74
575.33	47604.16
575.49	48406.96
575.65	48509.94
575.82	47997.37
575.98	47908.43
576.14	47913.11
576.30	48449.09
576.46	48921.88
576.62	48832.94
576.79	48210.35
576.95	47814.80
577.11	48105.03
577.27	47842.89
577.43	48102.69
577.59	47210.95
577.75	47004.98
577.92	46450.27
578.08	46485.38
578.24	45935.35
578.40	46583.68
578.56	47297.55
578.72	47199.24
578.88	47344.36
579.04	47482.45
579.21	47583.09
579.37	47749.27
579.53	47978.64
579.69	47522.24
579.85	47856.93
580.01	47583.09
580.17	47138.39
580.33	46766.24
580.49	47192.22
580.65	47723.52
580.82	48109.71
580.98	47360.74
581.14	47290.52
581.30	47779.70
581.46	47292.86
581.62	47491.81
581.78	47599.47
581.94	47793.74
582.10	48292.27
582.26	47966.94
582.42	48023.11
582.58	48224.40
582.74	48065.24
582.90	48123.75
583.06	48062.90
583.22	47662.67
583.38	47463.72
583.54	47529.26
583.70	47414.57
583.86	47662.67
584.02	47065.83
584.18	47210.95
584.34	47395.85
584.50	47613.52
584.66	46794.33
584.82	46719.43
584.98	46188.13
585.14	45762.15
585.30	45191.06
