SpectraSuite Data File
++++++++++++++++++++++++++++++++++++
Date: Mon Oct 07 14:53:16 GMT-05:00 2013
User: price-jones
Dark Spectrum Present: No
Reference Spectrum Present: No
Number of Sampled Component Spectra: 1
Spectrometers: USB2+H05261
Integration Time (usec): 100000 (USB2+H05261)
Spectra Averaged: 1 (USB2+H05261)
Boxcar Smoothing: 0 (USB2+H05261)
Correct for Electrical Dark: No (USB2+H05261)
Strobe/Lamp Enabled: No (USB2+H05261)
Correct for Detector Non-linearity: No (USB2+H05261)
Correct for Stray Light: No (USB2+H05261)
Number of Pixels in Processed Spectrum: 2048
>>>>>Begin Processed Spectral Data<<<<<
365.73	0.00
365.92	0.00
366.12	0.00
366.32	0.00
366.52	0.00
366.72	0.00
366.91	0.00
367.11	0.00
367.31	0.00
367.51	0.00
367.70	0.00
367.90	0.00
368.10	0.00
368.30	0.00
368.49	0.00
368.69	0.00
368.89	0.00
369.09	0.00
369.28	0.00
369.48	0.00
369.68	0.00
369.87	0.00
370.07	0.00
370.27	0.00
370.47	800.46
370.66	3669.96
370.86	4528.94
371.06	4753.63
371.25	4865.97
371.45	4372.12
371.65	3913.38
371.84	3651.24
372.04	3798.69
372.24	4280.84
372.44	4451.70
372.63	4400.21
372.83	4194.24
373.03	3714.43
373.22	3487.40
373.42	3510.80
373.62	4194.24
373.81	4479.79
374.01	4369.78
374.21	3971.89
374.40	3609.11
374.60	3843.16
374.79	4414.25
374.99	5071.94
375.19	5493.24
375.38	5282.59
375.58	5093.01
375.78	4950.23
375.97	5034.49
376.17	5380.89
376.37	5231.10
376.56	5451.11
376.76	5753.04
376.95	6370.94
377.15	6581.59
377.35	6801.60
377.54	7063.74
377.74	7145.66
377.93	7220.55
378.13	7049.69
378.33	6520.73
378.52	6181.35
378.72	5912.19
378.91	5694.52
379.11	5614.95
379.31	5434.72
379.50	5413.66
379.70	5877.09
379.89	6548.82
380.09	6967.77
380.28	6935.01
380.48	6988.84
380.68	6970.12
380.87	6754.79
381.07	6291.36
381.26	5643.03
381.46	5401.96
381.65	5322.38
381.85	5179.61
382.04	4994.70
382.24	4475.10
382.43	4329.99
382.63	4126.36
382.83	4337.01
383.02	4329.99
383.22	4280.84
383.41	4241.05
383.61	4706.82
383.80	5170.24
384.00	5980.07
384.19	6768.83
384.39	6857.77
384.58	6930.33
384.78	6834.36
384.97	6780.53
385.17	6282.00
385.36	6136.88
385.56	6047.94
385.75	5991.77
385.95	6665.85
386.14	7204.17
386.34	6881.18
386.53	6782.87
386.72	6473.92
386.92	6539.46
387.11	6792.23
387.31	7218.21
387.50	7066.08
387.70	6771.17
387.89	6815.64
388.09	6691.59
388.28	6916.28
388.48	6923.30
388.67	7351.62
388.86	8119.32
389.06	8514.87
389.25	9067.24
389.45	9280.22
389.64	9121.07
389.84	8961.91
390.03	8926.80
390.22	9224.05
390.42	9249.80
390.61	9909.83
390.81	10401.34
391.00	10799.23
391.19	10347.51
391.39	10218.78
391.58	9521.30
391.78	9011.06
391.97	8894.04
392.16	8484.44
392.36	7513.12
392.55	5930.92
392.75	4704.48
392.94	3957.85
393.13	4044.45
393.33	4645.96
393.52	5959.00
393.71	7342.26
393.91	8095.91
394.10	8610.83
394.29	9472.15
394.49	10307.72
394.68	11398.41
394.88	11248.61
395.07	11815.02
395.26	11449.90
395.46	11073.07
395.65	10366.23
395.84	9158.52
396.04	7683.98
396.23	6218.80
396.42	5273.23
396.62	5121.09
396.81	6059.65
397.00	7639.51
397.19	9706.20
397.39	11269.68
397.58	12664.64
397.77	13640.64
397.97	13956.61
398.16	14249.18
398.35	14733.67
398.55	14906.87
398.74	15508.39
398.93	15873.51
399.12	15758.83
399.32	15344.55
399.51	15623.08
399.70	16252.68
399.90	16416.52
400.09	16421.20
400.28	16184.80
400.47	16386.09
400.67	17312.94
400.86	17642.96
401.05	17474.44
401.24	17755.30
401.44	18071.28
401.63	17958.93
401.82	18080.64
402.01	18066.60
402.21	18293.63
402.40	18506.62
402.59	18005.74
402.78	17116.34
402.97	16475.03
403.17	17193.58
403.36	18567.47
403.55	18965.36
403.74	19393.68
403.93	18331.08
404.13	16840.15
404.32	16893.99
404.51	17603.17
404.70	18590.88
404.89	18883.44
405.09	18473.85
405.28	17750.62
405.47	18092.34
405.66	17928.50
405.85	17270.81
406.05	16987.61
406.24	17137.40
406.43	18008.08
406.62	18560.45
406.81	18700.88
407.00	18090.00
407.20	17383.16
407.39	17706.15
407.58	18979.40
407.77	19346.87
407.96	20060.73
408.15	20025.62
408.34	20400.11
408.54	21128.02
408.73	21429.94
408.92	21156.10
409.11	20266.70
409.30	19452.19
409.49	18090.00
409.68	16975.91
409.87	16306.51
410.07	17495.50
410.26	19178.35
410.45	20245.63
410.64	20702.04
410.83	21699.11
411.02	21797.41
411.21	22143.81
411.40	22277.22
411.59	22207.00
411.78	22389.56
411.98	21977.63
412.17	22515.95
412.36	22181.26
412.55	22359.14
412.74	21556.33
412.93	20917.37
413.12	21458.03
413.31	23498.98
413.50	23496.64
413.69	23985.81
413.88	22972.36
414.07	22192.96
414.26	22534.68
414.45	23489.62
414.64	23655.79
414.83	23681.54
415.02	22923.21
415.22	23000.44
415.41	23463.87
415.60	24416.47
415.79	25322.26
415.98	25827.81
416.17	26005.69
416.36	25254.38
416.55	24690.31
416.74	24184.76
416.93	23274.29
417.12	23178.33
417.31	23751.76
417.50	24177.73
417.69	24769.89
417.88	24657.54
418.07	24915.00
418.26	24643.50
418.45	24706.70
418.64	25261.40
418.83	25827.81
419.02	25781.00
419.21	25701.42
419.39	24526.47
419.58	23667.50
419.77	23227.48
419.96	24769.89
420.15	25872.28
420.34	26462.10
420.53	27569.17
420.72	27997.49
420.91	27536.40
421.10	27431.08
421.29	27311.71
421.48	26354.43
421.67	27597.26
421.86	26478.48
422.05	24891.60
422.24	22532.34
422.43	22228.07
422.61	24638.82
422.80	26291.24
422.99	26890.41
423.18	25530.56
423.37	25294.17
423.56	25245.02
423.75	25851.22
423.94	26178.89
424.13	24716.06
424.32	24830.74
424.50	24910.32
424.69	24631.80
424.88	24919.68
425.07	24924.36
425.26	24645.84
425.45	24746.48
425.64	23669.84
425.83	24383.70
426.01	25816.11
426.20	26267.83
426.39	25560.99
426.58	23934.32
426.77	22197.64
426.96	21591.44
427.15	22192.96
427.33	24482.00
427.52	25158.42
427.71	25055.43
427.90	24938.41
428.09	24680.95
428.28	24049.00
428.46	23454.51
428.65	22813.20
428.84	23716.65
429.03	23962.40
429.22	22611.92
429.40	21795.07
429.59	19344.53
429.78	17116.34
429.97	17521.25
430.16	17427.63
430.34	17486.14
430.53	17612.53
430.72	18211.71
430.91	20032.65
431.10	23627.71
431.28	27559.81
431.47	29738.85
431.66	29905.02
431.85	27288.31
432.03	24999.26
432.22	24482.00
432.41	25317.57
432.60	28402.40
432.79	28601.35
432.97	29685.01
433.16	29132.65
433.35	26548.70
433.54	23658.14
433.72	22611.92
433.91	23314.08
434.10	25734.19
434.28	27587.89
434.47	29062.43
434.66	28617.73
434.85	28046.64
435.03	27798.54
435.22	28484.32
435.41	30527.61
435.59	30225.68
435.78	30637.61
435.97	31433.39
436.16	31824.26
436.34	31349.14
436.53	30625.91
436.72	30579.10
436.90	28929.02
437.09	28985.19
437.28	28177.71
437.46	29383.09
437.65	29214.57
437.84	27175.96
438.02	25013.31
438.21	25228.63
438.40	26607.21
438.58	28332.18
438.77	29584.37
438.96	29816.08
439.14	31318.71
439.33	31594.89
439.52	31915.54
439.70	31276.58
439.89	30721.87
440.08	29970.56
440.26	29902.68
440.45	30838.90
440.63	33273.06
440.82	34525.24
441.01	33867.55
441.19	33579.67
441.38	34415.24
441.57	35676.79
441.75	35854.67
441.94	36187.02
442.12	35847.64
442.31	36514.70
442.50	36591.94
442.68	35983.40
442.87	35798.49
443.05	34885.68
443.24	35864.03
443.43	36472.57
443.61	37317.50
443.80	37390.06
443.98	35777.43
444.17	35634.66
444.35	37254.31
444.54	38246.69
444.73	37563.26
444.91	35983.40
445.10	34792.06
445.28	33383.06
445.47	32519.40
445.65	33163.05
445.84	33977.56
446.02	34862.28
446.21	35653.38
446.39	35707.21
446.58	36191.70
446.77	36542.78
446.95	37270.69
447.14	38305.21
447.32	38923.11
447.51	37865.19
447.69	36374.27
447.88	36093.40
448.06	36629.38
448.25	37057.70
448.43	37895.61
448.62	36779.18
448.80	36636.41
448.99	37123.24
449.17	37448.57
449.36	37361.97
449.54	38714.80
449.73	39161.84
449.91	39669.74
450.10	40779.15
450.28	41015.55
450.46	40758.09
450.65	40694.89
450.83	40570.85
451.02	39833.58
451.20	40009.12
451.39	39625.27
451.57	39456.75
451.76	39196.95
451.94	38920.77
452.13	38422.23
452.31	36751.09
452.49	34902.07
452.68	35754.02
452.86	36088.72
453.05	35945.95
453.23	37427.51
453.42	38405.85
453.60	38981.62
453.78	38953.54
453.97	39068.22
454.15	38604.80
454.34	37865.19
454.52	38494.79
454.70	37518.79
454.89	38213.93
455.07	38136.69
455.26	39136.10
455.44	39962.31
455.62	40467.86
455.81	40797.88
455.99	40657.45
456.17	40179.98
456.36	40137.85
456.54	41656.85
456.73	41375.99
456.91	41954.10
457.09	42476.04
457.28	43143.09
457.46	41544.51
457.64	41326.84
457.83	40311.05
458.01	38768.63
458.19	40264.24
458.38	40268.92
458.56	42169.43
458.74	41701.32
458.93	40865.75
459.11	40790.86
459.29	40460.84
459.48	40971.08
459.66	40460.84
459.84	40917.25
460.03	41375.99
460.21	41291.73
460.39	42089.85
460.57	42504.13
460.76	42937.13
460.94	42958.19
461.12	42534.56
461.31	42679.67
461.49	42525.19
461.67	42368.38
461.85	43880.36
462.04	43487.15
462.22	43915.47
462.40	43372.47
462.59	43419.28
462.77	43707.16
462.95	43489.49
463.13	43138.41
463.32	42705.41
463.50	42298.16
463.68	42614.13
463.86	42527.53
464.05	42071.13
464.23	41048.32
464.41	40807.24
464.59	40624.68
464.78	42244.33
464.96	41860.48
465.14	41572.60
465.32	42597.75
465.50	44065.27
465.69	44201.02
465.87	43480.13
466.05	42176.45
466.23	40128.48
466.41	39482.50
466.60	41031.93
466.78	40903.20
466.96	41216.83
467.14	42216.24
467.32	42405.83
467.51	42775.63
467.69	40914.90
467.87	41460.25
468.05	42377.74
468.23	42314.55
468.41	42251.35
468.60	42036.02
468.78	42576.69
468.96	42277.10
469.14	43250.76
469.32	43543.33
469.50	41663.88
469.69	42017.30
469.87	40900.86
470.05	40989.80
470.23	41413.44
470.41	41296.41
470.59	41825.37
470.77	41745.80
470.95	42684.35
471.14	43672.06
471.32	43220.33
471.50	45380.65
471.68	45663.85
471.86	46089.83
472.04	46216.22
472.22	46050.04
472.40	44030.16
472.58	44219.74
472.77	43243.74
472.95	44971.05
473.13	45165.32
473.31	43973.98
473.49	44219.74
473.67	45333.84
473.85	45333.84
474.03	46550.91
474.21	46579.00
474.39	47292.86
474.57	47276.48
474.75	47232.01
474.93	46590.70
475.12	45935.35
475.30	45904.93
475.48	46199.83
475.66	47082.22
475.84	46258.35
476.02	46160.05
476.20	45172.34
476.38	46110.89
476.56	47344.36
476.74	48009.07
476.92	47978.64
477.10	48641.01
477.28	49602.97
477.46	49684.89
477.64	50099.17
477.82	50124.91
478.00	50473.65
478.18	49748.09
478.36	49485.95
478.54	49504.67
478.72	50251.30
478.90	50817.71
479.08	51906.06
479.26	52317.99
479.44	51934.15
479.62	51604.13
479.80	51742.22
479.98	51873.29
480.16	52095.64
480.34	51831.16
480.52	52105.01
480.70	52493.54
480.88	52175.22
481.06	53031.86
481.24	53261.23
481.41	53998.50
481.59	54239.57
481.77	54066.38
481.95	53691.89
482.13	53595.93
482.31	53471.88
482.49	54127.23
482.67	54028.93
482.85	54227.87
483.03	54815.35
483.21	54728.75
483.39	54810.67
483.57	54461.93
483.74	54017.22
483.92	54515.76
484.10	54403.41
484.28	55159.41
484.46	55442.61
484.64	55714.11
484.82	54932.37
485.00	54990.89
485.18	54625.76
485.35	53130.16
485.53	50529.83
485.71	47372.44
485.89	46822.42
486.07	49102.10
486.25	51767.97
486.43	53593.59
486.61	54188.08
486.78	54342.56
486.96	54096.80
487.14	55393.46
487.32	56189.24
487.50	56767.35
487.68	57530.37
487.85	57675.48
488.03	57616.97
488.21	57478.88
488.39	57066.94
488.57	56416.27
488.75	56207.97
488.92	56973.32
489.10	58740.42
489.28	59711.75
489.46	60336.67
489.64	59957.50
489.81	60025.38
489.99	60055.81
490.17	59861.54
490.35	60423.27
490.53	59817.07
490.70	59578.34
490.88	59634.51
491.06	60346.03
491.24	60350.71
491.41	59587.70
491.59	58272.32
491.77	57645.05
491.95	58422.11
492.13	59480.03
492.30	60353.05
492.48	61080.96
492.66	61553.75
492.84	61621.62
493.01	61286.93
493.19	60912.44
493.37	60540.30
493.54	60542.64
493.72	61116.07
493.90	61841.63
494.08	62384.64
494.25	62574.22
494.43	62742.74
494.61	63180.42
494.79	63210.85
494.96	62981.48
495.14	62347.19
495.32	61570.13
495.49	61359.48
495.67	62017.17
495.85	63407.45
496.02	63601.72
496.20	63367.66
496.38	63004.88
496.55	62794.23
496.73	63402.77
496.91	63468.31
497.09	64004.29
497.26	64168.13
497.44	63461.29
497.62	63145.31
497.79	62403.36
497.97	61476.51
498.14	61595.88
498.32	62733.38
498.50	63381.71
498.67	63838.11
498.85	63854.50
499.03	63910.67
499.20	64147.06
499.38	64296.86
499.56	63760.87
499.73	63447.24
499.91	63147.65
500.08	62857.43
500.26	62136.54
500.44	62637.42
500.61	63140.63
500.79	62986.16
500.97	62810.62
501.14	62691.25
501.32	62445.49
501.49	62468.90
501.67	62602.31
501.84	63135.95
502.02	63313.83
502.20	63632.14
502.37	63770.24
502.55	63770.24
502.72	64334.31
502.90	64598.79
503.07	64294.52
503.25	63959.82
503.43	63388.73
503.60	62841.04
503.78	62075.69
503.95	62852.75
504.13	63908.33
504.30	64636.23
504.48	64559.00
504.65	64020.67
504.83	64165.79
505.01	64542.61
505.18	64856.24
505.36	65375.84
505.53	65424.99
505.71	65535.00
505.88	65535.00
506.06	65139.45
506.23	64954.55
506.41	64446.65
506.58	64786.03
506.76	64608.15
506.93	64575.38
507.11	64685.39
507.28	64697.09
507.46	64231.32
507.63	63800.66
507.81	63655.55
507.98	63929.39
508.16	64561.34
508.33	65083.28
508.50	65055.19
508.68	65415.63
508.85	65535.00
509.03	65535.00
509.20	65535.00
509.38	65118.38
509.55	64432.61
509.73	64781.35
509.90	64893.69
510.08	65350.10
510.25	65085.62
510.42	64970.93
510.60	64811.77
510.77	65148.81
510.95	65535.00
511.12	65535.00
511.30	65535.00
511.47	65535.00
511.64	65535.00
511.82	65535.00
511.99	65151.15
512.17	64984.97
512.34	64584.74
512.51	65010.72
512.69	64970.93
512.86	65017.74
513.04	65289.24
513.21	65385.21
513.38	64898.37
513.56	64484.10
513.73	64048.76
513.90	64154.08
514.08	64214.94
514.25	64802.41
514.43	64928.80
514.60	64678.36
514.77	64966.25
514.95	65003.70
515.12	64926.46
515.29	65167.54
515.47	65535.00
515.64	65535.00
515.81	65535.00
515.99	64839.86
516.16	63671.93
516.33	61712.91
516.51	60748.60
516.68	60023.04
516.85	59707.07
517.03	60172.83
517.20	62361.23
517.37	64317.92
517.54	65017.74
517.72	64636.23
517.89	62637.42
518.06	60734.56
518.24	61207.35
518.41	62742.74
518.58	63910.67
518.75	64044.08
518.93	64252.39
519.10	64058.12
519.27	64643.26
519.45	64802.41
519.62	65448.40
519.79	65535.00
519.96	65506.91
520.14	65045.83
520.31	64163.45
520.48	64369.41
520.65	64647.94
520.83	65525.64
521.00	65535.00
521.17	65415.63
521.34	65176.90
521.52	65535.00
521.69	65535.00
521.86	65535.00
522.03	65535.00
522.20	64994.34
522.38	63969.18
522.55	64191.53
522.72	64661.98
522.89	64844.54
523.07	64881.99
523.24	65310.31
523.41	65535.00
523.58	65535.00
523.75	65535.00
523.92	65535.00
524.10	65535.00
524.27	65535.00
524.44	65535.00
524.61	65535.00
524.78	65535.00
524.96	65535.00
525.13	65535.00
525.30	65535.00
525.47	65535.00
525.64	65535.00
525.81	65535.00
525.98	64633.89
526.16	63344.26
526.33	62878.49
526.50	62475.92
526.67	62253.57
526.84	62859.77
527.01	63564.27
527.18	64308.56
527.36	65069.23
527.53	65535.00
527.70	65535.00
527.87	65535.00
528.04	65132.43
528.21	65535.00
528.38	65535.00
528.55	65535.00
528.72	65535.00
528.89	65535.00
529.07	65535.00
529.24	65535.00
529.41	65535.00
529.58	65078.60
529.75	65174.56
529.92	65535.00
530.09	65535.00
530.26	65535.00
530.43	65535.00
530.60	65535.00
530.77	65535.00
530.94	65535.00
531.11	65535.00
531.28	65535.00
531.46	65535.00
531.63	65535.00
531.80	65535.00
531.97	65535.00
532.14	65055.19
532.31	64264.09
532.48	63674.27
532.65	63903.65
532.82	64523.89
532.99	65322.01
533.16	65535.00
533.33	65535.00
533.50	65535.00
533.67	65535.00
533.84	64987.31
534.01	65307.97
534.18	65408.61
534.35	65535.00
534.52	65375.84
534.69	65535.00
534.86	65535.00
535.03	65535.00
535.20	65535.00
535.37	65535.00
535.54	65535.00
535.71	65535.00
535.88	65535.00
536.05	65535.00
536.22	65535.00
536.38	65153.49
536.55	64942.84
536.72	64474.74
536.89	64413.88
537.06	65167.54
537.23	65535.00
537.40	65535.00
537.57	65535.00
537.74	65535.00
537.91	65535.00
538.08	65535.00
538.25	65535.00
538.42	65535.00
538.59	65535.00
538.75	65272.86
538.92	65013.06
539.09	64975.61
539.26	64849.22
539.43	64622.19
539.60	64713.47
539.77	64919.44
539.94	64750.92
540.11	64165.79
540.28	63566.61
540.44	63758.53
540.61	64018.33
540.78	64212.60
540.95	64570.70
541.12	64938.16
541.29	65130.09
541.46	65345.42
541.62	65408.61
541.79	65272.86
541.96	64889.01
542.13	64870.29
542.30	65113.70
542.47	65233.07
542.63	65006.04
542.80	64893.69
542.97	64984.97
543.14	64816.46
543.31	64938.16
543.48	65247.11
543.64	65535.00
543.81	65535.00
543.98	65535.00
544.15	65415.63
544.32	64961.57
544.48	64858.59
544.65	65535.00
544.82	65535.00
544.99	65350.10
545.16	65050.51
545.32	64851.56
545.49	65535.00
545.66	65535.00
545.83	65535.00
546.00	65204.98
546.16	65015.40
546.33	65073.91
546.50	65020.08
546.67	65361.80
546.83	64992.00
547.00	65183.92
547.17	64423.25
547.34	63976.20
547.50	63983.22
547.67	64575.38
547.84	64523.89
548.00	64736.88
548.17	65109.02
548.34	65235.41
548.51	65169.88
548.67	65162.85
548.84	65207.32
549.01	65120.73
549.18	65022.42
549.34	64837.52
549.51	65001.36
549.68	64867.95
549.84	64821.14
550.01	64816.46
550.18	64523.89
550.34	64481.76
550.51	64771.99
550.68	64947.53
550.84	64175.15
551.01	64498.14
551.18	64420.90
551.34	64601.13
551.51	64891.35
551.68	65186.26
551.84	65265.84
552.01	64811.77
552.18	64914.76
552.34	64013.65
552.51	63952.80
552.68	63784.28
552.84	64313.24
553.01	64605.81
553.18	64502.82
553.34	64608.15
553.51	64591.76
553.67	64898.37
553.84	65102.00
554.01	64802.41
554.17	64830.50
554.34	64853.90
554.51	64811.77
554.67	65113.70
554.84	64999.02
555.00	64718.15
555.17	64486.44
555.33	64535.59
555.50	64479.42
555.67	64467.72
555.83	64432.61
556.00	64104.93
556.16	64163.45
556.33	63758.53
556.50	63655.55
556.66	63604.06
556.83	63426.18
556.99	63468.31
557.16	63632.14
557.32	63936.41
557.49	64076.85
557.65	64032.38
557.82	63952.80
557.98	63732.79
558.15	63707.04
558.32	62845.72
558.48	62223.14
558.65	62454.86
558.81	62714.65
558.98	62843.38
559.14	63119.57
559.31	63203.83
559.47	63257.66
559.64	62901.90
559.80	62567.20
559.97	62588.27
560.13	63018.92
560.30	63765.56
560.46	64142.38
560.63	64453.67
560.79	64273.45
560.96	64193.87
561.12	63079.78
561.29	62323.78
561.45	62424.43
561.61	62927.64
561.78	63423.84
561.94	63201.49
562.11	63103.18
562.27	62941.69
562.44	63135.95
562.60	63613.42
562.77	63636.83
562.93	63458.94
563.10	63643.85
563.26	62986.16
563.42	63224.89
563.59	62801.25
563.75	62979.14
563.92	63000.20
564.08	62848.06
564.24	63194.46
564.41	63351.28
564.57	63096.16
564.74	62843.38
564.90	62969.77
565.07	62670.18
565.23	62274.63
565.39	61979.73
565.56	61731.63
565.72	61586.52
565.88	61942.28
566.05	61939.94
566.21	62377.62
566.38	62237.19
566.54	62389.32
566.70	62745.08
566.87	62913.60
567.03	62733.38
567.19	63016.58
567.36	62707.63
567.52	62745.08
567.68	62361.23
567.85	61839.29
568.01	61574.81
568.17	61640.35
568.34	61591.20
568.50	61272.88
568.66	61567.79
568.83	61666.09
568.99	61792.48
569.15	62117.82
569.32	61986.75
569.48	61691.84
569.64	61598.22
569.81	61394.59
569.97	61153.52
570.13	61338.42
570.30	60769.67
570.46	60523.91
570.62	60301.56
570.78	60210.28
570.95	60460.72
571.11	60891.38
571.27	61095.00
571.43	61293.95
571.60	61485.87
571.76	61691.84
571.92	61890.79
572.09	61984.41
572.25	62010.15
572.41	61928.23
572.57	61949.30
572.74	62007.81
572.90	61549.07
573.06	61364.17
573.22	61497.58
573.38	61563.11
573.55	61492.89
573.71	61712.91
573.87	61677.80
574.03	61439.06
574.20	61439.06
574.36	61071.60
574.52	61080.96
574.68	60767.33
574.84	60500.51
575.01	60198.58
575.17	60034.74
575.33	60554.34
575.49	60552.00
575.65	60823.50
575.82	60463.06
575.98	60285.18
576.14	60549.66
576.30	60736.90
576.46	60928.83
576.62	60846.91
576.79	60643.28
576.95	60385.82
577.11	60544.98
577.27	60589.45
577.43	60575.40
577.59	60252.41
577.75	60130.70
577.92	59583.02
578.08	59309.18
578.24	59236.62
578.40	59704.73
578.56	59863.88
578.72	59805.37
578.88	59990.27
579.04	60142.41
579.21	60430.29
579.37	60355.39
579.53	60554.34
579.69	60296.88
579.85	60488.80
580.01	60292.20
580.17	59955.16
580.33	59866.22
580.49	60121.34
580.65	60254.75
580.82	60458.38
580.98	60275.82
581.14	60060.49
581.30	60296.88
581.46	60200.92
581.62	60383.48
581.78	60353.05
581.94	60676.05
582.10	60418.59
582.26	60418.59
582.42	60477.10
582.58	60491.15
582.74	60254.75
582.90	60378.80
583.06	60154.11
583.22	60200.92
583.38	60135.38
583.54	60016.02
583.70	59875.58
583.86	60135.38
584.02	60121.34
584.18	60151.77
584.34	60081.55
584.50	59849.84
584.66	59847.50
584.82	59608.76
584.98	59669.62
585.14	59236.62
