SpectraSuite Data File
++++++++++++++++++++++++++++++++++++
Date: Mon Oct 07 14:55:03 GMT-05:00 2013
User: price-jones
Dark Spectrum Present: No
Reference Spectrum Present: No
Number of Sampled Component Spectra: 1
Spectrometers: USB2+H05261
Integration Time (usec): 10000 (USB2+H05261)
Spectra Averaged: 1 (USB2+H05261)
Boxcar Smoothing: 0 (USB2+H05261)
Correct for Electrical Dark: No (USB2+H05261)
Strobe/Lamp Enabled: No (USB2+H05261)
Correct for Detector Non-linearity: No (USB2+H05261)
Correct for Stray Light: No (USB2+H05261)
Number of Pixels in Processed Spectrum: 2048
>>>>>Begin Processed Spectral Data<<<<<
365.73	0.00
365.92	0.00
366.12	0.00
366.32	0.00
366.52	0.00
366.72	0.00
366.91	0.00
367.11	0.00
367.31	0.00
367.51	0.00
367.70	0.00
367.90	0.00
368.10	0.00
368.30	0.00
368.49	0.00
368.69	0.00
368.89	0.00
369.09	0.00
369.28	0.00
369.48	0.00
369.68	0.00
369.87	0.00
370.07	0.00
370.27	0.00
370.47	564.07
370.66	2970.14
370.86	3400.80
371.06	3637.19
371.25	3714.43
371.45	3232.28
371.65	2899.92
371.84	2874.18
372.04	3103.55
372.24	3499.10
372.44	3543.57
372.63	3375.05
372.83	2928.01
373.03	2614.38
373.22	2590.97
373.42	2883.54
373.62	3297.81
373.81	3353.99
374.01	3190.15
374.21	3012.27
374.40	2818.00
374.60	2958.44
374.79	3492.08
374.99	4070.19
375.19	4184.88
375.38	4222.33
375.58	3915.72
375.78	3871.25
375.97	4023.38
376.17	3995.29
376.37	4184.88
376.56	4175.52
376.76	4531.28
376.95	4777.03
377.15	5114.07
377.35	5305.99
377.54	5556.43
377.74	5909.85
377.93	5626.65
378.13	5195.99
378.33	5174.92
378.52	4660.01
378.72	4725.54
378.91	4540.64
379.11	4573.41
379.31	4402.55
379.50	4266.80
379.70	4774.69
379.89	5109.39
380.09	5404.30
380.28	5561.11
380.48	5584.52
380.68	5507.28
380.87	5310.68
381.07	4816.82
381.26	4545.32
381.46	4086.58
381.65	4032.74
381.85	3946.14
382.04	3719.11
382.24	3473.36
382.43	3454.63
382.63	3351.65
382.83	3363.35
383.02	3321.22
383.22	3372.71
383.41	3368.03
383.61	3777.62
383.80	4280.84
384.00	4933.85
384.19	5502.60
384.39	5565.79
384.58	5518.98
384.78	5315.36
384.97	5448.77
385.17	5060.24
385.36	4683.41
385.56	4746.61
385.75	4891.72
385.95	5336.42
386.14	5764.74
386.34	5806.87
386.53	5460.47
386.72	5221.74
386.92	5191.31
387.11	5540.05
387.31	5753.04
387.50	5734.31
387.70	5467.49
387.89	5441.75
388.09	5394.93
388.28	5493.24
388.48	5760.06
388.67	6282.00
388.86	6897.56
389.06	7337.58
389.25	7555.25
389.45	7585.68
389.64	7456.95
389.84	7545.89
390.03	7171.40
390.22	7344.60
390.42	7744.83
390.61	8152.09
390.81	8917.44
391.00	8844.88
391.19	8695.09
391.39	8435.29
391.58	7960.16
391.78	7559.93
391.97	7302.47
392.16	6803.94
392.36	5926.24
392.55	4554.68
392.75	3550.59
392.94	3115.25
393.13	3332.92
393.33	4074.87
393.52	5167.90
393.71	6040.92
393.91	6860.11
394.10	7463.97
394.29	8140.38
394.49	8830.84
394.68	9544.70
394.88	9226.39
395.07	9694.50
395.26	9685.14
395.46	9142.13
395.65	8587.43
395.84	7337.58
396.04	6115.82
396.23	4873.00
396.42	4334.67
396.62	4337.01
396.81	5277.91
397.00	6918.62
397.19	8463.38
397.39	10104.09
397.58	10778.17
397.77	11389.05
397.97	11950.78
398.16	11967.16
398.35	12486.76
398.55	12987.63
398.74	13362.12
398.93	13673.41
399.12	13348.08
399.32	12706.77
399.51	13266.16
399.70	14155.56
399.90	13703.84
400.09	13642.98
400.28	13680.43
400.47	14387.27
400.67	14527.71
400.86	15000.49
401.05	15164.33
401.24	15051.99
401.44	15499.03
401.63	15129.22
401.82	15227.53
402.01	15225.18
402.21	15646.48
402.40	15510.73
402.59	14897.51
402.78	14183.65
402.97	14363.87
403.17	15087.09
403.36	15978.84
403.55	16266.72
403.74	16332.26
403.93	15609.03
404.13	14040.87
404.32	14567.49
404.51	15173.69
404.70	16191.83
404.89	15836.06
405.09	15758.83
405.28	15283.70
405.47	15550.52
405.66	15477.96
405.85	14848.36
406.05	14789.85
406.24	15119.86
406.43	15468.60
406.62	15693.29
406.81	15997.56
407.00	15573.92
407.20	15215.82
407.39	15108.16
407.58	16084.16
407.77	16922.07
407.96	17385.50
408.15	17383.16
408.34	17476.78
408.54	18342.78
408.73	18064.25
408.92	17771.69
409.11	17046.12
409.30	16468.01
409.49	15543.50
409.68	14331.10
409.87	14471.53
410.07	15396.04
410.26	16526.52
410.45	17586.79
410.64	18146.17
410.83	18649.39
411.02	18768.76
411.21	19632.41
411.40	18948.98
411.59	19536.45
411.78	19585.60
411.98	19058.98
412.17	19510.71
412.36	19075.37
412.55	19161.97
412.74	18698.54
412.93	18677.48
413.12	19159.63
413.31	20723.10
413.50	20706.72
413.69	20531.18
413.88	19765.82
414.07	19747.10
414.26	20102.86
414.45	20781.62
414.64	20482.03
414.83	20421.17
415.02	20009.24
415.22	20201.16
415.41	20774.60
415.60	21252.06
415.79	22043.17
415.98	22455.10
416.17	22712.56
416.36	21909.75
416.55	21668.68
416.74	20868.22
416.93	20613.10
417.12	20680.97
417.31	20470.33
417.50	21142.06
417.69	21977.63
417.88	21666.34
418.07	21357.39
418.26	21254.40
418.45	21551.65
418.64	22377.86
418.83	23307.05
419.02	22586.17
419.21	22256.15
419.39	21706.13
419.58	20690.34
419.77	20840.13
419.96	22097.00
420.15	23051.94
420.34	23709.63
420.53	24116.88
420.72	24393.06
420.91	24290.08
421.10	23761.12
421.29	23831.33
421.48	23344.50
421.67	24259.65
421.86	23049.60
422.05	21336.32
422.24	19527.09
422.43	20381.38
422.61	22829.59
422.80	24121.56
422.99	23056.62
423.18	22417.65
423.37	22141.47
423.56	23044.91
423.75	23236.84
423.94	23454.51
424.13	21963.59
424.32	21984.65
424.50	22031.46
424.69	22169.55
424.88	22258.49
425.07	22279.56
425.26	21963.59
425.45	21783.37
425.64	21556.33
425.83	21944.86
426.01	22712.56
426.20	23496.64
426.39	23140.88
426.58	20968.86
426.77	19606.67
426.96	19487.30
427.15	20180.10
427.33	22281.90
427.52	22637.66
427.71	22759.37
427.90	22485.53
428.09	22038.48
428.28	21764.64
428.46	20655.23
428.65	20816.72
428.84	21624.21
429.03	21696.77
429.22	20116.90
429.40	18771.10
429.59	16964.20
429.78	15218.16
429.97	15531.80
430.16	15693.29
430.34	16018.63
430.53	15948.41
430.72	16936.12
430.91	18817.91
431.10	22221.05
431.28	25116.29
431.47	26698.49
431.66	26417.63
431.85	23552.81
432.03	21928.48
432.22	21846.56
432.41	23971.77
432.60	25661.63
432.79	26150.81
432.97	26150.81
433.16	25413.54
433.35	22955.97
433.54	20774.60
433.72	20219.89
433.91	21743.58
434.10	23997.51
434.28	25144.38
434.47	26246.77
434.66	25450.99
434.85	24863.51
435.03	25663.97
435.22	25570.35
435.41	27295.33
435.59	28093.45
435.78	27817.27
435.97	29270.74
436.16	28589.64
436.34	28215.16
436.53	27328.10
436.72	27623.00
436.90	26274.85
437.09	26015.05
437.28	25773.98
437.46	26707.85
437.65	25736.53
437.84	23810.27
438.02	23058.96
438.21	23014.49
438.40	24159.01
438.58	25848.88
438.77	26862.33
438.96	27335.12
439.14	28196.43
439.33	28409.42
439.52	28573.26
439.70	27707.26
439.89	26944.25
440.08	26691.47
440.26	27192.34
440.45	28360.27
440.63	30450.37
440.82	31407.65
441.01	30356.75
441.19	30925.50
441.38	31475.52
441.57	32233.86
441.75	31826.60
441.94	32795.59
442.12	32613.02
442.31	33661.58
442.50	33149.01
442.68	32828.35
442.87	32341.52
443.05	31758.73
443.24	32751.12
443.43	33369.02
443.61	33862.87
443.80	34473.75
443.98	33706.05
444.17	33017.94
444.35	33682.65
444.54	34780.36
444.73	34029.05
444.91	33153.69
445.10	31314.03
445.28	31096.36
445.47	29802.04
445.65	30230.36
445.84	31012.10
446.02	32088.74
446.21	32645.79
446.39	33078.79
446.58	33462.64
446.77	34342.68
446.95	34375.45
447.14	35262.51
447.32	35416.99
447.51	35152.51
447.69	33254.33
447.88	33483.70
448.06	34019.69
448.25	34473.75
448.43	34047.77
448.62	33598.39
448.80	33429.87
448.99	34258.42
449.17	34630.57
449.36	34682.06
449.54	36062.97
449.73	36151.91
449.91	36804.92
450.10	38059.45
450.28	38316.91
450.46	38057.11
450.65	37785.61
450.83	37310.48
451.02	37181.75
451.20	36301.71
451.39	36421.08
451.57	36608.32
451.76	36676.19
451.94	35505.93
452.13	35014.41
452.31	33254.33
452.49	31646.38
452.68	33113.90
452.86	33432.21
453.05	33699.03
453.23	34799.08
453.42	34969.94
453.60	36334.48
453.78	36339.16
453.97	35962.33
454.15	35681.47
454.34	33989.26
454.52	34087.56
454.70	34529.92
454.89	34649.29
455.07	35211.02
455.26	35864.03
455.44	36793.22
455.62	37542.19
455.81	37579.64
455.99	37275.37
456.17	36931.31
456.36	37722.41
456.54	38925.45
456.73	38110.94
456.91	39072.90
457.09	38986.30
457.28	39812.51
457.46	37399.42
457.64	37570.28
457.83	36390.65
458.01	36147.23
458.19	37584.32
458.38	38211.59
458.56	38960.56
458.74	38789.70
458.93	37509.43
459.11	37390.06
459.29	37069.40
459.48	37902.64
459.66	37015.57
459.84	37043.66
460.03	37628.79
460.21	38401.17
460.39	39669.74
460.57	38988.64
460.76	39100.99
460.94	39716.55
461.12	39538.67
461.31	39164.18
461.49	39941.24
461.67	39463.77
461.85	40673.83
462.04	40650.42
462.22	40311.05
462.40	41074.06
462.59	39779.74
462.77	40360.20
462.95	39414.62
463.13	39264.83
463.32	38738.21
463.50	38511.17
463.68	39260.15
463.86	39538.67
464.05	38778.00
464.23	37727.10
464.41	37591.34
464.59	37130.26
464.78	39400.58
464.96	38895.02
465.14	38101.58
465.32	39700.17
465.50	40449.14
465.69	40851.71
465.87	39309.30
466.05	38462.02
466.23	37202.82
466.41	36027.87
466.60	37825.40
466.78	38038.39
466.96	38536.92
467.14	39278.87
467.32	39173.55
467.51	39697.83
467.69	37890.93
467.87	39302.28
468.05	39592.50
468.23	39093.97
468.41	39543.35
468.60	39159.50
468.78	39826.56
468.96	39349.09
469.14	40322.75
469.32	39861.66
469.50	37837.10
469.69	38675.01
469.87	38110.94
470.05	37474.32
470.23	38227.97
470.41	38555.64
470.59	38911.41
470.77	39161.84
470.95	39456.75
471.14	40280.62
471.32	40084.01
471.50	42955.85
471.68	43030.75
471.86	43552.69
472.04	43037.77
472.22	42630.52
472.40	41172.36
472.58	41411.10
472.77	41258.96
472.95	41942.40
473.13	42684.35
473.31	41394.71
473.49	41837.08
473.67	43051.81
473.85	43140.75
474.03	43737.59
474.21	44980.42
474.39	45057.65
474.57	44156.55
474.75	44526.35
474.93	43384.17
475.12	42829.46
475.30	42806.06
475.48	43117.35
475.66	44011.43
475.84	43400.55
476.02	43182.88
476.20	42574.34
476.38	43594.82
476.56	44561.46
476.74	44748.70
476.92	45375.97
477.10	45532.78
477.28	46848.16
477.46	47117.32
477.64	48128.44
477.82	47491.81
478.00	47770.33
478.18	46880.93
478.36	46412.82
478.54	46618.79
478.72	47437.98
478.90	48559.09
479.08	49272.96
479.26	48666.76
479.44	49731.70
479.62	49495.31
479.80	49584.25
479.98	49645.10
480.16	50255.98
480.34	49251.89
480.52	49734.04
480.70	50033.63
480.88	50298.11
481.06	50784.94
481.24	51222.62
481.41	51573.70
481.59	52177.56
481.77	51154.75
481.95	51323.27
482.13	51454.34
482.31	51072.83
482.49	52549.71
482.67	51405.19
482.85	52254.80
483.03	52460.77
483.21	53085.69
483.39	52603.54
483.57	52334.38
483.74	52552.05
483.92	52832.91
484.10	52699.50
484.28	53317.40
484.46	52914.83
484.64	54464.27
484.82	53640.40
485.00	52570.77
485.18	51863.93
485.35	50127.25
485.53	45450.86
485.71	42864.57
485.89	44318.04
486.07	47295.21
486.25	49191.04
486.43	51824.14
486.61	51908.40
486.78	51241.35
486.96	52151.82
487.14	53829.98
487.32	54181.06
487.50	54993.23
487.68	56037.11
487.85	56399.89
488.03	55891.99
488.21	54941.74
488.39	54780.24
488.57	53855.73
488.75	54195.10
488.92	55756.24
489.10	57228.44
489.28	57228.44
489.46	58515.73
489.64	58166.99
489.81	58248.91
489.99	57930.60
490.17	58164.65
490.35	58639.78
490.53	57975.07
490.70	57851.02
490.88	58014.86
491.06	58534.46
491.24	58827.02
491.41	57911.88
491.59	56367.12
491.77	56168.18
491.95	57195.67
492.13	58272.32
492.30	58557.86
492.48	59622.81
492.66	59774.94
492.84	59451.95
493.01	59021.29
493.19	58990.86
493.37	58546.16
493.54	58539.14
493.72	59896.65
493.90	60484.12
494.08	60664.35
494.25	60977.98
494.43	61476.51
494.61	61755.03
494.79	61588.86
494.96	61956.32
495.14	61167.56
495.32	60013.68
495.49	60140.07
495.67	61102.03
495.85	62073.35
496.02	62489.96
496.20	61696.52
496.38	61366.51
496.55	61450.77
496.73	62073.35
496.91	62578.90
497.09	62475.92
497.26	62831.68
497.44	62157.61
497.62	61855.68
497.79	61169.90
497.97	60149.43
498.14	60900.74
498.32	61815.89
498.50	61956.32
498.67	61783.12
498.85	62078.03
499.03	62330.81
499.20	62445.49
499.38	62092.07
499.56	61710.56
499.73	61340.76
499.91	61326.72
500.08	60781.37
500.26	60313.26
500.44	60966.27
500.61	61399.27
500.79	61202.67
500.97	61176.92
501.14	60713.50
501.32	60149.43
501.49	60739.24
501.67	61275.22
501.84	61041.17
502.02	61949.30
502.20	62457.20
502.37	62012.49
502.55	62555.50
502.72	63161.70
502.90	63517.46
503.07	63295.11
503.25	62452.51
503.43	61684.82
503.60	60959.25
503.78	61296.29
503.95	61663.75
504.13	62574.22
504.30	63126.59
504.48	62340.17
504.65	62347.19
504.83	62759.12
505.01	63274.04
505.18	63414.47
505.36	63931.73
505.53	64069.82
505.71	63550.23
505.88	64175.15
506.06	64090.89
506.23	63367.66
506.41	63447.24
506.58	63023.61
506.76	62915.94
506.93	62763.81
507.11	62761.47
507.28	63084.46
507.46	62284.00
507.63	62248.89
507.81	62052.28
507.98	62431.45
508.16	63398.09
508.33	63016.58
508.50	63222.55
508.68	64006.63
508.85	64413.88
509.03	64348.35
509.20	63833.43
509.38	63004.88
509.55	63351.28
509.73	63627.46
509.90	63419.16
510.08	63622.78
510.25	63121.91
510.42	62768.49
510.60	63175.74
510.77	63767.90
510.95	63845.13
511.12	64561.34
511.30	64870.29
511.47	65153.49
511.64	64544.95
511.82	64750.92
511.99	63828.75
512.17	63510.44
512.34	63021.26
512.51	63444.90
512.69	63903.65
512.86	63524.48
513.04	63896.62
513.21	63348.94
513.38	62763.81
513.56	62335.49
513.73	62127.18
513.90	62815.30
514.08	63072.76
514.25	63171.06
514.43	63386.39
514.60	63648.53
514.77	63987.91
514.95	64271.11
515.12	63973.86
515.29	63882.58
515.47	64221.96
515.64	64488.78
515.81	64324.94
515.99	63133.61
516.16	61544.39
516.33	59592.38
516.51	59606.42
516.68	57975.07
516.85	57361.85
517.03	59173.42
517.20	61401.61
517.37	63182.76
517.54	63793.64
517.72	62515.71
517.89	59833.46
518.06	58356.58
518.24	59688.34
518.41	61773.76
518.58	62869.13
518.75	62506.35
518.93	62705.29
519.10	62244.21
519.27	63491.71
519.45	63491.71
519.62	64055.78
519.79	64250.05
519.96	63444.90
520.14	63276.38
520.31	62424.43
520.48	62412.73
520.65	63370.00
520.83	64217.28
521.00	64182.17
521.17	63582.99
521.34	63728.11
521.52	63709.38
521.69	64320.26
521.86	64825.82
522.03	64383.46
522.20	63313.83
522.38	62915.94
522.55	63505.76
522.72	63594.70
522.89	62733.38
523.07	63777.26
523.24	64130.68
523.41	64776.67
523.58	64617.51
523.75	65132.43
523.92	64914.76
524.10	64832.84
524.27	64896.03
524.44	64680.70
524.61	63681.30
524.78	64175.15
524.96	64371.75
525.13	64343.67
525.30	64477.08
525.47	65242.43
525.64	65347.76
525.81	64364.73
525.98	63131.27
526.16	61549.07
526.33	61485.87
526.50	61013.08
526.67	60697.11
526.84	61612.26
527.01	62356.55
527.18	62677.21
527.36	63351.28
527.53	64278.13
527.70	63941.10
527.87	63084.46
528.04	63749.17
528.21	64074.51
528.38	64493.46
528.55	64968.59
528.72	64771.99
528.89	64664.32
529.07	65057.53
529.24	63882.58
529.41	63707.04
529.58	63372.34
529.75	64434.95
529.92	64760.28
530.09	64952.21
530.26	65499.89
530.43	65535.00
530.60	65071.57
530.77	65535.00
530.94	65535.00
531.11	64526.23
531.28	64420.90
531.46	64692.41
531.63	64559.00
531.80	64706.45
531.97	64280.47
532.14	63945.78
532.31	62555.50
532.48	61872.06
532.65	62651.46
532.82	62962.75
532.99	64701.77
533.16	64734.54
533.33	64526.23
533.50	64783.69
533.67	64072.17
533.84	63781.94
534.01	64252.39
534.18	64076.85
534.35	63693.00
534.52	63398.09
534.69	64210.26
534.86	64551.98
535.03	64760.28
535.20	64554.32
535.37	65153.49
535.54	65300.95
535.71	65130.09
535.88	65307.97
536.05	64161.11
536.22	63426.18
536.38	63685.98
536.55	63306.81
536.72	62630.40
536.89	63571.29
537.06	63395.75
537.23	63973.86
537.40	63580.65
537.57	63501.07
537.74	64294.52
537.91	64210.26
538.08	64243.02
538.25	64430.27
538.42	65113.70
538.59	64608.15
538.75	63566.61
538.92	63072.76
539.09	63545.54
539.26	63199.15
539.43	63016.58
539.60	62752.10
539.77	63774.92
539.94	63250.64
540.11	62209.10
540.28	62129.52
540.44	61953.98
540.61	62246.55
540.78	63018.92
540.95	63608.74
541.12	63477.67
541.29	63442.56
541.46	63788.96
541.62	64224.30
541.79	63515.12
541.96	62958.07
542.13	63166.38
542.30	63393.41
542.47	63217.87
542.63	63887.26
542.80	63571.29
542.97	63505.76
543.14	63061.05
543.31	62979.14
543.48	64147.06
543.64	64184.51
543.81	64638.57
543.98	64537.93
544.15	63461.29
544.32	63496.39
544.48	63465.97
544.65	63618.10
544.82	64067.48
544.99	63311.49
545.16	62993.18
545.32	63014.24
545.49	63697.68
545.66	63903.65
545.83	63634.48
546.00	63505.76
546.16	63545.54
546.33	63409.79
546.50	63264.68
546.67	63971.52
546.83	63622.78
547.00	63604.06
547.17	62370.60
547.34	62066.33
547.50	62019.52
547.67	62953.39
547.84	63362.98
548.00	63707.04
548.17	63608.74
548.34	63568.95
548.51	63510.44
548.67	63096.16
548.84	63318.51
549.01	63735.13
549.18	63498.73
549.34	63688.32
549.51	63943.44
549.68	64097.91
549.84	63245.96
550.01	62560.18
550.18	62440.81
550.34	62913.60
550.51	62979.14
550.68	63243.62
550.84	63075.10
551.01	62581.24
551.18	62599.97
551.34	62827.00
551.51	63625.12
551.68	63788.96
551.84	64294.52
552.01	63449.58
552.18	63082.12
552.34	62045.26
552.51	62230.16
552.68	62141.22
552.84	62267.61
553.01	62677.21
553.18	62461.88
553.34	62361.23
553.51	62859.77
553.67	63037.65
553.84	63306.81
554.01	63629.80
554.17	62770.83
554.34	63271.70
554.51	63283.40
554.67	62588.27
554.84	62944.03
555.00	62347.19
555.17	62202.08
555.33	62452.51
555.50	62141.22
555.67	62873.81
555.83	63236.59
556.00	62496.98
556.16	62185.69
556.33	61740.99
556.50	61946.96
556.66	61808.87
556.83	61343.10
556.99	61703.54
557.16	62422.09
557.32	61996.11
557.49	62316.76
557.65	62363.57
557.82	61968.02
557.98	62562.52
558.15	61591.20
558.32	61188.63
558.48	60814.14
558.65	60631.58
558.81	60858.61
558.98	61392.25
559.14	61394.59
559.31	61197.99
559.47	60999.04
559.64	61223.73
559.80	60528.59
559.97	61265.86
560.13	61670.78
560.30	62794.23
560.46	63028.29
560.63	63238.93
560.79	63121.91
560.96	62190.37
561.12	61371.19
561.29	60865.63
561.45	60963.93
561.61	61528.00
561.78	60748.60
561.94	61446.08
562.11	61396.93
562.27	60851.59
562.44	61883.76
562.60	62241.87
562.77	62171.65
562.93	61364.17
563.10	61120.75
563.26	61879.08
563.42	61935.26
563.59	61818.23
563.75	61172.24
563.92	60837.54
564.08	60713.50
564.24	61453.11
564.41	61389.91
564.57	62391.66
564.74	61680.14
564.90	61226.07
565.07	61080.96
565.23	60095.60
565.39	59760.90
565.56	60189.22
565.72	60004.31
565.88	59756.22
566.05	61240.12
566.21	61048.19
566.38	60699.45
566.54	61181.60
566.70	61949.30
566.87	61645.03
567.03	60830.52
567.19	61895.47
567.36	62220.80
567.52	61102.03
567.68	60331.99
567.85	60329.65
568.01	60622.22
568.17	60278.16
568.34	60240.71
568.50	59842.82
568.66	59681.32
568.83	59742.17
568.99	59955.16
569.15	60292.20
569.32	59744.51
569.48	60140.07
569.64	60210.28
569.81	59863.88
569.97	59482.37
570.13	59128.95
570.30	58253.59
570.46	58504.03
570.62	57771.44
570.78	57808.89
570.95	58742.77
571.11	58976.82
571.27	58635.10
571.43	58946.39
571.60	58972.14
571.76	59494.08
571.92	60275.82
572.09	60350.71
572.25	59835.80
572.41	59728.13
572.57	59662.60
572.74	59943.46
572.90	60992.02
573.06	60542.64
573.22	60420.93
573.38	59931.76
573.55	60914.78
573.71	59648.55
573.87	59599.40
574.03	60233.69
574.20	59732.81
574.36	59175.76
574.52	58735.74
574.68	58913.62
574.84	58480.63
575.01	58405.73
575.17	58227.85
575.33	58637.44
575.49	58637.44
575.65	57785.49
575.82	57932.94
575.98	57518.67
576.14	59044.69
576.30	59969.21
576.46	58798.94
576.62	59014.27
576.79	59100.87
576.95	58749.79
577.11	58908.94
577.27	58866.81
577.43	58922.99
577.59	58822.34
577.75	57890.81
577.92	58064.01
578.08	58056.99
578.24	58211.46
578.40	58592.97
578.56	57684.84
578.72	58557.86
578.88	58061.67
579.04	58351.90
579.21	58358.92
579.37	58052.31
579.53	58583.61
579.69	58305.09
579.85	58026.56
580.01	57893.15
580.17	57736.34
580.33	58099.12
580.49	58459.56
580.65	57748.04
580.82	58429.13
580.98	58405.73
581.14	58464.24
581.30	58258.27
581.46	57633.35
581.62	57991.45
581.78	58740.42
581.94	58710.00
582.10	58595.31
582.26	58700.64
582.42	58548.50
582.58	58492.33
582.74	58307.43
582.90	58220.83
583.06	58958.09
583.22	59032.99
583.38	58571.91
583.54	58574.25
583.70	58656.17
583.86	58677.23
584.02	57872.09
584.18	57876.77
584.34	57829.96
584.50	57446.11
584.66	57616.97
584.82	57666.12
584.98	57717.61
585.14	56853.95
585.30	57027.15
