SpectraSuite Data File
++++++++++++++++++++++++++++++++++++
Date: Mon Oct 07 14:54:57 GMT-05:00 2013
User: price-jones
Dark Spectrum Present: No
Reference Spectrum Present: No
Number of Sampled Component Spectra: 1
Spectrometers: USB2+H05261
Integration Time (usec): 10000 (USB2+H05261)
Spectra Averaged: 1 (USB2+H05261)
Boxcar Smoothing: 0 (USB2+H05261)
Correct for Electrical Dark: No (USB2+H05261)
Strobe/Lamp Enabled: No (USB2+H05261)
Correct for Detector Non-linearity: No (USB2+H05261)
Correct for Stray Light: No (USB2+H05261)
Number of Pixels in Processed Spectrum: 2048
>>>>>Begin Processed Spectral Data<<<<<
365.73	0.00
365.92	0.00
366.12	0.00
366.32	0.00
366.52	0.00
366.72	0.00
366.91	0.00
367.11	0.00
367.31	0.00
367.51	0.00
367.70	0.00
367.90	0.00
368.10	0.00
368.30	0.00
368.49	0.00
368.69	0.00
368.89	0.00
369.09	0.00
369.28	0.00
369.48	0.00
369.68	0.00
369.87	0.00
370.07	0.00
370.27	0.00
370.47	470.45
370.66	3012.27
370.86	3695.71
371.06	3906.35
371.25	3768.26
371.45	3473.36
371.65	3185.47
371.84	3012.27
372.04	3166.74
372.24	3620.81
372.44	3672.30
372.63	3536.55
372.83	3321.22
373.03	2815.66
373.22	2661.19
373.42	3094.19
373.62	3337.60
373.81	3529.53
374.01	3428.88
374.21	3035.67
374.40	2935.03
374.60	3075.46
374.79	3744.86
374.99	4219.99
375.19	4397.87
375.38	4374.46
375.58	4117.00
375.78	4077.21
375.97	4269.14
376.17	4306.59
376.37	4271.48
376.56	4447.02
376.76	4812.14
376.95	5029.81
377.15	5324.72
377.35	5746.02
377.54	5668.78
377.74	5856.02
377.93	5926.24
378.13	5771.76
378.33	5355.15
378.52	5015.77
378.72	4741.93
378.91	4711.50
379.11	4746.61
379.31	4423.61
379.50	4589.79
379.70	4964.28
379.89	5535.37
380.09	5769.42
380.28	5912.19
380.48	5895.81
380.68	5806.87
380.87	5430.04
381.07	4994.70
381.26	4699.80
381.46	4276.16
381.65	4208.28
381.85	4126.36
382.04	4114.66
382.24	3765.92
382.43	3588.04
382.63	3475.70
382.83	3644.21
383.02	3513.14
383.22	3471.01
383.41	3620.81
383.61	3889.97
383.80	4561.70
384.00	5111.73
384.19	5666.44
384.39	5813.89
384.58	5914.53
384.78	5577.50
384.97	5638.35
385.17	5472.17
385.36	5067.26
385.56	4917.47
385.75	5055.56
385.95	5830.27
386.14	5963.68
386.34	5984.75
386.53	5561.11
386.72	5298.97
386.92	5860.70
387.11	5926.24
387.31	5884.11
387.50	5947.30
387.70	5830.27
387.89	5633.67
388.09	5755.38
388.28	5701.54
388.48	6015.18
388.67	6544.14
388.86	7194.81
389.06	7513.12
389.25	7936.76
389.45	7857.18
389.64	7990.59
389.84	7733.13
390.03	7590.36
390.22	7791.64
390.42	8035.06
390.61	8493.80
390.81	9184.26
391.00	9193.62
391.19	9118.73
391.39	8540.61
391.58	8170.81
391.78	7974.21
391.97	7494.40
392.16	6904.58
392.36	6249.23
392.55	4849.59
392.75	3871.25
392.94	3241.64
393.13	3492.08
393.33	4337.01
393.52	5493.24
393.71	6473.92
393.91	7173.74
394.10	8018.68
394.29	8416.57
394.49	9451.08
394.68	9841.95
394.88	9584.49
395.07	10125.16
395.26	9963.66
395.46	9385.55
395.65	8795.73
395.84	7632.49
396.04	6354.55
396.23	5275.57
396.42	4507.87
396.62	4435.32
396.81	5607.92
397.00	7152.68
397.19	8877.65
397.39	10274.95
397.58	11583.31
397.77	12142.70
397.97	12315.90
398.16	12191.85
398.35	12952.52
398.55	13650.00
398.74	14054.92
398.93	14038.53
399.12	13884.06
399.32	13551.70
399.51	13980.02
399.70	14707.93
399.90	14558.13
400.09	14544.09
400.28	14633.03
400.47	14618.99
400.67	15330.51
400.86	15665.21
401.05	15763.51
401.24	15990.54
401.44	16212.89
401.63	16189.49
401.82	16322.90
402.01	16091.18
402.21	16128.63
402.40	16196.51
402.59	15676.91
402.78	15225.18
402.97	15059.01
403.17	15719.04
403.36	16475.03
403.55	17032.08
403.74	16720.79
403.93	15953.09
404.13	14420.04
404.32	14778.14
404.51	15882.88
404.70	16570.99
404.89	16599.08
405.09	16184.80
405.28	15875.85
405.47	16020.97
405.66	15857.13
405.85	15201.78
406.05	14949.00
406.24	15625.42
406.43	16210.55
406.62	16842.50
406.81	16477.37
407.00	16109.91
407.20	15721.38
407.39	16327.58
407.58	16917.39
407.77	17301.24
407.96	17816.16
408.15	17947.23
408.34	18092.34
408.54	19136.22
408.73	19225.16
408.92	18710.24
409.11	18143.83
409.30	17434.65
409.49	15889.90
409.68	15241.57
409.87	15307.10
410.07	16311.19
410.26	17869.99
410.45	18527.68
410.64	18469.17
410.83	19800.93
411.02	20081.80
411.21	20484.37
411.40	20100.52
411.59	20086.48
411.78	20374.36
411.98	20231.59
412.17	20411.81
412.36	20147.33
412.55	19936.68
412.74	19407.72
412.93	18897.49
413.12	19915.62
413.31	21687.40
413.50	21336.32
413.69	21202.91
413.88	20512.46
414.07	20313.51
414.26	21003.97
414.45	21460.37
414.64	21207.59
414.83	21345.69
415.02	20868.22
415.22	21315.26
415.41	22073.59
415.60	22740.64
415.79	23351.52
415.98	23604.30
416.17	23412.38
416.36	22780.43
416.55	22436.38
416.74	21745.92
416.93	21193.55
417.12	21612.51
417.31	21612.51
417.50	22462.12
417.69	22689.15
417.88	22391.91
418.07	22544.04
418.26	21961.25
418.45	22300.62
418.64	23452.17
418.83	24437.53
419.02	23786.86
419.21	23257.90
419.39	22199.98
419.58	21312.92
419.77	21928.48
419.96	23054.28
420.15	24322.85
420.34	24793.29
420.53	25612.48
420.72	25642.91
420.91	25736.53
421.10	24683.29
421.29	25078.84
421.48	24423.49
421.67	25380.77
421.86	24294.76
422.05	22469.14
422.24	19953.07
422.43	21092.91
422.61	24006.87
422.80	24709.04
422.99	24739.46
423.18	23447.49
423.37	23103.43
423.56	23697.92
423.75	24023.26
423.94	24437.53
424.13	23236.84
424.32	23276.63
424.50	23075.34
424.69	23545.79
424.88	22941.93
425.07	22944.27
425.26	23054.28
425.45	22171.89
425.64	22513.61
425.83	23026.19
426.01	24025.60
426.20	24847.13
426.39	23796.23
426.58	21858.26
426.77	20350.96
426.96	20051.37
427.15	21188.87
427.33	23101.09
427.52	23239.18
427.71	23381.95
427.90	23190.03
428.09	22850.65
428.28	22089.98
428.46	21392.50
428.65	21343.35
428.84	22398.93
429.03	22164.87
429.22	21057.80
429.40	19728.38
429.59	18331.08
429.78	16032.67
429.97	16423.54
430.16	16252.68
430.34	15817.34
430.53	16395.45
430.72	17664.02
430.91	19618.37
431.10	23021.51
431.28	26471.46
431.47	28170.69
431.66	27723.65
431.85	25310.55
432.03	23215.77
432.22	23321.10
432.41	24765.21
432.60	26862.33
432.79	27838.33
432.97	27917.91
433.16	27119.79
433.35	23901.55
433.54	21429.94
433.72	20933.75
433.91	22347.44
434.10	24725.42
434.28	26630.62
434.47	27971.74
434.66	26326.35
434.85	25776.32
435.03	26204.64
435.22	26883.39
435.41	28123.88
435.59	28224.52
435.78	28687.95
435.97	29656.93
436.16	29090.52
436.34	28943.06
436.53	28540.49
436.72	28790.93
436.90	27190.00
437.09	27285.97
437.28	27489.59
437.46	28334.53
437.65	27442.78
437.84	25223.95
438.02	23641.75
438.21	24680.95
438.40	25214.59
438.58	27527.04
438.77	28451.55
438.96	28388.36
439.14	29806.72
439.33	30155.46
439.52	30682.08
439.70	29701.40
439.89	28545.17
440.08	27927.27
440.26	28865.83
440.45	29954.18
440.63	31857.03
440.82	33324.55
441.01	32360.25
441.19	32123.85
441.38	32463.23
441.57	33397.10
441.75	33745.84
441.94	33853.51
442.12	33940.11
442.31	34965.26
442.50	34916.11
442.68	34515.88
442.87	33406.47
443.05	33589.03
443.24	34845.90
443.43	35267.19
443.61	35765.73
443.80	35559.76
443.98	34426.94
444.17	34092.24
444.35	35594.87
444.54	35578.48
444.73	35730.62
444.91	33624.14
445.10	32931.34
445.28	31711.92
445.47	30843.58
445.65	31269.56
445.84	32835.38
446.02	33579.67
446.21	34010.32
446.39	34080.54
446.58	34988.67
446.77	35232.08
446.95	35470.82
447.14	36002.12
447.32	36322.77
447.51	35971.69
447.69	34356.72
447.88	34796.74
448.06	35466.14
448.25	35711.89
448.43	35239.11
448.62	35208.68
448.80	35065.91
448.99	34958.24
449.17	35580.82
449.36	36463.21
449.54	37160.69
449.73	37804.33
449.91	38319.25
450.10	39316.32
450.28	39229.72
450.46	39358.45
450.65	39360.79
450.83	38345.00
451.02	38080.52
451.20	37539.85
451.39	37518.79
451.57	38204.56
451.76	37937.74
451.94	37528.15
452.13	35908.50
452.31	35239.11
452.49	34270.12
452.68	34197.57
452.86	33785.63
453.05	34749.93
453.23	36460.87
453.42	37581.98
453.60	38340.32
453.78	38588.41
453.97	37481.34
454.15	37642.84
454.34	36587.25
454.52	36818.97
454.70	36369.58
454.89	36664.49
455.07	36603.64
455.26	37804.33
455.44	39346.75
455.62	39552.71
455.81	39072.90
455.99	38785.02
456.17	39040.14
456.36	39643.99
456.54	39885.07
456.73	40126.14
456.91	41062.36
457.09	41139.60
457.28	40463.18
457.46	39452.07
457.64	38932.47
457.83	37109.19
458.01	37738.80
458.19	38682.03
458.38	39257.81
458.56	40266.58
458.74	39854.64
458.93	39452.07
459.11	39746.98
459.29	39466.11
459.48	39363.13
459.66	39255.46
459.84	39974.01
460.03	39969.33
460.21	40030.18
460.39	41378.33
460.57	40013.80
460.76	40725.32
460.94	40334.45
461.12	39934.22
461.31	40713.62
461.49	40814.26
461.67	40039.54
461.85	42110.92
462.04	42178.79
462.22	41886.23
462.40	42066.45
462.59	42139.00
462.77	42389.44
462.95	42412.85
463.13	42197.52
463.32	40858.73
463.50	41134.92
463.68	41237.90
463.86	41553.87
464.05	40404.67
464.23	39332.70
464.41	39028.43
464.59	38422.23
464.78	40526.38
464.96	41092.79
465.14	40524.04
465.32	40954.69
465.50	42464.34
465.69	42274.76
465.87	41495.36
466.05	40156.57
466.23	38972.26
466.41	38871.62
466.60	39840.60
466.78	39419.30
466.96	40002.10
467.14	40952.35
467.32	40542.76
467.51	41017.89
467.69	40004.44
467.87	40271.26
468.05	41214.49
468.23	41804.31
468.41	41731.75
468.60	41394.71
468.78	41790.27
468.96	41020.23
469.14	41897.93
469.32	42426.89
469.50	40498.29
469.69	39786.77
469.87	39445.05
470.05	40304.02
470.23	40502.97
470.41	40767.45
470.59	41366.63
470.77	41123.21
470.95	42232.63
471.14	42735.84
471.32	42904.36
471.50	44708.91
471.68	44624.65
471.86	44949.99
472.04	44914.88
472.22	44921.90
472.40	42869.25
472.58	43201.61
472.77	42213.90
472.95	43248.42
473.13	44062.93
473.31	43229.69
473.49	43306.93
473.67	43992.71
473.85	43669.72
474.03	45792.58
474.21	45605.34
474.39	45958.76
474.57	46623.47
474.75	45619.38
474.93	45158.30
475.12	44582.52
475.30	44566.14
475.48	44837.64
475.66	46277.07
475.84	45125.53
476.02	45738.75
476.20	44636.36
476.38	45457.88
476.56	46490.06
476.74	46883.27
476.92	47180.52
477.10	48652.72
477.28	48030.13
477.46	48161.20
477.64	48629.31
477.82	48268.87
478.00	48821.23
478.18	49158.27
478.36	48215.04
478.54	48818.89
478.72	48903.15
478.90	49607.65
479.08	51189.86
479.26	50770.90
479.44	50724.09
479.62	50878.57
479.80	51086.87
479.98	50794.31
480.16	51496.47
480.34	51145.39
480.52	51274.12
480.70	51019.00
480.88	51515.19
481.06	52154.16
481.24	52170.54
481.41	52945.26
481.59	52797.80
481.77	52325.02
481.95	52182.24
482.13	52303.95
482.31	52657.37
482.49	52914.83
482.67	52781.42
482.85	53031.86
483.03	53904.88
483.21	53474.22
483.39	53944.67
483.57	53221.44
483.74	53446.13
483.92	53233.14
484.10	53310.38
484.28	53951.69
484.46	54990.89
484.64	55505.80
484.82	54499.37
485.00	53907.22
485.18	52896.11
485.35	52210.33
485.53	48645.69
485.71	45319.79
485.89	46562.62
486.07	49287.00
486.25	51409.87
486.43	52739.29
486.61	53029.52
486.78	53008.45
486.96	53399.32
487.14	54979.18
487.32	55824.12
487.50	55849.86
487.68	56346.06
487.85	56545.00
488.03	56427.98
488.21	56488.83
488.39	55941.14
488.57	55835.82
488.75	56233.71
488.92	57190.99
489.10	58707.66
489.28	59484.72
489.46	59936.44
489.64	59306.83
489.81	59648.55
489.99	59405.14
490.17	59412.16
490.35	59969.21
490.53	59159.38
490.70	59281.09
490.88	59590.04
491.06	60193.90
491.24	59721.11
491.41	58515.73
491.59	57659.10
491.77	57057.58
491.95	58298.06
492.13	59192.15
492.30	59875.58
492.48	60676.05
492.66	60851.59
492.84	60757.97
493.01	60523.91
493.19	60416.25
493.37	59810.05
493.54	59889.63
493.72	60795.42
493.90	61202.67
494.08	62087.39
494.25	62298.04
494.43	62202.08
494.61	62328.47
494.79	62660.82
494.96	62375.28
495.14	61804.19
495.32	61141.81
495.49	61305.65
495.67	61977.39
495.85	62621.03
496.02	62410.38
496.20	62829.34
496.38	62611.67
496.55	62248.89
496.73	62506.35
496.91	63070.42
497.09	63604.06
497.26	63428.52
497.44	62939.35
497.62	62480.60
497.79	61249.48
497.97	60451.36
498.14	60996.70
498.32	62178.67
498.50	63007.22
498.67	63604.06
498.85	63166.38
499.03	63267.02
499.20	63632.14
499.38	63215.53
499.56	62632.74
499.73	62482.94
499.91	62712.31
500.08	61593.54
500.26	61595.88
500.44	62443.15
500.61	62815.30
500.79	62667.84
500.97	62241.87
501.14	62176.33
501.32	61904.83
501.49	62426.77
501.67	62436.13
501.84	62770.83
502.02	62843.38
502.20	62714.65
502.37	62915.94
502.55	63398.09
502.72	63863.86
502.90	64507.50
503.07	64083.87
503.25	63889.60
503.43	63178.08
503.60	62106.12
503.78	62127.18
503.95	63056.37
504.13	64196.21
504.30	64086.21
504.48	63856.84
504.65	63306.81
504.83	63636.83
505.01	64378.78
505.18	64603.47
505.36	65169.88
505.53	65057.53
505.71	65099.66
505.88	64743.90
506.06	64502.82
506.23	64390.48
506.41	64130.68
506.58	64320.26
506.76	64259.41
506.93	64392.82
507.11	63980.88
507.28	64219.62
507.46	63934.07
507.63	63065.73
507.81	63311.49
507.98	63409.79
508.16	64528.57
508.33	64877.31
508.50	65535.00
508.68	65378.18
508.85	65535.00
509.03	65535.00
509.20	64795.39
509.38	64015.99
509.55	64116.64
509.73	64535.59
509.90	64760.28
510.08	64591.76
510.25	63976.20
510.42	64142.38
510.60	64544.95
510.77	64699.43
510.95	64612.83
511.12	64666.66
511.30	65034.13
511.47	65535.00
511.64	65497.55
511.82	65394.57
511.99	64465.38
512.17	64168.13
512.34	63814.71
512.51	64320.26
512.69	64963.91
512.86	64999.02
513.04	64881.99
513.21	64708.79
513.38	64425.59
513.56	63803.00
513.73	63355.96
513.90	63377.03
514.08	63774.92
514.25	64104.93
514.43	64184.51
514.60	64317.92
514.77	64612.83
514.95	64498.14
515.12	64928.80
515.29	65535.00
515.47	65535.00
515.64	65535.00
515.81	64821.14
515.99	63412.13
516.16	62281.66
516.33	60699.45
516.51	60226.66
516.68	59288.11
516.85	59409.82
517.03	61069.26
517.20	62794.23
517.37	64142.38
517.54	64736.88
517.72	63730.45
517.89	61619.28
518.06	60992.02
518.24	61378.21
518.41	62791.89
518.58	63793.64
518.75	63503.42
518.93	63744.49
519.10	63884.92
519.27	64034.72
519.45	64591.76
519.62	65303.29
519.79	65506.91
519.96	65137.11
520.14	64633.89
520.31	63955.14
520.48	64294.52
520.65	64385.80
520.83	65279.88
521.00	65176.90
521.17	64498.14
521.34	64411.54
521.52	65087.96
521.69	65535.00
521.86	65535.00
522.03	65535.00
522.20	64395.16
522.38	63810.03
522.55	63810.03
522.72	63739.81
522.89	63814.71
523.07	63884.92
523.24	64554.32
523.41	65535.00
523.58	65535.00
523.75	65535.00
523.92	65535.00
524.10	65535.00
524.27	65535.00
524.44	65535.00
524.61	65535.00
524.78	65441.38
524.96	65216.69
525.13	65513.94
525.30	65535.00
525.47	65535.00
525.64	65535.00
525.81	65041.15
525.98	63210.85
526.16	62106.12
526.33	61499.92
526.50	61886.10
526.67	61806.53
526.84	62382.30
527.01	63419.16
527.18	64133.02
527.36	65471.81
527.53	65535.00
527.70	65495.21
527.87	65504.57
528.04	65535.00
528.21	65535.00
528.38	65535.00
528.55	65535.00
528.72	65535.00
528.89	65535.00
529.07	65535.00
529.24	65513.94
529.41	65448.40
529.58	65314.99
529.75	65535.00
529.92	65535.00
530.09	65535.00
530.26	65535.00
530.43	65535.00
530.60	65535.00
530.77	65535.00
530.94	65535.00
531.11	65535.00
531.28	65535.00
531.46	65535.00
531.63	65535.00
531.80	65106.68
531.97	64544.95
532.14	64336.65
532.31	63489.37
532.48	63028.29
532.65	63721.08
532.82	64203.24
532.99	65340.74
533.16	65535.00
533.33	65535.00
533.50	65034.13
533.67	64825.82
533.84	64727.52
534.01	65289.24
534.18	65219.03
534.35	65483.51
534.52	65228.39
534.69	65535.00
534.86	65535.00
535.03	65535.00
535.20	65535.00
535.37	65535.00
535.54	65535.00
535.71	65535.00
535.88	65535.00
536.05	65424.99
536.22	65422.65
536.38	64994.34
536.55	64743.90
536.72	64746.24
536.89	64434.95
537.06	64914.76
537.23	65076.26
537.40	65155.83
537.57	65535.00
537.74	65001.36
537.91	65399.25
538.08	64746.24
538.25	65237.75
538.42	65125.41
538.59	65310.31
538.75	64938.16
538.92	65392.23
539.09	65261.16
539.26	64467.72
539.43	64528.57
539.60	64505.16
539.77	63985.57
539.94	63894.28
540.11	63437.88
540.28	62925.30
540.44	63627.46
540.61	63175.74
540.78	64481.76
540.95	64177.49
541.12	64128.34
541.29	64603.47
541.46	64828.16
541.62	65235.41
541.79	65197.96
541.96	64100.25
542.13	64273.45
542.30	64547.29
542.47	63980.88
542.63	64100.25
542.80	63973.86
542.97	63964.50
543.14	64526.23
543.31	64245.36
543.48	64739.22
543.64	65499.89
543.81	65535.00
543.98	65535.00
544.15	64849.22
544.32	64376.43
544.48	64629.21
544.65	64708.79
544.82	65535.00
544.99	65106.68
545.16	65045.83
545.32	65137.11
545.49	65535.00
545.66	65535.00
545.83	65535.00
546.00	64580.06
546.16	64884.33
546.33	64725.17
546.50	63803.00
546.67	63980.88
546.83	64039.40
547.00	63866.20
547.17	63505.76
547.34	63372.34
547.50	63508.10
547.67	63941.10
547.84	64584.74
548.00	64755.60
548.17	64355.37
548.34	64533.25
548.51	65455.42
548.67	64980.29
548.84	64830.50
549.01	64811.77
549.18	64463.03
549.34	64605.81
549.51	64285.15
549.68	64193.87
549.84	63650.87
550.01	64315.58
550.18	64137.70
550.34	64390.48
550.51	63866.20
550.68	64102.59
550.84	63325.53
551.01	63744.49
551.18	63702.36
551.34	63936.41
551.51	64334.31
551.68	64034.72
551.84	64559.00
552.01	64551.98
552.18	63931.73
552.34	63194.46
552.51	62894.88
552.68	63054.03
552.84	63931.73
553.01	64381.12
553.18	64278.13
553.34	64303.88
553.51	64140.04
553.67	64727.52
553.84	65034.13
554.01	64544.95
554.17	64271.11
554.34	64601.13
554.51	64315.58
554.67	64741.56
554.84	64612.83
555.00	64399.84
555.17	64467.72
555.33	64671.34
555.50	64301.54
555.67	64418.56
555.83	64130.68
556.00	63325.53
556.16	63126.59
556.33	63107.86
556.50	63039.99
556.66	61984.41
556.83	62667.84
556.99	63325.53
557.16	63957.48
557.32	63763.21
557.49	63498.73
557.65	63524.48
557.82	63398.09
557.98	62862.11
558.15	62642.10
558.32	61319.70
558.48	61401.61
558.65	61998.45
558.81	62794.23
558.98	62379.96
559.14	62291.02
559.31	62684.23
559.47	62934.66
559.64	62330.81
559.80	62143.56
559.97	62482.94
560.13	62382.30
560.30	63484.69
560.46	64355.37
560.63	64605.81
560.79	64353.03
560.96	62979.14
561.12	61619.28
561.29	62288.68
561.45	63023.61
561.61	62658.48
561.78	63142.97
561.94	62382.30
562.11	63049.35
562.27	62609.33
562.44	62560.18
562.60	63271.70
562.77	62979.14
562.93	62454.86
563.10	62747.42
563.26	62429.11
563.42	63072.76
563.59	61322.04
563.75	62291.02
563.92	62529.75
564.08	62789.55
564.24	62663.16
564.41	62260.59
564.57	62101.43
564.74	61785.46
564.90	61619.28
565.07	61345.44
565.23	61481.19
565.39	61984.41
565.56	61825.25
565.72	61904.83
565.88	62550.82
566.05	62071.01
566.21	62532.09
566.38	62157.61
566.54	63065.73
566.70	62805.94
566.87	62148.24
567.03	61928.23
567.19	62852.75
567.36	61717.59
567.52	62017.17
567.68	61684.82
567.85	61193.31
568.01	61193.31
568.17	61415.66
568.34	60856.27
568.50	60458.38
568.66	60947.55
568.83	61670.78
568.99	61368.85
569.15	61389.91
569.32	61326.72
569.48	61151.18
569.64	61102.03
569.81	61202.67
569.97	60638.60
570.13	60591.79
570.30	60388.16
570.46	59770.26
570.62	59688.34
570.78	60055.81
570.95	60577.75
571.11	61102.03
571.27	61319.70
571.43	61298.63
571.60	61497.58
571.76	60589.45
571.92	61179.26
572.09	61516.30
572.25	61331.40
572.41	61165.22
572.57	60935.85
572.74	61174.58
572.90	61186.28
573.06	62241.87
573.22	61478.85
573.38	60877.33
573.55	61670.78
573.71	61773.76
573.87	61642.69
574.03	61694.18
574.20	60629.24
574.36	60219.64
574.52	59931.76
574.68	59407.48
574.84	58892.56
575.01	58768.51
575.17	59405.14
575.33	59693.02
575.49	60790.73
575.65	60229.01
575.82	60423.27
575.98	60133.04
576.14	59936.44
576.30	60460.72
576.46	59693.02
576.62	60500.51
576.79	60980.32
576.95	60741.58
577.11	60753.29
577.27	60348.37
577.43	59765.58
577.59	59632.17
577.75	59166.40
577.92	59072.78
578.08	59597.06
578.24	59327.90
578.40	59568.97
578.56	59482.37
578.72	60137.72
578.88	59910.69
579.04	59849.84
579.21	60165.81
579.37	60128.36
579.53	59573.66
579.69	59934.10
579.85	60254.75
580.01	59767.92
580.17	59503.44
580.33	59643.87
580.49	58525.10
580.65	59559.61
580.82	59360.67
580.98	58967.46
581.14	59150.02
581.30	59662.60
581.46	60381.14
581.62	60076.87
581.78	59524.50
581.94	59327.90
582.10	59657.91
582.26	61090.32
582.42	60577.75
582.58	60451.36
582.74	60498.17
582.90	60252.41
583.06	60285.18
583.22	60041.76
583.38	59915.37
583.54	59337.26
583.70	58953.41
583.86	59199.17
584.02	59264.70
584.18	59512.80
584.34	60116.66
584.50	60151.77
584.66	59124.27
584.82	58436.16
584.98	58265.30
585.14	58925.33
