SpectraSuite Data File
++++++++++++++++++++++++++++++++++++
Date: Mon Oct 07 14:52:57 GMT-05:00 2013
User: price-jones
Dark Spectrum Present: No
Reference Spectrum Present: No
Number of Sampled Component Spectra: 1
Spectrometers: USB2+H05261
Integration Time (usec): 100000 (USB2+H05261)
Spectra Averaged: 1 (USB2+H05261)
Boxcar Smoothing: 0 (USB2+H05261)
Correct for Electrical Dark: No (USB2+H05261)
Strobe/Lamp Enabled: No (USB2+H05261)
Correct for Detector Non-linearity: No (USB2+H05261)
Correct for Stray Light: No (USB2+H05261)
Number of Pixels in Processed Spectrum: 2048
>>>>>Begin Processed Spectral Data<<<<<
365.73	0.00
365.92	0.00
366.12	0.00
366.32	0.00
366.52	0.00
366.72	0.00
366.91	0.00
367.11	0.00
367.31	0.00
367.51	0.00
367.70	0.00
367.90	0.00
368.10	0.00
368.30	0.00
368.49	0.00
368.69	0.00
368.89	0.00
369.09	0.00
369.28	0.00
369.48	0.00
369.68	0.00
369.87	0.00
370.07	0.00
370.27	0.00
370.47	454.06
370.66	2464.58
370.86	3054.40
371.06	3206.53
371.25	3241.64
371.45	3007.59
371.65	2679.91
371.84	2427.14
372.04	2478.63
372.24	2878.86
372.44	3030.99
372.63	2937.37
372.83	2628.42
373.03	2319.47
373.22	2237.55
373.42	2518.42
373.62	2822.69
373.81	3091.85
374.01	2897.58
374.21	2670.55
374.40	2408.41
374.60	2593.31
374.79	3077.80
374.99	3379.73
375.19	3896.99
375.38	3791.67
375.58	3471.01
375.78	3330.58
375.97	3384.41
376.17	3651.24
376.37	3595.06
376.56	3538.89
376.76	3824.44
376.95	4102.96
377.15	4332.33
377.35	4603.83
377.54	4741.93
377.74	4788.74
377.93	4830.87
378.13	4571.07
378.33	4587.45
378.52	4140.41
378.72	3852.52
378.91	3990.61
379.11	3878.27
379.31	3756.56
379.50	3768.26
379.70	4067.85
379.89	4379.14
380.09	4664.69
380.28	4798.10
380.48	4861.29
380.68	4770.01
380.87	4613.20
381.07	4271.48
381.26	3906.35
381.46	3749.54
381.65	3695.71
381.85	3552.93
382.04	3246.32
382.24	2963.12
382.43	3054.40
382.63	2787.58
382.83	2761.83
383.02	2949.08
383.22	2925.67
383.41	2878.86
383.61	3136.32
383.80	3576.34
384.00	4088.92
384.19	4550.00
384.39	4809.80
384.58	4929.17
384.78	4770.01
384.97	4587.45
385.17	4243.39
385.36	4170.83
385.56	4182.54
385.75	4187.22
385.95	4519.57
386.14	4814.48
386.34	4959.60
386.53	4716.18
386.72	4325.31
386.92	4496.17
387.11	4833.21
387.31	4840.23
387.50	4856.61
387.70	4699.80
387.89	4554.68
388.09	4901.08
388.28	4624.90
388.48	4767.67
388.67	5036.83
388.86	5533.03
389.06	6211.78
389.25	6422.43
389.45	6511.37
389.64	6176.67
389.84	6293.70
390.03	6136.88
390.22	6310.08
390.42	6392.00
390.61	6895.22
390.81	7258.00
391.00	7473.33
391.19	7351.62
391.39	6918.62
391.58	6726.70
391.78	6359.24
391.97	5919.21
392.16	5708.57
392.36	5280.25
392.55	4058.49
392.75	3262.71
392.94	2705.66
393.13	2637.78
393.33	3262.71
393.52	3981.25
393.71	5004.07
393.91	5776.44
394.10	6101.78
394.29	6677.55
394.49	7302.47
394.68	7744.83
394.88	7826.75
395.07	8191.88
395.26	8042.08
395.46	7646.53
395.65	7129.27
395.84	6176.67
396.04	5556.43
396.23	4437.66
396.42	3709.75
396.62	3527.19
396.81	4259.78
397.00	5259.18
397.19	6626.06
397.39	7754.19
397.58	9041.49
397.77	9577.47
397.97	9701.52
398.16	9844.29
398.35	10408.36
398.55	10349.85
398.74	10616.67
398.93	11044.99
399.12	10902.22
399.32	10555.82
399.51	11052.01
399.70	11592.67
399.90	11300.11
400.09	11428.84
400.28	11269.68
400.47	11426.50
400.67	12037.38
400.86	12212.92
401.05	12486.76
401.24	12519.53
401.44	12786.35
401.63	12266.75
401.82	12437.61
402.01	12388.46
402.21	12683.36
402.40	13064.87
402.59	12683.36
402.78	11744.81
402.97	11529.48
403.17	11815.02
403.36	12823.80
403.55	13270.84
403.74	13413.61
403.93	12791.03
404.13	11908.65
404.32	11424.15
404.51	11927.37
404.70	12840.18
404.89	12751.24
405.09	12980.61
405.28	12629.53
405.47	12404.84
405.66	12531.23
405.85	12002.27
406.05	11779.92
406.24	11971.84
406.43	12552.29
406.62	12833.16
406.81	13114.02
407.00	12451.65
407.20	12140.36
407.39	12416.54
407.58	13092.96
407.77	13327.01
407.96	13949.59
408.15	14087.68
408.34	14319.40
408.54	14906.87
408.73	14754.74
408.92	14607.28
409.11	14317.06
409.30	13319.99
409.49	12554.63
409.68	11791.62
409.87	11459.26
410.07	12194.19
410.26	13345.73
410.45	14108.75
410.64	14274.93
410.83	14731.33
411.02	15276.68
411.21	15641.80
411.40	15501.37
411.59	15667.55
411.78	15625.42
411.98	15419.45
412.17	15857.13
412.36	15496.69
412.55	15477.96
412.74	14949.00
412.93	14700.90
413.12	14930.28
413.31	16266.72
413.50	16762.92
413.69	16732.49
413.88	16109.91
414.07	15569.24
414.26	15969.48
414.45	16451.63
414.64	16379.07
414.83	16341.62
415.02	15896.92
415.22	16145.02
415.41	16603.76
415.60	17256.77
415.79	17860.63
415.98	17949.57
416.17	18143.83
416.36	17568.06
416.55	17504.87
416.74	17001.65
416.93	16130.97
417.12	16156.72
417.31	16662.27
417.50	16961.86
417.69	17256.77
417.88	17184.21
418.07	16968.88
418.26	16898.67
418.45	17252.09
418.64	17713.17
418.83	18272.56
419.02	18164.90
419.21	17759.98
419.39	17116.34
419.58	16018.63
419.77	16496.10
419.96	16931.44
420.15	18108.72
420.34	18616.62
420.53	19517.73
420.72	19349.21
420.91	19417.08
421.10	19077.71
421.29	19068.34
421.48	18443.42
421.67	19403.04
421.86	18532.36
422.05	17308.26
422.24	15660.52
422.43	15541.16
422.61	17235.70
422.80	18539.38
422.99	18691.52
423.18	17968.29
423.37	17495.50
423.56	17661.68
423.75	17774.03
423.94	18104.04
424.13	17142.08
424.32	17397.20
424.50	17893.40
424.69	17216.98
424.88	17284.86
425.07	17298.90
425.26	16943.14
425.45	17287.20
425.64	16830.79
425.83	16882.28
426.01	17818.50
426.20	18317.03
426.39	17977.65
426.58	16608.44
426.77	15421.79
426.96	14848.36
427.15	15435.83
427.33	16783.98
427.52	17680.41
427.71	17441.67
427.90	17008.67
428.09	17364.43
428.28	17043.78
428.46	16528.86
428.65	16074.80
428.84	16159.06
429.03	16893.99
429.22	15772.87
429.40	14771.12
429.59	13547.02
429.78	11932.05
429.97	12233.98
430.16	12142.70
430.34	12067.80
430.53	12177.81
430.72	12772.30
430.91	14209.39
431.10	16255.02
431.28	19426.45
431.47	21001.63
431.66	21120.99
431.85	18939.62
432.03	17521.25
432.22	16992.29
432.41	17619.55
432.60	19386.66
432.79	20042.01
432.97	20968.86
433.16	19985.83
433.35	18284.26
433.54	16566.31
433.72	15517.75
433.91	16278.43
434.10	17996.38
434.28	19339.85
434.47	20271.38
434.66	19915.62
434.85	19494.32
435.03	19407.72
435.22	19988.18
435.41	21177.17
435.59	21099.93
435.78	21642.93
435.97	22022.10
436.16	22230.41
436.34	21696.77
436.53	21207.59
436.72	21231.00
436.90	20170.74
437.09	19983.49
437.28	19822.00
437.46	20507.77
437.65	20144.99
437.84	19206.44
438.02	17593.81
438.21	17436.99
438.40	18534.70
438.58	20137.97
438.77	20723.10
438.96	20664.59
439.14	21792.73
439.33	22349.78
439.52	22326.37
439.70	22010.40
439.89	21174.83
440.08	20666.93
440.26	20872.90
440.45	21570.38
440.63	23035.55
440.82	24201.14
441.01	23716.65
441.19	23365.57
441.38	24432.85
441.57	24507.75
441.75	25240.34
441.94	25298.85
442.12	25043.73
442.31	25895.69
442.50	25392.47
442.68	25172.46
442.87	25181.82
443.05	24687.97
443.24	25247.36
443.43	25156.08
443.61	25689.72
443.80	26263.15
443.98	24800.32
444.17	25106.93
444.35	26302.94
444.54	26824.88
444.73	26429.33
444.91	25296.51
445.10	24294.76
445.28	23239.18
445.47	22874.06
445.65	23307.05
445.84	23681.54
446.02	24854.15
446.21	25015.65
446.39	25156.08
446.58	25458.01
446.77	26089.95
446.95	26096.97
447.14	26792.11
447.32	27384.27
447.51	26288.90
447.69	25509.50
447.88	25146.72
448.06	25544.61
448.25	26366.13
448.43	26548.70
448.62	25715.47
448.80	25572.69
448.99	26387.20
449.17	26054.84
449.36	26125.06
449.54	27412.35
449.73	27690.88
449.91	28093.45
450.10	28528.79
450.28	28924.34
450.46	28744.12
450.65	28811.99
450.83	28503.04
451.02	27754.07
451.20	27725.99
451.39	27946.00
451.57	27564.49
451.76	28025.57
451.94	27405.33
452.13	26728.92
452.31	25668.66
452.49	24414.13
452.68	24840.11
452.86	25039.05
453.05	25549.29
453.23	26129.74
453.42	26630.62
453.60	27346.82
453.78	27779.82
453.97	27028.51
454.15	27278.94
454.34	26522.95
454.52	26845.94
454.70	26108.68
454.89	26979.36
455.07	26443.37
455.26	27133.83
455.44	28088.77
455.62	28636.45
455.81	28601.35
455.99	28336.87
456.17	28318.14
456.36	28374.31
456.54	29193.50
456.73	29333.93
456.91	30052.48
457.09	29647.57
457.28	30211.64
457.46	28900.94
457.64	28744.12
457.83	28039.62
458.01	27449.80
458.19	28472.62
458.38	28554.54
458.56	29298.83
458.74	29153.71
458.93	28109.83
459.11	28594.32
459.29	28175.37
459.48	28517.09
459.66	28641.14
459.84	29139.67
460.03	29212.23
460.21	29022.64
460.39	29907.37
460.57	29984.60
460.76	30307.60
460.94	30394.20
461.12	29610.12
461.31	29668.63
461.49	29682.67
461.67	30019.71
461.85	30916.14
462.04	30668.04
462.22	30658.68
462.40	30520.59
462.59	30349.73
462.77	30668.04
462.95	30328.66
463.13	30146.10
463.32	30206.95
463.50	29806.72
463.68	30000.99
463.86	30045.46
464.05	29310.53
464.23	28978.17
464.41	28512.41
464.59	28053.66
464.78	29535.22
464.96	29991.62
465.14	29502.45
465.32	30038.44
465.50	31023.80
465.69	31337.43
465.87	30471.43
466.05	29357.34
466.23	28238.56
466.41	27819.61
466.60	28676.24
466.78	28376.66
466.96	29036.69
467.14	29525.86
467.32	29984.60
467.51	29776.30
467.69	28868.17
467.87	28978.17
468.05	29727.14
468.23	29914.39
468.41	29879.28
468.60	30089.93
468.78	29928.43
468.96	30015.03
469.14	30136.74
469.32	30279.51
469.50	29179.46
469.69	29071.79
469.87	28762.84
470.05	28790.93
470.23	28577.94
470.41	28828.38
470.59	29509.47
470.77	29483.73
470.95	30106.31
471.14	30206.95
471.32	30185.89
471.50	32297.05
471.68	32163.64
471.86	32737.07
472.04	32851.76
472.22	32666.86
472.40	31079.97
472.58	30782.73
472.77	30438.67
472.95	31405.31
473.13	31807.88
473.31	31398.29
473.49	31508.29
473.67	31697.88
473.85	32011.51
474.03	32769.84
474.21	33064.75
474.39	33551.58
474.57	33923.72
474.75	33134.96
474.93	33020.28
475.12	32339.18
475.30	32844.74
475.48	32533.45
475.66	33462.64
475.84	32957.08
476.02	32409.40
476.20	32135.56
476.38	32940.70
476.56	33596.05
476.74	34192.89
476.92	34492.47
477.10	34759.30
477.28	35732.96
477.46	35683.81
477.64	36383.63
477.82	36622.36
478.00	36629.38
478.18	35959.99
478.36	36299.37
478.54	36184.68
478.72	35992.76
478.90	36430.44
479.08	37797.31
479.26	38480.75
479.44	38302.87
479.62	37790.29
479.80	37827.74
479.98	38511.17
480.16	38197.54
480.34	37757.52
480.52	38466.70
480.70	38258.40
480.88	38602.46
481.06	39803.15
481.24	39491.86
481.41	40662.13
481.59	40737.02
481.77	40910.22
481.95	40645.74
482.13	39957.63
482.31	40336.79
482.49	40692.55
482.67	41273.01
482.85	41345.56
483.03	41865.16
483.21	41989.21
483.39	41900.27
483.57	41172.36
483.74	40861.07
483.92	41102.15
484.10	41427.48
484.28	42403.49
484.46	42899.68
484.64	43220.33
484.82	42115.60
485.00	41677.92
485.18	40952.35
485.35	39728.25
485.53	36634.06
485.71	33818.40
485.89	33301.14
486.07	35119.74
486.25	38230.31
486.43	40388.28
486.61	41043.63
486.78	40816.60
486.96	41251.94
487.14	42665.63
487.32	43545.67
487.50	44830.62
487.68	45642.79
487.85	46188.13
488.03	46094.51
488.21	45766.84
488.39	45226.17
488.57	44098.03
488.75	43454.39
488.92	44884.45
489.10	47842.89
489.28	49167.63
489.46	50005.55
489.64	49626.38
489.81	49731.70
489.99	49382.96
490.17	49090.40
490.35	49722.34
490.53	49017.84
490.70	48861.02
490.88	48741.66
491.06	49935.33
491.24	49617.02
491.41	48807.19
491.59	46614.11
491.77	45883.86
491.95	47147.75
492.13	48872.73
492.30	50078.10
492.48	50981.55
492.66	51793.71
492.84	51849.89
493.01	51344.33
493.19	50384.71
493.37	50384.71
493.54	49729.36
493.72	50632.81
493.90	51796.06
494.08	52582.48
494.25	53120.80
494.43	53331.45
494.61	53719.98
494.79	53780.83
494.96	53734.02
495.14	52720.57
495.32	51924.78
495.49	51175.81
495.67	52842.27
495.85	53675.51
496.02	54223.19
496.20	54071.06
496.38	53481.24
496.55	53284.64
496.73	54176.38
496.91	53975.09
497.09	54621.08
497.26	54897.27
497.44	54319.15
497.62	53783.17
497.79	52966.32
497.97	51281.14
498.14	51978.62
498.32	53076.33
498.50	54157.66
498.67	54707.68
498.85	54422.14
499.03	54768.54
499.20	54686.62
499.38	54735.77
499.56	54866.84
499.73	54220.85
499.91	53614.65
500.08	53167.61
500.26	52636.31
500.44	53176.97
500.61	53755.08
500.79	53572.52
500.97	53258.89
501.14	53291.66
501.32	52865.68
501.49	52849.30
501.67	53212.08
501.84	53762.11
502.02	54066.38
502.20	54057.01
502.37	54602.36
502.55	54398.73
502.72	55007.27
502.90	55606.45
503.07	54883.22
503.25	54817.69
503.43	54057.01
503.60	53261.23
503.78	52413.96
503.95	53155.91
504.13	54581.29
504.30	55313.88
504.48	55192.17
504.65	55049.40
504.83	55023.65
505.01	55599.43
505.18	56069.87
505.36	56530.96
505.53	56388.19
505.71	56898.42
505.88	56914.81
506.06	56140.09
506.23	55770.28
506.41	55402.82
506.58	55756.24
506.76	55487.08
506.93	55838.16
507.11	55447.29
507.28	55517.51
507.46	54890.24
507.63	54438.52
507.81	54258.30
507.98	54436.18
508.16	55260.05
508.33	55735.18
508.50	56163.50
508.68	56383.51
508.85	57024.81
509.03	56959.28
509.20	56851.61
509.38	55901.36
509.55	55206.22
509.73	55590.06
509.90	56287.54
510.08	56317.97
510.25	56102.64
510.42	56034.77
510.60	55662.62
510.77	56114.34
510.95	56743.95
511.12	57113.75
511.30	57048.22
511.47	57286.95
511.64	57268.23
511.82	56896.08
511.99	55936.46
512.17	56030.08
512.34	55538.57
512.51	55512.83
512.69	55772.63
512.86	56130.73
513.04	56324.99
513.21	56645.65
513.38	55891.99
513.56	55393.46
513.73	54583.63
513.90	54887.90
514.08	55082.17
514.25	55489.42
514.43	55587.72
514.60	55585.38
514.77	55908.38
514.95	55955.19
515.12	55934.12
515.29	56280.52
515.47	56547.34
515.64	57083.33
515.81	56385.85
515.99	55828.80
516.16	54052.33
516.33	51475.40
516.51	50534.51
516.68	48872.73
516.85	48715.91
517.03	49680.21
517.20	52339.06
517.37	54946.42
517.54	56154.13
517.72	55161.75
517.89	52762.70
518.06	50494.72
518.24	50775.58
518.41	53478.90
518.58	54637.47
518.75	54728.75
518.93	55199.19
519.10	54979.18
519.27	55161.75
519.45	55664.96
519.62	56212.65
519.79	56774.37
519.96	56245.41
520.14	55966.89
520.31	54948.76
520.48	55398.14
520.65	55571.34
520.83	56549.68
521.00	56804.80
521.17	56486.49
521.34	56207.97
521.52	56488.83
521.69	57073.96
521.86	57556.11
522.03	56975.66
522.20	55817.10
522.38	54656.19
522.55	55065.78
522.72	55426.23
522.89	55732.84
523.07	55793.69
523.24	56039.45
523.41	57031.83
523.58	57333.76
523.75	57570.16
523.92	57687.18
524.10	57542.07
524.27	57354.83
524.44	57284.61
524.61	57118.43
524.78	56942.89
524.96	56547.34
525.13	56968.64
525.30	57392.28
525.47	57516.32
525.64	57609.95
525.81	56671.39
525.98	55320.90
526.16	53780.83
526.33	52917.17
526.50	52542.69
526.67	52420.98
526.84	52898.45
527.01	53911.90
527.18	55210.90
527.36	55990.30
527.53	56893.74
527.70	57069.28
527.87	56619.90
528.04	56051.15
528.21	56633.94
528.38	56933.53
528.55	57719.95
528.72	58047.63
528.89	58056.99
529.07	57989.11
529.24	57240.14
529.41	56577.77
529.58	56100.30
529.75	56289.88
529.92	56622.24
530.09	57237.80
530.26	57340.78
530.43	57942.30
530.60	57914.22
530.77	58166.99
530.94	58262.96
531.11	57764.42
531.28	57209.71
531.46	56982.68
531.63	57198.01
531.80	57193.33
531.97	56664.37
532.14	56023.06
532.31	54674.91
532.48	54049.99
532.65	54277.02
532.82	55367.71
532.99	56266.48
533.16	56371.80
533.33	57146.52
533.50	57123.11
533.67	56486.49
533.84	56175.20
534.01	56151.79
534.18	56266.48
534.35	56685.43
534.52	56446.70
534.69	56680.75
534.86	57013.11
535.03	57343.12
535.20	57715.27
535.37	58293.38
535.54	58258.27
535.71	57799.53
535.88	57574.84
536.05	57080.98
536.22	56605.86
536.38	55976.25
536.55	55639.22
536.72	55164.09
536.89	55086.85
537.06	56037.11
537.23	56729.90
537.40	57092.69
537.57	56968.64
537.74	56706.50
537.91	56666.71
538.08	56893.74
538.25	57045.88
538.42	57071.62
538.59	56671.39
538.75	56030.08
538.92	55899.01
539.09	55674.32
539.26	55508.14
539.43	55440.27
539.60	55526.87
539.77	55693.05
539.94	55639.22
540.11	54546.18
540.28	54401.07
540.44	54326.17
540.61	54384.69
540.78	54747.47
540.95	55407.50
541.12	55767.94
541.29	56332.01
541.46	56418.61
541.62	56371.80
541.79	56154.13
541.96	55590.06
542.13	55552.62
542.30	55693.05
542.47	56037.11
542.63	55796.03
542.80	55489.42
542.97	55838.16
543.14	55498.78
543.31	55674.32
543.48	56245.41
543.64	56961.62
543.81	57230.78
543.98	56938.21
544.15	56219.67
544.32	55554.96
544.48	55856.88
544.65	56376.48
544.82	56563.73
544.99	56203.28
545.16	55737.52
545.32	55695.39
545.49	56587.13
545.66	56914.81
545.83	56432.66
546.00	55959.87
546.16	55899.01
546.33	55969.23
546.50	55938.80
546.67	56357.76
546.83	55648.58
547.00	55959.87
547.17	55096.21
547.34	54511.08
547.50	54616.40
547.67	55056.42
547.84	55051.74
548.00	55650.92
548.17	56030.08
548.34	56030.08
548.51	55990.30
548.67	55924.76
548.84	56114.34
549.01	55753.90
549.18	55657.94
549.34	55767.94
549.51	55952.85
549.68	55543.25
549.84	55341.97
550.01	55103.23
550.18	55121.96
550.34	55121.96
550.51	55622.83
550.68	55356.01
550.84	55021.31
551.01	55203.88
551.18	54995.57
551.34	55070.46
551.51	55725.81
551.68	55880.29
551.84	55980.93
552.01	55594.74
552.18	55594.74
552.34	54534.48
552.51	54309.79
552.68	54054.67
552.84	54679.60
553.01	55199.19
553.18	54822.37
553.34	55203.88
553.51	55337.29
553.67	55531.55
553.84	55636.87
554.01	55643.90
554.17	55337.29
554.34	55515.17
554.51	55299.84
554.67	56189.24
554.84	55587.72
555.00	55152.38
555.17	55133.66
555.33	55327.92
555.50	55018.97
555.67	55044.72
555.83	54752.15
556.00	54370.64
556.16	54553.21
556.33	54078.08
556.50	54197.44
556.66	54021.90
556.83	53506.99
556.99	54017.22
557.16	54017.22
557.32	54321.49
557.49	54330.86
557.65	54475.97
557.82	54321.49
557.98	54122.55
558.15	53719.98
558.32	53090.37
558.48	52137.77
558.65	52257.14
558.81	52570.77
558.98	52875.04
559.14	53237.83
559.31	53294.00
559.47	53308.04
559.64	53097.39
559.80	52570.77
559.97	52772.06
560.13	53425.07
560.30	54101.48
560.46	54337.88
560.63	54901.95
560.79	54915.99
560.96	54007.86
561.12	53251.87
561.29	52444.38
561.45	52336.72
561.61	53015.47
561.78	53822.96
561.94	52987.39
562.11	53343.15
562.27	53406.34
562.44	53237.83
562.60	53764.45
562.77	54237.23
562.93	54003.18
563.10	53869.77
563.26	53130.16
563.42	53371.24
563.59	53010.79
563.75	53097.39
563.92	53251.87
564.08	53095.05
564.24	53399.32
564.41	53631.04
564.57	53097.39
564.74	53027.18
564.90	53041.22
565.07	52713.55
565.23	51892.02
565.39	51655.62
565.56	51494.13
565.72	51323.27
565.88	51835.84
566.05	51774.99
566.21	51987.98
566.38	52268.84
566.54	52233.74
566.70	52718.23
566.87	52947.60
567.03	52739.29
567.19	53212.08
567.36	52781.42
567.52	52816.53
567.68	52512.26
567.85	51805.42
568.01	51313.90
568.17	50939.42
568.34	50754.52
568.50	50827.07
568.66	51002.61
568.83	51452.00
568.99	51351.35
569.15	51889.68
569.32	51962.23
569.48	51365.40
569.64	51351.35
569.81	51007.29
569.97	50721.75
570.13	50607.06
570.30	50017.25
570.46	49509.35
570.62	49205.08
570.78	48989.75
570.95	48996.77
571.11	50052.36
571.27	50513.44
571.43	50808.35
571.60	51000.27
571.76	51484.76
571.92	51442.63
572.09	51941.17
572.25	51906.06
572.41	51962.23
572.57	51554.98
572.74	51349.01
572.90	51058.79
573.06	50962.82
573.22	50719.41
573.38	50834.10
573.55	51327.95
573.71	51281.14
573.87	50864.52
574.03	50602.38
574.20	50780.26
574.36	50267.69
574.52	50190.45
574.68	49893.20
574.84	49464.88
575.01	49169.97
575.17	49071.67
575.33	49375.94
575.49	50138.96
575.65	50108.53
575.82	50061.72
575.98	49081.03
576.14	49656.81
576.30	49911.92
576.46	50148.32
576.62	50087.46
576.79	50061.72
576.95	49869.79
577.11	49427.43
577.27	49668.51
577.43	49858.09
577.59	49223.81
577.75	48669.10
577.92	47777.36
578.08	47419.25
578.24	47852.25
578.40	47971.62
578.56	48776.76
578.72	48715.91
578.88	48907.83
579.04	49275.30
579.21	49179.34
579.37	49205.08
579.53	49588.93
579.69	49366.58
579.85	49333.81
580.01	49137.21
580.17	48666.76
580.33	48732.29
580.49	48879.75
580.65	49034.22
580.82	49249.55
580.98	49282.32
581.14	49027.20
581.30	49226.15
581.46	49043.59
581.62	49338.49
581.78	49181.68
581.94	49670.85
582.10	49382.96
582.26	49490.63
582.42	49443.82
582.58	49776.17
582.74	49642.76
582.90	49439.14
583.06	49371.26
583.22	49137.21
583.38	49272.96
583.54	49237.85
583.70	49055.29
583.86	49134.87
584.02	48945.28
584.18	49244.87
584.34	49130.19
584.50	48751.02
584.66	48673.78
584.82	48215.04
584.98	48133.12
585.14	47657.99
585.30	46447.93
