SpectraSuite Data File
++++++++++++++++++++++++++++++++++++
Date: Mon Oct 07 14:53:34 GMT-05:00 2013
User: price-jones
Dark Spectrum Present: No
Reference Spectrum Present: No
Number of Sampled Component Spectra: 1
Spectrometers: USB2+H05261
Integration Time (usec): 100000 (USB2+H05261)
Spectra Averaged: 1 (USB2+H05261)
Boxcar Smoothing: 0 (USB2+H05261)
Correct for Electrical Dark: No (USB2+H05261)
Strobe/Lamp Enabled: No (USB2+H05261)
Correct for Detector Non-linearity: No (USB2+H05261)
Correct for Stray Light: No (USB2+H05261)
Number of Pixels in Processed Spectrum: 2048
>>>>>Begin Processed Spectral Data<<<<<
365.73	0.00
365.92	0.00
366.12	0.00
366.32	0.00
366.52	0.00
366.72	0.00
366.91	0.00
367.11	0.00
367.31	0.00
367.51	0.00
367.70	0.00
367.90	0.00
368.10	0.00
368.30	0.00
368.49	0.00
368.69	0.00
368.89	0.00
369.09	0.00
369.28	0.00
369.48	0.00
369.68	0.00
369.87	0.00
370.07	0.00
370.27	0.00
370.47	547.69
370.66	2906.95
370.86	3569.32
371.06	3974.23
371.25	3992.95
371.45	3602.08
371.65	3126.96
371.84	2979.50
372.04	3213.56
372.24	3456.97
372.44	3707.41
372.63	3716.77
372.83	3447.61
373.03	3056.74
373.22	2764.17
373.42	3082.49
373.62	3384.41
373.81	3620.81
374.01	3728.47
374.21	3274.41
374.40	3122.27
374.60	3351.65
374.79	3623.15
374.99	4278.50
375.19	4592.13
375.38	4594.47
375.58	4311.27
375.78	4159.13
375.97	4243.39
376.17	4395.53
376.37	4411.91
376.56	4540.64
376.76	4711.50
376.95	5125.77
377.15	5472.17
377.35	5549.41
377.54	5884.11
377.74	5949.64
377.93	6155.61
378.13	5860.70
378.33	5500.26
378.52	5301.31
378.72	4884.70
378.91	4833.21
379.11	4786.40
379.31	4629.58
379.50	4566.39
379.70	4964.28
379.89	5380.89
380.09	5671.12
380.28	5930.92
380.48	6104.12
380.68	5907.51
380.87	5816.23
381.07	5343.44
381.26	4973.64
381.46	4660.01
381.65	4477.44
381.85	4374.46
382.04	4152.11
382.24	3826.78
382.43	3707.41
382.63	3585.70
382.83	3669.96
383.02	3721.45
383.22	3716.77
383.41	3602.08
383.61	3850.18
383.80	4475.10
384.00	4968.96
384.19	5643.03
384.39	5844.32
384.58	5921.56
384.78	5809.21
384.97	5820.91
385.17	5479.19
385.36	5188.97
385.56	4957.25
385.75	5144.50
385.95	5563.45
386.14	6277.32
386.34	6022.20
386.53	5980.07
386.72	5467.49
386.92	5612.60
387.11	5921.56
387.31	6085.39
387.50	6136.88
387.70	5760.06
387.89	5746.02
388.09	5919.21
388.28	5699.20
388.48	5867.72
388.67	6352.21
388.86	6942.03
389.06	7426.52
389.25	7962.50
389.45	8088.89
389.64	7999.95
389.84	7747.17
390.03	7688.66
390.22	7875.90
390.42	7920.37
390.61	8336.99
390.81	9088.30
391.00	9277.88
391.19	9217.03
391.39	8830.84
391.58	8311.24
391.78	7861.86
391.97	7616.10
392.16	7063.74
392.36	6450.52
392.55	5177.26
392.75	4177.86
392.94	3346.97
393.13	3482.72
393.33	3969.55
393.52	5093.01
393.71	6164.97
393.91	7089.48
394.10	7447.58
394.29	8341.67
394.49	8994.68
394.68	9579.81
394.88	9645.35
395.07	9989.41
395.26	9928.55
395.46	9544.70
395.65	9165.54
395.84	8039.74
396.04	6832.02
396.23	5502.60
396.42	4573.41
396.62	4423.61
396.81	4884.70
397.00	6635.42
397.19	8388.48
397.39	9834.93
397.58	11009.88
397.77	11700.34
397.97	12210.57
398.16	12163.76
398.35	12620.17
398.55	13209.98
398.74	13694.47
398.93	13877.04
399.12	13650.00
399.32	13114.02
399.51	13418.29
399.70	14202.37
399.90	14015.13
400.09	14319.40
400.28	13811.50
400.47	13956.61
400.67	14745.38
400.86	15101.14
401.05	14885.81
401.24	15246.25
401.44	15756.49
401.63	15459.24
401.82	15803.30
402.01	15604.35
402.21	16058.42
402.40	16084.16
402.59	15272.00
402.78	14848.36
402.97	14516.00
403.17	14799.21
403.36	15763.51
403.55	16360.34
403.74	16690.36
403.93	15943.73
404.13	14705.59
404.32	14335.78
404.51	15047.30
404.70	16203.53
404.89	16175.44
405.09	15866.49
405.28	15644.14
405.47	15309.44
405.66	15339.87
405.85	14824.95
406.05	14670.48
406.24	14700.90
406.43	15548.18
406.62	16063.10
406.81	15864.15
407.00	15466.26
407.20	15346.89
407.39	15197.10
407.58	16018.63
407.77	16554.61
407.96	17163.15
408.15	17729.56
408.34	17516.57
408.54	18427.04
408.73	18427.04
408.92	18291.29
409.11	17631.26
409.30	16435.24
409.49	15646.48
409.68	14532.39
409.87	14396.64
410.07	14946.66
410.26	16556.95
410.45	17444.01
410.64	17886.37
410.83	18384.91
411.02	18827.27
411.21	19587.94
411.40	19604.33
411.59	19323.46
411.78	19255.59
411.98	19166.65
412.17	19604.33
412.36	18878.76
412.55	19206.44
412.74	18394.27
412.93	18628.32
413.12	18256.18
413.31	20030.30
413.50	20191.80
413.69	20500.75
413.88	19997.54
414.07	19066.00
414.26	19592.62
414.45	20006.90
414.64	20109.88
414.83	20610.76
415.02	20060.73
415.22	19868.81
415.41	20470.33
415.60	20858.85
415.79	22089.98
415.98	22522.98
416.17	22410.63
416.36	21851.24
416.55	21968.27
416.74	20695.02
416.93	20095.84
417.12	20348.62
417.31	20360.32
417.50	20680.97
417.69	21420.58
417.88	21460.37
418.07	21191.21
418.26	20947.79
418.45	21149.08
418.64	21963.59
418.83	23000.44
419.02	22293.60
419.21	22588.51
419.39	21301.22
419.58	20020.94
419.77	20491.39
419.96	20996.95
420.15	21935.50
420.34	23056.62
420.53	23552.81
420.72	24041.98
420.91	23981.13
421.10	23601.96
421.29	23360.89
421.48	22803.84
421.67	23833.68
421.86	23115.13
422.05	21781.03
422.24	19531.77
422.43	19075.37
422.61	21219.30
422.80	22707.88
422.99	23101.09
423.18	22122.74
423.37	21813.79
423.56	21619.53
423.75	22080.61
423.94	22462.12
424.13	20915.03
424.32	21516.54
424.50	21434.63
424.69	21355.05
424.88	21486.12
425.07	21420.58
425.26	21338.66
425.45	21097.59
425.64	20889.28
425.83	20800.34
426.01	21692.08
426.20	22508.93
426.39	22347.44
426.58	20823.75
426.77	19091.75
426.96	18745.35
427.15	18944.30
427.33	20702.04
427.52	21647.61
427.71	21750.60
427.90	21343.35
428.09	21120.99
428.28	20566.29
428.46	20198.82
428.65	20032.65
428.84	20121.59
429.03	20486.71
429.22	19391.34
429.40	18553.43
429.59	17053.14
429.78	15016.88
429.97	14792.19
430.16	15115.18
430.34	15349.23
430.53	15225.18
430.72	15389.02
430.91	17003.99
431.10	19978.81
431.28	23417.06
431.47	25514.18
431.66	25919.09
431.85	23700.26
432.03	22106.36
432.22	20760.55
432.41	21678.04
432.60	23782.18
432.79	24769.89
432.97	25692.06
433.16	24954.79
433.35	22871.72
433.54	20699.70
433.72	19206.44
433.91	19658.16
434.10	22328.71
434.28	23531.75
434.47	24797.98
434.66	24861.17
434.85	23927.30
435.03	23955.38
435.22	24648.18
435.41	26230.38
435.59	25741.21
435.78	26225.70
435.97	27433.42
436.16	27494.27
436.34	27044.89
436.53	26108.68
436.72	26230.38
436.90	24762.87
437.09	24482.00
437.28	24313.48
437.46	25111.61
437.65	25352.68
437.84	23651.11
438.02	21685.06
438.21	21458.03
438.40	22356.80
438.58	24734.78
438.77	25008.62
438.96	25659.29
439.14	26536.99
439.33	27131.49
439.52	27639.39
439.70	27094.04
439.89	26438.69
440.08	25759.94
440.26	25610.14
440.45	26272.51
440.63	27992.81
440.82	29654.59
441.01	29439.26
441.19	29081.16
441.38	29254.36
441.57	30778.04
441.75	30845.92
441.94	31159.55
442.12	30625.91
442.31	31255.51
442.50	31262.54
442.68	31215.72
442.87	30616.55
443.05	29991.62
443.24	30529.95
443.43	30728.89
443.61	31718.94
443.80	32385.99
443.98	30403.56
444.17	30426.96
444.35	32259.60
444.54	32943.04
444.73	32577.92
444.91	30962.95
445.10	29970.56
445.28	28393.04
445.47	28114.52
445.65	28205.80
445.84	29179.46
446.02	29654.59
446.21	30410.58
446.39	30534.63
446.58	30906.77
446.77	30810.81
446.95	31438.08
447.14	32751.12
447.32	33202.84
447.51	32460.89
447.69	31033.16
447.88	30579.10
448.06	30974.65
448.25	31868.73
448.43	32540.47
448.62	31241.47
448.80	31335.09
448.99	31370.20
449.17	32194.07
449.36	32112.15
449.54	33027.30
449.73	33565.62
449.91	33780.95
450.10	34813.13
450.28	35360.81
450.46	34923.13
450.65	35037.82
450.83	34712.49
451.02	33970.54
451.20	34064.16
451.39	33970.54
451.57	33689.67
451.76	33692.01
451.94	34024.37
452.13	33275.40
452.31	31424.03
452.49	30265.47
452.68	30338.02
452.86	30457.39
453.05	30789.75
453.23	31702.56
453.42	32636.43
453.60	33228.59
453.78	33738.82
453.97	33179.43
454.15	33574.98
454.34	32875.16
454.52	32758.14
454.70	32170.66
454.89	32488.98
455.07	32430.46
455.26	33188.80
455.44	34160.12
455.62	35054.20
455.81	34597.80
455.99	34899.73
456.17	34405.88
456.36	34719.51
456.54	35220.38
456.73	35152.51
456.91	36006.80
457.09	36250.22
457.28	36683.22
457.46	35157.19
457.64	35211.02
457.83	34242.04
458.01	33350.29
458.19	34263.10
458.38	34614.18
458.56	35913.18
458.74	35204.00
458.93	34850.58
459.11	34565.03
459.29	34536.94
459.48	34670.36
459.66	34377.79
459.84	35131.44
460.03	35534.01
460.21	35211.02
460.39	36074.68
460.57	36154.26
460.76	36151.91
460.94	36313.41
461.12	36327.45
461.31	36404.69
461.49	36081.70
461.67	36062.97
461.85	37148.98
462.04	36959.40
462.22	37703.69
462.40	36950.04
462.59	36966.42
462.77	37174.73
462.95	37261.33
463.13	36521.72
463.32	36287.67
463.50	36292.35
463.68	36463.21
463.86	36409.37
464.05	35812.54
464.23	35000.37
464.41	35068.25
464.59	34368.43
464.78	35826.58
464.96	35824.24
465.14	35234.42
465.32	36451.50
465.50	37448.57
465.69	37656.88
465.87	36828.33
466.05	36058.29
466.23	34213.95
466.41	33982.24
466.60	34637.59
466.78	34483.11
466.96	34930.16
467.14	35398.26
467.32	36002.12
467.51	36311.07
467.69	34740.57
467.87	35564.44
468.05	36023.19
468.23	36084.04
468.41	35714.23
468.60	35955.31
468.78	36362.56
468.96	35775.09
469.14	36818.97
469.32	36723.01
469.50	35686.15
469.69	35557.42
469.87	34789.72
470.05	34625.89
470.23	34873.98
470.41	35098.67
470.59	35419.33
470.77	35784.45
470.95	36385.97
471.14	36751.09
471.32	36818.97
471.50	38852.89
471.68	38820.13
471.86	39353.77
472.04	39541.01
472.22	39533.99
472.40	38024.34
472.58	37376.01
472.77	37111.53
472.95	37752.84
473.13	38763.95
473.31	37656.88
473.49	37816.04
473.67	38714.80
473.85	38897.36
474.03	39789.11
474.21	40100.40
474.39	40402.33
474.57	40444.46
474.75	40385.94
474.93	39948.26
475.12	39524.63
475.30	39452.07
475.48	39693.15
475.66	40187.00
475.84	39587.82
476.02	39725.91
476.20	38768.63
476.38	39873.37
476.56	40664.47
476.74	41551.53
476.92	41092.79
477.10	42010.28
477.28	43075.22
477.46	42731.16
477.64	43634.61
477.82	43620.56
478.00	43711.84
478.18	43316.29
478.36	42993.30
478.54	42983.94
478.72	43292.89
478.90	43739.93
479.08	45542.14
479.26	45670.87
479.44	45507.04
479.62	45464.91
479.80	45272.98
479.98	45783.22
480.16	45780.88
480.34	45691.94
480.52	45965.78
480.70	46195.15
480.88	46181.11
481.06	46796.67
481.24	47203.92
481.41	47807.78
481.59	48538.03
481.77	48350.79
481.95	47510.53
482.13	47302.23
482.31	47744.59
482.49	48486.54
482.67	48109.71
482.85	48718.25
483.03	49413.39
483.21	49401.69
483.39	49354.88
483.57	48687.82
483.74	48189.29
483.92	48905.49
484.10	48889.11
484.28	49837.03
484.46	50277.05
484.64	50438.54
484.82	49184.02
485.00	49165.29
485.18	48418.66
485.35	46960.51
485.53	44060.58
485.71	40514.67
485.89	39651.02
486.07	41801.97
486.25	45294.05
486.43	47522.24
486.61	48175.25
486.78	48060.56
486.96	48472.49
487.14	49968.10
487.32	50766.22
487.50	51510.51
487.68	52395.23
487.85	52762.70
488.03	52973.34
488.21	52521.62
488.39	52079.26
488.57	51269.43
488.75	50904.31
488.92	51995.00
489.10	53935.30
489.28	55047.06
489.46	55569.00
489.64	55529.21
489.81	55676.66
489.99	55564.32
490.17	55332.60
490.35	55814.76
490.53	55353.67
490.70	55126.64
490.88	54939.39
491.06	55908.38
491.24	55859.23
491.41	54707.68
491.59	53298.68
491.77	52687.80
491.95	53432.09
492.13	54923.01
492.30	55833.48
492.48	56404.57
492.66	57045.88
492.84	57092.69
493.01	56767.35
493.19	56392.87
493.37	56104.98
493.54	55561.98
493.72	56465.42
493.90	57010.77
494.08	58038.26
494.25	58260.62
494.43	58265.30
494.61	58801.28
494.79	58773.19
494.96	58721.70
495.14	58113.16
495.32	57085.67
495.49	56495.85
495.67	57654.42
495.85	58864.47
496.02	59107.89
496.20	59112.57
496.38	58834.05
496.55	58408.07
496.73	58955.75
496.91	59178.10
497.09	59667.28
497.26	59664.94
497.44	59374.71
497.62	58864.47
497.79	58159.97
497.97	57088.01
498.14	57088.01
498.32	58028.90
498.50	58969.80
498.67	59573.66
498.85	59526.84
499.03	59784.30
499.20	59758.56
499.38	59824.09
499.56	59730.47
499.73	59030.65
499.91	58815.32
500.08	58511.05
500.26	57797.19
500.44	57907.19
500.61	58728.72
500.79	58597.65
500.97	58031.24
501.14	58080.39
501.32	58141.25
501.49	58164.65
501.67	58143.59
501.84	58621.06
502.02	58604.67
502.20	59491.74
502.37	59377.05
502.55	59451.95
502.72	59833.46
502.90	60261.77
503.07	59997.29
503.25	59613.44
503.43	58927.67
503.60	58211.46
503.78	57614.63
503.95	57944.64
504.13	59494.08
504.30	60266.45
504.48	59908.35
504.65	59536.21
504.83	59641.53
505.01	60102.62
505.18	60725.20
505.36	61270.54
505.53	61151.18
505.71	61326.72
505.88	61331.40
506.06	60832.86
506.23	60512.21
506.41	60032.40
506.58	60172.83
506.76	60409.23
506.93	60427.95
507.11	60217.30
507.28	60203.26
507.46	59770.26
507.63	59201.51
507.81	58918.31
507.98	59393.43
508.16	59845.16
508.33	60657.32
508.50	60633.92
508.68	61001.38
508.85	61642.69
509.03	61441.40
509.20	61371.19
509.38	60584.77
509.55	59971.55
509.73	60133.04
509.90	60694.77
510.08	60830.52
510.25	60612.85
510.42	60694.77
510.60	60523.91
510.77	60786.05
510.95	61139.47
511.12	61464.81
511.30	61689.50
511.47	62010.15
511.64	61846.32
511.82	61680.14
511.99	60804.78
512.17	60446.68
512.34	59943.46
512.51	60226.66
512.69	60299.22
512.86	60495.83
513.04	61041.17
513.21	60657.32
513.38	60519.23
513.56	60193.90
513.73	59550.25
513.90	59667.28
514.08	59735.15
514.25	60114.32
514.43	60357.74
514.60	60479.44
514.77	60357.74
514.95	60563.70
515.12	60486.46
515.29	60687.75
515.47	61212.03
515.64	61343.10
515.81	61181.60
515.99	60488.80
516.16	59161.72
516.33	57251.84
516.51	55714.11
516.68	54944.08
516.85	54597.68
517.03	54855.14
517.20	57221.42
517.37	59700.04
517.54	60619.88
517.72	60081.55
517.89	58159.97
518.06	55845.18
518.24	55983.27
518.41	58038.26
518.58	59267.05
518.75	59412.16
518.93	59749.20
519.10	59496.42
519.27	60039.42
519.45	60186.88
519.62	60921.80
519.79	61073.94
519.96	61027.13
520.14	60584.77
520.31	59854.52
520.48	59742.17
520.65	60292.20
520.83	61001.38
521.00	61403.95
521.17	60989.68
521.34	60505.19
521.52	60910.10
521.69	61441.40
521.86	61879.08
522.03	61609.92
522.20	60434.97
522.38	59421.52
522.55	59487.06
522.72	60069.85
522.89	60205.60
523.07	60479.44
523.24	60697.11
523.41	61387.57
523.58	61661.41
523.75	62059.30
523.92	62085.05
524.10	61932.92
524.27	62014.83
524.44	61661.41
524.61	61719.93
524.78	61399.27
524.96	61492.89
525.13	61448.42
525.30	61460.13
525.47	62007.81
525.64	61846.32
525.81	61277.57
525.98	60135.38
526.16	58679.57
526.33	58038.26
526.50	57865.06
526.67	57523.35
526.84	57794.85
527.01	58841.07
527.18	59517.48
527.36	60519.23
527.53	61284.59
527.70	61446.08
527.87	60830.52
528.04	60570.72
528.21	61078.62
528.38	61462.47
528.55	62206.76
528.72	62333.15
528.89	62597.63
529.07	62092.07
529.24	61783.12
529.41	61085.64
529.58	60516.89
529.75	60757.97
529.92	61125.43
530.09	61537.36
530.26	62007.81
530.43	62122.50
530.60	62171.65
530.77	62276.97
530.94	62621.03
531.11	62246.55
531.28	61645.03
531.46	61439.06
531.63	61715.25
531.80	61797.16
531.97	61167.56
532.14	60516.89
532.31	59524.50
532.48	58986.18
532.65	58941.71
532.82	59709.41
532.99	60786.05
533.16	61247.14
533.33	61740.99
533.50	61565.45
533.67	60823.50
533.84	60486.46
534.01	60966.27
534.18	60994.36
534.35	61076.28
534.52	60931.17
534.69	61097.34
534.86	61422.68
535.03	61668.44
535.20	62246.55
535.37	62206.76
535.54	62401.02
535.71	62181.01
535.88	61813.55
536.05	61244.80
536.22	60816.48
536.38	60671.37
536.55	60133.04
536.72	59793.67
536.89	59613.44
537.06	60425.61
537.23	61130.11
537.40	61532.68
537.57	61389.91
537.74	61183.94
537.91	61118.41
538.08	61130.11
538.25	61104.37
538.42	61265.86
538.59	61158.20
538.75	60519.23
538.92	60465.40
539.09	60229.01
539.26	60039.42
539.43	59910.69
539.60	59774.94
539.77	60074.53
539.94	60065.17
540.11	59257.68
540.28	58920.65
540.44	58899.58
540.61	59208.53
540.78	59143.00
540.95	59847.50
541.12	60287.52
541.29	60348.37
541.46	60664.35
541.62	60732.22
541.79	60547.32
541.96	59980.91
542.13	59959.84
542.30	60102.62
542.47	60575.40
542.63	60214.96
542.80	59833.46
542.97	60046.44
543.14	60079.21
543.31	60238.37
543.48	60521.57
543.64	61193.31
543.81	61520.98
543.98	61174.58
544.15	60739.24
544.32	60144.75
544.48	60156.45
544.65	60582.43
544.82	61141.81
544.99	60645.62
545.16	60505.19
545.32	60161.13
545.49	60804.78
545.66	61307.99
545.83	60879.67
546.00	60437.31
546.16	60186.88
546.33	60331.99
546.50	60350.71
546.67	60669.03
546.83	60336.67
547.00	60257.09
547.17	59697.70
547.34	59320.88
547.50	59032.99
547.67	59824.09
547.84	59779.62
548.00	59938.78
548.17	60451.36
548.34	60313.26
548.51	60287.52
548.67	60243.05
548.84	60355.39
549.01	60577.75
549.18	60203.26
549.34	60266.45
549.51	60170.49
549.68	60161.13
549.84	59805.37
550.01	59938.78
550.18	59636.85
550.34	59835.80
550.51	59814.73
550.68	59812.39
550.84	59707.07
551.01	59501.10
551.18	59489.40
551.34	59599.40
551.51	59983.25
551.68	60221.98
551.84	60523.91
552.01	60025.38
552.18	59973.89
552.34	59187.47
552.51	58878.52
552.68	58937.03
552.84	59482.37
553.01	59615.79
553.18	59269.39
553.34	59716.43
553.51	59744.51
553.67	59859.20
553.84	59920.05
554.01	59938.78
554.17	59798.35
554.34	59770.26
554.51	60062.83
554.67	60140.07
554.84	60018.36
555.00	59826.43
555.17	59669.62
555.33	59613.44
555.50	59458.97
555.67	59330.24
555.83	59496.42
556.00	58983.84
556.16	58930.01
556.33	58576.59
556.50	58660.85
556.66	58541.48
556.83	58396.37
556.99	58405.73
557.16	58604.67
557.32	58843.41
557.49	59014.27
557.65	59100.87
557.82	58913.62
557.98	58941.71
558.15	58471.26
558.32	57811.23
558.48	56750.97
558.65	57172.27
558.81	57434.41
558.98	57773.78
559.14	58033.58
559.31	57958.69
559.47	58028.90
559.64	57755.06
559.80	57450.79
559.97	57467.17
560.13	57890.81
560.30	58705.32
560.46	59075.12
560.63	59458.97
560.79	59414.50
560.96	59040.01
561.12	58085.07
561.29	57247.16
561.45	57293.97
561.61	57928.26
561.78	58169.33
561.94	57923.58
562.11	57869.75
562.27	57680.16
562.44	58136.57
562.60	58347.21
562.77	58628.08
562.93	58539.14
563.10	58274.66
563.26	57867.40
563.42	58024.22
563.59	57471.85
563.75	57832.30
563.92	57900.17
564.08	57581.86
564.24	57897.83
564.41	57975.07
564.57	58047.63
564.74	57743.36
564.90	57872.09
565.07	57462.49
565.23	57329.08
565.39	56594.15
565.56	56385.85
565.72	56327.33
565.88	56727.56
566.05	56662.03
566.21	56779.06
566.38	57172.27
566.54	57207.37
566.70	57612.29
566.87	57762.08
567.03	57935.28
567.19	58052.31
567.36	57497.60
567.52	57638.03
567.68	57350.15
567.85	56725.22
568.01	56594.15
568.17	56191.58
568.34	56072.21
568.50	56018.38
568.66	56079.24
568.83	56406.91
568.99	56615.22
569.15	56823.53
569.32	56725.22
569.48	56296.91
569.64	56147.11
569.81	55983.27
569.97	55908.38
570.13	56112.00
570.30	55316.22
570.46	55292.82
570.62	54497.03
570.78	54504.06
570.95	54677.25
571.11	55662.62
571.27	55519.85
571.43	55697.73
571.60	56107.32
571.76	56214.99
571.92	56259.46
572.09	56315.63
572.25	56666.71
572.41	56638.62
572.57	56467.76
572.74	56388.19
572.90	56243.07
573.06	55845.18
573.22	56062.85
573.38	55936.46
573.55	56114.34
573.71	56086.26
573.87	55992.64
574.03	55941.14
574.20	56037.11
574.36	55571.34
574.52	55578.36
574.68	55292.82
574.84	55002.59
575.01	54677.25
575.17	54300.43
575.33	54789.60
575.49	55192.17
575.65	55136.00
575.82	54766.20
575.98	54726.41
576.14	55224.94
576.30	55229.62
576.46	55217.92
576.62	55409.84
576.79	55203.88
576.95	55133.66
577.11	54894.92
577.27	54749.81
577.43	54836.41
577.59	54539.16
577.75	54241.92
577.92	53841.68
578.08	53848.71
578.24	53748.06
578.40	53834.66
578.56	54363.62
578.72	54127.23
578.88	54267.66
579.04	54258.30
579.21	54457.24
579.37	54560.23
579.53	54878.54
579.69	54644.49
579.85	54883.22
580.01	54857.48
580.17	54429.16
580.33	54157.66
580.49	54307.45
580.65	54358.94
580.82	54581.29
580.98	54646.83
581.14	54244.26
581.30	54382.35
581.46	54567.25
581.62	54646.83
581.78	54321.49
581.94	54948.76
582.10	54703.00
582.26	54908.97
582.42	54468.95
582.58	54852.80
582.74	54651.51
582.90	54738.11
583.06	54850.45
583.22	54082.76
583.38	54461.93
583.54	54611.72
583.70	54255.96
583.86	54478.31
584.02	54234.89
584.18	54403.41
584.34	54365.96
584.50	54368.30
584.66	53986.80
584.82	53694.23
584.98	53719.98
585.14	53242.51
585.30	52678.44
