SpectraSuite Data File
++++++++++++++++++++++++++++++++++++
Date: Mon Oct 07 14:53:23 GMT-05:00 2013
User: price-jones
Dark Spectrum Present: No
Reference Spectrum Present: No
Number of Sampled Component Spectra: 1
Spectrometers: USB2+H05261
Integration Time (usec): 100000 (USB2+H05261)
Spectra Averaged: 1 (USB2+H05261)
Boxcar Smoothing: 0 (USB2+H05261)
Correct for Electrical Dark: No (USB2+H05261)
Strobe/Lamp Enabled: No (USB2+H05261)
Correct for Detector Non-linearity: No (USB2+H05261)
Correct for Stray Light: No (USB2+H05261)
Number of Pixels in Processed Spectrum: 2048
>>>>>Begin Processed Spectral Data<<<<<
365.73	0.00
365.92	0.00
366.12	0.00
366.32	0.00
366.52	0.00
366.72	0.00
366.91	0.00
367.11	0.00
367.31	0.00
367.51	0.00
367.70	0.00
367.90	0.00
368.10	0.00
368.30	0.00
368.49	0.00
368.69	0.00
368.89	0.00
369.09	0.00
369.28	0.00
369.48	0.00
369.68	0.00
369.87	0.00
370.07	0.00
370.27	0.00
370.47	547.69
370.66	2832.05
370.86	3309.52
371.06	3791.67
371.25	3578.68
371.45	3471.01
371.65	3089.51
371.84	2920.99
372.04	3002.91
372.24	3492.08
372.44	3524.85
372.63	3314.20
372.83	3227.60
373.03	2874.18
373.22	2595.65
373.42	2715.02
373.62	3178.45
373.81	3417.18
374.01	3431.23
374.21	3070.78
374.40	2806.30
374.60	2956.10
374.79	3393.78
374.99	3847.84
375.19	4346.37
375.38	4140.41
375.58	3950.82
375.78	3864.22
375.97	4107.64
376.17	4079.55
376.37	4168.49
376.56	4329.99
376.76	4559.36
376.95	4851.93
377.15	5172.58
377.35	5401.96
377.54	5495.58
377.74	5589.20
377.93	5664.10
378.13	5469.83
378.33	5254.50
378.52	4903.42
378.72	4697.46
378.91	4552.34
379.11	4339.35
379.31	4308.93
379.50	4332.33
379.70	4650.64
379.89	5207.69
380.09	5329.40
380.28	5636.01
380.48	5619.63
380.68	5533.03
380.87	5252.16
381.07	4936.19
381.26	4702.14
381.46	4222.33
381.65	4112.32
381.85	3960.19
382.04	3866.56
382.24	3618.47
382.43	3363.35
382.63	3463.99
382.83	3393.78
383.02	3335.26
383.22	3370.37
383.41	3403.14
383.61	3662.94
383.80	4173.18
384.00	4606.17
384.19	5240.46
384.39	5647.71
384.58	5526.00
384.78	5408.98
384.97	5430.04
385.17	5217.05
385.36	4795.76
385.56	4596.81
385.75	4812.14
385.95	5242.80
386.14	5879.43
386.34	5701.54
386.53	5366.85
386.72	5083.64
386.92	5156.20
387.11	5406.64
387.31	5708.57
387.50	5621.97
387.70	5441.75
387.89	5385.57
388.09	5561.11
388.28	5430.04
388.48	5432.38
388.67	5998.79
388.86	6609.67
389.06	6939.69
389.25	7140.97
389.45	7435.88
389.64	7419.50
389.84	7330.56
390.03	7136.29
390.22	7389.07
390.42	7414.82
390.61	7892.29
390.81	8444.65
391.00	8727.86
391.19	8439.97
391.39	8430.61
391.58	7653.55
391.78	7440.56
391.97	7077.78
392.16	6607.33
392.36	6118.16
392.55	4896.40
392.75	3864.22
392.94	3148.02
393.13	3185.47
393.33	3662.94
393.52	4629.58
393.71	5755.38
393.91	6310.08
394.10	7148.00
394.29	7824.41
394.49	8262.09
394.68	8938.51
394.88	9078.94
395.07	9481.51
395.26	9369.16
395.46	9053.19
395.65	8477.42
395.84	7356.30
396.04	6296.04
396.23	5076.62
396.42	4208.28
396.62	4138.07
396.81	4877.68
397.00	6239.87
397.19	7639.51
397.39	9053.19
397.58	10118.14
397.77	10895.19
397.97	11262.66
398.16	11360.96
398.35	11651.19
398.55	12241.00
398.74	12521.87
398.93	12872.95
399.12	12636.55
399.32	12198.87
399.51	12486.76
399.70	13214.66
399.90	13060.19
400.09	13153.81
400.28	12952.52
400.47	13380.84
400.67	13811.50
400.86	14122.79
401.05	14338.12
401.24	14064.28
401.44	14382.59
401.63	14293.65
401.82	14530.05
402.01	14406.00
402.21	15061.35
402.40	14778.14
402.59	14197.69
402.78	13720.22
402.97	13572.77
403.17	13715.54
403.36	14553.45
403.55	15103.48
403.74	15730.74
403.93	14656.43
404.13	13680.43
404.32	13568.09
404.51	14068.96
404.70	14829.63
404.89	14916.23
405.09	14890.49
405.28	14228.12
405.47	14111.09
405.66	14197.69
405.85	14059.60
406.05	13647.66
406.24	13472.12
406.43	14604.94
406.62	14956.02
406.81	15082.41
407.00	14314.72
407.20	14075.98
407.39	14094.71
407.58	14967.73
407.77	15222.84
407.96	16053.73
408.15	16060.76
408.34	16217.57
408.54	17156.13
408.73	17146.76
408.92	16819.09
409.11	16456.31
409.30	15613.71
409.49	14574.52
409.68	13776.39
409.87	12854.22
410.07	13846.61
410.26	15101.14
410.45	16102.89
410.64	16533.54
410.83	17071.87
411.02	17458.06
411.21	18178.94
411.40	17940.21
411.59	17818.50
411.78	17680.41
411.98	17371.46
412.17	18204.69
412.36	17455.72
412.55	17680.41
412.74	17198.26
412.93	16688.02
413.12	17013.35
413.31	18682.16
413.50	18841.31
413.69	19452.19
413.88	18857.70
414.07	17872.33
414.26	18230.43
414.45	18384.91
414.64	18775.78
414.83	18948.98
415.02	18171.92
415.22	18368.52
415.41	19066.00
415.60	19515.39
415.79	20219.89
415.98	20430.54
416.17	20659.91
416.36	20222.23
416.55	20037.33
416.74	19122.18
416.93	18614.28
417.12	18682.16
417.31	19028.56
417.50	19316.44
417.69	19908.60
417.88	19735.40
418.07	19421.77
418.26	19632.41
418.45	19655.82
418.64	20238.61
418.83	21074.18
419.02	20535.86
419.21	20489.05
419.39	19424.11
419.58	18703.22
419.77	18686.84
419.96	19513.05
420.15	20568.63
420.34	21263.77
420.53	22192.96
420.72	22785.12
420.91	22087.64
421.10	22024.44
421.29	21680.38
421.48	21001.63
421.67	21848.90
421.86	21495.48
422.05	19833.70
422.24	17675.73
422.43	17521.25
422.61	19688.59
422.80	21462.71
422.99	21287.17
423.18	20734.81
423.37	20196.48
423.56	20278.40
423.75	20524.16
423.94	20704.38
424.13	19831.36
424.32	19896.89
424.50	19908.60
424.69	19587.94
424.88	19964.77
425.07	19915.62
425.26	19634.75
425.45	19133.88
425.64	19243.88
425.83	19421.77
426.01	20025.62
426.20	20758.21
426.39	20540.54
426.58	19157.28
426.77	17933.18
426.96	17231.02
427.15	17610.19
427.33	19016.85
427.52	20060.73
427.71	19683.91
427.90	19594.96
428.09	19754.12
428.28	18972.38
428.46	18775.78
428.65	18314.69
428.84	18565.13
429.03	19288.35
429.22	18141.49
429.40	16931.44
429.59	15410.09
429.78	13593.83
429.97	13745.97
430.16	13870.01
430.34	13848.95
430.53	13832.57
430.72	14157.90
430.91	16018.63
431.10	18707.90
431.28	21879.33
431.47	23599.62
431.66	23896.87
431.85	21563.36
432.03	19831.36
432.22	19372.61
432.41	19936.68
432.60	21961.25
432.79	22941.93
432.97	23204.07
433.16	22831.93
433.35	21078.86
433.54	19133.88
433.72	17762.33
433.91	18307.67
434.10	20386.07
434.28	21919.12
434.47	22785.12
434.66	22640.00
434.85	22050.19
435.03	22190.62
435.22	22658.73
435.41	24264.33
435.59	23861.76
435.78	24346.25
435.97	24893.94
436.16	25003.94
436.34	24826.06
436.53	24151.99
436.72	24144.97
436.90	22904.48
437.09	23049.60
437.28	22471.48
437.46	23283.65
437.65	23061.30
437.84	21558.67
438.02	19953.07
438.21	19601.99
438.40	20987.58
438.58	22618.94
438.77	23103.43
438.96	23262.58
439.14	24397.74
439.33	24552.22
439.52	25205.23
439.70	24985.22
439.89	24102.84
440.08	23660.48
440.26	23569.19
440.45	24631.80
440.63	26132.08
440.82	27419.38
441.01	26939.57
441.19	27117.45
441.38	26813.18
441.57	27704.92
441.75	28748.80
441.94	28353.25
442.12	28336.87
442.31	28561.56
442.50	29006.26
442.68	28341.55
442.87	28135.58
443.05	27814.93
443.24	28177.71
443.43	28781.57
443.61	29172.44
443.80	30045.46
443.98	28273.67
444.17	28058.34
444.35	29670.97
444.54	30031.41
444.73	30085.25
444.91	28591.98
445.10	27356.18
445.28	26162.51
445.47	25617.16
445.65	25951.86
445.84	26604.87
446.02	27583.21
446.21	28166.01
446.39	28208.14
446.58	28826.04
446.77	28907.96
446.95	29036.69
447.14	30228.02
447.32	30663.36
447.51	30096.95
447.69	29074.13
447.88	28526.45
448.06	28606.03
448.25	29446.28
448.43	29465.00
448.62	28931.36
448.80	29322.23
448.99	29237.97
449.17	29546.92
449.36	29762.25
449.54	30141.42
449.73	30801.45
449.91	31077.63
450.10	32266.63
450.28	32547.49
450.46	32439.82
450.65	32870.48
450.83	32210.45
451.02	31637.02
451.20	31372.54
451.39	31550.42
451.57	30965.29
451.76	30803.79
451.94	30749.96
452.13	30696.13
452.31	29111.58
452.49	27527.04
452.68	27962.38
452.86	28196.43
453.05	28620.07
453.23	29535.22
453.42	30068.86
453.60	30654.00
453.78	31005.08
453.97	30487.82
454.15	30864.64
454.34	29703.74
454.52	30300.58
454.70	29397.13
454.89	29785.66
455.07	30618.89
455.26	30363.77
455.44	31742.35
455.62	32259.60
455.81	32063.00
455.99	31950.65
456.17	31601.91
456.36	32116.83
456.54	32655.15
456.73	32844.74
456.91	33233.27
457.09	33144.33
457.28	34136.71
457.46	32823.67
457.64	32388.33
457.83	31630.00
458.01	30349.73
458.19	31669.79
458.38	31648.72
458.56	32664.52
458.74	33177.09
458.93	31908.52
459.11	31868.73
459.29	31697.88
459.48	32027.89
459.66	31957.67
459.84	32030.23
460.03	32606.00
460.21	32704.31
460.39	33216.88
460.57	33333.91
460.76	33666.27
460.94	33830.10
461.12	33282.42
461.31	33223.90
461.49	33577.33
461.67	33230.93
461.85	34480.77
462.04	34024.37
462.22	34593.12
462.40	34660.99
462.59	33937.77
462.77	34347.36
462.95	34066.50
463.13	33680.31
463.32	33649.88
463.50	33432.21
463.68	33530.51
463.86	33738.82
464.05	32760.48
464.23	32278.33
464.41	32105.13
464.59	31702.56
464.78	32994.53
464.96	32699.62
465.14	32786.22
465.32	33766.91
465.50	34115.65
465.69	34295.87
465.87	34120.33
466.05	33649.88
466.23	31718.94
466.41	30829.54
466.60	31873.42
466.78	31826.60
466.96	32423.44
467.14	32753.46
467.32	33397.10
467.51	33207.52
467.69	32048.96
467.87	32549.83
468.05	32975.81
468.23	32844.74
468.41	33254.33
468.60	33277.74
468.78	33366.68
468.96	32996.87
469.14	33757.55
469.32	33621.80
469.50	32294.71
469.69	32353.23
469.87	32093.43
470.05	31761.07
470.23	31749.37
470.41	32161.30
470.59	32694.94
470.77	32811.97
470.95	33635.84
471.14	33820.74
471.32	33949.47
471.50	35646.36
471.68	35754.02
471.86	36165.96
472.04	36156.60
472.22	36652.79
472.40	34515.88
472.58	34436.30
472.77	33820.74
472.95	34600.14
473.13	35564.44
473.31	34686.74
473.49	34960.58
473.67	35473.16
473.85	35655.72
474.03	36346.18
474.21	36861.10
474.39	36900.89
474.57	37123.24
474.75	37305.80
474.93	36935.99
475.12	36023.19
475.30	36095.74
475.48	36348.52
475.66	36996.85
475.84	36467.89
476.02	36418.74
476.20	35866.37
476.38	36074.68
476.56	37258.99
476.74	37743.48
476.92	38026.68
477.10	38373.08
477.28	39159.50
477.46	39585.48
477.64	40095.72
477.82	39894.43
478.00	40425.73
478.18	39952.94
478.36	39309.30
478.54	39501.22
478.72	40161.25
478.90	40975.76
479.08	42281.78
479.26	42564.98
479.44	42363.70
479.62	41553.87
479.80	41993.89
479.98	42230.29
480.16	42377.74
480.34	42146.03
480.52	42824.78
480.70	42473.70
480.88	43068.20
481.06	43793.76
481.24	43868.66
481.41	44718.28
481.59	45460.23
481.77	44865.73
481.95	44381.24
482.13	44013.77
482.31	44411.67
482.49	44842.32
482.67	44603.59
482.85	44914.88
483.03	45811.31
483.21	45977.48
483.39	46162.39
483.57	45153.62
483.74	45172.34
483.92	45474.27
484.10	45420.44
484.28	46803.69
484.46	46902.00
484.64	47114.98
484.82	46363.67
485.00	45652.15
485.18	45137.23
485.35	43433.32
485.53	40594.25
485.71	37137.28
485.89	36467.89
486.07	38424.57
486.25	41928.36
486.43	44140.16
486.61	44949.99
486.78	44538.05
486.96	44802.53
487.14	46623.47
487.32	47409.89
487.50	48371.85
487.68	49429.77
487.85	50010.23
488.03	49911.92
488.21	50005.55
488.39	48729.95
488.57	47845.23
488.75	47777.36
488.92	48823.58
489.10	51262.41
489.28	52444.38
489.46	53207.40
489.64	53003.77
489.81	53249.53
489.99	52519.28
490.17	52825.89
490.35	52865.68
490.53	52530.98
490.70	52404.59
490.88	52156.50
491.06	53343.15
491.24	53137.18
491.41	52177.56
491.59	50232.58
491.77	49523.40
491.95	50958.14
492.13	52140.11
492.30	53413.37
492.48	54372.99
492.66	54611.72
492.84	54571.93
493.01	54075.74
493.19	53659.12
493.37	53460.18
493.54	53062.29
493.72	53752.74
493.90	54969.82
494.08	55840.50
494.25	55891.99
494.43	56039.45
494.61	56416.27
494.79	56582.45
494.96	56287.54
495.14	55791.35
495.32	54820.03
495.49	54267.66
495.67	55201.53
495.85	56694.80
496.02	57015.45
496.20	56821.19
496.38	56271.16
496.55	56463.08
496.73	56495.85
496.91	56722.88
497.09	57265.89
497.26	57403.98
497.44	57083.33
497.62	56596.49
497.79	55889.65
497.97	54667.89
498.14	54550.87
498.32	55948.17
498.50	56701.82
498.67	57352.49
498.85	57172.27
499.03	57338.44
499.20	57352.49
499.38	57565.48
499.56	57118.43
499.73	56804.80
499.91	56397.55
500.08	56023.06
500.26	55274.09
500.44	55625.17
500.61	56479.47
500.79	56147.11
500.97	55952.85
501.14	55838.16
501.32	55615.81
501.49	55643.90
501.67	56083.92
501.84	56603.52
502.02	56739.27
502.20	56865.66
502.37	57340.78
502.55	57228.44
502.72	57518.67
502.90	58171.67
503.07	57804.21
503.25	57441.43
503.43	56582.45
503.60	56030.08
503.78	55222.60
503.95	55831.14
504.13	57109.07
504.30	57890.81
504.48	57698.89
504.65	57439.09
504.83	57607.61
505.01	57930.60
505.18	58452.54
505.36	58990.86
505.53	59044.69
505.71	59196.83
505.88	59250.66
506.06	58527.44
506.23	58302.74
506.41	57869.75
506.58	58291.04
506.76	58351.90
506.93	58082.73
507.11	57858.04
507.28	58078.05
507.46	57434.41
507.63	57022.47
507.81	57134.82
507.98	57247.16
508.16	57511.64
508.33	58377.64
508.50	58766.17
508.68	58911.28
508.85	59419.18
509.03	59477.69
509.20	59337.26
509.38	58482.97
509.55	57570.16
509.73	57886.13
509.90	58452.54
510.08	58597.65
510.25	58798.94
510.42	58408.07
510.60	58330.83
510.77	58370.62
510.95	59072.78
511.12	59194.49
511.30	59512.80
511.47	59681.32
511.64	59639.19
511.82	59355.99
511.99	58728.72
512.17	58124.86
512.34	57755.06
512.51	58152.95
512.69	58138.91
512.86	58038.26
513.04	58525.10
513.21	58492.33
513.38	58412.75
513.56	57879.11
513.73	57088.01
513.90	57504.62
514.08	57518.67
514.25	57867.40
514.43	57998.48
514.60	58159.97
514.77	58473.60
514.95	58382.32
515.12	58337.85
515.29	58422.11
515.47	58979.16
515.64	59245.98
515.81	58857.45
515.99	58349.56
516.16	56875.02
516.33	54646.83
516.51	53202.72
516.68	52444.38
516.85	51796.06
517.03	52350.76
517.20	55283.45
517.37	57385.25
517.54	58454.88
517.72	57904.85
517.89	55540.91
518.06	52935.90
518.24	53532.73
518.41	55704.75
518.58	56924.17
518.75	57155.88
518.93	57460.15
519.10	57343.12
519.27	57680.16
519.45	58075.71
519.62	58665.53
519.79	59096.19
519.96	58674.89
520.14	58164.65
520.31	57441.43
520.48	57418.02
520.65	57766.76
520.83	58990.86
521.00	59121.93
521.17	58585.95
521.34	58436.16
521.52	58775.53
521.69	59189.81
521.86	59671.96
522.03	59208.53
522.20	58026.56
522.38	57013.11
522.55	57284.61
522.72	57670.80
522.89	57951.66
523.07	58248.91
523.24	58387.00
523.41	59344.28
523.58	59543.23
523.75	60016.02
523.92	59971.55
524.10	59707.07
524.27	59695.36
524.44	59671.96
524.61	59473.01
524.78	59465.99
524.96	59145.34
525.13	58890.22
525.30	59480.03
525.47	59934.10
525.64	59798.35
525.81	59185.13
525.98	57794.85
526.16	56362.44
526.33	55557.30
526.50	55210.90
526.67	54941.74
526.84	55524.53
527.01	56706.50
527.18	57258.87
527.36	58305.09
527.53	59089.16
527.70	59274.07
527.87	58639.78
528.04	58344.87
528.21	58920.65
528.38	59522.16
528.55	59838.14
528.72	60163.47
528.89	60465.40
529.07	59934.10
529.24	59554.93
529.41	58805.96
529.58	58246.57
529.75	58267.64
529.92	58955.75
530.09	59409.82
530.26	59774.94
530.43	59990.27
530.60	60243.05
530.77	60367.10
530.94	60278.16
531.11	59877.93
531.28	59367.69
531.46	59423.86
531.63	59377.05
531.80	59260.02
531.97	58901.92
532.14	58136.57
532.31	57130.14
532.48	56399.89
532.65	56516.92
532.82	57544.41
532.99	58553.18
533.16	58901.92
533.33	59341.94
533.50	59229.60
533.67	58901.92
533.84	58489.99
534.01	58333.17
534.18	58817.66
534.35	58794.26
534.52	58618.72
534.69	58986.18
534.86	59203.85
535.03	59554.93
535.20	59983.25
535.37	60224.32
535.54	60060.49
535.71	60025.38
535.88	59655.57
536.05	59051.72
536.22	58684.25
536.38	58326.15
536.55	57918.90
536.72	57408.66
536.89	57378.23
537.06	58113.16
537.23	59016.61
537.40	59281.09
537.57	59288.11
537.74	58911.28
537.91	58976.82
538.08	58986.18
538.25	58939.37
538.42	59260.02
538.59	58993.20
538.75	58244.23
538.92	57993.79
539.09	58089.76
539.26	57832.30
539.43	57626.33
539.60	57661.44
539.77	57806.55
539.94	57647.39
540.11	56821.19
540.28	56423.29
540.44	56659.69
540.61	56793.10
540.78	56928.85
540.95	57345.47
541.12	58017.20
541.29	58127.20
541.46	58129.54
541.62	58452.54
541.79	58206.78
541.96	57769.10
542.13	57773.78
542.30	58188.06
542.47	58000.82
542.63	57717.61
542.80	57715.27
542.97	57642.71
543.14	57609.95
543.31	57848.68
543.48	58223.17
543.64	59021.29
543.81	59201.51
543.98	58946.39
544.15	58358.92
544.32	57504.62
544.48	57731.65
544.65	58482.97
544.82	58728.72
544.99	58438.50
545.16	58101.46
545.32	57691.86
545.49	58541.48
545.66	59068.10
545.83	58482.97
546.00	57972.73
546.16	58005.50
546.33	57946.98
546.50	58099.12
546.67	58368.28
546.83	57914.22
547.00	57975.07
547.17	57312.70
547.34	56954.60
547.50	56647.99
547.67	57361.85
547.84	57183.97
548.00	57586.54
548.17	57935.28
548.34	57907.19
548.51	57909.53
548.67	58213.80
548.84	58028.90
549.01	58159.97
549.18	57932.94
549.34	57619.31
549.51	57808.89
549.68	57895.49
549.84	57382.91
550.01	57457.81
550.18	57190.99
550.34	57502.28
550.51	57523.35
550.68	57670.80
550.84	57043.54
551.01	57249.50
551.18	57167.58
551.34	57069.28
551.51	57726.97
551.68	57986.77
551.84	58047.63
552.01	57635.69
552.18	57712.93
552.34	56999.07
552.51	56308.61
552.68	56282.86
552.84	57015.45
553.01	57226.10
553.18	57127.80
553.34	57441.43
553.51	57195.67
553.67	57546.75
553.84	57895.49
554.01	57560.79
554.17	57396.96
554.34	57399.30
554.51	57464.83
554.67	57946.98
554.84	57881.45
555.00	57481.22
555.17	57198.01
555.33	57162.90
555.50	57090.35
555.67	57132.48
555.83	56750.97
556.00	56898.42
556.16	56760.33
556.33	56460.74
556.50	56196.26
556.66	56273.50
556.83	56072.21
556.99	56107.32
557.16	56086.26
557.32	56470.11
557.49	56460.74
557.65	56549.68
557.82	56645.65
557.98	56435.00
558.15	56013.70
558.32	55201.53
558.48	54419.80
558.65	54747.47
558.81	54742.79
558.98	55145.36
559.14	55487.08
559.31	55543.25
559.47	55444.95
559.64	55238.98
559.80	55077.49
559.97	55009.61
560.13	55297.50
560.30	56179.88
560.46	56884.38
560.63	57036.51
560.79	56884.38
560.96	56369.46
561.12	55671.98
561.29	54691.30
561.45	54602.36
561.61	55248.35
561.78	55592.40
561.94	55356.01
562.11	55274.09
562.27	55356.01
562.44	55798.37
562.60	55760.92
562.77	55901.36
562.93	55742.20
563.10	55950.51
563.26	55290.48
563.42	55435.59
563.59	55112.59
563.75	55330.26
563.92	55136.00
564.08	55152.38
564.24	55522.19
564.41	55339.63
564.57	55290.48
564.74	55426.23
564.90	55255.37
565.07	54646.83
565.23	54255.96
565.39	54049.99
565.56	53886.15
565.72	53422.73
565.88	54192.76
566.05	54103.82
566.21	54391.71
566.38	54457.24
566.54	54443.20
566.70	54915.99
566.87	55152.38
567.03	55325.58
567.19	55250.69
567.36	54997.91
567.52	54915.99
567.68	54705.34
567.85	53977.43
568.01	53652.10
568.17	53392.30
568.34	53322.08
568.50	53303.36
568.66	53315.06
568.83	53544.44
568.99	53968.07
569.15	53986.80
569.32	53949.35
569.48	53645.08
569.64	53818.28
569.81	53499.97
569.97	53155.91
570.13	52968.66
570.30	52437.36
570.46	52182.24
570.62	51789.03
570.78	51323.27
570.95	51758.61
571.11	52589.50
571.27	52961.64
571.43	52884.40
571.60	53481.24
571.76	53614.65
571.92	53776.15
572.09	53652.10
572.25	53928.28
572.41	54136.59
572.57	53783.17
572.74	53790.19
572.90	53097.39
573.06	52942.92
573.22	53441.45
573.38	53176.97
573.55	53097.39
573.71	53165.27
573.87	53230.80
574.03	53256.55
574.20	53530.39
574.36	52734.61
574.52	52652.69
574.68	52683.12
574.84	51995.00
575.01	51629.88
575.17	51545.62
575.33	51814.78
575.49	52210.33
575.65	52240.76
575.82	52013.73
575.98	51395.82
576.14	52135.43
576.30	52303.95
576.46	52575.45
576.62	52509.92
576.79	52343.74
576.95	51899.04
577.11	51852.23
577.27	51885.00
577.43	52367.15
577.59	51669.67
577.75	51632.22
577.92	50684.30
578.08	50471.31
578.24	50253.64
578.40	51002.61
578.56	51194.54
578.72	51262.41
578.88	51248.37
579.04	51323.27
579.21	51213.26
579.37	51653.28
579.53	52076.92
579.69	51543.28
579.85	51774.99
580.01	51772.65
580.17	50948.78
580.33	50803.67
580.49	50880.91
580.65	51412.21
580.82	51903.72
580.98	51426.25
581.14	51615.83
581.30	51950.53
581.46	51257.73
581.62	51880.31
581.78	51498.81
581.94	51767.97
582.10	51714.14
582.26	51906.06
582.42	51784.35
582.58	51840.53
582.74	51723.50
582.90	51791.37
583.06	51695.41
583.22	51260.07
583.38	51510.51
583.54	51283.48
583.70	51276.46
583.86	51129.00
584.02	50927.72
584.18	51243.69
584.34	51419.23
584.50	51035.38
584.66	50965.17
584.82	50536.85
584.98	50588.34
585.14	50277.05
585.30	49385.30
