SpectraSuite Data File
++++++++++++++++++++++++++++++++++++
Date: Mon Oct 07 14:54:55 GMT-05:00 2013
User: price-jones
Dark Spectrum Present: No
Reference Spectrum Present: No
Number of Sampled Component Spectra: 1
Spectrometers: USB2+H05261
Integration Time (usec): 10000 (USB2+H05261)
Spectra Averaged: 1 (USB2+H05261)
Boxcar Smoothing: 0 (USB2+H05261)
Correct for Electrical Dark: No (USB2+H05261)
Strobe/Lamp Enabled: No (USB2+H05261)
Correct for Detector Non-linearity: No (USB2+H05261)
Correct for Stray Light: No (USB2+H05261)
Number of Pixels in Processed Spectrum: 2048
>>>>>Begin Processed Spectral Data<<<<<
365.73	0.00
365.92	0.00
366.12	0.00
366.32	0.00
366.52	0.00
366.72	0.00
366.91	0.00
367.11	0.00
367.31	0.00
367.51	0.00
367.70	0.00
367.90	0.00
368.10	0.00
368.30	0.00
368.49	0.00
368.69	0.00
368.89	0.00
369.09	0.00
369.28	0.00
369.48	0.00
369.68	0.00
369.87	0.00
370.07	0.00
370.27	0.00
370.47	0.00
370.66	0.00
370.86	35.11
371.06	35.11
371.25	4.68
371.45	0.00
371.65	0.00
371.84	7.02
372.04	18.72
372.24	0.00
372.44	0.00
372.63	53.83
372.83	0.00
373.03	0.00
373.22	0.00
373.42	0.00
373.62	0.00
373.81	0.00
374.01	21.06
374.21	121.71
374.40	0.00
374.60	35.11
374.79	53.83
374.99	81.92
375.19	2.34
375.38	30.43
375.58	42.13
375.78	126.39
375.97	25.75
376.17	121.71
376.37	53.83
376.56	65.54
376.76	100.64
376.95	187.24
377.15	231.71
377.35	194.26
377.54	126.39
377.74	184.90
377.93	152.13
378.13	210.65
378.33	156.82
378.52	119.37
378.72	142.77
378.91	102.98
379.11	32.77
379.31	110.01
379.50	105.32
379.70	163.84
379.89	142.77
380.09	140.43
380.28	156.82
380.48	182.56
380.68	86.60
380.87	135.75
381.07	194.26
381.26	173.20
381.46	161.50
381.65	74.90
381.85	102.98
382.04	0.00
382.24	21.06
382.43	2.34
382.63	0.00
382.83	0.00
383.02	21.06
383.22	0.00
383.41	23.41
383.61	0.00
383.80	112.35
384.00	117.03
384.19	222.35
384.39	133.41
384.58	215.33
384.78	102.98
384.97	154.48
385.17	149.79
385.36	102.98
385.56	145.11
385.75	93.62
385.95	196.60
386.14	224.69
386.34	243.42
386.53	215.33
386.72	177.88
386.92	91.28
387.11	191.92
387.31	194.26
387.50	79.58
387.70	142.77
387.89	177.88
388.09	208.31
388.28	159.16
388.48	126.39
388.67	234.05
388.86	131.07
389.06	264.48
389.25	315.97
389.45	241.08
389.64	362.78
389.84	250.44
390.03	332.36
390.22	313.63
390.42	334.70
390.61	318.31
390.81	376.83
391.00	433.00
391.19	355.76
391.39	435.34
391.58	358.10
391.78	264.48
391.97	287.89
392.16	245.76
392.36	285.55
392.55	93.62
392.75	72.56
392.94	9.36
393.13	0.00
393.33	0.00
393.52	184.90
393.71	194.26
393.91	264.48
394.10	252.78
394.29	315.97
394.49	360.44
394.68	461.09
394.88	454.06
395.07	498.53
395.26	454.06
395.46	339.38
395.65	379.17
395.84	332.36
396.04	236.39
396.23	121.71
396.42	37.45
396.62	74.90
396.81	126.39
397.00	198.95
397.19	339.38
397.39	491.51
397.58	547.69
397.77	491.51
397.97	557.05
398.16	653.01
398.35	648.33
398.55	580.45
398.74	723.23
398.93	718.54
399.12	793.44
399.32	730.25
399.51	688.12
399.70	718.54
399.90	734.93
400.09	770.04
400.28	723.23
400.47	746.63
400.67	805.14
400.86	734.93
401.05	830.89
401.24	744.29
401.44	732.59
401.63	795.78
401.82	828.55
402.01	858.98
402.21	884.72
402.40	835.57
402.59	800.46
402.78	770.04
402.97	730.25
403.17	695.14
403.36	793.44
403.55	957.28
403.74	910.47
403.93	826.21
404.13	800.46
404.32	826.21
404.51	798.12
404.70	875.36
404.89	901.11
405.09	858.98
405.28	936.21
405.47	840.25
405.66	819.19
405.85	847.27
406.05	767.70
406.24	870.68
406.43	828.55
406.62	929.19
406.81	786.42
407.00	814.51
407.20	802.80
407.39	812.17
407.58	788.76
407.77	887.06
407.96	889.40
408.15	922.17
408.34	791.10
408.54	1022.81
408.73	1069.62
408.92	924.51
409.11	931.53
409.30	954.94
409.49	840.25
409.68	725.57
409.87	739.61
410.07	748.97
410.26	898.77
410.45	959.62
410.64	968.98
410.83	896.43
411.02	1043.88
411.21	1048.56
411.40	1076.65
411.59	1027.50
411.78	1142.18
411.98	1064.94
412.17	1053.24
412.36	1100.05
412.55	1041.54
412.74	1046.22
412.93	1071.97
413.12	994.73
413.31	1137.50
413.50	1095.37
413.69	1217.08
413.88	1130.48
414.07	1055.58
414.26	1104.73
414.45	1132.82
414.64	1053.24
414.83	1071.97
415.02	1064.94
415.22	1149.20
415.41	1109.41
415.60	1191.33
415.79	1207.72
415.98	1205.38
416.17	1301.34
416.36	1266.23
416.55	1224.10
416.74	1083.67
416.93	1071.97
417.12	1130.48
417.31	1210.06
417.50	1191.33
417.69	1212.40
417.88	1193.67
418.07	1102.39
418.26	1172.61
418.45	1163.25
418.64	1245.16
418.83	1224.10
419.02	1228.78
419.21	1210.06
419.39	1156.22
419.58	1135.16
419.77	1090.69
419.96	1114.10
420.15	1242.82
420.34	1219.42
420.53	1299.00
420.72	1313.04
420.91	1299.00
421.10	1224.10
421.29	1205.38
421.48	1256.87
421.67	1301.34
421.86	1348.15
422.05	1203.04
422.24	1011.11
422.43	1055.58
422.61	1163.25
422.80	1242.82
422.99	1310.70
423.18	1114.10
423.37	1153.88
423.56	1097.71
423.75	1167.93
423.94	1217.08
424.13	1219.42
424.32	1193.67
424.50	1242.82
424.69	1139.84
424.88	1121.12
425.07	1142.18
425.26	1254.53
425.45	1118.78
425.64	1062.60
425.83	1039.20
426.01	1170.27
426.20	1214.74
426.39	1205.38
426.58	1062.60
426.77	1004.09
426.96	936.21
427.15	1013.45
427.33	1163.25
427.52	1130.48
427.71	1093.03
427.90	1186.65
428.09	1188.99
428.28	1118.78
428.46	1128.14
428.65	1008.77
428.84	1006.43
429.03	1071.97
429.22	1022.81
429.40	971.32
429.59	908.13
429.78	870.68
429.97	791.10
430.16	755.99
430.34	744.29
430.53	664.71
430.72	809.83
430.91	786.42
431.10	987.71
431.28	1299.00
431.47	1486.24
431.66	1320.06
431.85	1184.31
432.03	1212.40
432.22	1076.65
432.41	1135.16
432.60	1210.06
432.79	1387.94
432.97	1392.62
433.16	1350.49
433.35	1299.00
433.54	1074.31
433.72	1032.18
433.91	971.32
434.10	1153.88
434.28	1266.23
434.47	1362.19
434.66	1242.82
434.85	1299.00
435.03	1256.87
435.22	1362.19
435.41	1362.19
435.59	1423.05
435.78	1507.30
435.97	1617.31
436.16	1509.65
436.34	1439.43
436.53	1406.66
436.72	1439.43
436.90	1390.28
437.09	1320.06
437.28	1256.87
437.46	1348.15
437.65	1348.15
437.84	1221.76
438.02	1074.31
438.21	1128.14
438.40	1193.67
438.58	1270.91
438.77	1390.28
438.96	1310.70
439.14	1385.60
439.33	1444.11
439.52	1495.60
439.70	1451.13
439.89	1556.46
440.08	1490.92
440.26	1369.21
440.45	1371.55
440.63	1437.09
440.82	1558.80
441.01	1654.76
441.19	1629.01
441.38	1699.23
441.57	1661.78
441.75	1724.97
441.94	1680.50
442.12	1600.93
442.31	1708.59
442.50	1713.27
442.68	1643.06
442.87	1724.97
443.05	1678.16
443.24	1696.89
443.43	1703.91
443.61	1589.22
443.80	1713.27
443.98	1664.12
444.17	1593.90
444.35	1746.04
444.54	1813.92
444.73	1739.02
444.91	1556.46
445.10	1530.71
445.28	1511.99
445.47	1542.41
445.65	1528.37
445.84	1575.18
446.02	1589.22
446.21	1647.74
446.39	1631.35
446.58	1629.01
446.77	1797.53
446.95	1598.59
447.14	1727.32
447.32	1687.53
447.51	1734.34
447.69	1624.33
447.88	1528.37
448.06	1671.14
448.25	1722.63
448.43	1741.36
448.62	1739.02
448.80	1689.87
448.99	1626.67
449.17	1570.50
449.36	1724.97
449.54	1757.74
449.73	1881.79
449.91	1771.79
450.10	1872.43
450.28	1977.75
450.46	1870.09
450.65	1849.02
450.83	1806.89
451.02	1919.24
451.20	1839.66
451.39	1846.68
451.57	1849.02
451.76	1959.03
451.94	1842.00
452.13	1813.92
452.31	1626.67
452.49	1603.27
452.68	1603.27
452.86	1591.56
453.05	1706.25
453.23	1717.95
453.42	1727.32
453.60	1820.94
453.78	1827.96
453.97	1666.46
454.15	1732.00
454.34	1743.70
454.52	1715.61
454.70	1706.25
454.89	1764.76
455.07	1673.48
455.26	1914.56
455.44	1792.85
455.62	1895.83
455.81	1849.02
455.99	1872.43
456.17	1884.13
456.36	1891.15
456.54	1984.77
456.73	1870.09
456.91	1881.79
457.09	1930.94
457.28	1989.46
457.46	1853.70
457.64	1799.87
457.83	1809.23
458.01	1699.23
458.19	1736.68
458.38	1898.17
458.56	1874.77
458.74	1811.57
458.93	1717.95
459.11	1863.07
459.29	1851.36
459.48	1860.73
459.66	1802.21
459.84	1975.41
460.03	1825.62
460.21	2052.65
460.39	1912.22
460.57	1881.79
460.76	1912.22
460.94	1966.05
461.12	1996.48
461.31	1975.41
461.49	1996.48
461.67	1912.22
461.85	2113.50
462.04	1912.22
462.22	1970.73
462.40	1984.77
462.59	2001.16
462.77	2017.54
462.95	1954.35
463.13	1846.68
463.32	1851.36
463.50	1991.80
463.68	2010.52
463.86	1842.00
464.05	1923.92
464.23	1762.42
464.41	1708.59
464.59	1827.96
464.78	1968.39
464.96	1987.11
465.14	1844.34
465.32	2005.84
465.50	1921.58
465.69	2026.90
465.87	1858.39
466.05	1893.49
466.23	1734.34
466.41	1699.23
466.60	1767.10
466.78	1839.66
466.96	1839.66
467.14	1863.07
467.32	1914.56
467.51	1954.35
467.69	1809.23
467.87	1935.62
468.05	1881.79
468.23	1806.89
468.41	1954.35
468.60	1973.07
468.78	1914.56
468.96	1994.14
469.14	1970.73
469.32	1895.83
469.50	1739.02
469.69	1867.75
469.87	1732.00
470.05	1837.32
470.23	1898.17
470.41	1895.83
470.59	1879.45
470.77	1788.17
470.95	1881.79
471.14	1856.04
471.32	1912.22
471.50	2043.29
471.68	2078.40
471.86	2094.78
472.04	2062.01
472.22	2127.55
472.40	2010.52
472.58	1940.30
472.77	1961.37
472.95	2073.71
473.13	2078.40
473.31	1933.28
473.49	1998.82
473.67	1961.37
473.85	1975.41
474.03	2062.01
474.21	2157.97
474.39	2085.42
474.57	2172.02
474.75	2092.44
474.93	2150.95
475.12	2153.29
475.30	2094.78
475.48	2176.70
475.66	2118.18
475.84	2214.15
476.02	2214.15
476.20	2078.40
476.38	2033.93
476.56	2155.63
476.74	2155.63
476.92	2122.87
477.10	2291.38
477.28	2310.11
477.46	2251.60
477.64	2246.91
477.82	2340.54
478.00	2305.43
478.18	2296.07
478.36	2310.11
478.54	2258.62
478.72	2195.42
478.90	2382.67
479.08	2363.94
479.26	2448.20
479.44	2448.20
479.62	2331.17
479.80	2352.24
479.98	2389.69
480.16	2487.99
480.34	2445.86
480.52	2377.98
480.70	2401.39
480.88	2506.71
481.06	2434.16
481.24	2490.33
481.41	2546.50
481.59	2506.71
481.77	2612.04
481.95	2605.02
482.13	2633.10
482.31	2527.78
482.49	2555.86
482.67	2537.14
482.85	2640.12
483.03	2567.57
483.21	2595.65
483.39	2548.84
483.57	2581.61
483.74	2478.63
483.92	2651.83
484.10	2621.40
484.28	2675.23
484.46	2712.68
484.64	2834.39
484.82	2684.59
485.00	2640.12
485.18	2574.59
485.35	2495.01
485.53	2312.45
485.71	2047.97
485.89	2078.40
486.07	2136.91
486.25	2415.43
486.43	2612.04
486.61	2595.65
486.78	2436.50
486.96	2633.10
487.14	2644.81
487.32	2740.77
487.50	2874.18
487.68	2857.79
487.85	2977.16
488.03	2974.82
488.21	2930.35
488.39	2782.90
488.57	2813.32
488.75	2703.32
488.92	2904.60
489.10	3028.65
489.28	3248.66
489.46	3253.34
489.64	3145.68
489.81	3229.94
489.99	3229.94
490.17	3220.58
490.35	3421.86
490.53	3222.92
490.70	3159.72
490.88	3110.57
491.06	3262.71
491.24	3171.43
491.41	3087.17
491.59	2930.35
491.77	2834.39
491.95	2951.42
492.13	3052.06
492.30	3265.05
492.48	3445.27
492.66	3569.32
492.84	3459.31
493.01	3496.76
493.19	3314.20
493.37	3239.30
493.54	3145.68
493.72	3391.44
493.90	3471.01
494.08	3515.48
494.25	3485.06
494.43	3552.93
494.61	3604.42
494.79	3676.98
494.96	3618.47
495.14	3712.09
495.32	3494.42
495.49	3438.25
495.67	3386.76
495.85	3634.85
496.02	3702.73
496.20	3674.64
496.38	3674.64
496.55	3627.83
496.73	3655.92
496.91	3562.30
497.09	3667.62
497.26	3868.91
497.44	3625.49
497.62	3585.70
497.79	3492.08
497.97	3286.11
498.14	3463.99
498.32	3473.36
498.50	3618.47
498.67	3826.78
498.85	3726.13
499.03	3749.54
499.20	3740.18
499.38	3751.88
499.56	3655.92
499.73	3850.18
499.91	3637.19
500.08	3520.17
500.26	3365.69
500.44	3461.65
500.61	3620.81
500.79	3676.98
500.97	3393.78
501.14	3400.80
501.32	3417.18
501.49	3449.95
501.67	3449.95
501.84	3552.93
502.02	3627.83
502.20	3616.13
502.37	3728.47
502.55	3513.14
502.72	3662.94
502.90	3721.45
503.07	3805.71
503.25	3730.81
503.43	3466.33
503.60	3513.14
503.78	3513.14
503.95	3522.51
504.13	3599.74
504.30	3843.16
504.48	3756.56
504.65	3733.15
504.83	3672.30
505.01	3964.87
505.18	3911.04
505.36	3850.18
505.53	4060.83
505.71	3885.29
505.88	4060.83
506.06	3906.35
506.23	3913.38
506.41	3768.26
506.58	3838.48
506.76	3744.86
506.93	3684.00
507.11	3815.07
507.28	3770.60
507.46	3705.07
507.63	3639.53
507.81	3503.78
507.98	3791.67
508.16	3784.65
508.33	3908.69
508.50	3920.40
508.68	4004.66
508.85	4107.64
509.03	3985.93
509.20	3960.19
509.38	3913.38
509.55	3747.20
509.73	3648.90
509.90	3679.32
510.08	3789.33
510.25	3871.25
510.42	3779.97
510.60	3946.14
510.77	3801.03
510.95	4058.49
511.12	4060.83
511.30	4070.19
511.47	4091.26
511.64	4025.72
511.82	4049.13
511.99	3960.19
512.17	3978.91
512.34	3693.37
512.51	3712.09
512.69	3719.11
512.86	3801.03
513.04	3885.29
513.21	3730.81
513.38	3789.33
513.56	3618.47
513.73	3728.47
513.90	3733.15
514.08	3744.86
514.25	3751.88
514.43	3892.31
514.60	3684.00
514.77	3786.99
514.95	3737.84
515.12	3911.04
515.29	3887.63
515.47	3885.29
515.64	3887.63
515.81	3810.39
515.99	3808.05
516.16	3513.14
516.33	3281.43
516.51	3119.93
516.68	2967.80
516.85	3016.95
517.03	2984.18
517.20	3330.58
517.37	3784.65
517.54	3796.35
517.72	3801.03
517.89	3531.87
518.06	3131.64
518.24	3063.76
518.41	3405.48
518.58	3499.10
518.75	3688.68
518.93	3665.28
519.10	3634.85
519.27	3779.97
519.45	3805.71
519.62	3777.62
519.79	3829.12
519.96	3934.44
520.14	3681.66
520.31	3728.47
520.48	3536.55
520.65	3644.21
520.83	3796.35
521.00	3833.80
521.17	3808.05
521.34	3714.43
521.52	3761.24
521.69	3742.52
521.86	3894.65
522.03	3962.53
522.20	3658.26
522.38	3566.98
522.55	3583.36
522.72	3737.84
522.89	3674.64
523.07	3676.98
523.24	3845.50
523.41	3913.38
523.58	3868.91
523.75	3995.29
523.92	3859.54
524.10	3978.91
524.27	4037.42
524.44	4100.62
524.61	3899.33
524.78	3920.40
524.96	3861.88
525.13	3822.09
525.30	3936.78
525.47	4042.11
525.64	4011.68
525.81	3768.26
525.98	3833.80
526.16	3449.95
526.33	3361.01
526.50	3265.05
526.67	3260.37
526.84	3412.50
527.01	3449.95
527.18	3712.09
527.36	3667.62
527.53	3925.08
527.70	3929.76
527.87	3761.24
528.04	3749.54
528.21	3784.65
528.38	3880.61
528.55	4030.40
528.72	4004.66
528.89	4025.72
529.07	3941.46
529.24	3878.27
529.41	3714.43
529.58	3733.15
529.75	3796.35
529.92	3887.63
530.09	3875.93
530.26	3829.12
530.43	3850.18
530.60	3962.53
530.77	4093.60
530.94	4035.08
531.11	3957.85
531.28	3911.04
531.46	3843.16
531.63	3871.25
531.80	3885.29
531.97	3698.05
532.14	3665.28
532.31	3581.02
532.48	3463.99
532.65	3417.18
532.82	3653.58
532.99	3791.67
533.16	3801.03
533.33	3840.82
533.50	3873.59
533.67	3728.47
533.84	3808.05
534.01	3737.84
534.18	3906.35
534.35	3728.47
534.52	3639.53
534.69	3810.39
534.86	3918.06
535.03	3974.23
535.20	3988.27
535.37	3978.91
535.54	4065.51
535.71	3997.64
535.88	3850.18
536.05	3691.02
536.22	3726.13
536.38	3595.06
536.55	3623.15
536.72	3524.85
536.89	3377.39
537.06	3646.55
537.23	3723.79
537.40	3819.75
537.57	3730.81
537.74	3810.39
537.91	3826.78
538.08	3854.86
538.25	3803.37
538.42	3772.94
538.59	3751.88
538.75	3770.60
538.92	3616.13
539.09	3630.17
539.26	3691.02
539.43	3623.15
539.60	3559.95
539.77	3632.51
539.94	3625.49
540.11	3475.70
540.28	3323.56
540.44	3473.36
540.61	3454.63
540.78	3471.01
540.95	3571.66
541.12	3646.55
541.29	3529.53
541.46	3707.41
541.62	3698.05
541.79	3658.26
541.96	3496.76
542.13	3494.42
542.30	3529.53
542.47	3653.58
542.63	3803.37
542.80	3641.87
542.97	3564.64
543.14	3578.68
543.31	3616.13
543.48	3639.53
543.64	3840.82
543.81	3836.14
543.98	3665.28
544.15	3693.37
544.32	3564.64
544.48	3489.74
544.65	3618.47
544.82	3693.37
544.99	3632.51
545.16	3655.92
545.32	3590.38
545.49	3604.42
545.66	3784.65
545.83	3688.68
546.00	3662.94
546.16	3754.22
546.33	3627.83
546.50	3566.98
546.67	3581.02
546.83	3620.81
547.00	3660.60
547.17	3471.01
547.34	3370.37
547.50	3510.80
547.67	3487.40
547.84	3393.78
548.00	3475.70
548.17	3634.85
548.34	3644.21
548.51	3548.25
548.67	3597.40
548.84	3669.96
549.01	3545.91
549.18	3534.21
549.34	3578.68
549.51	3557.61
549.68	3471.01
549.84	3513.14
550.01	3431.23
550.18	3370.37
550.34	3590.38
550.51	3482.72
550.68	3487.40
550.84	3583.36
551.01	3555.27
551.18	3304.84
551.34	3433.57
551.51	3686.34
551.68	3562.30
551.84	3534.21
552.01	3522.51
552.18	3627.83
552.34	3461.65
552.51	3377.39
552.68	3368.03
552.84	3445.27
553.01	3435.91
553.18	3559.95
553.34	3396.12
553.51	3428.88
553.67	3428.88
553.84	3524.85
554.01	3510.80
554.17	3412.50
554.34	3508.46
554.51	3517.83
554.67	3545.91
554.84	3412.50
555.00	3335.26
555.17	3473.36
555.33	3520.17
555.50	3456.97
555.67	3412.50
555.83	3583.36
556.00	3297.81
556.16	3243.98
556.33	3356.33
556.50	3236.96
556.66	3293.13
556.83	3304.84
556.99	3405.48
557.16	3241.64
557.32	3288.45
557.49	3323.56
557.65	3234.62
557.82	3325.90
557.98	3452.29
558.15	3192.49
558.32	3267.39
558.48	3103.55
558.65	3056.74
558.81	3126.96
558.98	3176.11
559.14	3194.83
559.31	3178.45
559.47	3176.11
559.64	3159.72
559.80	3185.47
559.97	3138.66
560.13	3162.06
560.30	3258.03
560.46	3435.91
560.63	3424.20
560.79	3421.86
560.96	3478.04
561.12	3124.62
561.29	3162.06
561.45	3178.45
561.61	3251.00
561.78	3204.19
561.94	3110.57
562.11	3087.17
562.27	3112.91
562.44	3101.21
562.60	3353.99
562.77	3379.73
562.93	3258.03
563.10	3227.60
563.26	3234.62
563.42	3262.71
563.59	3169.09
563.75	3199.51
563.92	3215.90
564.08	3152.70
564.24	3152.70
564.41	3110.57
564.57	3155.04
564.74	3185.47
564.90	3131.64
565.07	3094.19
565.23	3033.33
565.39	2956.10
565.56	3012.27
565.72	2850.77
565.88	2972.48
566.05	3033.33
566.21	3052.06
566.38	3030.99
566.54	3030.99
566.70	3073.12
566.87	3187.81
567.03	3187.81
567.19	3145.68
567.36	2995.89
567.52	3059.08
567.68	3101.21
567.85	3000.57
568.01	2946.73
568.17	3061.42
568.34	2881.20
568.50	3007.59
568.66	3019.29
568.83	2883.54
568.99	3038.02
569.15	3042.70
569.32	3040.36
569.48	2878.86
569.64	2925.67
569.81	2979.50
569.97	3068.44
570.13	2834.39
570.30	2775.88
570.46	2766.51
570.62	2789.92
570.78	2684.59
570.95	2794.60
571.11	2916.31
571.27	2881.20
571.43	3002.91
571.60	2813.32
571.76	2984.18
571.92	3082.49
572.09	2902.26
572.25	2918.65
572.41	2974.82
572.57	2883.54
572.74	2991.20
572.90	2895.24
573.06	2972.48
573.22	2981.84
573.38	2899.92
573.55	2892.90
573.71	2853.11
573.87	2867.16
574.03	2860.13
574.20	2981.84
574.36	2883.54
574.52	2738.43
574.68	2839.07
574.84	2750.13
575.01	2764.17
575.17	2698.64
575.33	2726.72
575.49	2708.00
575.65	2780.56
575.82	2700.98
575.98	2722.04
576.14	2743.11
576.30	2888.22
576.46	2768.85
576.62	2853.11
576.79	2867.16
576.95	2775.88
577.11	2747.79
577.27	2754.81
577.43	2700.98
577.59	2686.94
577.75	2588.63
577.92	2663.53
578.08	2609.70
578.24	2654.17
578.40	2621.40
578.56	2703.32
578.72	2698.64
578.88	2689.28
579.04	2759.49
579.21	2700.98
579.37	2773.53
579.53	2782.90
579.69	2668.21
579.85	2708.00
580.01	2719.70
580.17	2693.96
580.33	2668.21
580.49	2822.69
580.65	2649.49
580.82	2703.32
580.98	2768.85
581.14	2752.47
581.30	2712.68
581.46	2745.45
581.62	2696.30
581.78	2782.90
581.94	2693.96
582.10	2619.06
582.26	2689.28
582.42	2679.91
582.58	2698.64
582.74	2731.41
582.90	2778.22
583.06	2818.00
583.22	2637.78
583.38	2736.09
583.54	2619.06
583.70	2726.72
583.86	2633.10
584.02	2677.57
584.18	2708.00
584.34	2605.02
584.50	2757.15
584.66	2654.17
584.82	2628.42
584.98	2672.89
585.14	2581.61
585.30	2534.80
585.46	2368.62
585.62	2417.77
585.78	2490.33
585.94	2396.71
586.10	2441.18
586.26	2551.18
586.42	2476.29
586.58	2567.57
586.74	2518.42
586.90	2665.87
587.06	2595.65
587.22	2558.21
587.38	2555.86
587.54	2544.16
587.70	2478.63
587.86	2553.52
588.02	2504.37
588.18	2429.48
588.34	2389.69
588.49	2239.89
588.65	2209.47
588.81	2181.38
588.97	2080.74
589.13	1989.46
589.29	2038.61
589.45	2111.16
589.61	2326.49
589.77	2333.51
589.93	2394.37
590.08	2394.37
590.24	2499.69
590.40	2366.28
590.56	2487.99
590.72	2457.56
590.88	2448.20
591.04	2342.88
591.20	2455.22
591.35	2415.43
591.51	2380.32
591.67	2338.20
591.83	2373.30
591.99	2326.49
592.15	2356.92
592.31	2464.58
592.46	2289.04
592.62	2385.01
592.78	2359.26
592.94	2249.25
593.10	2368.62
593.26	2385.01
593.41	2380.32
593.57	2256.28
593.73	2298.41
593.89	2228.19
594.05	2207.13
594.20	2340.54
594.36	2324.15
594.52	2251.60
594.68	2246.91
594.84	2305.43
594.99	2361.60
595.15	2338.20
595.31	2380.32
595.47	2370.96
595.62	2387.35
595.78	2305.43
595.94	2403.73
596.10	2319.47
596.25	2232.87
596.41	2253.94
596.57	2272.66
596.73	2303.09
596.88	2310.11
597.04	2303.09
597.20	2256.28
597.36	2230.53
597.51	2305.43
597.67	2204.78
597.83	2202.44
597.99	2216.49
598.14	2211.81
598.30	2267.98
598.46	2225.85
598.61	2174.36
598.77	2195.42
598.93	2256.28
599.09	2265.64
599.24	2310.11
599.40	2319.47
599.56	2267.98
