SpectraSuite Data File
++++++++++++++++++++++++++++++++++++
Date: Mon Oct 07 14:55:02 GMT-05:00 2013
User: price-jones
Dark Spectrum Present: No
Reference Spectrum Present: No
Number of Sampled Component Spectra: 1
Spectrometers: USB2+H05261
Integration Time (usec): 10000 (USB2+H05261)
Spectra Averaged: 1 (USB2+H05261)
Boxcar Smoothing: 0 (USB2+H05261)
Correct for Electrical Dark: No (USB2+H05261)
Strobe/Lamp Enabled: No (USB2+H05261)
Correct for Detector Non-linearity: No (USB2+H05261)
Correct for Stray Light: No (USB2+H05261)
Number of Pixels in Processed Spectrum: 2048
>>>>>Begin Processed Spectral Data<<<<<
365.73	0.00
365.92	0.00
366.12	0.00
366.32	0.00
366.52	0.00
366.72	0.00
366.91	0.00
367.11	0.00
367.31	0.00
367.51	0.00
367.70	0.00
367.90	0.00
368.10	0.00
368.30	0.00
368.49	0.00
368.69	0.00
368.89	0.00
369.09	0.00
369.28	0.00
369.48	0.00
369.68	0.00
369.87	0.00
370.07	0.00
370.27	0.00
370.47	458.74
370.66	2635.44
370.86	2974.82
371.06	3365.69
371.25	3115.25
371.45	2902.26
371.65	2586.29
371.84	2487.99
372.04	2722.04
372.24	2974.82
372.44	3101.21
372.63	3026.31
372.83	2813.32
373.03	2396.71
373.22	2335.85
373.42	2464.58
373.62	3038.02
373.81	3190.15
374.01	2935.03
374.21	2785.24
374.40	2504.37
374.60	2773.53
374.79	3108.23
374.99	3651.24
375.19	3784.65
375.38	3756.56
375.58	3337.60
375.78	3473.36
375.97	3564.64
376.17	3719.11
376.37	3765.92
376.56	3875.93
376.76	4128.70
376.95	4367.44
377.15	4521.92
377.35	4746.61
377.54	5165.56
377.74	4947.89
377.93	5139.82
378.13	4912.78
378.33	4641.28
378.52	4222.33
378.72	4201.26
378.91	4046.79
379.11	3871.25
379.31	3721.45
379.50	3826.78
379.70	4119.34
379.89	4596.81
380.09	4833.21
380.28	5008.75
380.48	5029.81
380.68	4894.06
380.87	4760.65
381.07	4311.27
381.26	4203.60
381.46	3723.79
381.65	3674.64
381.85	3487.40
382.04	3234.62
382.24	3213.56
382.43	3089.51
382.63	3023.97
382.83	2902.26
383.02	2937.37
383.22	2967.80
383.41	3129.30
383.61	3241.64
383.80	3772.94
384.00	4517.23
384.19	4723.20
384.39	5135.14
384.58	4748.95
384.78	4688.09
384.97	4578.09
385.17	4475.10
385.36	4227.01
385.56	4175.52
385.75	4470.42
385.95	4751.29
386.14	5132.79
386.34	5118.75
386.53	4875.34
386.72	4636.60
386.92	4681.07
387.11	5081.30
387.31	5268.55
387.50	4994.70
387.70	4791.08
387.89	4809.80
388.09	5008.75
388.28	4985.34
388.48	5067.26
388.67	5589.20
388.86	6118.16
389.06	6558.18
389.25	6740.74
389.45	6906.92
389.64	6729.04
389.84	6509.03
390.03	6452.86
390.22	6637.76
390.42	7126.93
390.61	7300.13
390.81	7770.58
391.00	7934.42
391.19	7793.98
391.39	7466.31
391.58	7124.59
391.78	6778.19
391.97	6490.31
392.16	5926.24
392.36	5146.84
392.55	4070.19
392.75	3361.01
392.94	2827.37
393.13	2995.89
393.33	3646.55
393.52	4629.58
393.71	5266.21
393.91	5949.64
394.10	6867.13
394.29	7440.56
394.49	7925.05
394.68	8135.70
394.88	8320.60
395.07	8505.51
395.26	8442.31
395.46	8140.38
395.65	7370.35
395.84	6375.62
396.04	5462.81
396.23	4388.50
396.42	3660.60
396.62	3880.61
396.81	4629.58
397.00	6001.13
397.19	7454.61
397.39	8758.28
397.58	9668.75
397.77	10031.54
397.97	10480.92
398.16	10607.31
398.35	10909.24
398.55	11412.45
398.74	11784.60
398.93	11887.58
399.12	11948.43
399.32	11431.18
399.51	11702.68
399.70	12372.07
399.90	12114.61
400.09	12231.64
400.28	12035.03
400.47	12294.83
400.67	12821.45
400.86	13081.25
401.05	13334.03
401.24	13001.68
401.44	13551.70
401.63	13500.21
401.82	13593.83
402.01	13781.07
402.21	13685.11
402.40	13647.66
402.59	13429.99
402.78	12950.18
402.97	12575.70
403.17	13076.57
403.36	13905.12
403.55	14104.07
403.74	14553.45
403.93	13575.11
404.13	12517.18
404.32	12664.64
404.51	13245.09
404.70	14031.51
404.89	13853.63
405.09	13870.01
405.28	13331.69
405.47	13406.59
405.66	13661.71
405.85	13114.02
406.05	12886.99
406.24	13312.97
406.43	13689.79
406.62	13799.80
406.81	14094.71
407.00	13483.83
407.20	13310.63
407.39	13455.74
407.58	14050.24
407.77	15115.18
407.96	15225.18
408.15	15321.15
408.34	15538.82
408.54	16233.96
408.73	16032.67
408.92	15770.53
409.11	15133.90
409.30	14487.92
409.49	13448.72
409.68	12620.17
409.87	12578.04
410.07	13956.61
410.26	14750.06
410.45	15463.92
410.64	15611.37
410.83	16325.24
411.02	16688.02
411.21	17144.42
411.40	17111.66
411.59	17238.05
411.78	16826.11
411.98	16989.95
412.17	17135.06
412.36	17029.74
412.55	16709.08
412.74	16416.52
412.93	16027.99
413.12	16746.53
413.31	18354.48
413.50	18359.16
413.69	18511.30
413.88	17350.39
414.07	17263.79
414.26	17853.61
414.45	18214.05
414.64	18176.60
414.83	17923.82
415.02	17884.03
415.22	18111.07
415.41	18230.43
415.60	18923.23
415.79	19625.39
415.98	19850.08
416.17	19618.37
416.36	19393.68
416.55	18993.45
416.74	18209.37
416.93	17949.57
417.12	18185.96
417.31	18129.79
417.50	18628.32
417.69	19035.58
417.88	19054.30
418.07	19044.94
418.26	18553.43
418.45	18794.50
418.64	19770.51
418.83	20397.77
419.02	19779.87
419.21	19300.06
419.39	18991.11
419.58	18263.20
419.77	18188.30
419.96	19548.15
420.15	20346.28
420.34	20762.89
420.53	21415.90
420.72	21961.25
420.91	21233.34
421.10	21308.24
421.29	20840.13
421.48	20233.93
421.67	21551.65
421.86	20350.96
422.05	18649.39
422.24	17156.13
422.43	17914.46
422.61	19866.47
422.80	20706.72
422.99	20245.63
423.18	19803.27
423.37	19484.96
423.56	19899.23
423.75	20184.78
423.94	20327.55
424.13	19358.57
424.32	19461.55
424.50	19454.53
424.69	19805.61
424.88	19576.24
425.07	19405.38
425.26	19363.25
425.45	18941.96
425.64	18883.44
425.83	19269.63
426.01	20013.92
426.20	20229.25
426.39	20009.24
426.58	18445.76
426.77	17270.81
426.96	17209.96
427.15	18129.79
427.33	19374.95
427.52	19475.60
427.71	20084.14
427.90	19494.32
428.09	19384.32
428.28	18792.16
428.46	18162.56
428.65	18071.28
428.84	18764.07
429.03	18602.58
429.22	17820.84
429.40	16322.90
429.59	14853.04
429.78	13355.10
429.97	13462.76
430.16	13635.96
430.34	13605.53
430.53	13928.53
430.72	15009.86
430.91	16582.70
431.10	19393.68
431.28	22139.13
431.47	23861.76
431.66	23309.40
431.85	20449.26
432.03	19197.07
432.22	19234.52
432.41	20610.76
432.60	22136.79
432.79	22974.70
432.97	23356.21
433.16	22295.94
433.35	20119.24
433.54	18012.76
433.72	17614.87
433.91	18696.20
434.10	21231.00
434.28	22305.31
434.47	23175.98
434.66	22661.07
434.85	21830.18
435.03	22061.89
435.22	22487.87
435.41	24112.20
435.59	24025.60
435.78	24414.13
435.97	24816.70
436.16	24631.80
436.34	24474.98
436.53	24210.50
436.72	24217.52
436.90	22822.56
437.09	23014.49
437.28	22691.49
437.46	23367.91
437.65	22838.95
437.84	21046.10
438.02	19929.66
438.21	20264.36
438.40	20915.03
438.58	22258.49
438.77	23740.05
438.96	23468.55
439.14	24737.12
439.33	25263.74
439.52	25443.96
439.70	24163.69
439.89	23826.65
440.08	23360.89
440.26	23606.64
440.45	24732.44
440.63	26562.74
440.82	27573.85
441.01	26663.38
441.19	26838.92
441.38	27627.68
441.57	28343.89
441.75	28233.88
441.94	28830.72
442.12	28449.21
442.31	29109.24
442.50	28971.15
442.68	27683.86
442.87	28123.88
443.05	27655.77
443.24	28589.64
443.43	28781.57
443.61	29469.69
443.80	29905.02
443.98	28730.08
444.17	27843.01
444.35	29553.94
444.54	30281.85
444.73	29816.08
444.91	27655.77
445.10	27335.12
445.28	26593.17
445.47	26125.06
445.65	26469.12
445.84	27332.78
446.02	27786.84
446.21	28526.45
446.39	28166.01
446.58	29242.65
446.77	29944.81
446.95	30120.35
447.14	30298.23
447.32	31138.49
447.51	30300.58
447.69	28606.03
447.88	28879.87
448.06	29483.73
448.25	30249.08
448.43	29465.00
448.62	29254.36
448.80	29074.13
448.99	29413.51
449.17	30059.50
449.36	30572.08
449.54	31131.47
449.73	31377.22
449.91	31393.61
450.10	32833.04
450.28	33177.09
450.46	33202.84
450.65	33081.13
450.83	32435.14
451.02	31735.32
451.20	31786.82
451.39	31927.25
451.57	31995.12
451.76	31859.37
451.94	31079.97
452.13	30377.81
452.31	28809.65
452.49	27725.99
452.68	28517.09
452.86	29287.12
453.05	29088.18
453.23	30246.74
453.42	30604.84
453.60	31761.07
453.78	31393.61
453.97	31103.38
454.15	30529.95
454.34	29537.56
454.52	29745.87
454.70	29909.71
454.89	30459.73
455.07	30396.54
455.26	31206.36
455.44	32065.34
455.62	32500.68
455.81	32215.13
455.99	32006.83
456.17	32929.00
456.36	33383.06
456.54	33462.64
456.73	32797.93
456.91	33254.33
457.09	33818.40
457.28	34541.63
457.46	33060.07
457.64	32664.52
457.83	31950.65
458.01	31770.43
458.19	32676.22
458.38	33383.06
458.56	33858.19
458.74	33029.64
458.93	32371.95
459.11	32203.43
459.29	32037.25
459.48	32952.40
459.66	32414.08
459.84	32662.18
460.03	33343.27
460.21	33846.49
460.39	34389.49
460.57	34178.84
460.76	34087.56
460.94	34579.07
461.12	34298.21
461.31	34307.57
461.49	34328.64
461.67	34125.01
461.85	34991.01
462.04	35133.78
462.22	34780.36
462.40	34609.50
462.59	34499.50
462.77	34820.15
462.95	34700.78
463.13	34347.36
463.32	33902.66
463.50	33930.75
463.68	33593.71
463.86	34429.28
464.05	33034.32
464.23	32236.20
464.41	32877.51
464.59	32788.56
464.78	34129.69
464.96	33535.20
465.14	32886.87
465.32	34918.45
465.50	35505.93
465.69	35620.61
465.87	34572.05
466.05	33766.91
466.23	31714.26
466.41	31669.79
466.60	32685.58
466.78	32304.07
466.96	33062.41
467.14	34078.20
467.32	33963.51
467.51	34342.68
467.69	32683.24
467.87	33696.69
468.05	34398.85
468.23	33846.49
468.41	33600.73
468.60	33991.60
468.78	34904.41
468.96	34464.39
469.14	34426.94
469.32	35269.53
469.50	32985.17
469.69	33628.82
469.87	33046.02
470.05	32851.76
470.23	32641.11
470.41	33425.19
470.59	34113.31
470.77	33832.44
470.95	34616.52
471.14	35255.49
471.32	34913.77
471.50	36903.23
471.68	36868.12
471.86	37645.18
472.04	36931.31
472.22	37240.26
472.40	35683.81
472.58	35402.94
472.77	35395.92
472.95	35522.31
473.13	37015.57
473.31	34965.26
473.49	35683.81
473.67	36601.30
473.85	36957.06
474.03	38792.04
474.21	38485.43
474.39	38951.20
474.57	38866.94
474.75	38806.08
474.93	38143.71
475.12	36924.29
475.30	37591.34
475.48	37013.23
475.66	37296.44
475.84	36786.20
476.02	36989.83
476.20	36683.22
476.38	37619.43
476.56	38607.14
476.74	39842.94
476.92	39321.00
477.10	39271.85
477.28	40807.24
477.46	41022.57
477.64	41984.53
477.82	41998.57
478.00	41780.90
478.18	40411.69
478.36	40236.15
478.54	40690.21
478.72	41724.73
478.90	43267.14
479.08	44416.35
479.26	44385.92
479.44	44367.20
479.62	43421.62
479.80	44566.14
479.98	43800.79
480.16	44989.78
480.34	43833.55
480.52	44830.62
480.70	45315.11
480.88	44825.94
481.06	45696.62
481.24	45427.46
481.41	46721.77
481.59	47402.87
481.77	46258.35
481.95	45748.11
482.13	45464.91
482.31	46382.40
482.49	47077.54
482.67	46293.46
482.85	46153.02
483.03	46134.30
483.21	47910.77
483.39	47189.88
483.57	46799.01
483.74	47084.56
483.92	47655.65
484.10	47136.05
484.28	47365.42
484.46	47173.50
484.64	49184.02
484.82	48147.16
485.00	47292.86
485.18	47028.38
485.35	44741.68
485.53	39812.51
485.71	37439.21
485.89	38155.41
486.07	40683.19
486.25	43494.18
486.43	45429.80
486.61	45834.71
486.78	45645.13
486.96	47004.98
487.14	48591.86
487.32	49031.88
487.50	50028.95
487.68	51379.44
487.85	51868.61
488.03	50686.64
488.21	50815.37
488.39	50206.83
488.57	49521.05
488.75	48919.54
488.92	50656.21
489.10	52313.31
489.28	53200.38
489.46	54876.20
489.64	54279.36
489.81	54625.76
489.99	53645.08
490.17	53783.17
490.35	54096.80
490.53	53883.81
490.70	53422.73
490.88	53081.01
491.06	54152.97
491.24	54625.76
491.41	53570.18
491.59	51976.28
491.77	51681.37
491.95	53153.57
492.13	54600.02
492.30	54934.71
492.48	55700.07
492.66	55957.53
492.84	56023.06
493.01	55341.97
493.19	55395.80
493.37	54588.31
493.54	54726.41
493.72	56214.99
493.90	56245.41
494.08	56699.48
494.25	56575.43
494.43	57319.72
494.61	57748.04
494.79	57841.66
494.96	57904.85
495.14	57441.43
495.32	56275.84
495.49	56610.54
495.67	57469.51
495.85	57890.81
496.02	58592.97
496.20	58258.27
496.38	57914.22
496.55	57841.66
496.73	58684.25
496.91	58541.48
497.09	58623.40
497.26	58820.00
497.44	58431.47
497.62	57689.52
497.79	56722.88
497.97	55990.30
498.14	56797.78
498.32	57970.39
498.50	57867.40
498.67	57904.85
498.85	58110.82
499.03	58609.35
499.20	59292.79
499.38	58768.51
499.56	57874.43
499.73	57694.21
499.91	57483.56
500.08	57073.96
500.26	56633.94
500.44	57401.64
500.61	57703.57
500.79	57375.89
500.97	57546.75
501.14	56591.81
501.32	56563.73
501.49	56669.05
501.67	57305.68
501.84	57460.15
502.02	58064.01
502.20	58475.94
502.37	58665.53
502.55	58808.30
502.72	59164.06
502.90	59707.07
503.07	59355.99
503.25	57911.88
503.43	57286.95
503.60	57254.18
503.78	57020.13
503.95	57317.38
504.13	58412.75
504.30	58635.10
504.48	58642.12
504.65	58592.97
504.83	58712.34
505.01	59381.73
505.18	59760.90
505.36	60088.57
505.53	60133.04
505.71	60135.38
505.88	60191.56
506.06	59774.94
506.23	59451.95
506.41	59468.33
506.58	59648.55
506.76	59711.75
506.93	58953.41
507.11	59079.80
507.28	59348.96
507.46	58511.05
507.63	58562.54
507.81	57996.13
507.98	58578.93
508.16	59643.87
508.33	59648.55
508.50	59980.91
508.68	60280.50
508.85	60467.74
509.03	60832.86
509.20	59870.90
509.38	58913.62
509.55	59082.14
509.73	59157.04
509.90	59707.07
510.08	59805.37
510.25	59241.30
510.42	59208.53
510.60	59898.99
510.77	59999.63
510.95	59861.54
511.12	60313.26
511.30	60893.72
511.47	61172.24
511.64	61090.32
511.82	60945.21
511.99	59884.95
512.17	59884.95
512.34	59192.15
512.51	59323.22
512.69	60081.55
512.86	59580.68
513.04	59927.08
513.21	59440.24
513.38	58738.08
513.56	58340.19
513.73	58113.16
513.90	58515.73
514.08	58791.92
514.25	58754.47
514.43	59224.92
514.60	59386.41
514.77	59564.29
514.95	59690.68
515.12	59475.35
515.29	60072.19
515.47	60610.51
515.64	60662.00
515.81	59870.90
515.99	59100.87
516.16	57298.65
516.33	55475.38
516.51	54976.84
516.68	53567.84
516.85	52978.03
517.03	54920.67
517.20	57162.90
517.37	58934.69
517.54	59868.56
517.72	58403.39
517.89	55552.62
518.06	54124.89
518.24	55512.83
518.41	57509.30
518.58	58548.50
518.75	58574.25
518.93	58464.24
519.10	57895.49
519.27	59126.61
519.45	59299.81
519.62	59964.52
519.79	60177.51
519.96	59419.18
520.14	59487.06
520.31	58066.35
520.48	58461.90
520.65	59201.51
520.83	59992.61
521.00	60191.56
521.17	59697.70
521.34	59683.66
521.52	60060.49
521.69	60254.75
521.86	60479.44
522.03	60659.66
522.20	59065.76
522.38	58653.82
522.55	59058.74
522.72	59475.35
522.89	58796.60
523.07	59667.28
523.24	60009.00
523.41	60968.61
523.58	61293.95
523.75	61410.98
523.92	61247.14
524.10	60774.35
524.27	60544.98
524.44	60547.32
524.61	60254.75
524.78	60552.00
524.96	60561.36
525.13	60406.89
525.30	60874.99
525.47	61258.84
525.64	61001.38
525.81	60339.01
525.98	58489.99
526.16	57340.78
526.33	57347.81
526.50	56816.50
526.67	56975.66
526.84	57275.25
527.01	58267.64
527.18	58667.87
527.36	59854.52
527.53	60769.67
527.70	60074.53
527.87	58864.47
528.04	59924.74
528.21	60339.01
528.38	61048.19
528.55	61666.09
528.72	61520.98
528.89	61031.81
529.07	60900.74
529.24	59814.73
529.41	59517.48
529.58	59580.68
529.75	60446.68
529.92	60458.38
530.09	60512.21
530.26	61167.56
530.43	61909.51
530.60	60694.77
530.77	61289.27
530.94	61413.32
531.11	60612.85
531.28	60685.41
531.46	61193.31
531.63	60823.50
531.80	60467.74
531.97	59833.46
532.14	59774.94
532.31	58192.74
532.48	57914.22
532.65	57965.71
532.82	58614.04
532.99	60137.72
533.16	60383.48
533.33	60411.57
533.50	60701.79
533.67	60605.83
533.84	59929.42
534.01	60163.47
534.18	60430.29
534.35	60069.85
534.52	59526.84
534.69	60163.47
534.86	60507.53
535.03	60776.69
535.20	60477.10
535.37	61382.89
535.54	61506.94
535.71	61371.19
535.88	61570.13
536.05	60271.14
536.22	59728.13
536.38	59526.84
536.55	58724.04
536.72	58307.43
536.89	59234.28
537.06	59430.88
537.23	59943.46
537.40	59964.52
537.57	59657.91
537.74	60083.89
537.91	60055.81
538.08	59934.10
538.25	59852.18
538.42	60631.58
538.59	60058.15
538.75	59107.89
538.92	58609.35
539.09	59100.87
539.26	59044.69
539.43	58990.86
539.60	59138.32
539.77	59620.47
539.94	59100.87
540.11	58253.59
540.28	58087.42
540.44	57918.90
540.61	57961.03
540.78	58459.56
540.95	59473.01
541.12	59281.09
541.29	59913.03
541.46	59840.48
541.62	60233.69
541.79	59363.01
541.96	58592.97
542.13	58653.82
542.30	58728.72
542.47	59447.27
542.63	59262.36
542.80	59093.85
542.97	58611.70
543.14	58721.70
543.31	58532.12
543.48	59891.97
543.64	59863.88
543.81	60956.91
543.98	60825.84
544.15	59032.99
544.32	59510.46
544.48	59538.55
544.65	59454.29
544.82	59786.64
544.99	58618.72
545.16	58061.67
545.32	58468.92
545.49	59227.26
545.66	59023.63
545.83	59035.33
546.00	59554.93
546.16	59461.31
546.33	59325.56
546.50	59238.96
546.67	59934.10
546.83	59028.31
547.00	59632.17
547.17	58394.03
547.34	57485.90
547.50	57710.59
547.67	58745.11
547.84	59505.78
548.00	59269.39
548.17	59433.22
548.34	59227.26
548.51	59576.00
548.67	59803.03
548.84	59709.41
549.01	59742.17
549.18	59058.74
549.34	59096.19
549.51	59416.84
549.68	59592.38
549.84	58967.46
550.01	58220.83
550.18	58326.15
550.34	58279.34
550.51	58904.26
550.68	59444.93
550.84	58850.43
551.01	58157.63
551.18	58291.04
551.34	57811.23
551.51	59157.04
551.68	59014.27
551.84	59103.21
552.01	58871.49
552.18	58527.44
552.34	57811.23
552.51	57560.79
552.68	57640.37
552.84	57820.59
553.01	57946.98
553.18	58752.13
553.34	58639.78
553.51	59004.91
553.67	58649.14
553.84	58335.51
554.01	59042.35
554.17	58223.17
554.34	58625.74
554.51	58567.23
554.67	57851.02
554.84	58080.39
555.00	57818.25
555.17	57881.45
555.33	57825.28
555.50	57233.12
555.67	58211.46
555.83	58361.26
556.00	57914.22
556.16	57553.77
556.33	57029.49
556.50	57563.14
556.66	57577.18
556.83	57359.51
556.99	57017.79
557.16	57399.30
557.32	57034.17
557.49	57481.22
557.65	57111.41
557.82	57733.99
557.98	57993.79
558.15	57006.09
558.32	56207.97
558.48	55454.31
558.65	55997.32
558.81	56193.92
558.98	56816.50
559.14	57167.58
559.31	56891.40
559.47	56502.87
559.64	56168.18
559.80	55805.39
559.97	56530.96
560.13	57418.02
560.30	58401.05
560.46	58555.52
560.63	58824.68
560.79	58506.37
560.96	57563.14
561.12	56626.92
561.29	56032.42
561.45	56170.52
561.61	57593.56
561.78	56816.50
561.94	57289.29
562.11	57408.66
562.27	56425.64
562.44	57301.00
562.60	57396.96
562.77	57820.59
562.93	56839.91
563.10	56750.97
563.26	56779.06
563.42	57275.25
563.59	56856.29
563.75	56577.77
563.92	56395.21
564.08	55781.99
564.24	56669.05
564.41	56479.47
564.57	56741.61
564.74	56793.10
564.90	55707.09
565.07	56069.87
565.23	54986.21
565.39	54621.08
565.56	55278.77
565.72	55454.31
565.88	54124.89
566.05	56177.54
566.21	56795.44
566.38	56250.09
566.54	56123.71
566.70	56774.37
566.87	56533.30
567.03	56004.34
567.19	57134.82
567.36	57499.94
567.52	56018.38
567.68	55945.83
567.85	55154.72
568.01	55084.51
568.17	55348.99
568.34	55824.12
568.50	55360.69
568.66	55428.57
568.83	55030.68
568.99	54714.70
569.15	54679.60
569.32	55372.39
569.48	54714.70
569.64	54550.87
569.81	54419.80
569.97	54246.60
570.13	53853.39
570.30	53684.87
570.46	52924.19
570.62	51887.34
570.78	52538.01
570.95	53598.27
571.11	53584.22
571.27	53081.01
571.43	53535.07
571.60	53523.37
571.76	54595.34
571.92	54808.32
572.09	55117.28
572.25	54946.42
572.41	55583.04
572.57	55030.68
572.74	55189.83
572.90	56498.19
573.06	55594.74
573.22	55601.77
573.38	55234.30
573.55	56322.65
573.71	55110.25
573.87	55084.51
574.03	55105.57
574.20	54754.49
574.36	54838.75
574.52	53867.43
574.68	53867.43
574.84	53113.78
575.01	53294.00
575.17	53764.45
575.33	53879.13
575.49	53677.85
575.65	52945.26
575.82	53286.98
575.98	53102.07
576.14	54372.99
576.30	54918.33
576.46	53308.04
576.62	53382.94
576.79	53902.54
576.95	53567.84
577.11	54167.02
577.27	53862.75
577.43	54241.92
577.59	53642.74
577.75	52053.51
577.92	52090.96
578.08	52662.05
578.24	53254.21
578.40	52903.13
578.56	51999.68
578.72	53006.11
578.88	52346.08
579.04	52877.38
579.21	52090.96
579.37	52940.58
579.53	53195.70
579.69	52416.30
579.85	52619.92
580.01	52725.25
580.17	52072.24
580.33	53179.31
580.49	53464.86
580.65	51728.18
580.82	52664.39
580.98	53085.69
581.14	53628.69
581.30	53357.19
581.46	52772.06
581.62	53104.41
581.78	53837.00
581.94	53602.95
582.10	53841.68
582.26	53876.79
582.42	53890.83
582.58	52416.30
582.74	52367.15
582.90	52715.89
583.06	52568.43
583.22	52863.34
583.38	53029.52
583.54	53057.60
583.70	53979.78
583.86	53186.33
584.02	52746.31
584.18	52554.39
584.34	51812.44
584.50	51735.20
584.66	51749.24
584.82	52093.30
584.98	52437.36
585.14	51632.22
585.30	51742.22
