SpectraSuite Data File
++++++++++++++++++++++++++++++++++++
Date: Mon Oct 07 14:55:01 GMT-05:00 2013
User: price-jones
Dark Spectrum Present: No
Reference Spectrum Present: No
Number of Sampled Component Spectra: 1
Spectrometers: USB2+H05261
Integration Time (usec): 10000 (USB2+H05261)
Spectra Averaged: 1 (USB2+H05261)
Boxcar Smoothing: 0 (USB2+H05261)
Correct for Electrical Dark: No (USB2+H05261)
Strobe/Lamp Enabled: No (USB2+H05261)
Correct for Detector Non-linearity: No (USB2+H05261)
Correct for Stray Light: No (USB2+H05261)
Number of Pixels in Processed Spectrum: 2048
>>>>>Begin Processed Spectral Data<<<<<
365.73	0.00
365.92	0.00
366.12	0.00
366.32	0.00
366.52	0.00
366.72	0.00
366.91	0.00
367.11	0.00
367.31	0.00
367.51	0.00
367.70	0.00
367.90	0.00
368.10	0.00
368.30	0.00
368.49	0.00
368.69	0.00
368.89	0.00
369.09	0.00
369.28	0.00
369.48	0.00
369.68	0.00
369.87	0.00
370.07	0.00
370.27	0.00
370.47	348.74
370.66	2502.03
370.86	2829.71
371.06	3110.57
371.25	2937.37
371.45	2778.22
371.65	2509.05
371.84	2366.28
372.04	2497.35
372.24	2813.32
372.44	2878.86
372.63	2785.24
372.83	2558.21
373.03	2286.70
373.22	2165.00
373.42	2354.58
373.62	2724.38
373.81	2766.51
374.01	2775.88
374.21	2513.74
374.40	2326.49
374.60	2466.92
374.79	3019.29
374.99	3363.35
375.19	3447.61
375.38	3370.37
375.58	3215.90
375.78	3274.41
375.97	3251.00
376.17	3293.13
376.37	3499.10
376.56	3463.99
376.76	3873.59
376.95	4187.22
377.15	4259.78
377.35	4271.48
377.54	4851.93
377.74	4807.46
377.93	4795.76
378.13	4411.91
378.33	4212.96
378.52	3990.61
378.72	3936.78
378.91	3770.60
379.11	3588.04
379.31	3583.36
379.50	3662.94
379.70	3976.57
379.89	4416.59
380.09	4461.06
380.28	4657.67
380.48	4580.43
380.68	4622.56
380.87	4358.08
381.07	4084.23
381.26	3695.71
381.46	3515.48
381.65	3449.95
381.85	3297.81
382.04	3220.58
382.24	2918.65
382.43	2785.24
382.63	2602.68
382.83	2761.83
383.02	2799.28
383.22	2745.45
383.41	2850.77
383.61	3035.67
383.80	3555.27
384.00	4070.19
384.19	4329.99
384.39	4683.41
384.58	4503.19
384.78	4395.53
384.97	4334.67
385.17	4245.73
385.36	3906.35
385.56	3744.86
385.75	3985.93
385.95	4519.57
386.14	4940.87
386.34	4833.21
386.53	4409.57
386.72	4301.90
386.92	4248.07
387.11	4664.69
387.31	4823.84
387.50	4561.70
387.70	4636.60
387.89	4477.44
388.09	4512.55
388.28	4634.26
388.48	4880.02
388.67	5224.08
388.86	5657.07
389.06	5933.26
389.25	6274.98
389.45	6235.19
389.64	6183.70
389.84	6125.18
390.03	6024.54
390.22	6181.35
390.42	6597.97
390.61	6846.07
390.81	7400.77
391.00	7173.74
391.19	7241.62
391.39	6827.34
391.58	6429.45
391.78	6164.97
391.97	5900.49
392.16	5483.88
392.36	4896.40
392.55	3740.18
392.75	3000.57
392.94	2546.50
393.13	2820.35
393.33	3438.25
393.52	4257.43
393.71	5100.03
393.91	5586.86
394.10	6164.97
394.29	6817.98
394.49	7126.93
394.68	7564.61
394.88	7735.47
395.07	8046.76
395.26	7798.66
395.46	7470.99
395.65	6913.94
395.84	6005.81
396.04	5046.20
396.23	4011.68
396.42	3377.39
396.62	3698.05
396.81	4358.08
397.00	5666.44
397.19	6895.22
397.39	8219.96
397.58	9191.28
397.77	9420.66
397.97	9928.55
398.16	9930.89
398.35	10258.57
398.55	10480.92
398.74	10773.49
398.93	10974.77
399.12	10876.47
399.32	10480.92
399.51	11014.56
399.70	11485.01
399.90	11335.21
400.09	11229.89
400.28	11328.19
400.47	11637.14
400.67	12056.10
400.86	12287.81
401.05	12133.34
401.24	12343.99
401.44	12575.70
401.63	12924.44
401.82	12713.79
402.01	12613.15
402.21	12875.29
402.40	12975.93
402.59	12280.79
402.78	11873.54
402.97	11882.90
403.17	12355.69
403.36	12980.61
403.55	12992.31
403.74	13614.90
403.93	12582.72
404.13	11578.63
404.32	11644.17
404.51	12339.30
404.70	12950.18
404.89	13020.40
405.09	12809.75
405.28	12521.87
405.47	12844.86
405.66	12439.95
405.85	12098.23
406.05	11843.11
406.24	12315.90
406.43	12739.54
406.62	13137.43
406.81	13149.13
407.00	12774.64
407.20	12456.33
407.39	12503.14
407.58	13413.61
407.77	13804.48
407.96	14068.96
408.15	14562.81
408.34	14476.21
408.54	14918.57
408.73	14906.87
408.92	14668.14
409.11	14197.69
409.30	13366.80
409.49	12545.27
409.68	11896.94
409.87	11784.60
410.07	12791.03
410.26	13535.32
410.45	14249.18
410.64	14604.94
410.83	15337.53
411.02	15325.83
411.21	15709.68
411.40	16114.59
411.59	15960.11
411.78	15901.60
411.98	15983.52
412.17	16088.84
412.36	15770.53
412.55	15470.94
412.74	15019.22
412.93	15035.60
413.12	15185.40
413.31	16903.35
413.50	16978.25
413.69	16959.52
413.88	16074.80
414.07	15864.15
414.26	16528.86
414.45	17144.42
414.64	16779.30
414.83	16805.05
415.02	16575.67
415.22	16449.28
415.41	17191.23
415.60	17385.50
415.79	18211.71
415.98	18300.65
416.17	18448.10
416.36	17722.54
416.55	17717.86
416.74	16893.99
416.93	16627.17
417.12	17088.25
417.31	16947.82
417.50	17191.23
417.69	17816.16
417.88	17720.20
418.07	17287.20
418.26	17249.75
418.45	17554.02
418.64	18597.90
418.83	19122.18
419.02	18331.08
419.21	18040.85
419.39	17184.21
419.58	16573.33
419.77	16685.68
419.96	18288.95
420.15	18794.50
420.34	19499.00
420.53	19756.46
420.72	20269.04
420.91	19721.35
421.10	19829.02
421.29	19501.34
421.48	19023.87
421.67	19899.23
421.86	18981.74
422.05	17469.76
422.24	15917.98
422.43	16868.24
422.61	18513.64
422.80	19082.39
422.99	18923.23
423.18	18104.04
423.37	18286.61
423.56	18284.26
423.75	18862.38
423.94	19372.61
424.13	18143.83
424.32	18108.72
424.50	18148.51
424.69	18534.70
424.88	18244.48
425.07	18319.37
425.26	17891.06
425.45	17303.58
425.64	17469.76
425.83	17724.88
426.01	18614.28
426.20	18881.10
426.39	18370.86
426.58	17036.76
426.77	15908.62
426.96	15861.81
427.15	16954.84
427.33	17963.61
427.52	18209.37
427.71	18532.36
427.90	17989.36
428.09	18029.15
428.28	17612.53
428.46	17104.64
428.65	16999.31
428.84	17331.67
429.03	17233.36
429.22	16273.74
429.40	15194.76
429.59	13703.84
429.78	12252.70
429.97	12617.83
430.16	12847.20
430.34	12545.27
430.53	13170.19
430.72	13657.03
430.91	15417.11
431.10	18246.82
431.28	20498.41
431.47	22080.61
431.66	21645.27
431.85	18995.79
432.03	17816.16
432.22	17692.11
432.41	19274.31
432.60	20809.70
432.79	21191.21
432.97	21553.99
433.16	20830.77
433.35	18658.75
433.54	16908.03
433.72	16231.62
433.91	17078.89
434.10	19267.29
434.28	20727.78
434.47	21216.96
434.66	20613.10
434.85	20517.14
435.03	20350.96
435.22	20765.23
435.41	22235.09
435.59	22354.46
435.78	22354.46
435.97	22988.74
436.16	23161.94
436.34	22759.37
436.53	22419.99
436.72	22305.31
436.90	20959.50
437.09	21383.13
437.28	20823.75
437.46	21664.00
437.65	20999.29
437.84	19389.00
438.02	18661.09
438.21	18991.11
438.40	19555.18
438.58	20751.19
438.77	21338.66
438.96	21668.68
439.14	22815.54
439.33	23033.21
439.52	23634.73
439.70	22438.72
439.89	21781.03
440.08	21642.93
440.26	21776.34
440.45	22490.21
440.63	25013.31
440.82	25579.71
441.01	24812.02
441.19	24870.53
441.38	25717.81
441.57	26567.42
441.75	26331.03
441.94	26890.41
442.12	26146.12
442.31	26644.66
442.50	26939.57
442.68	26281.88
442.87	25886.32
443.05	25713.13
443.24	26396.56
443.43	26721.90
443.61	26850.63
443.80	27505.98
443.98	26616.57
444.17	25972.92
444.35	27704.92
444.54	28364.95
444.73	27693.22
444.91	25928.45
445.10	25057.78
445.28	24173.05
445.47	23901.55
445.65	24582.65
445.84	25247.36
446.02	25902.71
446.21	26375.50
446.39	26267.83
446.58	27281.28
446.77	27431.08
446.95	27555.13
447.14	28212.82
447.32	28500.70
447.51	28023.23
447.69	26948.93
447.88	26639.98
448.06	27307.03
448.25	27850.03
448.43	27667.47
448.62	27014.46
448.80	26794.45
448.99	26974.67
449.17	27976.42
449.36	27953.02
449.54	28709.01
449.73	28954.77
449.91	29144.35
450.10	30073.54
450.28	30438.67
450.46	30171.85
450.65	30874.01
450.83	29631.18
451.02	29624.16
451.20	29336.27
451.39	29610.12
451.57	29539.90
451.76	29408.83
451.94	28936.04
452.13	28528.79
452.31	26321.66
452.49	25404.17
452.68	26934.88
452.86	26448.05
453.05	27175.96
453.23	28245.58
453.42	28425.81
453.60	29462.66
453.78	28945.41
453.97	28400.06
454.15	28587.30
454.34	27695.56
454.52	27686.20
454.70	27922.59
454.89	28070.04
455.07	28292.40
455.26	28765.18
455.44	29631.18
455.62	30319.30
455.81	30188.23
455.99	29858.21
456.17	30457.39
456.36	30691.44
456.54	30934.86
456.73	30345.05
456.91	31274.24
457.09	30792.09
457.28	31943.63
457.46	30291.21
457.64	30267.81
457.83	29305.85
458.01	28889.23
458.19	30504.20
458.38	30513.56
458.56	31297.64
458.74	30838.90
458.93	30213.98
459.11	29984.60
459.29	29092.86
459.48	30073.54
459.66	29972.90
459.84	30272.49
460.03	30464.41
460.21	31260.20
460.39	31534.04
460.57	31667.45
460.76	31716.60
460.94	31866.39
461.12	31894.48
461.31	31299.98
461.49	31880.44
461.67	31648.72
461.85	32346.20
462.04	32208.11
462.22	32360.25
462.40	32327.48
462.59	31765.75
462.77	32149.60
462.95	31737.66
463.13	31522.34
463.32	31618.30
463.50	31234.45
463.68	31758.73
463.86	31620.64
464.05	31007.42
464.23	30026.73
464.41	30508.88
464.59	30373.13
464.78	31761.07
464.96	31178.28
465.14	30771.02
465.32	32142.58
465.50	32753.46
465.69	33296.46
465.87	32191.73
466.05	31037.84
466.23	29860.55
466.41	29287.12
466.60	30546.33
466.78	30328.66
466.96	30766.34
467.14	31503.61
467.32	31538.72
467.51	31573.83
467.69	30043.12
467.87	30941.88
468.05	31299.98
468.23	31531.70
468.41	31047.21
468.60	30981.67
468.78	32432.80
468.96	31482.55
469.14	31840.65
469.32	31955.33
469.50	30696.13
469.69	31201.68
469.87	30792.09
470.05	30623.57
470.23	30677.40
470.41	30932.52
470.59	31332.75
470.77	31356.16
470.95	31761.07
471.14	32699.62
471.32	32856.44
471.50	34246.72
471.68	34342.68
471.86	34754.61
472.04	33958.83
472.22	34506.52
472.40	33064.75
472.58	32587.28
472.77	32430.46
472.95	33095.18
473.13	34307.57
473.31	32568.55
473.49	32308.76
473.67	33563.28
473.85	34391.83
474.03	36023.19
474.21	36009.14
474.39	35835.94
474.57	35938.93
474.75	35707.21
474.93	35545.72
475.12	34485.45
475.30	34707.80
475.48	34628.23
475.66	34342.68
475.84	33713.08
476.02	34242.04
476.20	34012.66
476.38	34876.32
476.56	35730.62
476.74	36690.24
476.92	36470.23
477.10	36587.25
477.28	37832.42
477.46	37780.93
477.64	38581.39
477.82	38548.62
478.00	38742.89
478.18	37722.41
478.36	37130.26
478.54	38080.52
478.72	38555.64
478.90	40114.44
479.08	41270.67
479.26	40968.74
479.44	41406.42
479.62	39995.07
479.80	40816.60
479.98	40907.88
480.16	41619.41
480.34	40528.72
480.52	41530.47
480.70	42260.71
480.88	41481.31
481.06	42473.70
481.24	42302.84
481.41	43550.35
481.59	44449.11
481.77	43269.48
481.95	42497.11
482.13	42148.37
482.31	43110.33
482.49	43423.96
482.67	43089.26
482.85	42920.74
483.03	43489.49
483.21	45027.23
483.39	44149.53
483.57	43548.01
483.74	43763.34
483.92	44421.03
484.10	44093.35
484.28	43959.94
484.46	44098.03
484.64	46291.12
484.82	44800.19
485.00	44219.74
485.18	43456.73
485.35	41174.70
485.53	36957.06
485.71	34693.76
485.89	35168.89
486.07	37865.19
486.25	40472.54
486.43	42752.23
486.61	42312.20
486.78	42312.20
486.96	44140.16
487.14	45425.12
487.32	46248.99
487.50	46562.62
487.68	47950.56
487.85	49001.46
488.03	47849.91
488.21	47611.18
488.39	47000.30
488.57	46089.83
488.75	46031.32
488.92	47377.12
489.10	49989.16
489.28	51166.45
489.46	52238.42
489.64	51646.26
489.81	51934.15
489.99	51229.65
490.17	51203.90
490.35	51585.41
490.53	51061.13
490.70	50438.54
490.88	50527.48
491.06	51753.93
491.24	51873.29
491.41	50277.05
491.59	49097.42
491.77	48839.96
491.95	50492.38
492.13	51845.21
492.30	52608.22
492.48	53434.43
492.66	53806.58
492.84	53387.62
493.01	52900.79
493.19	52624.60
493.37	52004.36
493.54	52772.06
493.72	53546.78
493.90	53790.19
494.08	54698.32
494.25	54115.53
494.43	54885.56
494.61	55494.10
494.79	55772.63
494.96	55571.34
495.14	55185.15
495.32	53939.99
495.49	54101.48
495.67	54925.35
495.85	56018.38
496.02	56498.19
496.20	56123.71
496.38	55442.61
496.55	55590.06
496.73	56563.73
496.91	56563.73
497.09	56353.08
497.26	56540.32
497.44	56376.48
497.62	55196.85
497.79	54178.72
497.97	53694.23
498.14	54574.27
498.32	55910.72
498.50	55735.18
498.67	55875.61
498.85	56151.79
499.03	56809.48
499.20	57172.27
499.38	56561.39
499.56	55910.72
499.73	55487.08
499.91	55576.02
500.08	54906.63
500.26	54363.62
500.44	55154.72
500.61	55501.12
500.79	55423.89
500.97	55667.30
501.14	54363.62
501.32	54520.44
501.49	54688.96
501.67	54960.46
501.84	55077.49
502.02	55903.70
502.20	56652.67
502.37	56545.00
502.55	56568.41
502.72	56839.91
502.90	57504.62
503.07	57186.31
503.25	56074.55
503.43	55248.35
503.60	54731.09
503.78	54663.21
503.95	55011.95
504.13	56360.10
504.30	56521.60
504.48	56444.36
504.65	55922.42
504.83	56619.90
505.01	57375.89
505.18	57598.24
505.36	57738.68
505.53	58059.33
505.71	58230.19
505.88	58272.32
506.06	57813.57
506.23	57298.65
506.41	57354.83
506.58	57687.18
506.76	57532.71
506.93	57085.67
507.11	56736.93
507.28	57160.56
507.46	56666.71
507.63	56449.04
507.81	55573.68
507.98	56481.81
508.16	57572.50
508.33	57418.02
508.50	57687.18
508.68	58080.39
508.85	58429.13
509.03	58698.30
509.20	57752.72
509.38	57013.11
509.55	56788.42
509.73	57151.20
509.90	57347.81
510.08	57591.22
510.25	57293.97
510.42	57202.69
510.60	57757.40
510.77	58206.78
510.95	58096.78
511.12	58492.33
511.30	58810.64
511.47	58871.49
511.64	58908.94
511.82	58887.88
511.99	57848.68
512.17	57963.37
512.34	57183.97
512.51	57481.22
512.69	57750.38
512.86	57654.42
513.04	57984.43
513.21	57455.47
513.38	56528.62
513.56	56189.24
513.73	55657.94
513.90	56498.19
514.08	56563.73
514.25	56271.16
514.43	56858.63
514.60	57556.11
514.77	57619.31
514.95	57614.63
515.12	57488.24
515.29	58075.71
515.47	58298.06
515.64	58372.96
515.81	57916.56
515.99	56844.59
516.16	54780.24
516.33	52655.03
516.51	52755.68
516.68	50784.94
516.85	50160.02
517.03	52287.57
517.20	54810.67
517.37	56769.69
517.54	57808.89
517.72	56355.42
517.89	53137.18
518.06	51826.48
518.24	53457.84
518.41	55341.97
518.58	56023.06
518.75	56097.96
518.93	56203.28
519.10	55730.50
519.27	56832.89
519.45	56989.70
519.62	57701.23
519.79	57792.51
519.96	57265.89
520.14	57099.71
520.31	55863.91
520.48	56198.60
520.65	57212.06
520.83	57825.28
521.00	57982.09
521.17	57425.04
521.34	57240.14
521.52	57787.83
521.69	58019.54
521.86	58562.54
522.03	58590.63
522.20	56985.02
522.38	56182.22
522.55	56905.44
522.72	57609.95
522.89	56853.95
523.07	57298.65
523.24	57701.23
523.41	59159.38
523.58	59124.27
523.75	59306.83
523.92	59152.36
524.10	58702.98
524.27	58335.51
524.44	58450.20
524.61	58120.18
524.78	58599.99
524.96	58513.39
525.13	58504.03
525.30	59007.25
525.47	59206.19
525.64	58766.17
525.81	57872.09
525.98	56144.77
526.16	55075.15
526.33	55276.43
526.50	54504.06
526.67	54733.43
526.84	55126.64
527.01	56016.04
527.18	56746.29
527.36	57682.50
527.53	58520.41
527.70	57762.08
527.87	56643.30
528.04	57677.82
528.21	58396.37
528.38	58862.13
528.55	59611.10
528.72	59510.46
528.89	58798.94
529.07	58522.76
529.24	57429.72
529.41	57134.82
529.58	57347.81
529.75	58085.07
529.92	58443.18
530.09	58513.39
530.26	58702.98
530.43	59812.39
530.60	58787.24
530.77	59332.58
530.94	59351.30
531.11	58588.29
531.28	59040.01
531.46	59082.14
531.63	58731.06
531.80	58045.29
531.97	57265.89
532.14	57621.65
532.31	56280.52
532.48	55683.69
532.65	55899.01
532.82	56729.90
532.99	57783.15
533.16	58347.21
533.33	58244.23
533.50	58618.72
533.67	58550.84
533.84	57502.28
534.01	58073.37
534.18	58274.66
534.35	57914.22
534.52	57338.44
534.69	58190.40
534.86	58529.78
535.03	58340.19
535.20	58365.94
535.37	59412.16
535.54	59496.42
535.71	59201.51
535.88	59693.02
536.05	58199.76
536.22	57443.77
536.38	57434.41
536.55	56310.95
536.72	56320.31
536.89	57029.49
537.06	57268.23
537.23	57762.08
537.40	58031.24
537.57	57645.05
537.74	58183.38
537.91	58064.01
538.08	57598.24
538.25	57542.07
538.42	58431.47
538.59	57939.96
538.75	56701.82
538.92	56409.25
539.09	56659.69
539.26	56718.20
539.43	56739.27
539.60	57057.58
539.77	57642.71
539.94	57057.58
540.11	56301.59
540.28	55737.52
540.44	55524.53
540.61	55489.42
540.78	56435.00
540.95	57036.51
541.12	57043.54
541.29	57584.20
541.46	57822.93
541.62	57647.39
541.79	56968.64
541.96	56264.14
542.13	56289.88
542.30	56516.92
542.47	57242.48
542.63	57104.39
542.80	56917.15
542.97	56189.24
543.14	56147.11
543.31	56175.20
543.48	57504.62
543.64	57804.21
543.81	58763.83
543.98	58466.58
544.15	56605.86
544.32	57570.16
544.48	57270.57
544.65	57120.77
544.82	57780.81
544.99	56341.38
545.16	55781.99
545.32	56137.75
545.49	57144.18
545.66	57036.51
545.83	56788.42
546.00	57588.88
546.16	57272.91
546.33	57162.90
546.50	57186.31
546.67	57654.42
546.83	56802.46
547.00	57556.11
547.17	56442.02
547.34	55309.20
547.50	55482.40
547.67	56816.50
547.84	57504.62
548.00	57230.78
548.17	56765.01
548.34	57251.84
548.51	57551.43
548.67	57879.11
548.84	57923.58
549.01	57312.70
549.18	56814.16
549.34	57078.64
549.51	57024.81
549.68	57066.94
549.84	56727.56
550.01	56360.10
550.18	55955.19
550.34	56086.26
550.51	56542.66
550.68	56851.61
550.84	56706.50
551.01	56018.38
551.18	55962.21
551.34	55370.05
551.51	56858.63
551.68	56587.13
551.84	56486.49
552.01	56610.54
552.18	56067.53
552.34	55463.67
552.51	55229.62
552.68	55260.05
552.84	55599.43
553.01	55664.96
553.18	56690.12
553.34	56807.14
553.51	56676.07
553.67	56229.03
553.84	55798.37
554.01	56488.83
554.17	55913.06
554.34	56196.26
554.51	56537.98
554.67	55538.57
554.84	55608.79
555.00	55821.78
555.17	55634.53
555.33	55143.02
555.50	54667.89
555.67	55777.31
555.83	55653.26
556.00	55646.24
556.16	54990.89
556.33	54576.61
556.50	55442.61
556.66	55477.72
556.83	55061.10
556.99	54653.85
557.16	55061.10
557.32	54721.72
557.49	55210.90
557.65	54429.16
557.82	55344.31
557.98	55671.98
558.15	54536.82
558.32	53834.66
558.48	52704.18
558.65	53294.00
558.81	53689.55
558.98	54405.75
559.14	54658.53
559.31	54396.39
559.47	54080.42
559.64	53455.50
559.80	52982.71
559.97	53539.75
560.13	55117.28
560.30	55983.27
560.46	56294.56
560.63	56608.20
560.79	56449.04
560.96	55613.47
561.12	54075.74
561.29	53595.93
561.45	53422.73
561.61	55311.54
561.78	54644.49
561.94	55030.68
562.11	55023.65
562.27	54216.17
562.44	54925.35
562.60	55054.08
562.77	55409.84
562.93	53993.82
563.10	53865.09
563.26	53888.49
563.42	54848.11
563.59	53825.30
563.75	53822.96
563.92	53893.18
564.08	52877.38
564.24	54312.13
564.41	54085.10
564.57	54546.18
564.74	54188.08
564.90	53338.47
565.07	53687.21
565.23	52301.61
565.39	52629.29
565.56	52631.63
565.72	52650.35
565.88	51334.97
566.05	53525.71
566.21	54590.66
566.38	53422.73
566.54	53635.72
566.70	54106.16
566.87	54061.69
567.03	53350.17
567.19	54394.05
567.36	54747.47
567.52	53464.86
567.68	53169.95
567.85	52236.08
568.01	51936.49
568.17	52772.06
568.34	53584.22
568.50	53008.45
568.66	53286.98
568.83	52472.47
568.99	51978.62
569.15	52060.54
569.32	52985.05
569.48	52329.70
569.64	51583.07
569.81	51784.35
569.97	51421.57
570.13	51426.25
570.30	50869.20
570.46	49970.44
570.62	49022.52
570.78	49743.41
570.95	50827.07
571.11	50305.13
571.27	50178.75
571.43	50602.38
571.60	49961.08
571.76	51971.60
571.92	51943.51
572.09	52479.49
572.25	52456.09
572.41	53317.40
572.57	53165.27
572.74	52739.29
572.90	53815.94
573.06	52699.50
573.22	52928.87
573.38	52612.90
573.55	53762.11
573.71	52357.78
573.87	52760.36
574.03	52474.81
574.20	51920.10
574.36	52121.39
574.52	51091.55
574.68	50993.25
574.84	50342.58
575.01	50227.90
575.17	50988.57
575.33	51299.86
575.49	51217.94
575.65	50281.73
575.82	50923.04
575.98	50365.99
576.14	51344.33
576.30	51655.62
576.46	50571.96
576.62	50452.59
576.79	50763.88
576.95	50595.36
577.11	51143.05
577.27	50824.73
577.43	51065.81
577.59	49897.88
577.75	48341.42
577.92	48966.35
578.08	49242.53
578.24	50064.06
578.40	50274.71
578.56	49251.89
578.72	49598.29
578.88	49134.87
579.04	50073.42
579.21	49048.27
579.37	49764.47
579.53	50120.23
579.69	49858.09
579.85	49848.73
580.01	49502.33
580.17	49319.77
580.33	50164.70
580.49	50358.97
580.65	48409.30
580.82	49240.19
580.98	50349.60
581.14	50698.34
581.30	50220.87
581.46	50033.63
581.62	49804.26
581.78	50492.38
581.94	50862.18
582.10	51096.24
582.26	50916.01
582.42	51112.62
582.58	49202.74
582.74	49118.48
582.90	49191.04
583.06	50110.87
583.22	50382.37
583.38	49907.24
583.54	50461.95
583.70	50777.92
583.86	50131.93
584.02	50199.81
584.18	49661.49
584.34	49200.40
584.50	48910.17
584.66	48858.68
584.82	49141.89
584.98	49155.93
585.14	48463.13
585.30	48720.59
