SpectraSuite Data File
++++++++++++++++++++++++++++++++++++
Date: Mon Oct 07 14:54:01 GMT-05:00 2013
User: price-jones
Dark Spectrum Present: No
Reference Spectrum Present: No
Number of Sampled Component Spectra: 1
Spectrometers: USB2+H05261
Integration Time (usec): 100000 (USB2+H05261)
Spectra Averaged: 1 (USB2+H05261)
Boxcar Smoothing: 0 (USB2+H05261)
Correct for Electrical Dark: No (USB2+H05261)
Strobe/Lamp Enabled: No (USB2+H05261)
Correct for Detector Non-linearity: No (USB2+H05261)
Correct for Stray Light: No (USB2+H05261)
Number of Pixels in Processed Spectrum: 2048
>>>>>Begin Processed Spectral Data<<<<<
365.73	0.00
365.92	0.00
366.12	0.00
366.32	0.00
366.52	0.00
366.72	0.00
366.91	0.00
367.11	0.00
367.31	0.00
367.51	0.00
367.70	0.00
367.90	0.00
368.10	0.00
368.30	0.00
368.49	0.00
368.69	0.00
368.89	0.00
369.09	0.00
369.28	0.00
369.48	0.00
369.68	0.00
369.87	0.00
370.07	0.00
370.27	0.00
370.47	578.11
370.66	3269.73
370.86	3911.04
371.06	4294.88
371.25	4390.84
371.45	3946.14
371.65	3471.01
371.84	3272.07
372.04	3358.67
372.24	3817.41
372.44	4081.89
372.63	3871.25
372.83	3674.64
373.03	3274.41
373.22	3030.99
373.42	3227.60
373.62	3632.51
373.81	3868.91
374.01	4044.45
374.21	3604.42
374.40	3274.41
374.60	3365.69
374.79	3754.22
374.99	4580.43
375.19	4683.41
375.38	4865.97
375.58	4512.55
375.78	4369.78
375.97	4351.06
376.17	4669.37
376.37	4933.85
376.56	4798.10
376.76	5151.52
376.95	5420.68
377.15	5760.06
377.35	6024.54
377.54	6359.24
377.74	6504.35
377.93	6537.12
378.13	6354.55
378.33	5870.06
378.52	5589.20
378.72	5348.12
378.91	5259.18
379.11	4950.23
379.31	4762.99
379.50	4990.02
379.70	5376.21
379.89	5673.46
380.09	6197.74
380.28	6370.94
380.48	6314.77
380.68	6223.48
380.87	6148.59
381.07	5668.78
381.26	5130.45
381.46	4950.23
381.65	4664.69
381.85	4634.26
382.04	4358.08
382.24	4058.49
382.43	3976.57
382.63	3906.35
382.83	3864.22
383.02	3873.59
383.22	3763.58
383.41	3880.61
383.61	4224.67
383.80	4676.39
384.00	5394.93
384.19	5891.13
384.39	6134.54
384.58	6303.06
384.78	6073.69
384.97	6047.94
385.17	5743.67
385.36	5446.43
385.56	5195.99
385.75	5504.94
385.95	6069.01
386.14	6518.39
386.34	6317.11
386.53	6083.05
386.72	5689.84
386.92	5926.24
387.11	6104.12
387.31	6523.07
387.50	6469.24
387.70	6052.63
387.89	5998.79
388.09	6232.85
388.28	6097.10
388.48	6345.19
388.67	6717.34
388.86	7262.68
389.06	7714.41
389.25	8081.87
389.45	8294.86
389.64	8299.54
389.84	8210.60
390.03	8091.23
390.22	8002.29
390.42	8395.50
390.61	8931.48
390.81	9502.58
391.00	9572.79
391.19	9591.52
391.39	9474.49
391.58	8727.86
391.78	8325.29
391.97	8044.42
392.16	7520.14
392.36	6796.92
392.55	5526.00
392.75	4390.84
392.94	3592.72
393.13	3538.89
393.33	4030.40
393.52	5093.01
393.71	6509.03
393.91	7487.37
394.10	7840.79
394.29	8713.81
394.49	9408.95
394.68	10038.56
394.88	10146.22
395.07	10572.20
395.26	10399.00
395.46	9729.61
395.65	9614.92
395.84	8383.80
396.04	7033.31
396.23	5720.27
396.42	4830.87
396.62	4664.69
396.81	5315.36
397.00	6700.95
397.19	8498.49
397.39	9921.53
397.58	11531.82
397.77	12266.75
397.97	12585.06
398.16	12659.96
398.35	13235.73
398.55	13376.16
398.74	13891.08
398.93	14422.38
399.12	14209.39
399.32	13799.80
399.51	14005.77
399.70	14738.35
399.90	14700.90
400.09	15044.96
400.28	14420.04
400.47	14462.17
400.67	15438.17
400.86	15873.51
401.05	15789.25
401.24	15882.88
401.44	16320.56
401.63	16077.14
401.82	16112.25
402.01	16170.76
402.21	16341.62
402.40	16580.36
402.59	15901.60
402.78	15103.48
402.97	14789.85
403.17	15412.43
403.36	16360.34
403.55	16950.16
403.74	17322.30
403.93	16610.78
404.13	15295.40
404.32	14754.74
404.51	15534.14
404.70	16580.36
404.89	16812.07
405.09	16641.21
405.28	15948.41
405.47	15990.54
405.66	15943.73
405.85	15693.29
406.05	15356.25
406.24	15555.20
406.43	15985.86
406.62	16589.72
406.81	16987.61
407.00	16091.18
407.20	15667.55
407.39	15983.52
407.58	16594.40
407.77	17238.05
407.96	17834.88
408.15	17804.46
408.34	18064.25
408.54	18920.89
408.73	18817.91
408.92	18530.02
409.11	18101.70
409.30	17191.23
409.49	16311.19
409.68	15225.18
409.87	14553.45
410.07	15587.97
410.26	16879.94
410.45	18263.20
410.64	18644.71
410.83	18808.54
411.02	19604.33
411.21	19948.39
411.40	19616.03
411.59	19843.06
411.78	19740.08
411.98	19550.49
412.17	19651.14
412.36	19295.38
412.55	19541.13
412.74	19250.91
412.93	18682.16
413.12	18740.67
413.31	20257.34
413.50	20559.27
413.69	21219.30
413.88	20348.62
414.07	19527.09
414.26	20126.27
414.45	20503.09
414.64	20858.85
414.83	20940.77
415.02	20732.47
415.22	20421.17
415.41	21029.71
415.60	21584.42
415.79	22347.44
415.98	22899.80
416.17	23152.58
416.36	22373.18
416.55	21640.59
416.74	21750.60
416.93	20828.43
417.12	20617.78
417.31	21113.97
417.50	21294.19
417.69	22321.69
417.88	21851.24
418.07	21937.84
418.26	21333.98
418.45	21876.99
418.64	22415.31
418.83	23269.61
419.02	22665.75
419.21	23014.49
419.39	21558.67
419.58	20706.72
419.77	20952.48
419.96	21734.21
420.15	22735.96
420.34	23311.74
420.53	24137.94
420.72	24325.19
420.91	24554.56
421.10	24147.31
421.29	24039.64
421.48	22986.40
421.67	24339.23
421.86	23887.51
422.05	22012.74
422.24	19667.52
422.43	19194.73
422.61	21748.26
422.80	23548.13
422.99	23049.60
423.18	22785.12
423.37	21891.03
423.56	22127.42
423.75	22279.56
423.94	22923.21
424.13	21759.96
424.32	21502.50
424.50	21694.43
424.69	21659.32
424.88	22129.77
425.07	21937.84
425.26	22087.64
425.45	21331.64
425.64	20910.35
425.83	21095.25
426.01	22122.74
426.20	22906.82
426.39	22644.68
426.58	21018.01
426.77	19569.22
426.96	18590.88
427.15	19241.54
427.33	21245.04
427.52	22036.14
427.71	22183.60
427.90	21762.30
428.09	21584.42
428.28	21238.02
428.46	20353.30
428.65	20102.86
428.84	20524.16
429.03	21228.66
429.22	19829.02
429.40	18843.65
429.59	17263.79
429.78	15145.61
429.97	15054.33
430.16	15255.61
430.34	15332.85
430.53	15241.57
430.72	15770.53
430.91	17128.04
431.10	20093.50
431.28	23843.04
431.47	25792.70
431.66	26148.46
431.85	23800.91
432.03	21415.90
432.22	20900.98
432.41	21568.04
432.60	24243.27
432.79	24812.02
432.97	25352.68
433.16	25333.96
433.35	22972.36
433.54	20767.57
433.72	19477.94
433.91	19665.18
434.10	22202.32
434.28	23847.72
434.47	25254.38
434.66	24636.48
434.85	24271.36
435.03	23962.40
435.22	24474.98
435.41	26410.60
435.59	25961.22
435.78	26764.03
435.97	27250.86
436.16	27330.44
436.34	26614.23
436.53	26401.24
436.72	26401.24
436.90	25041.39
437.09	24891.60
437.28	24208.16
437.46	25376.09
437.65	25289.49
437.84	23639.41
438.02	21568.04
438.21	21593.78
438.40	22574.47
438.58	24617.75
438.77	25076.50
438.96	25338.64
439.14	26616.57
439.33	26906.80
439.52	27686.20
439.70	27330.44
439.89	26228.04
440.08	25891.01
440.26	25621.84
440.45	26632.96
440.63	28290.06
440.82	29846.51
441.01	29303.51
441.19	28889.23
441.38	29591.39
441.57	30661.02
441.75	31133.81
441.94	31232.11
442.12	30799.11
442.31	31204.02
442.50	30878.69
442.68	30632.93
442.87	30663.36
443.05	30019.71
443.24	30904.43
443.43	31325.73
443.61	32009.17
443.80	32336.84
443.98	30642.29
444.17	30061.84
444.35	32128.53
444.54	32774.52
444.73	32063.00
444.91	31168.91
445.10	29951.84
445.28	28582.62
445.47	27847.69
445.65	28271.33
445.84	29177.12
446.02	30024.39
446.21	30213.98
446.39	30504.20
446.58	30721.87
446.77	31314.03
446.95	31791.50
447.14	32521.74
447.32	33228.59
447.51	32552.17
447.69	31192.32
447.88	30761.66
448.06	31201.68
448.25	31653.40
448.43	32074.70
448.62	31527.02
448.80	31466.16
448.99	31639.36
449.17	31798.52
449.36	31250.83
449.54	32650.47
449.73	33631.16
449.91	33539.88
450.10	35016.75
450.28	35510.61
450.46	35124.42
450.65	35126.76
450.83	34499.50
451.02	34202.25
451.20	33919.04
451.39	33598.39
451.57	33509.45
451.76	33584.35
451.94	33273.06
452.13	32491.32
452.31	31468.50
452.49	29642.88
452.68	30148.44
452.86	30251.42
453.05	30572.08
453.23	31552.76
453.42	31718.94
453.60	32954.74
453.78	33476.68
453.97	32758.14
454.15	33050.70
454.34	32203.43
454.52	32624.73
454.70	31842.99
454.89	32074.70
455.07	31711.92
455.26	32884.53
455.44	33862.87
455.62	34494.82
455.81	34806.11
455.99	34529.92
456.17	33916.70
456.36	34408.22
456.54	34852.92
456.73	35199.32
456.91	35938.93
457.09	35604.23
457.28	36421.08
457.46	34646.95
457.64	34604.82
457.83	34078.20
458.01	32666.86
458.19	33661.58
458.38	33996.28
458.56	35278.89
458.74	34785.04
458.93	34639.93
459.11	34637.59
459.29	34071.18
459.48	34359.06
459.66	33811.38
459.84	34323.96
460.03	35201.66
460.21	34443.32
460.39	35456.78
460.57	35917.86
460.76	36102.76
460.94	36016.16
461.12	35779.77
461.31	36128.51
461.49	35583.16
461.67	35321.02
461.85	36931.31
462.04	36968.76
462.22	37404.10
462.40	36725.35
462.59	36449.16
462.77	36521.72
462.95	36781.52
463.13	36105.10
463.32	35756.36
463.50	35250.81
463.68	35360.81
463.86	35800.83
464.05	35002.71
464.23	34483.11
464.41	33986.92
464.59	33841.81
464.78	35012.07
464.96	34878.66
465.14	34998.03
465.32	35882.75
465.50	36142.55
465.69	36725.35
465.87	35981.06
466.05	35171.23
466.23	33785.63
466.41	32978.15
466.60	33703.71
466.78	33549.24
466.96	34593.12
467.14	34696.10
467.32	35498.91
467.51	35239.11
467.69	34185.86
467.87	34792.06
468.05	35257.83
468.23	35363.15
468.41	35211.02
468.60	35477.84
468.78	35662.74
468.96	35276.55
469.14	35531.67
469.32	36533.42
469.50	34703.12
469.69	34888.03
469.87	34263.10
470.05	33900.32
470.23	34298.21
470.41	34176.50
470.59	34670.36
470.77	34485.45
470.95	35906.16
471.14	36137.87
471.32	35878.07
471.50	37879.23
471.68	38188.18
471.86	38274.78
472.04	38476.07
472.22	38679.69
472.40	36554.49
472.58	36830.67
472.77	35962.33
472.95	36856.42
473.13	37745.82
473.31	36453.84
473.49	36503.00
473.67	37663.90
473.85	37647.52
474.03	38714.80
474.21	38761.61
474.39	39089.29
474.57	39084.61
474.75	39791.45
474.93	39072.90
475.12	38153.07
475.30	38265.42
475.48	38562.67
475.66	39271.85
475.84	38490.11
476.02	37947.11
476.20	37610.07
476.38	38335.63
476.56	39496.54
476.74	40048.91
476.92	40231.47
477.10	40528.72
477.28	41883.89
477.46	41909.63
477.64	42520.51
477.82	42391.78
478.00	42403.49
478.18	41645.15
478.36	41701.32
478.54	41432.16
478.72	41841.76
478.90	42857.55
479.08	44142.50
479.26	44760.40
479.44	44348.47
479.62	44374.22
479.80	44369.54
479.98	44261.87
480.16	45029.57
480.34	44179.95
480.52	44839.98
480.70	44507.63
480.88	45036.59
481.06	46000.89
481.24	45556.19
481.41	46967.53
481.59	47650.97
481.77	47084.56
481.95	46309.84
482.13	46454.95
482.31	46534.53
482.49	47096.26
482.67	47154.77
482.85	47416.91
483.03	47409.89
483.21	48318.02
483.39	48360.15
483.57	47494.15
483.74	47217.97
483.92	47435.64
484.10	47454.36
484.28	48519.31
484.46	48282.91
484.64	49256.57
484.82	48353.13
485.00	47927.15
485.18	47229.67
485.35	46017.27
485.53	42789.67
485.71	38958.22
485.89	38429.26
486.07	40392.97
486.25	43978.67
486.43	46370.69
486.61	46721.77
486.78	47119.66
486.96	47332.65
487.14	48573.14
487.32	49553.82
487.50	50316.84
487.68	51302.20
487.85	51676.69
488.03	51751.59
488.21	51498.81
488.39	50562.59
488.57	49895.54
488.75	49614.68
488.92	50679.62
489.10	52575.45
489.28	54068.72
489.46	54838.75
489.64	54429.16
489.81	54628.10
489.99	54511.08
490.17	54101.48
490.35	54834.07
490.53	54094.46
490.70	53886.15
490.88	53748.06
491.06	54539.16
491.24	54766.20
491.41	53574.86
491.59	51812.44
491.77	51503.49
491.95	52137.77
492.13	53469.54
492.30	54691.30
492.48	55573.68
492.66	56121.37
492.84	55845.18
493.01	55522.19
493.19	55292.82
493.37	55007.27
493.54	54808.32
493.72	55332.60
493.90	56378.82
494.08	56973.32
494.25	57268.23
494.43	57219.08
494.61	57794.85
494.79	57759.74
494.96	57640.37
495.14	56989.70
495.32	56104.98
495.49	55243.66
495.67	56327.33
495.85	57748.04
496.02	58019.54
496.20	58026.56
496.38	57382.91
496.55	57322.06
496.73	57865.06
496.91	57731.65
497.09	58583.61
497.26	58712.34
497.44	58040.60
497.62	57574.84
497.79	56945.23
497.97	55545.59
498.14	56053.49
498.32	56743.95
498.50	57790.17
498.67	58497.01
498.85	58059.33
499.03	58450.20
499.20	58663.19
499.38	58763.83
499.56	58644.46
499.73	58075.71
499.91	57539.73
500.08	57373.55
500.26	56743.95
500.44	56945.23
500.61	57560.79
500.79	57455.47
500.97	57078.64
501.14	56982.68
501.32	56732.25
501.49	56575.43
501.67	57088.01
501.84	57621.65
502.02	57804.21
502.20	58108.48
502.37	58136.57
502.55	58185.72
502.72	58726.38
502.90	59194.49
503.07	58990.86
503.25	58440.84
503.43	57914.22
503.60	57008.43
503.78	56528.62
503.95	56865.66
504.13	58316.79
504.30	58908.94
504.48	58824.68
504.65	58557.86
504.83	58464.24
505.01	59091.51
505.18	59323.22
505.36	59870.90
505.53	59936.44
505.71	60191.56
505.88	60207.94
506.06	59622.81
506.23	59339.60
506.41	59025.97
506.58	58913.62
506.76	59234.28
506.93	59245.98
507.11	58948.73
507.28	59030.65
507.46	58717.02
507.63	58021.88
507.81	57759.74
507.98	57963.37
508.16	58733.40
508.33	59281.09
508.50	59557.27
508.68	59875.58
508.85	60355.39
509.03	60203.26
509.20	60144.75
509.38	59585.36
509.55	58873.84
509.73	58965.12
509.90	59323.22
510.08	59510.46
510.25	59522.16
510.42	59491.74
510.60	59217.89
510.77	59482.37
510.95	60039.42
511.12	60083.89
511.30	60434.97
511.47	60706.47
511.64	60547.32
511.82	60362.42
511.99	59594.72
512.17	59367.69
512.34	58609.35
512.51	59117.25
512.69	58983.84
512.86	59285.77
513.04	59512.80
513.21	59594.72
513.38	59241.30
513.56	58518.07
513.73	58412.75
513.90	58520.41
514.08	58403.39
514.25	58763.83
514.43	59119.59
514.60	58862.13
514.77	59032.99
514.95	59306.83
515.12	59138.32
515.29	59327.90
515.47	59760.90
515.64	59973.89
515.81	59608.76
515.99	58913.62
516.16	57860.38
516.33	55608.79
516.51	54068.72
516.68	53450.81
516.85	52828.23
517.03	53350.17
517.20	55927.10
517.37	58162.31
517.54	59175.76
517.72	58616.38
517.89	56509.89
518.06	54106.16
518.24	54099.14
518.41	56559.05
518.58	57881.45
518.75	58155.29
518.93	58092.10
519.10	57977.41
519.27	58677.23
519.45	58787.24
519.62	59253.00
519.79	59648.55
519.96	59578.34
520.14	59353.65
520.31	58319.13
520.48	58497.01
520.65	58602.33
520.83	59718.77
521.00	59903.67
521.17	59391.09
521.34	59178.10
521.52	59402.80
521.69	60006.65
521.86	60388.16
522.03	60020.70
522.20	59025.97
522.38	58028.90
522.55	57858.04
522.72	58607.01
522.89	58609.35
523.07	58798.94
523.24	59110.23
523.41	60130.70
523.58	60287.52
523.75	60587.11
523.92	60479.44
524.10	60378.80
524.27	60530.93
524.44	60350.71
524.61	59943.46
524.78	59800.69
524.96	59845.16
525.13	59889.63
525.30	59901.33
525.47	60608.17
525.64	60273.48
525.81	59676.64
525.98	58578.93
526.16	56933.53
526.33	56292.22
526.50	56090.94
526.67	55709.43
526.84	56456.06
527.01	57357.17
527.18	57979.75
527.36	58787.24
527.53	59728.13
527.70	59952.82
527.87	59578.34
528.04	59119.59
528.21	59463.65
528.38	60086.23
528.55	60594.13
528.72	60680.73
528.89	61034.15
529.07	60582.43
529.24	60093.25
529.41	59435.56
529.58	59014.27
529.75	58962.78
529.92	59449.61
530.09	59875.58
530.26	60341.35
530.43	60591.79
530.60	60556.68
530.77	60750.94
530.94	60999.04
531.11	60544.98
531.28	59955.16
531.46	60142.41
531.63	60130.70
531.80	59929.42
531.97	59564.29
532.14	59037.67
532.31	57876.77
532.48	57190.99
532.65	57324.40
532.82	58265.30
532.99	59128.95
533.16	59304.49
533.33	59978.57
533.50	59749.20
533.67	59199.17
533.84	58667.87
534.01	59061.08
534.18	59295.13
534.35	59494.08
534.52	59124.27
534.69	59339.60
534.86	59634.51
535.03	59959.84
535.20	60544.98
535.37	60743.92
535.54	60865.63
535.71	60339.01
535.88	60385.82
536.05	59627.49
536.22	59360.67
536.38	58733.40
536.55	58487.65
536.72	57813.57
536.89	57963.37
537.06	58759.15
537.23	59257.68
537.40	59751.54
537.57	59571.32
537.74	59402.80
537.91	59508.12
538.08	59330.24
538.25	59299.81
538.42	59543.23
538.59	59517.48
538.75	58782.55
538.92	58590.63
539.09	58567.23
539.26	58129.54
539.43	57911.88
539.60	58159.97
539.77	58164.65
539.94	58415.09
540.11	57396.96
540.28	56891.40
540.44	57113.75
540.61	57195.67
540.78	57652.08
540.95	57993.79
541.12	58347.21
541.29	58417.43
541.46	58869.15
541.62	58939.37
541.79	58649.14
541.96	58314.45
542.13	58061.67
542.30	58595.31
542.47	58536.80
542.63	58202.10
542.80	58017.20
542.97	58398.71
543.14	57900.17
543.31	58372.96
543.48	58672.55
543.64	59414.50
543.81	59725.79
543.98	59494.08
544.15	58873.84
544.32	58230.19
544.48	58482.97
544.65	58632.76
544.82	59178.10
544.99	58859.79
545.16	58459.56
545.32	58150.61
545.49	58878.52
545.66	59428.54
545.83	59135.98
546.00	58595.31
546.16	58166.99
546.33	58370.62
546.50	58438.50
546.67	58859.79
546.83	58391.68
547.00	58415.09
547.17	57731.65
547.34	57357.17
547.50	57052.90
547.67	57481.22
547.84	57677.82
548.00	58211.46
548.17	58410.41
548.34	58286.36
548.51	58244.23
548.67	58377.64
548.84	58337.85
549.01	58314.45
549.18	58145.93
549.34	58103.80
549.51	58267.64
549.68	58155.29
549.84	57698.89
550.01	57659.10
550.18	57418.02
550.34	57752.72
550.51	57827.62
550.68	58080.39
550.84	57595.90
551.01	57495.26
551.18	57478.88
551.34	57834.64
551.51	58049.97
551.68	58384.66
551.84	58368.28
552.01	58071.03
552.18	58127.20
552.34	57219.08
552.51	56818.84
552.68	56697.14
552.84	57361.85
553.01	57467.17
553.18	57523.35
553.34	57682.50
553.51	57605.26
553.67	58019.54
553.84	57961.03
554.01	57888.47
554.17	57677.82
554.34	57715.27
554.51	57935.28
554.67	58288.70
554.84	58066.35
555.00	57619.31
555.17	57521.01
555.33	57439.09
555.50	57237.80
555.67	57471.85
555.83	57099.71
556.00	57088.01
556.16	56877.36
556.33	56444.36
556.50	56296.91
556.66	56683.09
556.83	56435.00
556.99	56404.57
557.16	56535.64
557.32	56498.19
557.49	56842.25
557.65	56903.10
557.82	56760.33
557.98	56669.05
558.15	56568.41
558.32	55435.59
558.48	54717.04
558.65	54934.71
558.81	54990.89
558.98	55550.27
559.14	55758.58
559.31	55620.49
559.47	55707.09
559.64	55667.30
559.80	55086.85
559.97	54990.89
560.13	55454.31
560.30	56514.58
560.46	57010.77
560.63	57027.15
560.79	57176.95
560.96	56853.95
561.12	55671.98
561.29	54810.67
561.45	54908.97
561.61	55622.83
561.78	55859.23
561.94	55716.45
562.11	55496.44
562.27	55430.91
562.44	55784.33
562.60	56140.09
562.77	56498.19
562.93	56170.52
563.10	56046.47
563.26	55690.71
563.42	55744.54
563.59	55508.14
563.75	55192.17
563.92	55372.39
564.08	55337.29
564.24	55477.72
564.41	55763.26
564.57	55576.02
564.74	55150.04
564.90	55412.18
565.07	55388.78
565.23	54485.33
565.39	54365.96
565.56	54117.87
565.72	53640.40
565.88	54061.69
566.05	54213.83
566.21	54520.44
566.38	54513.42
566.54	54642.15
566.70	54995.57
566.87	55295.16
567.03	55379.42
567.19	55510.49
567.36	55187.49
567.52	54972.16
567.68	54733.43
567.85	54129.57
568.01	53848.71
568.17	53453.15
568.34	53598.27
568.50	53139.52
568.66	53553.80
568.83	54066.38
568.99	53944.67
569.15	54227.87
569.32	54225.53
569.48	53813.60
569.64	53436.77
569.81	53396.98
569.97	53237.83
570.13	53169.95
570.30	52690.14
570.46	52224.37
570.62	51641.58
570.78	51533.92
570.95	51978.62
571.11	52584.82
571.27	52963.98
571.43	53137.18
571.60	53701.25
571.76	53645.08
571.92	53731.68
572.09	54059.35
572.25	54024.25
572.41	53712.95
572.57	53518.69
572.74	53560.82
572.90	53427.41
573.06	53371.24
573.22	53378.26
573.38	53481.24
573.55	53146.54
573.71	53502.31
573.87	53326.77
574.03	53336.13
574.20	53151.23
574.36	52893.77
574.52	52933.56
574.68	52456.09
574.84	51983.30
575.01	51611.15
575.17	51810.10
575.33	51990.32
575.49	52130.75
575.65	52449.06
575.82	51948.19
575.98	51742.22
576.14	52203.31
576.30	52631.63
576.46	52470.13
576.62	52538.01
576.79	52238.42
576.95	51824.14
577.11	51849.89
577.27	51877.97
577.43	52325.02
577.59	51744.56
577.75	51063.47
577.92	50677.28
578.08	50122.57
578.24	50433.86
578.40	50813.03
578.56	50955.80
578.72	51206.24
578.88	51318.59
579.04	51468.38
579.21	51543.28
579.37	51583.07
579.53	51533.92
579.69	51512.85
579.85	51664.99
580.01	51725.84
580.17	51292.84
580.33	51075.17
580.49	51119.64
580.65	51412.21
580.82	51559.66
580.98	51756.27
581.14	51578.39
581.30	51744.56
581.46	51236.67
581.62	51679.03
581.78	51505.83
581.94	51578.39
582.10	51543.28
582.26	51606.47
582.42	51531.57
582.58	51632.22
582.74	51313.90
582.90	51697.75
583.06	51360.72
583.22	51746.90
583.38	51428.59
583.54	51250.71
583.70	51154.75
583.86	51054.11
584.02	51271.78
584.18	51611.15
584.34	51063.47
584.50	51007.29
584.66	50969.85
584.82	50480.67
584.98	50567.27
585.14	49963.42
