SpectraSuite Data File
++++++++++++++++++++++++++++++++++++
Date: Mon Oct 07 14:53:46 GMT-05:00 2013
User: price-jones
Dark Spectrum Present: No
Reference Spectrum Present: No
Number of Sampled Component Spectra: 1
Spectrometers: USB2+H05261
Integration Time (usec): 100000 (USB2+H05261)
Spectra Averaged: 1 (USB2+H05261)
Boxcar Smoothing: 0 (USB2+H05261)
Correct for Electrical Dark: No (USB2+H05261)
Strobe/Lamp Enabled: No (USB2+H05261)
Correct for Detector Non-linearity: No (USB2+H05261)
Correct for Stray Light: No (USB2+H05261)
Number of Pixels in Processed Spectrum: 2048
>>>>>Begin Processed Spectral Data<<<<<
365.73	0.00
365.92	0.00
366.12	0.00
366.32	0.00
366.52	0.00
366.72	0.00
366.91	0.00
367.11	0.00
367.31	0.00
367.51	0.00
367.70	0.00
367.90	0.00
368.10	0.00
368.30	0.00
368.49	0.00
368.69	0.00
368.89	0.00
369.09	0.00
369.28	0.00
369.48	0.00
369.68	0.00
369.87	0.00
370.07	0.00
370.27	0.00
370.47	571.09
370.66	2942.05
370.86	3405.48
371.06	3749.54
371.25	3906.35
371.45	3478.04
371.65	3131.64
371.84	2958.44
372.04	3014.61
372.24	3419.52
372.44	3419.52
372.63	3534.21
372.83	3311.86
373.03	2965.46
373.22	2628.42
373.42	2703.32
373.62	3178.45
373.81	3545.91
374.01	3517.83
374.21	3117.59
374.40	2916.31
374.60	3019.29
374.79	3389.10
374.99	4018.70
375.19	4311.27
375.38	4337.01
375.58	4002.32
375.78	3906.35
375.97	3950.82
376.17	4191.90
376.37	4177.86
376.56	4531.28
376.76	4440.00
376.95	4671.71
377.15	5100.03
377.35	5413.66
377.54	5769.42
377.74	5743.67
377.93	5633.67
378.13	5692.18
378.33	5221.74
378.52	4978.32
378.72	4744.27
378.91	4798.10
379.11	4620.22
379.31	4531.28
379.50	4271.48
379.70	4690.43
379.89	5282.59
380.09	5446.43
380.28	5659.42
380.48	5685.16
380.68	5502.60
380.87	5334.08
381.07	5071.94
381.26	4671.71
381.46	4468.08
381.65	4283.18
381.85	4053.81
382.04	3786.99
382.24	3772.94
382.43	3412.50
382.63	3183.13
382.83	3449.95
383.02	3368.03
383.22	3384.41
383.41	3365.69
383.61	3719.11
383.80	4198.92
384.00	4695.11
384.19	5291.95
384.39	5706.23
384.58	5654.73
384.78	5444.09
384.97	5479.19
385.17	5125.77
385.36	4793.42
385.56	4587.45
385.75	4786.40
385.95	5385.57
386.14	5579.84
386.34	5884.11
386.53	5558.77
386.72	5083.64
386.92	5193.65
387.11	5317.70
387.31	5657.07
387.50	5738.99
387.70	5453.45
387.89	5420.68
388.09	5310.68
388.28	5544.73
388.48	5589.20
388.67	6038.58
388.86	6487.96
389.06	7054.37
389.25	7473.33
389.45	7452.27
389.64	7578.65
389.84	7370.35
390.03	7225.23
390.22	7386.73
390.42	7449.93
390.61	8077.19
390.81	8641.26
391.00	8652.96
391.19	8816.80
391.39	8386.14
391.58	7772.92
391.78	7379.71
391.97	7302.47
392.16	6754.79
392.36	6139.23
392.55	4997.04
392.75	3992.95
392.94	3236.96
393.13	3192.49
393.33	3709.75
393.52	4770.01
393.71	5741.33
393.91	6583.93
394.10	7037.99
394.29	7840.79
394.49	8402.52
394.68	9121.07
394.88	9057.87
395.07	9495.55
395.26	9441.72
395.46	9004.04
395.65	8594.45
395.84	7552.91
396.04	6417.75
396.23	5107.05
396.42	4339.35
396.62	4030.40
396.81	4788.74
397.00	6085.39
397.19	7728.45
397.39	9167.88
397.58	10279.63
397.77	10944.34
397.97	11501.39
398.16	11370.32
398.35	11936.73
398.55	12238.66
398.74	12814.43
398.93	13156.15
399.12	12856.56
399.32	12526.55
399.51	12631.87
399.70	13507.23
399.90	13289.56
400.09	13523.62
400.28	13160.83
400.47	13659.37
400.67	14218.75
400.86	14356.85
401.05	14338.12
401.24	14501.96
401.44	14600.26
401.63	14684.52
401.82	14827.29
402.01	15054.33
402.21	15035.60
402.40	15122.20
402.59	14567.49
402.78	14132.15
402.97	13490.85
403.17	13930.87
403.36	14960.70
403.55	15272.00
403.74	15857.13
403.93	15197.10
404.13	13811.50
404.32	13596.17
404.51	14157.90
404.70	15330.51
404.89	15349.23
405.09	15049.64
405.28	14670.48
405.47	14752.40
405.66	14387.27
405.85	14050.24
406.05	13792.78
406.24	14019.81
406.43	14808.57
406.62	15314.13
406.81	15169.01
407.00	14586.22
407.20	14288.97
407.39	14293.65
407.58	14934.96
407.77	15480.30
407.96	16079.48
408.15	16652.91
408.34	16744.19
408.54	17373.80
408.73	17509.55
408.92	17095.27
409.11	16428.22
409.30	16032.67
409.49	15070.71
409.68	13881.72
409.87	13511.91
410.07	14120.45
410.26	15349.23
410.45	16767.60
410.64	16893.99
410.83	17209.96
411.02	17839.56
411.21	18398.95
411.40	18277.24
411.59	18539.38
411.78	18366.18
411.98	17865.31
412.17	18478.53
412.36	18113.41
412.55	17912.12
412.74	17624.23
412.93	17170.17
413.12	17418.27
413.31	18913.87
413.50	19094.09
413.69	19843.06
413.88	18675.13
414.07	18005.74
414.26	18515.98
414.45	18874.08
414.64	19215.80
414.83	19255.59
415.02	18831.95
415.22	18792.16
415.41	18930.25
415.60	19981.15
415.79	20812.04
415.98	21074.18
416.17	21242.70
416.36	20526.50
416.55	20212.87
416.74	19756.46
416.93	19157.28
417.12	19007.49
417.31	19227.50
417.50	19644.12
417.69	20315.85
417.88	20278.40
418.07	19960.09
418.26	19697.95
418.45	20009.24
418.64	20531.18
418.83	21476.76
419.02	21081.21
419.21	21207.59
419.39	20177.76
419.58	18944.30
419.77	18909.19
419.96	19840.72
420.15	21018.01
420.34	21607.83
420.53	22424.67
420.72	22941.93
420.91	22522.98
421.10	22347.44
421.29	22267.86
421.48	21352.71
421.67	22867.03
421.86	21680.38
422.05	20732.47
422.24	18476.19
422.43	17844.24
422.61	20020.94
422.80	21502.50
422.99	21844.22
423.18	21029.71
423.37	20357.98
423.56	20610.76
423.75	20816.72
423.94	21593.78
424.13	20051.37
424.32	20631.82
424.50	20039.67
424.69	20255.00
424.88	20353.30
425.07	20107.54
425.26	19896.89
425.45	19761.14
425.64	19564.54
425.83	19616.03
426.01	20814.38
426.20	21013.33
426.39	21488.46
426.58	19342.19
426.77	18190.64
426.96	17341.03
427.15	18237.45
427.33	19775.19
427.52	20187.12
427.71	20442.24
427.90	20067.75
428.09	19946.05
428.28	19545.81
428.46	19075.37
428.65	18609.60
428.84	18691.52
429.03	19157.28
429.22	18431.72
429.40	17654.66
429.59	15880.53
429.78	14085.34
429.97	13961.30
430.16	14045.55
430.34	14064.28
430.53	14202.37
430.72	14422.38
430.91	16133.31
431.10	18735.99
431.28	22450.42
431.47	24570.94
431.66	24847.13
431.85	22438.72
432.03	20437.56
432.22	19342.19
432.41	20367.34
432.60	22871.72
432.79	23262.58
432.97	23913.25
433.16	24002.19
433.35	21649.96
433.54	19583.26
433.72	18321.71
433.91	18693.86
434.10	20823.75
434.28	22328.71
434.47	23559.83
434.66	23211.09
434.85	22714.90
435.03	22649.36
435.22	23267.27
435.41	24276.04
435.59	24837.76
435.78	24638.82
435.97	25340.98
436.16	25727.17
436.34	25249.70
436.53	24730.10
436.72	24732.44
436.90	23342.16
437.09	23669.84
437.28	22836.61
437.46	23786.86
437.65	23887.51
437.84	22183.60
438.02	20414.15
438.21	19901.58
438.40	21474.42
438.58	23019.17
438.77	24027.94
438.96	24219.86
439.14	25170.12
439.33	25149.06
439.52	26029.10
439.70	25837.17
439.89	24849.47
440.08	24222.20
440.26	23910.91
440.45	24767.55
440.63	26441.03
440.82	27934.29
441.01	27861.74
441.19	27517.68
441.38	27800.88
441.57	28842.42
441.75	29172.44
441.94	29439.26
442.12	28938.38
442.31	29649.91
442.50	29357.34
442.68	29163.08
442.87	28924.34
443.05	28355.59
443.24	28912.64
443.43	29621.82
443.61	30242.06
443.80	30211.64
443.98	28603.69
444.17	28589.64
444.35	30260.79
444.54	30930.18
444.73	30452.71
444.91	29010.94
445.10	27995.15
445.28	26855.31
445.47	26485.50
445.65	26403.58
445.84	27227.45
446.02	28414.10
446.21	28191.75
446.39	29013.28
446.58	28844.76
446.77	29593.73
446.95	29879.28
447.14	30831.88
447.32	31164.23
447.51	30646.97
447.69	29153.71
447.88	28751.14
448.06	29687.36
448.25	30099.29
448.43	30277.17
448.62	29537.56
448.80	29355.00
448.99	30099.29
449.17	30092.27
449.36	29755.23
449.54	30621.23
449.73	31578.51
449.91	32023.21
450.10	33046.02
450.28	33282.42
450.46	33259.01
450.65	33343.27
450.83	32575.58
451.02	31798.52
451.20	32254.92
451.39	31929.59
451.57	32100.45
451.76	31922.57
451.94	31393.61
452.13	31152.53
452.31	29724.80
452.49	28210.48
452.68	28367.29
452.86	28453.89
453.05	28987.53
453.23	29413.51
453.42	30939.54
453.60	31302.32
453.78	31821.92
453.97	31232.11
454.15	31880.44
454.34	30724.21
454.52	30885.71
454.70	30132.06
454.89	30567.40
455.07	30976.99
455.26	31264.88
455.44	32266.63
455.62	33069.43
455.81	33097.52
455.99	32863.46
456.17	32479.61
456.36	32554.51
456.54	33390.08
456.73	33483.70
456.91	33900.32
457.09	34300.55
457.28	34593.12
457.46	33244.97
457.64	33322.21
457.83	32381.31
458.01	31718.94
458.19	32271.31
458.38	32278.33
458.56	33516.47
458.74	33401.79
458.93	32641.11
459.11	32685.58
459.29	32641.11
459.48	32528.77
459.66	32568.55
459.84	32858.78
460.03	33537.54
460.21	33184.12
460.39	34101.61
460.57	34057.14
460.76	34340.34
460.94	34600.14
461.12	34052.45
461.31	34230.33
461.49	34129.69
461.67	34192.89
461.85	35360.81
462.04	34630.57
462.22	34993.35
462.40	35108.04
462.59	35255.49
462.77	34981.65
462.95	35239.11
463.13	34548.65
463.32	34174.16
463.50	34419.92
463.68	34401.19
463.86	34239.70
464.05	33675.63
464.23	33139.65
464.41	33432.21
464.59	32503.02
464.78	33914.36
464.96	34096.92
465.14	33741.16
465.32	34476.09
465.50	35051.86
465.69	35505.93
465.87	34539.29
466.05	33797.34
466.23	32474.93
466.41	31765.75
466.60	32245.56
466.78	32320.46
466.96	33408.81
467.14	33347.95
467.32	34288.85
467.51	34176.50
467.69	32992.19
467.87	33823.08
468.05	34178.84
468.23	34045.43
468.41	33944.79
468.60	33834.78
468.78	34206.93
468.96	33684.99
469.14	34433.96
469.32	34436.30
469.50	33113.90
469.69	33308.16
469.87	33095.18
470.05	32879.85
470.23	32854.10
470.41	32823.67
470.59	33570.30
470.77	33666.27
470.95	34227.99
471.14	34923.13
471.32	34595.46
471.50	36484.27
471.68	36519.38
471.86	36950.04
472.04	37247.29
472.22	37123.24
472.40	35709.55
472.58	35335.07
472.77	34822.49
472.95	35367.84
473.13	36491.29
473.31	35325.71
473.49	35393.58
473.67	36566.19
473.85	36334.48
474.03	37134.94
474.21	37474.32
474.39	37895.61
474.57	38354.36
474.75	37956.47
474.93	37773.91
475.12	36966.42
475.30	36943.02
475.48	36975.78
475.66	37647.52
475.84	37261.33
476.02	36797.90
476.20	36531.08
476.38	37387.72
476.56	38279.46
476.74	38672.67
476.92	38852.89
477.10	39934.22
477.28	40250.19
477.46	40563.82
477.64	41097.47
477.82	40973.42
478.00	41064.70
478.18	40561.48
478.36	40465.52
478.54	40126.14
478.72	40952.35
478.90	41797.29
479.08	42693.71
479.26	43313.95
479.44	42927.77
479.62	42948.83
479.80	43353.74
479.98	42997.98
480.16	43456.73
480.34	43660.35
480.52	43412.26
480.70	43962.28
480.88	43512.90
481.06	44619.97
481.24	44926.58
481.41	45635.77
481.59	45965.78
481.77	45989.19
481.95	45563.21
482.13	45268.30
482.31	45432.14
482.49	46335.59
482.67	45947.06
482.85	46110.89
483.03	46916.04
483.21	46946.47
483.39	46651.56
483.57	46267.71
483.74	45879.18
483.92	46499.42
484.10	46527.51
484.28	47271.80
484.46	48011.41
484.64	48006.73
484.82	47384.15
485.00	46894.97
485.18	46120.26
485.35	44793.17
485.53	41846.44
485.71	38373.08
485.89	37345.59
486.07	39257.81
486.25	42815.42
486.43	45209.79
486.61	46153.02
486.78	46019.61
486.96	45675.55
487.14	47515.22
487.32	48650.38
487.50	49602.97
487.68	50031.29
487.85	50939.42
488.03	50789.62
488.21	50370.67
488.39	49954.05
488.57	48964.01
488.75	48858.68
488.92	49687.23
489.10	52062.88
489.28	53317.40
489.46	54026.59
489.64	53528.05
489.81	53762.11
489.99	53549.12
490.17	53743.38
490.35	53923.60
490.53	53425.07
490.70	53034.20
490.88	53235.48
491.06	53675.51
491.24	54136.59
491.41	52961.64
491.59	51531.57
491.77	50473.65
491.95	51782.01
492.13	53055.26
492.30	53794.87
492.48	54796.62
492.66	55360.69
492.84	55381.76
493.01	55224.94
493.19	54733.43
493.37	54181.06
493.54	54082.76
493.72	54656.19
493.90	55662.62
494.08	56329.67
494.25	56514.58
494.43	56886.72
494.61	57106.73
494.79	57038.86
494.96	56891.40
495.14	56392.87
495.32	55491.76
495.49	54747.47
495.67	55868.59
495.85	57050.56
496.02	57492.92
496.20	57483.56
496.38	56917.15
496.55	56701.82
496.73	57366.53
496.91	57324.40
497.09	58150.61
497.26	58314.45
497.44	57694.21
497.62	57265.89
497.79	56552.02
497.97	55098.55
498.14	55309.20
498.32	56561.39
498.50	57296.31
498.67	57951.66
498.85	58012.52
499.03	58024.22
499.20	58145.93
499.38	57946.98
499.56	58017.20
499.73	57495.26
499.91	57364.19
500.08	56872.68
500.26	55934.12
500.44	56750.97
500.61	57141.84
500.79	56978.00
500.97	56484.15
501.14	56617.56
501.32	56313.29
501.49	56348.40
501.67	56453.72
501.84	56947.57
502.02	57333.76
502.20	57497.60
502.37	57893.15
502.55	57991.45
502.72	58429.13
502.90	58761.49
503.07	58464.24
503.25	58024.22
503.43	57413.34
503.60	56750.97
503.78	56006.68
503.95	56324.99
504.13	57752.72
504.30	58684.25
504.48	58597.65
504.65	58145.93
504.83	58087.42
505.01	58770.85
505.18	59049.38
505.36	59498.76
505.53	59561.95
505.71	59849.84
505.88	59870.90
506.06	59297.47
506.23	59143.00
506.41	58335.51
506.58	59004.91
506.76	58747.45
506.93	58684.25
507.11	58562.54
507.28	58780.21
507.46	58145.93
507.63	57829.96
507.81	57389.94
507.98	57780.81
508.16	58539.14
508.33	59018.95
508.50	59283.43
508.68	59524.50
508.85	59884.95
509.03	59845.16
509.20	59898.99
509.38	58969.80
509.55	58560.20
509.73	58604.67
509.90	58967.46
510.08	59327.90
510.25	59185.13
510.42	58927.67
510.60	58906.60
510.77	59295.13
510.95	59742.17
511.12	59980.91
511.30	60147.09
511.47	60547.32
511.64	60458.38
511.82	60013.68
511.99	59210.87
512.17	58958.09
512.34	58588.29
512.51	58834.05
512.69	58763.83
512.86	58805.96
513.04	59503.44
513.21	59231.94
513.38	58983.84
513.56	58628.08
513.73	58103.80
513.90	58152.95
514.08	58188.06
514.25	58588.29
514.43	58567.23
514.60	58794.26
514.77	58979.16
514.95	59215.55
515.12	58986.18
515.29	59164.06
515.47	59793.67
515.64	59880.27
515.81	59332.58
515.99	58838.73
516.16	57846.34
516.33	55271.75
516.51	53867.43
516.68	53193.36
516.85	52978.03
517.03	52975.69
517.20	55594.74
517.37	58047.63
517.54	59140.66
517.72	58511.05
517.89	56390.53
518.06	53928.28
518.24	54085.10
518.41	56432.66
518.58	57623.99
518.75	57961.03
518.93	58038.26
519.10	58052.31
519.27	58351.90
519.45	58695.95
519.62	59323.22
519.79	59480.03
519.96	59657.91
520.14	58969.80
520.31	58113.16
520.48	58082.73
520.65	58417.43
520.83	59299.81
521.00	59810.05
521.17	59585.36
521.34	59061.08
521.52	59484.72
521.69	59987.93
521.86	60182.19
522.03	60001.97
522.20	58845.75
522.38	57846.34
522.55	57619.31
522.72	58595.31
522.89	58590.63
523.07	58775.53
523.24	59030.65
523.41	59868.56
523.58	60168.15
523.75	60711.16
523.92	60406.89
524.10	60472.42
524.27	60306.24
524.44	60226.66
524.61	59927.08
524.78	59730.47
524.96	59714.09
525.13	59737.49
525.30	59880.27
525.47	60470.08
525.64	60271.14
525.81	59781.96
525.98	58396.37
526.16	57027.15
526.33	56458.40
526.50	56062.85
526.67	55641.56
526.84	56177.54
527.01	57282.27
527.18	58159.97
527.36	58614.04
527.53	59676.64
527.70	59868.56
527.87	59501.10
528.04	59061.08
528.21	59461.31
528.38	59758.56
528.55	60619.88
528.72	60837.54
528.89	60842.23
529.07	60764.99
529.24	60245.39
529.41	59622.81
529.58	58639.78
529.75	59089.16
529.92	59423.86
530.09	60025.38
530.26	60224.32
530.43	60739.24
530.60	60563.70
530.77	60870.31
530.94	60933.51
531.11	60580.09
531.28	60177.51
531.46	59929.42
531.63	60240.71
531.80	60151.77
531.97	59693.02
532.14	58876.18
532.31	57977.41
532.48	57235.46
532.65	57373.55
532.82	58216.14
532.99	59330.24
533.16	59657.91
533.33	59999.63
533.50	59774.94
533.67	59355.99
533.84	58913.62
534.01	59054.06
534.18	59175.76
534.35	59302.15
534.52	59276.41
534.69	59559.61
534.86	59845.16
535.03	60142.41
535.20	60575.40
535.37	60757.97
535.54	60802.44
535.71	60561.36
535.88	60196.24
536.05	59669.62
536.22	59133.63
536.38	58899.58
536.55	58609.35
536.72	58138.91
536.89	57946.98
537.06	58789.58
537.23	59707.07
537.40	59777.28
537.57	59854.52
537.74	59604.08
537.91	59484.72
538.08	59597.06
538.25	59632.17
538.42	59662.60
538.59	59489.40
538.75	59021.29
538.92	58717.02
539.09	58712.34
539.26	58440.84
539.43	58202.10
539.60	58171.67
539.77	58534.46
539.94	58433.81
540.11	57736.34
540.28	56980.34
540.44	57305.68
540.61	57462.49
540.78	57764.42
540.95	58237.21
541.12	58616.38
541.29	58688.93
541.46	59121.93
541.62	59182.79
541.79	59007.25
541.96	58440.84
542.13	58269.98
542.30	58553.18
542.47	58740.42
542.63	58426.79
542.80	58354.24
542.97	58391.68
543.14	58468.92
543.31	58387.00
543.48	58726.38
543.64	59510.46
543.81	59950.48
543.98	59695.36
544.15	59079.80
544.32	58398.71
544.48	58520.41
544.65	58951.07
544.82	59475.35
544.99	59028.31
545.16	58536.80
545.32	58534.46
545.49	59185.13
545.66	59512.80
545.83	59135.98
546.00	58915.96
546.16	58562.54
546.33	58695.95
546.50	58707.66
546.67	59061.08
546.83	58588.29
547.00	58812.98
547.17	58038.26
547.34	57581.86
547.50	57422.70
547.67	57942.30
547.84	57963.37
548.00	58445.52
548.17	58752.13
548.34	58808.30
548.51	58499.35
548.67	58763.83
548.84	58663.19
549.01	58836.39
549.18	58693.61
549.34	58497.01
549.51	58731.06
549.68	58494.67
549.84	58206.78
550.01	58012.52
550.18	57869.75
550.34	58178.70
550.51	58370.62
550.68	58316.79
550.84	57764.42
551.01	57846.34
551.18	57874.43
551.34	58049.97
551.51	58520.41
551.68	58735.74
551.84	58646.80
552.01	58445.52
552.18	58419.77
552.34	57492.92
552.51	57354.83
552.68	57165.24
552.84	57443.77
553.01	57949.32
553.18	57694.21
553.34	57872.09
553.51	57998.48
553.67	58227.85
553.84	58536.80
554.01	58232.53
554.17	58127.20
554.34	57975.07
554.51	58089.76
554.67	58628.08
554.84	58293.38
555.00	57881.45
555.17	57970.39
555.33	57989.11
555.50	57762.08
555.67	58082.73
555.83	57645.05
556.00	57340.78
556.16	57256.53
556.33	56952.26
556.50	56814.16
556.66	56982.68
556.83	56491.17
556.99	56846.93
557.16	56889.06
557.32	57270.57
557.49	57359.51
557.65	57380.57
557.82	57205.03
557.98	57092.69
558.15	56762.67
558.32	56039.45
558.48	55185.15
558.65	55494.10
558.81	55803.05
558.98	56009.02
559.14	56460.74
559.31	56271.16
559.47	56444.36
559.64	55789.01
559.80	55608.79
559.97	55714.11
560.13	56107.32
560.30	57226.10
560.46	57343.12
560.63	57593.56
560.79	57811.23
560.96	56975.66
561.12	56200.94
561.29	55220.26
561.45	55402.82
561.61	56065.19
561.78	56222.01
561.94	56451.38
562.11	55976.25
562.27	55957.53
562.44	56116.68
562.60	56664.37
562.77	57010.77
562.93	56720.54
563.10	56762.67
563.26	56140.09
563.42	55987.95
563.59	55852.20
563.75	55861.57
563.92	55877.95
564.08	55924.76
564.24	56189.24
564.41	56182.22
564.57	56100.30
564.74	55894.33
564.90	56245.41
565.07	55503.46
565.23	55409.84
565.39	54920.67
565.56	54710.02
565.72	54422.14
565.88	54541.50
566.05	54787.26
566.21	55018.97
566.38	55210.90
566.54	55222.60
566.70	55732.84
566.87	55938.80
567.03	56163.50
567.19	56093.28
567.36	56016.04
567.52	55849.86
567.68	55632.19
567.85	55016.63
568.01	54396.39
568.17	54003.18
568.34	54377.67
568.50	53914.24
568.66	54042.97
568.83	54485.33
568.99	54859.82
569.15	54911.31
569.32	54773.22
569.48	54543.84
569.64	54401.07
569.81	54152.97
569.97	54005.52
570.13	53916.58
570.30	53467.20
570.46	53254.21
570.62	52329.70
570.78	52453.75
570.95	52605.88
571.11	53305.70
571.27	53471.88
571.43	53879.13
571.60	53977.43
571.76	54504.06
571.92	54644.49
572.09	54920.67
572.25	54707.68
572.41	54607.04
572.57	54398.73
572.74	54330.86
572.90	53858.07
573.06	53921.26
573.22	54162.34
573.38	54218.51
573.55	54096.80
573.71	54211.49
573.87	54323.83
574.03	54017.22
574.20	54106.16
574.36	53556.14
574.52	53736.36
574.68	53663.80
574.84	53083.35
575.01	52526.30
575.17	52390.55
575.33	52727.59
575.49	52825.89
575.65	53071.65
575.82	53048.24
575.98	52844.62
576.14	53066.97
576.30	53249.53
576.46	53296.34
576.62	53099.73
576.79	53380.60
576.95	52889.09
577.11	52748.65
577.27	52921.85
577.43	53043.56
577.59	52587.16
577.75	52409.28
577.92	51632.22
578.08	51363.06
578.24	51388.80
578.40	51826.48
578.56	51957.55
578.72	52177.56
578.88	52048.83
579.04	52325.02
579.21	52605.88
579.37	52463.11
579.53	52545.03
579.69	52832.91
579.85	52889.09
580.01	52811.85
580.17	52217.35
580.33	52182.24
580.49	51877.97
580.65	52325.02
580.82	52568.43
580.98	52348.42
581.14	52507.58
581.30	52706.52
581.46	52200.97
581.62	52528.64
581.78	52559.07
581.94	52669.08
582.10	52846.96
582.26	52519.28
582.42	52704.18
582.58	52699.50
582.74	52788.44
582.90	52704.18
583.06	52416.30
583.22	52706.52
583.38	52268.84
583.54	52149.48
583.70	52278.21
583.86	52280.55
584.02	52170.54
584.18	52252.46
584.34	51927.13
584.50	51980.96
584.66	51721.16
584.82	51519.87
584.98	51702.43
585.14	51026.02
585.30	50621.11
