SpectraSuite Data File
++++++++++++++++++++++++++++++++++++
Date: Mon Oct 07 14:54:54 GMT-05:00 2013
User: price-jones
Dark Spectrum Present: No
Reference Spectrum Present: No
Number of Sampled Component Spectra: 1
Spectrometers: USB2+H05261
Integration Time (usec): 10000 (USB2+H05261)
Spectra Averaged: 1 (USB2+H05261)
Boxcar Smoothing: 0 (USB2+H05261)
Correct for Electrical Dark: No (USB2+H05261)
Strobe/Lamp Enabled: No (USB2+H05261)
Correct for Detector Non-linearity: No (USB2+H05261)
Correct for Stray Light: No (USB2+H05261)
Number of Pixels in Processed Spectrum: 2048
>>>>>Begin Processed Spectral Data<<<<<
365.73	0.00
365.92	0.00
366.12	0.00
366.32	0.00
366.52	0.00
366.72	0.00
366.91	0.00
367.11	0.00
367.31	0.00
367.51	0.00
367.70	0.00
367.90	0.00
368.10	0.00
368.30	0.00
368.49	0.00
368.69	0.00
368.89	0.00
369.09	0.00
369.28	0.00
369.48	0.00
369.68	0.00
369.87	0.00
370.07	0.00
370.27	0.00
370.47	0.00
370.66	0.00
370.86	63.19
371.06	56.17
371.25	0.00
371.45	0.00
371.65	0.00
371.84	0.00
372.04	0.00
372.24	0.00
372.44	93.62
372.63	58.51
372.83	18.72
373.03	30.43
373.22	0.00
373.42	0.00
373.62	7.02
373.81	32.77
374.01	126.39
374.21	32.77
374.40	0.00
374.60	11.70
374.79	49.15
374.99	79.58
375.19	128.73
375.38	100.64
375.58	81.92
375.78	74.90
375.97	110.01
376.17	98.30
376.37	124.05
376.56	107.66
376.76	91.28
376.95	170.86
377.15	133.41
377.35	110.01
377.54	184.90
377.74	215.33
377.93	147.45
378.13	257.46
378.33	147.45
378.52	196.60
378.72	180.22
378.91	86.60
379.11	81.92
379.31	60.85
379.50	117.03
379.70	180.22
379.89	110.01
380.09	187.24
380.28	191.92
380.48	149.79
380.68	135.75
380.87	187.24
381.07	163.84
381.26	159.16
381.46	79.58
381.65	70.22
381.85	86.60
382.04	0.00
382.24	65.54
382.43	65.54
382.63	46.81
382.83	18.72
383.02	32.77
383.22	35.11
383.41	0.00
383.61	0.00
383.80	117.03
384.00	102.98
384.19	124.05
384.39	217.67
384.58	229.37
384.78	184.90
384.97	189.58
385.17	184.90
385.36	182.56
385.56	147.45
385.75	51.49
385.95	159.16
386.14	220.01
386.34	187.24
386.53	269.16
386.72	201.29
386.92	208.31
387.11	173.20
387.31	255.12
387.50	212.99
387.70	166.18
387.89	159.16
388.09	168.52
388.28	212.99
388.48	194.26
388.67	191.92
388.86	177.88
389.06	280.86
389.25	308.95
389.45	318.31
389.64	334.70
389.84	245.76
390.03	330.02
390.22	322.99
390.42	325.33
390.61	402.57
390.81	421.30
391.00	416.62
391.19	409.59
391.39	486.83
391.58	472.79
391.78	383.85
391.97	381.51
392.16	196.60
392.36	322.99
392.55	117.03
392.75	0.00
392.94	0.00
393.13	0.00
393.33	0.00
393.52	100.64
393.71	203.63
393.91	252.78
394.10	161.50
394.29	322.99
394.49	430.66
394.68	470.45
394.88	435.34
395.07	479.81
395.26	491.51
395.46	472.79
395.65	400.23
395.84	304.27
396.04	227.03
396.23	102.98
396.42	0.00
396.62	77.24
396.81	161.50
397.00	191.92
397.19	376.83
397.39	440.02
397.58	514.92
397.77	575.77
397.97	645.99
398.16	655.35
398.35	613.22
398.55	657.69
398.74	699.82
398.93	720.88
399.12	763.01
399.32	615.56
399.51	589.82
399.70	704.50
399.90	763.01
400.09	732.59
400.28	755.99
400.47	648.33
400.67	732.59
400.86	826.21
401.05	840.25
401.24	851.96
401.44	823.87
401.63	915.15
401.82	847.27
402.01	917.49
402.21	903.45
402.40	938.55
402.59	844.93
402.78	807.48
402.97	812.17
403.17	751.31
403.36	922.17
403.55	922.17
403.74	915.15
403.93	814.51
404.13	791.10
404.32	753.65
404.51	716.20
404.70	882.38
404.89	873.02
405.09	856.64
405.28	751.31
405.47	861.32
405.66	873.02
405.85	784.08
406.05	826.21
406.24	760.67
406.43	795.78
406.62	940.90
406.81	931.53
407.00	896.43
407.20	828.55
407.39	868.34
407.58	826.21
407.77	887.06
407.96	858.98
408.15	896.43
408.34	891.74
408.54	961.96
408.73	933.87
408.92	1034.52
409.11	877.70
409.30	922.17
409.49	884.72
409.68	755.99
409.87	706.84
410.07	856.64
410.26	786.42
410.45	964.30
410.64	980.68
410.83	1064.94
411.02	922.17
411.21	1022.81
411.40	1048.56
411.59	1090.69
411.78	1011.11
411.98	1034.52
412.17	1039.20
412.36	1090.69
412.55	1053.24
412.74	1043.88
412.93	1050.90
413.12	1036.86
413.31	1167.93
413.50	1167.93
413.69	1181.97
413.88	1132.82
414.07	1041.54
414.26	999.41
414.45	1226.44
414.64	1076.65
414.83	1191.33
415.02	1121.12
415.22	1088.35
415.41	1219.42
415.60	1224.10
415.79	1270.91
415.98	1341.13
416.17	1334.11
416.36	1177.29
416.55	1144.52
416.74	1146.86
416.93	1135.16
417.12	1135.16
417.31	1086.01
417.50	1165.59
417.69	1184.31
417.88	1196.01
418.07	1174.95
418.26	1205.38
418.45	1179.63
418.64	1263.89
418.83	1263.89
419.02	1284.95
419.21	1284.95
419.39	1247.51
419.58	1121.12
419.77	1027.50
419.96	1167.93
420.15	1238.14
420.34	1256.87
420.53	1364.53
420.72	1416.02
420.91	1284.95
421.10	1310.70
421.29	1291.98
421.48	1306.02
421.67	1371.55
421.86	1306.02
422.05	1181.97
422.24	1011.11
422.43	1053.24
422.61	1135.16
422.80	1217.08
422.99	1259.21
423.18	1184.31
423.37	1177.29
423.56	1170.27
423.75	1109.41
423.94	1235.80
424.13	1188.99
424.32	1086.01
424.50	1212.40
424.69	1109.41
424.88	1083.67
425.07	1210.06
425.26	1069.62
425.45	1165.59
425.64	997.07
425.83	1139.84
426.01	1207.72
426.20	1123.46
426.39	1135.16
426.58	1027.50
426.77	999.41
426.96	985.37
427.15	961.96
427.33	985.37
427.52	1114.10
427.71	1125.80
427.90	1114.10
428.09	1100.05
428.28	1121.12
428.46	1048.56
428.65	1100.05
428.84	1076.65
429.03	1107.07
429.22	1100.05
429.40	1053.24
429.59	830.89
429.78	751.31
429.97	767.70
430.16	751.31
430.34	765.36
430.53	807.48
430.72	781.74
430.91	844.93
431.10	1055.58
431.28	1198.35
431.47	1423.05
431.66	1418.36
431.85	1306.02
432.03	1151.54
432.22	1179.63
432.41	1130.48
432.60	1329.42
432.79	1385.60
432.97	1423.05
433.16	1352.83
433.35	1165.59
433.54	1064.94
433.72	966.64
433.91	1039.20
434.10	1146.86
434.28	1268.57
434.47	1359.85
434.66	1357.51
434.85	1275.59
435.03	1193.67
435.22	1320.06
435.41	1462.83
435.59	1563.48
435.78	1469.86
435.97	1439.43
436.16	1526.03
436.34	1502.62
436.53	1409.00
436.72	1500.28
436.90	1359.85
437.09	1338.79
437.28	1399.64
437.46	1416.02
437.65	1359.85
437.84	1273.25
438.02	1196.01
438.21	1151.54
438.40	1177.29
438.58	1390.28
438.77	1350.49
438.96	1404.32
439.14	1483.90
439.33	1404.32
439.52	1593.90
439.70	1462.83
439.89	1387.94
440.08	1437.09
440.26	1446.45
440.45	1315.38
440.63	1558.80
440.82	1633.69
441.01	1497.94
441.19	1547.09
441.38	1507.30
441.57	1617.31
441.75	1666.46
441.94	1610.29
442.12	1699.23
442.31	1722.63
442.50	1769.44
442.68	1837.32
442.87	1811.57
443.05	1659.44
443.24	1596.25
443.43	1713.27
443.61	1600.93
443.80	1778.81
443.98	1703.91
444.17	1636.03
444.35	1781.15
444.54	1902.86
444.73	1813.92
444.91	1713.27
445.10	1624.33
445.28	1514.33
445.47	1547.09
445.65	1579.86
445.84	1563.48
446.02	1664.12
446.21	1689.87
446.39	1626.67
446.58	1706.25
446.77	1673.48
446.95	1769.44
447.14	1806.89
447.32	1750.72
447.51	1804.55
447.69	1783.49
447.88	1645.40
448.06	1638.38
448.25	1757.74
448.43	1631.35
448.62	1706.25
448.80	1715.61
448.99	1715.61
449.17	1689.87
449.36	1703.91
449.54	1748.38
449.73	1741.36
449.91	1895.83
450.10	1921.58
450.28	1886.47
450.46	1909.88
450.65	1891.15
450.83	1839.66
451.02	1867.75
451.20	1930.94
451.39	1879.45
451.57	1820.94
451.76	1909.88
451.94	1856.04
452.13	1816.26
452.31	1626.67
452.49	1584.54
452.68	1607.95
452.86	1645.40
453.05	1614.97
453.23	1736.68
453.42	1816.26
453.60	1877.11
453.78	1902.86
453.97	1870.09
454.15	1846.68
454.34	1774.13
454.52	1865.41
454.70	1654.76
454.89	1743.70
455.07	1673.48
455.26	1811.57
455.44	1823.28
455.62	1900.52
455.81	2003.50
455.99	1860.73
456.17	1804.55
456.36	1788.17
456.54	1895.83
456.73	1919.24
456.91	1996.48
457.09	2050.31
457.28	2005.84
457.46	1919.24
457.64	1966.05
457.83	1942.64
458.01	1722.63
458.19	1834.98
458.38	1818.60
458.56	1947.33
458.74	1884.13
458.93	1853.70
459.11	1853.70
459.29	1872.43
459.48	1860.73
459.66	1776.47
459.84	1849.02
460.03	1778.81
460.21	1851.36
460.39	1921.58
460.57	1900.52
460.76	1935.62
460.94	2017.54
461.12	2019.88
461.31	1898.17
461.49	2010.52
461.67	1839.66
461.85	1942.64
462.04	1980.09
462.22	1987.11
462.40	2040.95
462.59	2040.95
462.77	1898.17
462.95	2080.74
463.13	1933.28
463.32	1977.75
463.50	1905.20
463.68	1919.24
463.86	2076.06
464.05	1975.41
464.23	1912.22
464.41	1825.62
464.59	1860.73
464.78	1797.53
464.96	1912.22
465.14	1874.77
465.32	1914.56
465.50	1923.92
465.69	2015.20
465.87	1977.75
466.05	1919.24
466.23	1874.77
466.41	1706.25
466.60	1802.21
466.78	1921.58
466.96	1734.34
467.14	1795.19
467.32	1849.02
467.51	2031.58
467.69	1849.02
467.87	1856.04
468.05	1870.09
468.23	1919.24
468.41	1888.81
468.60	1870.09
468.78	1825.62
468.96	1795.19
469.14	1816.26
469.32	1963.71
469.50	1944.99
469.69	1849.02
469.87	1856.04
470.05	1849.02
470.23	1825.62
470.41	1886.47
470.59	1935.62
470.77	1914.56
470.95	1933.28
471.14	1891.15
471.32	1900.52
471.50	2108.82
471.68	2076.06
471.86	2047.97
472.04	2106.48
472.22	2062.01
472.40	2019.88
472.58	2029.24
472.77	2064.35
472.95	1996.48
473.13	1989.46
473.31	2003.50
473.49	1923.92
473.67	2033.93
473.85	2043.29
474.03	2111.16
474.21	2097.12
474.39	2076.06
474.57	2129.89
474.75	2125.21
474.93	2122.87
475.12	2008.18
475.30	2010.52
475.48	2097.12
475.66	2092.44
475.84	2033.93
476.02	2064.35
476.20	1947.33
476.38	2029.24
476.56	2092.44
476.74	2183.72
476.92	2097.12
477.10	2111.16
477.28	2270.32
477.46	2197.76
477.64	2373.30
477.82	2289.04
478.00	2363.94
478.18	2256.28
478.36	2193.08
478.54	2104.14
478.72	2251.60
478.90	2389.69
479.08	2495.01
479.26	2553.52
479.44	2413.09
479.62	2342.88
479.80	2361.60
479.98	2410.75
480.16	2403.73
480.34	2410.75
480.52	2399.05
480.70	2436.50
480.88	2408.41
481.06	2450.54
481.24	2579.27
481.41	2586.29
481.59	2752.47
481.77	2696.30
481.95	2593.31
482.13	2473.95
482.31	2691.62
482.49	2586.29
482.67	2661.19
482.85	2682.25
483.03	2691.62
483.21	2567.57
483.39	2630.76
483.57	2679.91
483.74	2595.65
483.92	2649.49
484.10	2647.15
484.28	2738.43
484.46	2661.19
484.64	2703.32
484.82	2663.53
485.00	2640.12
485.18	2663.53
485.35	2605.02
485.53	2382.67
485.71	2244.57
485.89	2029.24
486.07	2125.21
486.25	2375.64
486.43	2672.89
486.61	2672.89
486.78	2565.23
486.96	2595.65
487.14	2736.09
487.32	2750.13
487.50	2867.16
487.68	2967.80
487.85	2935.03
488.03	2862.48
488.21	2960.78
488.39	2904.60
488.57	2752.47
488.75	2698.64
488.92	2794.60
489.10	3094.19
489.28	3187.81
489.46	3337.60
489.64	3311.86
489.81	3382.07
489.99	3229.94
490.17	3126.96
490.35	3316.54
490.53	3145.68
490.70	3187.81
490.88	3194.83
491.06	3337.60
491.24	3208.87
491.41	3190.15
491.59	2972.48
491.77	2928.01
491.95	2916.31
492.13	3112.91
492.30	3339.94
492.48	3281.43
492.66	3442.93
492.84	3274.41
493.01	3265.05
493.19	3281.43
493.37	3253.34
493.54	3274.41
493.72	3190.15
493.90	3449.95
494.08	3583.36
494.25	3602.08
494.43	3583.36
494.61	3730.81
494.79	3583.36
494.96	3779.97
495.14	3595.06
495.32	3400.80
495.49	3363.35
495.67	3501.44
495.85	3786.99
496.02	3721.45
496.20	3700.39
496.38	3735.50
496.55	3609.11
496.73	3695.71
496.91	3644.21
497.09	3714.43
497.26	3843.16
497.44	3665.28
497.62	3646.55
497.79	3363.35
497.97	3236.96
498.14	3428.88
498.32	3681.66
498.50	3749.54
498.67	3688.68
498.85	3691.02
499.03	3920.40
499.20	3681.66
499.38	3829.12
499.56	3782.31
499.73	3894.65
499.91	3581.02
500.08	3557.61
500.26	3382.07
500.44	3478.04
500.61	3496.76
500.79	3728.47
500.97	3592.72
501.14	3466.33
501.32	3302.50
501.49	3468.67
501.67	3581.02
501.84	3515.48
502.02	3733.15
502.20	3728.47
502.37	3653.58
502.55	3595.06
502.72	3726.13
502.90	3964.87
503.07	3803.37
503.25	3613.79
503.43	3740.18
503.60	3445.27
503.78	3379.73
503.95	3595.06
504.13	3772.94
504.30	3695.71
504.48	3681.66
504.65	3749.54
504.83	3836.14
505.01	3735.50
505.18	3857.20
505.36	3969.55
505.53	3936.78
505.71	4084.23
505.88	3936.78
506.06	3803.37
506.23	3911.04
506.41	3756.56
506.58	3705.07
506.76	3880.61
506.93	3824.44
507.11	3847.84
507.28	3772.94
507.46	3688.68
507.63	3644.21
507.81	3599.74
507.98	3758.90
508.16	3702.73
508.33	3871.25
508.50	4072.53
508.68	3934.44
508.85	3941.46
509.03	3906.35
509.20	3934.44
509.38	3939.12
509.55	3789.33
509.73	3768.26
509.90	3934.44
510.08	3875.93
510.25	3899.33
510.42	3684.00
510.60	3936.78
510.77	3988.27
510.95	3985.93
511.12	3896.99
511.30	4009.34
511.47	4201.26
511.64	4046.79
511.82	4011.68
511.99	3887.63
512.17	3707.41
512.34	3981.25
512.51	3742.52
512.69	3770.60
512.86	3882.95
513.04	3896.99
513.21	3850.18
513.38	3791.67
513.56	3700.39
513.73	3716.77
513.90	3588.04
514.08	3784.65
514.25	3655.92
514.43	3733.15
514.60	3651.24
514.77	3721.45
514.95	3801.03
515.12	3880.61
515.29	3786.99
515.47	3892.31
515.64	3864.22
515.81	3934.44
515.99	3794.01
516.16	3527.19
516.33	3290.79
516.51	3145.68
516.68	3005.25
516.85	3117.59
517.03	2813.32
517.20	3323.56
517.37	3786.99
517.54	3852.52
517.72	3794.01
517.89	3552.93
518.06	3056.74
518.24	3173.77
518.41	3520.17
518.58	3574.00
518.75	3531.87
518.93	3651.24
519.10	3651.24
519.27	3698.05
519.45	3623.15
519.62	3861.88
519.79	3901.67
519.96	3857.20
520.14	3831.46
520.31	3639.53
520.48	3574.00
520.65	3590.38
520.83	3803.37
521.00	3960.19
521.17	3789.33
521.34	3878.27
521.52	3836.14
521.69	3819.75
521.86	3939.12
522.03	3864.22
522.20	3662.94
522.38	3644.21
522.55	3473.36
522.72	3691.02
522.89	3684.00
523.07	3595.06
523.24	3707.41
523.41	3906.35
523.58	3957.85
523.75	3927.42
523.92	4016.36
524.10	4030.40
524.27	3864.22
524.44	3875.93
524.61	3894.65
524.78	4014.02
524.96	3801.03
525.13	3854.86
525.30	3880.61
525.47	3913.38
525.64	3925.08
525.81	3934.44
525.98	3595.06
526.16	3379.73
526.33	3417.18
526.50	3342.28
526.67	3185.47
526.84	3318.88
527.01	3358.67
527.18	3440.59
527.36	3634.85
527.53	3789.33
527.70	3822.09
527.87	3590.38
528.04	3700.39
528.21	3857.20
528.38	3889.97
528.55	4119.34
528.72	4140.41
528.89	4009.34
529.07	4126.36
529.24	3889.97
529.41	3794.01
529.58	3604.42
529.75	3702.73
529.92	3772.94
530.09	3854.86
530.26	3985.93
530.43	3911.04
530.60	3929.76
530.77	4016.36
530.94	3985.93
531.11	4028.06
531.28	3763.58
531.46	3721.45
531.63	3899.33
531.80	3791.67
531.97	3786.99
532.14	3688.68
532.31	3508.46
532.48	3548.25
532.65	3475.70
532.82	3520.17
532.99	3758.90
533.16	3822.09
533.33	3824.44
533.50	3831.46
533.67	3847.84
533.84	3588.04
534.01	3831.46
534.18	3684.00
534.35	3843.16
534.52	3726.13
534.69	3796.35
534.86	3819.75
535.03	3868.91
535.20	3971.89
535.37	4009.34
535.54	3976.57
535.71	4011.68
535.88	3822.09
536.05	3960.19
536.22	3779.97
536.38	3590.38
536.55	3653.58
536.72	3627.83
536.89	3541.23
537.06	3700.39
537.23	3595.06
537.40	3686.34
537.57	3763.58
537.74	3815.07
537.91	3763.58
538.08	3740.18
538.25	3679.32
538.42	3721.45
538.59	3880.61
538.75	3625.49
538.92	3730.81
539.09	3669.96
539.26	3569.32
539.43	3548.25
539.60	3559.95
539.77	3691.02
539.94	3517.83
540.11	3435.91
540.28	3482.72
540.44	3442.93
540.61	3433.57
540.78	3550.59
540.95	3660.60
541.12	3623.15
541.29	3531.87
541.46	3737.84
541.62	3691.02
541.79	3691.02
541.96	3613.79
542.13	3543.57
542.30	3585.70
542.47	3669.96
542.63	3609.11
542.80	3386.76
542.97	3583.36
543.14	3623.15
543.31	3578.68
543.48	3700.39
543.64	3847.84
543.81	3831.46
543.98	3618.47
544.15	3805.71
544.32	3559.95
544.48	3599.74
544.65	3707.41
544.82	3733.15
544.99	3630.17
545.16	3592.72
545.32	3644.21
545.49	3831.46
545.66	3838.48
545.83	3602.08
546.00	3522.51
546.16	3510.80
546.33	3566.98
546.50	3574.00
546.67	3723.79
546.83	3494.42
547.00	3543.57
547.17	3574.00
547.34	3386.76
547.50	3363.35
547.67	3471.01
547.84	3468.67
548.00	3517.83
548.17	3625.49
548.34	3428.88
548.51	3634.85
548.67	3634.85
548.84	3531.87
549.01	3585.70
549.18	3501.44
549.34	3644.21
549.51	3508.46
549.68	3499.10
549.84	3541.23
550.01	3499.10
550.18	3426.54
550.34	3531.87
550.51	3442.93
550.68	3585.70
550.84	3447.61
551.01	3440.59
551.18	3412.50
551.34	3426.54
551.51	3452.29
551.68	3602.08
551.84	3494.42
552.01	3618.47
552.18	3503.78
552.34	3377.39
552.51	3382.07
552.68	3475.70
552.84	3307.18
553.01	3524.85
553.18	3398.46
553.34	3454.63
553.51	3389.10
553.67	3522.51
553.84	3461.65
554.01	3604.42
554.17	3433.57
554.34	3410.16
554.51	3368.03
554.67	3527.19
554.84	3550.59
555.00	3412.50
555.17	3510.80
555.33	3494.42
555.50	3396.12
555.67	3428.88
555.83	3452.29
556.00	3372.71
556.16	3248.66
556.33	3405.48
556.50	3309.52
556.66	3353.99
556.83	3337.60
556.99	3295.47
557.16	3356.33
557.32	3295.47
557.49	3487.40
557.65	3318.88
557.82	3262.71
557.98	3283.77
558.15	3236.96
558.32	3101.21
558.48	3019.29
558.65	3019.29
558.81	3108.23
558.98	3173.77
559.14	3194.83
559.31	3255.69
559.47	3274.41
559.64	3180.79
559.80	3206.53
559.97	3173.77
560.13	3119.93
560.30	3302.50
560.46	3391.44
560.63	3419.52
560.79	3522.51
560.96	3323.56
561.12	3258.03
561.29	3178.45
561.45	3215.90
561.61	3033.33
561.78	3061.42
561.94	3253.34
562.11	3187.81
562.27	3052.06
562.44	3265.05
562.60	3309.52
562.77	3236.96
562.93	3126.96
563.10	3229.94
563.26	3222.92
563.42	3201.85
563.59	3211.22
563.75	3218.24
563.92	3005.25
564.08	3155.04
564.24	3152.70
564.41	3185.47
564.57	3094.19
564.74	3185.47
564.90	3173.77
565.07	3215.90
565.23	2995.89
565.39	3126.96
565.56	3009.93
565.72	2906.95
565.88	2995.89
566.05	3021.63
566.21	2913.97
566.38	3084.83
566.54	3082.49
566.70	3098.87
566.87	3295.47
567.03	3063.76
567.19	3091.85
567.36	3089.51
567.52	3091.85
567.68	3117.59
567.85	3133.98
568.01	2897.58
568.17	2923.33
568.34	2892.90
568.50	3012.27
568.66	2958.44
568.83	3042.70
568.99	2946.73
569.15	3073.12
569.32	2979.50
569.48	2958.44
569.64	3028.65
569.81	2848.43
569.97	2909.29
570.13	2953.76
570.30	2881.20
570.46	2778.22
570.62	2768.85
570.78	2803.96
570.95	2794.60
571.11	2904.60
571.27	2771.19
571.43	2836.73
571.60	2881.20
571.76	2913.97
571.92	2946.73
572.09	3096.53
572.25	3059.08
572.41	2911.63
572.57	2967.80
572.74	2937.37
572.90	2883.54
573.06	2897.58
573.22	2818.00
573.38	2832.05
573.55	2890.56
573.71	2869.50
573.87	2909.29
574.03	2946.73
574.20	2897.58
574.36	2850.77
574.52	2813.32
574.68	2813.32
574.84	2780.56
575.01	2710.34
575.17	2796.94
575.33	2733.75
575.49	2825.03
575.65	2843.75
575.82	2792.26
575.98	2658.85
576.14	2796.94
576.30	2878.86
576.46	2825.03
576.62	2841.41
576.79	2846.09
576.95	2712.68
577.11	2761.83
577.27	2754.81
577.43	2726.72
577.59	2818.00
577.75	2630.76
577.92	2574.59
578.08	2523.10
578.24	2700.98
578.40	2700.98
578.56	2679.91
578.72	2799.28
578.88	2623.74
579.04	2768.85
579.21	2733.75
579.37	2738.43
579.53	2771.19
579.69	2750.13
579.85	2710.34
580.01	2612.04
580.17	2609.70
580.33	2647.15
580.49	2703.32
580.65	2712.68
580.82	2771.19
580.98	2771.19
581.14	2724.38
581.30	2637.78
581.46	2693.96
581.62	2672.89
581.78	2778.22
581.94	2815.66
582.10	2616.72
582.26	2722.04
582.42	2658.85
582.58	2747.79
582.74	2700.98
582.90	2738.43
583.06	2665.87
583.22	2731.41
583.38	2700.98
583.54	2780.56
583.70	2581.61
583.86	2710.34
584.02	2602.68
584.18	2605.02
584.34	2621.40
584.50	2661.19
584.66	2565.23
584.82	2623.74
584.98	2588.63
585.14	2663.53
585.30	2546.50
585.46	2417.77
585.62	2469.27
585.78	2597.99
585.94	2502.03
586.10	2565.23
586.26	2574.59
586.42	2495.01
586.58	2710.34
586.74	2569.91
586.90	2607.36
587.06	2597.99
587.22	2487.99
587.38	2633.10
587.54	2480.97
587.70	2513.74
587.86	2452.88
588.02	2424.80
588.18	2532.46
588.34	2436.50
588.49	2277.34
588.65	2080.74
588.81	2047.97
588.97	2202.44
589.13	2111.16
589.29	2029.24
589.45	2097.12
589.61	2059.67
589.77	2335.85
589.93	2321.81
590.08	2443.52
590.24	2455.22
590.40	2420.11
590.56	2333.51
590.72	2406.07
590.88	2431.82
591.04	2417.77
591.20	2342.88
591.35	2218.83
591.51	2246.91
591.67	2291.38
591.83	2396.71
591.99	2471.61
592.15	2420.11
592.31	2289.04
592.46	2265.64
592.62	2389.69
592.78	2317.13
592.94	2403.73
593.10	2340.54
593.26	2389.69
593.41	2342.88
593.57	2392.03
593.73	2408.41
593.89	2272.66
594.05	2389.69
594.20	2265.64
594.36	2136.91
594.52	2342.88
594.68	2214.15
594.84	2232.87
594.99	2282.02
595.15	2354.58
595.31	2368.62
595.47	2244.57
595.62	2267.98
595.78	2347.56
595.94	2422.45
596.10	2413.09
596.25	2310.11
596.41	2342.88
596.57	2263.30
596.73	2394.37
596.88	2349.90
597.04	2370.96
597.20	2373.30
597.36	2204.78
597.51	2298.41
597.67	2277.34
597.83	2298.41
597.99	2249.25
598.14	2275.00
598.30	2216.49
598.46	2265.64
598.61	2319.47
598.77	2352.24
598.93	2375.64
599.09	2228.19
599.24	2225.85
599.40	2260.96
599.56	2143.93
