SpectraSuite Data File
++++++++++++++++++++++++++++++++++++
Date: Mon Oct 07 14:53:34 GMT-05:00 2013
User: price-jones
Dark Spectrum Present: No
Reference Spectrum Present: No
Number of Sampled Component Spectra: 1
Spectrometers: USB2+H05261
Integration Time (usec): 100000 (USB2+H05261)
Spectra Averaged: 1 (USB2+H05261)
Boxcar Smoothing: 0 (USB2+H05261)
Correct for Electrical Dark: No (USB2+H05261)
Strobe/Lamp Enabled: No (USB2+H05261)
Correct for Detector Non-linearity: No (USB2+H05261)
Correct for Stray Light: No (USB2+H05261)
Number of Pixels in Processed Spectrum: 2048
>>>>>Begin Processed Spectral Data<<<<<
365.73	0.00
365.92	0.00
366.12	0.00
366.32	0.00
366.52	0.00
366.72	0.00
366.91	0.00
367.11	0.00
367.31	0.00
367.51	0.00
367.70	0.00
367.90	0.00
368.10	0.00
368.30	0.00
368.49	0.00
368.69	0.00
368.89	0.00
369.09	0.00
369.28	0.00
369.48	0.00
369.68	0.00
369.87	0.00
370.07	0.00
370.27	0.00
370.47	568.75
370.66	2766.51
370.86	3375.05
371.06	3660.60
371.25	3655.92
371.45	3272.07
371.65	3009.93
371.84	2789.92
372.04	2920.99
372.24	3194.83
372.44	3459.31
372.63	3309.52
372.83	3157.38
373.03	2724.38
373.22	2593.31
373.42	2621.40
373.62	3012.27
373.81	3351.65
374.01	3295.47
374.21	3080.14
374.40	2827.37
374.60	2972.48
374.79	3265.05
374.99	3831.46
375.19	4222.33
375.38	4234.03
375.58	3847.84
375.78	3784.65
375.97	3702.73
376.17	4002.32
376.37	4119.34
376.56	4278.50
376.76	4533.62
376.95	4643.62
377.15	5081.30
377.35	5263.86
377.54	5423.02
377.74	5577.50
377.93	5509.62
378.13	5432.38
378.33	5348.12
378.52	4760.65
378.72	4524.26
378.91	4491.49
379.11	4353.40
379.31	4304.25
379.50	4189.56
379.70	4669.37
379.89	5022.79
380.09	5376.21
380.28	5423.02
380.48	5467.49
380.68	5317.70
380.87	5364.51
381.07	4880.02
381.26	4585.11
381.46	4315.95
381.65	4044.45
381.85	4074.87
382.04	3777.62
382.24	3449.95
382.43	3328.24
382.63	3192.49
382.83	3178.45
383.02	3330.58
383.22	3346.97
383.41	3314.20
383.61	3576.34
383.80	4004.66
384.00	4561.70
384.19	5214.71
384.39	5275.57
384.58	5453.45
384.78	5247.48
384.97	5301.31
385.17	5032.15
385.36	4891.72
385.56	4559.36
385.75	4692.77
385.95	5191.31
386.14	5561.11
386.34	5687.50
386.53	5287.27
386.72	5151.52
386.92	5064.92
387.11	5488.56
387.31	5628.99
387.50	5509.62
387.70	5366.85
387.89	5121.09
388.09	5380.89
388.28	5238.12
388.48	5621.97
388.67	5989.43
388.86	6317.11
389.06	6820.32
389.25	7236.94
389.45	7344.60
389.64	7215.87
389.84	7171.40
390.03	7194.81
390.22	7173.74
390.42	7267.36
390.61	7796.32
390.81	8301.88
391.00	8580.40
391.19	8276.13
391.39	8187.19
391.58	7641.85
391.78	7201.83
391.97	6995.86
392.16	6328.81
392.36	6008.16
392.55	4762.99
392.75	3889.97
392.94	3138.66
393.13	3045.04
393.33	3482.72
393.52	4582.77
393.71	5816.23
393.91	6394.34
394.10	6897.56
394.29	7630.15
394.49	8191.88
394.68	8833.18
394.88	8884.67
395.07	9408.95
395.26	9102.34
395.46	9018.08
395.65	8353.37
395.84	7260.34
396.04	6232.85
396.23	5041.51
396.42	4236.37
396.62	3960.19
396.81	4678.73
397.00	5902.83
397.19	7559.93
397.39	8931.48
397.58	9874.72
397.77	10799.23
397.97	10995.84
398.16	11215.85
398.35	11534.16
398.55	11786.94
398.74	12505.48
398.93	12662.30
399.12	12528.89
399.32	11939.07
399.51	12315.90
399.70	13149.13
399.90	12842.52
400.09	13195.94
400.28	12903.37
400.47	12905.71
400.67	13762.35
400.86	14272.59
401.05	14038.53
401.24	13937.89
401.44	14616.65
401.63	14483.24
401.82	14396.64
402.01	14443.45
402.21	14644.73
402.40	14586.22
402.59	13996.40
402.78	13544.68
402.97	13088.28
403.17	13598.51
403.36	14455.15
403.55	15176.03
403.74	15412.43
403.93	14544.09
404.13	13565.74
404.32	13139.77
404.51	14026.83
404.70	14911.55
404.89	14981.77
405.09	14799.21
405.28	14356.85
405.47	14185.99
405.66	14398.98
405.85	13994.06
406.05	13390.20
406.24	13687.45
406.43	14506.64
406.62	14920.92
406.81	15002.83
407.00	14560.47
407.20	13909.80
407.39	14185.99
407.58	15014.54
407.77	15440.51
407.96	15807.98
408.15	16156.72
408.34	15908.62
408.54	16924.41
408.73	16760.58
408.92	16570.99
409.11	16159.06
409.30	15571.58
409.49	14516.00
409.68	13638.30
409.87	12952.52
410.07	14050.24
410.26	15307.10
410.45	16175.44
410.64	16205.87
410.83	16746.53
411.02	17500.19
411.21	18057.23
411.40	17907.44
411.59	18090.00
411.78	17657.00
411.98	17905.10
412.17	17937.87
412.36	17228.68
412.55	17261.45
412.74	17125.70
412.93	16542.91
413.12	16940.80
413.31	18530.02
413.50	18696.20
413.69	19009.83
413.88	18298.31
414.07	17544.66
414.26	18136.81
414.45	18668.11
414.64	18803.86
414.83	18668.11
415.02	18583.85
415.22	18412.99
415.41	18831.95
415.60	19648.80
415.79	20285.42
415.98	20587.35
416.17	21076.52
416.36	20341.60
416.55	19751.78
416.74	19445.17
416.93	18574.49
417.12	18558.11
417.31	18766.42
417.50	19220.48
417.69	19793.91
417.88	19924.98
418.07	19594.96
418.26	19180.69
418.45	19346.87
418.64	20063.07
418.83	20879.92
419.02	20414.15
419.21	20685.65
419.39	19590.28
419.58	18541.72
419.77	18745.35
419.96	19501.34
420.15	20711.40
420.34	20978.22
420.53	21685.06
420.72	22469.14
420.91	22104.02
421.10	21830.18
421.29	21664.00
421.48	20603.74
421.67	21963.59
421.86	21507.18
422.05	20013.92
422.24	18052.55
422.43	17310.60
422.61	19538.79
422.80	21305.90
422.99	21132.70
423.18	20463.30
423.37	19814.98
423.56	19955.41
423.75	20255.00
423.94	20713.74
424.13	19665.18
424.32	19854.76
424.50	20018.60
424.69	19517.73
424.88	19396.02
425.07	19857.10
425.26	19683.91
425.45	19489.64
425.64	19424.11
425.83	19157.28
426.01	20629.48
426.20	20840.13
426.39	20552.24
426.58	19136.22
426.77	17661.68
426.96	17174.85
427.15	17895.74
427.33	19232.18
427.52	20013.92
427.71	20107.54
427.90	19920.30
428.09	19899.23
428.28	19499.00
428.46	18771.10
428.65	18071.28
428.84	18621.30
429.03	19108.13
429.22	18043.19
429.40	17008.67
429.59	15545.84
429.78	13820.86
429.97	13846.61
430.16	14204.71
430.34	13949.59
430.53	13987.04
430.72	14115.77
430.91	15740.10
431.10	18300.65
431.28	21687.40
431.47	23498.98
431.66	23969.43
431.85	21970.61
432.03	19960.09
432.22	19178.35
432.41	19868.81
432.60	22059.55
432.79	22883.42
432.97	23384.29
433.16	23037.89
433.35	21355.05
433.54	19356.23
433.72	17589.13
433.91	18427.04
434.10	20304.15
434.28	21872.31
434.47	23058.96
434.66	22836.61
434.85	22239.77
435.03	22111.04
435.22	22775.75
435.41	23726.01
435.59	23929.64
435.78	24418.81
435.97	25027.35
436.16	25010.96
436.34	24779.25
436.53	24470.30
436.72	24180.07
436.90	22941.93
437.09	23215.77
437.28	22197.64
437.46	23220.45
437.65	23077.68
437.84	21750.60
438.02	20072.43
438.21	19683.91
438.40	20629.48
438.58	22632.98
438.77	23372.59
438.96	23566.85
439.14	24580.31
439.33	25165.44
439.52	25198.21
439.70	24844.79
439.89	24463.28
440.08	23910.91
440.26	23608.98
440.45	24318.17
440.63	25813.77
440.82	27466.19
441.01	26782.75
441.19	26764.03
441.38	27400.65
441.57	28496.02
441.75	28587.30
441.94	28629.43
442.12	28402.40
442.31	29205.20
442.50	28643.48
442.68	28758.16
442.87	28320.48
443.05	27711.94
443.24	28109.83
443.43	28634.11
443.61	29376.06
443.80	29872.26
443.98	27908.55
444.17	28011.53
444.35	29865.24
444.54	30651.66
444.73	29834.81
444.91	28615.39
445.10	27412.35
445.28	26267.83
445.47	25998.67
445.65	26153.15
445.84	26733.60
446.02	27913.23
446.21	28182.39
446.39	28400.06
446.58	28620.07
446.77	28802.63
446.95	29450.96
447.14	30071.20
447.32	30555.69
447.51	29778.64
447.69	28503.04
447.88	28299.42
448.06	28418.78
448.25	29490.75
448.43	29926.09
448.62	28795.61
448.80	29013.28
448.99	29317.55
449.17	29537.56
449.36	29575.01
449.54	30480.80
449.73	31140.83
449.91	31274.24
450.10	32112.15
450.28	32580.26
450.46	32353.23
450.65	32587.28
450.83	32231.52
451.02	31491.91
451.20	31557.44
451.39	31737.66
451.57	31129.12
451.76	31264.88
451.94	31101.04
452.13	30522.93
452.31	29017.96
452.49	27651.09
452.68	28166.01
452.86	27941.32
453.05	28512.41
453.23	29668.63
453.42	30302.92
453.60	31035.50
453.78	31178.28
453.97	30883.37
454.15	30738.26
454.34	30258.45
454.52	30232.70
454.70	29546.92
454.89	30143.76
455.07	30085.25
455.26	31075.29
455.44	31496.59
455.62	32313.44
455.81	32032.57
455.99	32299.39
456.17	31454.46
456.36	31861.71
456.54	32917.29
456.73	32535.79
456.91	33172.41
457.09	33696.69
457.28	34089.90
457.46	32809.63
457.64	32257.26
457.83	31587.87
458.01	31026.14
458.19	31690.85
458.38	31777.45
458.56	32669.20
458.74	32744.09
458.93	32044.27
459.11	31782.13
459.29	31880.44
459.48	32189.39
459.66	31611.28
459.84	32184.71
460.03	32821.33
460.21	32566.21
460.39	33490.73
460.57	33120.92
460.76	34424.60
460.94	33968.19
461.12	33607.75
461.31	33764.57
461.49	33383.06
461.67	33589.03
461.85	34604.82
462.04	34483.11
462.22	34993.35
462.40	34597.80
462.59	34394.17
462.77	34330.98
462.95	34913.77
463.13	34171.82
463.32	33734.14
463.50	32999.21
463.68	33387.74
463.86	33521.15
464.05	33174.75
464.23	32362.59
464.41	32252.58
464.59	31887.46
464.78	33347.95
464.96	33401.79
465.14	32580.26
465.32	33809.04
465.50	34735.89
465.69	34824.83
465.87	34155.44
466.05	33010.92
466.23	31700.22
466.41	31215.72
466.60	31793.84
466.78	32060.66
466.96	32435.14
467.14	33104.54
467.32	33762.23
467.51	33525.83
467.69	31852.35
467.87	32947.72
468.05	33460.30
468.23	33205.18
468.41	33149.01
468.60	33137.30
468.78	33741.16
468.96	33212.20
469.14	33914.36
469.32	34291.19
469.50	32989.85
469.69	33106.88
469.87	32416.42
470.05	32187.05
470.23	31920.23
470.41	32301.73
470.59	32617.71
470.77	33118.58
470.95	33490.73
471.14	34405.88
471.32	33954.15
471.50	36133.19
471.68	36135.53
471.86	36126.17
472.04	36723.01
472.22	36718.32
472.40	35367.84
472.58	34574.39
472.77	33984.58
472.95	35023.78
473.13	35849.99
473.31	34745.25
473.49	34848.24
473.67	35456.78
473.85	35833.60
474.03	37303.46
474.21	36657.47
474.39	37354.95
474.57	37280.05
474.75	37677.94
474.93	37427.51
475.12	36222.13
475.30	36645.77
475.48	36772.16
475.66	37181.75
475.84	36933.65
476.02	36339.16
476.20	35775.09
476.38	36694.92
476.56	37282.39
476.74	37909.66
476.92	38192.86
477.10	38902.04
477.28	39878.05
477.46	40121.46
477.64	40495.95
477.82	40472.54
478.00	40694.89
478.18	40198.70
478.36	39739.96
478.54	39739.96
478.72	40407.01
478.90	41116.19
479.08	42108.58
479.26	42541.58
479.44	42445.62
479.62	41956.44
479.80	42518.17
479.98	42497.11
480.16	42768.61
480.34	42258.37
480.52	43278.85
480.70	42682.01
480.88	42969.90
481.06	43674.40
481.24	44100.37
481.41	44708.91
481.59	45808.96
481.77	45357.24
481.95	45076.38
482.13	44327.41
482.31	44683.17
482.49	45537.46
482.67	44818.92
482.85	45411.07
483.03	45757.47
483.21	46586.02
483.39	46340.27
483.57	45610.02
483.74	45804.28
483.92	45830.03
484.10	45804.28
484.28	46618.79
484.46	46995.62
484.64	47547.98
484.82	46763.90
485.00	46347.29
485.18	45467.25
485.35	44397.62
485.53	41155.98
485.71	37600.71
485.89	36781.52
486.07	38808.42
486.25	41928.36
486.43	44320.38
486.61	45308.09
486.78	45151.27
486.96	45195.74
487.14	47044.77
487.32	47744.59
487.50	49162.95
487.68	49897.88
487.85	50258.32
488.03	50454.93
488.21	49710.64
488.39	49401.69
488.57	48641.01
488.75	47810.12
488.92	49382.96
489.10	51592.43
489.28	52837.59
489.46	53385.28
489.64	53249.53
489.81	53471.88
489.99	53095.05
490.17	52802.49
490.35	53504.65
490.53	52968.66
490.70	52736.95
490.88	52758.02
491.06	53469.54
491.24	53546.78
491.41	52591.84
491.59	50885.59
491.77	50035.97
491.95	51082.19
492.13	52332.04
492.30	53708.27
492.48	54515.76
492.66	54841.09
492.84	54913.65
493.01	54630.44
493.19	54078.08
493.37	53780.83
493.54	53373.58
493.72	54190.42
493.90	55248.35
494.08	56046.47
494.25	56289.88
494.43	56530.96
494.61	56879.70
494.79	56947.57
494.96	56423.29
495.14	56107.32
495.32	55128.98
495.49	54368.30
495.67	55295.16
495.85	56837.57
496.02	57134.82
496.20	56999.07
496.38	56481.81
496.55	56514.58
496.73	56931.19
496.91	56987.36
497.09	57858.04
497.26	57738.68
497.44	57455.47
497.62	56985.02
497.79	55936.46
497.97	54953.44
498.14	54948.76
498.32	56116.68
498.50	57062.26
498.67	57521.01
498.85	57504.62
499.03	57712.93
499.20	57698.89
499.38	57757.40
499.56	57766.76
499.73	57329.08
499.91	56821.19
500.08	56390.53
500.26	55547.93
500.44	56123.71
500.61	56891.40
500.79	56666.71
500.97	56357.76
501.14	56126.05
501.32	55737.52
501.49	56025.40
501.67	56156.47
501.84	56486.49
502.02	56968.64
502.20	57275.25
502.37	57558.45
502.55	57228.44
502.72	57862.72
502.90	58398.71
503.07	58040.60
503.25	57813.57
503.43	56945.23
503.60	56481.81
503.78	55639.22
503.95	56154.13
504.13	57106.73
504.30	58319.13
504.48	58169.33
504.65	57574.84
504.83	57783.15
505.01	58447.86
505.18	58656.17
505.36	59299.81
505.53	59260.02
505.71	59339.60
505.88	59653.23
506.06	58958.09
506.23	58618.72
506.41	58106.14
506.58	58571.91
506.76	58513.39
506.93	58422.11
507.11	58054.65
507.28	58403.39
507.46	57792.51
507.63	57652.08
507.81	57050.56
507.98	57542.07
508.16	58195.08
508.33	58571.91
508.50	58906.60
508.68	59253.00
508.85	59634.51
509.03	59657.91
509.20	59465.99
509.38	58796.60
509.55	58202.10
509.73	58209.12
509.90	58749.79
510.08	58990.86
510.25	58871.49
510.42	58607.01
510.60	58679.57
510.77	58855.11
510.95	59288.11
511.12	59599.40
511.30	59807.71
511.47	60020.70
511.64	60032.40
511.82	59648.55
511.99	58899.58
512.17	58576.59
512.34	58183.38
512.51	58305.09
512.69	58351.90
512.86	58590.63
513.04	58953.41
513.21	59093.85
513.38	58527.44
513.56	58138.91
513.73	57621.65
513.90	57762.08
514.08	57748.04
514.25	58122.52
514.43	58534.46
514.60	58394.03
514.77	58614.04
514.95	58623.40
515.12	58714.68
515.29	58794.26
515.47	59400.46
515.64	59660.26
515.81	59100.87
515.99	58618.72
516.16	57284.61
516.33	54946.42
516.51	53411.02
516.68	52729.93
516.85	52374.17
517.03	52636.31
517.20	55267.07
517.37	57719.95
517.54	58752.13
517.72	58379.98
517.89	55973.91
518.06	53577.20
518.24	53600.61
518.41	55987.95
518.58	57490.58
518.75	57595.90
518.93	57914.22
519.10	57588.88
519.27	57963.37
519.45	58387.00
519.62	58873.84
519.79	59377.05
519.96	58953.41
520.14	58726.38
520.31	57719.95
520.48	57939.96
520.65	58071.03
520.83	59238.96
521.00	59416.84
521.17	59327.90
521.34	58616.38
521.52	59049.38
521.69	59458.97
521.86	59868.56
522.03	59725.79
522.20	58583.61
522.38	57539.73
522.55	57502.28
522.72	58152.95
522.89	58113.16
523.07	58410.41
523.24	58815.32
523.41	59400.46
523.58	59824.09
523.75	60254.75
523.92	60046.44
524.10	60093.25
524.27	60032.40
524.44	59992.61
524.61	59838.14
524.78	59641.53
524.96	59517.48
525.13	59599.40
525.30	59751.54
525.47	60346.03
525.64	59952.82
525.81	59430.88
525.98	58019.54
526.16	56584.79
526.33	56074.55
526.50	55695.39
526.67	55468.36
526.84	55891.99
527.01	56837.57
527.18	57413.34
527.36	58260.62
527.53	59430.88
527.70	59735.15
527.87	59028.31
528.04	58536.80
528.21	59018.95
528.38	59856.86
528.55	60137.72
528.72	60413.91
528.89	60687.75
529.07	60498.17
529.24	59903.67
529.41	59220.23
529.58	58780.21
529.75	58824.68
529.92	59173.42
530.09	59639.19
530.26	60102.62
530.43	60287.52
530.60	60554.34
530.77	60547.32
530.94	60610.51
531.11	60306.24
531.28	59805.37
531.46	59842.82
531.63	59721.11
531.80	59639.19
531.97	59250.66
532.14	58501.69
532.31	57373.55
532.48	57031.83
532.65	56959.28
532.82	57993.79
532.99	58885.54
533.16	59283.43
533.33	59704.73
533.50	59824.09
533.67	58930.01
533.84	58590.63
534.01	58946.39
534.18	58927.67
534.35	59161.72
534.52	58784.90
534.69	59238.96
534.86	59634.51
535.03	59803.03
535.20	60107.30
535.37	60566.04
535.54	60678.39
535.71	60434.97
535.88	60055.81
536.05	59337.26
536.22	59100.87
536.38	58717.02
536.55	58464.24
536.72	57965.71
536.89	57780.81
537.06	58417.43
537.23	59353.65
537.40	59627.49
537.57	59540.89
537.74	59402.80
537.91	59587.70
538.08	59288.11
538.25	59250.66
538.42	59454.29
538.59	59437.90
538.75	58464.24
538.92	58337.85
539.09	58347.21
539.26	58099.12
539.43	57911.88
539.60	57895.49
539.77	58244.23
539.94	58054.65
540.11	57457.81
540.28	56699.48
540.44	56877.36
540.61	56949.92
540.78	57509.30
540.95	57937.62
541.12	58202.10
541.29	58532.12
541.46	58873.84
541.62	58944.05
541.79	58787.24
541.96	58117.84
542.13	58190.40
542.30	58391.68
542.47	58576.59
542.63	58328.49
542.80	58038.26
542.97	58480.63
543.14	58138.91
543.31	58169.33
543.48	58574.25
543.64	59379.39
543.81	59622.81
543.98	59433.22
544.15	58756.81
544.32	58365.94
544.48	58223.17
544.65	58698.30
544.82	59058.74
544.99	58688.93
545.16	58361.26
545.32	58143.59
545.49	58997.88
545.66	59234.28
545.83	59000.22
546.00	58773.19
546.16	58429.13
546.33	58216.14
546.50	58277.00
546.67	58920.65
546.83	58358.92
547.00	58571.91
547.17	57893.15
547.34	57513.98
547.50	57183.97
547.67	57602.92
547.84	57722.29
548.00	58241.89
548.17	58527.44
548.34	58129.54
548.51	58244.23
548.67	58440.84
548.84	58637.44
549.01	58337.85
549.18	58272.32
549.34	58197.42
549.51	58127.20
549.68	58248.91
549.84	58049.97
550.01	57993.79
550.18	57752.72
550.34	57939.96
550.51	57794.85
550.68	58019.54
550.84	57682.50
551.01	57794.85
551.18	57558.45
551.34	57783.15
551.51	58101.46
551.68	58482.97
551.84	58347.21
552.01	58185.72
552.18	58166.99
552.34	57380.57
552.51	56851.61
552.68	56858.63
552.84	57511.64
553.01	57825.28
553.18	57724.63
553.34	57869.75
553.51	57736.34
553.67	58110.82
553.84	58375.30
554.01	58195.08
554.17	57797.19
554.34	57963.37
554.51	58061.67
554.67	58143.59
554.84	58110.82
555.00	57813.57
555.17	57509.30
555.33	57492.92
555.50	57542.07
555.67	57539.73
555.83	57226.10
556.00	57127.80
556.16	57113.75
556.33	56797.78
556.50	56556.70
556.66	56652.67
556.83	56556.70
556.99	56743.95
557.16	56685.43
557.32	57043.54
557.49	57317.38
557.65	57095.03
557.82	57134.82
557.98	56952.26
558.15	56418.61
558.32	55770.28
558.48	54672.57
558.65	55084.51
558.81	55386.44
558.98	55793.69
559.14	55767.94
559.31	56121.37
559.47	56079.24
559.64	55957.53
559.80	55253.03
559.97	55524.53
560.13	55765.60
560.30	56655.01
560.46	57193.33
560.63	57176.95
560.79	57488.24
560.96	56961.62
561.12	55842.84
561.29	54967.48
561.45	54995.57
561.61	55723.47
561.78	56133.07
561.94	55791.35
562.11	56037.11
562.27	55941.14
562.44	56172.86
562.60	56233.71
562.77	56523.94
562.93	56615.22
563.10	56399.89
563.26	55847.52
563.42	55793.69
563.59	55742.20
563.75	55615.81
563.92	55660.28
564.08	55660.28
564.24	55964.55
564.41	56039.45
564.57	55957.53
564.74	55721.13
564.90	55540.91
565.07	55339.63
565.23	55166.43
565.39	54525.12
565.56	54508.74
565.72	53839.34
565.88	54220.85
566.05	54590.66
566.21	54850.45
566.38	54841.09
566.54	55257.71
566.70	55348.99
566.87	55779.65
567.03	55576.02
567.19	55789.01
567.36	55641.56
567.52	55295.16
567.68	55313.88
567.85	54555.55
568.01	54272.34
568.17	53958.71
568.34	53780.83
568.50	53675.51
568.66	53811.26
568.83	54511.08
568.99	54506.40
569.15	54775.56
569.32	54529.80
569.48	54419.80
569.64	54314.47
569.81	53729.34
569.97	53813.60
570.13	53619.33
570.30	53373.58
570.46	52879.72
570.62	52261.82
570.78	52303.95
570.95	52296.93
571.11	53286.98
571.27	53708.27
571.43	53712.95
571.60	53654.44
571.76	54391.71
571.92	54129.57
572.09	54644.49
572.25	54452.56
572.41	54454.90
572.57	54370.64
572.74	54419.80
572.90	53537.41
573.06	53588.91
573.22	53975.09
573.38	54265.32
573.55	53984.46
573.71	54003.18
573.87	53827.64
574.03	53392.30
574.20	53734.02
574.36	53272.93
574.52	53233.14
574.68	53029.52
574.84	52987.39
575.01	52303.95
575.17	52039.47
575.33	52711.20
575.49	52877.38
575.65	52968.66
575.82	52772.06
575.98	52425.66
576.14	52486.51
576.30	53244.85
576.46	53071.65
576.62	53111.44
576.79	53003.77
576.95	52563.75
577.11	52645.67
577.27	52683.12
577.43	52741.63
577.59	52425.66
577.75	52119.05
577.92	51105.60
578.08	51337.31
578.24	51121.98
578.40	51374.76
578.56	51800.74
578.72	52189.27
578.88	51732.86
579.04	52074.58
579.21	52374.17
579.37	52371.83
579.53	52369.49
579.69	52259.48
579.85	52416.30
580.01	52584.82
580.17	51859.25
580.33	51716.48
580.49	51959.89
580.65	52332.04
580.82	52193.95
580.98	52076.92
581.14	52275.87
581.30	52355.44
581.46	51882.66
581.62	52425.66
581.78	52294.59
581.94	52786.10
582.10	52360.12
582.26	52320.34
582.42	52158.84
582.58	52655.03
582.74	52694.82
582.90	52355.44
583.06	52666.73
583.22	52172.88
583.38	52121.39
583.54	52189.27
583.70	52233.74
583.86	52257.14
584.02	51983.30
584.18	51903.72
584.34	52023.09
584.50	51917.76
584.66	51751.59
584.82	51547.96
584.98	51164.11
585.14	51131.34
585.30	50183.43
