SpectraSuite Data File
++++++++++++++++++++++++++++++++++++
Date: Mon Oct 07 14:53:03 GMT-05:00 2013
User: price-jones
Dark Spectrum Present: No
Reference Spectrum Present: No
Number of Sampled Component Spectra: 1
Spectrometers: USB2+H05261
Integration Time (usec): 100000 (USB2+H05261)
Spectra Averaged: 1 (USB2+H05261)
Boxcar Smoothing: 0 (USB2+H05261)
Correct for Electrical Dark: No (USB2+H05261)
Strobe/Lamp Enabled: No (USB2+H05261)
Correct for Detector Non-linearity: No (USB2+H05261)
Correct for Stray Light: No (USB2+H05261)
Number of Pixels in Processed Spectrum: 2048
>>>>>Begin Processed Spectral Data<<<<<
365.73	0.00
365.92	0.00
366.12	0.00
366.32	0.00
366.52	0.00
366.72	0.00
366.91	0.00
367.11	0.00
367.31	0.00
367.51	0.00
367.70	0.00
367.90	0.00
368.10	0.00
368.30	0.00
368.49	0.00
368.69	0.00
368.89	0.00
369.09	0.00
369.28	0.00
369.48	0.00
369.68	0.00
369.87	0.00
370.07	0.00
370.27	0.00
370.47	470.45
370.66	2733.75
370.86	3229.94
371.06	3447.61
371.25	3487.40
371.45	3066.10
371.65	2832.05
371.84	2661.19
372.04	2930.35
372.24	3150.36
372.44	3260.37
372.63	3117.59
372.83	3021.63
373.03	2733.75
373.22	2518.42
373.42	2546.50
373.62	2930.35
373.81	3318.88
374.01	3302.50
374.21	2794.60
374.40	2602.68
374.60	2925.67
374.79	3117.59
374.99	3831.46
375.19	3981.25
375.38	3976.57
375.58	3679.32
375.78	3749.54
375.97	3847.84
376.17	3824.44
376.37	3957.85
376.56	3964.87
376.76	4159.13
376.95	4435.32
377.15	4786.40
377.35	5025.13
377.54	5240.46
377.74	5341.10
377.93	5369.19
378.13	5135.14
378.33	4802.78
378.52	4571.07
378.72	4301.90
378.91	4390.84
379.11	4018.70
379.31	4093.60
379.50	3995.29
379.70	4500.85
379.89	4641.28
380.09	4990.02
380.28	5380.89
380.48	5233.44
380.68	5146.84
380.87	4926.83
381.07	4594.47
381.26	4154.45
381.46	4084.23
381.65	3882.95
381.85	3817.41
382.04	3632.51
382.24	3468.67
382.43	3199.51
382.63	3279.09
382.83	3007.59
383.02	3243.98
383.22	3166.74
383.41	3162.06
383.61	3398.46
383.80	3957.85
384.00	4458.72
384.19	4975.98
384.39	5324.72
384.58	5050.88
384.78	5064.92
384.97	5111.73
385.17	4718.52
385.36	4507.87
385.56	4393.19
385.75	4585.11
385.95	4980.66
386.14	5383.23
386.34	5210.03
386.53	5121.09
386.72	4594.47
386.92	4837.89
387.11	5093.01
387.31	5362.17
387.50	5235.78
387.70	5146.84
387.89	5020.45
388.09	4999.38
388.28	4997.04
388.48	5062.58
388.67	5530.69
388.86	6080.71
389.06	6574.56
389.25	6806.28
389.45	6967.77
389.64	6944.37
389.84	6885.86
390.03	6443.49
390.22	6853.09
390.42	6970.12
390.61	7398.43
390.81	7957.82
391.00	8163.79
391.19	8058.46
391.39	7967.18
391.58	7276.73
391.78	6869.47
391.97	6509.03
392.16	5947.30
392.36	5504.94
392.55	4559.36
392.75	3482.72
392.94	2860.13
393.13	2963.12
393.33	3473.36
393.52	4444.68
393.71	5408.98
393.91	6019.86
394.10	6616.69
394.29	7323.54
394.49	7812.71
394.68	8451.67
394.88	8432.95
395.07	8748.92
395.26	8739.56
395.46	8184.85
395.65	7796.32
395.84	6792.23
396.04	5982.41
396.23	4739.58
396.42	3864.22
396.62	3875.93
396.81	4421.27
397.00	5748.36
397.19	7126.93
397.39	8559.34
397.58	9579.81
397.77	10183.67
397.97	10630.71
398.16	10640.08
398.35	10883.49
398.55	11162.01
398.74	11595.01
398.93	12226.96
399.12	11857.15
399.32	11428.84
399.51	11765.87
399.70	12353.35
399.90	12423.56
400.09	12224.62
400.28	12198.87
400.47	12636.55
400.67	12704.43
400.86	13263.82
401.05	13060.19
401.24	13380.84
401.44	13516.59
401.63	13518.93
401.82	13490.85
402.01	13493.19
402.21	13685.11
402.40	13888.74
402.59	13322.33
402.78	12884.65
402.97	12564.00
403.17	12760.60
403.36	13671.07
403.55	14043.21
403.74	14420.04
403.93	13633.62
404.13	12470.37
404.32	12589.74
404.51	12992.31
404.70	14083.00
404.89	13795.12
405.09	13788.10
405.28	13364.46
405.47	13422.97
405.66	13525.96
405.85	13020.40
406.05	12542.93
406.24	13008.70
406.43	13493.19
406.62	13802.14
406.81	14022.15
407.00	13652.34
407.20	13207.64
407.39	13397.23
407.58	14005.77
407.77	14518.34
407.96	14820.27
408.15	15154.97
408.34	15349.23
408.54	16011.60
408.73	16009.26
408.92	15737.76
409.11	15377.32
409.30	14623.67
409.49	13755.33
409.68	12837.84
409.87	12336.96
410.07	13289.56
410.26	14181.31
410.45	15147.95
410.64	15243.91
410.83	15686.27
411.02	16149.70
411.21	16861.22
411.40	16868.24
411.59	16751.21
411.78	16671.64
411.98	16442.26
412.17	16819.09
412.36	16533.54
412.55	16610.78
412.74	15976.50
412.93	15693.29
413.12	16098.20
413.31	17778.71
413.50	17488.48
413.69	17820.84
413.88	17156.13
414.07	16552.27
414.26	16954.84
414.45	17448.69
414.64	17755.30
414.83	17465.08
415.02	17242.73
415.22	17387.84
415.41	17661.68
415.60	18237.45
415.79	19005.15
415.98	19302.40
416.17	19330.48
416.36	19119.84
416.55	18637.69
416.74	18122.77
416.93	17404.22
417.12	17525.93
417.31	17851.27
417.50	17823.18
417.69	18724.29
417.88	18815.57
418.07	18551.09
418.26	18164.90
418.45	18525.34
418.64	19058.98
418.83	19433.47
419.02	19283.67
419.21	18890.46
419.39	18267.88
419.58	17483.80
419.77	17301.24
419.96	18288.95
420.15	19152.60
420.34	19878.17
420.53	20318.19
420.72	20720.76
420.91	20732.47
421.10	20554.58
421.29	20081.80
421.48	19545.81
421.67	20475.01
421.86	20072.43
422.05	18635.35
422.24	16624.83
422.43	16711.42
422.61	18405.97
422.80	20063.07
422.99	19721.35
423.18	19066.00
423.37	18604.92
423.56	18792.16
423.75	19187.71
423.94	19564.54
424.13	18747.69
424.32	18714.92
424.50	18527.68
424.69	18450.44
424.88	18806.20
425.07	18342.78
425.26	18611.94
425.45	18188.30
425.64	17757.64
425.83	17860.63
426.01	19058.98
426.20	19367.93
426.39	19307.08
426.58	17818.50
426.77	16692.70
426.96	16147.36
427.15	16641.21
427.33	18092.34
427.52	18717.26
427.71	18764.07
427.90	18305.33
428.09	18125.11
428.28	17774.03
428.46	17280.18
428.65	17088.25
428.84	17724.88
429.03	17898.08
429.22	16964.20
429.40	16037.35
429.59	14661.12
429.78	12851.88
429.97	12964.23
430.16	12872.95
430.34	13231.05
430.53	13160.83
430.72	13287.22
430.91	15115.18
431.10	17743.60
431.28	20402.45
431.47	22174.24
431.66	22452.76
431.85	20201.16
432.03	18366.18
432.22	17816.16
432.41	18876.42
432.60	20968.86
432.79	21671.02
432.97	22160.19
433.16	21385.47
433.35	19461.55
433.54	17603.17
433.72	16748.87
433.91	17174.85
434.10	19138.56
434.28	20357.98
434.47	21490.80
434.66	21060.14
434.85	20709.06
435.03	20720.76
435.22	21273.13
435.41	22473.82
435.59	22637.66
435.78	22885.76
435.97	23676.86
436.16	23608.98
436.34	23253.22
436.53	22970.02
436.72	22527.66
436.90	21689.74
437.09	21816.13
437.28	21191.21
437.46	21748.26
437.65	21720.17
437.84	20236.27
438.02	18735.99
438.21	18546.40
438.40	19768.16
438.58	21373.77
438.77	21556.33
438.96	22012.74
439.14	23138.54
439.33	23370.25
439.52	23901.55
439.70	23370.25
439.89	22745.33
440.08	21734.21
440.26	21923.80
440.45	22960.66
440.63	24236.25
440.82	25755.26
441.01	25355.02
441.19	24973.52
441.38	25336.30
441.57	26331.03
441.75	26586.15
441.94	26632.96
442.12	26916.16
442.31	27227.45
442.50	27014.46
442.68	27005.10
442.87	26469.12
443.05	25504.82
443.24	26321.66
443.43	26944.25
443.61	27295.33
443.80	27955.36
443.98	26412.95
444.17	26321.66
444.35	27587.89
444.54	28334.53
444.73	27964.72
444.91	26764.03
445.10	25776.32
445.28	24615.41
445.47	24149.65
445.65	24444.56
445.84	25277.79
446.02	25935.48
446.21	27037.87
446.39	26370.82
446.58	27054.25
446.77	27573.85
446.95	27576.19
447.14	28077.07
447.32	28945.41
447.51	28196.43
447.69	26899.78
447.88	26939.57
448.06	27061.27
448.25	28105.15
448.43	27833.65
448.62	27365.54
448.80	27225.11
448.99	27318.73
449.17	27627.68
449.36	28013.87
449.54	28606.03
449.73	29685.01
449.91	29696.72
450.10	30253.76
450.28	30927.84
450.46	30691.44
450.65	30883.37
450.83	30497.18
451.02	29825.45
451.20	29764.59
451.39	29792.68
451.57	29013.28
451.76	29177.12
451.94	28933.70
452.13	28833.06
452.31	27304.69
452.49	25996.33
452.68	26251.45
452.86	26527.63
453.05	26836.58
453.23	27566.83
453.42	28027.92
453.60	29088.18
453.78	29287.12
453.97	28758.16
454.15	28701.99
454.34	28402.40
454.52	28517.09
454.70	27981.10
454.89	28472.62
455.07	28400.06
455.26	29015.62
455.44	29797.36
455.62	30450.37
455.81	30441.01
455.99	30223.34
456.17	29645.23
456.36	29975.24
456.54	30822.51
456.73	30883.37
456.91	31283.60
457.09	31311.69
457.28	32084.06
457.46	30972.31
457.64	30518.25
457.83	29465.00
458.01	28922.00
458.19	29862.90
458.38	29874.60
458.56	30677.40
458.74	30604.84
458.93	30199.93
459.11	29900.34
459.29	29928.43
459.48	30352.07
459.66	30066.52
459.84	30635.27
460.03	30925.50
460.21	30590.80
460.39	31608.93
460.57	31519.99
460.76	31882.78
460.94	31763.41
461.12	31510.63
461.31	31571.49
461.49	31522.34
461.67	31257.85
461.85	32273.65
462.04	32378.97
462.22	33153.69
462.40	32423.44
462.59	32486.64
462.77	32273.65
462.95	32400.04
463.13	31985.76
463.32	31641.70
463.50	31594.89
463.68	31842.99
463.86	31615.96
464.05	30878.69
464.23	30593.14
464.41	30209.29
464.59	29921.41
464.78	31395.95
464.96	31005.08
465.14	30916.14
465.32	31583.19
465.50	32348.54
465.69	32971.13
465.87	32236.20
466.05	31180.62
466.23	30115.67
466.41	29202.86
466.60	30075.88
466.78	30008.01
466.96	30597.82
467.14	31290.62
467.32	31398.29
467.51	31630.00
467.69	29972.90
467.87	30731.23
468.05	31702.56
468.23	31344.45
468.41	31353.82
468.60	31276.58
468.78	31861.71
468.96	30796.77
469.14	32088.74
469.32	31887.46
469.50	30661.02
469.69	30813.15
469.87	30366.11
470.05	30314.62
470.23	30213.98
470.41	30508.88
470.59	30998.06
470.77	31002.74
470.95	31709.58
471.14	32041.93
471.32	32261.94
471.50	33963.51
471.68	34174.16
471.86	34003.30
472.04	34543.97
472.22	34199.91
472.40	32685.58
472.58	32648.13
472.77	32041.93
472.95	32762.82
473.13	33809.04
473.31	33404.13
473.49	33399.44
473.67	33188.80
473.85	34483.11
474.03	34838.87
474.21	34415.24
474.39	35063.57
474.57	35665.08
474.75	35639.34
474.93	35311.66
475.12	34359.06
475.30	34293.53
475.48	34785.04
475.66	34930.16
475.84	34405.88
476.02	33752.87
476.20	33975.22
476.38	34756.96
476.56	35683.81
476.74	35721.26
476.92	36149.57
477.10	36971.10
477.28	37844.12
477.46	37621.77
477.64	38174.14
477.82	38047.75
478.00	38150.73
478.18	37785.61
478.36	37750.50
478.54	37731.78
478.72	37830.08
478.90	39100.99
479.08	39842.94
479.26	40687.87
479.44	40147.21
479.62	40203.38
479.80	39962.31
479.98	40285.30
480.16	40507.65
480.34	39744.64
480.52	40154.23
480.70	40407.01
480.88	40458.50
481.06	41366.63
481.24	41450.89
481.41	42630.52
481.59	43414.60
481.77	43145.44
481.95	42237.31
482.13	42452.64
482.31	42253.69
482.49	42827.12
482.67	42742.86
482.85	42993.30
483.03	43620.56
483.21	44151.87
483.39	44252.51
483.57	42899.68
483.74	42754.57
483.92	43416.94
484.10	43267.14
484.28	44547.42
484.46	44596.57
484.64	45240.21
484.82	44210.38
485.00	43688.44
485.18	43290.55
485.35	41649.83
485.53	38656.29
485.71	35229.74
485.89	34873.98
486.07	37237.92
486.25	40011.46
486.43	42010.28
486.61	42494.77
486.78	42686.69
486.96	42656.26
487.14	44952.33
487.32	45530.44
487.50	46171.75
487.68	47391.17
487.85	47852.25
488.03	47978.64
488.21	47288.18
488.39	46768.58
488.57	45998.55
488.75	45851.09
488.92	47220.31
489.10	49916.61
489.28	50901.97
489.46	51709.46
489.64	51384.12
489.81	51828.82
489.99	51213.26
490.17	51323.27
490.35	51892.02
490.53	51126.66
490.70	50649.19
490.88	50883.25
491.06	51765.63
491.24	51774.99
491.41	50197.47
491.59	48690.16
491.77	47894.38
491.95	49207.42
492.13	50490.04
492.30	51868.61
492.48	52708.86
492.66	53207.40
492.84	53144.20
493.01	52889.09
493.19	52360.12
493.37	52243.10
493.54	51494.13
493.72	52711.20
493.90	53750.40
494.08	54209.15
494.25	54564.91
494.43	54850.45
494.61	55185.15
494.79	55238.98
494.96	55007.27
495.14	54160.00
495.32	53652.10
495.49	52741.63
495.67	54110.85
495.85	55175.79
496.02	55519.85
496.20	55693.05
496.38	55131.32
496.55	54836.41
496.73	55388.78
496.91	55348.99
497.09	56048.81
497.26	56327.33
497.44	55856.88
497.62	55187.49
497.79	54742.79
497.97	53209.74
498.14	53563.16
498.32	54679.60
498.50	55248.35
498.67	55987.95
498.85	55615.81
499.03	55866.25
499.20	56268.82
499.38	56488.83
499.56	56341.38
499.73	55545.59
499.91	55107.91
500.08	54901.95
500.26	54171.70
500.44	54766.20
500.61	55538.57
500.79	55128.98
500.97	54710.02
501.14	54480.65
501.32	54143.61
501.49	54401.07
501.67	54691.30
501.84	55353.67
502.02	55671.98
502.20	55786.67
502.37	56058.17
502.55	55894.33
502.72	56530.96
502.90	56802.46
503.07	56423.29
503.25	56247.75
503.43	55292.82
503.60	54660.87
503.78	53780.83
503.95	54518.10
504.13	56116.68
504.30	56825.87
504.48	56505.21
504.65	56217.33
504.83	56505.21
505.01	56945.23
505.18	57303.34
505.36	58026.56
505.53	57848.68
505.71	58148.27
505.88	58211.46
506.06	57406.32
506.23	57146.52
506.41	56884.38
506.58	57109.07
506.76	56814.16
506.93	56896.08
507.11	56844.59
507.28	56989.70
507.46	56535.64
507.63	56025.40
507.81	55716.45
507.98	56006.68
508.16	56498.19
508.33	56928.85
508.50	57481.22
508.68	57829.96
508.85	58183.38
509.03	58326.15
509.20	58120.18
509.38	57116.09
509.55	56540.32
509.73	56968.64
509.90	57190.99
510.08	57537.39
510.25	57485.90
510.42	57406.32
510.60	57212.06
510.77	57380.57
510.95	58183.38
511.12	58106.14
511.30	58279.34
511.47	58698.30
511.64	58635.10
511.82	58335.51
511.99	57378.23
512.17	57155.88
512.34	56825.87
512.51	56996.73
512.69	57031.83
512.86	57289.29
513.04	57422.70
513.21	57366.53
513.38	57106.73
513.56	56961.62
513.73	56198.60
513.90	56502.87
514.08	56657.35
514.25	56626.92
514.43	57139.50
514.60	57301.00
514.77	57179.29
514.95	57626.33
515.12	57195.67
515.29	57448.45
515.47	57766.76
515.64	58148.27
515.81	57836.98
515.99	57343.12
516.16	55800.71
516.33	53382.94
516.51	52093.30
516.68	50806.01
516.85	50433.86
517.03	51145.39
517.20	53848.71
517.37	56596.49
517.54	57284.61
517.72	56762.67
517.89	54096.80
518.06	52177.56
518.24	52369.49
518.41	54691.30
518.58	55845.18
518.75	56205.62
518.93	56278.18
519.10	56156.47
519.27	56947.57
519.45	57132.48
519.62	57605.26
519.79	58085.07
519.96	57790.17
520.14	57324.40
520.31	56390.53
520.48	56512.23
520.65	56746.29
520.83	57717.61
521.00	58127.20
521.17	57518.67
521.34	57291.63
521.52	57764.42
521.69	58541.48
521.86	58564.88
522.03	58347.21
522.20	57333.76
522.38	56282.86
522.55	56229.03
522.72	56919.49
522.89	56898.42
523.07	57144.18
523.24	57436.75
523.41	58562.54
523.58	58548.50
523.75	58974.48
523.92	58759.15
524.10	58721.70
524.27	58850.43
524.44	58534.46
524.61	58379.98
524.78	58262.96
524.96	58131.89
525.13	58169.33
525.30	58677.23
525.47	59049.38
525.64	58815.32
525.81	57984.43
525.98	56615.22
526.16	55222.60
526.33	54525.12
526.50	54197.44
526.67	53752.74
526.84	54770.88
527.01	55508.14
527.18	56502.87
527.36	57265.89
527.53	58080.39
527.70	58356.58
527.87	57982.09
528.04	57427.38
528.21	58038.26
528.38	58457.22
528.55	58976.82
528.72	59187.47
528.89	59449.61
529.07	59341.94
529.24	58618.72
529.41	57769.10
529.58	57462.49
529.75	57350.15
529.92	57893.15
530.09	58234.87
530.26	58731.06
530.43	59030.65
530.60	59063.42
530.77	59185.13
530.94	59372.37
531.11	58801.28
531.28	58681.91
531.46	58258.27
531.63	58787.24
531.80	58326.15
531.97	58042.95
532.14	57289.29
532.31	56072.21
532.48	55622.83
532.65	55753.90
532.82	56755.65
532.99	57715.27
533.16	57986.77
533.33	58527.44
533.50	58302.74
533.67	57972.73
533.84	57516.32
534.01	57925.92
534.18	57645.05
534.35	57977.41
534.52	57605.26
534.69	57902.51
534.86	58281.68
535.03	58482.97
535.20	59145.34
535.37	59400.46
535.54	59334.92
535.71	59093.85
535.88	58717.02
536.05	58073.37
536.22	57535.05
536.38	57261.21
536.55	56926.51
536.72	56659.69
536.89	56645.65
537.06	57315.04
537.23	58213.80
537.40	58316.79
537.57	58464.24
537.74	58092.10
537.91	58003.16
538.08	58157.63
538.25	58145.93
538.42	58267.64
538.59	58066.35
538.75	57371.21
538.92	57333.76
539.09	57045.88
539.26	57008.43
539.43	56624.58
539.60	56978.00
539.77	57190.99
539.94	56865.66
540.11	56076.90
540.28	55454.31
540.44	55824.12
540.61	55814.76
540.78	56355.42
540.95	56816.50
541.12	57080.98
541.29	57279.93
541.46	57710.59
541.62	57572.50
541.79	57333.76
541.96	56849.27
542.13	56945.23
542.30	57219.08
542.47	57183.97
542.63	57146.52
542.80	56781.40
542.97	57055.24
543.14	56860.97
543.31	56856.29
543.48	57511.64
543.64	58225.51
543.81	58599.99
543.98	58082.73
544.15	57614.63
544.32	57052.90
544.48	56907.79
544.65	57748.04
544.82	58089.76
544.99	57523.35
545.16	57111.41
545.32	57069.28
545.49	57684.84
545.66	58337.85
545.83	57546.75
546.00	57249.50
546.16	57006.09
546.33	57209.71
546.50	57099.71
546.67	57511.64
546.83	57111.41
547.00	57080.98
547.17	56626.92
547.34	56222.01
547.50	56104.98
547.67	56516.92
547.84	56491.17
548.00	57015.45
548.17	57310.36
548.34	57153.54
548.51	57221.42
548.67	57387.60
548.84	57277.59
549.01	57296.31
549.18	57071.62
549.34	57130.14
549.51	57120.77
549.68	56889.06
549.84	56554.36
550.01	56601.18
550.18	56549.68
550.34	56802.46
550.51	56832.89
550.68	56786.08
550.84	56369.46
551.01	56418.61
551.18	56413.93
551.34	56732.25
551.51	56966.30
551.68	57387.60
551.84	57036.51
552.01	57029.49
552.18	56928.85
552.34	56027.74
552.51	55657.94
552.68	55758.58
552.84	56427.98
553.01	56453.72
553.18	56420.95
553.34	56509.89
553.51	56839.91
553.67	56893.74
553.84	57146.52
554.01	56926.51
554.17	56545.00
554.34	56816.50
554.51	56802.46
554.67	57207.37
554.84	56994.39
555.00	56849.27
555.17	56591.81
555.33	56542.66
555.50	56409.25
555.67	56280.52
555.83	56186.90
556.00	55875.61
556.16	55854.54
556.33	55508.14
556.50	55402.82
556.66	55583.04
556.83	55299.84
556.99	55524.53
557.16	55552.62
557.32	55732.84
557.49	55941.14
557.65	55920.08
557.82	55798.37
557.98	55529.21
558.15	55173.45
558.32	54319.15
558.48	53605.29
558.65	53982.12
558.81	54181.06
558.98	54693.64
559.14	54885.56
559.31	54827.05
559.47	54752.15
559.64	54445.54
559.80	54033.61
559.97	54281.70
560.13	54614.06
560.30	55639.22
560.46	56051.15
560.63	56308.61
560.79	56182.22
560.96	55784.33
561.12	54848.11
561.29	53991.48
561.45	54223.19
561.61	54553.21
561.78	55206.22
561.94	54726.41
562.11	54756.83
562.27	54845.77
562.44	55028.34
562.60	55089.19
562.77	55466.02
562.93	55196.85
563.10	55168.77
563.26	55063.44
563.42	54595.34
563.59	54520.44
563.75	54703.00
563.92	54639.81
564.08	54703.00
564.24	54841.09
564.41	54955.78
564.57	54578.95
564.74	54724.07
564.90	54223.19
565.07	54190.42
565.23	54141.27
565.39	53235.48
565.56	53109.10
565.72	52858.66
565.88	53169.95
566.05	53694.23
566.21	53771.47
566.38	53848.71
566.54	53956.37
566.70	54251.28
566.87	54726.41
567.03	54630.44
567.19	54693.64
567.36	54534.48
567.52	54518.10
567.68	54300.43
567.85	53396.98
568.01	52952.28
568.17	52526.30
568.34	52561.41
568.50	52889.09
568.66	52652.69
568.83	53085.69
568.99	53191.01
569.15	53399.32
569.32	53389.96
569.48	53029.52
569.64	53027.18
569.81	52355.44
569.97	52570.77
570.13	52224.37
570.30	51896.70
570.46	51622.86
570.62	51103.26
570.78	50738.13
570.95	51299.86
571.11	52292.25
571.27	52079.26
571.43	52484.17
571.60	52652.69
571.76	52828.23
571.92	53476.56
572.09	53265.91
572.25	53256.55
572.41	53254.21
572.57	52966.32
572.74	53240.17
572.90	52884.40
573.06	52753.33
573.22	52711.20
573.38	52736.95
573.55	52708.86
573.71	53029.52
573.87	52772.06
574.03	52512.26
574.20	52371.83
574.36	52303.95
574.52	51868.61
574.68	51669.67
574.84	51753.93
575.01	51267.09
575.17	51215.60
575.33	51416.89
575.49	51622.86
575.65	51835.84
575.82	51803.08
575.98	51065.81
576.14	51625.20
576.30	51337.31
576.46	51660.30
576.62	51838.18
576.79	51901.38
576.95	51594.77
577.11	51491.79
577.27	51533.92
577.43	51779.67
577.59	51178.15
577.75	50485.36
577.92	50305.13
578.08	49811.28
578.24	49762.13
578.40	50143.64
578.56	50609.40
578.72	50761.54
578.88	50712.39
579.04	51121.98
579.21	50836.44
579.37	51068.15
579.53	50857.50
579.69	51201.56
579.85	51271.78
580.01	50688.98
580.17	49965.76
580.33	50550.89
580.49	50876.22
580.65	50923.04
580.82	51168.79
580.98	51014.32
581.14	51126.66
581.30	50997.93
581.46	51203.90
581.62	51210.92
581.78	51264.75
581.94	51416.89
582.10	51395.82
582.26	51320.93
582.42	51077.51
582.58	51175.81
582.74	51330.29
582.90	51229.65
583.06	51304.54
583.22	51213.26
583.38	50904.31
583.54	51014.32
583.70	50852.82
583.86	51292.84
584.02	50777.92
584.18	50953.46
584.34	50969.85
584.50	50672.60
584.66	50443.23
584.82	50082.78
584.98	50164.70
585.14	49675.53
585.30	48835.28
