SpectraSuite Data File
++++++++++++++++++++++++++++++++++++
Date: Mon Oct 07 14:53:08 GMT-05:00 2013
User: price-jones
Dark Spectrum Present: No
Reference Spectrum Present: No
Number of Sampled Component Spectra: 1
Spectrometers: USB2+H05261
Integration Time (usec): 100000 (USB2+H05261)
Spectra Averaged: 1 (USB2+H05261)
Boxcar Smoothing: 0 (USB2+H05261)
Correct for Electrical Dark: No (USB2+H05261)
Strobe/Lamp Enabled: No (USB2+H05261)
Correct for Detector Non-linearity: No (USB2+H05261)
Correct for Stray Light: No (USB2+H05261)
Number of Pixels in Processed Spectrum: 2048
>>>>>Begin Processed Spectral Data<<<<<
365.73	0.00
365.92	0.00
366.12	0.00
366.32	0.00
366.52	0.00
366.72	0.00
366.91	0.00
367.11	0.00
367.31	0.00
367.51	0.00
367.70	0.00
367.90	0.00
368.10	0.00
368.30	0.00
368.49	0.00
368.69	0.00
368.89	0.00
369.09	0.00
369.28	0.00
369.48	0.00
369.68	0.00
369.87	0.00
370.07	0.00
370.27	0.00
370.47	653.01
370.66	3213.56
370.86	3758.90
371.06	4180.20
371.25	4063.17
371.45	3712.09
371.65	3323.56
371.84	3204.19
372.04	3323.56
372.24	3665.28
372.44	3957.85
372.63	3978.91
372.83	3613.79
373.03	3077.80
373.22	2925.67
373.42	3045.04
373.62	3599.74
373.81	3866.56
374.01	3728.47
374.21	3515.48
374.40	3232.28
374.60	3351.65
374.79	3686.34
374.99	4369.78
375.19	4678.73
375.38	4645.96
375.58	4442.34
375.78	4348.72
375.97	4374.46
376.17	4669.37
376.37	4671.71
376.56	4627.24
376.76	4896.40
376.95	5163.22
377.15	5706.23
377.35	6026.88
377.54	5858.36
377.74	6017.52
377.93	6263.27
378.13	6162.63
378.33	5727.29
378.52	5242.80
378.72	5062.58
378.91	4978.32
379.11	4823.84
379.31	4664.69
379.50	4634.26
379.70	5177.26
379.89	5605.58
380.09	5879.43
380.28	6141.57
380.48	6179.01
380.68	6090.07
380.87	5823.25
381.07	5441.75
381.26	4947.89
381.46	4807.46
381.65	4510.21
381.85	4587.45
382.04	4147.43
382.24	3964.87
382.43	3721.45
382.63	3730.81
382.83	3733.15
383.02	3641.87
383.22	3770.60
383.41	3714.43
383.61	4030.40
383.80	4557.02
384.00	5137.48
384.19	5643.03
384.39	6218.80
384.58	6200.08
384.78	5870.06
384.97	5781.12
385.17	5558.77
385.36	5336.42
385.56	5116.41
385.75	5296.63
385.95	5797.51
386.14	6317.11
386.34	6272.64
386.53	5849.00
386.72	5432.38
386.92	5638.35
387.11	6122.84
387.31	6303.06
387.50	6179.01
387.70	6001.13
387.89	5839.64
388.09	6141.57
388.28	5935.60
388.48	5951.98
388.67	6626.06
388.86	7272.04
389.06	7658.23
389.25	8238.69
389.45	8311.24
389.64	8212.94
389.84	8011.65
390.03	7810.37
390.22	7960.16
390.42	8109.96
390.61	8720.84
390.81	9317.67
391.00	9376.19
391.19	9486.19
391.39	9092.98
391.58	8547.64
391.78	7981.23
391.97	7719.09
392.16	7246.30
392.36	6572.22
392.55	5144.50
392.75	4250.41
392.94	3557.61
393.13	3494.42
393.33	4241.05
393.52	5128.11
393.71	6225.82
393.91	7222.89
394.10	7749.51
394.29	8624.87
394.49	9057.87
394.68	10141.54
394.88	9841.95
395.07	10361.55
395.26	10228.14
395.46	9954.30
395.65	9034.47
395.84	8091.23
396.04	6843.73
396.23	5577.50
396.42	4676.39
396.62	4479.79
396.81	5233.44
397.00	6906.92
397.19	8334.65
397.39	10083.03
397.58	11398.41
397.77	12006.95
397.97	12552.29
398.16	12386.12
398.35	12938.48
398.55	13380.84
398.74	13958.96
398.93	14008.11
399.12	13954.27
399.32	13474.46
399.51	13968.32
399.70	14834.32
399.90	14494.94
400.09	14530.05
400.28	14544.09
400.47	14813.25
400.67	15377.32
400.86	15583.29
401.05	15791.59
401.24	15908.62
401.44	15887.56
401.63	16086.50
401.82	15824.36
402.01	16100.55
402.21	16486.73
402.40	16386.09
402.59	15728.40
402.78	15073.05
402.97	14684.52
403.17	15527.11
403.36	16074.80
403.55	17181.87
403.74	17060.16
403.93	16037.35
404.13	15304.76
404.32	14710.27
404.51	15506.05
404.70	16395.45
404.89	16603.76
405.09	16362.69
405.28	16088.84
405.47	15922.66
405.66	15892.24
405.85	15520.09
406.05	15073.05
406.24	15143.27
406.43	16058.42
406.62	16554.61
406.81	16566.31
407.00	16077.14
407.20	15545.84
407.39	15817.34
407.58	16599.08
407.77	17254.43
407.96	17715.51
408.15	17727.22
408.34	17933.18
408.54	18803.86
408.73	18995.79
408.92	18401.29
409.11	18087.66
409.30	17135.06
409.49	16182.46
409.68	14899.85
409.87	14373.23
410.07	15686.27
410.26	16673.98
410.45	18003.40
410.64	18274.90
410.83	19056.64
411.02	19623.05
411.21	19995.20
411.40	19948.39
411.59	20247.97
411.78	19721.35
411.98	19569.22
412.17	19981.15
412.36	19606.67
412.55	19496.66
412.74	19150.26
412.93	18633.00
413.12	19154.94
413.31	20664.59
413.50	20968.86
413.69	20975.88
413.88	20271.38
414.07	20161.37
414.26	20144.99
414.45	20809.70
414.64	21130.36
414.83	21165.46
415.02	20465.64
415.22	20622.46
415.41	21139.72
415.60	21692.08
415.79	22427.01
415.98	22902.14
416.17	23288.33
416.36	22263.18
416.55	22342.75
416.74	21249.72
416.93	20475.01
417.12	21123.33
417.31	21287.17
417.50	21460.37
417.69	22284.24
417.88	22239.77
418.07	21799.75
418.26	21598.46
418.45	21989.33
418.64	22628.30
418.83	23447.49
419.02	22906.82
419.21	22838.95
419.39	21743.58
419.58	20924.39
419.77	20753.53
419.96	22061.89
420.15	23400.68
420.34	24100.50
420.53	24421.15
420.72	24797.98
420.91	25078.84
421.10	24151.99
421.29	24065.39
421.48	23358.55
421.67	24685.63
421.86	24084.11
422.05	22162.53
422.24	20212.87
422.43	19728.38
422.61	22043.17
422.80	23550.47
422.99	23672.18
423.18	22881.08
423.37	22773.41
423.56	22192.96
423.75	22656.39
423.94	23564.51
424.13	22012.74
424.32	22192.96
424.50	22530.00
424.69	21839.54
424.88	22263.18
425.07	22204.66
425.26	22183.60
425.45	21640.59
425.64	21383.13
425.83	21619.53
426.01	22796.82
426.20	23030.87
426.39	23190.03
426.58	21284.83
426.77	19728.38
426.96	19154.94
427.15	19985.83
427.33	21352.71
427.52	22178.92
427.71	22782.77
427.90	22286.58
428.09	22321.69
428.28	21455.69
428.46	20812.04
428.65	20332.23
428.84	21092.91
429.03	21612.51
429.22	20343.94
429.40	19021.53
429.59	17397.20
429.78	15281.36
429.97	15492.01
430.16	15484.98
430.34	15702.65
430.53	15761.17
430.72	16074.80
430.91	17823.18
431.10	20992.26
431.28	24519.45
431.47	26401.24
431.66	26679.77
431.85	24400.08
432.03	22118.06
432.22	21312.92
432.41	22609.58
432.60	24573.28
432.79	26146.12
432.97	26684.45
433.16	25830.15
433.35	23601.96
433.54	21041.42
433.72	19934.34
433.91	20402.45
434.10	23225.14
434.28	24805.00
434.47	26382.52
434.66	25439.28
434.85	24634.14
435.03	24931.39
435.22	25336.30
435.41	27014.46
435.59	27094.04
435.78	27332.78
435.97	28107.49
436.16	28292.40
436.34	27941.32
436.53	27115.11
436.72	27236.81
436.90	25860.58
437.09	25607.80
437.28	25495.46
437.46	26265.49
437.65	26190.59
437.84	23960.06
438.02	22534.68
438.21	22225.73
438.40	23566.85
438.58	25282.47
438.77	26246.77
438.96	26632.96
439.14	27386.61
439.33	27997.49
439.52	28519.43
439.70	27899.19
439.89	27566.83
440.08	26639.98
440.26	26665.72
440.45	26937.23
440.63	29181.80
440.82	30834.22
441.01	30284.19
441.19	30174.19
441.38	30494.84
441.57	31496.59
441.75	32037.25
441.94	32645.79
442.12	32058.32
442.31	32694.94
442.50	32683.24
442.68	32208.11
442.87	31503.61
443.05	31283.60
443.24	31910.86
443.43	32339.18
443.61	33067.09
443.80	33661.58
443.98	31740.00
444.17	31810.22
444.35	33282.42
444.54	33905.00
444.73	33256.67
444.91	31971.72
445.10	30686.76
445.28	29949.50
445.47	29397.13
445.65	29717.78
445.84	30204.61
446.02	31400.63
446.21	31758.73
446.39	31817.24
446.58	32271.31
446.77	32559.19
446.95	32959.42
447.14	33666.27
447.32	34785.04
447.51	34003.30
447.69	32325.14
447.88	32491.32
448.06	32418.76
448.25	33153.69
448.43	34012.66
448.62	32943.04
448.80	32851.76
448.99	33092.83
449.17	33411.15
449.36	33305.82
449.54	34600.14
449.73	35445.07
449.91	35108.04
450.10	36627.04
450.28	36903.23
450.46	36978.12
450.65	36205.75
450.83	36563.85
451.02	35299.96
451.20	35662.74
451.39	35604.23
451.57	35306.98
451.76	35386.56
451.94	35402.94
452.13	34288.85
452.31	33010.92
452.49	31501.27
452.68	31491.91
452.86	31716.60
453.05	32034.91
453.23	33682.65
453.42	33773.93
453.60	34621.20
453.78	35239.11
453.97	34794.40
454.15	34904.41
454.34	34064.16
454.52	34146.08
454.70	33855.85
454.89	33790.31
455.07	34103.95
455.26	34302.89
455.44	35646.36
455.62	36659.81
455.81	36580.23
455.99	36470.23
456.17	36194.04
456.36	36414.05
456.54	37280.05
456.73	36889.18
456.91	37638.15
457.09	37809.01
457.28	38251.38
457.46	36730.03
457.64	36500.65
457.83	36016.16
458.01	35246.13
458.19	35761.05
458.38	36533.42
458.56	37443.89
458.74	37111.53
458.93	36573.21
459.11	36315.75
459.29	36446.82
459.48	36304.05
459.66	36177.66
459.84	36409.37
460.03	36928.97
460.21	36928.97
460.39	37661.56
460.57	37743.48
460.76	38583.73
460.94	38298.19
461.12	37467.30
461.31	38202.22
461.49	38417.55
461.67	37813.70
461.85	38990.98
462.04	39131.42
462.22	39206.31
462.40	38998.01
462.59	38890.34
462.77	38827.15
462.95	38775.66
463.13	38410.53
463.32	38342.66
463.50	37972.85
463.68	37975.19
463.86	38267.76
464.05	37584.32
464.23	36833.01
464.41	36751.09
464.59	36297.03
464.78	37617.09
464.96	37420.48
465.14	37303.46
465.32	38476.07
465.50	39028.43
465.69	39246.10
465.87	39026.09
466.05	37708.37
466.23	36004.46
466.41	35344.43
466.60	36605.98
466.78	36659.81
466.96	37139.62
467.14	37909.66
467.32	37965.83
467.51	38183.50
467.69	36336.82
467.87	37202.82
468.05	38239.67
468.23	37991.58
468.41	38031.36
468.60	37890.93
468.78	38029.02
468.96	37713.05
469.14	38714.80
469.32	38536.92
469.50	37104.51
469.69	37521.13
469.87	36957.06
470.05	36781.52
470.23	36818.97
470.41	36624.70
470.59	37345.59
470.77	37867.53
470.95	38827.15
471.14	38632.88
471.32	38651.61
471.50	41008.53
471.68	40975.76
471.86	41134.92
472.04	41603.02
472.22	41275.35
472.40	40002.10
472.58	39236.74
472.77	38883.32
472.95	39880.39
473.13	40893.84
473.31	39941.24
473.49	39768.04
473.67	40371.90
473.85	41163.00
474.03	42080.49
474.21	41933.04
474.39	42359.02
474.57	42581.37
474.75	42464.34
474.93	42206.88
475.12	40968.74
475.30	41668.56
475.48	41425.14
475.66	42124.96
475.84	41979.85
476.02	41408.76
476.20	40491.27
476.38	41631.11
476.56	42890.32
476.74	43131.39
476.92	43487.15
477.10	44037.18
477.28	45216.81
477.46	44975.73
477.64	45488.31
477.82	45909.61
478.00	46134.30
478.18	45371.28
478.36	45050.63
478.54	44807.22
478.72	45088.08
478.90	46487.72
479.08	47356.06
479.26	48205.67
479.44	48121.41
479.62	48037.16
479.80	47737.57
479.98	47845.23
480.16	48163.54
480.34	47592.45
480.52	47807.78
480.70	48318.02
480.88	48428.02
481.06	49322.11
481.24	48931.24
481.41	50071.08
481.59	50639.83
481.77	50188.11
481.95	49633.40
482.13	49947.03
482.31	49731.70
482.49	50241.94
482.67	50295.77
482.85	50815.37
483.03	51159.43
483.21	51217.94
483.39	51480.08
483.57	50625.79
483.74	50813.03
483.92	50700.68
484.10	51061.13
484.28	51770.31
484.46	52072.24
484.64	52465.45
484.82	51487.10
485.00	51274.12
485.18	50319.18
485.35	49397.01
485.53	45890.88
485.71	42377.74
485.89	42085.17
486.07	44203.36
486.25	48020.77
486.43	49429.77
486.61	50632.81
486.78	50181.09
486.96	50539.19
487.14	52018.41
487.32	52664.39
487.50	53769.13
487.68	54106.16
487.85	54677.25
488.03	54501.71
488.21	54436.18
488.39	53525.71
488.57	52928.87
488.75	52556.73
488.92	54010.20
489.10	55948.17
489.28	56793.10
489.46	57347.81
489.64	57190.99
489.81	57432.07
489.99	56884.38
490.17	56926.51
490.35	57359.51
490.53	57013.11
490.70	56769.69
490.88	56463.08
491.06	57420.36
491.24	57249.50
491.41	56313.29
491.59	55114.94
491.77	54541.50
491.95	55547.93
492.13	56353.08
492.30	57556.11
492.48	58438.50
492.66	58717.02
492.84	58810.64
493.01	58370.62
493.19	57799.53
493.37	57516.32
493.54	57558.45
493.72	58127.20
493.90	58946.39
494.08	59700.04
494.25	59767.92
494.43	60013.68
494.61	60385.82
494.79	60268.79
494.96	60287.52
495.14	59566.63
495.32	58812.98
495.49	58438.50
495.67	59264.70
495.85	60505.19
496.02	60743.92
496.20	60664.35
496.38	60299.22
496.55	60041.76
496.73	60589.45
496.91	60470.08
497.09	61027.13
497.26	61434.38
497.44	60673.71
497.62	60477.10
497.79	59796.01
497.97	58719.36
498.14	58625.74
498.32	59889.63
498.50	60741.58
498.67	61062.24
498.85	61066.92
499.03	61062.24
499.20	61310.33
499.38	61382.89
499.56	61160.54
499.73	60814.14
499.91	60355.39
500.08	59880.27
500.26	59234.28
500.44	59849.84
500.61	60610.51
500.79	59997.29
500.97	59807.71
501.14	59884.95
501.32	59664.94
501.49	59770.26
501.67	59901.33
501.84	60397.52
502.02	60500.51
502.20	60825.84
502.37	61099.68
502.55	61221.39
502.72	61619.28
502.90	61996.11
503.07	61661.41
503.25	61352.46
503.43	60465.40
503.60	59861.54
503.78	59290.45
503.95	59997.29
504.13	61282.25
504.30	61984.41
504.48	61492.89
504.65	61233.10
504.83	61380.55
505.01	61949.30
505.18	62370.60
505.36	62794.23
505.53	62845.72
505.71	63063.39
505.88	62927.64
506.06	62342.51
506.23	61982.07
506.41	61731.63
506.58	62218.46
506.76	61972.70
506.93	62054.62
507.11	61813.55
507.28	61984.41
507.46	61516.30
507.63	61165.22
507.81	60891.38
507.98	61027.13
508.16	61724.61
508.33	62094.41
508.50	62433.79
508.68	62649.12
508.85	63260.00
509.03	63222.55
509.20	63047.01
509.38	62209.10
509.55	61556.09
509.73	61879.08
509.90	62279.31
510.08	62555.50
510.25	62424.43
510.42	62368.26
510.60	62049.94
510.77	62461.88
510.95	63051.69
511.12	63091.48
511.30	63199.15
511.47	63470.65
511.64	63458.94
511.82	63131.27
511.99	62482.94
512.17	62103.77
512.34	61848.66
512.51	62014.83
512.69	62138.88
512.86	62298.04
513.04	62447.83
513.21	62557.84
513.38	62234.84
513.56	61907.17
513.73	61268.20
513.90	61558.43
514.08	61663.75
514.25	61855.68
514.43	62082.71
514.60	62134.20
514.77	62260.59
514.95	62162.29
515.12	62284.00
515.29	62454.86
515.47	62913.60
515.64	63229.57
515.81	62770.83
515.99	62227.82
516.16	60963.93
516.33	58922.99
516.51	57525.69
516.68	56952.26
516.85	56631.60
517.03	57422.70
517.20	59449.61
517.37	61731.63
517.54	62403.36
517.72	61759.72
517.89	59531.53
518.06	57647.39
518.24	58323.81
518.41	59922.40
518.58	61066.92
518.75	61284.59
518.93	61373.53
519.10	61268.20
519.27	61888.45
519.45	61846.32
519.62	62522.73
519.79	63032.97
519.96	62850.41
520.14	62412.73
520.31	61443.74
520.48	61600.56
520.65	61883.76
520.83	62726.36
521.00	63039.99
521.17	62714.65
521.34	62548.48
521.52	62803.59
521.69	63224.89
521.86	63470.65
522.03	63309.15
522.20	62148.24
522.38	61244.80
522.55	61427.36
522.72	61876.74
522.89	62019.52
523.07	62113.14
523.24	62440.81
523.41	63384.05
523.58	63531.50
523.75	63859.18
523.92	63887.26
524.10	63854.50
524.27	63847.47
524.44	63688.32
524.61	63402.77
524.78	63318.51
524.96	63133.61
525.13	63213.19
525.30	63393.41
525.47	63831.09
525.64	63674.27
525.81	62932.32
525.98	61801.85
526.16	60509.87
526.33	60051.12
526.50	59760.90
526.67	59458.97
526.84	59934.10
527.01	60884.36
527.18	61696.52
527.36	62323.78
527.53	63222.55
527.70	63210.85
527.87	62700.61
528.04	62419.75
528.21	63004.88
528.38	63512.78
528.55	63973.86
528.72	64137.70
528.89	64479.42
529.07	63987.91
529.24	63585.33
529.41	62887.85
529.58	62508.69
529.75	62621.03
529.92	63149.99
530.09	63409.79
530.26	63730.45
530.43	64004.29
530.60	64165.79
530.77	64320.26
530.94	64310.90
531.11	63810.03
531.28	63632.14
531.46	63529.16
531.63	63592.36
531.80	63402.77
531.97	62981.48
532.14	62218.46
532.31	61368.85
532.48	60795.42
532.65	60800.10
532.82	61755.03
532.99	62819.98
533.16	63196.80
533.33	63501.07
533.50	63262.34
533.67	62780.19
533.84	62522.73
534.01	62639.76
534.18	62794.23
534.35	62958.07
534.52	62791.89
534.69	63126.59
534.86	63337.24
535.03	63582.99
535.20	64006.63
535.37	64310.90
535.54	64418.56
535.71	63898.97
535.88	63676.61
536.05	63054.03
536.22	62614.01
536.38	62506.35
536.55	62066.33
536.72	61661.41
536.89	61682.48
537.06	62412.73
537.23	63203.83
537.40	63538.52
537.57	63594.70
537.74	63105.52
537.91	62885.51
538.08	63061.05
538.25	62995.52
538.42	63325.53
538.59	63023.61
538.75	62557.84
538.92	62347.19
539.09	62241.87
539.26	62047.60
539.43	61867.38
539.60	62017.17
539.77	62342.51
539.94	62157.61
540.11	61183.94
540.28	60898.40
540.44	61083.30
540.61	61226.07
540.78	61303.31
540.95	61722.27
541.12	61961.00
541.29	62363.57
541.46	62637.42
541.62	62810.62
541.79	62518.05
541.96	61904.83
542.13	62099.09
542.30	62138.88
542.47	62595.29
542.63	62173.99
542.80	62087.39
542.97	62159.95
543.14	61975.05
543.31	62012.49
543.48	62611.67
543.64	63353.62
543.81	63515.12
543.98	63260.00
544.15	62618.69
544.32	62103.77
544.48	62382.30
544.65	62646.78
544.82	63068.08
544.99	62614.01
545.16	62417.41
545.32	62143.56
545.49	62913.60
545.66	63238.93
545.83	62794.23
546.00	62499.33
546.16	62124.84
546.33	62225.48
546.50	62337.83
546.67	62756.78
546.83	62309.74
547.00	62548.48
547.17	61921.21
547.34	61499.92
547.50	61385.23
547.67	61652.05
547.84	61605.24
548.00	62092.07
548.17	62567.20
548.34	62316.76
548.51	62344.85
548.67	62396.34
548.84	62375.28
549.01	62557.84
549.18	62251.23
549.34	62152.93
549.51	62330.81
549.68	62134.20
549.84	61923.55
550.01	61883.76
550.18	61879.08
550.34	61883.76
550.51	62042.92
550.68	62195.06
550.84	61598.22
551.01	61614.60
551.18	61520.98
551.34	61843.98
551.51	62232.50
551.68	62508.69
551.84	62419.75
552.01	62042.92
552.18	62068.67
552.34	61366.51
552.51	61104.37
552.68	61195.65
552.84	61464.81
553.01	61684.82
553.18	61532.68
553.34	61712.91
553.51	61911.85
553.67	62199.74
553.84	62176.33
554.01	61829.93
554.17	61874.40
554.34	62110.80
554.51	62251.23
554.67	62506.35
554.84	62286.34
555.00	62155.27
555.17	61914.19
555.33	61598.22
555.50	61708.22
555.67	61729.29
555.83	61530.34
556.00	61102.03
556.16	61284.59
556.33	60872.65
556.50	60945.21
556.66	60917.12
556.83	60449.02
556.99	60743.92
557.16	60809.46
557.32	61043.51
557.49	61343.10
557.65	61345.44
557.82	61160.54
557.98	61102.03
558.15	60629.24
558.32	59856.86
558.48	59217.89
558.65	59620.47
558.81	59835.80
558.98	60083.89
559.14	60357.74
559.31	60364.76
559.47	60282.84
559.64	59873.24
559.80	59711.75
559.97	59852.18
560.13	60170.49
560.30	60994.36
560.46	61284.59
560.63	61759.72
560.79	61581.84
560.96	61249.48
561.12	60310.92
561.29	59409.82
561.45	59536.21
561.61	60039.42
561.78	60554.34
561.94	60526.25
562.11	60109.64
562.27	60292.20
562.44	60575.40
562.60	60570.72
562.77	60804.78
562.93	60743.92
563.10	60566.04
563.26	60161.13
563.42	60210.28
563.59	60158.79
563.75	59990.27
563.92	60168.15
564.08	60196.24
564.24	60289.86
564.41	60341.35
564.57	60444.33
564.74	60097.94
564.90	60121.34
565.07	59805.37
565.23	59346.62
565.39	59025.97
565.56	59096.19
565.72	58843.41
565.88	59070.44
566.05	59047.04
566.21	59405.14
566.38	59360.67
566.54	59700.04
566.70	60048.78
566.87	60067.51
567.03	59884.95
567.19	60486.46
567.36	60020.70
567.52	59835.80
567.68	59576.00
567.85	58922.99
568.01	58866.81
568.17	58459.56
568.34	58344.87
568.50	58468.92
568.66	58501.69
568.83	58855.11
568.99	58951.07
569.15	59185.13
569.32	59150.02
569.48	59037.67
569.64	58878.52
569.81	58398.71
569.97	58529.78
570.13	58281.68
570.30	57907.19
570.46	57712.93
570.62	57118.43
570.78	57174.61
570.95	57504.62
571.11	58052.31
571.27	58197.42
571.43	58337.85
571.60	58822.34
571.76	58642.12
571.92	58988.52
572.09	59082.14
572.25	59194.49
572.41	59030.65
572.57	59032.99
572.74	59016.61
572.90	58431.47
573.06	58440.84
573.22	58794.26
573.38	58714.68
573.55	58450.20
573.71	58616.38
573.87	58611.70
574.03	58482.97
574.20	58642.12
574.36	58197.42
574.52	58272.32
574.68	57935.28
574.84	57605.26
575.01	57130.14
575.17	57258.87
575.33	57528.03
575.49	57600.58
575.65	57724.63
575.82	57586.54
575.98	57270.57
576.14	57684.84
576.30	57710.59
576.46	58113.16
576.62	57876.77
576.79	57986.77
576.95	57792.51
577.11	57425.04
577.27	57553.77
577.43	57712.93
577.59	57411.00
577.75	56978.00
577.92	56388.19
578.08	56058.17
578.24	56411.59
578.40	56715.86
578.56	56933.53
578.72	56783.74
578.88	57069.28
579.04	57340.78
579.21	57233.12
579.37	57279.93
579.53	57228.44
579.69	57181.63
579.85	57551.43
580.01	57371.21
580.17	56970.98
580.33	56683.09
580.49	56797.78
580.65	57446.11
580.82	57446.11
580.98	57162.90
581.14	57045.88
581.30	57186.31
581.46	57022.47
581.62	57457.81
581.78	57221.42
581.94	57528.03
582.10	57345.47
582.26	57467.17
582.42	57478.88
582.58	57387.60
582.74	57293.97
582.90	57485.90
583.06	57441.43
583.22	57272.91
583.38	57406.32
583.54	57308.02
583.70	57010.77
583.86	57141.84
584.02	57088.01
584.18	57312.70
584.34	57247.16
584.50	57113.75
584.66	56844.59
584.82	56718.20
584.98	56463.08
585.14	56339.04
