SpectraSuite Data File
++++++++++++++++++++++++++++++++++++
Date: Mon Oct 07 14:53:27 GMT-05:00 2013
User: price-jones
Dark Spectrum Present: No
Reference Spectrum Present: No
Number of Sampled Component Spectra: 1
Spectrometers: USB2+H05261
Integration Time (usec): 100000 (USB2+H05261)
Spectra Averaged: 1 (USB2+H05261)
Boxcar Smoothing: 0 (USB2+H05261)
Correct for Electrical Dark: No (USB2+H05261)
Strobe/Lamp Enabled: No (USB2+H05261)
Correct for Detector Non-linearity: No (USB2+H05261)
Correct for Stray Light: No (USB2+H05261)
Number of Pixels in Processed Spectrum: 2048
>>>>>Begin Processed Spectral Data<<<<<
365.73	0.00
365.92	0.00
366.12	0.00
366.32	0.00
366.52	0.00
366.72	0.00
366.91	0.00
367.11	0.00
367.31	0.00
367.51	0.00
367.70	0.00
367.90	0.00
368.10	0.00
368.30	0.00
368.49	0.00
368.69	0.00
368.89	0.00
369.09	0.00
369.28	0.00
369.48	0.00
369.68	0.00
369.87	0.00
370.07	0.00
370.27	0.00
370.47	566.41
370.66	3124.62
370.86	3688.68
371.06	4074.87
371.25	4205.94
371.45	3644.21
371.65	3403.14
371.84	3187.81
372.04	3321.22
372.24	3709.75
372.44	3770.60
372.63	3911.04
372.83	3613.79
373.03	3204.19
373.22	2862.48
373.42	3082.49
373.62	3466.33
373.81	3791.67
374.01	3868.91
374.21	3531.87
374.40	3272.07
374.60	3386.76
374.79	3644.21
374.99	4236.37
375.19	4683.41
375.38	4674.05
375.58	4360.42
375.78	4397.87
375.97	4435.32
376.17	4667.03
376.37	4535.96
376.56	4770.01
376.76	5048.54
376.95	5289.61
377.15	5638.35
377.35	6024.54
377.54	6083.05
377.74	6118.16
377.93	6237.53
378.13	5947.30
378.33	5776.44
378.52	5441.75
378.72	5109.39
378.91	5128.11
379.11	4978.32
379.31	4777.03
379.50	4720.86
379.70	5186.63
379.89	5638.35
380.09	5937.94
380.28	6246.89
380.48	6031.56
380.68	5961.34
380.87	5811.55
381.07	5322.38
381.26	5039.17
381.46	4737.24
381.65	4599.15
381.85	4358.08
382.04	4421.27
382.24	3925.08
382.43	3801.03
382.63	3616.13
382.83	3709.75
383.02	3805.71
383.22	3815.07
383.41	3768.26
383.61	4035.08
383.80	4578.09
384.00	5245.14
384.19	5849.00
384.39	6024.54
384.58	6069.01
384.78	5982.41
384.97	5884.11
385.17	5530.69
385.36	5380.89
385.56	5032.15
385.75	5313.02
385.95	5760.06
386.14	6389.66
386.34	6490.31
386.53	6026.88
386.72	5703.89
386.92	5738.99
387.11	6019.86
387.31	6155.61
387.50	6183.70
387.70	5881.77
387.89	5823.25
388.09	6080.71
388.28	6143.91
388.48	6015.18
388.67	6530.09
388.86	7260.34
389.06	7871.22
389.25	7981.23
389.45	8173.15
389.64	8168.47
389.84	7927.39
390.03	7726.11
390.22	7796.32
390.42	8175.49
390.61	8688.07
390.81	9181.92
391.00	9474.49
391.19	9455.76
391.39	9078.94
391.58	8407.20
391.78	7950.80
391.97	7962.50
392.16	7323.54
392.36	6715.00
392.55	5423.02
392.75	4231.69
392.94	3440.59
393.13	3339.94
393.33	4002.32
393.52	5245.14
393.71	6342.85
393.91	6944.37
394.10	7709.72
394.29	8613.17
394.49	9249.80
394.68	10045.58
394.88	9818.55
395.07	10207.08
395.26	10040.90
395.46	9996.43
395.65	9219.37
395.84	8285.50
396.04	6949.05
396.23	5504.94
396.42	4798.10
396.62	4386.16
396.81	5214.71
397.00	6707.98
397.19	8458.70
397.39	10066.64
397.58	11154.99
397.77	11861.84
397.97	12531.23
398.16	12313.56
398.35	12980.61
398.55	13345.73
398.74	13757.67
398.93	14083.00
399.12	14115.77
399.32	13284.88
399.51	13650.00
399.70	14679.84
399.90	14249.18
400.09	14401.32
400.28	14375.57
400.47	14434.08
400.67	15272.00
400.86	15620.74
401.05	15559.88
401.24	15913.30
401.44	15847.77
401.63	16189.49
401.82	16044.37
402.01	16248.00
402.21	16388.43
402.40	16243.32
402.59	15695.63
402.78	15035.60
402.97	14703.25
403.17	14972.41
403.36	16081.82
403.55	17083.57
403.74	17132.72
403.93	16098.20
404.13	15178.37
404.32	14604.94
404.51	15159.65
404.70	16823.77
404.89	16358.00
405.09	16353.32
405.28	15929.69
405.47	15815.00
405.66	15829.04
405.85	15611.37
406.05	15154.97
406.24	15157.31
406.43	16123.95
406.62	16713.77
406.81	16624.83
407.00	16098.20
407.20	15594.99
407.39	15758.83
407.58	16472.69
407.77	16987.61
407.96	17706.15
408.15	17996.38
408.34	17818.50
408.54	18946.64
408.73	18822.59
408.92	18583.85
409.11	18108.72
409.30	17088.25
409.49	16020.97
409.68	15122.20
409.87	14551.11
410.07	15452.22
410.26	16723.13
410.45	17647.64
410.64	18183.62
410.83	18794.50
411.02	19091.75
411.21	20198.82
411.40	19901.58
411.59	19726.04
411.78	19442.83
411.98	19541.13
412.17	19796.25
412.36	19309.42
412.55	19662.84
412.74	19311.76
412.93	18600.24
413.12	18876.42
413.31	20767.57
413.50	20744.17
413.69	21355.05
413.88	20372.02
414.07	19875.83
414.26	20037.33
414.45	20577.99
414.64	20819.07
414.83	20952.48
415.02	20418.83
415.22	20432.88
415.41	20912.69
415.60	21579.74
415.79	22207.00
415.98	22394.25
416.17	23110.45
416.36	22279.56
416.55	22038.48
416.74	20945.45
416.93	20744.17
417.12	20561.61
417.31	20725.44
417.50	21078.86
417.69	22087.64
417.88	22019.76
418.07	21912.10
418.26	21516.54
418.45	21675.70
418.64	22085.30
418.83	23140.88
419.02	22792.14
419.21	22565.10
419.39	21963.59
419.58	20343.94
419.77	20725.44
419.96	21628.89
420.15	22782.77
420.34	23300.03
420.53	24290.08
420.72	24702.01
420.91	24142.63
421.10	24343.91
421.29	24231.57
421.48	23344.50
421.67	24095.82
421.86	23866.44
422.05	21804.43
422.24	19506.02
422.43	19646.46
422.61	21411.22
422.80	23470.89
422.99	23899.21
423.18	22455.10
423.37	22190.62
423.56	22274.88
423.75	22635.32
423.94	23002.78
424.13	21830.18
424.32	21933.16
424.50	22469.14
424.69	21465.05
424.88	22075.93
425.07	21708.47
425.26	21682.72
425.45	21921.46
425.64	20978.22
425.83	21425.26
426.01	22199.98
426.20	23009.81
426.39	22834.27
426.58	21490.80
426.77	19454.53
426.96	18867.06
427.15	19506.02
427.33	21284.83
427.52	21949.54
427.71	22162.53
427.90	21745.92
428.09	21734.21
428.28	21156.10
428.46	20540.54
428.65	20343.94
428.84	20596.71
429.03	21263.77
429.22	19939.02
429.40	18843.65
429.59	17315.28
429.78	15159.65
429.97	15056.67
430.16	15461.58
430.34	15576.27
430.53	15363.28
430.72	15641.80
430.91	17163.15
431.10	20540.54
431.28	24285.40
431.47	26111.02
431.66	26576.78
431.85	24271.36
432.03	21963.59
432.22	21109.29
432.41	21900.39
432.60	24666.91
432.79	25605.46
432.97	25886.32
433.16	25186.50
433.35	23356.21
433.54	20746.51
433.72	19571.56
433.91	20114.56
434.10	22597.87
434.28	24180.07
434.47	25610.14
434.66	25130.33
434.85	24538.18
435.03	24224.54
435.22	24910.32
435.41	26595.51
435.59	26572.10
435.78	26918.50
435.97	27718.96
436.16	27704.92
436.34	27171.28
436.53	26532.31
436.72	26483.16
436.90	25340.98
437.09	25298.85
437.28	24744.14
437.46	25771.64
437.65	25757.60
437.84	23920.28
438.02	21715.49
438.21	21902.73
438.40	22867.03
438.58	25333.96
438.77	25642.91
438.96	25736.53
439.14	27161.92
439.33	27873.44
439.52	28039.62
439.70	27569.17
439.89	26607.21
440.08	26127.40
440.26	26141.44
440.45	26735.94
440.63	28393.04
440.82	30305.26
441.01	29565.65
441.19	29490.75
441.38	29670.97
441.57	30850.60
441.75	31562.12
441.94	31660.43
442.12	31047.21
442.31	31983.42
442.50	31740.00
442.68	31601.91
442.87	31129.12
443.05	30419.94
443.24	31260.20
443.43	31519.99
443.61	32849.42
443.80	32568.55
443.98	30476.12
444.17	30946.56
444.35	32697.28
444.54	33385.40
444.73	32498.34
444.91	31337.43
445.10	30150.78
445.28	29301.17
445.47	28549.85
445.65	28950.09
445.84	29982.26
446.02	30672.72
446.21	30845.92
446.39	31180.62
446.58	31417.01
446.77	32416.42
446.95	32493.66
447.14	33167.73
447.32	33663.93
447.51	32680.90
447.69	31632.34
447.88	31405.31
448.06	31681.49
448.25	32498.34
448.43	32851.76
448.62	32065.34
448.80	31622.98
448.99	32589.62
449.17	32837.72
449.36	32048.96
449.54	34019.69
449.73	34263.10
449.91	34448.00
450.10	35751.68
450.28	36189.36
450.46	35957.65
450.65	35941.27
450.83	35421.67
451.02	34801.43
451.20	34630.57
451.39	34534.60
451.57	34291.19
451.76	34445.66
451.94	34326.30
452.13	33333.91
452.31	32027.89
452.49	30555.69
452.68	31007.42
452.86	30995.71
453.05	31147.85
453.23	32240.88
453.42	33116.24
453.60	34103.95
453.78	33961.17
453.97	33748.18
454.15	34000.96
454.34	33373.70
454.52	33008.58
454.70	32936.02
454.89	33399.44
455.07	33195.82
455.26	33668.61
455.44	34672.70
455.62	35391.24
455.81	35828.92
455.99	35208.68
456.17	34670.36
456.36	35126.76
456.54	35936.59
456.73	36252.56
456.91	36706.62
457.09	36968.76
457.28	37773.91
457.46	36009.14
457.64	36161.28
457.83	34696.10
458.01	33642.86
458.19	35189.95
458.38	35007.39
458.56	36163.62
458.74	36081.70
458.93	35747.00
459.11	35304.64
459.29	34946.54
459.48	35044.84
459.66	34714.83
459.84	35349.11
460.03	35959.99
460.21	35821.90
460.39	36753.43
460.57	36531.08
460.76	37233.24
460.94	37553.90
461.12	36919.61
461.31	36818.97
461.49	36634.06
461.67	37202.82
461.85	38010.30
462.04	37703.69
462.22	38183.50
462.40	37661.56
462.59	37762.20
462.77	38005.62
462.95	37668.58
463.13	37357.29
463.32	36884.50
463.50	36458.52
463.68	36870.46
463.86	36931.31
464.05	36187.02
464.23	35473.16
464.41	35524.65
464.59	34873.98
464.78	36650.45
464.96	36598.96
465.14	35967.01
465.32	37139.62
465.50	37883.91
465.69	38445.64
465.87	37691.99
466.05	36437.46
466.23	35271.87
466.41	33979.90
466.60	34923.13
466.78	34693.76
466.96	35606.57
467.14	36638.75
467.32	36898.55
467.51	37148.98
467.69	35227.40
467.87	35889.77
468.05	36072.34
468.23	36383.63
468.41	36322.77
468.60	36402.35
468.78	36746.41
468.96	36126.17
469.14	37446.23
469.32	37280.05
469.50	35821.90
469.69	36013.82
469.87	35431.03
470.05	35281.24
470.23	35646.36
470.41	35545.72
470.59	35775.09
470.77	36030.21
470.95	36748.75
471.14	37376.01
471.32	37347.93
471.50	39894.43
471.68	39489.52
471.86	39686.12
472.04	39974.01
472.22	39887.41
472.40	38309.89
472.58	37912.00
472.77	37656.88
472.95	38497.13
473.13	38885.66
473.31	38101.58
473.49	38249.03
473.67	39299.94
473.85	39290.57
474.03	40224.45
474.21	40339.13
474.39	40554.46
474.57	41298.75
474.75	40884.48
474.93	40811.92
475.12	39887.41
475.30	40128.48
475.48	39880.39
475.66	40767.45
475.84	40404.67
476.02	39910.82
476.20	39154.82
476.38	40027.84
476.56	41102.15
476.74	41598.34
476.92	41895.59
477.10	42274.76
477.28	43672.06
477.46	43667.37
477.64	44137.82
477.82	44233.78
478.00	44423.37
478.18	43540.99
478.36	43304.59
478.54	43414.60
478.72	43842.92
478.90	44928.92
479.08	45563.21
479.26	46384.74
479.44	46232.60
479.62	45820.67
479.80	45748.11
479.98	45923.65
480.16	46576.66
480.34	46010.25
480.52	46756.88
480.70	46494.74
480.88	46859.87
481.06	47498.83
481.24	47976.30
481.41	48769.74
481.59	48933.58
481.77	49148.91
481.95	48289.93
482.13	48357.81
482.31	48149.50
482.49	49146.57
482.67	48917.20
482.85	48854.00
483.03	49556.16
483.21	49839.37
483.39	49872.14
483.57	49198.06
483.74	48938.26
483.92	49160.61
484.10	49216.78
484.28	50335.56
484.46	50424.50
484.64	50997.93
484.82	50129.59
485.00	49689.57
485.18	49303.38
485.35	47702.46
485.53	44832.96
485.71	40884.48
485.89	40367.22
486.07	42536.90
486.25	45549.17
486.43	48205.67
486.61	49010.82
486.78	48917.20
486.96	48678.46
487.14	50258.32
487.32	51107.94
487.50	52182.24
487.68	52832.91
487.85	53301.02
488.03	52971.00
488.21	52985.05
488.39	52254.80
488.57	51613.49
488.75	51400.50
488.92	52563.75
489.10	54363.62
489.28	55423.89
489.46	56212.65
489.64	55929.44
489.81	56219.67
489.99	55688.37
490.17	55875.61
490.35	56006.68
490.53	55683.69
490.70	55281.11
490.88	55136.00
491.06	56126.05
491.24	56303.93
491.41	55295.16
491.59	53689.55
491.77	53312.72
491.95	54197.44
492.13	55203.88
492.30	56072.21
492.48	57158.22
492.66	57214.40
492.84	57542.07
493.01	57265.89
493.19	56671.39
493.37	56346.06
493.54	56226.69
493.72	56725.22
493.90	57666.12
494.08	58286.36
494.25	58543.82
494.43	58726.38
494.61	58979.16
494.79	59236.62
494.96	58820.00
495.14	58342.53
495.32	57551.43
495.49	57059.92
495.67	57939.96
495.85	59161.72
496.02	59739.83
496.20	59262.36
496.38	59035.33
496.55	58990.86
496.73	59391.09
496.91	59292.79
497.09	60140.07
497.26	60149.43
497.44	59454.29
497.62	59164.06
497.79	58571.91
497.97	57413.34
498.14	57399.30
498.32	58597.65
498.50	59358.33
498.67	59917.71
498.85	59707.07
499.03	59980.91
499.20	60266.45
499.38	59983.25
499.56	60069.85
499.73	59489.40
499.91	59245.98
500.08	58784.90
500.26	57935.28
500.44	58466.58
500.61	59128.95
500.79	59185.13
500.97	58707.66
501.14	58527.44
501.32	58326.15
501.49	58419.77
501.67	58511.05
501.84	59016.61
502.02	59386.41
502.20	59423.86
502.37	59786.64
502.55	59686.00
502.72	60294.54
502.90	60640.94
503.07	60287.52
503.25	60086.23
503.43	59238.96
503.60	58555.52
503.78	57773.78
503.95	58557.86
504.13	59674.30
504.30	60444.33
504.48	60439.65
504.65	59807.71
504.83	59950.48
505.01	60502.85
505.18	60863.29
505.36	61425.02
505.53	61371.19
505.71	61694.18
505.88	61928.23
506.06	61055.21
506.23	61048.19
506.41	60626.90
506.58	60788.39
506.76	60704.13
506.93	60776.69
507.11	60467.74
507.28	60582.43
507.46	59929.42
507.63	59615.79
507.81	59428.54
507.98	59664.94
508.16	60329.65
508.33	60676.05
508.50	61148.84
508.68	61446.08
508.85	61799.50
509.03	61783.12
509.20	61570.13
509.38	60952.23
509.55	60346.03
509.73	60261.77
509.90	60774.35
510.08	61228.41
510.25	60942.87
510.42	60870.31
510.60	60680.73
510.77	61076.28
510.95	61703.54
511.12	61488.21
511.30	61895.47
511.47	62199.74
511.64	62274.63
511.82	62014.83
511.99	61106.71
512.17	60802.44
512.34	60458.38
512.51	60570.72
512.69	60748.60
512.86	60921.80
513.04	61200.33
513.21	61272.88
513.38	60867.97
513.56	60420.93
513.73	59910.69
513.90	60292.20
514.08	60027.72
514.25	60523.91
514.43	60519.23
514.60	60622.22
514.77	61001.38
514.95	60970.96
515.12	60753.29
515.29	60947.55
515.47	61399.27
515.64	61689.50
515.81	61275.22
515.99	60750.94
516.16	59632.17
516.33	57521.01
516.51	56123.71
516.68	55477.72
516.85	55051.74
517.03	55341.97
517.20	57862.72
517.37	59952.82
517.54	61200.33
517.72	60364.76
517.89	58417.43
518.06	55936.46
518.24	56332.01
518.41	58478.28
518.58	59690.68
518.75	59817.07
518.93	59999.63
519.10	59817.07
519.27	60399.86
519.45	60537.96
519.62	61254.16
519.79	61485.87
519.96	61415.66
520.14	60966.27
520.31	60013.68
520.48	60135.38
520.65	60371.78
520.83	61310.33
521.00	61490.55
521.17	61319.70
521.34	60952.23
521.52	61183.94
521.69	61738.65
521.86	62143.56
522.03	61712.91
522.20	60626.90
522.38	59796.01
522.55	59796.01
522.72	60144.75
522.89	60575.40
523.07	60500.51
523.24	61048.19
523.41	61961.00
523.58	61935.26
523.75	62347.19
523.92	62223.14
524.10	62213.78
524.27	62377.62
524.44	62035.90
524.61	61881.42
524.78	61696.52
524.96	61705.88
525.13	61670.78
525.30	61762.06
525.47	62281.66
525.64	62211.44
525.81	61593.54
525.98	60327.31
526.16	58873.84
526.33	58344.87
526.50	57881.45
526.67	57722.29
526.84	58316.79
527.01	59075.12
527.18	59894.31
527.36	60797.76
527.53	61492.89
527.70	61829.93
527.87	61464.81
528.04	60886.70
528.21	61373.53
528.38	62089.73
528.55	62518.05
528.72	62761.47
528.89	62873.81
529.07	62599.97
529.24	62014.83
529.41	61598.22
529.58	60760.31
529.75	60992.02
529.92	61338.42
530.09	61659.07
530.26	62265.27
530.43	62394.00
530.60	62464.22
530.77	62791.89
530.94	62796.57
531.11	62386.98
531.28	62087.39
531.46	61862.70
531.63	61970.36
531.80	61909.51
531.97	61621.62
532.14	60722.86
532.31	59966.87
532.48	59194.49
532.65	59363.01
532.82	60039.42
532.99	61221.39
533.16	61389.91
533.33	61839.29
533.50	61872.06
533.67	61188.63
533.84	60605.83
534.01	61141.81
534.18	61219.05
534.35	61448.42
534.52	61371.19
534.69	61427.36
534.86	61567.79
535.03	62092.07
535.20	62408.04
535.37	62590.61
535.54	62705.29
535.71	62518.05
535.88	62197.40
536.05	61584.18
536.22	61139.47
536.38	60917.12
536.55	60341.35
536.72	60074.53
536.89	60027.72
537.06	60727.54
537.23	61443.74
537.40	61724.61
537.57	61773.76
537.74	61457.79
537.91	61429.70
538.08	61450.77
538.25	61350.12
538.42	61492.89
538.59	61408.64
538.75	60940.53
538.92	60844.57
539.09	60615.19
539.26	60231.35
539.43	60261.77
539.60	60303.90
539.77	60535.62
539.94	60303.90
540.11	59533.87
540.28	59044.69
540.44	59290.45
540.61	59531.53
540.78	59632.17
540.95	60177.51
541.12	60446.68
541.29	60722.86
541.46	60947.55
541.62	60982.66
541.79	60795.42
541.96	60289.86
542.13	60154.11
542.30	60732.22
542.47	60795.42
542.63	60397.52
542.80	60231.35
542.97	60355.39
543.14	60191.56
543.31	60233.69
543.48	60760.31
543.64	61528.00
543.81	61696.52
543.98	61647.37
544.15	60999.04
544.32	60343.69
544.48	60547.32
544.65	60846.91
544.82	61263.52
544.99	61048.19
545.16	60420.93
545.32	60374.12
545.49	61111.39
545.66	61425.02
545.83	61181.60
546.00	60743.92
546.16	60498.17
546.33	60481.78
546.50	60582.43
546.67	60928.83
546.83	60587.11
547.00	60736.90
547.17	60161.13
547.34	59517.48
547.50	59449.61
547.67	59863.88
547.84	59934.10
548.00	60350.71
548.17	60736.90
548.34	60552.00
548.51	60460.72
548.67	60678.39
548.84	60727.54
549.01	60718.18
549.18	60725.20
549.34	60573.06
549.51	60444.33
549.68	60453.70
549.84	60306.24
550.01	60280.50
550.18	60097.94
550.34	60037.08
550.51	60142.41
550.68	60182.19
550.84	59592.38
551.01	59985.59
551.18	59931.76
551.34	60058.15
551.51	60236.03
551.68	60610.51
551.84	60643.28
552.01	60488.80
552.18	60327.31
552.34	59608.76
552.51	59250.66
552.68	59234.28
552.84	59664.94
553.01	59922.40
553.18	59639.19
553.34	59824.09
553.51	59985.59
553.67	60170.49
553.84	60353.05
554.01	60200.92
554.17	60261.77
554.34	60172.83
554.51	60214.96
554.67	60654.98
554.84	60306.24
555.00	60062.83
555.17	59845.16
555.33	59838.14
555.50	59760.90
555.67	59725.79
555.83	59557.27
556.00	59440.24
556.16	59505.78
556.33	59128.95
556.50	58841.07
556.66	58920.65
556.83	58695.95
556.99	58932.35
557.16	58805.96
557.32	59203.85
557.49	59578.34
557.65	59456.63
557.82	59194.49
557.98	59018.95
558.15	58859.79
558.32	57998.48
558.48	57148.86
558.65	57460.15
558.81	57968.05
558.98	58047.63
559.14	58321.47
559.31	58604.67
559.47	58171.67
559.64	58138.91
559.80	57647.39
559.97	57717.61
560.13	58274.66
560.30	59047.04
560.46	59737.49
560.63	59695.36
560.79	59557.27
560.96	59187.47
561.12	58314.45
561.29	57446.11
561.45	57485.90
561.61	58117.84
561.78	58532.12
561.94	58515.73
562.11	58333.17
562.27	58307.43
562.44	58520.41
562.60	58714.68
562.77	58937.03
562.93	58780.21
563.10	58656.17
563.26	58267.64
563.42	58478.28
563.59	57872.09
563.75	58171.67
563.92	57965.71
564.08	57841.66
564.24	58274.66
564.41	58333.17
564.57	58082.73
564.74	57879.11
564.90	58253.59
565.07	57968.05
565.23	57502.28
565.39	57169.93
565.56	56931.19
565.72	56687.78
565.88	56828.21
566.05	56963.96
566.21	57499.94
566.38	57478.88
566.54	57605.26
566.70	57921.24
566.87	58031.24
567.03	58071.03
567.19	58267.64
567.36	58117.84
567.52	57813.57
567.68	57710.59
567.85	57017.79
568.01	56692.46
568.17	56348.40
568.34	56315.63
568.50	56147.11
568.66	56416.27
568.83	56640.96
568.99	56776.72
569.15	57193.33
569.32	56931.19
569.48	56835.23
569.64	56783.74
569.81	56362.44
569.97	55997.32
570.13	56170.52
570.30	55683.69
570.46	55601.77
570.62	54829.39
570.78	54745.13
570.95	54951.10
571.11	55721.13
571.27	55959.87
571.43	56250.09
571.60	56406.91
571.76	56493.51
571.92	57043.54
572.09	56879.70
572.25	56849.27
572.41	57017.79
572.57	56568.41
572.74	56905.44
572.90	56329.67
573.06	56425.64
573.22	56374.14
573.38	56310.95
573.55	56289.88
573.71	56495.85
573.87	56437.34
574.03	56217.33
574.20	56259.46
574.36	55931.78
574.52	55910.72
574.68	55576.02
574.84	55217.92
575.01	54993.23
575.17	54852.80
575.33	55105.57
575.49	55224.94
575.65	55604.11
575.82	55192.17
575.98	55042.38
576.14	55093.87
576.30	55395.80
576.46	55674.32
576.62	55550.27
576.79	55517.51
576.95	55533.89
577.11	55107.91
577.27	55339.63
577.43	55384.10
577.59	54944.08
577.75	54871.52
577.92	54176.38
578.08	53776.15
578.24	53602.95
578.40	54314.47
578.56	54513.42
578.72	54358.94
578.88	54651.51
579.04	54759.17
579.21	55000.25
579.37	54930.03
579.53	54944.08
579.69	54997.91
579.85	54997.91
580.01	55152.38
580.17	54326.17
580.33	54564.91
580.49	54576.61
580.65	54915.99
580.82	55025.99
580.98	54805.98
581.14	54768.54
581.30	55138.34
581.46	54810.67
581.62	54953.44
581.78	55002.59
581.94	55388.78
582.10	55220.26
582.26	55187.49
582.42	55121.96
582.58	55051.74
582.74	54951.10
582.90	55150.04
583.06	55000.25
583.22	54766.20
583.38	55023.65
583.54	54555.55
583.70	54890.24
583.86	54897.27
584.02	54754.49
584.18	54869.18
584.34	54520.44
584.50	54309.79
584.66	54087.44
584.82	54066.38
584.98	53895.52
585.14	53705.93
