SpectraSuite Data File
++++++++++++++++++++++++++++++++++++
Date: Mon Oct 07 14:53:40 GMT-05:00 2013
User: price-jones
Dark Spectrum Present: No
Reference Spectrum Present: No
Number of Sampled Component Spectra: 1
Spectrometers: USB2+H05261
Integration Time (usec): 100000 (USB2+H05261)
Spectra Averaged: 1 (USB2+H05261)
Boxcar Smoothing: 0 (USB2+H05261)
Correct for Electrical Dark: No (USB2+H05261)
Strobe/Lamp Enabled: No (USB2+H05261)
Correct for Detector Non-linearity: No (USB2+H05261)
Correct for Stray Light: No (USB2+H05261)
Number of Pixels in Processed Spectrum: 2048
>>>>>Begin Processed Spectral Data<<<<<
365.73	0.00
365.92	0.00
366.12	0.00
366.32	0.00
366.52	0.00
366.72	0.00
366.91	0.00
367.11	0.00
367.31	0.00
367.51	0.00
367.70	0.00
367.90	0.00
368.10	0.00
368.30	0.00
368.49	0.00
368.69	0.00
368.89	0.00
369.09	0.00
369.28	0.00
369.48	0.00
369.68	0.00
369.87	0.00
370.07	0.00
370.27	0.00
370.47	496.19
370.66	2719.70
370.86	3384.41
371.06	3590.38
371.25	3616.13
371.45	3248.66
371.65	3049.72
371.84	2857.79
372.04	2881.20
372.24	3101.21
372.44	3290.79
372.63	3414.84
372.83	3131.64
373.03	2815.66
373.22	2527.78
373.42	2597.99
373.62	3026.31
373.81	3346.97
374.01	3293.13
374.21	3021.63
374.40	2712.68
374.60	2984.18
374.79	3288.45
374.99	3805.71
375.19	4119.34
375.38	4173.18
375.58	3913.38
375.78	3782.31
375.97	3824.44
376.17	3990.61
376.37	4168.49
376.56	4187.22
376.76	4313.61
376.95	4645.96
377.15	5064.92
377.35	5076.62
377.54	5317.70
377.74	5600.90
377.93	5647.71
378.13	5369.19
378.33	5268.55
378.52	4716.18
378.72	4587.45
378.91	4489.15
379.11	4201.26
379.31	4152.11
379.50	4053.81
379.70	4505.53
379.89	4997.04
380.09	5167.90
380.28	5355.15
380.48	5439.40
380.68	5373.87
380.87	5039.17
381.07	4746.61
381.26	4547.66
381.46	4208.28
381.65	4112.32
381.85	4002.32
382.04	3733.15
382.24	3559.95
382.43	3419.52
382.63	3222.92
382.83	3368.03
383.02	3346.97
383.22	3180.79
383.41	3265.05
383.61	3452.29
383.80	4014.02
384.00	4606.17
384.19	5048.54
384.39	5256.84
384.58	5268.55
384.78	5357.49
384.97	5153.86
385.17	5027.47
385.36	4751.29
385.56	4601.49
385.75	4594.47
385.95	5116.41
386.14	5497.92
386.34	5671.12
386.53	5462.81
386.72	4968.96
386.92	4894.06
387.11	5331.74
387.31	5568.13
387.50	5516.64
387.70	5221.74
387.89	5193.65
388.09	5383.23
388.28	5296.63
388.48	5217.05
388.67	5891.13
388.86	6354.55
389.06	6792.23
389.25	7056.72
389.45	7194.81
389.64	7342.26
389.84	7117.57
390.03	7019.27
390.22	7143.32
390.42	7300.13
390.61	7623.12
390.81	8093.57
391.00	8418.91
391.19	8217.62
391.39	7948.46
391.58	7515.46
391.78	7061.40
391.97	6972.46
392.16	6513.71
392.36	5858.36
392.55	4648.30
392.75	3733.15
392.94	3066.10
393.13	3068.44
393.33	3492.08
393.52	4447.02
393.71	5699.20
393.91	6506.69
394.10	6913.94
394.29	7595.04
394.49	8147.40
394.68	8716.16
394.88	8819.14
395.07	8982.98
395.26	8898.72
395.46	8664.66
395.65	8138.04
395.84	7358.64
396.04	6298.38
396.23	5046.20
396.42	4187.22
396.62	3922.74
396.81	4711.50
397.00	5973.05
397.19	7515.46
397.39	8828.50
397.58	9863.02
397.77	10721.99
397.97	10953.71
398.16	11318.83
398.35	11587.99
398.55	11604.38
398.74	12383.77
398.93	12528.89
399.12	12133.34
399.32	11850.13
399.51	12266.75
399.70	13111.68
399.90	12917.42
400.09	13156.15
400.28	12634.21
400.47	12837.84
400.67	13385.52
400.86	13729.58
401.05	13603.19
401.24	13991.72
401.44	14368.55
401.63	14207.05
401.82	14267.91
402.01	14162.58
402.21	14345.14
402.40	14698.56
402.59	14195.35
402.78	13181.90
402.97	12950.18
403.17	13556.38
403.36	14396.64
403.55	15047.30
403.74	15339.87
403.93	14450.47
404.13	13537.66
404.32	12882.31
404.51	13788.10
404.70	14796.87
404.89	14672.82
405.09	14565.15
405.28	13965.98
405.47	14050.24
405.66	14190.67
405.85	13947.25
406.05	13336.37
406.24	13575.11
406.43	14183.65
406.62	14483.24
406.81	14504.30
407.00	14029.17
407.20	13771.71
407.39	13907.46
407.58	14721.97
407.77	15213.48
407.96	15784.57
408.15	16086.50
408.34	15894.58
408.54	16877.60
408.73	16861.22
408.92	16580.36
409.11	16072.46
409.30	15152.63
409.49	14326.42
409.68	13554.04
409.87	13083.59
410.07	13657.03
410.26	14869.42
410.45	15859.47
410.64	16341.62
410.83	16627.17
411.02	17205.28
411.21	17949.57
411.40	17694.45
411.59	17750.62
411.78	17582.10
411.98	17376.14
412.17	17577.42
412.36	17535.29
412.55	17448.69
412.74	17064.85
412.93	16842.50
413.12	16730.15
413.31	18204.69
413.50	18679.82
413.69	18841.31
413.88	18317.03
414.07	17551.68
414.26	17745.94
414.45	18581.51
414.64	18668.11
414.83	18640.03
415.02	18331.08
415.22	17998.72
415.41	18625.98
415.60	19047.28
415.79	20170.74
415.98	20776.94
416.17	20716.08
416.36	19957.75
416.55	19550.49
416.74	18979.40
416.93	18389.59
417.12	18618.96
417.31	18478.53
417.50	19096.43
417.69	19653.48
417.88	19541.13
418.07	19550.49
418.26	19496.66
418.45	19424.11
418.64	20236.27
418.83	20575.65
419.02	20297.13
419.21	20156.69
419.39	19211.12
419.58	18476.19
419.77	18656.41
419.96	19211.12
420.15	20423.51
420.34	20772.25
420.53	21820.81
420.72	21954.22
420.91	21928.48
421.10	21413.56
421.29	21558.67
421.48	20414.15
421.67	21322.28
421.86	21113.97
422.05	19873.49
422.24	17715.51
422.43	17415.93
422.61	19541.13
422.80	21013.33
422.99	21277.81
423.18	20372.02
423.37	19714.33
423.56	19992.86
423.75	20350.96
423.94	20683.31
424.13	19772.85
424.32	19524.75
424.50	19758.80
424.69	19639.44
424.88	19625.39
425.07	19552.84
425.26	19477.94
425.45	19562.20
425.64	18838.97
425.83	18834.29
426.01	20142.65
426.20	20554.58
426.39	20444.58
426.58	19133.88
426.77	17434.65
426.96	17076.55
427.15	17528.27
427.33	18979.40
427.52	19747.10
427.71	19985.83
427.90	19559.86
428.09	19604.33
428.28	18808.54
428.46	18082.98
428.65	18064.25
428.84	18628.32
429.03	19307.08
429.22	18043.19
429.40	17219.32
429.59	15328.17
429.78	13743.63
429.97	13750.65
430.16	13954.27
430.34	14061.94
430.53	13834.91
430.72	14031.51
430.91	15396.04
431.10	18235.11
431.28	21500.16
431.47	23236.84
431.66	23913.25
431.85	21656.98
432.03	20477.35
432.22	19150.26
432.41	19700.29
432.60	21972.95
432.79	22885.76
432.97	23173.64
433.16	22637.66
433.35	21020.35
433.54	18948.98
433.72	17764.67
433.91	18080.64
434.10	20343.94
434.28	21603.14
434.47	23070.66
434.66	22483.19
434.85	21881.67
435.03	21991.67
435.22	22616.60
435.41	24002.19
435.59	24133.26
435.78	24030.28
435.97	24671.59
436.16	25172.46
436.34	24683.29
436.53	23606.64
436.72	24049.00
436.90	22518.29
437.09	22471.48
437.28	21986.99
437.46	23033.21
437.65	23026.19
437.84	21448.67
438.02	19817.32
438.21	19601.99
438.40	20957.16
438.58	22534.68
438.77	23290.67
438.96	23391.31
439.14	24098.16
439.33	25008.62
439.52	25638.23
439.70	24690.31
439.89	24390.72
440.08	23384.29
440.26	23222.80
440.45	23910.91
440.63	25785.68
440.82	27187.66
441.01	26815.52
441.19	26560.40
441.38	27225.11
441.57	28027.92
441.75	28212.82
441.94	28800.29
442.12	28079.41
442.31	28552.20
442.50	29036.69
442.68	28264.31
442.87	28339.21
443.05	27709.60
443.24	27974.08
443.43	28811.99
443.61	29537.56
443.80	29193.50
443.98	27744.71
444.17	27655.77
444.35	29666.29
444.54	29996.31
444.73	29745.87
444.91	28285.37
445.10	27641.73
445.28	26129.74
445.47	25846.54
445.65	26345.07
445.84	26757.00
446.02	27634.71
446.21	28512.41
446.39	28149.62
446.58	28891.57
446.77	28924.34
446.95	29301.17
447.14	29963.54
447.32	30518.25
447.51	30071.20
447.69	28704.33
447.88	28486.66
448.06	28617.73
448.25	29502.45
448.43	29439.26
448.62	29329.25
448.80	28744.12
448.99	29214.57
449.17	29926.09
449.36	29474.37
449.54	30251.42
449.73	30429.30
449.91	31297.64
450.10	32336.84
450.28	32779.20
450.46	32573.24
450.65	32177.68
450.83	31931.93
451.02	31625.32
451.20	31620.64
451.39	30902.09
451.57	30869.33
451.76	31000.40
451.94	30883.37
452.13	30754.64
452.31	29039.03
452.49	28004.51
452.68	27892.16
452.86	28219.84
453.05	28453.89
453.23	29202.86
453.42	29874.60
453.60	30609.53
453.78	31091.68
453.97	30607.19
454.15	30775.70
454.34	30071.20
454.52	30312.28
454.70	29649.91
454.89	29865.24
455.07	29944.81
455.26	30314.62
455.44	31625.32
455.62	32535.79
455.81	32620.05
455.99	32266.63
456.17	31840.65
456.36	31962.36
456.54	32931.34
456.73	32622.39
456.91	33057.73
457.09	33240.29
457.28	33905.00
457.46	32402.38
457.64	32561.53
457.83	31796.18
458.01	30536.97
458.19	31592.55
458.38	31716.60
458.56	32781.54
458.74	32666.86
458.93	32147.26
459.11	31763.41
459.29	31555.10
459.48	32126.19
459.66	31861.71
459.84	31913.20
460.03	32811.97
460.21	32444.51
460.39	33331.57
460.57	33324.55
460.76	33766.91
460.94	33921.38
461.12	33170.07
461.31	33563.28
461.49	33270.72
461.67	33530.51
461.85	34408.22
462.04	34157.78
462.22	34295.87
462.40	34522.90
462.59	34007.98
462.77	34658.65
462.95	34263.10
463.13	33951.81
463.32	33741.16
463.50	33345.61
463.68	33338.59
463.86	33219.22
464.05	33024.96
464.23	32444.51
464.41	32105.13
464.59	31824.26
464.78	33432.21
464.96	33048.36
465.14	32975.81
465.32	33825.42
465.50	34375.45
465.69	34448.00
465.87	34026.71
466.05	33165.39
466.23	31910.86
466.41	30888.05
466.60	32006.83
466.78	31892.14
466.96	31990.44
467.14	33167.73
467.32	33181.77
467.51	33448.60
467.69	31763.41
467.87	32678.56
468.05	33090.49
468.23	33130.28
468.41	33017.94
468.60	33254.33
468.78	33572.64
468.96	33160.71
469.14	33998.62
469.32	33734.14
469.50	33003.89
469.69	32875.16
469.87	32547.49
470.05	32261.94
470.23	32018.53
470.41	32547.49
470.59	32519.40
470.77	33099.86
470.95	33780.95
471.14	33813.72
471.32	34012.66
471.50	35739.98
471.68	35658.06
471.86	36432.78
472.04	36383.63
472.22	36783.86
472.40	34918.45
472.58	34487.79
472.77	34022.03
472.95	34960.58
473.13	35611.25
473.31	34595.46
473.49	35079.95
473.67	35583.16
473.85	36030.21
474.03	36919.61
474.21	36835.35
474.39	37542.19
474.57	37813.70
474.75	37427.51
474.93	37116.22
475.12	36318.09
475.30	36243.20
475.48	36264.26
475.66	36903.23
475.84	36664.49
476.02	35908.50
476.20	35388.90
476.38	36484.27
476.56	37670.92
476.74	38209.25
476.92	38127.33
477.10	38822.47
477.28	39988.05
477.46	39526.97
477.64	40320.41
477.82	40664.47
478.00	40629.36
478.18	40165.93
478.36	39878.05
478.54	40013.80
478.72	40027.84
478.90	40989.80
479.08	41787.92
479.26	42380.08
479.44	42548.60
479.62	42080.49
479.80	42155.39
479.98	42232.63
480.16	42887.98
480.34	42174.11
480.52	42918.40
480.70	43105.65
480.88	42768.61
481.06	43786.74
481.24	44252.51
481.41	44854.03
481.59	45251.92
481.77	45504.70
481.95	44282.94
482.13	44685.51
482.31	44767.43
482.49	45289.37
482.67	44926.58
482.85	45390.01
483.03	46202.18
483.21	46181.11
483.39	46419.84
483.57	45329.16
483.74	45162.98
483.92	45766.84
484.10	45865.14
484.28	46934.76
484.46	46974.55
484.64	48069.92
484.82	46546.23
485.00	45956.42
485.18	45443.84
485.35	44079.31
485.53	40854.05
485.71	37902.64
485.89	36818.97
486.07	38857.57
486.25	41769.20
486.43	44507.63
486.61	45228.51
486.78	44828.28
486.96	45214.47
487.14	46623.47
487.32	47870.98
487.50	48921.88
487.68	49853.41
487.85	50230.24
488.03	50679.62
488.21	49883.84
488.39	49272.96
488.57	48509.94
488.75	47924.81
488.92	48942.94
489.10	51433.27
489.28	52743.97
489.46	53387.62
489.64	53137.18
489.81	53385.28
489.99	52846.96
490.17	52945.26
490.35	53160.59
490.53	52772.06
490.70	52381.19
490.88	52659.71
491.06	53411.02
491.24	53375.92
491.41	52538.01
491.59	50890.27
491.77	49862.77
491.95	51049.42
492.13	52491.19
492.30	53591.25
492.48	54300.43
492.66	54801.30
492.84	54869.18
493.01	54553.21
493.19	53949.35
493.37	53762.11
493.54	53666.14
493.72	54047.65
493.90	55189.83
494.08	56002.00
494.25	56083.92
494.43	56348.40
494.61	56406.91
494.79	56769.69
494.96	56378.82
495.14	55870.93
495.32	55269.41
495.49	54358.94
495.67	55498.78
495.85	56537.98
496.02	57015.45
496.20	56825.87
496.38	56622.24
496.55	56509.89
496.73	56966.30
496.91	57076.30
497.09	57689.52
497.26	57949.32
497.44	57504.62
497.62	56877.36
497.79	56088.60
497.97	55014.29
498.14	55047.06
498.32	56023.06
498.50	56891.40
498.67	57403.98
498.85	57137.16
499.03	57518.67
499.20	57530.37
499.38	57755.06
499.56	57476.54
499.73	57228.44
499.91	56760.33
500.08	56289.88
500.26	55442.61
500.44	56158.81
500.61	56757.99
500.79	56535.64
500.97	56186.90
501.14	56002.00
501.32	55667.30
501.49	55980.93
501.67	56266.48
501.84	56715.86
502.02	56933.53
502.20	57406.32
502.37	57270.57
502.55	57492.92
502.72	57832.30
502.90	58719.36
503.07	57851.02
503.25	57586.54
503.43	56750.97
503.60	56198.60
503.78	55681.34
503.95	55805.39
504.13	57392.28
504.30	58234.87
504.48	57991.45
504.65	57694.21
504.83	57649.74
505.01	58377.64
505.18	58578.93
505.36	59140.66
505.53	59201.51
505.71	59496.42
505.88	59442.59
506.06	59112.57
506.23	58581.27
506.41	58089.76
506.58	58438.50
506.76	58569.57
506.93	58436.16
507.11	58265.30
507.28	58466.58
507.46	58087.42
507.63	57268.23
507.81	57176.95
507.98	57350.15
508.16	58061.67
508.33	58735.74
508.50	59171.08
508.68	59353.65
508.85	59550.25
509.03	59618.13
509.20	59393.43
509.38	58873.84
509.55	58089.76
509.73	58150.61
509.90	58548.50
510.08	58906.60
510.25	58899.58
510.42	58777.87
510.60	58489.99
510.77	58710.00
510.95	59407.48
511.12	59531.53
511.30	59786.64
511.47	60238.37
511.64	60032.40
511.82	59627.49
511.99	58862.13
512.17	58555.52
512.34	58024.22
512.51	58260.62
512.69	58571.91
512.86	58562.54
513.04	59075.12
513.21	59023.63
513.38	58684.25
513.56	58272.32
513.73	57820.59
513.90	57783.15
514.08	57741.02
514.25	58288.70
514.43	58454.88
514.60	58447.86
514.77	58677.23
514.95	58866.81
515.12	58812.98
515.29	58775.53
515.47	59217.89
515.64	59599.40
515.81	59079.80
515.99	58604.67
516.16	57167.58
516.33	55014.29
516.51	53574.86
516.68	52758.02
516.85	52313.31
517.03	52640.99
517.20	55423.89
517.37	57446.11
517.54	58768.51
517.72	58368.28
517.89	56048.81
518.06	53537.41
518.24	53691.89
518.41	55997.32
518.58	57254.18
518.75	57595.90
518.93	57670.80
519.10	57509.30
519.27	58075.71
519.45	58293.38
519.62	58988.52
519.79	59355.99
519.96	59199.17
520.14	58592.97
520.31	57780.81
520.48	57752.72
520.65	58101.46
520.83	59044.69
521.00	59571.32
521.17	59185.13
521.34	58681.91
521.52	58939.37
521.69	59461.31
521.86	59901.33
522.03	59760.90
522.20	58571.91
522.38	57427.38
522.55	57464.83
522.72	58220.83
522.89	58309.77
523.07	58347.21
523.24	58658.51
523.41	59545.57
523.58	59884.95
523.75	60245.39
523.92	60114.32
524.10	60221.98
524.27	60081.55
524.44	59910.69
524.61	59810.05
524.78	59400.46
524.96	59470.67
525.13	59620.47
525.30	59793.67
525.47	59990.27
525.64	60109.64
525.81	59358.33
525.98	58064.01
526.16	56617.56
526.33	55985.61
526.50	55735.18
526.67	55360.69
526.84	55758.58
527.01	57022.47
527.18	57745.70
527.36	58625.74
527.53	59316.20
527.70	59522.16
527.87	59016.61
528.04	58670.21
528.21	58901.92
528.38	59686.00
528.55	60303.90
528.72	60397.52
528.89	60617.53
529.07	60434.97
529.24	59732.81
529.41	59260.02
529.58	58810.64
529.75	58955.75
529.92	59196.83
530.09	59353.65
530.26	59889.63
530.43	60577.75
530.60	60439.65
530.77	60530.93
530.94	60748.60
531.11	60135.38
531.28	59943.46
531.46	59524.50
531.63	59943.46
531.80	59662.60
531.97	59409.82
532.14	58550.84
532.31	57673.14
532.48	57062.26
532.65	57022.47
532.82	57890.81
532.99	58939.37
533.16	59302.15
533.33	59950.48
533.50	59784.30
533.67	58965.12
533.84	58670.21
534.01	58934.69
534.18	59110.23
534.35	59274.07
534.52	58925.33
534.69	59271.73
534.86	59653.23
535.03	59887.29
535.20	60343.69
535.37	60566.04
535.54	60652.64
535.71	60210.28
535.88	60018.36
536.05	59419.18
536.22	58953.41
536.38	58651.48
536.55	58272.32
536.72	57844.00
536.89	57701.23
537.06	58681.91
537.23	59412.16
537.40	59676.64
537.57	59576.00
537.74	59353.65
537.91	59435.56
538.08	59028.31
538.25	59292.79
538.42	59477.69
538.59	59236.62
538.75	58927.67
538.92	58679.57
539.09	58438.50
539.26	58370.62
539.43	58054.65
539.60	58145.93
539.77	58202.10
539.94	58056.99
540.11	57502.28
540.28	56917.15
540.44	56856.29
540.61	57293.97
540.78	57289.29
540.95	57881.45
541.12	58232.53
541.29	58754.47
541.46	58843.41
541.62	59025.97
541.79	58700.64
541.96	58216.14
542.13	58108.48
542.30	58319.13
542.47	58574.25
542.63	58288.70
542.80	58040.60
542.97	58286.36
543.14	58164.65
543.31	58141.25
543.48	58443.18
543.64	59653.23
543.81	59695.36
543.98	59538.55
544.15	58831.71
544.32	58319.13
544.48	58204.44
544.65	58677.23
544.82	59320.88
544.99	58695.95
545.16	58394.03
545.32	58188.06
545.49	59089.16
545.66	59475.35
545.83	59128.95
546.00	58901.92
546.16	58450.20
546.33	58410.41
546.50	58337.85
546.67	58918.31
546.83	58403.39
547.00	58607.01
547.17	58014.86
547.34	57190.99
547.50	57347.81
547.67	57815.91
547.84	57591.22
548.00	58096.78
548.17	58424.45
548.34	58379.98
548.51	58457.22
548.67	58398.71
548.84	58536.80
549.01	58511.05
549.18	58489.99
549.34	58323.81
549.51	58211.46
549.68	58248.91
549.84	58110.82
550.01	57991.45
550.18	57785.49
550.34	57897.83
550.51	58040.60
550.68	58092.10
550.84	57680.16
551.01	57726.97
551.18	57764.42
551.34	57965.71
551.51	58082.73
551.68	58482.97
551.84	58614.04
552.01	58314.45
552.18	58522.76
552.34	57326.74
552.51	57141.84
552.68	57127.80
552.84	57584.20
553.01	57844.00
553.18	57806.55
553.34	57888.47
553.51	57975.07
553.67	58237.21
553.84	58115.50
554.01	58017.20
554.17	57818.25
554.34	57958.69
554.51	58157.63
554.67	58452.54
554.84	58181.04
555.00	57928.26
555.17	57619.31
555.33	57719.95
555.50	57546.75
555.67	57748.04
555.83	57623.99
556.00	57090.35
556.16	57303.34
556.33	56849.27
556.50	56750.97
556.66	56629.26
556.83	56383.51
556.99	56720.54
557.16	56624.58
557.32	57071.62
557.49	57188.65
557.65	57102.05
557.82	57130.14
557.98	56821.19
558.15	56535.64
558.32	55641.56
558.48	55023.65
558.65	55070.46
558.81	55606.45
558.98	55732.84
559.14	55800.71
559.31	56133.07
559.47	56268.82
559.64	55519.85
559.80	55454.31
559.97	55641.56
560.13	55875.61
560.30	56765.01
560.46	57457.81
560.63	57558.45
560.79	57656.76
560.96	57345.47
561.12	56179.88
561.29	55302.18
561.45	55100.89
561.61	55938.80
561.78	55994.98
561.94	56058.17
562.11	56130.73
562.27	55779.65
562.44	56062.85
562.60	56605.86
562.77	56769.69
562.93	56622.24
563.10	56552.02
563.26	56013.70
563.42	56065.19
563.59	55697.73
563.75	55756.24
563.92	55941.14
564.08	55917.74
564.24	56142.43
564.41	55915.40
564.57	56053.49
564.74	55803.05
564.90	55707.09
565.07	55552.62
565.23	54988.55
565.39	54595.34
565.56	54607.04
565.72	53916.58
565.88	54637.47
566.05	54674.91
566.21	54850.45
566.38	55150.04
566.54	55386.44
566.70	55730.50
566.87	55620.49
567.03	55821.78
567.19	56037.11
567.36	55774.97
567.52	55580.70
567.68	55217.92
567.85	54635.13
568.01	54593.00
568.17	53972.75
568.34	53839.34
568.50	53825.30
568.66	54005.52
568.83	54316.81
568.99	54625.76
569.15	54761.51
569.32	54864.50
569.48	54466.61
569.64	54110.85
569.81	53963.39
569.97	53951.69
570.13	53963.39
570.30	53446.13
570.46	52809.51
570.62	52383.53
570.78	52158.84
570.95	52406.94
571.11	53446.13
571.27	53492.94
571.43	53860.41
571.60	54181.06
571.76	54270.00
571.92	54363.62
572.09	54506.40
572.25	54578.95
572.41	54555.55
572.57	54380.01
572.74	54162.34
572.90	53801.89
573.06	54071.06
573.22	54085.10
573.38	54213.83
573.55	54134.25
573.71	54066.38
573.87	54052.33
574.03	53703.59
574.20	53813.60
574.36	53563.16
574.52	53434.43
574.68	53415.71
574.84	52903.13
575.01	52526.30
575.17	52123.73
575.33	52413.96
575.49	52940.58
575.65	52989.73
575.82	52863.34
575.98	52573.11
576.14	52772.06
576.30	53205.06
576.46	53294.00
576.62	53165.27
576.79	53109.10
576.95	52617.58
577.11	52692.48
577.27	52692.48
577.43	52809.51
577.59	52516.94
577.75	52264.16
577.92	51503.49
578.08	50951.12
578.24	51423.91
578.40	51491.79
578.56	52025.43
578.72	52144.80
578.88	52259.48
579.04	52308.63
579.21	52308.63
579.37	52313.31
579.53	52453.75
579.69	52809.51
579.85	52699.50
580.01	52491.19
580.17	51852.23
580.33	51983.30
580.49	52020.75
580.65	52119.05
580.82	52615.24
580.98	52582.48
581.14	52210.33
581.30	52479.49
581.46	52121.39
581.62	52545.03
581.78	52509.92
581.94	52664.39
582.10	52465.45
582.26	52584.82
582.42	52657.37
582.58	52832.91
582.74	52463.11
582.90	52519.28
583.06	52596.52
583.22	52121.39
583.38	52100.32
583.54	52191.61
583.70	52357.78
583.86	52465.45
584.02	52097.98
584.18	52193.95
584.34	52011.38
584.50	51999.68
584.66	51828.82
584.82	51688.39
584.98	51356.03
585.14	51054.11
585.30	50323.86
