SpectraSuite Data File
++++++++++++++++++++++++++++++++++++
Date: Mon Oct 07 14:53:49 GMT-05:00 2013
User: price-jones
Dark Spectrum Present: No
Reference Spectrum Present: No
Number of Sampled Component Spectra: 1
Spectrometers: USB2+H05261
Integration Time (usec): 100000 (USB2+H05261)
Spectra Averaged: 1 (USB2+H05261)
Boxcar Smoothing: 0 (USB2+H05261)
Correct for Electrical Dark: No (USB2+H05261)
Strobe/Lamp Enabled: No (USB2+H05261)
Correct for Detector Non-linearity: No (USB2+H05261)
Correct for Stray Light: No (USB2+H05261)
Number of Pixels in Processed Spectrum: 2048
>>>>>Begin Processed Spectral Data<<<<<
365.73	0.00
365.92	0.00
366.12	0.00
366.32	0.00
366.52	0.00
366.72	0.00
366.91	0.00
367.11	0.00
367.31	0.00
367.51	0.00
367.70	0.00
367.90	0.00
368.10	0.00
368.30	0.00
368.49	0.00
368.69	0.00
368.89	0.00
369.09	0.00
369.28	0.00
369.48	0.00
369.68	0.00
369.87	0.00
370.07	0.00
370.27	0.00
370.47	498.53
370.66	2906.95
370.86	3337.60
371.06	3899.33
371.25	3936.78
371.45	3520.17
371.65	3103.55
371.84	2867.16
372.04	3049.72
372.24	3400.80
372.44	3578.68
372.63	3555.27
372.83	3307.18
373.03	2808.64
373.22	2567.57
373.42	2801.62
373.62	3201.85
373.81	3506.12
374.01	3590.38
374.21	3138.66
374.40	3105.89
374.60	3007.59
374.79	3368.03
374.99	4109.98
375.19	4259.78
375.38	4372.12
375.58	4042.11
375.78	3988.27
375.97	4105.30
376.17	4273.82
376.37	4222.33
376.56	4292.54
376.76	4559.36
376.95	4933.85
377.15	5205.35
377.35	5284.93
377.54	5743.67
377.74	5776.44
377.93	5865.38
378.13	5685.16
378.33	5526.00
378.52	4926.83
378.72	4732.56
378.91	4875.34
379.11	4484.47
379.31	4407.23
379.50	4475.10
379.70	4837.89
379.89	5380.89
380.09	5439.40
380.28	5825.59
380.48	5809.21
380.68	5621.97
380.87	5373.87
381.07	5048.54
381.26	4571.07
381.46	4344.03
381.65	4320.63
381.85	4102.96
382.04	3857.20
382.24	3648.90
382.43	3478.04
382.63	3426.54
382.83	3445.27
383.02	3353.99
383.22	3438.25
383.41	3503.78
383.61	3684.00
383.80	4196.58
384.00	4784.06
384.19	5387.91
384.39	5511.96
384.58	5640.69
384.78	5467.49
384.97	5790.49
385.17	5137.48
385.36	4847.25
385.56	4631.92
385.75	4919.81
385.95	5296.63
386.14	5919.21
386.34	5954.32
386.53	5430.04
386.72	5313.02
386.92	5231.10
387.11	5657.07
387.31	5947.30
387.50	5678.14
387.70	5547.07
387.89	5432.38
388.09	5380.89
388.28	5591.54
388.48	5820.91
388.67	6033.90
388.86	6574.56
389.06	7021.61
389.25	7520.14
389.45	7569.29
389.64	7309.49
389.84	7241.62
390.03	7384.39
390.22	7290.77
390.42	7494.40
390.61	8205.92
390.81	8758.28
391.00	8938.51
391.19	8671.68
391.39	8409.54
391.58	7871.22
391.78	7527.16
391.97	7276.73
392.16	6773.51
392.36	6076.03
392.55	4959.60
392.75	3892.31
392.94	3145.68
393.13	3199.51
393.33	3789.33
393.52	4699.80
393.71	5926.24
393.91	6509.03
394.10	7131.61
394.29	7653.55
394.49	8257.41
394.68	9078.94
394.88	9130.43
395.07	9481.51
395.26	9310.65
395.46	9188.94
395.65	8648.28
395.84	7569.29
396.04	6466.90
396.23	5238.12
396.42	4449.36
396.62	4133.39
396.81	4863.63
397.00	6256.25
397.19	7730.79
397.39	9128.09
397.58	10286.65
397.77	11009.88
397.97	11496.71
398.16	11534.16
398.35	11889.92
398.55	12315.90
398.74	12659.96
398.93	13160.83
399.12	13020.40
399.32	12365.05
399.51	12716.13
399.70	13540.00
399.90	13380.84
400.09	13376.16
400.28	13249.77
400.47	13422.97
400.67	14225.78
400.86	14478.55
401.05	14508.98
401.24	14384.93
401.44	14848.36
401.63	14869.42
401.82	14668.14
402.01	14862.40
402.21	15213.48
402.40	14841.34
402.59	14618.99
402.78	13961.30
402.97	13678.09
403.17	14211.73
403.36	14888.15
403.55	15241.57
403.74	16016.29
403.93	14986.45
404.13	13607.87
404.32	13350.42
404.51	14066.62
404.70	15487.32
404.89	15272.00
405.09	15035.60
405.28	14494.94
405.47	14586.22
405.66	14668.14
405.85	14389.61
406.05	13694.47
406.24	13951.93
406.43	14913.89
406.62	15009.86
406.81	15585.63
407.00	14696.22
407.20	14310.04
407.39	14373.23
407.58	15190.08
407.77	15651.16
407.96	16336.94
408.15	16657.59
408.34	16372.05
408.54	16996.97
408.73	17352.73
408.92	17074.21
409.11	16762.92
409.30	15749.46
409.49	15091.77
409.68	13980.02
409.87	13593.83
410.07	14340.46
410.26	15463.92
410.45	16350.98
410.64	16664.61
410.83	17530.61
411.02	17736.58
411.21	18885.78
411.40	18319.37
411.59	18122.77
411.78	17900.42
411.98	18134.47
412.17	18354.48
412.36	18066.60
412.55	18038.51
412.74	17474.44
412.93	17334.01
413.12	17523.59
413.31	19129.20
413.50	18904.51
413.69	19384.32
413.88	18850.67
414.07	18050.21
414.26	18600.24
414.45	19192.39
414.64	18951.32
414.83	19307.08
415.02	18972.38
415.22	19000.47
415.41	19529.43
415.60	19719.01
415.79	20664.59
415.98	21069.50
416.17	20833.11
416.36	20521.82
416.55	20339.26
416.74	19721.35
416.93	18946.64
417.12	19110.47
417.31	19332.82
417.50	19625.39
417.69	20147.33
417.88	20205.84
418.07	19819.66
418.26	19845.40
418.45	19775.19
418.64	20533.52
418.83	21139.72
419.02	21223.98
419.21	21130.36
419.39	19889.87
419.58	18651.73
419.77	19035.58
419.96	20161.37
420.15	21010.99
420.34	21422.92
420.53	21935.50
420.72	22867.03
420.91	22579.15
421.10	21977.63
421.29	21998.70
421.48	21359.73
421.67	22155.51
421.86	21799.75
422.05	20372.02
422.24	18015.10
422.43	17947.23
422.61	20063.07
422.80	21394.84
422.99	21879.33
423.18	20718.42
423.37	20493.73
423.56	20517.14
423.75	20823.75
423.94	21202.91
424.13	19936.68
424.32	20196.48
424.50	20287.76
424.69	19744.76
424.88	20123.93
425.07	20144.99
425.26	20023.28
425.45	19843.06
425.64	19566.88
425.83	19293.04
426.01	20655.23
426.20	21078.86
426.39	20919.71
426.58	19447.51
426.77	17888.71
426.96	17474.44
427.15	17778.71
427.33	19290.70
427.52	19946.05
427.71	20051.37
427.90	19985.83
428.09	19969.45
428.28	19524.75
428.46	18944.30
428.65	18324.05
428.84	18897.49
429.03	19360.91
429.22	18090.00
429.40	17172.51
429.59	15765.85
429.78	13769.37
429.97	13743.63
430.16	14169.60
430.34	14183.65
430.53	14029.17
430.72	14274.93
430.91	15903.94
431.10	18904.51
431.28	22199.98
431.47	24170.71
431.66	24308.80
431.85	22094.66
432.03	20421.17
432.22	19606.67
432.41	20100.52
432.60	22333.39
432.79	23491.96
432.97	23889.85
433.16	23440.47
433.35	21415.90
433.54	19131.54
433.72	18054.89
433.91	18583.85
434.10	20676.29
434.28	22204.66
434.47	23414.72
434.66	22923.21
434.85	22483.19
435.03	22031.46
435.22	23030.87
435.41	24254.97
435.59	24570.94
435.78	24659.88
435.97	25158.42
436.16	25376.09
436.34	24999.26
436.53	24065.39
436.72	24746.48
436.90	23440.47
437.09	23171.30
437.28	22773.41
437.46	23489.62
437.65	23360.89
437.84	22125.08
438.02	20283.08
438.21	19950.73
438.40	20915.03
438.58	22958.31
438.77	23527.06
438.96	23810.27
439.14	25158.42
439.33	25212.25
439.52	25429.92
439.70	25273.10
439.89	24599.03
440.08	23646.43
440.26	24065.39
440.45	24486.68
440.63	26668.06
440.82	28060.68
441.01	27529.38
441.19	27421.72
441.38	27332.78
441.57	28304.10
441.75	28535.81
441.94	28809.65
442.12	28772.21
442.31	29149.03
442.50	29191.16
442.68	28978.17
442.87	28528.79
443.05	28332.18
443.24	28362.61
443.43	28842.42
443.61	29790.34
443.80	30213.98
443.98	28219.84
444.17	28322.82
444.35	30349.73
444.54	30321.64
444.73	29942.47
444.91	29050.73
445.10	27990.47
445.28	26932.54
445.47	25963.56
445.65	26438.69
445.84	27110.43
446.02	27992.81
446.21	28683.27
446.39	28563.90
446.58	28903.28
446.77	29284.78
446.95	29685.01
447.14	30558.03
447.32	30920.82
447.51	30066.52
447.69	29163.08
447.88	28737.10
448.06	29404.15
448.25	29879.28
448.43	30033.75
448.62	29450.96
448.80	28964.13
448.99	29329.25
449.17	29965.88
449.36	29418.19
449.54	30679.74
449.73	31297.64
449.91	31367.86
450.10	32416.42
450.28	32666.86
450.46	32231.52
450.65	32957.08
450.83	32519.40
451.02	32051.30
451.20	31630.00
451.39	31669.79
451.57	31133.81
451.76	31335.09
451.94	30551.01
452.13	31061.25
452.31	29525.86
452.49	28053.66
452.68	28011.53
452.86	28421.13
453.05	28341.55
453.23	29432.24
453.42	30125.04
453.60	30787.41
453.78	31166.57
453.97	31143.17
454.15	31262.54
454.34	30031.41
454.52	30202.27
454.70	29841.83
454.89	30169.51
455.07	29909.71
455.26	31166.57
455.44	31880.44
455.62	32339.18
455.81	32978.15
455.99	32428.12
456.17	31548.08
456.36	32301.73
456.54	33088.15
456.73	33352.63
456.91	33567.96
457.09	33780.95
457.28	34115.65
457.46	32503.02
457.64	32561.53
457.83	31246.15
458.01	31012.10
458.19	31510.63
458.38	31803.20
458.56	33273.06
458.74	32835.38
458.93	32641.11
459.11	32144.92
459.29	32163.64
459.48	32079.38
459.66	32144.92
459.84	32191.73
460.03	32861.12
460.21	32814.31
460.39	33612.43
460.57	33834.78
460.76	34550.99
460.94	34064.16
461.12	33619.46
461.31	33156.03
461.49	33060.07
461.67	33736.48
461.85	34831.85
462.04	34714.83
462.22	34595.46
462.40	34752.27
462.59	34295.87
462.77	34405.88
462.95	34155.44
463.13	34235.02
463.32	33944.79
463.50	33710.74
463.68	33687.33
463.86	33684.99
464.05	32966.45
464.23	31985.76
464.41	32287.69
464.59	31508.29
464.78	33692.01
464.96	33099.86
465.14	32615.37
465.32	33778.61
465.50	34768.66
465.69	34998.03
465.87	34082.88
466.05	33544.56
466.23	31658.09
466.41	31005.08
466.60	31894.48
466.78	32119.17
466.96	33062.41
467.14	32964.10
467.32	33326.89
467.51	33343.27
467.69	32067.68
467.87	32676.22
468.05	33289.44
468.23	33305.82
468.41	33254.33
468.60	33371.36
468.78	33659.24
468.96	33057.73
469.14	33729.46
469.32	33970.54
469.50	32463.23
469.69	32584.94
469.87	32203.43
470.05	32034.91
470.23	32570.90
470.41	32395.35
470.59	32690.26
470.77	32875.16
470.95	33303.48
471.14	34017.35
471.32	34015.01
471.50	35700.19
471.68	36137.87
471.86	36299.37
472.04	36304.05
472.22	36484.27
472.40	34534.60
472.58	34464.39
472.77	33874.57
472.95	34829.51
473.13	35732.96
473.31	34719.51
473.49	35250.81
473.67	35800.83
473.85	35924.88
474.03	36854.08
474.21	37095.15
474.39	36992.17
474.57	37385.38
474.75	37240.26
474.93	37401.76
475.12	36488.95
475.30	36137.87
475.48	36456.18
475.66	37106.85
475.84	36582.57
476.02	36341.50
476.20	35899.14
476.38	36151.91
476.56	37170.05
476.74	37769.22
476.92	38136.69
477.10	38005.62
477.28	40004.44
477.46	39447.39
477.64	40121.46
477.82	40147.21
478.00	40690.21
478.18	39473.13
478.36	39814.85
478.54	39606.55
478.72	40189.34
478.90	40928.95
479.08	41799.63
479.26	42525.19
479.44	42368.38
479.62	42256.03
479.80	42007.94
479.98	42394.12
480.16	42513.49
480.34	41935.38
480.52	42412.85
480.70	42754.57
480.88	42866.91
481.06	43723.55
481.24	43938.88
481.41	44594.23
481.59	45181.70
481.77	44823.60
481.95	44278.25
482.13	43936.54
482.31	44421.03
482.49	45558.53
482.67	44957.01
482.85	45226.17
483.03	45764.49
483.21	46600.07
483.39	46160.05
483.57	45195.74
483.74	45059.99
483.92	45504.70
484.10	45303.41
484.28	46651.56
484.46	46476.02
484.64	47384.15
484.82	46703.05
485.00	46036.00
485.18	45003.82
485.35	43569.07
485.53	40847.03
485.71	37038.98
485.89	36814.29
486.07	38422.23
486.25	41771.54
486.43	44032.50
486.61	44905.52
486.78	44458.48
486.96	44608.27
487.14	47107.96
487.32	47760.97
487.50	48481.86
487.68	49677.87
487.85	50218.53
488.03	49949.37
488.21	49680.21
488.39	48896.13
488.57	48374.19
488.75	47576.07
488.92	48868.05
489.10	51416.89
489.28	52750.99
489.46	53202.72
489.64	52905.47
489.81	53207.40
489.99	52935.90
490.17	52449.06
490.35	53216.76
490.53	52750.99
490.70	52339.06
490.88	52215.01
491.06	53165.27
491.24	53289.32
491.41	52367.15
491.59	50625.79
491.77	49626.38
491.95	50824.73
492.13	51945.85
492.30	53406.34
492.48	54019.56
492.66	54658.53
492.84	54485.33
493.01	54536.82
493.19	53820.62
493.37	53467.20
493.54	53322.08
493.72	53727.00
493.90	55014.29
494.08	55482.40
494.25	56238.39
494.43	56030.08
494.61	56339.04
494.79	56645.65
494.96	56278.18
495.14	55854.54
495.32	54808.32
495.49	54113.19
495.67	55105.57
495.85	56420.95
496.02	56987.36
496.20	56729.90
496.38	56170.52
496.55	56313.29
496.73	56678.41
496.91	56676.07
497.09	57406.32
497.26	57626.33
497.44	57073.96
497.62	56587.13
497.79	55845.18
497.97	54508.74
498.14	54351.92
498.32	55791.35
498.50	56427.98
498.67	57205.03
498.85	57190.99
499.03	57268.23
499.20	57413.34
499.38	57254.18
499.56	57120.77
499.73	57029.49
499.91	56486.49
500.08	56161.15
500.26	55238.98
500.44	55721.13
500.61	56374.14
500.79	56378.82
500.97	55800.71
501.14	55569.00
501.32	55674.32
501.49	55475.38
501.67	56072.21
501.84	56273.50
502.02	56397.55
502.20	56786.08
502.37	57193.33
502.55	57022.47
502.72	57528.03
502.90	57975.07
503.07	57733.99
503.25	57441.43
503.43	56420.95
503.60	55969.23
503.78	55332.60
503.95	55749.22
504.13	56985.02
504.30	57862.72
504.48	57631.01
504.65	57406.32
504.83	57467.17
505.01	57797.19
505.18	58288.70
505.36	58759.15
505.53	58695.95
505.71	59215.55
505.88	59114.91
506.06	58595.31
506.23	58197.42
506.41	57895.49
506.58	58122.52
506.76	57888.47
506.93	57883.79
507.11	57619.31
507.28	58120.18
507.46	57441.43
507.63	56924.17
507.81	56631.60
507.98	57071.62
508.16	57801.87
508.33	58262.96
508.50	58541.48
508.68	58805.96
508.85	59348.96
509.03	59093.85
509.20	59086.82
509.38	58511.05
509.55	57553.77
509.73	57783.15
509.90	58344.87
510.08	58419.77
510.25	58501.69
510.42	58426.79
510.60	58068.69
510.77	58387.00
510.95	58899.58
511.12	58993.20
511.30	59412.16
511.47	59831.11
511.64	59662.60
511.82	59330.24
511.99	58679.57
512.17	58333.17
512.34	57825.28
512.51	57841.66
512.69	57963.37
512.86	58192.74
513.04	58646.80
513.21	58787.24
513.38	58419.77
513.56	57518.67
513.73	57141.84
513.90	57418.02
514.08	57293.97
514.25	57806.55
514.43	57872.09
514.60	57818.25
514.77	58309.77
514.95	58379.98
515.12	58309.77
515.29	58368.28
515.47	58920.65
515.64	59070.44
515.81	58688.93
515.99	58251.25
516.16	57045.88
516.33	54454.90
516.51	52966.32
516.68	52406.94
516.85	51803.08
517.03	52151.82
517.20	54588.31
517.37	57317.38
517.54	58319.13
517.72	57726.97
517.89	55566.66
518.06	52872.70
518.24	53518.69
518.41	55442.61
518.58	56844.59
518.75	56963.96
518.93	57230.78
519.10	57146.52
519.27	57553.77
519.45	57759.74
519.62	58522.76
519.79	58885.54
519.96	58314.45
520.14	58504.03
520.31	57116.09
520.48	57216.74
520.65	57546.75
520.83	58651.48
521.00	58904.26
521.17	58859.79
521.34	58358.92
521.52	58623.40
521.69	58890.22
521.86	59339.60
522.03	59325.56
522.20	58131.89
522.38	57034.17
522.55	57097.37
522.72	57563.14
522.89	57715.27
523.07	57921.24
523.24	58410.41
523.41	59105.55
523.58	59299.81
523.75	59767.92
523.92	59379.39
524.10	59522.16
524.27	59498.76
524.44	59421.52
524.61	59016.61
524.78	58988.52
524.96	59096.19
525.13	59007.25
525.30	59150.02
525.47	59573.66
525.64	59508.12
525.81	58686.59
525.98	57364.19
526.16	56020.72
526.33	55470.70
526.50	55086.85
526.67	54490.01
526.84	55297.50
527.01	56385.85
527.18	57095.03
527.36	57888.47
527.53	58810.64
527.70	59241.30
527.87	58693.61
528.04	57935.28
528.21	58536.80
528.38	59089.16
528.55	59781.96
528.72	59744.51
528.89	60067.51
529.07	59828.77
529.24	59194.49
529.41	58740.42
529.58	58134.23
529.75	58204.44
529.92	58607.01
530.09	59063.42
530.26	59440.24
530.43	59686.00
530.60	59746.86
530.77	59990.27
530.94	60065.17
531.11	59650.89
531.28	59255.34
531.46	59009.59
531.63	59344.28
531.80	59196.83
531.97	58698.30
532.14	58171.67
532.31	57118.43
532.48	56231.37
532.65	56252.44
532.82	57214.40
532.99	58246.57
533.16	58679.57
533.33	59372.37
533.50	58897.24
533.67	58543.82
533.84	57921.24
534.01	58326.15
534.18	58216.14
534.35	58597.65
534.52	58564.88
534.69	58969.80
534.86	59058.74
535.03	59091.51
535.20	59517.48
535.37	59976.23
535.54	60114.32
535.71	59707.07
535.88	59437.90
536.05	58653.82
536.22	58494.67
536.38	57904.85
536.55	57612.29
536.72	56975.66
536.89	57118.43
537.06	57769.10
537.23	58630.42
537.40	58719.36
537.57	59004.91
537.74	58801.28
537.91	58621.06
538.08	58599.99
538.25	58333.17
538.42	58841.07
538.59	58623.40
538.75	57888.47
538.92	57741.02
539.09	57614.63
539.26	57474.20
539.43	57483.56
539.60	57277.59
539.77	57581.86
539.94	57357.17
540.11	56671.39
540.28	56322.65
540.44	56313.29
540.61	56463.08
540.78	56601.18
540.95	57200.35
541.12	57567.82
541.29	57773.78
541.46	57982.09
541.62	58155.29
541.79	58251.25
541.96	57495.26
542.13	57380.57
542.30	57511.64
542.47	57738.68
542.63	57764.42
542.80	57141.84
542.97	57565.48
543.14	57308.02
543.31	57586.54
543.48	57909.53
543.64	58569.57
543.81	58906.60
543.98	58749.79
544.15	58141.25
544.32	57551.43
544.48	57649.74
544.65	58115.50
544.82	58539.14
544.99	58113.16
545.16	57722.29
545.32	57497.60
545.49	58056.99
545.66	58578.93
545.83	58405.73
546.00	58089.76
546.16	57778.46
546.33	57656.76
546.50	57687.18
546.67	58190.40
546.83	57689.52
547.00	57563.14
547.17	57265.89
547.34	56341.38
547.50	56617.56
547.67	56966.30
547.84	57123.11
548.00	57237.80
548.17	57801.87
548.34	57509.30
548.51	57638.03
548.67	57680.16
548.84	57623.99
549.01	57659.10
549.18	57551.43
549.34	57605.26
549.51	57546.75
549.68	57392.28
549.84	57336.10
550.01	57181.63
550.18	56910.13
550.34	57190.99
550.51	57212.06
550.68	57050.56
550.84	56619.90
551.01	56671.39
551.18	56804.80
551.34	56837.57
551.51	57389.94
551.68	57572.50
551.84	57682.50
552.01	57497.60
552.18	57429.72
552.34	56619.90
552.51	56456.06
552.68	55959.87
552.84	56523.94
553.01	56793.10
553.18	56800.12
553.34	56786.08
553.51	56795.44
553.67	57329.08
553.84	57310.36
554.01	57226.10
554.17	56956.94
554.34	56978.00
554.51	57008.43
554.67	57474.20
554.84	57270.57
555.00	56938.21
555.17	56839.91
555.33	56680.75
555.50	56676.07
555.67	56952.26
555.83	56598.83
556.00	56533.30
556.16	56289.88
556.33	56076.90
556.50	55578.36
556.66	55765.60
556.83	55290.48
556.99	55784.33
557.16	55594.74
557.32	56348.40
557.49	56472.45
557.65	56259.46
557.82	56308.61
557.98	55920.08
558.15	55707.09
558.32	54672.57
558.48	53862.75
558.65	54131.91
558.81	54670.23
558.98	54843.43
559.14	55056.42
559.31	55044.72
559.47	55119.62
559.64	54932.37
559.80	54445.54
559.97	54391.71
560.13	54967.48
560.30	56081.58
560.46	56229.03
560.63	56652.67
560.79	56748.63
560.96	56332.01
561.12	55000.25
561.29	54087.44
561.45	54080.42
561.61	54958.12
561.78	55210.90
561.94	55248.35
562.11	55171.11
562.27	54962.80
562.44	55159.41
562.60	55800.71
562.77	55770.28
562.93	55601.77
563.10	55395.80
563.26	55086.85
563.42	54890.24
563.59	54635.13
563.75	54822.37
563.92	55093.87
564.08	54829.39
564.24	55037.70
564.41	55061.10
564.57	54920.67
564.74	54859.82
564.90	54717.04
565.07	54497.03
565.23	54082.76
565.39	53640.40
565.56	53352.51
565.72	53052.92
565.88	53495.28
566.05	53652.10
566.21	53731.68
566.38	53804.24
566.54	54164.68
566.70	54740.45
566.87	54630.44
567.03	54478.31
567.19	54761.51
567.36	54686.62
567.52	54351.92
567.68	54040.63
567.85	53787.85
568.01	53413.37
568.17	52645.67
568.34	52678.44
568.50	52769.72
568.66	52933.56
568.83	53272.93
568.99	53389.96
569.15	53471.88
569.32	53443.79
569.48	53226.12
569.64	53015.47
569.81	52968.66
569.97	52917.17
570.13	52640.99
570.30	52142.45
570.46	51409.87
570.62	51358.38
570.78	50815.37
570.95	51456.68
571.11	52374.17
571.27	52142.45
571.43	52772.06
571.60	52999.09
571.76	52821.21
571.92	53221.44
572.09	53389.96
572.25	53413.37
572.41	53656.78
572.57	53392.30
572.74	53198.04
572.90	52690.14
573.06	52655.03
573.22	52650.35
573.38	52339.06
573.55	52779.08
573.71	52954.62
573.87	52945.26
574.03	52622.26
574.20	52519.28
574.36	52374.17
574.52	52238.42
574.68	51875.63
574.84	51763.29
575.01	51461.36
575.17	51000.27
575.33	51529.23
575.49	51550.30
575.65	51835.84
575.82	51461.36
575.98	51119.64
576.14	51466.04
576.30	51774.99
576.46	52109.69
576.62	51805.42
576.79	51924.78
576.95	51447.32
577.11	51686.05
577.27	51587.75
577.43	51583.07
577.59	51255.39
577.75	50696.00
577.92	50396.42
578.08	49659.15
578.24	49631.06
578.40	50122.57
578.56	50457.27
578.72	50728.77
578.88	50653.87
579.04	50983.89
579.21	51152.41
579.37	50813.03
579.53	51152.41
579.69	50808.35
579.85	51393.48
580.01	51110.28
580.17	50710.05
580.33	50571.96
580.49	50674.94
580.65	50754.52
580.82	50918.35
580.98	51416.89
581.14	50932.40
581.30	50906.65
581.46	50838.78
581.62	50883.25
581.78	50880.91
581.94	51302.20
582.10	51381.78
582.26	51203.90
582.42	50958.14
582.58	51360.72
582.74	51454.34
582.90	51217.94
583.06	51154.75
583.22	51004.95
583.38	50646.85
583.54	50721.75
583.70	50609.40
583.86	50794.31
584.02	50548.55
584.18	50380.03
584.34	50707.71
584.50	50272.37
584.66	50274.71
584.82	49799.58
584.98	49853.41
585.14	49907.24
585.30	48800.17
