SpectraSuite Data File
++++++++++++++++++++++++++++++++++++
Date: Mon Oct 07 14:53:00 GMT-05:00 2013
User: price-jones
Dark Spectrum Present: No
Reference Spectrum Present: No
Number of Sampled Component Spectra: 1
Spectrometers: USB2+H05261
Integration Time (usec): 100000 (USB2+H05261)
Spectra Averaged: 1 (USB2+H05261)
Boxcar Smoothing: 0 (USB2+H05261)
Correct for Electrical Dark: No (USB2+H05261)
Strobe/Lamp Enabled: No (USB2+H05261)
Correct for Detector Non-linearity: No (USB2+H05261)
Correct for Stray Light: No (USB2+H05261)
Number of Pixels in Processed Spectrum: 2048
>>>>>Begin Processed Spectral Data<<<<<
365.73	0.00
365.92	0.00
366.12	0.00
366.32	0.00
366.52	0.00
366.72	0.00
366.91	0.00
367.11	0.00
367.31	0.00
367.51	0.00
367.70	0.00
367.90	0.00
368.10	0.00
368.30	0.00
368.49	0.00
368.69	0.00
368.89	0.00
369.09	0.00
369.28	0.00
369.48	0.00
369.68	0.00
369.87	0.00
370.07	0.00
370.27	0.00
370.47	636.63
370.66	3068.44
370.86	3648.90
371.06	3941.46
371.25	3992.95
371.45	3541.23
371.65	3173.77
371.84	2803.96
372.04	3138.66
372.24	3559.95
372.44	3571.66
372.63	3494.42
372.83	3365.69
373.03	2853.11
373.22	2691.62
373.42	2902.26
373.62	3419.52
373.81	3679.32
374.01	3545.91
374.21	3199.51
374.40	2888.22
374.60	3208.87
374.79	3604.42
374.99	4065.51
375.19	4386.16
375.38	4596.81
375.58	4236.37
375.78	4124.02
375.97	4257.43
376.17	4290.20
376.37	4461.06
376.56	4451.70
376.76	4699.80
376.95	4964.28
377.15	5343.44
377.35	5364.51
377.54	5849.00
377.74	5959.00
377.93	5947.30
378.13	5682.82
378.33	5418.34
378.52	5139.82
378.72	4973.64
378.91	4835.55
379.11	4674.05
379.31	4524.26
379.50	4496.17
379.70	4877.68
379.89	5296.63
380.09	5720.27
380.28	5755.38
380.48	5729.63
380.68	5720.27
380.87	5582.18
381.07	5123.43
381.26	4655.33
381.46	4580.43
381.65	4386.16
381.85	4248.07
382.04	3955.51
382.24	3805.71
382.43	3524.85
382.63	3536.55
382.83	3524.85
383.02	3559.95
383.22	3524.85
383.41	3396.12
383.61	3861.88
383.80	4346.37
384.00	4894.06
384.19	5561.11
384.39	5797.51
384.58	5678.14
384.78	5561.11
384.97	5577.50
385.17	5277.91
385.36	5004.07
385.56	4933.85
385.75	4954.91
385.95	5401.96
386.14	6064.33
386.34	6052.63
386.53	5558.77
386.72	5355.15
386.92	5291.95
387.11	5802.19
387.31	6045.60
387.50	5863.04
387.70	5659.42
387.89	5561.11
388.09	5771.76
388.28	5799.85
388.48	5591.54
388.67	6155.61
388.86	6656.48
389.06	7323.54
389.25	7660.57
389.45	7683.98
389.64	7562.27
389.84	7665.25
390.03	7403.11
390.22	7669.94
390.42	7740.15
390.61	8327.63
390.81	8798.07
391.00	8966.59
391.19	8826.16
391.39	8606.15
391.58	8184.85
391.78	7665.25
391.97	7442.90
392.16	7052.03
392.36	6195.40
392.55	5001.72
392.75	3990.61
392.94	3251.00
393.13	3300.16
393.33	3950.82
393.52	4891.72
393.71	6073.69
393.91	6895.22
394.10	7541.21
394.29	8170.81
394.49	8631.90
394.68	9455.76
394.88	9268.52
395.07	9675.77
395.26	9687.48
395.46	9324.69
395.65	8528.91
395.84	7847.82
396.04	6661.16
396.23	5266.21
396.42	4416.59
396.62	4287.86
396.81	5128.11
397.00	6544.14
397.19	7801.01
397.39	9605.56
397.58	10389.64
397.77	11293.08
397.97	11796.30
398.16	11929.71
398.35	12388.46
398.55	12791.03
398.74	13202.96
398.93	13544.68
399.12	13221.69
399.32	12491.44
399.51	13013.38
399.70	13884.06
399.90	13818.52
400.09	13947.25
400.28	13549.36
400.47	13774.05
400.67	14548.77
400.86	14780.48
401.05	14586.22
401.24	14799.21
401.44	15131.56
401.63	15035.60
401.82	15073.05
402.01	15264.97
402.21	15672.23
402.40	15365.62
402.59	14974.75
402.78	14092.37
402.97	13771.71
403.17	14438.76
403.36	15382.00
403.55	15915.64
403.74	16166.08
403.93	15459.24
404.13	14122.79
404.32	13771.71
404.51	14518.34
404.70	15775.21
404.89	15634.78
405.09	15534.14
405.28	15145.61
405.47	14941.98
405.66	14850.70
405.85	14576.86
406.05	14335.78
406.24	14661.12
406.43	15012.20
406.62	15545.84
406.81	15845.43
407.00	15302.42
407.20	14743.03
407.39	14689.20
407.58	15592.65
407.77	16070.12
407.96	17104.64
408.15	16968.88
408.34	16980.59
408.54	17769.35
408.73	17692.11
408.92	17657.00
409.11	16940.80
409.30	15922.66
409.49	15173.69
409.68	14272.59
409.87	14052.58
410.07	14815.59
410.26	16152.04
410.45	17046.12
410.64	17245.07
410.83	17902.76
411.02	18246.82
411.21	19044.94
411.40	18459.81
411.59	18836.63
411.78	18750.03
411.98	18583.85
412.17	19250.91
412.36	18394.27
412.55	18361.50
412.74	18375.55
412.93	17752.96
413.12	17642.96
413.31	19578.58
413.50	19770.51
413.69	20301.81
413.88	19157.28
414.07	18764.07
414.26	18845.99
414.45	19878.17
414.64	19665.18
414.83	19990.52
415.02	19398.36
415.22	19651.14
415.41	20205.84
415.60	20514.80
415.79	21125.68
415.98	21797.41
416.17	21968.27
416.36	21102.27
416.55	20798.00
416.74	20402.45
416.93	19751.78
417.12	19728.38
417.31	19910.94
417.50	20285.42
417.69	20905.66
417.88	20753.53
418.07	21113.97
418.26	20341.60
418.45	20861.19
418.64	21123.33
418.83	22078.27
419.02	21834.86
419.21	21830.18
419.39	20442.24
419.58	19468.58
419.77	19573.90
419.96	20666.93
420.15	21649.96
420.34	22300.62
420.53	23236.84
420.72	23637.07
420.91	23353.87
421.10	22963.00
421.29	23087.04
421.48	22354.46
421.67	23037.89
421.86	22806.18
422.05	21008.65
422.24	19091.75
422.43	18836.63
422.61	20662.25
422.80	22511.27
422.99	22071.25
423.18	21462.71
423.37	21221.64
423.56	21228.66
423.75	21734.21
423.94	22057.21
424.13	21048.44
424.32	21043.76
424.50	21008.65
424.69	20772.25
424.88	21160.78
425.07	20964.18
425.26	20919.71
425.45	20421.17
425.64	20163.72
425.83	20212.87
426.01	21656.98
426.20	22003.38
426.39	21668.68
426.58	20175.42
426.77	18618.96
426.96	17926.16
427.15	18597.90
427.33	20666.93
427.52	21067.16
427.71	20989.92
427.90	20697.36
428.09	20830.77
428.28	20259.68
428.46	19449.85
428.65	19414.74
428.84	19587.94
429.03	20184.78
429.22	18956.00
429.40	17848.93
429.59	16505.46
429.78	14338.12
429.97	14712.61
430.16	14757.08
430.34	14984.11
430.53	14703.25
430.72	15374.98
430.91	16931.44
431.10	19887.53
431.28	23133.86
431.47	25376.09
431.66	24837.76
431.85	22934.91
432.03	21048.44
432.22	20177.76
432.41	21036.74
432.60	23658.14
432.79	24524.13
432.97	25008.62
433.16	24465.62
433.35	21986.99
433.54	19798.59
433.72	18614.28
433.91	19707.31
434.10	21774.00
434.28	23185.35
434.47	24570.94
434.66	23882.83
434.85	23178.33
435.03	23358.55
435.22	23847.72
435.41	25425.24
435.59	25469.71
435.78	25907.39
435.97	26209.32
436.16	26518.27
436.34	26192.94
436.53	25483.75
436.72	25699.08
436.90	24320.51
437.09	24231.57
437.28	23714.31
437.46	24643.50
437.65	24374.34
437.84	22843.63
438.02	21333.98
438.21	20812.04
438.40	22171.89
438.58	24006.87
438.77	24795.64
438.96	24725.42
439.14	25846.54
439.33	26256.13
439.52	26796.79
439.70	26169.53
439.89	25914.41
440.08	24877.55
440.26	25287.15
440.45	25825.47
440.63	27491.93
440.82	28884.55
441.01	28327.50
441.19	28360.27
441.38	29167.76
441.57	30047.80
441.75	30256.11
441.94	30455.05
442.12	30017.37
442.31	30859.96
442.50	30843.58
442.68	30267.81
442.87	30136.74
443.05	29436.92
443.24	29858.21
443.43	30974.65
443.61	31257.85
443.80	31562.12
443.98	29724.80
444.17	30150.78
444.35	31372.54
444.54	32102.79
444.73	31365.52
444.91	30389.52
445.10	29097.54
445.28	28156.64
445.47	27814.93
445.65	27807.90
445.84	28535.81
446.02	29390.11
446.21	30012.69
446.39	29991.62
446.58	30040.78
446.77	31292.96
446.95	31002.74
447.14	32098.11
447.32	32643.45
447.51	31676.81
447.69	30462.07
447.88	30312.28
448.06	30881.03
448.25	31412.33
448.43	31262.54
448.62	30424.62
448.80	30848.26
448.99	31346.79
449.17	31721.28
449.36	31454.46
449.54	32388.33
449.73	32938.36
449.91	33387.74
450.10	34213.95
450.28	34820.15
450.46	34218.63
450.65	34637.59
450.83	34696.10
451.02	33340.93
451.20	33521.15
451.39	33427.53
451.57	33031.98
451.76	33244.97
451.94	33113.90
452.13	32275.99
452.31	30785.07
452.49	29233.29
452.68	29795.02
452.86	30153.12
453.05	30422.28
453.23	31522.34
453.42	31873.42
453.60	32896.23
453.78	32947.72
453.97	32400.04
454.15	32669.20
454.34	31852.35
454.52	31971.72
454.70	31812.56
454.89	31744.69
455.07	32224.50
455.26	32570.90
455.44	34000.96
455.62	34340.34
455.81	34857.60
455.99	34115.65
456.17	34176.50
456.36	34108.63
456.54	34974.63
456.73	34682.06
456.91	35152.51
457.09	35854.67
457.28	36023.19
457.46	34773.34
457.64	34763.98
457.83	33450.94
458.01	32758.14
458.19	33752.87
458.38	34064.16
458.56	35093.99
458.74	34817.81
458.93	34359.06
459.11	33907.34
459.29	34220.97
459.48	34232.68
459.66	34040.75
459.84	34700.78
460.03	34850.58
460.21	34836.53
460.39	35955.31
460.57	35744.66
460.76	36088.72
460.94	36172.98
461.12	35992.76
461.31	35641.68
461.49	35660.40
461.67	35655.72
461.85	36987.49
462.04	36479.59
462.22	37134.94
462.40	36809.61
462.59	36135.53
462.77	36301.71
462.95	36575.55
463.13	36425.76
463.32	35585.50
463.50	35456.78
463.68	35562.10
463.86	36011.48
464.05	34972.28
464.23	34450.35
464.41	34668.02
464.59	33802.02
464.78	35798.49
464.96	35515.29
465.14	35089.31
465.32	35927.22
465.50	36910.25
465.69	37006.21
465.87	36287.67
466.05	35711.89
466.23	33659.24
466.41	32954.74
466.60	34120.33
466.78	34223.31
466.96	34639.93
467.14	35040.16
467.32	35817.22
467.51	35981.06
467.69	34033.73
467.87	34658.65
468.05	35529.33
468.23	35585.50
468.41	35723.60
468.60	35756.36
468.78	36222.13
468.96	35721.26
469.14	36577.89
469.32	36168.30
469.50	34525.24
469.69	35292.94
469.87	34696.10
470.05	34499.50
470.23	34684.40
470.41	34625.89
470.59	35173.57
470.77	35192.30
470.95	35515.29
471.14	36629.38
471.32	36631.72
471.50	38508.83
471.68	38258.40
471.86	38857.57
472.04	38623.52
472.22	39377.17
472.40	36720.66
472.58	36760.45
472.77	36421.08
472.95	37563.26
473.13	38314.57
473.31	37221.54
473.49	37273.03
473.67	37783.27
473.85	38216.27
474.03	39414.62
474.21	39295.25
474.39	39751.66
474.57	39992.73
474.75	39974.01
474.93	39529.31
475.12	38831.83
475.30	39182.91
475.48	38920.77
475.66	39688.46
475.84	39063.54
476.02	39143.12
476.20	38124.99
476.38	39168.87
476.56	40268.92
476.74	40615.32
476.92	40774.47
477.10	41345.56
477.28	42579.03
477.46	42398.80
477.64	42698.39
477.82	43009.68
478.00	43475.45
478.18	42188.16
478.36	42218.58
478.54	42705.41
478.72	42576.69
478.90	44086.33
479.08	45013.18
479.26	45291.71
479.44	44968.71
479.62	45104.46
479.80	45034.25
479.98	45235.53
480.16	45785.56
480.34	45397.03
480.52	45310.43
480.70	45890.88
480.88	45647.47
481.06	46513.47
481.24	47061.15
481.41	47950.56
481.59	48617.61
481.77	48081.63
481.95	47313.93
482.13	47105.62
482.31	47445.00
482.49	47920.13
482.67	48184.61
482.85	48135.46
483.03	48655.06
483.21	48861.02
483.39	49081.03
483.57	48746.34
483.74	48184.61
483.92	48346.11
484.10	48315.68
484.28	49701.28
484.46	49450.84
484.64	50199.81
484.82	49509.35
485.00	48788.47
485.18	48062.90
485.35	46754.54
485.53	43356.08
485.71	39885.07
485.89	39978.69
486.07	41574.94
486.25	45034.25
486.43	47463.72
486.61	47814.80
486.78	47803.10
486.96	48315.68
487.14	49886.18
487.32	50468.97
487.50	51105.60
487.68	52140.11
487.85	52645.67
488.03	52765.04
488.21	52383.53
488.39	51316.25
488.57	51227.31
488.75	50674.94
488.92	51952.87
489.10	54078.08
489.28	54988.55
489.46	55484.74
489.64	55360.69
489.81	55711.77
489.99	55391.12
490.17	55201.53
490.35	55648.58
490.53	55044.72
490.70	54829.39
490.88	54480.65
491.06	55515.17
491.24	55522.19
491.41	54363.62
491.59	53064.63
491.77	52566.09
491.95	53680.19
492.13	54813.01
492.30	55681.34
492.48	56456.06
492.66	57127.80
492.84	56942.89
493.01	56530.96
493.19	56254.78
493.37	55875.61
493.54	55789.01
493.72	56449.04
493.90	57219.08
494.08	57862.72
494.25	58143.59
494.43	58216.14
494.61	58691.27
494.79	58794.26
494.96	58433.81
495.14	58078.05
495.32	56978.00
495.49	56481.81
495.67	57628.67
495.85	58770.85
496.02	59257.68
496.20	58873.84
496.38	58410.41
496.55	58377.64
496.73	59044.69
496.91	58995.54
497.09	59430.88
497.26	59636.85
497.44	59304.49
497.62	58763.83
497.79	57869.75
497.97	56968.64
498.14	57160.56
498.32	58120.18
498.50	58803.62
498.67	59372.37
498.85	59278.75
499.03	59245.98
499.20	59695.36
499.38	59601.74
499.56	59363.01
499.73	59173.42
499.91	58459.56
500.08	58272.32
500.26	57506.96
500.44	58286.36
500.61	58815.32
500.79	58485.31
500.97	58066.35
501.14	58227.85
501.32	58047.63
501.49	57895.49
501.67	58169.33
501.84	58747.45
502.02	58775.53
502.20	59332.58
502.37	59402.80
502.55	59325.56
502.72	59788.98
502.90	60116.66
503.07	60027.72
503.25	59646.21
503.43	58770.85
503.60	58277.00
503.78	57560.79
503.95	58078.05
504.13	59391.09
504.30	60158.79
504.48	59833.46
504.65	59742.17
504.83	59721.11
505.01	60245.39
505.18	60598.81
505.36	61076.28
505.53	61153.52
505.71	61333.74
505.88	61333.74
506.06	60786.05
506.23	60540.30
506.41	60140.07
506.58	60327.31
506.76	60425.61
506.93	60458.38
507.11	60140.07
507.28	60336.67
507.46	59671.96
507.63	59449.61
507.81	58965.12
507.98	59447.27
508.16	59966.87
508.33	60535.62
508.50	60877.33
508.68	60912.44
508.85	61542.05
509.03	61415.66
509.20	61282.25
509.38	60523.91
509.55	60130.70
509.73	60266.45
509.90	60645.62
510.08	60856.27
510.25	60650.30
510.42	60582.43
510.60	60549.66
510.77	60947.55
510.95	61364.17
511.12	61352.46
511.30	61759.72
511.47	61916.53
511.64	61848.66
511.82	61385.23
511.99	60662.00
512.17	60425.61
512.34	60156.45
512.51	60418.59
512.69	60533.28
512.86	60446.68
513.04	60872.65
513.21	60797.76
513.38	60750.94
513.56	60088.57
513.73	59573.66
513.90	59931.76
514.08	59793.67
514.25	60236.03
514.43	60334.33
514.60	60355.39
514.77	60378.80
514.95	60460.72
515.12	60561.36
515.29	60893.72
515.47	61069.26
515.64	61516.30
515.81	60926.49
515.99	60467.74
516.16	59021.29
516.33	56947.57
516.51	55913.06
516.68	54972.16
516.85	54649.17
517.03	55276.43
517.20	57701.23
517.37	59805.37
517.54	60781.37
517.72	60205.60
517.89	57762.08
518.06	55849.86
518.24	56540.32
518.41	58398.71
518.58	59175.76
518.75	59461.31
518.93	59592.38
519.10	59622.81
519.27	60128.36
519.45	60310.92
519.62	60769.67
519.79	61230.75
519.96	60938.19
520.14	60533.28
520.31	59845.16
520.48	59854.52
520.65	60303.90
520.83	61181.60
521.00	61528.00
521.17	61109.05
521.34	60905.42
521.52	61034.15
521.69	61670.78
521.86	61822.91
522.03	61453.11
522.20	60364.76
522.38	59552.59
522.55	59709.41
522.72	60191.56
522.89	60395.18
523.07	60512.21
523.24	60989.68
523.41	61579.49
523.58	61900.15
523.75	62171.65
523.92	62103.77
524.10	62068.67
524.27	61843.98
524.44	61895.47
524.61	61787.80
524.78	61532.68
524.96	61366.51
525.13	61343.10
525.30	61504.60
525.47	62230.16
525.64	61937.60
525.81	61132.45
525.98	59875.58
526.16	58717.02
526.33	58197.42
526.50	57808.89
526.67	57577.18
526.84	58246.57
527.01	59007.25
527.18	60058.15
527.36	60779.03
527.53	61319.70
527.70	61663.75
527.87	61118.41
528.04	60676.05
528.21	61155.86
528.38	61855.68
528.55	62276.97
528.72	62419.75
528.89	62742.74
529.07	62323.78
529.24	61745.67
529.41	61322.04
529.58	60645.62
529.75	60947.55
529.92	61087.98
530.09	61675.46
530.26	62005.47
530.43	62049.94
530.60	62323.78
530.77	62522.73
530.94	62534.43
531.11	62321.44
531.28	61836.95
531.46	61675.46
531.63	61923.55
531.80	61893.13
531.97	61457.79
532.14	60486.46
532.31	59482.37
532.48	59192.15
532.65	59058.74
532.82	60079.21
532.99	61085.64
533.16	61031.81
533.33	61778.44
533.50	61530.34
533.67	61146.50
533.84	60828.18
534.01	60989.68
534.18	60903.08
534.35	61291.61
534.52	61160.54
534.69	61235.44
534.86	61591.20
535.03	61932.92
535.20	62276.97
535.37	62489.96
535.54	62415.07
535.71	62188.03
535.88	62052.28
536.05	61317.35
536.22	61141.81
536.38	60757.97
536.55	60287.52
536.72	59873.24
536.89	59676.64
537.06	60757.97
537.23	61261.18
537.40	61539.71
537.57	61577.15
537.74	61513.96
537.91	61464.81
538.08	61315.01
538.25	61422.68
538.42	61532.68
538.59	61319.70
538.75	60666.69
538.92	60708.82
539.09	60420.93
539.26	60088.57
539.43	60317.95
539.60	60392.84
539.77	60540.30
539.94	60200.92
540.11	59592.38
540.28	59065.76
540.44	59217.89
540.61	59552.59
540.78	59655.57
540.95	59945.80
541.12	60430.29
541.29	60530.93
541.46	61031.81
541.62	60952.23
541.79	60753.29
541.96	60107.30
542.13	60308.58
542.30	60643.28
542.47	60626.90
542.63	60322.63
542.80	60252.41
542.97	60381.14
543.14	60205.60
543.31	60261.77
543.48	60821.16
543.64	61277.57
543.81	61806.53
543.98	61387.57
544.15	60839.89
544.32	60406.89
544.48	60643.28
544.65	60910.10
544.82	61179.26
544.99	60860.95
545.16	60575.40
545.32	60430.29
545.49	61095.00
545.66	61455.45
545.83	60985.00
546.00	60711.16
546.16	60362.42
546.33	60491.15
546.50	60570.72
546.67	60842.23
546.83	60348.37
547.00	60523.91
547.17	60058.15
547.34	59583.02
547.50	59480.03
547.67	59952.82
547.84	59987.93
548.00	60191.56
548.17	60669.03
548.34	60589.45
548.51	60479.44
548.67	60598.81
548.84	60718.18
549.01	60535.62
549.18	60472.42
549.34	60378.80
549.51	60397.52
549.68	60317.95
549.84	60114.32
550.01	60214.96
550.18	59889.63
550.34	60011.34
550.51	60114.32
550.68	60165.81
550.84	59777.28
551.01	59803.03
551.18	59751.54
551.34	60046.44
551.51	60315.61
551.68	60711.16
551.84	60664.35
552.01	60486.46
552.18	60179.85
552.34	59526.84
552.51	59295.13
552.68	59341.94
552.84	59590.04
553.01	59957.50
553.18	59805.37
553.34	59934.10
553.51	59938.78
553.67	60292.20
553.84	60339.01
554.01	60203.26
554.17	60168.15
554.34	60217.30
554.51	60420.93
554.67	60722.86
554.84	60645.62
555.00	60067.51
555.17	59831.11
555.33	59948.14
555.50	59943.46
555.67	59793.67
555.83	59585.36
556.00	59512.80
556.16	59629.83
556.33	58932.35
556.50	58946.39
556.66	59147.68
556.83	58759.15
556.99	58726.38
557.16	59049.38
557.32	59103.21
557.49	59393.43
557.65	59140.66
557.82	59489.40
557.98	59311.52
558.15	58850.43
558.32	57939.96
558.48	57244.82
558.65	57680.16
558.81	58152.95
558.98	58185.72
559.14	58262.96
559.31	58422.11
559.47	58232.53
559.64	58038.26
559.80	57893.15
559.97	57780.81
560.13	58429.13
560.30	59208.53
560.46	59554.93
560.63	59824.09
560.79	59934.10
560.96	59402.80
561.12	58288.70
561.29	57726.97
561.45	58003.16
561.61	58241.89
561.78	58726.38
561.94	58513.39
562.11	58279.34
562.27	58298.06
562.44	58440.84
562.60	58754.47
562.77	59297.47
562.93	58763.83
563.10	58752.13
563.26	58356.58
563.42	58408.07
563.59	58108.48
563.75	58155.29
563.92	58052.31
564.08	58225.51
564.24	58574.25
564.41	58611.70
564.57	58450.20
564.74	58000.82
564.90	58103.80
565.07	58096.78
565.23	57565.48
565.39	57408.66
565.56	56767.35
565.72	56718.20
565.88	57062.26
566.05	57144.18
566.21	57656.76
566.38	57687.18
566.54	57736.34
566.70	57989.11
566.87	58319.13
567.03	58094.44
567.19	58340.19
567.36	58047.63
567.52	58024.22
567.68	57815.91
567.85	57310.36
568.01	57013.11
568.17	56198.60
568.34	56666.71
568.50	56388.19
568.66	56554.36
568.83	56818.84
568.99	56868.00
569.15	57265.89
569.32	57338.44
569.48	56994.39
569.64	56762.67
569.81	56481.81
569.97	56507.55
570.13	56554.36
570.30	55777.31
570.46	55700.07
570.62	55014.29
570.78	55056.42
570.95	55381.76
571.11	55990.30
571.27	56121.37
571.43	56357.76
571.60	56741.61
571.76	56802.46
571.92	57027.15
572.09	57375.89
572.25	57174.61
572.41	57193.33
572.57	56783.74
572.74	56942.89
572.90	56694.80
573.06	56844.59
573.22	56828.21
573.38	56420.95
573.55	56484.15
573.71	56612.88
573.87	56783.74
574.03	56355.42
574.20	56505.21
574.36	56156.47
574.52	56016.04
574.68	55880.29
574.84	55538.57
575.01	55044.72
575.17	55292.82
575.33	55606.45
575.49	55709.43
575.65	56032.42
575.82	55587.72
575.98	55440.27
576.14	55781.99
576.30	55861.57
576.46	55728.16
576.62	55882.63
576.79	55842.84
576.95	55564.32
577.11	55412.18
577.27	55316.22
577.43	55789.01
577.59	54983.86
577.75	54805.98
577.92	54251.28
578.08	54199.79
578.24	54057.01
578.40	54590.66
578.56	54813.01
578.72	54604.70
578.88	55269.41
579.04	55363.03
579.21	55103.23
579.37	55267.07
579.53	55243.66
579.69	55079.83
579.85	55231.96
580.01	55489.42
580.17	54726.41
580.33	54752.15
580.49	54913.65
580.65	55114.94
580.82	55199.19
580.98	55072.81
581.14	54965.14
581.30	55255.37
581.46	55023.65
581.62	55442.61
581.78	55351.33
581.94	55475.38
582.10	55276.43
582.26	55566.66
582.42	55348.99
582.58	55365.37
582.74	55297.50
582.90	55590.06
583.06	55447.29
583.22	55112.59
583.38	54733.43
583.54	55260.05
583.70	54981.52
583.86	55217.92
584.02	55011.95
584.18	55164.09
584.34	54948.76
584.50	54930.03
584.66	54665.55
584.82	54305.11
584.98	54419.80
585.14	54138.93
585.30	53179.31
