SpectraSuite Data File
++++++++++++++++++++++++++++++++++++
Date: Mon Oct 07 14:53:52 GMT-05:00 2013
User: price-jones
Dark Spectrum Present: No
Reference Spectrum Present: No
Number of Sampled Component Spectra: 1
Spectrometers: USB2+H05261
Integration Time (usec): 100000 (USB2+H05261)
Spectra Averaged: 1 (USB2+H05261)
Boxcar Smoothing: 0 (USB2+H05261)
Correct for Electrical Dark: No (USB2+H05261)
Strobe/Lamp Enabled: No (USB2+H05261)
Correct for Detector Non-linearity: No (USB2+H05261)
Correct for Stray Light: No (USB2+H05261)
Number of Pixels in Processed Spectrum: 2048
>>>>>Begin Processed Spectral Data<<<<<
365.73	0.00
365.92	0.00
366.12	0.00
366.32	0.00
366.52	0.00
366.72	0.00
366.91	0.00
367.11	0.00
367.31	0.00
367.51	0.00
367.70	0.00
367.90	0.00
368.10	0.00
368.30	0.00
368.49	0.00
368.69	0.00
368.89	0.00
369.09	0.00
369.28	0.00
369.48	0.00
369.68	0.00
369.87	0.00
370.07	0.00
370.27	0.00
370.47	559.39
370.66	2930.35
370.86	3337.60
371.06	3775.28
371.25	3847.84
371.45	3431.23
371.65	3166.74
371.84	2801.62
372.04	3126.96
372.24	3363.35
372.44	3515.48
372.63	3623.15
372.83	3445.27
373.03	2899.92
373.22	2600.34
373.42	2698.64
373.62	3131.64
373.81	3536.55
374.01	3604.42
374.21	3178.45
374.40	2787.58
374.60	3023.97
374.79	3286.11
374.99	3985.93
375.19	4320.63
375.38	4252.75
375.58	4030.40
375.78	3964.87
375.97	4095.94
376.17	4105.30
376.37	4196.58
376.56	4259.78
376.76	4528.94
376.95	4746.61
377.15	5188.97
377.35	5298.97
377.54	5556.43
377.74	5624.31
377.93	5757.72
378.13	5504.94
378.33	5383.23
378.52	4880.02
378.72	4606.17
378.91	4486.81
379.11	4407.23
379.31	4322.97
379.50	4210.62
379.70	4585.11
379.89	5116.41
380.09	5359.83
380.28	5631.33
380.48	5488.56
380.68	5554.09
380.87	5376.21
381.07	4968.96
381.26	4552.34
381.46	4306.59
381.65	4191.90
381.85	4065.51
382.04	3885.29
382.24	3641.87
382.43	3478.04
382.63	3318.88
382.83	3382.07
383.02	3449.95
383.22	3403.14
383.41	3316.54
383.61	3508.46
383.80	4149.77
384.00	4702.14
384.19	5102.37
384.39	5610.26
384.58	5458.13
384.78	5394.93
384.97	5343.44
385.17	5128.11
385.36	4912.78
385.56	4699.80
385.75	4702.14
385.95	5371.53
386.14	5708.57
386.34	5799.85
386.53	5584.52
386.72	5100.03
386.92	5188.97
387.11	5411.32
387.31	5680.48
387.50	5598.56
387.70	5392.59
387.89	5359.83
388.09	5528.35
388.28	5366.85
388.48	5591.54
388.67	5942.62
388.86	6445.84
389.06	6920.96
389.25	7288.43
389.45	7529.50
389.64	7325.88
389.84	7307.15
390.03	7140.97
390.22	7243.96
390.42	7330.56
390.61	7702.70
390.81	8521.89
391.00	8559.34
391.19	8500.83
391.39	8353.37
391.58	7852.50
391.78	7410.14
391.97	7152.68
392.16	6429.45
392.36	6066.67
392.55	4744.27
392.75	3838.48
392.94	3084.83
393.13	3082.49
393.33	3637.19
393.52	4725.54
393.71	5884.11
393.91	6537.12
394.10	7000.54
394.29	7573.97
394.49	8332.31
394.68	8982.98
394.88	8884.67
395.07	9327.03
395.26	9364.48
395.46	8891.70
395.65	8339.33
395.84	7461.63
396.04	6296.04
396.23	4919.81
396.42	4278.50
396.62	4002.32
396.81	4863.63
397.00	6085.39
397.19	7550.57
397.39	8959.57
397.58	10113.45
397.77	10757.10
397.97	11115.20
398.16	11239.25
398.35	11784.60
398.55	11955.46
398.74	12320.58
398.93	12643.57
399.12	12535.91
399.32	11971.84
399.51	12545.27
399.70	13345.73
399.90	13001.68
400.09	13130.41
400.28	13006.36
400.47	12982.95
400.67	13951.93
400.86	14249.18
401.05	13984.70
401.24	14057.26
401.44	14427.06
401.63	14120.45
401.82	14387.27
402.01	14846.02
402.21	14583.88
402.40	14670.48
402.59	14420.04
402.78	13568.09
402.97	13242.75
403.17	13617.24
403.36	14391.95
403.55	15009.86
403.74	15389.02
403.93	14712.61
404.13	13413.61
404.32	13090.62
404.51	13809.16
404.70	14925.60
404.89	14895.17
405.09	14750.06
405.28	14253.86
405.47	14398.98
405.66	14136.84
405.85	14015.13
406.05	13429.99
406.24	13547.02
406.43	14291.31
406.62	14848.36
406.81	14679.84
407.00	14340.46
407.20	14001.08
407.39	14279.61
407.58	14478.55
407.77	15473.28
407.96	16262.04
408.15	15957.77
408.34	16250.34
408.54	16570.99
408.73	16802.71
408.92	16655.25
409.11	16130.97
409.30	15655.84
409.49	14546.43
409.68	13685.11
409.87	13242.75
410.07	13956.61
410.26	14881.13
410.45	15894.58
410.64	16547.59
410.83	16959.52
411.02	17198.26
411.21	18010.42
411.40	17666.36
411.59	18155.54
411.78	17720.20
411.98	17462.74
412.17	17923.82
412.36	17453.37
412.55	17362.09
412.74	17345.71
412.93	16479.71
413.12	16945.48
413.31	18672.79
413.50	18642.37
413.69	19089.41
413.88	18366.18
414.07	17741.26
414.26	18087.66
414.45	18237.45
414.64	18590.88
414.83	18703.22
415.02	18412.99
415.22	18295.97
415.41	18864.72
415.60	19513.05
415.79	20266.70
415.98	20500.75
416.17	20292.44
416.36	20205.84
416.55	19939.02
416.74	19178.35
416.93	18403.63
417.12	18438.74
417.31	18937.27
417.50	19101.11
417.69	19695.61
417.88	19686.25
418.07	19730.72
418.26	19098.77
418.45	19527.09
418.64	20353.30
418.83	20587.35
419.02	20538.20
419.21	20477.35
419.39	19534.11
419.58	18405.97
419.77	18600.24
419.96	19524.75
420.15	20402.45
420.34	21064.82
420.53	22001.04
420.72	22003.38
420.91	22040.82
421.10	21741.24
421.29	21605.49
421.48	20727.78
421.67	21537.61
421.86	21202.91
422.05	19742.42
422.24	17778.71
422.43	17516.57
422.61	19468.58
422.80	21116.31
422.99	21003.97
423.18	20322.87
423.37	19449.85
423.56	19777.53
423.75	20123.93
423.94	20456.28
424.13	19410.06
424.32	19613.69
424.50	19941.36
424.69	19548.15
424.88	19536.45
425.07	19449.85
425.26	19789.23
425.45	19360.91
425.64	18672.79
425.83	18953.66
426.01	20240.95
426.20	20538.20
426.39	20423.51
426.58	18778.12
426.77	17617.21
426.96	16774.62
427.15	17568.06
427.33	18984.09
427.52	19648.80
427.71	19826.68
427.90	19555.18
428.09	19339.85
428.28	19278.99
428.46	18408.31
428.65	18223.41
428.84	18434.06
429.03	18490.23
429.22	17869.99
429.40	17111.66
429.59	15372.64
429.78	13582.13
429.97	13558.72
430.16	13631.28
430.34	13874.70
430.53	13504.89
430.72	14031.51
430.91	15463.92
431.10	18258.52
431.28	21640.59
431.47	23122.15
431.66	23494.30
431.85	21605.49
432.03	19915.62
432.22	18883.44
432.41	19487.30
432.60	21827.84
432.79	22656.39
432.97	23159.60
433.16	22682.13
433.35	20559.27
433.54	18750.03
433.72	17610.19
433.91	17902.76
434.10	20063.07
434.28	21635.91
434.47	22384.88
434.66	22698.52
434.85	21923.80
435.03	21490.80
435.22	22544.04
435.41	23763.46
435.59	23613.66
435.78	24002.19
435.97	24636.48
436.16	24662.22
436.34	24421.15
436.53	23428.76
436.72	24079.43
436.90	22293.60
437.09	22574.47
437.28	21872.31
437.46	22953.63
437.65	22843.63
437.84	21329.30
438.02	19150.26
438.21	19140.90
438.40	20585.01
438.58	22469.14
438.77	23068.32
438.96	22628.30
439.14	23672.18
439.33	24519.45
439.52	25350.34
439.70	24210.50
439.89	23620.69
440.08	23274.29
440.26	22991.08
440.45	24151.99
440.63	25118.63
440.82	26834.24
441.01	26148.46
441.19	26092.29
441.38	26443.37
441.57	27517.68
441.75	27967.06
441.94	28074.73
442.12	27562.15
442.31	28505.38
442.50	28568.58
442.68	27810.25
442.87	27381.93
443.05	27358.52
443.24	27426.40
443.43	28109.83
443.61	28701.99
443.80	29345.64
443.98	27225.11
444.17	27655.77
444.35	29099.88
444.54	29383.09
444.73	28828.38
444.91	28081.75
445.10	27049.57
445.28	25773.98
445.47	24957.13
445.65	25654.61
445.84	26363.79
446.02	27051.91
446.21	27594.92
446.39	27676.83
446.58	28297.08
446.77	28166.01
446.95	28526.45
447.14	29226.27
447.32	30118.01
447.51	29528.20
447.69	28250.27
447.88	27721.30
448.06	28320.48
448.25	29083.50
448.43	29221.59
448.62	28030.26
448.80	28327.50
448.99	28823.70
449.17	28407.08
449.36	28519.43
449.54	29706.08
449.73	30218.66
449.91	30703.15
450.10	31187.64
450.28	32194.07
450.46	31770.43
450.65	31716.60
450.83	31440.42
451.02	30738.26
451.20	30574.42
451.39	30785.07
451.57	30684.42
451.76	30464.41
451.94	30431.65
452.13	29551.60
452.31	28432.83
452.49	27318.73
452.68	27353.84
452.86	27297.67
453.05	27468.53
453.23	28528.79
453.42	29331.59
453.60	30153.12
453.78	29900.34
453.97	30064.18
454.15	30029.07
454.34	29603.10
454.52	29567.99
454.70	28636.45
454.89	29158.39
455.07	29074.13
455.26	29584.37
455.44	30625.91
455.62	31634.68
455.81	31732.98
455.99	31201.68
456.17	30923.16
456.36	31262.54
456.54	31709.58
456.73	31967.04
456.91	32390.67
457.09	32182.37
457.28	32945.38
457.46	31718.94
457.64	31316.37
457.83	30714.85
458.01	30483.14
458.19	30883.37
458.38	30764.00
458.56	31491.91
458.74	31824.26
458.93	31218.07
459.11	31311.69
459.29	31042.53
459.48	30602.50
459.66	31154.87
459.84	30960.61
460.03	31302.32
460.21	31510.63
460.39	32762.82
460.57	32507.70
460.76	32870.48
460.94	32931.34
461.12	32514.72
461.31	32624.73
461.49	32079.38
461.67	32496.00
461.85	33743.50
462.04	33310.50
462.22	33684.99
462.40	33844.15
462.59	33560.94
462.77	33411.15
462.95	33097.52
463.13	32826.01
463.32	32561.53
463.50	32109.81
463.68	32393.01
463.86	32821.33
464.05	31983.42
464.23	31189.98
464.41	31042.53
464.59	30787.41
464.78	32306.41
464.96	32341.52
465.14	31901.50
465.32	32835.38
465.50	33123.26
465.69	33617.11
465.87	32893.89
466.05	31845.33
466.23	30747.62
466.41	29900.34
466.60	30682.08
466.78	30665.70
466.96	31438.08
467.14	31924.91
467.32	32360.25
467.51	32521.74
467.69	30984.01
467.87	31669.79
468.05	32065.34
468.23	32135.56
468.41	32210.45
468.60	32004.49
468.78	32271.31
468.96	31793.84
469.14	33036.66
469.32	32816.65
469.50	31871.07
469.69	31997.46
469.87	31047.21
470.05	31178.28
470.23	31051.89
470.41	31438.08
470.59	31779.79
470.77	31894.48
470.95	32442.17
471.14	32926.66
471.32	32851.76
471.50	34501.84
471.68	35103.35
471.86	35103.35
472.04	35461.46
472.22	35218.04
472.40	33649.88
472.58	33301.14
472.77	32680.90
472.95	33797.34
473.13	34356.72
473.31	33769.25
473.49	34015.01
473.67	34590.78
473.85	34873.98
474.03	35325.71
474.21	36095.74
474.39	35634.66
474.57	36395.33
474.75	36163.62
474.93	35555.08
475.12	34885.68
475.30	35124.42
475.48	35491.88
475.66	35718.92
475.84	35281.24
476.02	35119.74
476.20	34597.80
476.38	35019.10
476.56	36151.91
476.74	36381.29
476.92	36788.54
477.10	37794.97
477.28	38511.17
477.46	38815.44
477.64	39129.08
477.82	38726.50
478.00	39196.95
478.18	38621.18
478.36	38590.75
478.54	38417.55
478.72	38401.17
478.90	39786.77
479.08	40346.15
479.26	40821.28
479.44	40793.20
479.62	40610.64
479.80	40442.12
479.98	41172.36
480.16	41375.99
480.34	40664.47
480.52	41085.76
480.70	41303.43
480.88	40989.80
481.06	42134.32
481.24	42747.54
481.41	43503.54
481.59	43943.56
481.77	43543.33
481.95	42822.44
482.13	42890.32
482.31	43353.74
482.49	43606.52
482.67	43615.88
482.85	43892.07
483.03	44231.44
483.21	44975.73
483.39	44914.88
483.57	43814.83
483.74	43770.36
483.92	43688.44
484.10	43952.92
484.28	44924.24
484.46	45710.66
484.64	46019.61
484.82	44790.83
485.00	44397.62
485.18	43702.48
485.35	42396.46
485.53	39306.96
485.71	35604.23
485.89	35435.71
486.07	37158.34
486.25	40407.01
486.43	42834.14
486.61	43285.87
486.78	43440.34
486.96	43840.57
487.14	45427.46
487.32	46202.18
487.50	46909.02
487.68	47917.79
487.85	48854.00
488.03	48776.76
488.21	48140.14
488.39	47180.52
488.57	46593.04
488.75	46185.79
488.92	47650.97
489.10	50047.68
489.28	51292.84
489.46	51770.31
489.64	51877.97
489.81	51980.96
489.99	51562.00
490.17	51772.65
490.35	51896.70
490.53	51615.83
490.70	51175.81
490.88	51093.89
491.06	52018.41
491.24	51992.66
491.41	50724.09
491.59	49380.62
491.77	48172.91
491.95	49460.20
492.13	50766.22
492.30	52217.35
492.48	53382.94
492.66	53429.75
492.84	53396.98
493.01	53106.76
493.19	52753.33
493.37	52268.84
493.54	52039.47
493.72	52617.58
493.90	53914.24
494.08	54466.61
494.25	54752.15
494.43	55037.70
494.61	55405.16
494.79	55540.91
494.96	55154.72
495.14	54752.15
495.32	53570.18
495.49	52987.39
495.67	54075.74
495.85	55365.37
496.02	55894.33
496.20	55526.87
496.38	55449.63
496.55	55133.66
496.73	55536.23
496.91	55753.90
497.09	56439.68
497.26	56481.81
497.44	55863.91
497.62	55363.03
497.79	54892.58
497.97	53256.55
498.14	53535.07
498.32	54686.62
498.50	55664.96
498.67	56151.79
498.85	56175.20
499.03	56112.00
499.20	56172.86
499.38	56619.90
499.56	56200.94
499.73	55772.63
499.91	55440.27
500.08	54939.39
500.26	53982.12
500.44	54759.17
500.61	55253.03
500.79	55295.16
500.97	54721.72
501.14	54436.18
501.32	54471.29
501.49	54541.50
501.67	54527.46
501.84	55529.21
502.02	55496.44
502.20	55856.88
502.37	55866.25
502.55	56023.06
502.72	56533.30
502.90	57158.22
503.07	56786.08
503.25	56119.02
503.43	55473.04
503.60	54899.61
503.78	54152.97
503.95	54468.95
504.13	56034.77
504.30	57006.09
504.48	56718.20
504.65	56095.62
504.83	56257.12
505.01	57064.60
505.18	57172.27
505.36	57649.74
505.53	57834.64
505.71	58223.17
505.88	57993.79
506.06	57649.74
506.23	57343.12
506.41	56786.08
506.58	57092.69
506.76	56985.02
506.93	56926.51
507.11	56633.94
507.28	56910.13
507.46	56348.40
507.63	55824.12
507.81	55587.72
507.98	55934.12
508.16	56685.43
508.33	57153.54
508.50	57724.63
508.68	57806.55
508.85	58522.76
509.03	58028.90
509.20	58061.67
509.38	57460.15
509.55	56427.98
509.73	56821.19
509.90	57371.21
510.08	57415.68
510.25	57389.94
510.42	57305.68
510.60	57071.62
510.77	57448.45
510.95	57762.08
511.12	58204.44
511.30	58361.26
511.47	58581.27
511.64	58787.24
511.82	58230.19
511.99	57605.26
512.17	57116.09
512.34	56598.83
512.51	56830.55
512.69	56992.04
512.86	57097.37
513.04	57418.02
513.21	57485.90
513.38	57153.54
513.56	56500.53
513.73	55943.48
513.90	56315.63
514.08	56425.64
514.25	56664.37
514.43	56832.89
514.60	57139.50
514.77	57092.69
514.95	57237.80
515.12	57127.80
515.29	57518.67
515.47	57745.70
515.64	58089.76
515.81	57633.35
515.99	57188.65
516.16	55667.30
516.33	53277.61
516.51	51590.09
516.68	50740.47
516.85	50239.60
517.03	50806.01
517.20	53565.50
517.37	56172.86
517.54	57296.31
517.72	56872.68
517.89	54513.42
518.06	51660.30
518.24	51964.57
518.41	54293.41
518.58	55725.81
518.75	56142.43
518.93	56200.94
519.10	55803.05
519.27	56491.17
519.45	56699.48
519.62	57263.55
519.79	57642.71
519.96	57518.67
520.14	57188.65
520.31	56273.50
520.48	56205.62
520.65	56563.73
520.83	57502.28
521.00	57783.15
521.17	57682.50
521.34	57144.18
521.52	57516.32
521.69	57946.98
521.86	58429.13
522.03	57846.34
522.20	56882.04
522.38	55753.90
522.55	55915.40
522.72	56547.34
522.89	56584.79
523.07	56863.32
523.24	56914.81
523.41	57811.23
523.58	58375.30
523.75	58637.44
523.92	58461.90
524.10	58562.54
524.27	58471.26
524.44	58351.90
524.61	58152.95
524.78	57944.64
524.96	57738.68
525.13	58052.31
525.30	58085.07
525.47	58721.70
525.64	58597.65
525.81	57614.63
525.98	56519.26
526.16	55004.93
526.33	54035.95
526.50	54024.25
526.67	53429.75
526.84	54078.08
527.01	54997.91
527.18	55922.42
527.36	56816.50
527.53	57719.95
527.70	58028.90
527.87	57434.41
528.04	57090.35
528.21	57396.96
528.38	57968.05
528.55	58717.02
528.72	59007.25
528.89	59164.06
529.07	58904.26
529.24	58293.38
529.41	57731.65
529.58	56825.87
529.75	57212.06
529.92	57436.75
530.09	58108.48
530.26	58471.26
530.43	58644.46
530.60	58625.74
530.77	58747.45
530.94	58859.79
531.11	58534.46
531.28	58124.86
531.46	57970.39
531.63	58019.54
531.80	57820.59
531.97	57357.17
532.14	56755.65
532.31	55807.73
532.48	55063.44
532.65	55210.90
532.82	56093.28
532.99	57235.46
533.16	57502.28
533.33	58277.00
533.50	58021.88
533.67	57226.10
533.84	57001.41
534.01	56999.07
534.18	57190.99
534.35	57499.94
534.52	57326.74
534.69	57401.64
534.86	57766.76
535.03	58120.18
535.20	58550.84
535.37	58752.13
535.54	59030.65
535.71	58717.02
535.88	58078.05
536.05	57439.09
536.22	57275.25
536.38	57045.88
536.55	56427.98
536.72	56002.00
536.89	55798.37
537.06	56701.82
537.23	57464.83
537.40	57836.98
537.57	57733.99
537.74	57560.79
537.91	57462.49
538.08	57429.72
538.25	57333.76
538.42	57579.52
538.59	57638.03
538.75	56973.32
538.92	56645.65
539.09	56418.61
539.26	56493.51
539.43	56107.32
539.60	56289.88
539.77	56526.28
539.94	56367.12
540.11	55517.51
540.28	54859.82
540.44	55098.55
540.61	55276.43
540.78	55587.72
540.95	55800.71
541.12	56601.18
541.29	56746.29
541.46	56856.29
541.62	56940.55
541.79	56877.36
541.96	55924.76
542.13	56271.16
542.30	56617.56
542.47	56638.62
542.63	56282.86
542.80	56238.39
542.97	56203.28
543.14	56135.41
543.31	56093.28
543.48	56619.90
543.64	57286.95
543.81	57757.40
543.98	57813.57
544.15	57008.43
544.32	56123.71
544.48	56369.46
544.65	56865.66
544.82	57464.83
544.99	56846.93
545.16	56725.22
545.32	56048.81
545.49	57080.98
545.66	57511.64
545.83	57015.45
546.00	56776.72
546.16	56287.54
546.33	56505.21
546.50	56388.19
546.67	56952.26
546.83	56605.86
547.00	56629.26
547.17	55812.41
547.34	55281.11
547.50	55311.54
547.67	55517.51
547.84	55693.05
548.00	56179.88
548.17	56526.28
548.34	56523.94
548.51	56435.00
548.67	56526.28
548.84	56556.70
549.01	56596.49
549.18	56280.52
549.34	56463.08
549.51	56467.76
549.68	56067.53
549.84	55999.66
550.01	55856.88
550.18	55758.58
550.34	55810.07
550.51	56027.74
550.68	56025.40
550.84	55458.99
551.01	55657.94
551.18	55585.38
551.34	55765.60
551.51	55980.93
551.68	56601.18
551.84	56488.83
552.01	56310.95
552.18	56074.55
552.34	55515.17
552.51	54876.20
552.68	54515.76
552.84	55337.29
553.01	55377.08
553.18	55529.21
553.34	55629.85
553.51	55875.61
553.67	56034.77
553.84	56121.37
554.01	56067.53
554.17	55803.05
554.34	55791.35
554.51	55955.19
554.67	56254.78
554.84	56156.47
555.00	55660.28
555.17	55533.89
555.33	55449.63
555.50	55676.66
555.67	55611.13
555.83	55384.10
556.00	55042.38
556.16	54836.41
556.33	54529.80
556.50	54731.09
556.66	54424.48
556.83	54138.93
556.99	54658.53
557.16	54588.31
557.32	54850.45
557.49	54915.99
557.65	55133.66
557.82	54946.42
557.98	54747.47
558.15	54262.98
558.32	53521.03
558.48	52538.01
558.65	52753.33
558.81	52896.11
558.98	53514.01
559.14	53558.48
559.31	53684.87
559.47	53638.06
559.64	53441.45
559.80	53069.31
559.97	53127.82
560.13	53228.46
560.30	54482.99
560.46	54955.78
560.63	55341.97
560.79	55454.31
560.96	54831.73
561.12	53535.07
561.29	52844.62
561.45	52683.12
561.61	53160.59
561.78	53949.35
561.94	53635.72
562.11	53764.45
562.27	53492.94
562.44	53794.87
562.60	54012.54
562.77	54279.36
562.93	54288.73
563.10	54274.68
563.26	53588.91
563.42	53535.07
563.59	53418.05
563.75	53497.62
563.92	53521.03
564.08	53308.04
564.24	53923.60
564.41	53762.11
564.57	53455.50
564.74	53427.41
564.90	53389.96
565.07	53137.18
565.23	52729.93
565.39	52119.05
565.56	52224.37
565.72	51686.05
565.88	51840.53
566.05	52217.35
566.21	52442.04
566.38	52413.96
566.54	52559.07
566.70	52938.24
566.87	53570.18
567.03	53141.86
567.19	53401.66
567.36	53380.60
567.52	52931.22
567.68	52875.04
567.85	51966.91
568.01	51646.26
568.17	51220.28
568.34	51494.13
568.50	51250.71
568.66	51728.18
568.83	51842.87
568.99	51786.69
569.15	51756.27
569.32	51929.47
569.48	52086.28
569.64	51845.21
569.81	51196.88
569.97	51133.68
570.13	50728.77
570.30	50632.81
570.46	50218.53
570.62	49507.01
570.78	48928.90
570.95	49535.10
571.11	50574.30
571.27	50621.11
571.43	50901.97
571.60	51121.98
571.76	51456.68
571.92	51714.14
572.09	51957.55
572.25	52023.09
572.41	51983.30
572.57	51894.36
572.74	51611.15
572.90	50976.87
573.06	50946.44
573.22	51334.97
573.38	51351.35
573.55	51526.89
573.71	51435.61
573.87	51349.01
574.03	50993.25
574.20	51129.00
574.36	50429.18
574.52	50674.94
574.68	50314.50
574.84	50120.23
575.01	49659.15
575.17	48975.71
575.33	49815.96
575.49	49841.71
575.65	50038.31
575.82	49783.19
575.98	49614.68
576.14	49947.03
576.30	50115.55
576.46	50145.98
576.62	50003.20
576.79	50035.97
576.95	49715.32
577.11	49572.55
577.27	50007.89
577.43	49869.79
577.59	49226.15
577.75	48917.20
577.92	48172.91
578.08	47814.80
578.24	48135.46
578.40	48781.45
578.56	48736.98
578.72	48704.21
578.88	48671.44
579.04	49324.45
579.21	49186.36
579.37	49076.35
579.53	49191.04
579.69	49577.23
579.85	49605.31
580.01	49521.05
580.17	48722.93
580.33	48598.88
580.49	48994.43
580.65	49261.26
580.82	49474.24
580.98	49120.82
581.14	49146.57
581.30	49162.95
581.46	48776.76
581.62	49289.34
581.78	49088.06
581.94	49858.09
582.10	49612.34
582.26	49308.07
582.42	49495.31
582.58	49593.61
582.74	49237.85
582.90	50042.99
583.06	49724.68
583.22	49347.86
583.38	49116.14
583.54	49001.46
583.70	49041.24
583.86	49095.08
584.02	48568.46
584.18	48905.49
584.34	48683.14
584.50	48678.46
584.66	48706.55
584.82	48044.18
584.98	48044.18
585.14	47360.74
585.30	47143.07
