SpectraSuite Data File
++++++++++++++++++++++++++++++++++++
Date: Mon Oct 07 14:52:58 GMT-05:00 2013
User: price-jones
Dark Spectrum Present: No
Reference Spectrum Present: No
Number of Sampled Component Spectra: 1
Spectrometers: USB2+H05261
Integration Time (usec): 100000 (USB2+H05261)
Spectra Averaged: 1 (USB2+H05261)
Boxcar Smoothing: 0 (USB2+H05261)
Correct for Electrical Dark: No (USB2+H05261)
Strobe/Lamp Enabled: No (USB2+H05261)
Correct for Detector Non-linearity: No (USB2+H05261)
Correct for Stray Light: No (USB2+H05261)
Number of Pixels in Processed Spectrum: 2048
>>>>>Begin Processed Spectral Data<<<<<
365.73	0.00
365.92	0.00
366.12	0.00
366.32	0.00
366.52	0.00
366.72	0.00
366.91	0.00
367.11	0.00
367.31	0.00
367.51	0.00
367.70	0.00
367.90	0.00
368.10	0.00
368.30	0.00
368.49	0.00
368.69	0.00
368.89	0.00
369.09	0.00
369.28	0.00
369.48	0.00
369.68	0.00
369.87	0.00
370.07	0.00
370.27	0.00
370.47	489.17
370.66	2820.35
370.86	3304.84
371.06	3515.48
371.25	3686.34
371.45	3356.33
371.65	3019.29
371.84	2654.17
372.04	2794.60
372.24	3166.74
372.44	3328.24
372.63	3281.43
372.83	3159.72
373.03	2789.92
373.22	2487.99
373.42	2523.10
373.62	3101.21
373.81	3281.43
374.01	3368.03
374.21	3038.02
374.40	2768.85
374.60	2960.78
374.79	3194.83
374.99	3775.28
375.19	4117.00
375.38	4198.92
375.58	3812.73
375.78	3681.66
375.97	3824.44
376.17	3920.40
376.37	3988.27
376.56	4049.13
376.76	4334.67
376.95	4571.07
377.15	4919.81
377.35	5233.44
377.54	5177.26
377.74	5486.22
377.93	5488.56
378.13	5329.40
378.33	5100.03
378.52	4526.60
378.72	4510.21
378.91	4355.74
379.11	4128.70
379.31	4180.20
379.50	4212.96
379.70	4381.48
379.89	5081.30
380.09	5160.88
380.28	5387.91
380.48	5364.51
380.68	5205.35
380.87	5100.03
381.07	4723.20
381.26	4393.19
381.46	4154.45
381.65	3981.25
381.85	3889.97
382.04	3681.66
382.24	3541.23
382.43	3236.96
382.63	3136.32
382.83	3197.17
383.02	3222.92
383.22	3323.56
383.41	3314.20
383.61	3599.74
383.80	3913.38
384.00	4596.81
384.19	4997.04
384.39	5224.08
384.58	5383.23
384.78	5109.39
384.97	5093.01
385.17	4674.05
385.36	4690.43
385.56	4381.48
385.75	4652.98
385.95	5083.64
386.14	5577.50
386.34	5432.38
386.53	5104.71
386.72	4905.76
386.92	5013.43
387.11	5308.34
387.31	5404.30
387.50	5329.40
387.70	5146.84
387.89	5158.54
388.09	5256.84
388.28	5195.99
388.48	5186.63
388.67	5657.07
388.86	6300.72
389.06	6541.80
389.25	7155.02
389.45	7169.06
389.64	7061.40
389.84	7061.40
390.03	6927.99
390.22	6972.46
390.42	7105.87
390.61	7768.24
390.81	8084.21
391.00	8315.92
391.19	8105.28
391.39	7882.92
391.58	7435.88
391.78	7096.50
391.97	6892.88
392.16	6441.15
392.36	5820.91
392.55	4622.56
392.75	3651.24
392.94	3066.10
393.13	2963.12
393.33	3695.71
393.52	4615.54
393.71	5628.99
393.91	6328.81
394.10	6876.49
394.29	7583.34
394.49	8053.78
394.68	8542.96
394.88	8608.49
395.07	8915.10
395.26	8767.65
395.46	8606.15
395.65	8035.06
395.84	7084.80
396.04	5956.66
396.23	4781.71
396.42	4070.19
396.62	3882.95
396.81	4669.37
397.00	5802.19
397.19	7363.33
397.39	8823.82
397.58	9706.20
397.77	10331.12
397.97	10885.83
398.16	10993.50
398.35	11314.15
398.55	11475.65
398.74	11906.31
398.93	12475.06
399.12	12231.64
399.32	11728.42
399.51	12147.38
399.70	12903.37
399.90	12521.87
400.09	12936.14
400.28	12542.93
400.47	12753.58
400.67	13088.28
400.86	13879.38
401.05	13659.37
401.24	13724.90
401.44	13816.18
401.63	13888.74
401.82	14005.77
402.01	13912.14
402.21	14246.84
402.40	14251.52
402.59	13820.86
402.78	13268.50
402.97	12805.07
403.17	13530.64
403.36	14127.47
403.55	14417.70
403.74	14555.79
403.93	14148.54
404.13	12926.78
404.32	12858.90
404.51	13429.99
404.70	14534.73
404.89	14899.85
405.09	14373.23
405.28	13614.90
405.47	13944.91
405.66	13937.89
405.85	13394.89
406.05	12926.78
406.24	13373.82
406.43	13834.91
406.62	14516.00
406.81	14286.63
407.00	13930.87
407.20	13647.66
407.39	13710.86
407.58	14427.06
407.77	14888.15
407.96	15339.87
408.15	15585.63
408.34	15660.52
408.54	16444.60
408.73	16451.63
408.92	16177.78
409.11	15735.42
409.30	15220.50
409.49	13944.91
409.68	13249.77
409.87	12819.11
410.07	13958.96
410.26	14764.10
410.45	15564.56
410.64	15854.79
410.83	16407.16
411.02	16713.77
411.21	17460.40
411.40	17177.19
411.59	17221.66
411.78	17172.51
411.98	16922.07
412.17	17598.49
412.36	16886.97
412.55	17092.93
412.74	16683.34
412.93	16168.42
413.12	16568.65
413.31	18085.32
413.50	18239.79
413.69	18473.85
413.88	17666.36
414.07	17156.13
414.26	17436.99
414.45	18207.03
414.64	18092.34
414.83	17912.12
415.02	17891.06
415.22	17841.90
415.41	18279.58
415.60	19096.43
415.79	19524.75
415.98	20152.01
416.17	19857.10
416.36	19468.58
416.55	19194.73
416.74	18876.42
416.93	18160.22
417.12	18188.30
417.31	18260.86
417.50	19016.85
417.69	19204.10
417.88	19321.12
418.07	18808.54
418.26	18588.53
418.45	19283.67
418.64	19590.28
418.83	20456.28
419.02	19873.49
419.21	19843.06
419.39	18939.62
419.58	17954.25
419.77	18127.45
419.96	19007.49
420.15	20011.58
420.34	20315.85
420.53	21429.94
420.72	21514.20
420.91	21289.51
421.10	21174.83
421.29	21113.97
421.48	20107.54
421.67	21266.11
421.86	20842.47
422.05	19255.59
422.24	17444.01
422.43	17165.49
422.61	18920.89
422.80	20673.95
422.99	20304.15
423.18	19981.15
423.37	19405.38
423.56	19271.97
423.75	19592.62
423.94	20217.55
424.13	19360.91
424.32	19026.21
424.50	19164.31
424.69	18888.12
424.88	19094.09
425.07	19466.24
425.26	19122.18
425.45	19105.79
425.64	18546.40
425.83	18677.48
426.01	19999.88
426.20	20283.08
426.39	20002.22
426.58	18445.76
426.77	17282.52
426.96	16636.53
427.15	17041.44
427.33	18721.95
427.52	19131.54
427.71	19403.04
427.90	19321.12
428.09	18944.30
428.28	18785.14
428.46	18218.73
428.65	17633.60
428.84	18246.82
429.03	18621.30
429.22	17415.93
429.40	16547.59
429.59	15002.83
429.78	13282.54
429.97	13486.17
430.16	13500.21
430.34	13355.10
430.53	13308.29
430.72	13895.76
430.91	15161.99
431.10	18237.45
431.28	21322.28
431.47	23152.58
431.66	23124.49
431.85	21013.33
432.03	19330.48
432.22	18441.08
432.41	19618.37
432.60	21593.78
432.79	22113.38
432.97	22799.16
433.16	22464.46
433.35	20460.96
433.54	18438.74
433.72	17324.65
433.91	18146.17
434.10	20252.66
434.28	21378.45
434.47	22555.74
434.66	21994.01
434.85	21577.40
435.03	21245.04
435.22	22326.37
435.41	23175.98
435.59	23452.17
435.78	23412.38
435.97	24519.45
436.16	24580.31
436.34	23899.21
436.53	23477.91
436.72	23861.76
436.90	22342.75
437.09	22197.64
437.28	21790.39
437.46	22810.86
437.65	22527.66
437.84	20959.50
438.02	19246.23
438.21	19328.14
438.40	20505.43
438.58	22097.00
438.77	22389.56
438.96	23260.24
439.14	23847.72
439.33	24568.60
439.52	24620.10
439.70	23929.64
439.89	23332.80
440.08	22885.76
440.26	23136.20
440.45	23747.08
440.63	25635.89
440.82	26574.44
441.01	26195.28
441.19	25963.56
441.38	26602.53
441.57	27374.91
441.75	27391.29
441.94	27955.36
442.12	27646.41
442.31	28301.76
442.50	27733.01
442.68	27875.78
442.87	27655.77
443.05	26934.88
443.24	27765.78
443.43	28046.64
443.61	28432.83
443.80	28739.44
443.98	27534.06
444.17	27297.67
444.35	28828.38
444.54	29582.03
444.73	29172.44
444.91	27938.97
445.10	26520.61
445.28	25572.69
445.47	25235.66
445.65	25645.25
445.84	26373.16
446.02	27035.53
446.21	27246.18
446.39	27637.05
446.58	27833.65
446.77	28814.34
446.95	28774.55
447.14	29532.88
447.32	30071.20
447.51	29376.06
447.69	28353.25
447.88	27981.10
448.06	28484.32
448.25	29034.35
448.43	29015.62
448.62	28418.78
448.80	28388.36
448.99	28631.77
449.17	28985.19
449.36	28797.95
449.54	29591.39
449.73	30286.53
449.91	30536.97
450.10	31363.18
450.28	31789.16
450.46	32158.96
450.65	31716.60
450.83	31599.57
451.02	30677.40
451.20	30824.86
451.39	30902.09
451.57	30698.47
451.76	30838.90
451.94	30237.38
452.13	29811.40
452.31	28603.69
452.49	27129.15
452.68	27819.61
452.86	27480.23
453.05	28168.35
453.23	28821.36
453.42	29738.85
453.60	30529.95
453.78	30382.49
453.97	30185.89
454.15	30333.34
454.34	29488.41
454.52	29233.29
454.70	29127.97
454.89	29434.58
455.07	29429.90
455.26	29682.67
455.44	31295.30
455.62	31452.12
455.81	31983.42
455.99	31707.24
456.17	30972.31
456.36	31433.39
456.54	32254.92
456.73	31978.74
456.91	32786.22
457.09	32790.91
457.28	33528.17
457.46	32205.77
457.64	32130.87
457.83	31152.53
458.01	29696.72
458.19	30953.58
458.38	31197.00
458.56	32348.54
458.74	32065.34
458.93	31344.45
459.11	31365.52
459.29	31569.15
459.48	31480.21
459.66	31197.00
459.84	31412.33
460.03	32264.28
460.21	32058.32
460.39	33074.11
460.57	32765.16
460.76	33146.67
460.94	33312.84
461.12	32472.59
461.31	33010.92
461.49	33022.62
461.67	32884.53
461.85	33731.80
462.04	33565.62
462.22	34169.48
462.40	34113.31
462.59	33497.75
462.77	33947.13
462.95	33855.85
463.13	33181.77
463.32	32765.16
463.50	32884.53
463.68	32961.76
463.86	33146.67
464.05	32591.96
464.23	31948.31
464.41	31756.39
464.59	31028.48
464.78	32751.12
464.96	32596.64
465.14	32533.45
465.32	33493.07
465.50	34012.66
465.69	33968.19
465.87	33362.00
466.05	32350.88
466.23	31166.57
466.41	30579.10
466.60	31697.88
466.78	31365.52
466.96	32077.04
467.14	32624.73
467.32	32828.35
467.51	32940.70
467.69	31550.42
467.87	31611.28
468.05	32589.62
468.23	32643.45
468.41	33017.94
468.60	32741.75
468.78	33298.80
468.96	32641.11
469.14	33268.37
469.32	33406.47
469.50	32238.54
469.69	32247.90
469.87	31491.91
470.05	31704.90
470.23	31761.07
470.41	31749.37
470.59	32498.34
470.77	32563.87
470.95	33123.26
471.14	33434.55
471.32	33282.42
471.50	35302.30
471.68	35660.40
471.86	35747.00
472.04	35655.72
472.22	36018.50
472.40	34345.02
472.58	33762.23
472.77	33647.54
472.95	34263.10
473.13	35779.77
473.31	34745.25
473.49	34593.12
473.67	34979.31
473.85	35672.10
474.03	36224.47
474.21	36362.56
474.39	36694.92
474.57	36435.12
474.75	36868.12
474.93	36739.39
475.12	35562.10
475.30	35676.79
475.48	36217.45
475.66	36439.80
475.84	36039.57
476.02	35484.86
476.20	35035.48
476.38	36018.50
476.56	37336.23
476.74	37558.58
476.92	37507.08
477.10	38323.93
477.28	39648.68
477.46	39363.13
477.64	39686.12
477.82	39828.90
478.00	40219.77
478.18	38916.09
478.36	39218.02
478.54	39594.84
478.72	39522.29
478.90	40652.76
479.08	41883.89
479.26	42160.07
479.44	41631.11
479.62	42040.70
479.80	41619.41
479.98	41879.21
480.16	42239.65
480.34	42139.00
480.52	42033.68
480.70	42485.40
480.88	42955.85
481.06	43182.88
481.24	43402.89
481.41	44484.22
481.59	44825.94
481.77	44409.32
481.95	44198.68
482.13	44062.93
482.31	44175.27
482.49	44531.03
482.67	44421.03
482.85	44994.46
483.03	45881.52
483.21	45977.48
483.39	45848.75
483.57	45041.27
483.74	44629.34
483.92	45329.16
484.10	44861.05
484.28	46408.14
484.46	46522.83
484.64	47030.72
484.82	45996.21
485.00	45801.94
485.18	44823.60
485.35	43590.14
485.53	40488.93
485.71	36753.43
485.89	36538.10
486.07	38651.61
486.25	41956.44
486.43	43910.79
486.61	44573.16
486.78	44416.35
486.96	44737.00
487.14	46777.95
487.32	47763.31
487.50	48732.29
487.68	49509.35
487.85	49717.66
488.03	49769.15
488.21	49361.90
488.39	48580.16
488.57	47941.19
488.75	47613.52
488.92	49179.34
489.10	51231.99
489.28	52428.00
489.46	52961.64
489.64	52720.57
489.81	52966.32
489.99	52760.36
490.17	52882.06
490.35	53183.99
490.53	52303.95
490.70	52498.22
490.88	51950.53
491.06	53375.92
491.24	53066.97
491.41	51842.87
491.59	50202.15
491.77	49921.29
491.95	51035.38
492.13	52165.86
492.30	53263.57
492.48	54199.79
492.66	54604.70
492.84	54588.31
493.01	54578.95
493.19	53698.91
493.37	53497.62
493.54	53305.70
493.72	53874.45
493.90	54925.35
494.08	55458.99
494.25	55915.40
494.43	56189.24
494.61	56231.37
494.79	56612.88
494.96	56280.52
495.14	55550.27
495.32	54724.07
495.49	54195.10
495.67	55187.49
495.85	56498.19
496.02	56818.84
496.20	56802.46
496.38	56217.33
496.55	56493.51
496.73	56680.75
496.91	56879.70
497.09	57244.82
497.26	57605.26
497.44	57043.54
497.62	56413.93
497.79	55505.80
497.97	54323.83
498.14	55070.46
498.32	55973.91
498.50	56802.46
498.67	57244.82
498.85	57235.46
499.03	57169.93
499.20	57315.04
499.38	57591.22
499.56	57544.41
499.73	56783.74
499.91	56699.48
500.08	55999.66
500.26	55547.93
500.44	55983.27
500.61	56615.22
500.79	56404.57
500.97	55957.53
501.14	55781.99
501.32	55695.39
501.49	55774.97
501.67	56116.68
501.84	56397.55
502.02	56800.12
502.20	56982.68
502.37	56952.26
502.55	57230.78
502.72	57832.30
502.90	58080.39
503.07	57675.48
503.25	57368.87
503.43	56507.55
503.60	55784.33
503.78	55267.07
503.95	55873.27
504.13	57226.10
504.30	57961.03
504.48	58003.16
504.65	57469.51
504.83	57778.46
505.01	58305.09
505.18	58642.12
505.36	59121.93
505.53	59049.38
505.71	59210.87
505.88	59423.86
506.06	58644.46
506.23	58351.90
506.41	57839.32
506.58	58096.78
506.76	58253.59
506.93	58157.63
507.11	57724.63
507.28	58078.05
507.46	57621.65
507.63	57010.77
507.81	57003.75
507.98	57490.58
508.16	57968.05
508.33	58431.47
508.50	58761.49
508.68	58930.01
508.85	59487.06
509.03	59777.28
509.20	59299.81
509.38	58599.99
509.55	57846.34
509.73	57951.66
509.90	58642.12
510.08	58864.47
510.25	58672.55
510.42	58759.15
510.60	58335.51
510.77	58831.71
510.95	59281.09
511.12	59339.60
511.30	59573.66
511.47	60030.06
511.64	59891.97
511.82	59332.58
511.99	58529.78
512.17	58267.64
512.34	57975.07
512.51	58370.62
512.69	58326.15
512.86	58253.59
513.04	58827.02
513.21	59063.42
513.38	58447.86
513.56	57902.51
513.73	57420.36
513.90	57717.61
514.08	57893.15
514.25	57925.92
514.43	58237.21
514.60	58171.67
514.77	58611.70
514.95	58314.45
515.12	58611.70
515.29	58691.27
515.47	59173.42
515.64	59400.46
515.81	58742.77
515.99	58452.54
516.16	57069.28
516.33	54878.54
516.51	53483.58
516.68	52545.03
516.85	51903.72
517.03	52963.98
517.20	55367.71
517.37	57673.14
517.54	58642.12
517.72	58155.29
517.89	55611.13
518.06	53389.96
518.24	54035.95
518.41	55840.50
518.58	57230.78
518.75	57413.34
518.93	57808.89
519.10	57485.90
519.27	57766.76
519.45	58094.44
519.62	58915.96
519.79	59126.61
519.96	58946.39
520.14	58459.56
520.31	57726.97
520.48	57598.24
520.65	58162.31
520.83	58997.88
521.00	59278.75
521.17	59000.22
521.34	58571.91
521.52	59117.25
521.69	59344.28
521.86	59765.58
522.03	59430.88
522.20	58017.20
522.38	57591.22
522.55	57535.05
522.72	57792.51
522.89	58108.48
523.07	58401.05
523.24	58628.08
523.41	59477.69
523.58	59859.20
523.75	60140.07
523.92	60069.85
524.10	60011.34
524.27	60013.68
524.44	59618.13
524.61	59592.38
524.78	59433.22
524.96	59519.82
525.13	59360.67
525.30	59723.45
525.47	60224.32
525.64	60067.51
525.81	59325.56
525.98	57832.30
526.16	56800.12
526.33	56044.13
526.50	55646.24
526.67	55533.89
526.84	55938.80
527.01	56825.87
527.18	57839.32
527.36	58677.23
527.53	59348.96
527.70	59428.54
527.87	58812.98
528.04	58595.31
528.21	58988.52
528.38	59781.96
528.55	60322.63
528.72	60509.87
528.89	60711.16
529.07	60280.50
529.24	59753.88
529.41	59016.61
529.58	58691.27
529.75	58859.79
529.92	59217.89
530.09	59487.06
530.26	60072.19
530.43	60224.32
530.60	60177.51
530.77	60549.66
530.94	60769.67
531.11	60041.76
531.28	59608.76
531.46	59599.40
531.63	59849.84
531.80	59597.06
531.97	59253.00
532.14	58508.71
532.31	57418.02
532.48	56999.07
532.65	57017.79
532.82	57829.96
532.99	59070.44
533.16	59264.70
533.33	59772.60
533.50	59641.53
533.67	58969.80
533.84	58670.21
534.01	58791.92
534.18	58862.13
534.35	58927.67
534.52	59025.97
534.69	59203.85
534.86	59599.40
535.03	59746.86
535.20	60299.22
535.37	60673.71
535.54	60537.96
535.71	60327.31
535.88	59901.33
536.05	59372.37
536.22	58988.52
536.38	58672.55
536.55	58181.04
536.72	57783.15
536.89	57900.17
537.06	58506.37
537.23	59253.00
537.40	59522.16
537.57	59711.75
537.74	59508.12
537.91	59241.30
538.08	59311.52
538.25	59234.28
538.42	59419.18
538.59	59145.34
538.75	58452.54
538.92	58440.84
539.09	58134.23
539.26	58211.46
539.43	57867.40
539.60	58241.89
539.77	58314.45
539.94	58042.95
540.11	57425.04
540.28	56970.98
540.44	57230.78
540.61	57120.77
540.78	57563.14
540.95	57956.35
541.12	58188.06
541.29	58459.56
541.46	58733.40
541.62	59063.42
541.79	58749.79
541.96	57961.03
542.13	58141.25
542.30	58506.37
542.47	58468.92
542.63	58155.29
542.80	58068.69
542.97	58087.42
543.14	58103.80
543.31	58049.97
543.48	58705.32
543.64	59533.87
543.81	59725.79
543.98	59416.84
544.15	58707.66
544.32	58447.86
544.48	58529.78
544.65	58801.28
544.82	59213.21
544.99	58728.72
545.16	58422.11
545.32	58319.13
545.49	59164.06
545.66	59313.86
545.83	58801.28
546.00	58663.19
546.16	58312.11
546.33	58305.09
546.50	58431.47
546.67	58880.86
546.83	58440.84
547.00	58387.00
547.17	57865.06
547.34	57193.33
547.50	57167.58
547.67	57851.02
547.84	57563.14
548.00	58113.16
548.17	58539.14
548.34	58379.98
548.51	58461.90
548.67	58487.65
548.84	58623.40
549.01	58599.99
549.18	58227.85
549.34	58372.96
549.51	58454.88
549.68	58284.02
549.84	57902.51
550.01	57991.45
550.18	57986.77
550.34	58052.31
550.51	58087.42
550.68	58124.86
550.84	57642.71
551.01	57914.22
551.18	57668.46
551.34	57904.85
551.51	58117.84
551.68	58520.41
551.84	58382.32
552.01	58375.30
552.18	58234.87
552.34	57212.06
552.51	57034.17
552.68	57059.92
552.84	57492.92
553.01	57757.40
553.18	57741.02
553.34	57726.97
553.51	58052.31
553.67	58164.65
553.84	58286.36
554.01	58155.29
554.17	57902.51
554.34	57846.34
554.51	58106.14
554.67	58438.50
554.84	58131.89
555.00	58038.26
555.17	57731.65
555.33	57607.61
555.50	57626.33
555.67	57783.15
555.83	57588.88
556.00	57340.78
556.16	57293.97
556.33	56807.14
556.50	56781.40
556.66	56849.27
556.83	56598.83
556.99	56807.14
557.16	56942.89
557.32	57139.50
557.49	57343.12
557.65	57200.35
557.82	57251.84
557.98	57308.02
558.15	56420.95
558.32	55674.32
558.48	55180.47
558.65	55164.09
558.81	55646.24
558.98	55838.16
559.14	56119.02
559.31	56140.09
559.47	56292.22
559.64	55842.84
559.80	55477.72
559.97	55606.45
560.13	55966.89
560.30	56926.51
560.46	57230.78
560.63	57825.28
560.79	57733.99
560.96	57443.77
561.12	56233.71
561.29	55210.90
561.45	55451.97
561.61	55910.72
561.78	56261.80
561.94	56013.70
562.11	56121.37
562.27	56112.00
562.44	56449.04
562.60	56687.78
562.77	56863.32
562.93	56809.48
563.10	56603.52
563.26	56069.87
563.42	56079.24
563.59	55899.01
563.75	55887.31
563.92	56271.16
564.08	55945.83
564.24	56104.98
564.41	56332.01
564.57	56097.96
564.74	55826.46
564.90	55884.97
565.07	55561.98
565.23	55309.20
565.39	54710.02
565.56	54684.28
565.72	54288.73
565.88	54791.94
566.05	54974.50
566.21	55105.57
566.38	55276.43
566.54	55339.63
566.70	55695.39
566.87	55994.98
567.03	56055.83
567.19	55931.78
567.36	55884.97
567.52	55976.25
567.68	55337.29
567.85	54899.61
568.01	54588.31
568.17	54232.55
568.34	54085.10
568.50	54211.49
568.66	54017.22
568.83	54686.62
568.99	54831.73
569.15	54855.14
569.32	54768.54
569.48	54754.49
569.64	54270.00
569.81	53827.64
569.97	53844.02
570.13	53820.62
570.30	53041.22
570.46	53198.04
570.62	52750.99
570.78	52425.66
570.95	52870.36
571.11	53628.69
571.27	53689.55
571.43	54000.84
571.60	53947.01
571.76	54363.62
571.92	54581.29
572.09	54754.49
572.25	54663.21
572.41	54915.99
572.57	54808.32
572.74	54602.36
572.90	54185.74
573.06	54209.15
573.22	54307.45
573.38	54204.47
573.55	54019.56
573.71	54536.82
573.87	54319.15
574.03	53881.47
574.20	53865.09
574.36	53776.15
574.52	53586.57
574.68	53366.55
574.84	52999.09
575.01	52301.61
575.17	52533.32
575.33	52615.24
575.49	53202.72
575.65	53326.77
575.82	52793.12
575.98	52851.64
576.14	53240.17
576.30	53389.96
576.46	53544.44
576.62	53345.49
576.79	53682.53
576.95	52961.64
577.11	52760.36
577.27	52989.73
577.43	53038.88
577.59	52416.30
577.75	52245.44
577.92	51807.76
578.08	51674.35
578.24	51007.29
578.40	51559.66
578.56	51943.51
578.72	51973.94
578.88	52460.77
579.04	52561.41
579.21	52547.37
579.37	52821.21
579.53	52643.33
579.69	52748.65
579.85	52942.92
580.01	52659.71
580.17	52156.50
580.33	51885.00
580.49	52250.12
580.65	52428.00
580.82	53043.56
580.98	52741.63
581.14	52367.15
581.30	52486.51
581.46	52348.42
581.62	52779.08
581.78	52622.26
581.94	52945.26
582.10	53003.77
582.26	53186.33
582.42	52807.17
582.58	52861.00
582.74	52484.17
582.90	52825.89
583.06	52659.71
583.22	52367.15
583.38	52306.29
583.54	52317.99
583.70	52533.32
583.86	52580.13
584.02	52456.09
584.18	52535.66
584.34	52523.96
584.50	52189.27
584.66	51931.81
584.82	51569.02
584.98	51615.83
585.14	51262.41
585.30	50623.45
