SpectraSuite Data File
++++++++++++++++++++++++++++++++++++
Date: Mon Oct 07 14:53:29 GMT-05:00 2013
User: price-jones
Dark Spectrum Present: No
Reference Spectrum Present: No
Number of Sampled Component Spectra: 1
Spectrometers: USB2+H05261
Integration Time (usec): 100000 (USB2+H05261)
Spectra Averaged: 1 (USB2+H05261)
Boxcar Smoothing: 0 (USB2+H05261)
Correct for Electrical Dark: No (USB2+H05261)
Strobe/Lamp Enabled: No (USB2+H05261)
Correct for Detector Non-linearity: No (USB2+H05261)
Correct for Stray Light: No (USB2+H05261)
Number of Pixels in Processed Spectrum: 2048
>>>>>Begin Processed Spectral Data<<<<<
365.73	0.00
365.92	0.00
366.12	0.00
366.32	0.00
366.52	0.00
366.72	0.00
366.91	0.00
367.11	0.00
367.31	0.00
367.51	0.00
367.70	0.00
367.90	0.00
368.10	0.00
368.30	0.00
368.49	0.00
368.69	0.00
368.89	0.00
369.09	0.00
369.28	0.00
369.48	0.00
369.68	0.00
369.87	0.00
370.07	0.00
370.27	0.00
370.47	585.13
370.66	3066.10
370.86	3726.13
371.06	3953.16
371.25	4198.92
371.45	3627.83
371.65	3258.03
371.84	3215.90
372.04	3171.43
372.24	3644.21
372.44	3871.25
372.63	3843.16
372.83	3431.23
373.03	3063.76
373.22	2834.39
373.42	2951.42
373.62	3545.91
373.81	3653.58
374.01	3852.52
374.21	3349.31
374.40	3075.46
374.60	3262.71
374.79	3503.78
374.99	4236.37
375.19	4629.58
375.38	4664.69
375.58	4390.84
375.78	4255.09
375.97	4402.55
376.17	4484.47
376.37	4470.42
376.56	4657.67
376.76	4809.80
376.95	5221.74
377.15	5706.23
377.35	5792.83
377.54	5954.32
377.74	6122.84
377.93	6274.98
378.13	6094.76
378.33	5678.14
378.52	5313.02
378.72	5135.14
378.91	4947.89
379.11	4762.99
379.31	4685.75
379.50	4531.28
379.70	4910.44
379.89	5584.52
380.09	5867.72
380.28	5977.73
380.48	5863.04
380.68	5902.83
380.87	5701.54
381.07	5369.19
381.26	4950.23
381.46	4786.40
381.65	4500.85
381.85	4496.17
382.04	4147.43
382.24	3941.46
382.43	3702.73
382.63	3716.77
382.83	3588.04
383.02	3606.77
383.22	3667.62
383.41	3674.64
383.61	3925.08
383.80	4428.29
384.00	5142.16
384.19	5647.71
384.39	5977.73
384.58	6036.24
384.78	5921.56
384.97	5823.25
385.17	5591.54
385.36	5392.59
385.56	5076.62
385.75	5350.46
385.95	5760.06
386.14	6164.97
386.34	6256.25
386.53	5865.38
386.72	5661.76
386.92	5481.53
387.11	5799.85
387.31	6108.80
387.50	6052.63
387.70	5898.15
387.89	5870.06
388.09	5825.59
388.28	5961.34
388.48	5937.94
388.67	6436.47
388.86	7101.19
389.06	7529.50
389.25	7845.48
389.45	8091.23
389.64	7946.12
389.84	7971.86
390.03	7868.88
390.22	7810.37
390.42	8049.10
390.61	8578.06
390.81	9020.42
391.00	9359.80
391.19	9231.07
391.39	8814.46
391.58	8369.76
391.78	8006.97
391.97	7534.18
392.16	7208.85
392.36	6712.66
392.55	5210.03
392.75	4203.60
392.94	3375.05
393.13	3314.20
393.33	3833.80
393.52	5245.14
393.71	6314.77
393.91	7201.83
394.10	7716.75
394.29	8479.76
394.49	9074.26
394.68	9664.07
394.88	9734.29
395.07	10143.88
395.26	9961.32
395.46	9659.39
395.65	9217.03
395.84	8021.02
396.04	7023.95
396.23	5650.05
396.42	4741.93
396.62	4383.82
396.81	5109.39
397.00	6661.16
397.19	8322.94
397.39	9652.37
397.58	11073.07
397.77	11796.30
397.97	12182.49
398.16	12252.70
398.35	12662.30
398.55	13018.06
398.74	13909.80
398.93	14326.42
399.12	13626.60
399.32	13315.31
399.51	13673.41
399.70	14436.42
399.90	14047.90
400.09	14548.77
400.28	14398.98
400.47	14113.43
400.67	15239.23
400.86	15222.84
401.05	15538.82
401.24	15447.54
401.44	15866.49
401.63	15786.91
401.82	15782.23
402.01	15688.61
402.21	15915.64
402.40	16163.74
402.59	15583.29
402.78	15002.83
402.97	14319.40
403.17	14906.87
403.36	15992.88
403.55	16236.30
403.74	16657.59
403.93	16161.40
404.13	14841.34
404.32	14492.60
404.51	15295.40
404.70	16498.44
404.89	16147.36
405.09	16053.73
405.28	15655.84
405.47	15604.35
405.66	15737.76
405.85	15295.40
406.05	14958.36
406.24	15005.17
406.43	15697.97
406.62	16191.83
406.81	16273.74
407.00	15702.65
407.20	15480.30
407.39	15428.81
407.58	16182.46
407.77	16685.68
407.96	17287.20
408.15	17439.33
408.34	17474.44
408.54	18625.98
408.73	18684.50
408.92	18427.04
409.11	17877.01
409.30	16985.27
409.49	15953.09
409.68	14951.34
409.87	14499.62
410.07	15337.53
410.26	16573.33
410.45	17666.36
410.64	17783.39
410.83	18349.80
411.02	18644.71
411.21	19997.54
411.40	19433.47
411.59	19798.59
411.78	19145.58
411.98	18974.72
412.17	19616.03
412.36	19206.44
412.55	19009.83
412.74	18972.38
412.93	18211.71
413.12	18621.30
413.31	20332.23
413.50	20638.84
413.69	20592.03
413.88	19814.98
414.07	19176.01
414.26	20067.75
414.45	20538.20
414.64	20599.05
414.83	20549.90
415.02	20252.66
415.22	20088.82
415.41	20290.10
415.60	21055.46
415.79	21975.29
415.98	22497.23
416.17	22642.34
416.36	21649.96
416.55	21919.12
416.74	21139.72
416.93	20215.21
417.12	20453.94
417.31	20751.19
417.50	21348.03
417.69	21799.75
417.88	21633.57
418.07	21668.68
418.26	21156.10
418.45	21193.55
418.64	22396.59
418.83	22855.33
419.02	22672.77
419.21	22309.99
419.39	21268.45
419.58	20407.13
419.77	20259.68
419.96	21619.53
420.15	22415.31
420.34	22960.66
420.53	23868.78
420.72	24360.30
420.91	24163.69
421.10	23964.75
421.29	23630.05
421.48	22604.89
421.67	24095.82
421.86	23150.24
422.05	22047.85
422.24	19763.48
422.43	19449.85
422.61	21303.56
422.80	23365.57
422.99	23227.48
423.18	22277.22
423.37	21680.38
423.56	21783.37
423.75	22281.90
423.94	22803.84
424.13	21846.56
424.32	21928.48
424.50	21759.96
424.69	21385.47
424.88	21516.54
425.07	21392.50
425.26	21483.78
425.45	21254.40
425.64	20713.74
425.83	20762.89
426.01	21841.88
426.20	22735.96
426.39	22579.15
426.58	20573.31
426.77	19377.30
426.96	18871.74
427.15	19199.41
427.33	20863.54
427.52	21827.84
427.71	22183.60
427.90	21706.13
428.09	21198.23
428.28	21001.63
428.46	20163.72
428.65	20135.63
428.84	20475.01
429.03	20540.54
429.22	19566.88
429.40	18647.05
429.59	16800.37
429.78	14616.65
429.97	14934.96
430.16	15187.74
430.34	15140.93
430.53	15272.00
430.72	15758.83
430.91	17228.68
431.10	20130.95
431.28	23751.76
431.47	25671.00
431.66	25813.77
431.85	23964.75
432.03	21502.50
432.22	21130.36
432.41	21596.12
432.60	24240.93
432.79	24959.47
432.97	25689.72
433.16	25036.71
433.35	23047.26
433.54	20798.00
433.72	19192.39
433.91	19651.14
434.10	22150.83
434.28	23894.53
434.47	25357.36
434.66	24900.96
434.85	24114.54
435.03	23922.62
435.22	24631.80
435.41	26071.23
435.59	25771.64
435.78	26487.84
435.97	26986.38
436.16	27229.79
436.34	26859.99
436.53	25837.17
436.72	26157.83
436.90	24702.01
437.09	25111.61
437.28	24470.30
437.46	25256.72
437.65	25305.87
437.84	23714.31
438.02	21731.87
438.21	21490.80
438.40	22696.17
438.58	24861.17
438.77	25160.76
438.96	25666.31
439.14	26726.58
439.33	26958.29
439.52	27520.02
439.70	27344.48
439.89	26485.50
440.08	25413.54
440.26	25593.76
440.45	26462.10
440.63	28051.32
440.82	29750.55
441.01	29366.70
441.19	29390.11
441.38	29446.28
441.57	30581.44
441.75	31007.42
441.94	31119.76
442.12	30473.78
442.31	31262.54
442.50	31344.45
442.68	31094.02
442.87	30815.49
443.05	30047.80
443.24	30703.15
443.43	31044.87
443.61	31817.24
443.80	32116.83
443.98	30380.15
444.17	30017.37
444.35	31985.76
444.54	33041.34
444.73	32414.08
444.91	30906.77
445.10	29706.08
445.28	28737.10
445.47	28158.99
445.65	28236.22
445.84	29008.60
446.02	30118.01
446.21	30251.42
446.39	30932.52
446.58	30930.18
446.77	31690.85
446.95	31899.16
447.14	32582.60
447.32	33586.69
447.51	32264.28
447.69	31136.15
447.88	30820.17
448.06	31644.04
448.25	32306.41
448.43	32650.47
448.62	31388.92
448.80	31269.56
448.99	31660.43
449.17	32215.13
449.36	31934.27
449.54	33464.98
449.73	33305.82
449.91	34157.78
450.10	34911.43
450.28	35667.42
450.46	35051.86
450.65	35309.32
450.83	35220.38
451.02	34321.62
451.20	33888.62
451.39	34267.78
451.57	34038.41
451.76	33750.52
451.94	33504.77
452.13	33102.20
452.31	31632.34
452.49	29886.30
452.68	30096.95
452.86	30614.21
453.05	30766.34
453.23	31814.90
453.42	32395.35
453.60	33509.45
453.78	33582.01
453.97	33324.55
454.15	33329.23
454.34	32666.86
454.52	32512.38
454.70	32217.47
454.89	32540.47
455.07	32465.57
455.26	32753.46
455.44	33785.63
455.62	35288.26
455.81	35033.14
455.99	34902.07
456.17	34611.84
456.36	34394.17
456.54	35438.05
456.73	34969.94
456.91	35976.37
457.09	35903.82
457.28	37008.55
457.46	35400.60
457.64	35480.18
457.83	33902.66
458.01	33404.13
458.19	34302.89
458.38	34455.03
458.56	35608.91
458.74	35665.08
458.93	34845.90
459.11	34768.66
459.29	34600.14
459.48	34763.98
459.66	34394.17
459.84	35037.82
460.03	35178.25
460.21	35526.99
460.39	35896.80
460.57	36449.16
460.76	36580.23
460.94	36545.12
461.12	35842.96
461.31	36404.69
461.49	35920.20
461.67	36678.54
461.85	37715.39
462.04	37134.94
462.22	37986.89
462.40	37626.45
462.59	37041.32
462.77	37202.82
462.95	36884.50
463.13	36760.45
463.32	36643.43
463.50	36219.79
463.68	36746.41
463.86	36503.00
464.05	35871.05
464.23	35084.63
464.41	35157.19
464.59	33787.97
464.78	35957.65
464.96	36133.19
465.14	35646.36
465.32	36687.90
465.50	36940.68
465.69	37654.54
465.87	36903.23
466.05	35360.81
466.23	34464.39
466.41	33656.90
466.60	34462.05
466.78	34415.24
466.96	35213.36
467.14	35615.93
467.32	35969.35
467.51	35887.43
467.69	34920.79
467.87	35344.43
468.05	36182.34
468.23	35952.97
468.41	36189.36
468.60	36025.53
468.78	36222.13
468.96	35908.50
469.14	36388.31
469.32	36521.72
469.50	35288.26
469.69	35644.02
469.87	35054.20
470.05	35175.91
470.23	34735.89
470.41	34944.20
470.59	35571.46
470.77	35402.94
470.95	36528.74
471.14	36598.96
471.32	36910.25
471.50	38520.54
471.68	39124.40
471.86	38934.81
472.04	39414.62
472.22	39700.17
472.40	37530.49
472.58	37097.49
472.77	36774.50
472.95	37907.32
473.13	38581.39
473.31	37993.92
473.49	37862.85
473.67	38487.77
473.85	38782.68
474.03	39835.92
474.21	39529.31
474.39	40229.13
474.57	40552.12
474.75	40631.70
474.93	39824.22
475.12	39370.15
475.30	39285.89
475.48	39393.56
475.66	40168.27
475.84	39463.77
476.02	39103.33
476.20	38754.59
476.38	38986.30
476.56	40931.29
476.74	41120.87
476.92	41123.21
477.10	41792.61
477.28	42871.59
477.46	42801.38
477.64	43484.81
477.82	43777.38
478.00	43817.17
478.18	42759.25
478.36	43105.65
478.54	42714.78
478.72	43030.75
478.90	44357.83
479.08	45013.18
479.26	45572.57
479.44	45628.74
479.62	45436.82
479.80	45368.94
479.98	45610.02
480.16	45801.94
480.34	44989.78
480.52	46153.02
480.70	45830.03
480.88	45656.83
481.06	46855.18
481.24	46927.74
481.41	48257.17
481.59	47892.04
481.77	48285.25
481.95	47760.97
482.13	47543.30
482.31	47475.43
482.49	48018.43
482.67	47903.74
482.85	48191.63
483.03	48776.76
483.21	49404.03
483.39	49415.73
483.57	48755.70
483.74	48617.61
483.92	48818.89
484.10	48659.74
484.28	49832.35
484.46	50204.49
484.64	50220.87
484.82	49471.90
485.00	48910.17
485.18	48751.02
485.35	47395.85
485.53	44215.06
485.71	40605.95
485.89	39667.40
486.07	42068.79
486.25	44727.64
486.43	47419.25
486.61	48193.97
486.78	48053.54
486.96	48196.31
487.14	49502.33
487.32	50674.94
487.50	51636.90
487.68	52154.16
487.85	52959.30
488.03	52643.33
488.21	52552.05
488.39	51896.70
488.57	51002.61
488.75	51014.32
488.92	51721.16
489.10	53698.91
489.28	55061.10
489.46	55512.83
489.64	55547.93
489.81	55681.34
489.99	55203.88
490.17	55437.93
490.35	55676.66
490.53	55126.64
490.70	54880.88
490.88	54808.32
491.06	55674.32
491.24	55583.04
491.41	54653.85
491.59	53272.93
491.77	52528.64
491.95	53614.65
492.13	54742.79
492.30	55758.58
492.48	56598.83
492.66	57155.88
492.84	57132.48
493.01	56748.63
493.19	56104.98
493.37	56072.21
493.54	55770.28
493.72	56135.41
493.90	57420.36
494.08	57879.11
494.25	58349.56
494.43	58174.02
494.61	58738.08
494.79	58721.70
494.96	58555.52
495.14	58017.20
495.32	57118.43
495.49	56540.32
495.67	57408.66
495.85	58859.79
496.02	59133.63
496.20	58894.90
496.38	58611.70
496.55	58223.17
496.73	58780.21
496.91	58962.78
497.09	59592.38
497.26	59632.17
497.44	59241.30
497.62	58749.79
497.79	57991.45
497.97	56863.32
498.14	56858.63
498.32	57909.53
498.50	58990.86
498.67	59419.18
498.85	59292.79
499.03	59470.67
499.20	59781.96
499.38	59784.30
499.56	59458.97
499.73	59185.13
499.91	58836.39
500.08	58298.06
500.26	57469.51
500.44	57836.98
500.61	58667.87
500.79	58419.77
500.97	58295.72
501.14	58085.07
501.32	57909.53
501.49	58068.69
501.67	58028.90
501.84	58569.57
502.02	58726.38
502.20	58941.71
502.37	59201.51
502.55	59264.70
502.72	59772.60
502.90	60315.61
503.07	59887.29
503.25	59639.19
503.43	58908.94
503.60	58223.17
503.78	57485.90
503.95	57780.81
504.13	59255.34
504.30	60140.07
504.48	59772.60
504.65	59601.74
504.83	59568.97
505.01	60086.23
505.18	60580.09
505.36	61064.58
505.53	61113.73
505.71	61272.88
505.88	61340.76
506.06	60825.84
506.23	60556.68
506.41	60060.49
506.58	60257.09
506.76	60191.56
506.93	60420.93
507.11	59952.82
507.28	60081.55
507.46	59690.68
507.63	59334.92
507.81	59051.72
507.98	59260.02
508.16	59980.91
508.33	60282.84
508.50	60725.20
508.68	60973.30
508.85	61291.61
509.03	61333.74
509.20	61329.06
509.38	60647.96
509.55	59821.75
509.73	59922.40
509.90	60477.10
510.08	60666.69
510.25	60561.36
510.42	60505.19
510.60	60383.48
510.77	60645.62
510.95	61261.18
511.12	61364.17
511.30	61483.53
511.47	61790.14
511.64	61591.20
511.82	61436.72
511.99	60561.36
512.17	60184.54
512.34	59821.75
512.51	60336.67
512.69	60182.19
512.86	60402.21
513.04	60582.43
513.21	60769.67
513.38	60470.08
513.56	59943.46
513.73	59435.56
513.90	59756.22
514.08	59601.74
514.25	59831.11
514.43	60163.47
514.60	60385.82
514.77	60486.46
514.95	60477.10
515.12	60399.86
515.29	60444.33
515.47	61109.05
515.64	61176.92
515.81	60933.51
515.99	60467.74
516.16	58976.82
516.33	56987.36
516.51	55632.19
516.68	54869.18
516.85	54321.49
517.03	54728.75
517.20	57261.21
517.37	59456.63
517.54	60413.91
517.72	59894.31
517.89	57883.79
518.06	55655.60
518.24	55826.46
518.41	58040.60
518.58	59168.74
518.75	59323.22
518.93	59643.87
519.10	59538.55
519.27	59891.97
519.45	59978.57
519.62	60851.59
519.79	60954.57
519.96	60919.46
520.14	60512.21
520.31	59803.03
520.48	59760.90
520.65	60055.81
520.83	60793.07
521.00	60996.70
521.17	60706.47
521.34	60378.80
521.52	60818.82
521.69	61373.53
521.86	61839.29
522.03	61368.85
522.20	60303.90
522.38	59430.88
522.55	59433.22
522.72	60067.51
522.89	60229.01
523.07	60257.09
523.24	60671.37
523.41	61366.51
523.58	61448.42
523.75	61851.00
523.92	61827.59
524.10	61841.63
524.27	61736.31
524.44	61591.20
524.61	61298.63
524.78	61352.46
524.96	61080.96
525.13	61251.82
525.30	61450.77
525.47	61862.70
525.64	61750.35
525.81	61197.99
525.98	59887.29
526.16	58522.76
526.33	57977.41
526.50	57518.67
526.67	57378.23
526.84	57836.98
527.01	58735.74
527.18	59313.86
527.36	60301.56
527.53	61116.07
527.70	61408.64
527.87	60851.59
528.04	60467.74
528.21	60769.67
528.38	61574.81
528.55	62052.28
528.72	62106.12
528.89	62494.64
529.07	62206.76
529.24	61584.18
529.41	61205.01
529.58	60434.97
529.75	60516.89
529.92	61010.74
530.09	61130.11
530.26	61733.97
530.43	62092.07
530.60	62031.22
530.77	62328.47
530.94	62284.00
531.11	61993.77
531.28	61708.22
531.46	61364.17
531.63	61530.34
531.80	61410.98
531.97	61146.50
532.14	60331.99
532.31	59334.92
532.48	58845.75
532.65	58885.54
532.82	59632.17
532.99	60638.60
533.16	60900.74
533.33	61691.84
533.50	61286.93
533.67	60860.95
533.84	60280.50
534.01	60470.08
534.18	60713.50
534.35	61043.51
534.52	60772.01
534.69	60844.57
534.86	61331.40
535.03	61630.99
535.20	62045.26
535.37	62258.25
535.54	62468.90
535.71	62152.93
535.88	61647.37
536.05	61263.52
536.22	60736.90
536.38	60397.52
536.55	60086.23
536.72	59557.27
536.89	59707.07
537.06	60420.93
537.23	60996.70
537.40	61387.57
537.57	61317.35
537.74	61172.24
537.91	61045.85
538.08	60928.83
538.25	60952.23
538.42	61205.01
538.59	61111.39
538.75	60427.95
538.92	60170.49
539.09	59934.10
539.26	59866.22
539.43	59648.55
539.60	59669.62
539.77	60025.38
539.94	59880.27
540.11	59201.51
540.28	58574.25
540.44	58724.04
540.61	58906.60
540.78	59325.56
540.95	59597.06
541.12	60158.79
541.29	60037.08
541.46	60530.93
541.62	60481.78
541.79	60598.81
541.96	59915.37
542.13	59702.38
542.30	60193.90
542.47	60315.61
542.63	59990.27
542.80	59751.54
542.97	60011.34
543.14	59856.86
543.31	59683.66
543.48	60395.18
543.64	61097.34
543.81	61298.63
543.98	61240.12
544.15	60715.84
544.32	59821.75
544.48	59924.74
544.65	60488.80
544.82	60816.48
544.99	60523.91
545.16	60182.19
545.32	59803.03
545.49	60750.94
545.66	60938.19
545.83	60509.87
546.00	60221.98
546.16	60147.09
546.33	60168.15
546.50	60271.14
546.67	60598.81
546.83	60186.88
547.00	60104.96
547.17	59519.82
547.34	58960.44
547.50	59044.69
547.67	59428.54
547.84	59501.10
548.00	59814.73
548.17	60179.85
548.34	59838.14
548.51	60140.07
548.67	60009.00
548.84	60158.79
549.01	60196.24
549.18	59955.16
549.34	60144.75
549.51	59987.93
549.68	59936.44
549.84	59964.52
550.01	59723.45
550.18	59405.14
550.34	59550.25
550.51	59749.20
550.68	59709.41
550.84	59185.13
551.01	59365.35
551.18	59449.61
551.34	59625.15
551.51	59868.56
551.68	60177.51
551.84	60130.70
552.01	59983.25
552.18	59805.37
552.34	59131.29
552.51	58731.06
552.68	58653.82
552.84	59112.57
553.01	59580.68
553.18	59290.45
553.34	59304.49
553.51	59674.30
553.67	59920.05
553.84	59849.84
554.01	59927.08
554.17	59641.53
554.34	59657.91
554.51	59686.00
554.67	60018.36
554.84	59786.64
555.00	59702.38
555.17	59288.11
555.33	59484.72
555.50	59470.67
555.67	59419.18
555.83	59173.42
556.00	58801.28
556.16	58822.34
556.33	58518.07
556.50	58401.05
556.66	58588.29
556.83	58075.71
556.99	58424.45
557.16	58578.93
557.32	58752.13
557.49	59058.74
557.65	59110.23
557.82	58742.77
557.98	58656.17
558.15	58295.72
558.32	57275.25
558.48	56706.50
558.65	57118.43
558.81	57315.04
558.98	57682.50
559.14	57602.92
559.31	57844.00
559.47	57872.09
559.64	57441.43
559.80	57181.63
559.97	57333.76
560.13	57703.57
560.30	58543.82
560.46	58960.44
560.63	59161.72
560.79	59091.51
560.96	58953.41
561.12	57954.00
561.29	56968.64
561.45	57193.33
561.61	57602.92
561.78	57930.60
561.94	57769.10
562.11	57951.66
562.27	57689.52
562.44	57862.72
562.60	58223.17
562.77	58389.34
562.93	58412.75
563.10	58279.34
563.26	57708.25
563.42	57464.83
563.59	57535.05
563.75	57577.18
563.92	57497.60
564.08	57670.80
564.24	58028.90
564.41	57923.58
564.57	57797.19
564.74	57469.51
564.90	57567.82
565.07	57298.65
565.23	56940.55
565.39	56722.88
565.56	56210.31
565.72	55887.31
565.88	56528.62
566.05	56568.41
566.21	57017.79
566.38	56837.57
566.54	56956.94
566.70	57291.63
566.87	57499.94
567.03	57394.62
567.19	57705.91
567.36	57481.22
567.52	57373.55
567.68	57031.83
567.85	56535.64
568.01	56119.02
568.17	56046.47
568.34	55784.33
568.50	55646.24
568.66	55803.05
568.83	56435.00
568.99	56165.84
569.15	56636.28
569.32	56633.94
569.48	56107.32
569.64	56259.46
569.81	55840.50
569.97	55597.09
570.13	55482.40
570.30	55009.61
570.46	54953.44
570.62	54148.29
570.78	54380.01
570.95	54490.01
571.11	55063.44
571.27	55622.83
571.43	55760.92
571.60	55831.14
571.76	56025.40
571.92	56425.64
572.09	56477.13
572.25	56273.50
572.41	56334.35
572.57	56238.39
572.74	56020.72
572.90	55636.87
573.06	55913.06
573.22	55889.65
573.38	55756.24
573.55	55763.26
573.71	55831.14
573.87	55810.07
574.03	55587.72
574.20	55648.58
574.36	55253.03
574.52	55072.81
574.68	54941.74
574.84	54850.45
575.01	54227.87
575.17	54136.59
575.33	54447.88
575.49	54705.34
575.65	55119.62
575.82	54735.77
575.98	54447.88
576.14	54953.44
576.30	55213.24
576.46	55161.75
576.62	54831.73
576.79	54724.07
576.95	54450.22
577.11	54731.09
577.27	54646.83
577.43	54988.55
577.59	54422.14
577.75	53787.85
577.92	53553.80
578.08	53198.04
578.24	53195.70
578.40	53411.02
578.56	53797.21
578.72	53888.49
578.88	54330.86
579.04	53965.73
579.21	54695.98
579.37	54265.32
579.53	54604.70
579.69	54520.44
579.85	54567.25
580.01	54487.67
580.17	54321.49
580.33	53867.43
580.49	53963.39
580.65	54195.10
580.82	54368.30
580.98	54342.56
581.14	54157.66
581.30	54475.97
581.46	54188.08
581.62	54356.60
581.78	54534.48
581.94	54630.44
582.10	54309.79
582.26	54803.64
582.42	54564.91
582.58	54576.61
582.74	54375.33
582.90	54419.80
583.06	54410.43
583.22	54314.47
583.38	54251.28
583.54	54174.04
583.70	53989.14
583.86	54052.33
584.02	54281.70
584.18	54211.49
584.34	54223.19
584.50	54160.00
584.66	53998.50
584.82	53464.86
584.98	53462.52
585.14	53043.56
