SpectraSuite Data File
++++++++++++++++++++++++++++++++++++
Date: Mon Oct 07 14:53:42 GMT-05:00 2013
User: price-jones
Dark Spectrum Present: No
Reference Spectrum Present: No
Number of Sampled Component Spectra: 1
Spectrometers: USB2+H05261
Integration Time (usec): 100000 (USB2+H05261)
Spectra Averaged: 1 (USB2+H05261)
Boxcar Smoothing: 0 (USB2+H05261)
Correct for Electrical Dark: No (USB2+H05261)
Strobe/Lamp Enabled: No (USB2+H05261)
Correct for Detector Non-linearity: No (USB2+H05261)
Correct for Stray Light: No (USB2+H05261)
Number of Pixels in Processed Spectrum: 2048
>>>>>Begin Processed Spectral Data<<<<<
365.73	0.00
365.92	0.00
366.12	0.00
366.32	0.00
366.52	0.00
366.72	0.00
366.91	0.00
367.11	0.00
367.31	0.00
367.51	0.00
367.70	0.00
367.90	0.00
368.10	0.00
368.30	0.00
368.49	0.00
368.69	0.00
368.89	0.00
369.09	0.00
369.28	0.00
369.48	0.00
369.68	0.00
369.87	0.00
370.07	0.00
370.27	0.00
370.47	493.85
370.66	3098.87
370.86	3513.14
371.06	4009.34
371.25	3941.46
371.45	3557.61
371.65	3248.66
371.84	3038.02
372.04	3133.98
372.24	3468.67
372.44	3721.45
372.63	3555.27
372.83	3365.69
373.03	3005.25
373.22	2792.26
373.42	3082.49
373.62	3258.03
373.81	3590.38
374.01	3613.79
374.21	3307.18
374.40	2942.05
374.60	3105.89
374.79	3583.36
374.99	4124.02
375.19	4540.64
375.38	4521.92
375.58	4166.15
375.78	4102.96
375.97	4175.52
376.17	4486.81
376.37	4217.65
376.56	4575.75
376.76	4755.97
376.95	4975.98
377.15	5327.06
377.35	5661.76
377.54	5851.34
377.74	6012.84
377.93	6080.71
378.13	5778.78
378.33	5544.73
378.52	5167.90
378.72	4954.91
378.91	4847.25
379.11	4622.56
379.31	4627.24
379.50	4585.11
379.70	4933.85
379.89	5416.00
380.09	5743.67
380.28	5982.41
380.48	5891.13
380.68	5860.70
380.87	5729.63
381.07	5259.18
381.26	4727.88
381.46	4524.26
381.65	4550.00
381.85	4306.59
382.04	4039.76
382.24	3852.52
382.43	3557.61
382.63	3529.53
382.83	3459.31
383.02	3620.81
383.22	3501.44
383.41	3606.77
383.61	3915.72
383.80	4365.10
384.00	4957.25
384.19	5528.35
384.39	5891.13
384.58	5841.98
384.78	5746.02
384.97	5886.45
385.17	5357.49
385.36	5139.82
385.56	4889.38
385.75	4983.00
385.95	5516.64
386.14	6045.60
386.34	6017.52
386.53	5729.63
386.72	5448.77
386.92	5387.91
387.11	5729.63
387.31	5921.56
387.50	6073.69
387.70	5778.78
387.89	5638.35
388.09	5825.59
388.28	5804.53
388.48	5907.51
388.67	6270.30
388.86	6855.43
389.06	7485.03
389.25	7756.54
389.45	7997.61
389.64	7662.91
389.84	7808.03
390.03	7634.83
390.22	7681.64
390.42	7712.07
390.61	8336.99
390.81	8926.80
391.00	8887.01
391.19	8861.27
391.39	8709.13
391.58	8187.19
391.78	7791.64
391.97	7494.40
392.16	7075.44
392.36	6471.58
392.55	5144.50
392.75	4180.20
392.94	3337.60
393.13	3197.17
393.33	3850.18
393.52	5034.49
393.71	6139.23
393.91	7040.33
394.10	7466.31
394.29	8163.79
394.49	8978.30
394.68	9490.87
394.88	9678.12
395.07	10157.92
395.26	9680.46
395.46	9633.64
395.65	8788.71
395.84	7978.89
396.04	6532.44
396.23	5446.43
396.42	4624.90
396.62	4365.10
396.81	4975.98
397.00	6389.66
397.19	8042.08
397.39	9544.70
397.58	10799.23
397.77	11623.10
397.97	12030.35
398.16	12269.09
398.35	12711.45
398.55	12910.40
398.74	13315.31
398.93	13689.79
399.12	13467.44
399.32	12905.71
399.51	13149.13
399.70	14338.12
399.90	13982.36
400.09	14068.96
400.28	13961.30
400.47	14204.71
400.67	14759.42
400.86	15269.66
401.05	15075.39
401.24	15061.35
401.44	15276.68
401.63	15255.61
401.82	15599.67
402.01	15679.25
402.21	15564.56
402.40	15740.10
402.59	15447.54
402.78	14469.19
402.97	14288.97
403.17	14932.62
403.36	15470.94
403.55	16123.95
403.74	16566.31
403.93	15660.52
404.13	14668.14
404.32	14101.73
404.51	14834.32
404.70	15824.36
404.89	15955.43
405.09	15833.72
405.28	15452.22
405.47	15314.13
405.66	15260.29
405.85	14881.13
406.05	14333.44
406.24	14525.36
406.43	15475.62
406.62	16025.65
406.81	16156.72
407.00	15300.08
407.20	15169.01
407.39	15246.25
407.58	15756.49
407.77	16456.31
407.96	17216.98
408.15	17319.96
408.34	16952.50
408.54	18043.19
408.73	18059.57
408.92	17825.52
409.11	17411.25
409.30	16650.57
409.49	15639.46
409.68	14597.92
409.87	14260.88
410.07	15131.56
410.26	16257.36
410.45	17303.58
410.64	17867.65
410.83	18185.96
411.02	18752.37
411.21	19164.31
411.40	19058.98
411.59	19372.61
411.78	19161.97
411.98	18885.78
412.17	19126.86
412.36	18815.57
412.55	18897.49
412.74	18752.37
412.93	18162.56
413.12	17970.63
413.31	19861.79
413.50	20215.21
413.69	20477.35
413.88	19992.86
414.07	18977.06
414.26	19536.45
414.45	19922.64
414.64	20152.01
414.83	20264.36
415.02	20079.46
415.22	19946.05
415.41	20496.07
415.60	20863.54
415.79	21823.16
415.98	22075.93
416.17	22225.73
416.36	21521.23
416.55	21357.39
416.74	20723.10
416.93	19822.00
417.12	20004.56
417.31	20065.41
417.50	20568.63
417.69	21163.12
417.88	21469.73
418.07	21111.63
418.26	20812.04
418.45	20943.11
418.64	21750.60
418.83	22560.42
419.02	21785.71
419.21	21895.71
419.39	21062.48
419.58	20081.80
419.77	20217.55
419.96	20842.47
420.15	22246.79
420.34	22522.98
420.53	23569.19
420.72	24009.22
420.91	23627.71
421.10	23461.53
421.29	23370.25
421.48	22321.69
421.67	23569.19
421.86	23016.83
422.05	21326.96
422.24	18953.66
422.43	18951.32
422.61	20968.86
422.80	22501.91
422.99	22876.40
423.18	21811.45
423.37	21713.15
423.56	21535.27
423.75	21605.49
423.94	22515.95
424.13	21149.08
424.32	21418.24
424.50	21837.20
424.69	21289.51
424.88	21394.84
425.07	21146.74
425.26	21348.03
425.45	20807.36
425.64	20594.37
425.83	20458.62
426.01	21720.17
426.20	22361.48
426.39	22356.80
426.58	20830.77
426.77	19140.90
426.96	18087.66
427.15	19049.62
427.33	20748.85
427.52	21481.44
427.71	21685.06
427.90	21266.11
428.09	21200.57
428.28	20908.01
428.46	19920.30
428.65	19852.42
428.84	20170.74
429.03	20683.31
429.22	19269.63
429.40	18129.79
429.59	16526.52
429.78	14593.24
429.97	14721.97
430.16	14633.03
430.34	15176.03
430.53	14923.26
430.72	15321.15
430.91	17109.32
431.10	19721.35
431.28	23248.54
431.47	25240.34
431.66	25837.17
431.85	23363.23
432.03	21661.66
432.22	20339.26
432.41	21436.97
432.60	23695.58
432.79	24388.38
432.97	25305.87
433.16	25095.22
433.35	22649.36
433.54	20634.16
433.72	19054.30
433.91	19407.72
434.10	21851.24
434.28	23323.44
434.47	24779.25
434.66	24460.94
434.85	23871.12
435.03	23592.60
435.22	24238.59
435.41	26087.61
435.59	25750.57
435.78	25961.22
435.97	26632.96
436.16	26871.69
436.34	26635.30
436.53	26120.38
436.72	25998.67
436.90	24489.03
437.09	24442.21
437.28	24259.65
437.46	25032.03
437.65	25029.69
437.84	23447.49
438.02	21380.79
438.21	21329.30
438.40	22462.12
438.58	24327.53
438.77	25062.46
438.96	25230.98
439.14	26326.35
439.33	26820.20
439.52	27847.69
439.70	26476.14
439.89	25752.91
440.08	25266.08
440.26	25160.76
440.45	25867.60
440.63	27882.80
440.82	29462.66
441.01	29142.01
441.19	28898.59
441.38	29120.95
441.57	30284.19
441.75	30904.43
441.94	31005.08
442.12	30724.21
442.31	31658.09
442.50	31065.93
442.68	30766.34
442.87	30338.02
443.05	30183.55
443.24	30251.42
443.43	30953.58
443.61	31534.04
443.80	32266.63
443.98	29977.58
444.17	30246.74
444.35	31878.10
444.54	32484.30
444.73	32357.91
444.91	30862.30
445.10	29436.92
445.28	28645.82
445.47	27747.05
445.65	28252.61
445.84	28650.50
446.02	29692.04
446.21	30733.57
446.39	30768.68
446.58	30810.81
446.77	31150.19
446.95	31431.05
447.14	32664.52
447.32	32959.42
447.51	32315.78
447.69	31426.37
447.88	30576.76
448.06	30838.90
448.25	32041.93
448.43	32308.76
448.62	31234.45
448.80	30923.16
448.99	31351.48
449.17	31505.95
449.36	31611.28
449.54	32858.78
449.73	33888.62
449.91	33542.22
450.10	34834.19
450.28	35367.84
450.46	35398.26
450.65	34948.88
450.83	34778.02
451.02	33666.27
451.20	34033.73
451.39	33968.19
451.57	33670.95
451.76	33251.99
451.94	33294.12
452.13	32711.33
452.31	31763.41
452.49	29731.83
452.68	30150.78
452.86	30368.45
453.05	30913.80
453.23	31552.76
453.42	32254.92
453.60	33294.12
453.78	33415.83
453.97	33085.81
454.15	33259.01
454.34	32425.78
454.52	32535.79
454.70	31882.78
454.89	32601.32
455.07	32283.01
455.26	32929.00
455.44	33914.36
455.62	34649.29
455.81	34866.96
455.99	34522.90
456.17	34038.41
456.36	34513.54
456.54	35178.25
456.73	35211.02
456.91	35842.96
457.09	35934.24
457.28	36624.70
457.46	35187.61
457.64	34937.18
457.83	33642.86
458.01	33071.77
458.19	33900.32
458.38	34087.56
458.56	35517.63
458.74	35243.79
458.93	34665.67
459.11	34941.86
459.29	34483.11
459.48	34700.78
459.66	34157.78
459.84	34827.17
460.03	34986.33
460.21	34850.58
460.39	35854.67
460.57	36360.22
460.76	36390.65
460.94	36390.65
461.12	35892.12
461.31	36460.87
461.49	35936.59
461.67	36144.89
461.85	37233.24
462.04	36865.78
462.22	37205.16
462.40	36837.69
462.59	36868.12
462.77	37371.33
462.95	36945.36
463.13	36552.15
463.32	35718.92
463.50	36072.34
463.68	35931.90
463.86	35910.84
464.05	35903.82
464.23	34740.57
464.41	34927.81
464.59	34082.88
464.78	35669.76
464.96	35695.51
465.14	35154.85
465.32	36364.90
465.50	37057.70
465.69	37361.97
465.87	36978.12
466.05	35646.36
466.23	34150.76
466.41	33078.79
466.60	33795.00
466.78	34487.79
466.96	35016.75
467.14	35526.99
467.32	35796.15
467.51	36165.96
467.69	34532.26
467.87	35084.63
468.05	35608.91
468.23	35611.25
468.41	35721.26
468.60	35945.95
468.78	36299.37
468.96	35400.60
469.14	36411.71
469.32	36701.94
469.50	35241.45
469.69	35686.15
469.87	34408.22
470.05	34763.98
470.23	35019.10
470.41	34871.64
470.59	35445.07
470.77	35594.87
470.95	36304.05
471.14	36552.15
471.32	36898.55
471.50	38513.52
471.68	38913.75
471.86	39438.03
472.04	39222.70
472.22	39496.54
472.40	37364.31
472.58	37619.43
472.77	37003.87
472.95	37322.18
473.13	38391.81
473.31	37270.69
473.49	37635.81
473.67	38202.22
473.85	39030.77
474.03	39384.19
474.21	40081.67
474.39	40051.25
474.57	39985.71
474.75	40233.81
474.93	40224.45
475.12	39168.87
475.30	38754.59
475.48	39075.24
475.66	40034.86
475.84	39262.49
476.02	39349.09
476.20	38176.48
476.38	39065.88
476.56	40502.97
476.74	41125.55
476.92	41095.13
477.10	41844.10
477.28	43234.38
477.46	43037.77
477.64	43077.56
477.82	43395.87
478.00	43222.67
478.18	43007.34
478.36	42731.16
478.54	42670.31
478.72	43236.72
478.90	43445.02
479.08	44973.39
479.26	45790.24
479.44	45591.30
479.62	45694.28
479.80	45387.67
479.98	45567.89
480.16	46019.61
480.34	45134.89
480.52	45705.98
480.70	46129.62
480.88	46017.27
481.06	46707.73
481.24	47306.91
481.41	47772.67
481.59	48608.25
481.77	47936.51
481.95	47367.76
482.13	47660.33
482.31	47559.69
482.49	48385.89
482.67	48318.02
482.85	48018.43
483.03	49118.48
483.21	49083.37
483.39	49272.96
483.57	48418.66
483.74	48233.76
483.92	48102.69
484.10	48313.34
484.28	49741.06
484.46	50220.87
484.64	50293.43
484.82	49287.00
485.00	49116.14
485.18	48416.32
485.35	46623.47
485.53	43798.44
485.71	40374.24
485.89	39049.50
486.07	41420.46
486.25	44996.80
486.43	47650.97
486.61	47922.47
486.78	48032.47
486.96	48231.42
487.14	49832.35
487.32	50244.28
487.50	51292.84
487.68	52299.27
487.85	52622.26
488.03	52519.28
488.21	52449.06
488.39	51629.88
488.57	51182.84
488.75	50820.05
488.92	51737.54
489.10	53673.16
489.28	55021.31
489.46	55524.53
489.64	55386.44
489.81	55798.37
489.99	55224.94
490.17	55231.96
490.35	55669.64
490.53	55295.16
490.70	54869.18
490.88	54871.52
491.06	55613.47
491.24	55753.90
491.41	54944.08
491.59	53031.86
491.77	52425.66
491.95	53331.45
492.13	54553.21
492.30	55718.79
492.48	56292.22
492.66	56996.73
492.84	56961.62
493.01	56629.26
493.19	56191.58
493.37	55889.65
493.54	55707.09
493.72	56116.68
493.90	56980.34
494.08	57909.53
494.25	58073.37
494.43	58288.70
494.61	58532.12
494.79	58855.11
494.96	58408.07
495.14	57907.19
495.32	57057.58
495.49	56582.45
495.67	57626.33
495.85	58885.54
496.02	59100.87
496.20	58981.50
496.38	58532.12
496.55	58422.11
496.73	58960.44
496.91	58925.33
497.09	59543.23
497.26	59625.15
497.44	59093.85
497.62	58897.24
497.79	57907.19
497.97	56769.69
498.14	56652.67
498.32	58035.92
498.50	58794.26
498.67	59536.21
498.85	59346.62
499.03	59220.23
499.20	59615.79
499.38	59674.30
499.56	59650.89
499.73	59051.72
499.91	58583.61
500.08	58424.45
500.26	57497.60
500.44	57851.02
500.61	58791.92
500.79	58658.51
500.97	58078.05
501.14	57942.30
501.32	57773.78
501.49	57853.36
501.67	58136.57
501.84	58506.37
502.02	58805.96
502.20	59262.36
502.37	59414.50
502.55	59253.00
502.72	59882.61
502.90	60140.07
503.07	59997.29
503.25	59454.29
503.43	59126.61
503.60	58007.84
503.78	57504.62
503.95	58059.33
504.13	59138.32
504.30	60095.60
504.48	59950.48
504.65	59592.38
504.83	59643.87
505.01	60111.98
505.18	60535.62
505.36	61268.20
505.53	61219.05
505.71	61216.71
505.88	61312.67
506.06	60772.01
506.23	60491.15
506.41	60055.81
506.58	60505.19
506.76	60252.41
506.93	60357.74
507.11	60123.68
507.28	60214.96
507.46	59739.83
507.63	59189.81
507.81	59051.72
507.98	59416.84
508.16	60013.68
508.33	60327.31
508.50	60736.90
508.68	60961.59
508.85	61446.08
509.03	61345.44
509.20	61338.42
509.38	60587.11
509.55	60177.51
509.73	60013.68
509.90	60542.64
510.08	60753.29
510.25	60755.63
510.42	60486.46
510.60	60360.08
510.77	60767.33
510.95	61251.82
511.12	61193.31
511.30	61581.84
511.47	61764.40
511.64	61680.14
511.82	61425.02
511.99	60741.58
512.17	60427.95
512.34	59959.84
512.51	60299.22
512.69	60196.24
512.86	60610.51
513.04	60727.54
513.21	60736.90
513.38	60509.87
513.56	60100.28
513.73	59370.03
513.90	59749.20
514.08	59896.65
514.25	60097.94
514.43	60388.16
514.60	60456.04
514.77	60570.72
514.95	60463.06
515.12	60434.97
515.29	60526.25
515.47	61315.01
515.64	61394.59
515.81	60952.23
515.99	60605.83
516.16	59185.13
516.33	57029.49
516.51	55910.72
516.68	54866.84
516.85	54686.62
517.03	54820.03
517.20	57148.86
517.37	59501.10
517.54	60659.66
517.72	60196.24
517.89	58061.67
518.06	55805.39
518.24	55742.20
518.41	58073.37
518.58	59194.49
518.75	59597.06
518.93	59657.91
519.10	59540.89
519.27	59896.65
519.45	59997.29
519.62	60764.99
519.79	61069.26
519.96	60931.17
520.14	60395.18
520.31	59604.08
520.48	59796.01
520.65	60074.53
520.83	60652.64
521.00	61336.08
521.17	60823.50
521.34	60732.22
521.52	60809.46
521.69	61396.93
521.86	61708.22
522.03	61530.34
522.20	60362.42
522.38	59620.47
522.55	59318.54
522.72	59852.18
522.89	60076.87
523.07	60252.41
523.24	60720.52
523.41	61413.32
523.58	61705.88
523.75	61996.11
523.92	61989.09
524.10	61804.19
524.27	62017.17
524.44	61740.99
524.61	61422.68
524.78	61410.98
524.96	61343.10
525.13	61216.71
525.30	61244.80
525.47	62033.56
525.64	61853.34
525.81	61165.22
525.98	60016.02
526.16	58578.93
526.33	58138.91
526.50	57680.16
526.67	57359.51
526.84	57787.83
527.01	58829.37
527.18	59496.42
527.36	60168.15
527.53	61221.39
527.70	61401.61
527.87	60973.30
528.04	60348.37
528.21	61130.11
528.38	61506.94
528.55	62007.81
528.72	62358.89
528.89	62504.01
529.07	62141.22
529.24	61626.31
529.41	60942.87
529.58	60612.85
529.75	60547.32
529.92	61174.58
530.09	61336.08
530.26	61869.72
530.43	62087.39
530.60	62108.46
530.77	62216.12
530.94	62379.96
531.11	62038.24
531.28	61708.22
531.46	61635.67
531.63	61731.63
531.80	61471.83
531.97	61066.92
532.14	60460.72
532.31	59501.10
532.48	58951.07
532.65	58873.84
532.82	59597.06
532.99	60767.33
533.16	61167.56
533.33	61474.17
533.50	61471.83
533.67	60893.72
533.84	60460.72
534.01	60629.24
534.18	60781.37
534.35	60989.68
534.52	60783.71
534.69	61125.43
534.86	61457.79
535.03	61492.89
535.20	62049.94
535.37	62295.70
535.54	62436.13
535.71	62307.40
535.88	61748.01
536.05	61233.10
536.22	61010.74
536.38	60533.28
536.55	60034.74
536.72	59737.49
536.89	59615.79
537.06	60140.07
537.23	61104.37
537.40	61352.46
537.57	61331.40
537.74	60954.57
537.91	60977.98
538.08	60849.25
538.25	61188.63
538.42	61469.49
538.59	61137.13
538.75	60603.49
538.92	60317.95
539.09	60233.69
539.26	60030.06
539.43	59910.69
539.60	59847.50
539.77	60207.94
539.94	59976.23
540.11	59271.73
540.28	58623.40
540.44	58915.96
540.61	59124.27
540.78	59334.92
540.95	59531.53
541.12	60191.56
541.29	60329.65
541.46	60610.51
541.62	60540.30
541.79	60509.87
541.96	59896.65
542.13	60128.36
542.30	60233.69
542.47	60374.12
542.63	60140.07
542.80	59913.03
542.97	60196.24
543.14	59924.74
543.31	59955.16
543.48	60467.74
543.64	61104.37
543.81	61471.83
543.98	61296.29
544.15	60797.76
544.32	60046.44
544.48	60207.94
544.65	60687.75
544.82	60989.68
544.99	60729.88
545.16	60420.93
545.32	59807.71
545.49	60807.12
545.66	61090.32
545.83	60568.38
546.00	60535.62
546.16	60065.17
546.33	60016.02
546.50	60268.79
546.67	60664.35
546.83	60212.62
547.00	60339.01
547.17	59627.49
547.34	59215.55
547.50	59089.16
547.67	59566.63
547.84	59543.23
548.00	59964.52
548.17	60334.33
548.34	59906.01
548.51	60310.92
548.67	60376.46
548.84	60467.74
549.01	60231.35
549.18	59983.25
549.34	60037.08
549.51	60149.43
549.68	60123.68
549.84	59852.18
550.01	59716.43
550.18	59449.61
550.34	59744.51
550.51	59800.69
550.68	59779.62
550.84	59267.05
551.01	59309.18
551.18	59522.16
551.34	59831.11
551.51	60020.70
551.68	60093.25
551.84	60411.57
552.01	60285.18
552.18	59898.99
552.34	59222.58
552.51	59016.61
552.68	58841.07
552.84	59388.75
553.01	59636.85
553.18	59412.16
553.34	59629.83
553.51	59742.17
553.67	59814.73
553.84	60247.73
554.01	59760.90
554.17	59620.47
554.34	59730.47
554.51	59913.03
554.67	60156.45
554.84	59906.01
555.00	59646.21
555.17	59517.48
555.33	59632.17
555.50	59559.61
555.67	59662.60
555.83	59311.52
556.00	59154.70
556.16	59021.29
556.33	58599.99
556.50	58623.40
556.66	58337.85
556.83	58450.20
556.99	58321.47
557.16	58557.86
557.32	58932.35
557.49	59119.59
557.65	59215.55
557.82	59009.59
557.98	58578.93
558.15	58452.54
558.32	57663.78
558.48	56877.36
558.65	57109.07
558.81	57621.65
558.98	57588.88
559.14	57694.21
559.31	57895.49
559.47	58066.35
559.64	57853.36
559.80	57256.53
559.97	57347.81
560.13	57581.86
560.30	58532.12
560.46	59040.01
560.63	59367.69
560.79	59332.58
560.96	59065.76
561.12	57928.26
561.29	57137.16
561.45	57223.76
561.61	57656.76
561.78	58129.54
561.94	58277.00
562.11	57961.03
562.27	57848.68
562.44	58010.18
562.60	58244.23
562.77	58567.23
562.93	58403.39
563.10	58195.08
563.26	57766.76
563.42	57975.07
563.59	57680.16
563.75	57858.04
563.92	57652.08
564.08	57668.46
564.24	57949.32
564.41	57968.05
564.57	57708.25
564.74	57710.59
564.90	57509.30
565.07	57757.40
565.23	57212.06
565.39	56739.27
565.56	56320.31
565.72	56067.53
565.88	56821.19
566.05	56832.89
566.21	56879.70
566.38	57006.09
566.54	57146.52
566.70	57429.72
566.87	57752.72
567.03	57682.50
567.19	57858.04
567.36	57623.99
567.52	57450.79
567.68	57429.72
567.85	56690.12
568.01	56406.91
568.17	56013.70
568.34	56172.86
568.50	55913.06
568.66	56074.55
568.83	56456.06
568.99	56425.64
569.15	56526.28
569.32	57041.20
569.48	56315.63
569.64	56285.20
569.81	56032.42
569.97	55901.36
570.13	55796.03
570.30	55393.46
570.46	55234.30
570.62	54658.53
570.78	54347.24
570.95	54497.03
571.11	55416.86
571.27	55477.72
571.43	55908.38
571.60	56030.08
571.76	56243.07
571.92	56563.73
572.09	56650.33
572.25	56540.32
572.41	56563.73
572.57	56474.79
572.74	56460.74
572.90	56069.87
573.06	55948.17
573.22	56053.49
573.38	56238.39
573.55	55894.33
573.71	56177.54
573.87	56081.58
574.03	56051.15
574.20	55880.29
574.36	55543.25
574.52	55554.96
574.68	55227.28
574.84	55025.99
575.01	54798.96
575.17	54234.89
575.33	54710.02
575.49	54894.92
575.65	55168.77
575.82	54918.33
575.98	54527.46
576.14	55126.64
576.30	55065.78
576.46	55302.18
576.62	55306.86
576.79	55508.14
576.95	54808.32
577.11	54745.13
577.27	54747.47
577.43	54911.31
577.59	54593.00
577.75	54253.62
577.92	53904.88
578.08	53780.83
578.24	53570.18
578.40	53893.18
578.56	53968.07
578.72	54145.95
578.88	54396.39
579.04	54471.29
579.21	54417.46
579.37	54564.91
579.53	54585.97
579.69	54550.87
579.85	54712.36
580.01	54763.85
580.17	54183.40
580.33	54014.88
580.49	54272.34
580.65	54593.00
580.82	54614.06
580.98	54693.64
581.14	54543.84
581.30	54707.68
581.46	54590.66
581.62	54688.96
581.78	54637.47
581.94	55040.04
582.10	54646.83
582.26	54550.87
582.42	54890.24
582.58	54951.10
582.74	54681.94
582.90	54569.59
583.06	54623.42
583.22	54415.11
583.38	54433.84
583.54	54288.73
583.70	54394.05
583.86	54663.21
584.02	54160.00
584.18	54234.89
584.34	54192.76
584.50	54274.68
584.66	53921.26
584.82	53813.60
584.98	53769.13
585.14	53214.42
