SpectraSuite Data File
++++++++++++++++++++++++++++++++++++
Date: Mon Oct 07 14:53:47 GMT-05:00 2013
User: price-jones
Dark Spectrum Present: No
Reference Spectrum Present: No
Number of Sampled Component Spectra: 1
Spectrometers: USB2+H05261
Integration Time (usec): 100000 (USB2+H05261)
Spectra Averaged: 1 (USB2+H05261)
Boxcar Smoothing: 0 (USB2+H05261)
Correct for Electrical Dark: No (USB2+H05261)
Strobe/Lamp Enabled: No (USB2+H05261)
Correct for Detector Non-linearity: No (USB2+H05261)
Correct for Stray Light: No (USB2+H05261)
Number of Pixels in Processed Spectrum: 2048
>>>>>Begin Processed Spectral Data<<<<<
365.73	0.00
365.92	0.00
366.12	0.00
366.32	0.00
366.52	0.00
366.72	0.00
366.91	0.00
367.11	0.00
367.31	0.00
367.51	0.00
367.70	0.00
367.90	0.00
368.10	0.00
368.30	0.00
368.49	0.00
368.69	0.00
368.89	0.00
369.09	0.00
369.28	0.00
369.48	0.00
369.68	0.00
369.87	0.00
370.07	0.00
370.27	0.00
370.47	599.18
370.66	3045.04
370.86	3545.91
371.06	3934.44
371.25	4058.49
371.45	3471.01
371.65	3304.84
371.84	2843.75
372.04	3141.00
372.24	3557.61
372.44	3751.88
372.63	3583.36
372.83	3475.70
373.03	2998.23
373.22	2747.79
373.42	2918.65
373.62	3344.63
373.81	3655.92
374.01	3721.45
374.21	3386.76
374.40	3056.74
374.60	3199.51
374.79	3604.42
374.99	4255.09
375.19	4578.09
375.38	4620.22
375.58	4320.63
375.78	4194.24
375.97	4224.67
376.17	4456.38
376.37	4435.32
376.56	4603.83
376.76	4835.55
376.95	5149.18
377.15	5544.73
377.35	5526.00
377.54	5884.11
377.74	6010.50
377.93	5954.32
378.13	5841.98
378.33	5720.27
378.52	5104.71
378.72	4863.63
378.91	4791.08
379.11	4538.30
379.31	4566.39
379.50	4524.26
379.70	4856.61
379.89	5458.13
380.09	5579.84
380.28	6036.24
380.48	5895.81
380.68	5767.08
380.87	5551.75
381.07	5385.57
381.26	4800.44
381.46	4603.83
381.65	4519.57
381.85	4421.27
382.04	3962.53
382.24	3960.19
382.43	3730.81
382.63	3672.30
382.83	3618.47
383.02	3517.83
383.22	3705.07
383.41	3623.15
383.61	3918.06
383.80	4365.10
384.00	5001.72
384.19	5785.80
384.39	5884.11
384.58	5870.06
384.78	5760.06
384.97	5825.59
385.17	5584.52
385.36	5289.61
385.56	4950.23
385.75	5046.20
385.95	5547.07
386.14	5968.37
386.34	6094.76
386.53	5839.64
386.72	5593.88
386.92	5490.90
387.11	5624.31
387.31	6223.48
387.50	6139.23
387.70	5701.54
387.89	5586.86
388.09	5703.89
388.28	5851.34
388.48	5792.83
388.67	6396.68
388.86	7054.37
389.06	7609.08
389.25	7836.11
389.45	7826.75
389.64	7913.35
389.84	7887.61
390.03	7716.75
390.22	7632.49
390.42	7784.62
390.61	8336.99
390.81	8898.72
391.00	9085.96
391.19	9039.15
391.39	8858.93
391.58	8142.72
391.78	7749.51
391.97	7641.85
392.16	7075.44
392.36	6551.16
392.55	5060.24
392.75	3974.23
392.94	3344.63
393.13	3358.67
393.33	3740.18
393.52	5006.41
393.71	6181.35
393.91	7037.99
394.10	7353.96
394.29	8245.71
394.49	8765.31
394.68	9469.81
394.88	9387.89
395.07	9968.34
395.26	9863.02
395.46	9401.93
395.65	8894.04
395.84	8025.70
396.04	6525.41
396.23	5516.64
396.42	4470.42
396.62	4194.24
396.81	4957.25
397.00	6469.24
397.19	8234.00
397.39	9689.82
397.58	10902.22
397.77	11396.07
397.97	12107.59
398.16	11864.18
398.35	12219.94
398.55	12681.02
398.74	13383.18
398.93	13685.11
399.12	13425.31
399.32	12968.91
399.51	13380.84
399.70	14129.81
399.90	13926.19
400.09	14127.47
400.28	14003.43
400.47	13970.66
400.67	14827.29
400.86	14787.50
401.05	14839.00
401.24	15061.35
401.44	15267.31
401.63	15515.41
401.82	15606.69
402.01	15562.22
402.21	15393.70
402.40	15775.21
402.59	15147.95
402.78	14728.99
402.97	14132.15
403.17	14567.49
403.36	15255.61
403.55	16402.47
403.74	16283.11
403.93	15920.32
404.13	14658.78
404.32	14242.16
404.51	14813.25
404.70	16154.38
404.89	16013.95
405.09	15899.26
405.28	15051.99
405.47	15330.51
405.66	15112.84
405.85	15166.67
406.05	14345.14
406.24	14668.14
406.43	15463.92
406.62	15826.70
406.81	15999.90
407.00	15274.34
407.20	14970.07
407.39	15087.09
407.58	15960.11
407.77	16404.81
407.96	16720.79
408.15	17235.70
408.34	17235.70
408.54	18029.15
408.73	18122.77
408.92	17680.41
409.11	17399.54
409.30	16606.10
409.49	15386.68
409.68	14443.45
409.87	13877.04
410.07	14871.76
410.26	16163.74
410.45	17324.65
410.64	17575.08
410.83	18003.40
411.02	18665.77
411.21	19393.68
411.40	18878.76
411.59	19066.00
411.78	19014.51
411.98	18754.71
412.17	19178.35
412.36	18635.35
412.55	19105.79
412.74	18366.18
412.93	17832.54
413.12	17965.95
413.31	19826.68
413.50	20023.28
413.69	20456.28
413.88	19775.19
414.07	18977.06
414.26	19129.20
414.45	20067.75
414.64	20189.46
414.83	20421.17
415.02	19733.06
415.22	19585.60
415.41	20350.96
415.60	20837.79
415.79	21460.37
415.98	22143.81
416.17	22555.74
416.36	21357.39
416.55	21432.29
416.74	20737.15
416.93	19803.27
417.12	19791.57
417.31	20208.19
417.50	20355.64
417.69	21270.79
417.88	21261.43
418.07	20753.53
418.26	20449.26
418.45	20498.41
418.64	21287.17
418.83	22052.53
419.02	21991.67
419.21	22059.55
419.39	20748.85
419.58	20030.30
419.77	20205.84
419.96	20379.04
420.15	22017.42
420.34	22693.83
420.53	23073.00
420.72	24002.19
420.91	23758.78
421.10	23461.53
421.29	23396.00
421.48	22501.91
421.67	23330.46
421.86	23103.43
422.05	21362.07
422.24	19208.78
422.43	18820.25
422.61	21020.35
422.80	22569.79
422.99	22607.23
423.18	21795.07
423.37	21343.35
423.56	21366.75
423.75	21886.35
423.94	22242.11
424.13	21219.30
424.32	21371.43
424.50	21312.92
424.69	20805.02
424.88	20959.50
425.07	21254.40
425.26	20816.72
425.45	20985.24
425.64	20503.09
425.83	20355.64
426.01	21647.61
426.20	21830.18
426.39	22270.20
426.58	20297.13
426.77	18761.73
426.96	18209.37
427.15	18583.85
427.33	20772.25
427.52	21528.25
427.71	21277.81
427.90	21036.74
428.09	20968.86
428.28	20561.61
428.46	19527.09
428.65	19529.43
428.84	19962.43
429.03	20013.92
429.22	19374.95
429.40	18279.58
429.59	16655.25
429.78	14443.45
429.97	14338.12
430.16	15250.93
430.34	14820.27
430.53	14911.55
430.72	15400.72
430.91	16767.60
431.10	19491.98
431.28	23475.57
431.47	25149.06
431.66	25476.73
431.85	23335.14
432.03	21350.37
432.22	20315.85
432.41	21333.98
432.60	23587.92
432.79	24257.31
432.97	25270.76
433.16	24706.70
433.35	22632.98
433.54	20147.33
433.72	18904.51
433.91	19168.99
434.10	21617.19
434.28	23358.55
434.47	24222.20
434.66	23805.59
434.85	23660.48
435.03	23393.65
435.22	23906.23
435.41	25589.08
435.59	25495.46
435.78	25729.51
435.97	26817.86
436.16	26799.13
436.34	26424.65
436.53	25539.93
436.72	25493.12
436.90	24540.52
437.09	24311.14
437.28	23620.69
437.46	24444.56
437.65	24945.43
437.84	22995.76
438.02	21029.71
438.21	20961.84
438.40	22169.55
438.58	23910.91
438.77	24861.17
438.96	25113.95
439.14	25755.26
439.33	26487.84
439.52	27002.76
439.70	26808.50
439.89	26136.76
440.08	25088.20
440.26	25123.31
440.45	26223.36
440.63	27580.87
440.82	29069.45
441.01	28711.35
441.19	28219.84
441.38	28580.28
441.57	30043.12
441.75	30115.67
441.94	30543.99
442.12	30499.52
442.31	30941.88
442.50	30417.60
442.68	30518.25
442.87	29895.66
443.05	29708.42
443.24	29867.58
443.43	30815.49
443.61	31122.10
443.80	31765.75
443.98	29780.98
444.17	29694.38
444.35	31278.92
444.54	32301.73
444.73	31885.12
444.91	30101.63
445.10	29397.13
445.28	27960.04
445.47	27843.01
445.65	28065.36
445.84	28636.45
446.02	29263.72
446.21	29797.36
446.39	29769.27
446.58	30345.05
446.77	30904.43
446.95	31246.15
447.14	31847.67
447.32	32570.90
447.51	31421.69
447.69	30728.89
447.88	30331.00
448.06	30792.09
448.25	31477.86
448.43	31894.48
448.62	30979.33
448.80	30600.16
448.99	30955.93
449.17	31220.41
449.36	31414.67
449.54	32570.90
449.73	33270.72
449.91	33270.72
450.10	34213.95
450.28	34649.29
450.46	34281.83
450.65	34541.63
450.83	34050.11
451.02	33654.56
451.20	33397.10
451.39	33247.31
451.57	32978.15
451.76	33179.43
451.94	32797.93
452.13	32432.80
452.31	30883.37
452.49	29769.27
452.68	29254.36
452.86	30270.15
453.05	30221.00
453.23	31250.83
453.42	31702.56
453.60	32538.13
453.78	32580.26
453.97	32610.68
454.15	32957.08
454.34	32173.00
454.52	31955.33
454.70	31077.63
454.89	31590.21
455.07	32346.20
455.26	32395.35
455.44	33387.74
455.62	33900.32
455.81	34232.68
455.99	33813.72
456.17	33380.72
456.36	33682.65
456.54	34756.96
456.73	34735.89
456.91	35321.02
457.09	35648.70
457.28	36187.02
457.46	34766.32
457.64	34529.92
457.83	33043.68
458.01	32425.78
458.19	33631.16
458.38	33628.82
458.56	34841.21
458.74	34967.60
458.93	33954.15
459.11	34000.96
459.29	33996.28
459.48	33670.95
459.66	33713.08
459.84	34380.13
460.03	34258.42
460.21	34576.73
460.39	35395.92
460.57	35583.16
460.76	35562.10
460.94	36016.16
461.12	35503.59
461.31	35508.27
461.49	35381.88
461.67	35578.48
461.85	36851.73
462.04	36414.05
462.22	36224.47
462.40	36084.04
462.59	36332.14
462.77	36247.88
462.95	36481.93
463.13	35899.14
463.32	35398.26
463.50	35290.60
463.68	35199.32
463.86	35587.85
464.05	35105.70
464.23	34445.66
464.41	34120.33
464.59	33528.17
464.78	35133.78
464.96	35058.88
465.14	34799.08
465.32	35550.40
465.50	36189.36
465.69	36669.17
465.87	36292.35
466.05	34967.60
466.23	34073.52
466.41	32809.63
466.60	33514.13
466.78	33474.34
466.96	34298.21
467.14	34939.52
467.32	35402.94
467.51	35578.48
467.69	33792.65
467.87	34508.86
468.05	34932.50
468.23	35026.12
468.41	35166.55
468.60	35395.92
468.78	35243.79
468.96	35007.39
469.14	35894.46
469.32	36020.84
469.50	34143.74
469.69	34550.99
469.87	34066.50
470.05	34005.64
470.23	33869.89
470.41	34136.71
470.59	34258.42
470.77	34843.56
470.95	35725.94
471.14	35812.54
471.32	35901.48
471.50	38064.13
471.68	37848.80
471.86	38352.02
472.04	38337.98
472.22	38731.18
472.40	36488.95
472.58	36891.52
472.77	35920.20
472.95	36882.16
473.13	37675.60
473.31	37076.43
473.49	37048.34
473.67	37832.42
473.85	37668.58
474.03	38916.09
474.21	39037.80
474.39	39370.15
474.57	39615.91
474.75	39023.75
474.93	39672.08
475.12	38295.85
475.30	38312.23
475.48	38169.46
475.66	38841.19
475.84	38658.63
476.02	38197.54
476.20	37434.53
476.38	38412.87
476.56	39636.97
476.74	39931.88
476.92	40229.13
477.10	40776.81
477.28	41837.08
477.46	41588.98
477.64	42717.12
477.82	42607.11
478.00	42401.14
478.18	41867.50
478.36	41748.14
478.54	42038.36
478.72	42567.32
478.90	42937.13
479.08	44233.78
479.26	44884.45
479.44	44912.54
479.62	44215.06
479.80	44186.97
479.98	44877.43
480.16	45010.84
480.34	44357.83
480.52	45088.08
480.70	45317.45
480.88	44875.09
481.06	46143.66
481.24	46014.93
481.41	46766.24
481.59	47749.27
481.77	46920.72
481.95	46445.59
482.13	46749.86
482.31	46333.24
482.49	47419.25
482.67	47042.43
482.85	47292.86
483.03	48083.97
483.21	48509.94
483.39	48423.34
483.57	47580.75
483.74	47746.93
483.92	47674.37
484.10	48095.67
484.28	48718.25
484.46	48659.74
484.64	49539.78
484.82	48678.46
485.00	48554.41
485.18	47487.13
485.35	46223.24
485.53	43178.20
485.71	39688.46
485.89	38499.47
486.07	40669.15
486.25	44280.60
486.43	46649.22
486.61	47140.73
486.78	47192.22
486.96	47463.72
487.14	49008.48
487.32	49731.70
487.50	50714.73
487.68	51477.74
487.85	51990.32
488.03	52128.41
488.21	51430.93
488.39	50906.65
488.57	50160.02
488.75	49858.09
488.92	51330.29
489.10	53188.67
489.28	54401.07
489.46	54873.86
489.64	54684.28
489.81	54948.76
489.99	54588.31
490.17	54555.55
490.35	54941.74
490.53	54457.24
490.70	54117.87
490.88	53986.80
491.06	55030.68
491.24	55128.98
491.41	53895.52
491.59	52547.37
491.77	51688.39
491.95	52891.43
492.13	53968.07
492.30	54878.54
492.48	55948.17
492.66	56266.48
492.84	55966.89
493.01	55997.32
493.19	55374.73
493.37	55348.99
493.54	54967.48
493.72	55571.34
493.90	56570.75
494.08	57083.33
494.25	57382.91
494.43	57736.34
494.61	58117.84
494.79	58157.63
494.96	57939.96
495.14	57340.78
495.32	56411.59
495.49	55957.53
495.67	56884.38
495.85	57893.15
496.02	58459.56
496.20	58319.13
496.38	57780.81
496.55	57726.97
496.73	58035.92
496.91	58328.49
497.09	58953.41
497.26	58955.75
497.44	58576.59
497.62	58138.91
497.79	57436.75
497.97	56093.28
498.14	56104.98
498.32	57277.59
498.50	58209.12
498.67	58829.37
498.85	58543.82
499.03	58824.68
499.20	58937.03
499.38	58993.20
499.56	59014.27
499.73	58494.67
499.91	57954.00
500.08	57696.55
500.26	56970.98
500.44	57586.54
500.61	58040.60
500.79	57776.12
500.97	57457.81
501.14	57301.00
501.32	57293.97
501.49	57265.89
501.67	57301.00
501.84	58052.31
502.02	58096.78
502.20	58464.24
502.37	58571.91
502.55	58677.23
502.72	59164.06
502.90	59784.30
503.07	59267.05
503.25	58763.83
503.43	58239.55
503.60	57408.66
503.78	56559.05
503.95	57387.60
504.13	58642.12
504.30	59505.78
504.48	59140.66
504.65	58922.99
504.83	58702.98
505.01	59526.84
505.18	59779.62
505.36	60348.37
505.53	60507.53
505.71	60671.37
505.88	60762.65
506.06	60060.49
506.23	59728.13
506.41	59304.49
506.58	59587.70
506.76	59667.28
506.93	59674.30
507.11	59407.48
507.28	59341.94
507.46	59267.05
507.63	58389.34
507.81	58384.66
507.98	58595.31
508.16	59332.58
508.33	59620.47
508.50	60074.53
508.68	60254.75
508.85	60811.80
509.03	60694.77
509.20	60699.45
509.38	59891.97
509.55	59281.09
509.73	59325.56
509.90	59786.64
510.08	60156.45
510.25	59856.86
510.42	59955.16
510.60	59856.86
510.77	60151.77
510.95	60418.59
511.12	60762.65
511.30	60968.61
511.47	61249.48
511.64	61123.09
511.82	60781.37
511.99	60168.15
512.17	59583.02
512.34	59269.39
512.51	59379.39
512.69	59391.09
512.86	59655.57
513.04	60156.45
513.21	60161.13
513.38	59915.37
513.56	59365.35
513.73	58848.09
513.90	59150.02
514.08	59168.74
514.25	59213.21
514.43	59250.66
514.60	59561.95
514.77	59756.22
514.95	60060.49
515.12	59730.47
515.29	59859.20
515.47	60210.28
515.64	60521.57
515.81	60303.90
515.99	59774.94
516.16	58464.24
516.33	56280.52
516.51	54719.38
516.68	54080.42
516.85	53504.65
517.03	53841.68
517.20	56640.96
517.37	58614.04
517.54	60020.70
517.72	59341.94
517.89	57502.28
518.06	54759.17
518.24	54979.18
518.41	57024.81
518.58	58464.24
518.75	58915.96
518.93	58876.18
519.10	58791.92
519.27	59196.83
519.45	59227.26
519.62	60048.78
519.79	60296.88
519.96	60282.84
520.14	59863.88
520.31	58934.69
520.48	58871.49
520.65	59229.60
520.83	60193.90
521.00	60732.22
521.17	60224.32
521.34	59826.43
521.52	60079.21
521.69	60643.28
521.86	61055.21
522.03	60556.68
522.20	59529.19
522.38	58487.65
522.55	58721.70
522.72	59061.08
522.89	59320.88
523.07	59519.82
523.24	59807.71
523.41	60528.59
523.58	60802.44
523.75	61340.76
523.92	61190.97
524.10	61179.26
524.27	61132.45
524.44	61052.87
524.61	60727.54
524.78	60549.66
524.96	60477.10
525.13	60460.72
525.30	60788.39
525.47	61214.37
525.64	61092.66
525.81	60523.91
525.98	59126.61
526.16	57757.40
526.33	56872.68
526.50	56807.14
526.67	56329.67
526.84	56870.34
527.01	58054.65
527.18	58693.61
527.36	59470.67
527.53	60385.82
527.70	60594.13
527.87	60016.02
528.04	59653.23
528.21	60214.96
528.38	60570.72
528.55	61256.50
528.72	61581.84
528.89	61572.47
529.07	61471.83
529.24	60912.44
529.41	60416.25
529.58	59536.21
529.75	59922.40
529.92	60137.72
530.09	60683.07
530.26	61057.56
530.43	61228.41
530.60	61249.48
530.77	61406.30
530.94	61574.81
531.11	61324.38
531.28	60968.61
531.46	60743.92
531.63	60832.86
531.80	60786.05
531.97	60315.61
532.14	59587.70
532.31	58630.42
532.48	57928.26
532.65	57984.43
532.82	58815.32
532.99	60044.10
533.16	60147.09
533.33	60673.71
533.50	60460.72
533.67	59938.78
533.84	59606.42
534.01	59817.07
534.18	59936.44
534.35	59955.16
534.52	60135.38
534.69	60287.52
534.86	60580.09
535.03	60664.35
535.20	61137.13
535.37	61530.34
535.54	61567.79
535.71	61272.88
535.88	61188.63
536.05	60449.02
536.22	60144.75
536.38	59826.43
536.55	59283.43
536.72	58918.31
536.89	58777.87
537.06	59550.25
537.23	60432.63
537.40	60507.53
537.57	60519.23
537.74	60320.29
537.91	60158.79
538.08	60156.45
538.25	60273.48
538.42	60512.21
538.59	60247.73
538.75	59709.41
538.92	59292.79
539.09	59222.58
539.26	59040.01
539.43	59021.29
539.60	59206.19
539.77	59213.21
539.94	59103.21
540.11	58284.02
540.28	57918.90
540.44	57879.11
540.61	58071.03
540.78	58506.37
540.95	59051.72
541.12	59025.97
541.29	59608.76
541.46	59800.69
541.62	59805.37
541.79	59690.68
541.96	59070.44
542.13	59121.93
542.30	59355.99
542.47	59489.40
542.63	59194.49
542.80	58974.48
542.97	59054.06
543.14	59152.36
543.31	59147.68
543.48	59737.49
543.64	60182.19
543.81	60697.11
543.98	60285.18
544.15	59669.62
544.32	59150.02
544.48	59250.66
544.65	59604.08
544.82	60121.34
544.99	59798.35
545.16	59414.50
545.32	59105.55
545.49	60025.38
545.66	60355.39
545.83	59678.98
546.00	59494.08
546.16	58958.09
546.33	59292.79
546.50	59353.65
546.67	59597.06
546.83	59423.86
547.00	59222.58
547.17	58798.94
547.34	58443.18
547.50	57914.22
547.67	58899.58
547.84	58681.91
548.00	59269.39
548.17	59458.97
548.34	59449.61
548.51	59236.62
548.67	59358.33
548.84	59473.01
549.01	59320.88
549.18	59217.89
549.34	59248.32
549.51	59234.28
549.68	59384.07
549.84	58820.00
550.01	58808.30
550.18	58536.80
550.34	58773.19
550.51	58899.58
550.68	58934.69
550.84	58616.38
551.01	58487.65
551.18	58356.58
551.34	58780.21
551.51	58981.50
551.68	59348.96
551.84	59234.28
552.01	59049.38
552.18	59107.89
552.34	58302.74
552.51	57968.05
552.68	57694.21
552.84	58328.49
553.01	58700.64
553.18	58497.01
553.34	58607.01
553.51	58810.64
553.67	59089.16
553.84	58974.48
554.01	58953.41
554.17	58845.75
554.34	58717.02
554.51	58920.65
554.67	59215.55
554.84	59128.95
555.00	58576.59
555.17	58351.90
555.33	58707.66
555.50	58497.01
555.67	58560.20
555.83	58323.81
556.00	58185.72
556.16	57944.64
556.33	57703.57
556.50	57544.41
556.66	57736.34
556.83	57329.08
556.99	57663.78
557.16	57371.21
557.32	57855.70
557.49	58061.67
557.65	58033.58
557.82	58019.54
557.98	57598.24
558.15	57612.29
558.32	56708.84
558.48	55634.53
558.65	56240.73
558.81	56310.95
558.98	56512.23
559.14	57045.88
559.31	57006.09
559.47	56849.27
559.64	56626.92
559.80	56198.60
559.97	56427.98
560.13	56750.97
560.30	57687.18
560.46	58071.03
560.63	58560.20
560.79	58230.19
560.96	58033.58
561.12	56973.32
561.29	56182.22
561.45	56107.32
561.61	56846.93
561.78	57069.28
561.94	56914.81
562.11	56828.21
562.27	56811.82
562.44	57027.15
562.60	57427.38
562.77	57860.38
562.93	57310.36
563.10	57160.56
563.26	56608.20
563.42	57139.50
563.59	56472.45
563.75	56673.73
563.92	56523.94
564.08	56765.01
564.24	57106.73
564.41	57062.26
564.57	56765.01
564.74	56479.47
564.90	56519.26
565.07	56397.55
565.23	56011.36
565.39	55608.79
565.56	55318.56
565.72	55234.30
565.88	55468.36
566.05	55543.25
566.21	55973.91
566.38	55922.42
566.54	55976.25
566.70	56601.18
566.87	56765.01
567.03	56493.51
567.19	56718.20
567.36	56435.00
567.52	56383.51
567.68	56247.75
567.85	55671.98
568.01	55231.96
568.17	54653.85
568.34	55072.81
568.50	54918.33
568.66	54986.21
568.83	55339.63
568.99	55405.16
569.15	55618.15
569.32	55674.32
569.48	55379.42
569.64	54915.99
569.81	55018.97
569.97	54532.14
570.13	54918.33
570.30	54141.27
570.46	53902.54
570.62	53277.61
570.78	53347.83
570.95	53242.51
571.11	54211.49
571.27	54389.37
571.43	54653.85
571.60	54981.52
571.76	55096.21
571.92	55262.39
572.09	55395.80
572.25	55395.80
572.41	55152.38
572.57	55154.72
572.74	55302.18
572.90	54646.83
573.06	54878.54
573.22	54887.90
573.38	54953.44
573.55	55004.93
573.71	55110.25
573.87	54897.27
574.03	54649.17
574.20	54878.54
574.36	54234.89
574.52	54284.04
574.68	54129.57
574.84	53624.01
575.01	53099.73
575.17	53275.27
575.33	53530.39
575.49	53727.00
575.65	53771.47
575.82	53652.10
575.98	53340.81
576.14	53722.32
576.30	53989.14
576.46	54085.10
576.62	54061.69
576.79	53708.27
576.95	53705.93
577.11	53490.60
577.27	53577.20
577.43	54108.50
577.59	53301.02
577.75	52800.15
577.92	52669.08
578.08	52198.63
578.24	52044.15
578.40	52683.12
578.56	52814.19
578.72	52861.00
578.88	53155.91
579.04	53130.16
579.21	53066.97
579.37	52980.37
579.53	53130.16
579.69	53427.41
579.85	53471.88
580.01	53595.93
580.17	52949.94
580.33	52863.34
580.49	52858.66
580.65	53277.61
580.82	53219.10
580.98	53240.17
581.14	53183.99
581.30	53202.72
581.46	52942.92
581.62	53181.65
581.78	53446.13
581.94	53492.94
582.10	53340.81
582.26	53396.98
582.42	53371.24
582.58	53818.28
582.74	53265.91
582.90	53502.31
583.06	53354.85
583.22	53364.21
583.38	53289.32
583.54	53268.25
583.70	52919.51
583.86	53200.38
584.02	52750.99
584.18	52982.71
584.34	53069.31
584.50	52903.13
584.66	52308.63
584.82	52535.66
584.98	52133.09
585.14	51716.48
585.30	51096.24
