SpectraSuite Data File
++++++++++++++++++++++++++++++++++++
Date: Mon Oct 07 14:54:03 GMT-05:00 2013
User: price-jones
Dark Spectrum Present: No
Reference Spectrum Present: No
Number of Sampled Component Spectra: 1
Spectrometers: USB2+H05261
Integration Time (usec): 100000 (USB2+H05261)
Spectra Averaged: 1 (USB2+H05261)
Boxcar Smoothing: 0 (USB2+H05261)
Correct for Electrical Dark: No (USB2+H05261)
Strobe/Lamp Enabled: No (USB2+H05261)
Correct for Detector Non-linearity: No (USB2+H05261)
Correct for Stray Light: No (USB2+H05261)
Number of Pixels in Processed Spectrum: 2048
>>>>>Begin Processed Spectral Data<<<<<
365.73	0.00
365.92	0.00
366.12	0.00
366.32	0.00
366.52	0.00
366.72	0.00
366.91	0.00
367.11	0.00
367.31	0.00
367.51	0.00
367.70	0.00
367.90	0.00
368.10	0.00
368.30	0.00
368.49	0.00
368.69	0.00
368.89	0.00
369.09	0.00
369.28	0.00
369.48	0.00
369.68	0.00
369.87	0.00
370.07	0.00
370.27	0.00
370.47	697.48
370.66	3398.46
370.86	3997.64
371.06	4259.78
371.25	4322.97
371.45	3936.78
371.65	3646.55
371.84	3473.36
372.04	3503.78
372.24	4018.70
372.44	4081.89
372.63	4044.45
372.83	3784.65
373.03	3353.99
373.22	3103.55
373.42	3077.80
373.62	3681.66
373.81	3964.87
374.01	4100.62
374.21	3712.09
374.40	3353.99
374.60	3459.31
374.79	3885.29
374.99	4571.07
375.19	5015.77
375.38	4997.04
375.58	4718.52
375.78	4641.28
375.97	4585.11
376.17	4751.29
376.37	4615.54
376.56	5036.83
376.76	5277.91
376.95	5551.75
377.15	5886.45
377.35	6181.35
377.54	6448.18
377.74	6700.95
377.93	6600.31
378.13	6651.80
378.33	6101.78
378.52	5762.40
378.72	5364.51
378.91	5350.46
379.11	5252.16
379.31	4936.19
379.50	4973.64
379.70	5493.24
379.89	5980.07
380.09	6256.25
380.28	6546.48
380.48	6293.70
380.68	6270.30
380.87	6235.19
381.07	5682.82
381.26	5355.15
381.46	4805.12
381.65	4798.10
381.85	4723.20
382.04	4454.04
382.24	4149.77
382.43	3976.57
382.63	3918.06
382.83	3974.23
383.02	3850.18
383.22	3920.40
383.41	4007.00
383.61	4271.48
383.80	4767.67
384.00	5432.38
384.19	6150.93
384.39	6291.36
384.58	6291.36
384.78	6246.89
384.97	6176.67
385.17	5877.09
385.36	5579.84
385.56	5423.02
385.75	5460.47
385.95	6160.29
386.14	6604.99
386.34	6682.23
386.53	6429.45
386.72	5818.57
386.92	5982.41
387.11	6230.51
387.31	6581.59
387.50	6672.87
387.70	6296.04
387.89	6235.19
388.09	6228.17
388.28	6139.23
388.48	6225.82
388.67	6787.55
388.86	7438.22
389.06	8140.38
389.25	8493.80
389.45	8655.30
389.64	8519.55
389.84	8430.61
390.03	8198.90
390.22	8276.13
390.42	8437.63
390.61	9053.19
390.81	9619.60
391.00	9975.36
391.19	9947.28
391.39	9486.19
391.58	8884.67
391.78	8449.33
391.97	8006.97
392.16	7679.30
392.36	6930.33
392.55	5577.50
392.75	4489.15
392.94	3609.11
393.13	3590.38
393.33	4262.12
393.52	5427.70
393.71	6621.38
393.91	7485.03
394.10	8088.89
394.29	8917.44
394.49	9631.30
394.68	10289.00
394.88	10223.46
395.07	10665.82
395.26	10586.24
395.46	10085.37
395.65	9715.56
395.84	8617.85
396.04	7258.00
396.23	5753.04
396.42	4999.38
396.62	4561.70
396.81	5298.97
397.00	7005.22
397.19	8655.30
397.39	10368.57
397.58	11538.84
397.77	12596.76
397.97	12891.67
398.16	12901.03
398.35	13540.00
398.55	13687.45
398.74	14417.70
398.93	14740.69
399.12	14424.72
399.32	13963.64
399.51	14125.13
399.70	15367.96
399.90	14937.30
400.09	15169.01
400.28	15014.54
400.47	15091.77
400.67	15817.34
400.86	16163.74
401.05	16182.46
401.24	16350.98
401.44	16493.76
401.63	16601.42
401.82	16606.10
402.01	16552.27
402.21	17013.35
402.40	16809.73
402.59	16350.98
402.78	15655.84
402.97	15089.43
403.17	15552.86
403.36	16772.28
403.55	17149.11
403.74	17738.92
403.93	16842.50
404.13	15726.06
404.32	14963.04
404.51	15840.75
404.70	17282.52
404.89	17055.48
405.09	17015.69
405.28	16336.94
405.47	16594.40
405.66	16294.81
405.85	15934.37
406.05	15620.74
406.24	15564.56
406.43	16311.19
406.62	17090.59
406.81	16861.22
407.00	16166.08
407.20	16058.42
407.39	16355.66
407.58	16849.52
407.77	17586.79
407.96	18263.20
408.15	18256.18
408.34	18356.82
408.54	19344.53
408.73	19138.56
408.92	18944.30
409.11	18609.60
409.30	17621.89
409.49	16659.93
409.68	15393.70
409.87	14850.70
410.07	15557.54
410.26	17195.92
410.45	18427.04
410.64	18628.32
410.83	19213.46
411.02	19873.49
411.21	20538.20
411.40	20208.19
411.59	20004.56
411.78	20238.61
411.98	19819.66
412.17	20367.34
412.36	20016.26
412.55	20208.19
412.74	19470.92
412.93	19311.76
413.12	19262.61
413.31	20982.90
413.50	21132.70
413.69	21483.78
413.88	20982.90
414.07	20070.09
414.26	20652.89
414.45	21240.36
414.64	20968.86
414.83	21418.24
415.02	20695.02
415.22	20835.45
415.41	21518.89
415.60	21869.97
415.79	23510.68
415.98	23620.69
416.17	23377.27
416.36	22740.64
416.55	22527.66
416.74	21827.84
416.93	21240.36
417.12	21245.04
417.31	20989.92
417.50	21640.59
417.69	22450.42
417.88	22204.66
418.07	22214.02
418.26	21968.27
418.45	21736.56
418.64	22752.35
418.83	23379.61
419.02	23302.37
419.21	23040.23
419.39	21954.22
419.58	21275.47
419.77	20989.92
419.96	22061.89
420.15	23171.30
420.34	23861.76
420.53	24528.81
420.72	24975.86
420.91	24823.72
421.10	24552.22
421.29	24503.07
421.48	23583.24
421.67	24659.88
421.86	24233.91
422.05	22565.10
422.24	20201.16
422.43	19578.58
422.61	22008.06
422.80	23908.57
422.99	23803.25
423.18	23028.53
423.37	22635.32
423.56	22405.95
423.75	22764.05
423.94	23180.67
424.13	22183.60
424.32	22309.99
424.50	22551.06
424.69	22101.68
424.88	22249.13
425.07	22087.64
425.26	22015.08
425.45	22064.23
425.64	21493.14
425.83	21317.60
426.01	22513.61
426.20	23126.83
426.39	22857.67
426.58	21364.41
426.77	19585.60
426.96	19344.53
427.15	19836.04
427.33	21448.67
427.52	21972.95
427.71	22754.69
427.90	22017.42
428.09	21979.97
428.28	21308.24
428.46	20592.03
428.65	20308.83
428.84	20844.81
429.03	21144.40
429.22	19845.40
429.40	19192.39
429.59	17387.84
429.78	15241.57
429.97	15482.64
430.16	15480.30
430.34	15857.13
430.53	15566.90
430.72	15866.49
430.91	17439.33
431.10	20411.81
431.28	24327.53
431.47	26466.78
431.66	26373.16
431.85	24601.37
432.03	22345.09
432.22	21205.25
432.41	22106.36
432.60	24966.49
432.79	25497.80
432.97	26328.69
433.16	25851.22
433.35	23506.00
433.54	20971.20
433.72	19578.58
433.91	20250.32
434.10	22551.06
434.28	24269.01
434.47	25699.08
434.66	25188.85
434.85	24210.50
435.03	24315.83
435.22	25331.62
435.41	26382.52
435.59	26380.18
435.78	26834.24
435.97	27665.13
436.16	27440.44
436.34	27585.55
436.53	26803.82
436.72	26665.72
436.90	25411.20
437.09	25568.01
437.28	24629.46
437.46	25516.52
437.65	25898.03
437.84	23955.38
438.02	22024.44
438.21	21940.18
438.40	23063.64
438.58	25130.33
438.77	25649.93
438.96	25785.68
439.14	26909.14
439.33	27592.58
439.52	28070.04
439.70	27608.96
439.89	26593.17
440.08	26061.87
440.26	25727.17
440.45	27000.42
440.63	28489.00
440.82	30235.04
441.01	29457.98
441.19	29701.40
441.38	29626.50
441.57	31063.59
441.75	31440.42
441.94	31644.04
442.12	31424.03
442.31	32023.21
442.50	31718.94
442.68	31288.28
442.87	31197.00
443.05	30321.64
443.24	31122.10
443.43	31370.20
443.61	32488.98
443.80	32650.47
443.98	30703.15
444.17	31246.15
444.35	32259.60
444.54	33057.73
444.73	32657.49
444.91	31241.47
445.10	30361.43
445.28	28676.24
445.47	28451.55
445.65	28725.39
445.84	29507.13
446.02	30291.21
446.21	30761.66
446.39	31077.63
446.58	31227.43
446.77	32119.17
446.95	32116.83
447.14	33680.31
447.32	33692.01
447.51	33151.35
447.69	31470.84
447.88	31461.48
448.06	31452.12
448.25	32055.98
448.43	32271.31
448.62	31821.92
448.80	31452.12
448.99	31491.91
449.17	32278.33
449.36	32514.72
449.54	33631.16
449.73	33916.70
449.91	34242.04
450.10	35395.92
450.28	35819.56
450.46	35452.09
450.65	35416.99
450.83	35292.94
451.02	34352.04
451.20	34080.54
451.39	33893.30
451.57	33652.22
451.76	34286.51
451.94	34022.03
452.13	33050.70
452.31	32053.64
452.49	30246.74
452.68	30092.27
452.86	31115.08
453.05	30745.28
453.23	31840.65
453.42	32776.86
453.60	33574.98
453.78	34108.63
453.97	33441.57
454.15	33273.06
454.34	32554.51
454.52	32957.08
454.70	32048.96
454.89	32627.07
455.07	32952.40
455.26	33469.66
455.44	34450.35
455.62	35075.27
455.81	35119.74
455.99	35000.37
456.17	34602.48
456.36	34670.36
456.54	35583.16
456.73	35323.36
456.91	36580.23
457.09	36655.13
457.28	36783.86
457.46	35828.92
457.64	35054.20
457.83	34253.74
458.01	33488.38
458.19	34239.70
458.38	34845.90
458.56	35459.12
458.74	35454.44
458.93	34955.90
459.11	34646.95
459.29	34424.60
459.48	34593.12
459.66	34604.82
459.84	34918.45
460.03	35676.79
460.21	35580.82
460.39	36130.85
460.57	35910.84
460.76	36533.42
460.94	36900.89
461.12	36247.88
461.31	36292.35
461.49	36580.23
461.67	36172.98
461.85	37567.94
462.04	37181.75
462.22	37020.25
462.40	36837.69
462.59	36718.32
462.77	36800.24
462.95	37277.71
463.13	36680.88
463.32	36257.24
463.50	36023.19
463.68	35931.90
463.86	36140.21
464.05	35901.48
464.23	34635.25
464.41	34513.54
464.59	33886.28
464.78	35536.35
464.96	35566.78
465.14	35337.41
465.32	36231.49
465.50	37322.18
465.69	36914.93
465.87	36734.71
466.05	35828.92
466.23	34403.53
466.41	33516.47
466.60	34660.99
466.78	34286.51
466.96	34946.54
467.14	35082.29
467.32	36018.50
467.51	36287.67
467.69	34349.70
467.87	35185.27
468.05	35519.97
468.23	35796.15
468.41	35821.90
468.60	35618.27
468.78	35999.78
468.96	35548.06
469.14	36425.76
469.32	36357.88
469.50	35239.11
469.69	34934.84
469.87	34546.31
470.05	34553.33
470.23	34639.93
470.41	34611.84
470.59	35173.57
470.77	35225.06
470.95	35702.53
471.14	36418.74
471.32	36294.69
471.50	38326.27
471.68	38319.25
471.86	38780.34
472.04	39068.22
472.22	39346.75
472.40	36875.14
472.58	36418.74
472.77	36177.66
472.95	37242.60
473.13	37792.63
473.31	37167.71
473.49	37537.51
473.67	37350.27
473.85	38494.79
474.03	39524.63
474.21	39154.82
474.39	39821.87
474.57	39667.40
474.75	39990.39
474.93	39601.86
475.12	38841.19
475.30	38733.53
475.48	38586.07
475.66	39283.55
475.84	39402.92
476.02	38384.79
476.20	38401.17
476.38	38817.78
476.56	39910.82
476.74	40659.79
476.92	40517.01
477.10	41443.87
477.28	42473.70
477.46	42368.38
477.64	42564.98
477.82	42939.47
478.00	42845.85
478.18	42263.05
478.36	42431.57
478.54	42347.31
478.72	42780.31
478.90	43702.48
479.08	44594.23
479.26	45113.83
479.44	44896.16
479.62	44533.37
479.80	44811.90
479.98	44933.60
480.16	45509.38
480.34	44598.91
480.52	45188.72
480.70	45294.05
480.88	45577.25
481.06	45928.33
481.24	46223.24
481.41	47334.99
481.59	47852.25
481.77	47529.26
481.95	47112.64
482.13	46841.14
482.31	47072.85
482.49	47683.73
482.67	47515.22
482.85	47648.63
483.03	48123.75
483.21	48697.19
483.39	48320.36
483.57	48069.92
483.74	47807.78
483.92	47428.62
484.10	48172.91
484.28	49287.00
484.46	49146.57
484.64	49682.55
484.82	48767.40
485.00	48254.82
485.18	47665.01
485.35	46735.82
485.53	43281.19
485.71	39608.89
485.89	38628.20
486.07	40926.61
486.25	44512.31
486.43	46707.73
486.61	47405.21
486.78	47262.44
486.96	47430.96
487.14	49090.40
487.32	49876.82
487.50	50831.75
487.68	51580.73
487.85	52086.28
488.03	52088.62
488.21	52137.77
488.39	51021.34
488.57	50609.40
488.75	49837.03
488.92	50986.23
489.10	53303.36
489.28	54543.84
489.46	55028.34
489.64	54684.28
489.81	54908.97
489.99	54651.51
490.17	54604.70
490.35	54990.89
490.53	54649.17
490.70	54134.25
490.88	54178.72
491.06	54906.63
491.24	54981.52
491.41	54209.15
491.59	52538.01
491.77	51255.39
491.95	52832.91
492.13	54092.12
492.30	54738.11
492.48	55934.12
492.66	56355.42
492.84	56491.17
493.01	56109.66
493.19	55559.64
493.37	55356.01
493.54	54962.80
493.72	55538.57
493.90	56652.67
494.08	57394.62
494.25	57502.28
494.43	57668.46
494.61	57982.09
494.79	58094.44
494.96	57954.00
495.14	57373.55
495.32	56413.93
495.49	55777.31
495.67	56692.46
495.85	58038.26
496.02	58546.16
496.20	58314.45
496.38	57691.86
496.55	57755.06
496.73	58117.84
496.91	58286.36
497.09	59068.10
497.26	59243.64
497.44	58548.50
497.62	57956.35
497.79	57258.87
497.97	56170.52
498.14	56193.92
498.32	57303.34
498.50	58277.00
498.67	58705.32
498.85	58557.86
499.03	58604.67
499.20	59103.21
499.38	58878.52
499.56	58733.40
499.73	58209.12
499.91	58033.58
500.08	57588.88
500.26	56823.53
500.44	57141.84
500.61	57968.05
500.79	57731.65
500.97	57415.68
501.14	57111.41
501.32	57116.09
501.49	57148.86
501.67	57436.75
501.84	57708.25
502.02	57923.58
502.20	58375.30
502.37	58347.21
502.55	58576.59
502.72	58969.80
502.90	59487.06
503.07	59093.85
503.25	58831.71
503.43	58003.16
503.60	57373.55
503.78	56786.08
503.95	57095.03
504.13	58220.83
504.30	59414.50
504.48	59231.94
504.65	58775.53
504.83	58794.26
505.01	59475.35
505.18	59501.10
505.36	60111.98
505.53	60229.01
505.71	60406.89
505.88	60477.10
506.06	59990.27
506.23	59524.50
506.41	59309.18
506.58	59571.32
506.76	59482.37
506.93	59442.59
507.11	59128.95
507.28	59480.03
507.46	58817.66
507.63	58461.90
507.81	58319.13
507.98	58445.52
508.16	59154.70
508.33	59559.61
508.50	59753.88
508.68	60233.69
508.85	60584.77
509.03	60399.86
509.20	60355.39
509.38	59697.70
509.55	58937.03
509.73	59082.14
509.90	59641.53
510.08	59964.52
510.25	59618.13
510.42	59580.68
510.60	59400.46
510.77	59695.36
510.95	60444.33
511.12	60444.33
511.30	60715.84
511.47	60963.93
511.64	60882.02
511.82	60577.75
511.99	59730.47
512.17	59274.07
512.34	58864.47
512.51	59309.18
512.69	59140.66
512.86	59557.27
513.04	59903.67
513.21	59924.74
513.38	59564.29
513.56	59025.97
513.73	58513.39
513.90	58817.66
514.08	58829.37
514.25	59063.42
514.43	59227.26
514.60	59061.08
514.77	59592.38
514.95	59604.08
515.12	59388.75
515.29	59573.66
515.47	60147.09
515.64	60341.35
515.81	59955.16
515.99	59304.49
516.16	58174.02
516.33	55735.18
516.51	54316.81
516.68	53570.18
516.85	53123.14
517.03	53783.17
517.20	56191.58
517.37	58471.26
517.54	59660.26
517.72	58993.20
517.89	56706.50
518.06	54433.84
518.24	54803.64
518.41	56767.35
518.58	57911.88
518.75	58239.55
518.93	58492.33
519.10	58291.04
519.27	58726.38
519.45	58981.50
519.62	59552.59
519.79	59868.56
519.96	59882.61
520.14	59391.09
520.31	58562.54
520.48	58658.51
520.65	58906.60
520.83	59643.87
521.00	60214.96
521.17	59994.95
521.34	59571.32
521.52	59828.77
521.69	60339.01
521.86	60692.43
522.03	60250.07
522.20	59222.58
522.38	58017.20
522.55	58188.06
522.72	58653.82
522.89	58972.14
523.07	58990.86
523.24	59634.51
523.41	60095.60
523.58	60390.50
523.75	60900.74
523.92	60699.45
524.10	60643.28
524.27	60776.69
524.44	60444.33
524.61	60331.99
524.78	60205.60
524.96	60039.42
525.13	59945.80
525.30	60280.50
525.47	60811.80
525.64	60669.03
525.81	59952.82
525.98	58590.63
526.16	57429.72
526.33	56603.52
526.50	56336.69
526.67	55941.14
526.84	56388.19
527.01	57331.42
527.18	58262.96
527.36	59112.57
527.53	59788.98
527.70	60135.38
527.87	59667.28
528.04	59178.10
528.21	59620.47
528.38	60240.71
528.55	60879.67
528.72	60987.34
528.89	61188.63
529.07	60968.61
529.24	60369.44
529.41	59742.17
529.58	59180.45
529.75	59222.58
529.92	59847.50
530.09	60107.30
530.26	60523.91
530.43	60846.91
530.60	60659.66
530.77	61064.58
530.94	61158.20
531.11	60626.90
531.28	60399.86
531.46	60233.69
531.63	60203.26
531.80	60165.81
531.97	59700.04
532.14	58892.56
532.31	58134.23
532.48	57453.13
532.65	57312.70
532.82	58349.56
532.99	59487.06
533.16	59662.60
533.33	60172.83
533.50	60088.57
533.67	59426.20
533.84	59058.74
534.01	59351.30
534.18	59550.25
534.35	59774.94
534.52	59547.91
534.69	59594.72
534.86	59962.18
535.03	60257.09
535.20	60877.33
535.37	61146.50
535.54	61113.73
535.71	60715.84
535.88	60470.08
536.05	59807.71
536.22	59379.39
536.38	59224.92
536.55	58557.86
536.72	58274.66
536.89	57921.24
537.06	58958.09
537.23	59838.14
537.40	59826.43
537.57	59934.10
537.74	59693.02
537.91	59608.76
538.08	59475.35
538.25	59604.08
538.42	59980.91
538.59	59840.48
538.75	58981.50
538.92	58890.22
539.09	58745.11
539.26	58698.30
539.43	58340.19
539.60	58546.16
539.77	58578.93
539.94	58644.46
540.11	57771.44
540.28	57066.94
540.44	57396.96
540.61	57373.55
540.78	57808.89
540.95	58000.82
541.12	58372.96
541.29	58674.89
541.46	58983.84
541.62	59117.25
541.79	58906.60
541.96	58286.36
542.13	58379.98
542.30	58784.90
542.47	58731.06
542.63	58478.28
542.80	58269.98
542.97	58342.53
543.14	58089.76
543.31	58274.66
543.48	58990.86
543.64	59667.28
543.81	59931.76
543.98	59788.98
544.15	59037.67
544.32	58403.39
544.48	58475.94
544.65	58981.50
544.82	59311.52
544.99	59051.72
545.16	58539.14
545.32	58532.12
545.49	59056.40
545.66	59604.08
545.83	59138.32
546.00	58707.66
546.16	58464.24
546.33	58763.83
546.50	58571.91
546.67	58965.12
546.83	58534.46
547.00	58581.27
547.17	57958.69
547.34	57537.39
547.50	57521.01
547.67	58047.63
547.84	57996.13
548.00	58354.24
548.17	58756.81
548.34	58529.78
548.51	58595.31
548.67	58389.34
548.84	58674.89
549.01	58604.67
549.18	58482.97
549.34	58391.68
549.51	58269.98
549.68	58497.01
549.84	58174.02
550.01	57918.90
550.18	58073.37
550.34	57942.30
550.51	58024.22
550.68	58183.38
550.84	57738.68
551.01	57745.70
551.18	57710.59
551.34	58017.20
551.51	58042.95
551.68	58492.33
551.84	58527.44
552.01	58262.96
552.18	58253.59
552.34	57291.63
552.51	57130.14
552.68	57024.81
552.84	57523.35
553.01	57790.17
553.18	57560.79
553.34	57759.74
553.51	57956.35
553.67	57918.90
553.84	58134.23
554.01	57867.40
554.17	57794.85
554.34	57977.41
554.51	57963.37
554.67	58454.88
554.84	58209.12
555.00	57844.00
555.17	57420.36
555.33	57806.55
555.50	57890.81
555.67	57724.63
555.83	57516.32
556.00	57345.47
556.16	57322.06
556.33	57048.22
556.50	56715.86
556.66	56760.33
556.83	56367.12
556.99	56320.31
557.16	56732.25
557.32	57099.71
557.49	57127.80
557.65	57141.84
557.82	56919.49
557.98	56797.78
558.15	56596.49
558.32	55817.10
558.48	54915.99
558.65	55110.25
558.81	55409.84
558.98	55686.03
559.14	55927.10
559.31	55959.87
559.47	55723.47
559.64	55529.21
559.80	55510.49
559.97	55327.92
560.13	55812.41
560.30	56708.84
560.46	57244.82
560.63	57366.53
560.79	57315.04
560.96	56956.94
561.12	56062.85
561.29	54958.12
561.45	55166.43
561.61	55561.98
561.78	55987.95
561.94	55999.66
562.11	55739.86
562.27	55889.65
562.44	56156.47
562.60	56156.47
562.77	56467.76
562.93	56348.40
563.10	56292.22
563.26	55842.84
563.42	55714.11
563.59	55650.92
563.75	55641.56
563.92	55428.57
564.08	55634.53
564.24	55760.92
564.41	56034.77
564.57	55870.93
564.74	55533.89
564.90	55458.99
565.07	55295.16
565.23	55124.30
565.39	54590.66
565.56	54337.88
565.72	53710.61
565.88	54305.11
566.05	54440.86
566.21	54632.78
566.38	54677.25
566.54	54850.45
566.70	55309.20
566.87	55662.62
567.03	55327.92
567.19	55945.83
567.36	55330.26
567.52	55243.66
567.68	55044.72
567.85	54415.11
568.01	53944.67
568.17	53619.33
568.34	53705.93
568.50	53769.13
568.66	53750.40
568.83	53944.67
568.99	54005.52
569.15	54354.26
569.32	54307.45
569.48	53881.47
569.64	53792.53
569.81	53818.28
569.97	53542.10
570.13	53462.52
570.30	52985.05
570.46	52215.01
570.62	51945.85
570.78	52093.30
570.95	52353.10
571.11	52774.40
571.27	52980.37
571.43	53214.42
571.60	53450.81
571.76	53794.87
571.92	54190.42
572.09	54192.76
572.25	54155.32
572.41	54312.13
572.57	53799.55
572.74	54192.76
572.90	53574.86
573.06	53251.87
573.22	53652.10
573.38	53659.12
573.55	53642.74
573.71	53680.19
573.87	53663.80
574.03	53326.77
574.20	53488.26
574.36	53015.47
574.52	52626.95
574.68	52519.28
574.84	52430.34
575.01	51791.37
575.17	51936.49
575.33	52226.71
575.49	52399.91
575.65	52479.49
575.82	52032.45
575.98	52058.20
576.14	52275.87
576.30	52640.99
576.46	52788.44
576.62	52659.71
576.79	52615.24
576.95	52287.57
577.11	52163.52
577.27	52172.88
577.43	52264.16
577.59	51840.53
577.75	51770.31
577.92	51276.46
578.08	50731.11
578.24	50651.53
578.40	50955.80
578.56	51433.27
578.72	51466.04
578.88	51679.03
579.04	51599.45
579.21	51880.31
579.37	51896.70
579.53	52161.18
579.69	52088.62
579.85	52170.54
580.01	51697.75
580.17	51173.47
580.33	51267.09
580.49	51929.47
580.65	51573.70
580.82	51833.50
580.98	51964.57
581.14	51796.06
581.30	51578.39
581.46	51370.08
581.62	51985.64
581.78	52083.94
581.94	51952.87
582.10	51711.80
582.26	51936.49
582.42	51845.21
582.58	51861.59
582.74	51791.37
582.90	51877.97
583.06	51585.41
583.22	51681.37
583.38	51508.17
583.54	51735.20
583.70	51299.86
583.86	51569.02
584.02	51154.75
584.18	51545.62
584.34	51657.96
584.50	51089.21
584.66	51267.09
584.82	51042.40
584.98	50705.37
585.14	50131.93
