SpectraSuite Data File
++++++++++++++++++++++++++++++++++++
Date: Mon Oct 07 14:53:32 GMT-05:00 2013
User: price-jones
Dark Spectrum Present: No
Reference Spectrum Present: No
Number of Sampled Component Spectra: 1
Spectrometers: USB2+H05261
Integration Time (usec): 100000 (USB2+H05261)
Spectra Averaged: 1 (USB2+H05261)
Boxcar Smoothing: 0 (USB2+H05261)
Correct for Electrical Dark: No (USB2+H05261)
Strobe/Lamp Enabled: No (USB2+H05261)
Correct for Detector Non-linearity: No (USB2+H05261)
Correct for Stray Light: No (USB2+H05261)
Number of Pixels in Processed Spectrum: 2048
>>>>>Begin Processed Spectral Data<<<<<
365.73	0.00
365.92	0.00
366.12	0.00
366.32	0.00
366.52	0.00
366.72	0.00
366.91	0.00
367.11	0.00
367.31	0.00
367.51	0.00
367.70	0.00
367.90	0.00
368.10	0.00
368.30	0.00
368.49	0.00
368.69	0.00
368.89	0.00
369.09	0.00
369.28	0.00
369.48	0.00
369.68	0.00
369.87	0.00
370.07	0.00
370.27	0.00
370.47	617.90
370.66	3438.25
370.86	3913.38
371.06	4187.22
371.25	4381.48
371.45	3906.35
371.65	3616.13
371.84	3194.83
372.04	3492.08
372.24	4011.68
372.44	4046.79
372.63	4004.66
372.83	3798.69
373.03	3489.74
373.22	2918.65
373.42	3169.09
373.62	3548.25
373.81	4044.45
374.01	4084.23
374.21	3653.58
374.40	3302.50
374.60	3513.14
374.79	3953.16
374.99	4601.49
375.19	4882.36
375.38	4917.47
375.58	4737.24
375.78	4650.64
375.97	4741.93
376.17	4891.72
376.37	4695.11
376.56	4929.17
376.76	5214.71
376.95	5448.77
377.15	5905.17
377.35	6162.63
377.54	6546.48
377.74	6516.05
377.93	6572.22
378.13	6415.41
378.33	6179.01
378.52	5743.67
378.72	5345.78
378.91	5277.91
379.11	5153.86
379.31	5001.72
379.50	5004.07
379.70	5313.02
379.89	6059.65
380.09	6174.33
380.28	6537.12
380.48	6644.78
380.68	6188.38
380.87	6104.12
381.07	5734.31
381.26	5231.10
381.46	4966.62
381.65	4805.12
381.85	4762.99
382.04	4489.15
382.24	4037.42
382.43	4133.39
382.63	3850.18
382.83	3990.61
383.02	3943.80
383.22	3894.65
383.41	4011.68
383.61	4341.69
383.80	4695.11
384.00	5371.53
384.19	6097.10
384.39	6408.39
384.58	6478.60
384.78	6396.68
384.97	6291.36
385.17	5818.57
385.36	5514.30
385.56	5469.83
385.75	5556.43
385.95	6115.82
386.14	6661.16
386.34	6630.74
386.53	6352.21
386.72	6040.92
386.92	5884.11
387.11	6237.53
387.31	6668.19
387.50	6518.39
387.70	6155.61
387.89	6342.85
388.09	6260.93
388.28	6171.99
388.48	6436.47
388.67	7026.29
388.86	7449.93
389.06	7981.23
389.25	8603.81
389.45	8463.38
389.64	8423.59
389.84	8388.48
390.03	8400.18
390.22	8458.70
390.42	8624.87
390.61	9069.58
390.81	9699.18
391.00	10029.20
391.19	9858.34
391.39	9741.31
391.58	8863.61
391.78	8475.08
391.97	8182.51
392.16	7550.57
392.36	6970.12
392.55	5628.99
392.75	4568.73
392.94	3700.39
393.13	3730.81
393.33	4304.25
393.52	5579.84
393.71	6485.62
393.91	7590.36
394.10	8271.45
394.29	8940.85
394.49	9743.65
394.68	10284.31
394.88	10438.79
395.07	10869.45
395.26	10759.44
395.46	10574.54
395.65	10024.51
395.84	8727.86
396.04	7382.05
396.23	5944.96
396.42	4952.57
396.62	4819.16
396.81	5341.10
397.00	6958.41
397.19	9008.72
397.39	10640.08
397.58	11796.30
397.77	12599.10
397.97	13177.22
398.16	13294.24
398.35	13650.00
398.55	13954.27
398.74	14586.22
398.93	14867.08
399.12	14429.40
399.32	13996.40
399.51	14342.80
399.70	15597.33
399.90	15248.59
400.09	15480.30
400.28	15431.15
400.47	15396.04
400.67	16039.69
400.86	16477.37
401.05	16294.81
401.24	16755.90
401.44	16783.98
401.63	16856.54
401.82	16814.41
402.01	16819.09
402.21	17247.41
402.40	17226.34
402.59	16727.81
402.78	15845.43
402.97	15449.88
403.17	15971.82
403.36	17067.19
403.55	17605.51
403.74	18033.83
403.93	17296.56
404.13	16116.93
404.32	15733.08
404.51	16421.20
404.70	17706.15
404.89	17738.92
405.09	17165.49
405.28	16608.44
405.47	16554.61
405.66	16720.79
405.85	16360.34
406.05	15871.17
406.24	16215.23
406.43	16987.61
406.62	17102.29
406.81	17689.77
407.00	16559.29
407.20	16435.24
407.39	16613.12
407.58	17202.94
407.77	17944.89
407.96	18633.00
408.15	18853.02
408.34	18588.53
408.54	19772.85
408.73	19728.38
408.92	19463.90
409.11	19070.68
409.30	18310.01
409.49	17280.18
409.68	16037.35
409.87	15454.56
410.07	16561.63
410.26	17891.06
410.45	18911.53
410.64	19456.87
410.83	19761.14
411.02	20135.63
411.21	20753.53
411.40	20755.87
411.59	21081.21
411.78	20589.69
411.98	20425.86
412.17	21064.82
412.36	20641.18
412.55	20568.63
412.74	20128.61
412.93	19616.03
413.12	19981.15
413.31	21862.94
413.50	21961.25
413.69	22284.24
413.88	21741.24
414.07	20592.03
414.26	20650.55
414.45	22094.66
414.64	22066.57
414.83	21687.40
415.02	21834.86
415.22	21610.17
415.41	22160.19
415.60	22525.32
415.79	23311.74
415.98	24166.03
416.17	24287.74
416.36	23566.85
416.55	23386.63
416.74	22583.83
416.93	21532.93
417.12	21759.96
417.31	21879.33
417.50	22431.69
417.69	23112.79
417.88	23073.00
418.07	22476.16
418.26	22595.53
418.45	22665.75
418.64	23693.24
418.83	24453.92
419.02	24308.80
419.21	24116.88
419.39	22771.07
419.58	21734.21
419.77	21830.18
419.96	22513.61
420.15	23910.91
420.34	24594.35
420.53	25242.68
420.72	26092.29
420.91	25930.80
421.10	25406.52
421.29	25401.83
421.48	24154.33
421.67	25582.06
421.86	24690.31
422.05	23344.50
422.24	20959.50
422.43	20819.07
422.61	22665.75
422.80	24907.98
422.99	24594.35
423.18	23836.02
423.37	23396.00
423.56	23241.52
423.75	23679.20
423.94	24432.85
424.13	22991.08
424.32	23098.75
424.50	23243.86
424.69	23171.30
424.88	22871.72
425.07	22841.29
425.26	22871.72
425.45	23213.43
425.64	22361.48
425.83	22298.28
426.01	23688.56
426.20	23997.51
426.39	24203.48
426.58	22293.60
426.77	21149.08
426.96	19616.03
427.15	20790.98
427.33	22204.66
427.52	23253.22
427.71	23412.38
427.90	23063.64
428.09	22904.48
428.28	22607.23
428.46	21607.83
428.65	21399.52
428.84	21652.30
429.03	22286.58
429.22	21039.08
429.40	20177.76
429.59	18012.76
429.78	15946.07
429.97	16180.12
430.16	16318.22
430.34	16388.43
430.53	16121.61
430.72	16697.38
430.91	18169.58
431.10	21495.48
431.28	25268.42
431.47	27498.95
431.66	28203.46
431.85	25392.47
432.03	23461.53
432.22	22342.75
432.41	23412.38
432.60	25858.24
432.79	27019.14
432.97	27168.94
433.16	26394.22
433.35	24364.98
433.54	22256.15
433.72	20528.84
433.91	21039.08
434.10	24051.34
434.28	25479.07
434.47	27087.02
434.66	26658.70
434.85	25958.88
435.03	25476.73
435.22	26452.73
435.41	28292.40
435.59	27828.97
435.78	28315.80
435.97	29301.17
436.16	29572.67
436.34	28856.46
436.53	28484.32
436.72	28411.76
436.90	26546.36
437.09	26855.31
437.28	26015.05
437.46	26771.05
437.65	27009.78
437.84	25209.91
438.02	23136.20
438.21	23035.55
438.40	24105.18
438.58	26324.01
438.77	26817.86
438.96	27072.98
439.14	28348.57
439.33	29127.97
439.52	29827.79
439.70	28804.97
439.89	28177.71
440.08	27098.72
440.26	27133.83
440.45	28474.96
440.63	29841.83
440.82	31943.63
441.01	31288.28
441.19	30932.52
441.38	31084.65
441.57	32320.46
441.75	33039.00
441.94	33413.49
442.12	32671.54
442.31	33551.58
442.50	33680.31
442.68	33214.54
442.87	32788.56
443.05	32187.05
443.24	33015.60
443.43	33240.29
443.61	34101.61
443.80	34660.99
443.98	32299.39
444.17	32463.23
444.35	34581.42
444.54	35129.10
444.73	34604.82
444.91	33394.76
445.10	31875.76
445.28	30293.55
445.47	30031.41
445.65	30183.55
445.84	30951.24
446.02	31819.58
446.21	32526.42
446.39	33043.68
446.58	33373.70
446.77	33771.59
446.95	33888.62
447.14	35166.55
447.32	35309.32
447.51	34785.04
447.69	33130.28
447.88	32959.42
448.06	33242.63
448.25	34286.51
448.43	34572.05
448.62	33813.72
448.80	33769.25
448.99	34054.79
449.17	34326.30
449.36	34448.00
449.54	35711.89
449.73	35910.84
449.91	36224.47
450.10	37064.72
450.28	37956.47
450.46	37296.44
450.65	37139.62
450.83	37551.56
451.02	36290.01
451.20	36409.37
451.39	36306.39
451.57	36025.53
451.76	36343.84
451.94	36311.07
452.13	35082.29
452.31	33717.76
452.49	31920.23
452.68	32348.54
452.86	32706.65
453.05	33170.07
453.23	34314.59
453.42	34810.79
453.60	35428.69
453.78	35821.90
453.97	35456.78
454.15	35262.51
454.34	35204.00
454.52	35309.32
454.70	34043.09
454.89	34494.82
455.07	34595.46
455.26	35220.38
455.44	36620.02
455.62	37244.94
455.81	37593.68
455.99	37474.32
456.17	36643.43
456.36	37029.62
456.54	37626.45
456.73	38026.68
456.91	38345.00
457.09	38808.42
457.28	39264.83
457.46	37883.91
457.64	37364.31
457.83	36594.28
458.01	35800.83
458.19	36561.51
458.38	36374.27
458.56	37827.74
458.74	37717.73
458.93	37099.83
459.11	37083.45
459.29	36416.40
459.48	37020.25
459.66	36638.75
459.84	37432.19
460.03	38066.47
460.21	37607.73
460.39	38546.28
460.57	38766.29
460.76	39058.86
460.94	39828.90
461.12	38457.34
461.31	38642.24
461.49	38822.47
461.67	38382.45
461.85	40074.65
462.04	39686.12
462.22	39847.62
462.40	39732.93
462.59	39262.49
462.77	39786.77
462.95	39765.70
463.13	39082.27
463.32	38735.87
463.50	38752.25
463.68	38375.42
463.86	38953.54
464.05	38501.81
464.23	37331.54
464.41	37376.01
464.59	36430.44
464.78	38171.80
464.96	38361.38
465.14	37801.99
465.32	38735.87
465.50	40055.93
465.69	39732.93
465.87	39185.25
466.05	38263.08
466.23	36919.61
466.41	35824.24
466.60	36556.83
466.78	36835.35
466.96	37385.38
467.14	37912.00
467.32	38609.48
467.51	38396.49
467.69	37092.81
467.87	37720.07
468.05	38234.99
468.23	38445.64
468.41	38366.06
468.60	38312.23
468.78	38726.50
468.96	38366.06
469.14	39218.02
469.32	39381.85
469.50	37523.47
469.69	38014.98
469.87	37184.09
470.05	37230.90
470.23	37530.49
470.41	37511.77
470.59	37804.33
470.77	38106.26
470.95	38768.63
471.14	39433.35
471.32	39536.33
471.50	41570.25
471.68	41755.16
471.86	41792.61
472.04	41827.71
472.22	42043.04
472.40	39903.79
472.58	39742.30
472.77	39124.40
472.95	40130.83
473.13	41317.48
473.31	40191.68
473.49	40306.37
473.67	40992.14
473.85	41378.33
474.03	42630.52
474.21	41806.65
474.39	42883.30
474.57	42829.46
474.75	43117.35
474.93	42710.10
475.12	41914.31
475.30	41755.16
475.48	41867.50
475.66	42618.81
475.84	42178.79
476.02	41874.52
476.20	41280.03
476.38	41972.83
476.56	43054.15
476.74	43477.79
476.92	43704.82
477.10	44231.44
477.28	45390.01
477.46	45350.22
477.64	46260.69
477.82	46085.15
478.00	46323.88
478.18	45698.96
478.36	45584.27
478.54	45361.92
478.72	45853.44
478.90	46707.73
479.08	48046.52
479.26	48044.18
479.44	47948.21
479.62	47805.44
479.80	48016.09
479.98	48582.50
480.16	48484.20
480.34	48147.16
480.52	48458.45
480.70	48584.84
480.88	48882.09
481.06	49165.29
481.24	49645.10
481.41	50401.10
481.59	50836.44
481.77	50567.27
481.95	50239.60
482.13	49963.42
482.31	50031.29
482.49	50696.00
482.67	50323.86
482.85	50717.07
483.03	51016.66
483.21	51494.13
483.39	51772.65
483.57	50670.26
483.74	50635.15
483.92	51030.70
484.10	50962.82
484.28	51784.35
484.46	52142.45
484.64	52603.54
484.82	51437.95
485.00	51721.16
485.18	50721.75
485.35	49399.35
485.53	46735.82
485.71	43210.97
485.89	41881.55
486.07	44479.54
486.25	47573.73
486.43	49757.45
486.61	50838.78
486.78	50464.29
486.96	50738.13
487.14	51875.63
487.32	52648.01
487.50	53448.47
487.68	53923.60
487.85	54485.33
488.03	54747.47
488.21	54410.43
488.39	53663.80
488.57	53450.81
488.75	52786.10
488.92	53710.61
489.10	55337.29
489.28	56774.37
489.46	57427.38
489.64	57303.34
489.81	57488.24
489.99	56978.00
490.17	56985.02
490.35	57698.89
490.53	56907.79
490.70	56727.56
490.88	56502.87
491.06	57418.02
491.24	57230.78
491.41	56629.26
491.59	55171.11
491.77	54461.93
491.95	55564.32
492.13	56425.64
492.30	57640.37
492.48	58356.58
492.66	58581.27
492.84	58702.98
493.01	58319.13
493.19	57836.98
493.37	57736.34
493.54	57654.42
493.72	57790.17
493.90	58855.11
494.08	59363.01
494.25	59861.54
494.43	59952.82
494.61	60163.47
494.79	60310.92
494.96	60074.53
495.14	59634.51
495.32	58791.92
495.49	58099.12
495.67	59098.53
495.85	60360.08
496.02	60816.48
496.20	60697.11
496.38	60193.90
496.55	60114.32
496.73	60516.89
496.91	60416.25
497.09	61219.05
497.26	61331.40
497.44	60673.71
497.62	60388.16
497.79	59592.38
497.97	58492.33
498.14	58700.64
498.32	59716.43
498.50	60313.26
498.67	60970.96
498.85	60954.57
499.03	60961.59
499.20	61195.65
499.38	61090.32
499.56	61038.83
499.73	60741.58
499.91	60186.88
500.08	60006.65
500.26	59100.87
500.44	59512.80
500.61	60207.94
500.79	60247.73
500.97	59821.75
501.14	59627.49
501.32	59451.95
501.49	59363.01
501.67	59833.46
501.84	60149.43
502.02	60348.37
502.20	60786.05
502.37	60912.44
502.55	60743.92
502.72	61436.72
502.90	61647.37
503.07	61602.90
503.25	61240.12
503.43	60392.84
503.60	59884.95
503.78	59121.93
503.95	59798.35
504.13	60849.25
504.30	61614.60
504.48	61490.55
504.65	61228.41
504.83	61244.80
505.01	61755.03
505.18	61890.79
505.36	62581.24
505.53	62415.07
505.71	62759.12
505.88	62831.68
506.06	62504.01
506.23	61968.02
506.41	61696.52
506.58	61914.19
506.76	61865.04
506.93	61841.63
507.11	61544.39
507.28	61778.44
507.46	61523.32
507.63	60776.69
507.81	60619.88
507.98	60706.47
508.16	61481.19
508.33	61993.77
508.50	62396.34
508.68	62543.80
508.85	62824.66
509.03	62983.82
509.20	62911.26
509.38	62225.48
509.55	61516.30
509.73	61499.92
509.90	62171.65
510.08	62164.63
510.25	62094.41
510.42	62138.88
510.60	61790.14
510.77	62152.93
510.95	62714.65
511.12	62749.76
511.30	63128.93
511.47	63178.08
511.64	63358.30
511.82	62845.72
511.99	62269.95
512.17	61921.21
512.34	61584.18
512.51	61846.32
512.69	61712.91
512.86	62005.47
513.04	62534.43
513.21	62321.44
513.38	62073.35
513.56	61572.47
513.73	61181.60
513.90	61249.48
514.08	61109.05
514.25	61535.02
514.43	61705.88
514.60	61914.19
514.77	62063.99
514.95	62227.82
515.12	62075.69
515.29	62101.43
515.47	62571.88
515.64	62880.83
515.81	62443.15
515.99	61993.77
516.16	60891.38
516.33	58803.62
516.51	57354.83
516.68	56488.83
516.85	56252.44
517.03	56853.95
517.20	59002.56
517.37	61141.81
517.54	62230.16
517.72	61726.95
517.89	59505.78
518.06	57333.76
518.24	57771.44
518.41	59503.44
518.58	60797.76
518.75	60963.93
518.93	61130.11
519.10	60905.42
519.27	61520.98
519.45	61532.68
519.62	62335.49
519.79	62646.78
519.96	62447.83
520.14	61953.98
520.31	61305.65
520.48	61284.59
520.65	61602.90
520.83	62312.08
521.00	62784.87
521.17	62429.11
521.34	62047.60
521.52	62309.74
521.69	62939.35
521.86	63264.68
522.03	62929.98
522.20	61783.12
522.38	60837.54
522.55	60889.04
522.72	61469.49
522.89	61701.20
523.07	61764.40
523.24	62045.26
523.41	62887.85
523.58	63126.59
523.75	63332.56
523.92	63248.30
524.10	63374.69
524.27	63252.98
524.44	63117.23
524.61	62948.71
524.78	63049.35
524.96	62770.83
525.13	62691.25
525.30	63007.22
525.47	63351.28
525.64	63264.68
525.81	62618.69
525.98	61504.60
526.16	60231.35
526.33	59594.72
526.50	59255.34
526.67	58735.74
526.84	59531.53
527.01	60315.61
527.18	60982.66
527.36	61876.74
527.53	62576.56
527.70	62787.21
527.87	62375.28
528.04	62014.83
528.21	62398.68
528.38	62967.43
528.55	63650.87
528.72	63592.36
528.89	63994.93
529.07	63660.23
529.24	63089.14
529.41	62433.79
529.58	61846.32
529.75	61883.76
529.92	62419.75
530.09	62838.70
530.26	63264.68
530.43	63510.44
530.60	63484.69
530.77	63667.25
530.94	63826.41
531.11	63355.96
531.28	63114.89
531.46	62897.22
531.63	62876.15
531.80	62939.35
531.97	62532.09
532.14	61968.02
532.31	61003.72
532.48	60549.66
532.65	60526.25
532.82	61132.45
532.99	62136.54
533.16	62621.03
533.33	63133.61
533.50	62901.90
533.67	62307.40
533.84	61881.42
534.01	62148.24
534.18	62232.50
534.35	62529.75
534.52	62253.57
534.69	62527.41
534.86	62838.70
535.03	63061.05
535.20	63337.24
535.37	63777.26
535.54	63941.10
535.71	63559.59
535.88	63250.64
536.05	62585.92
536.22	62246.55
536.38	61930.58
536.55	61579.49
536.72	61272.88
536.89	61118.41
537.06	61771.42
537.23	62695.93
537.40	62616.35
537.57	62843.38
537.74	62677.21
537.91	62630.40
538.08	62471.24
538.25	62578.90
538.42	62639.76
538.59	62541.45
538.75	61829.93
538.92	61654.39
539.09	61523.32
539.26	61333.74
539.43	61230.75
539.60	61406.30
539.77	61535.02
539.94	61436.72
540.11	60692.43
540.28	60048.78
540.44	60259.43
540.61	60549.66
540.78	60797.76
540.95	61139.47
541.12	61558.43
541.29	61649.71
541.46	61827.59
541.62	62138.88
541.79	61890.79
541.96	61427.36
542.13	61345.44
542.30	61726.95
542.47	61918.87
542.63	61614.60
542.80	61425.02
542.97	61467.15
543.14	61375.87
543.31	61352.46
543.48	61886.10
543.64	62590.61
543.81	62873.81
543.98	62621.03
544.15	62159.95
544.32	61460.13
544.48	61633.33
544.65	61970.36
544.82	62429.11
544.99	61989.09
545.16	61593.54
545.32	61420.34
545.49	62433.79
545.66	62630.40
545.83	62192.72
546.00	61743.33
546.16	61729.29
546.33	61790.14
546.50	61502.26
546.67	62164.63
546.83	61647.37
547.00	61748.01
547.17	61073.94
547.34	60589.45
547.50	60505.19
547.67	60832.86
547.84	61027.13
548.00	61394.59
548.17	61675.46
548.34	61717.59
548.51	61719.93
548.67	61539.71
548.84	61691.84
549.01	61757.38
549.18	61630.99
549.34	61425.02
549.51	61528.00
549.68	61492.89
549.84	61249.48
550.01	61343.10
550.18	61045.85
550.34	61174.58
550.51	61319.70
550.68	61345.44
550.84	60924.14
551.01	61174.58
551.18	60928.83
551.34	61109.05
551.51	61401.61
551.68	61893.13
551.84	61598.22
552.01	61509.28
552.18	61359.48
552.34	60748.60
552.51	60537.96
552.68	60287.52
552.84	60783.71
553.01	60952.23
553.18	60790.73
553.34	60977.98
553.51	60975.64
553.67	61378.21
553.84	61387.57
554.01	61200.33
554.17	61186.28
554.34	61307.99
554.51	61518.64
554.67	61691.84
554.84	61361.82
555.00	61181.60
555.17	60849.25
555.33	60938.19
555.50	60903.08
555.67	60835.20
555.83	60690.09
556.00	60509.87
556.16	60465.40
556.33	60107.30
556.50	60154.11
556.66	59987.93
556.83	59742.17
556.99	59955.16
557.16	60013.68
557.32	60259.43
557.49	60598.81
557.65	60182.19
557.82	60402.21
557.98	60179.85
558.15	59774.94
558.32	59161.72
558.48	58475.94
558.65	58475.94
558.81	58892.56
558.98	59288.11
559.14	59498.76
559.31	59327.90
559.47	59538.55
559.64	59271.73
559.80	58791.92
559.97	58869.15
560.13	59224.92
560.30	60109.64
560.46	60549.66
560.63	60591.79
560.79	60605.83
560.96	60430.29
561.12	59414.50
561.29	58705.32
561.45	58628.08
561.61	58934.69
561.78	59494.08
561.94	59613.44
562.11	59451.95
562.27	59215.55
562.44	59566.63
562.60	59655.57
562.77	59934.10
562.93	59814.73
563.10	60065.17
563.26	59344.28
563.42	59512.80
563.59	58995.54
563.75	59072.78
563.92	59285.77
564.08	59007.25
564.24	59433.22
564.41	59330.24
564.57	59414.50
564.74	59320.88
564.90	59082.14
565.07	59093.85
565.23	58583.61
565.39	58188.06
565.56	57865.06
565.72	57886.13
565.88	58216.14
566.05	58166.99
566.21	58316.79
566.38	58607.01
566.54	58585.95
566.70	58969.80
566.87	59255.34
567.03	59182.79
567.19	59189.81
567.36	59168.74
567.52	58955.75
567.68	58749.79
567.85	58071.03
568.01	57839.32
568.17	57595.90
568.34	57785.49
568.50	57523.35
568.66	57535.05
568.83	58024.22
568.99	57858.04
569.15	58014.86
569.32	58239.55
569.48	58012.52
569.64	57703.57
569.81	57560.79
569.97	57453.13
570.13	57338.44
570.30	57008.43
570.46	56589.47
570.62	56240.73
570.78	56072.21
570.95	56364.78
571.11	56800.12
571.27	57146.52
571.43	57296.31
571.60	57551.43
571.76	57565.48
571.92	57822.93
572.09	58176.36
572.25	58080.39
572.41	57736.34
572.57	57591.22
572.74	57813.57
572.90	57509.30
573.06	57382.91
573.22	57572.50
573.38	57600.58
573.55	57443.77
573.71	57825.28
573.87	57469.51
574.03	57301.00
574.20	57373.55
574.36	57130.14
574.52	57015.45
574.68	56818.84
574.84	56545.00
575.01	56044.13
575.17	56018.38
575.33	56182.22
575.49	56282.86
575.65	56643.30
575.82	56406.91
575.98	56032.42
576.14	56420.95
576.30	56708.84
576.46	57113.75
576.62	56788.42
576.79	56765.01
576.95	56343.72
577.11	56566.07
577.27	56594.15
577.43	56736.93
577.59	56140.09
577.75	55590.06
577.92	55363.03
578.08	55208.56
578.24	55018.97
578.40	55501.12
578.56	55679.00
578.72	55622.83
578.88	55777.31
579.04	56067.53
579.21	56086.26
579.37	55840.50
579.53	56252.44
579.69	56147.11
579.85	56137.75
580.01	56189.24
580.17	55863.91
580.33	55676.66
580.49	55739.86
580.65	55976.25
580.82	56165.84
580.98	56294.56
581.14	55859.23
581.30	56119.02
581.46	56002.00
581.62	56203.28
581.78	56161.15
581.94	56069.87
582.10	56002.00
582.26	56357.76
582.42	56048.81
582.58	56268.82
582.74	56172.86
582.90	56189.24
583.06	56212.65
583.22	55966.89
583.38	56006.68
583.54	55849.86
583.70	55798.37
583.86	55980.93
584.02	56060.51
584.18	55906.04
584.34	55800.71
584.50	55629.85
584.66	55578.36
584.82	55206.22
584.98	55220.26
585.14	54967.48
