SpectraSuite Data File
++++++++++++++++++++++++++++++++++++
Date: Mon Oct 07 14:53:06 GMT-05:00 2013
User: price-jones
Dark Spectrum Present: No
Reference Spectrum Present: No
Number of Sampled Component Spectra: 1
Spectrometers: USB2+H05261
Integration Time (usec): 100000 (USB2+H05261)
Spectra Averaged: 1 (USB2+H05261)
Boxcar Smoothing: 0 (USB2+H05261)
Correct for Electrical Dark: No (USB2+H05261)
Strobe/Lamp Enabled: No (USB2+H05261)
Correct for Detector Non-linearity: No (USB2+H05261)
Correct for Stray Light: No (USB2+H05261)
Number of Pixels in Processed Spectrum: 2048
>>>>>Begin Processed Spectral Data<<<<<
365.73	0.00
365.92	0.00
366.12	0.00
366.32	0.00
366.52	0.00
366.72	0.00
366.91	0.00
367.11	0.00
367.31	0.00
367.51	0.00
367.70	0.00
367.90	0.00
368.10	0.00
368.30	0.00
368.49	0.00
368.69	0.00
368.89	0.00
369.09	0.00
369.28	0.00
369.48	0.00
369.68	0.00
369.87	0.00
370.07	0.00
370.27	0.00
370.47	599.18
370.66	3171.43
370.86	3705.07
371.06	3927.42
371.25	4035.08
371.45	3618.47
371.65	3159.72
371.84	3063.76
372.04	3211.22
372.24	3499.10
372.44	3829.12
372.63	3583.36
372.83	3438.25
373.03	3042.70
373.22	2808.64
373.42	2913.97
373.62	3447.61
373.81	3599.74
374.01	3763.58
374.21	3262.71
374.40	3089.51
374.60	3166.74
374.79	3581.02
374.99	4269.14
375.19	4594.47
375.38	4491.49
375.58	4308.93
375.78	4329.99
375.97	4315.95
376.17	4482.13
376.37	4393.19
376.56	4655.33
376.76	4793.42
376.95	5188.97
377.15	5521.32
377.35	5657.07
377.54	5928.58
377.74	6162.63
377.93	6279.66
378.13	5928.58
378.33	5523.66
378.52	5071.94
378.72	4940.87
378.91	4753.63
379.11	4812.14
379.31	4610.86
379.50	4575.75
379.70	4917.47
379.89	5458.13
380.09	5748.36
380.28	5970.71
380.48	5942.62
380.68	5839.64
380.87	5827.93
381.07	5249.82
381.26	4744.27
381.46	4519.57
381.65	4290.20
381.85	4374.46
382.04	4102.96
382.24	3786.99
382.43	3630.17
382.63	3735.50
382.83	3583.36
383.02	3684.00
383.22	3740.18
383.41	3571.66
383.61	3831.46
383.80	4444.68
384.00	5109.39
384.19	5664.10
384.39	5837.30
384.58	5886.45
384.78	5640.69
384.97	5825.59
385.17	5437.06
385.36	5123.43
385.56	4938.53
385.75	5130.45
385.95	5661.76
386.14	6083.05
386.34	6314.77
386.53	5802.19
386.72	5495.58
386.92	5565.79
387.11	5968.37
387.31	6195.40
387.50	6066.67
387.70	5638.35
387.89	5652.39
388.09	5841.98
388.28	5853.68
388.48	6108.80
388.67	6345.19
388.86	6958.41
389.06	7489.71
389.25	7934.42
389.45	8016.33
389.64	7793.98
389.84	7742.49
390.03	7496.74
390.22	7573.97
390.42	7990.59
390.61	8531.25
390.81	9034.47
391.00	9212.35
391.19	8870.63
391.39	8739.56
391.58	8322.94
391.78	7810.37
391.97	7564.61
392.16	7007.56
392.36	6244.55
392.55	5053.22
392.75	4028.06
392.94	3361.01
393.13	3356.33
393.33	3885.29
393.52	5062.58
393.71	6197.74
393.91	7035.65
394.10	7466.31
394.29	8294.86
394.49	8901.06
394.68	9699.18
394.88	9610.24
395.07	10019.83
395.26	9919.19
395.46	9614.92
395.65	8894.04
395.84	7864.20
396.04	6693.93
396.23	5289.61
396.42	4655.33
396.62	4416.59
396.81	5163.22
397.00	6471.58
397.19	7976.55
397.39	9816.21
397.58	10911.58
397.77	11583.31
397.97	12065.46
398.16	11873.54
398.35	12727.83
398.55	12865.92
398.74	13481.49
398.93	13860.65
399.12	13631.28
399.32	13071.89
399.51	13373.82
399.70	14251.52
399.90	13982.36
400.09	14207.05
400.28	14036.19
400.47	14176.62
400.67	14946.66
400.86	15398.38
401.05	15096.46
401.24	15412.43
401.44	15370.30
401.63	15648.82
401.82	15473.28
402.01	15503.71
402.21	15548.18
402.40	15772.87
402.59	15374.98
402.78	14560.47
402.97	14232.80
403.17	14883.47
403.36	15709.68
403.55	16374.39
403.74	16774.62
403.93	15719.04
404.13	14490.26
404.32	14441.11
404.51	14778.14
404.70	15997.56
404.89	16088.84
405.09	16067.78
405.28	15470.94
405.47	15442.85
405.66	15274.34
405.85	14998.15
406.05	14310.04
406.24	14764.10
406.43	15442.85
406.62	16198.85
406.81	16149.70
407.00	15630.10
407.20	15225.18
407.39	15227.53
407.58	16053.73
407.77	16603.76
407.96	16978.25
408.15	17366.78
408.34	17427.63
408.54	18139.15
408.73	18317.03
408.92	17907.44
409.11	17429.97
409.30	16760.58
409.49	15686.27
409.68	14719.63
409.87	14120.45
410.07	15353.91
410.26	16196.51
410.45	17425.29
410.64	17898.08
410.83	18462.15
411.02	18597.90
411.21	19587.94
411.40	19091.75
411.59	19688.59
411.78	19304.74
411.98	19222.82
412.17	19215.80
412.36	19016.85
412.55	19002.81
412.74	18515.98
412.93	18232.77
413.12	18338.10
413.31	20203.50
413.50	20357.98
413.69	20549.90
413.88	19819.66
414.07	19627.73
414.26	19442.83
414.45	20042.01
414.64	20430.54
414.83	20081.80
415.02	19826.68
415.22	19880.51
415.41	20395.43
415.60	21184.19
415.79	21991.67
415.98	22324.03
416.17	22429.35
416.36	21738.90
416.55	21631.23
416.74	20868.22
416.93	20180.10
417.12	20498.41
417.31	20498.41
417.50	20919.71
417.69	21549.31
417.88	21511.86
418.07	21095.25
418.26	20891.62
418.45	21118.65
418.64	21586.76
418.83	22785.12
419.02	22422.33
419.21	22188.28
419.39	21343.35
419.58	20346.28
419.77	20353.30
419.96	21076.52
420.15	22260.84
420.34	22883.42
420.53	23711.97
420.72	23859.42
420.91	23878.15
421.10	23403.02
421.29	23473.23
421.48	22520.63
421.67	23599.62
421.86	23117.47
422.05	21504.84
422.24	19096.43
422.43	19082.39
422.61	21095.25
422.80	22920.87
422.99	22974.70
423.18	22319.35
423.37	21394.84
423.56	21757.62
423.75	22228.07
423.94	22405.95
424.13	21553.99
424.32	21617.19
424.50	21500.16
424.69	21083.55
424.88	21427.60
425.07	21465.05
425.26	21390.16
425.45	20786.30
425.64	20975.88
425.83	20603.74
426.01	22005.72
426.20	22448.08
426.39	22118.06
426.58	20631.82
426.77	19316.44
426.96	18326.39
427.15	19264.95
427.33	20678.63
427.52	21504.84
427.71	21837.20
427.90	21537.61
428.09	21390.16
428.28	21076.52
428.46	20137.97
428.65	19728.38
428.84	20353.30
429.03	20559.27
429.22	19564.54
429.40	18302.99
429.59	16835.47
429.78	14834.32
429.97	14895.17
430.16	15070.71
430.34	15185.40
430.53	15119.86
430.72	15293.06
430.91	17500.19
431.10	20245.63
431.28	23796.23
431.47	25593.76
431.66	25949.52
431.85	23889.85
432.03	21738.90
432.22	20959.50
432.41	22089.98
432.60	24250.29
432.79	25006.28
432.97	25322.26
433.16	24964.15
433.35	22532.34
433.54	20505.43
433.72	19447.51
433.91	20046.69
434.10	22045.51
434.28	23789.20
434.47	24940.75
434.66	24568.60
434.85	24184.76
435.03	24304.12
435.22	24634.14
435.41	26125.06
435.59	25965.90
435.78	26115.70
435.97	27072.98
436.16	27353.84
436.34	26972.33
436.53	26141.44
436.72	26230.38
436.90	24994.58
437.09	24697.33
437.28	24240.93
437.46	24872.87
437.65	25144.38
437.84	23695.58
438.02	21458.03
438.21	21528.25
438.40	22658.73
438.58	24840.11
438.77	25429.92
438.96	25678.02
439.14	26649.34
439.33	27246.18
439.52	27805.56
439.70	27190.00
439.89	26361.45
440.08	25720.15
440.26	25638.23
440.45	26864.67
440.63	28542.83
440.82	29462.66
441.01	29340.96
441.19	29076.48
441.38	29411.17
441.57	30452.71
441.75	30869.33
441.94	31234.45
442.12	30857.62
442.31	31559.78
442.50	31742.35
442.68	31274.24
442.87	30527.61
443.05	30010.35
443.24	30642.29
443.43	31419.35
443.61	31985.76
443.80	32568.55
443.98	30572.08
444.17	30204.61
444.35	32411.74
444.54	32591.96
444.73	32498.34
444.91	30822.51
445.10	29963.54
445.28	28837.74
445.47	28201.11
445.65	28362.61
445.84	29214.57
446.02	30120.35
446.21	30331.00
446.39	30740.60
446.58	31285.94
446.77	31686.17
446.95	31901.50
447.14	32954.74
447.32	33336.25
447.51	32664.52
447.69	31108.06
447.88	31077.63
448.06	31498.93
448.25	32355.57
448.43	32629.41
448.62	31896.82
448.80	31545.74
448.99	31688.51
449.17	32023.21
449.36	32147.26
449.54	33596.05
449.73	33652.22
449.91	34293.53
450.10	35349.11
450.28	35501.25
450.46	35335.07
450.65	35386.56
450.83	34976.97
451.02	34370.77
451.20	34195.23
451.39	34614.18
451.57	34185.86
451.76	33879.25
451.94	33830.10
452.13	33453.28
452.31	31695.53
452.49	30534.63
452.68	30546.33
452.86	30731.23
453.05	31147.85
453.23	32018.53
453.42	33261.35
453.60	33528.17
453.78	34117.99
453.97	33254.33
454.15	33675.63
454.34	32800.27
454.52	32971.13
454.70	32496.00
454.89	32833.04
455.07	33207.52
455.26	33195.82
455.44	34609.50
455.62	34829.51
455.81	35576.14
455.99	35206.34
456.17	34628.23
456.36	34689.08
456.54	35835.94
456.73	35997.44
456.91	36292.35
457.09	36620.02
457.28	37205.16
457.46	35835.94
457.64	35438.05
457.83	34480.77
458.01	33659.24
458.19	34265.44
458.38	34763.98
458.56	35702.53
458.74	35634.66
458.93	35318.68
459.11	35079.95
459.29	35072.93
459.48	35166.55
459.66	34885.68
459.84	35454.44
460.03	35686.15
460.21	35487.20
460.39	36430.44
460.57	36465.55
460.76	36996.85
460.94	36856.42
461.12	36818.97
461.31	36847.05
461.49	36510.02
461.67	36528.74
461.85	37827.74
462.04	37640.50
462.22	38267.76
462.40	37457.93
462.59	37345.59
462.77	37464.96
462.95	37581.98
463.13	37003.87
463.32	36945.36
463.50	36706.62
463.68	36765.14
463.86	36858.76
464.05	36151.91
464.23	35475.50
464.41	35304.64
464.59	34899.73
464.78	36708.96
464.96	36285.33
465.14	35789.13
465.32	37170.05
465.50	38045.41
465.69	37895.61
465.87	37029.62
466.05	35646.36
466.23	34686.74
466.41	34007.98
466.60	35473.16
466.78	34555.67
466.96	35393.58
467.14	36133.19
467.32	36587.25
467.51	36624.70
467.69	35241.45
467.87	36027.87
468.05	36322.77
468.23	36364.90
468.41	36439.80
468.60	36388.31
468.78	36849.39
468.96	36414.05
469.14	36952.38
469.32	37099.83
469.50	35536.35
469.69	36180.00
469.87	35086.97
470.05	35204.00
470.23	35501.25
470.41	35473.16
470.59	36210.43
470.77	36121.49
470.95	36828.33
471.14	37553.90
471.32	37347.93
471.50	39400.58
471.68	39412.28
471.86	39880.39
472.04	40123.80
472.22	39924.86
472.40	37904.98
472.58	38106.26
472.77	37460.27
472.95	38192.86
473.13	39325.68
473.31	37935.40
473.49	38345.00
473.67	39082.27
473.85	39597.18
474.03	40418.71
474.21	40381.26
474.39	40409.35
474.57	41074.06
474.75	40823.62
474.93	40505.31
475.12	40079.33
475.30	40135.51
475.48	40109.76
475.66	40648.08
475.84	40084.01
476.02	39660.38
476.20	39007.37
476.38	40018.48
476.56	41633.45
476.74	41923.68
476.92	41979.85
477.10	42693.71
477.28	43957.60
477.46	44147.18
477.64	44189.31
477.82	44006.75
478.00	44467.84
478.18	43257.78
478.36	43489.49
478.54	43697.80
478.72	43646.31
478.90	44898.50
479.08	46190.47
479.26	46389.42
479.44	46452.61
479.62	46312.18
479.80	46014.93
479.98	46473.68
480.16	46604.75
480.34	46202.18
480.52	46415.16
480.70	46845.82
480.88	46616.45
481.06	47093.92
481.24	47789.06
481.41	48744.00
481.59	49078.69
481.77	49090.40
481.95	48193.97
482.13	48383.55
482.31	48250.14
482.49	49013.16
482.67	48631.65
482.85	48748.68
483.03	49581.91
483.21	50157.68
483.39	49780.85
483.57	49518.71
483.74	49216.78
483.92	49106.78
484.10	49687.23
484.28	50380.03
484.46	50714.73
484.64	51110.28
484.82	50279.39
485.00	49839.37
485.18	49001.46
485.35	47821.83
485.53	44575.50
485.71	40814.26
485.89	40577.87
486.07	42553.28
486.25	46167.07
486.43	48275.89
486.61	48978.05
486.78	48617.61
486.96	49118.48
487.14	50532.17
487.32	51437.95
487.50	52200.97
487.68	52961.64
487.85	53609.97
488.03	53240.17
488.21	52926.53
488.39	52519.28
488.57	51913.08
488.75	51927.13
488.92	52549.71
489.10	54658.53
489.28	55847.52
489.46	56212.65
489.64	55999.66
489.81	56151.79
489.99	55941.14
490.17	56062.85
490.35	56271.16
490.53	55578.36
490.70	55655.60
490.88	55604.11
491.06	56289.88
491.24	56243.07
491.41	55138.34
491.59	53970.41
491.77	53406.34
491.95	54536.82
492.13	55367.71
492.30	56516.92
492.48	57425.04
492.66	57813.57
492.84	57631.01
493.01	57429.72
493.19	56954.60
493.37	56453.72
493.54	56259.46
493.72	57022.47
493.90	57874.43
494.08	58576.59
494.25	58848.09
494.43	58944.05
494.61	59384.07
494.79	59498.76
494.96	59103.21
495.14	58574.25
495.32	57865.06
495.49	57240.14
495.67	58129.54
495.85	59421.52
496.02	59723.45
496.20	59561.95
496.38	58981.50
496.55	58946.39
496.73	59451.95
496.91	59606.42
497.09	60280.50
497.26	60388.16
497.44	59952.82
497.62	59463.65
497.79	58829.37
497.97	57387.60
498.14	57638.03
498.32	58714.68
498.50	59725.79
498.67	59985.59
498.85	60147.09
499.03	60074.53
499.20	60383.48
499.38	60339.01
499.56	60294.54
499.73	59704.73
499.91	59288.11
500.08	58897.24
500.26	58511.05
500.44	58866.81
500.61	59426.20
500.79	59262.36
500.97	58766.17
501.14	58784.90
501.32	58525.10
501.49	58520.41
501.67	58812.98
501.84	59416.84
502.02	59381.73
502.20	59891.97
502.37	59971.55
502.55	59964.52
502.72	60554.34
502.90	60821.16
503.07	60636.26
503.25	60224.32
503.43	59611.10
503.60	59058.74
503.78	58335.51
503.95	58892.56
504.13	59976.23
504.30	60807.12
504.48	60446.68
504.65	60247.73
504.83	60467.74
505.01	60980.32
505.18	61366.51
505.36	61563.11
505.53	61776.10
505.71	62134.20
505.88	62078.03
506.06	61591.20
506.23	61221.39
506.41	60793.07
506.58	61043.51
506.76	60996.70
506.93	61118.41
507.11	60844.57
507.28	60928.83
507.46	60243.05
507.63	59882.61
507.81	59824.09
507.98	60107.30
508.16	60669.03
508.33	61432.04
508.50	61612.26
508.68	61649.71
508.85	62059.30
509.03	62134.20
509.20	62101.43
509.38	61347.78
509.55	60657.32
509.73	60905.42
509.90	61279.91
510.08	61731.63
510.25	61357.14
510.42	61197.99
510.60	61118.41
510.77	61502.26
510.95	62005.47
511.12	62063.99
511.30	62284.00
511.47	62464.22
511.64	62347.19
511.82	62555.50
511.99	61357.14
512.17	61073.94
512.34	60647.96
512.51	60921.80
512.69	61167.56
512.86	61205.01
513.04	61661.41
513.21	61656.73
513.38	61130.11
513.56	60781.37
513.73	60395.18
513.90	60416.25
514.08	60671.37
514.25	60945.21
514.43	61113.73
514.60	61310.33
514.77	61141.81
514.95	61151.18
515.12	61331.40
515.29	61448.42
515.47	61806.53
515.64	62178.67
515.81	61673.12
515.99	61251.82
516.16	59915.37
516.33	57829.96
516.51	56392.87
516.68	55973.91
516.85	55414.52
517.03	55915.40
517.20	58464.24
517.37	60594.13
517.54	61392.25
517.72	60804.78
517.89	58438.50
518.06	56427.98
518.24	56952.26
518.41	58988.52
518.58	60023.04
518.75	60060.49
518.93	60296.88
519.10	60369.44
519.27	60652.64
519.45	60996.70
519.62	61595.88
519.79	61921.21
519.96	61729.29
520.14	61183.94
520.31	60474.76
520.48	60584.77
520.65	60938.19
520.83	61778.44
521.00	62056.96
521.17	61708.22
521.34	61263.52
521.52	61719.93
521.69	62169.31
521.86	62492.30
522.03	62349.53
522.20	60973.30
522.38	60294.54
522.55	60367.10
522.72	60844.57
522.89	60928.83
523.07	61216.71
523.24	61490.55
523.41	62265.27
523.58	62394.00
523.75	62819.98
523.92	62691.25
524.10	62731.04
524.27	62604.65
524.44	62447.83
524.61	62316.76
524.78	62211.44
524.96	62017.17
525.13	62237.19
525.30	62391.66
525.47	62824.66
525.64	62672.52
525.81	61914.19
525.98	60685.41
526.16	59358.33
526.33	58932.35
526.50	58841.07
526.67	58391.68
526.84	59058.74
527.01	59728.13
527.18	60486.46
527.36	61300.97
527.53	62138.88
527.70	62305.06
527.87	61722.27
528.04	61455.45
528.21	61848.66
528.38	62415.07
528.55	62997.86
528.72	63192.12
528.89	63351.28
529.07	63054.03
529.24	62501.67
529.41	61731.63
529.58	61317.35
529.75	61574.81
529.92	61869.72
530.09	62396.34
530.26	62642.10
530.43	63065.73
530.60	63100.84
530.77	63061.05
530.94	63311.49
531.11	62653.80
531.28	62527.41
531.46	62452.51
531.63	62536.77
531.80	62464.22
531.97	61867.38
532.14	61394.59
532.31	60350.71
532.48	59901.33
532.65	59931.76
532.82	60741.58
532.99	61642.69
533.16	62101.43
533.33	62513.37
533.50	62108.46
533.67	61668.44
533.84	61462.47
534.01	61600.56
534.18	61675.46
534.35	61806.53
534.52	61790.14
534.69	61925.89
534.86	62279.31
535.03	62557.84
535.20	62925.30
535.37	63157.02
535.54	63379.37
535.71	63030.63
535.88	62557.84
536.05	62138.88
536.22	61776.10
536.38	61506.94
536.55	61120.75
536.72	60636.26
536.89	60666.69
537.06	61359.48
537.23	62209.10
537.40	62389.32
537.57	62342.51
537.74	62026.54
537.91	61991.43
538.08	62021.86
538.25	62218.46
538.42	62417.41
538.59	61991.43
538.75	61542.05
538.92	61144.16
539.09	61148.84
539.26	61146.50
539.43	60570.72
539.60	60867.97
539.77	61139.47
539.94	60947.55
540.11	60327.31
540.28	59767.92
540.44	59681.32
540.61	60198.58
540.78	60402.21
540.95	60713.50
541.12	61179.26
541.29	61410.98
541.46	61626.31
541.62	61705.88
541.79	61380.55
541.96	60722.86
542.13	61027.13
542.30	61268.20
542.47	61331.40
542.63	61272.88
542.80	60828.18
542.97	61202.67
543.14	60928.83
543.31	61031.81
543.48	61474.17
543.64	62152.93
543.81	62454.86
543.98	62115.48
544.15	61584.18
544.32	61125.43
544.48	61310.33
544.65	61722.27
544.82	61989.09
544.99	61511.62
545.16	61251.82
545.32	61151.18
545.49	61928.23
545.66	62244.21
545.83	61659.07
546.00	61375.87
546.16	61062.24
546.33	61284.59
546.50	61286.93
546.67	61600.56
546.83	61268.20
547.00	61310.33
547.17	60882.02
547.34	60254.75
547.50	60140.07
547.67	60882.02
547.84	60500.51
548.00	60992.02
548.17	61551.41
548.34	61237.78
548.51	61317.35
548.67	61499.92
548.84	61448.42
549.01	61310.33
549.18	61179.26
549.34	61134.79
549.51	61375.87
549.68	61190.97
549.84	60949.89
550.01	60814.14
550.18	60559.02
550.34	60910.10
550.51	60809.46
550.68	60956.91
550.84	60172.83
551.01	60631.58
551.18	60587.11
551.34	60498.17
551.51	61160.54
551.68	61485.87
551.84	61375.87
552.01	61052.87
552.18	61045.85
552.34	60200.92
552.51	60030.06
552.68	59873.24
552.84	60409.23
553.01	60718.18
553.18	60629.24
553.34	60573.06
553.51	60734.56
553.67	61029.47
553.84	61036.49
554.01	61041.17
554.17	60968.61
554.34	61020.11
554.51	60963.93
554.67	61347.78
554.84	61293.95
555.00	60736.90
555.17	60781.37
555.33	60669.03
555.50	60631.58
555.67	60832.86
555.83	60444.33
556.00	60217.30
556.16	60172.83
556.33	59805.37
556.50	59803.03
556.66	59770.26
556.83	59671.96
556.99	59613.44
557.16	59693.02
557.32	59962.18
557.49	60172.83
557.65	59948.14
557.82	60001.97
557.98	60020.70
558.15	59515.14
558.32	58798.94
558.48	58202.10
558.65	58337.85
558.81	58986.18
558.98	59014.27
559.14	59175.76
559.31	59187.47
559.47	59173.42
559.64	58958.09
559.80	58688.93
559.97	58693.61
560.13	59110.23
560.30	59880.27
560.46	60470.08
560.63	60463.06
560.79	60451.36
560.96	60041.76
561.12	59196.83
561.29	58286.36
561.45	58450.20
561.61	58904.26
561.78	59295.13
561.94	59166.40
562.11	58955.75
562.27	58951.07
562.44	59264.70
562.60	59517.48
562.77	59852.18
562.93	59838.14
563.10	59281.09
563.26	59091.51
563.42	59351.30
563.59	59100.87
563.75	58897.24
563.92	59119.59
564.08	58836.39
564.24	59285.77
564.41	59157.04
564.57	59068.10
564.74	58925.33
564.90	59032.99
565.07	58824.68
565.23	58513.39
565.39	58064.01
565.56	57855.70
565.72	57631.01
565.88	58003.16
566.05	57993.79
566.21	58279.34
566.38	58239.55
566.54	58384.66
566.70	58740.42
566.87	59140.66
567.03	58904.26
567.19	59180.45
567.36	58946.39
567.52	58681.91
567.68	58464.24
567.85	57897.83
568.01	57787.83
568.17	57219.08
568.34	57319.72
568.50	57357.17
568.66	57425.04
568.83	57764.42
568.99	57820.59
569.15	58108.48
569.32	58157.63
569.48	57640.37
569.64	57453.13
569.81	57251.84
569.97	57155.88
570.13	57420.36
570.30	56907.79
570.46	56442.02
570.62	55714.11
570.78	56004.34
570.95	56170.52
571.11	56640.96
571.27	56816.50
571.43	56989.70
571.60	57558.45
571.76	57726.97
571.92	57710.59
572.09	58017.20
572.25	58012.52
572.41	57733.99
572.57	57991.45
572.74	57556.11
572.90	57284.61
573.06	57499.94
573.22	57322.06
573.38	57471.85
573.55	57310.36
573.71	57570.16
573.87	57329.08
574.03	57333.76
574.20	57265.89
574.36	57073.96
574.52	57120.77
574.68	56755.65
574.84	56128.39
575.01	56016.04
575.17	56025.40
575.33	56446.70
575.49	56397.55
575.65	56596.49
575.82	56556.70
575.98	56212.65
576.14	56512.23
576.30	56545.00
576.46	56655.01
576.62	56664.37
576.79	56676.07
576.95	56655.01
577.11	56435.00
577.27	56521.60
577.43	56481.81
577.59	56123.71
577.75	55707.09
577.92	55360.69
578.08	54897.27
578.24	55009.61
578.40	55669.64
578.56	55510.49
578.72	55648.58
578.88	55753.90
579.04	55945.83
579.21	55980.93
579.37	55833.48
579.53	56163.50
579.69	55913.06
579.85	56350.74
580.01	56250.09
580.17	55543.25
580.33	55569.00
580.49	55702.41
580.65	55796.03
580.82	56072.21
580.98	55983.27
581.14	55973.91
581.30	56037.11
581.46	55978.59
581.62	56278.18
581.78	56055.83
581.94	56151.79
582.10	56104.98
582.26	56259.46
582.42	56114.34
582.58	56343.72
582.74	56196.26
582.90	56224.35
583.06	56130.73
583.22	56126.05
583.38	55852.20
583.54	55999.66
583.70	55861.57
583.86	56322.65
584.02	55664.96
584.18	55959.87
584.34	55917.74
584.50	55723.47
584.66	55679.00
584.82	55498.78
584.98	55281.11
585.14	54995.57
