SpectraSuite Data File
++++++++++++++++++++++++++++++++++++
Date: Mon Oct 07 14:54:54 GMT-05:00 2013
User: price-jones
Dark Spectrum Present: No
Reference Spectrum Present: No
Number of Sampled Component Spectra: 1
Spectrometers: USB2+H05261
Integration Time (usec): 10000 (USB2+H05261)
Spectra Averaged: 1 (USB2+H05261)
Boxcar Smoothing: 0 (USB2+H05261)
Correct for Electrical Dark: No (USB2+H05261)
Strobe/Lamp Enabled: No (USB2+H05261)
Correct for Detector Non-linearity: No (USB2+H05261)
Correct for Stray Light: No (USB2+H05261)
Number of Pixels in Processed Spectrum: 2048
>>>>>Begin Processed Spectral Data<<<<<
365.73	0.00
365.92	0.00
366.12	0.00
366.32	0.00
366.52	0.00
366.72	0.00
366.91	0.00
367.11	0.00
367.31	0.00
367.51	0.00
367.70	0.00
367.90	0.00
368.10	0.00
368.30	0.00
368.49	0.00
368.69	0.00
368.89	0.00
369.09	0.00
369.28	0.00
369.48	0.00
369.68	0.00
369.87	0.00
370.07	0.00
370.27	0.00
370.47	0.00
370.66	0.00
370.86	0.00
371.06	4.68
371.25	0.00
371.45	0.00
371.65	0.00
371.84	0.00
372.04	0.00
372.24	16.38
372.44	58.51
372.63	49.15
372.83	0.00
373.03	0.00
373.22	0.00
373.42	0.00
373.62	60.85
373.81	2.34
374.01	0.00
374.21	14.04
374.40	30.43
374.60	21.06
374.79	49.15
374.99	88.94
375.19	117.03
375.38	95.96
375.58	77.24
375.78	81.92
375.97	32.77
376.17	86.60
376.37	21.06
376.56	119.37
376.76	112.35
376.95	135.75
377.15	208.31
377.35	257.46
377.54	110.01
377.74	222.35
377.93	189.58
378.13	205.97
378.33	163.84
378.52	107.66
378.72	112.35
378.91	117.03
379.11	170.86
379.31	70.22
379.50	60.85
379.70	98.30
379.89	117.03
380.09	173.20
380.28	168.52
380.48	224.69
380.68	163.84
380.87	177.88
381.07	154.48
381.26	138.09
381.46	86.60
381.65	16.38
381.85	138.09
382.04	28.09
382.24	0.00
382.43	0.00
382.63	30.43
382.83	9.36
383.02	49.15
383.22	58.51
383.41	56.17
383.61	107.66
383.80	67.88
384.00	152.13
384.19	128.73
384.39	220.01
384.58	184.90
384.78	177.88
384.97	133.41
385.17	112.35
385.36	107.66
385.56	86.60
385.75	117.03
385.95	145.11
386.14	159.16
386.34	131.07
386.53	217.67
386.72	145.11
386.92	128.73
387.11	229.37
387.31	210.65
387.50	147.45
387.70	252.78
387.89	126.39
388.09	168.52
388.28	159.16
388.48	294.91
388.67	159.16
388.86	271.50
389.06	330.02
389.25	320.65
389.45	280.86
389.64	269.16
389.84	271.50
390.03	262.14
390.22	334.70
390.42	290.23
390.61	353.42
390.81	365.12
391.00	390.87
391.19	397.89
391.39	358.10
391.58	365.12
391.78	287.89
391.97	259.80
392.16	255.12
392.36	241.08
392.55	37.45
392.75	114.69
392.94	7.02
393.13	0.00
393.33	16.38
393.52	128.73
393.71	285.55
393.91	299.59
394.10	257.46
394.29	362.78
394.49	311.29
394.68	421.30
394.88	407.25
395.07	498.53
395.26	468.11
395.46	358.10
395.65	358.10
395.84	322.99
396.04	236.39
396.23	100.64
396.42	107.66
396.62	63.19
396.81	166.18
397.00	238.73
397.19	271.50
397.39	411.93
397.58	566.41
397.77	615.56
397.97	538.32
398.16	540.66
398.35	613.22
398.55	660.03
398.74	697.48
398.93	711.52
399.12	627.26
399.32	589.82
399.51	678.76
399.70	727.91
399.90	664.71
400.09	816.85
400.28	716.20
400.47	732.59
400.67	812.17
400.86	695.14
401.05	795.78
401.24	809.83
401.44	779.40
401.63	711.52
401.82	833.23
402.01	863.66
402.21	844.93
402.40	807.48
402.59	842.59
402.78	844.93
402.97	788.76
403.17	826.21
403.36	863.66
403.55	875.36
403.74	898.77
403.93	795.78
404.13	734.93
404.32	723.23
404.51	765.36
404.70	882.38
404.89	807.48
405.09	826.21
405.28	873.02
405.47	765.36
405.66	758.33
405.85	763.01
406.05	751.31
406.24	711.52
406.43	798.12
406.62	791.10
406.81	870.68
407.00	814.51
407.20	716.20
407.39	791.10
407.58	723.23
407.77	851.96
407.96	931.53
408.15	908.13
408.34	880.04
408.54	976.00
408.73	990.05
408.92	945.58
409.11	924.51
409.30	901.11
409.49	706.84
409.68	709.18
409.87	725.57
410.07	718.54
410.26	896.43
410.45	905.79
410.64	978.34
410.83	1029.84
411.02	1022.81
411.21	1069.62
411.40	959.62
411.59	1069.62
411.78	1046.22
411.98	957.28
412.17	922.17
412.36	973.66
412.55	973.66
412.74	1015.79
412.93	990.05
413.12	917.49
413.31	1151.54
413.50	1090.69
413.69	1097.71
413.88	1057.92
414.07	1013.45
414.26	1043.88
414.45	1097.71
414.64	1114.10
414.83	1149.20
415.02	1043.88
415.22	1036.86
415.41	1132.82
415.60	1118.78
415.79	1205.38
415.98	1153.88
416.17	1287.29
416.36	1252.19
416.55	1186.65
416.74	990.05
416.93	1174.95
417.12	1116.44
417.31	1174.95
417.50	1181.97
417.69	1123.46
417.88	1041.54
418.07	1060.26
418.26	1111.75
418.45	1102.39
418.64	1177.29
418.83	1224.10
419.02	1266.23
419.21	1238.14
419.39	1048.56
419.58	1086.01
419.77	1043.88
419.96	1165.59
420.15	1191.33
420.34	1210.06
420.53	1284.95
420.72	1179.63
420.91	1224.10
421.10	1256.87
421.29	1247.51
421.48	1158.57
421.67	1224.10
421.86	1235.80
422.05	1121.12
422.24	1053.24
422.43	1053.24
422.61	1128.14
422.80	1144.52
422.99	1263.89
423.18	1163.25
423.37	1135.16
423.56	1174.95
423.75	1118.78
423.94	1184.31
424.13	1137.50
424.32	1116.44
424.50	1090.69
424.69	1125.80
424.88	1139.84
425.07	1060.26
425.26	1083.67
425.45	1144.52
425.64	1048.56
425.83	1172.61
426.01	1207.72
426.20	1132.82
426.39	1200.69
426.58	1107.07
426.77	994.73
426.96	947.92
427.15	985.37
427.33	1022.81
427.52	1121.12
427.71	1156.22
427.90	1064.94
428.09	1095.37
428.28	1137.50
428.46	1027.50
428.65	1039.20
428.84	1088.35
429.03	1107.07
429.22	1018.13
429.40	978.34
429.59	889.40
429.78	727.91
429.97	711.52
430.16	767.70
430.34	702.16
430.53	674.07
430.72	685.78
430.91	812.17
431.10	1029.84
431.28	1193.67
431.47	1369.21
431.66	1359.85
431.85	1313.04
432.03	1165.59
432.22	1081.33
432.41	1210.06
432.60	1355.17
432.79	1338.79
432.97	1341.13
433.16	1350.49
433.35	1256.87
433.54	1053.24
433.72	1004.09
433.91	1060.26
434.10	1153.88
434.28	1228.78
434.47	1313.04
434.66	1249.85
434.85	1228.78
435.03	1324.74
435.22	1296.66
435.41	1362.19
435.59	1308.36
435.78	1392.62
435.97	1343.47
436.16	1397.30
436.34	1441.77
436.53	1406.66
436.72	1345.81
436.90	1284.95
437.09	1390.28
437.28	1270.91
437.46	1221.76
437.65	1231.12
437.84	1261.55
438.02	1107.07
438.21	1050.90
438.40	1186.65
438.58	1329.42
438.77	1275.59
438.96	1301.34
439.14	1343.47
439.33	1387.94
439.52	1404.32
439.70	1425.39
439.89	1362.19
440.08	1373.89
440.26	1345.81
440.45	1303.68
440.63	1523.69
440.82	1558.80
441.01	1479.22
441.19	1432.41
441.38	1530.71
441.57	1493.26
441.75	1741.36
441.94	1685.19
442.12	1661.78
442.31	1717.95
442.50	1558.80
442.68	1626.67
442.87	1600.93
443.05	1511.99
443.24	1640.72
443.43	1619.65
443.61	1659.44
443.80	1678.16
443.98	1551.78
444.17	1502.62
444.35	1729.66
444.54	1809.23
444.73	1621.99
444.91	1647.74
445.10	1563.48
445.28	1439.43
445.47	1441.77
445.65	1526.03
445.84	1556.46
446.02	1619.65
446.21	1556.46
446.39	1507.30
446.58	1675.82
446.77	1596.25
446.95	1521.35
447.14	1757.74
447.32	1762.42
447.51	1732.00
447.69	1570.50
447.88	1593.90
448.06	1596.25
448.25	1687.53
448.43	1685.19
448.62	1614.97
448.80	1593.90
448.99	1598.59
449.17	1678.16
449.36	1694.55
449.54	1685.19
449.73	1778.81
449.91	1778.81
450.10	1872.43
450.28	1909.88
450.46	1902.86
450.65	1895.83
450.83	1816.26
451.02	1832.64
451.20	1750.72
451.39	1678.16
451.57	1715.61
451.76	1769.44
451.94	1668.80
452.13	1687.53
452.31	1528.37
452.49	1472.20
452.68	1593.90
452.86	1490.92
453.05	1657.10
453.23	1713.27
453.42	1673.48
453.60	1732.00
453.78	1785.83
453.97	1792.85
454.15	1739.02
454.34	1654.76
454.52	1792.85
454.70	1610.29
454.89	1764.76
455.07	1706.25
455.26	1750.72
455.44	1832.64
455.62	1813.92
455.81	1827.96
455.99	1804.55
456.17	1802.21
456.36	1778.81
456.54	1853.70
456.73	1767.10
456.91	1867.75
457.09	1858.39
457.28	1956.69
457.46	1837.32
457.64	1781.15
457.83	1778.81
458.01	1760.08
458.19	1687.53
458.38	1788.17
458.56	1764.76
458.74	1806.89
458.93	1830.30
459.11	1727.32
459.29	1703.91
459.48	1708.59
459.66	1727.32
459.84	1865.41
460.03	1710.93
460.21	1720.29
460.39	1928.60
460.57	1781.15
460.76	1802.21
460.94	1748.38
461.12	1827.96
461.31	1774.13
461.49	1696.89
461.67	1799.87
461.85	1879.45
462.04	1893.49
462.22	1944.99
462.40	1996.48
462.59	1905.20
462.77	1860.73
462.95	1870.09
463.13	1952.01
463.32	1778.81
463.50	1846.68
463.68	1797.53
463.86	1849.02
464.05	1806.89
464.23	1811.57
464.41	1846.68
464.59	1710.93
464.78	1739.02
464.96	1767.10
465.14	1708.59
465.32	1884.13
465.50	1879.45
465.69	1799.87
465.87	1937.96
466.05	1830.30
466.23	1778.81
466.41	1767.10
466.60	1675.82
466.78	1715.61
466.96	1809.23
467.14	1774.13
467.32	1963.71
467.51	1778.81
467.69	1750.72
467.87	1816.26
468.05	1832.64
468.23	1680.50
468.41	1818.60
468.60	1816.26
468.78	1839.66
468.96	1839.66
469.14	1788.17
469.32	1947.33
469.50	1849.02
469.69	1722.63
469.87	1785.83
470.05	1675.82
470.23	1732.00
470.41	1746.04
470.59	1811.57
470.77	1790.51
470.95	1851.36
471.14	1844.34
471.32	1867.75
471.50	2003.50
471.68	2022.22
471.86	2047.97
472.04	1984.77
472.22	2005.84
472.40	1959.03
472.58	1926.26
472.77	1774.13
472.95	1914.56
473.13	1949.67
473.31	1956.69
473.49	1874.77
473.67	1895.83
473.85	1954.35
474.03	1952.01
474.21	1921.58
474.39	2066.69
474.57	2059.67
474.75	2019.88
474.93	1982.43
475.12	1877.11
475.30	1926.26
475.48	2040.95
475.66	2024.56
475.84	1977.75
476.02	1891.15
476.20	1863.07
476.38	1944.99
476.56	1980.09
476.74	2071.37
476.92	2169.68
477.10	2160.31
477.28	2200.10
477.46	2181.38
477.64	2080.74
477.82	2272.66
478.00	2080.74
478.18	2150.95
478.36	2186.06
478.54	2244.57
478.72	2237.55
478.90	2244.57
479.08	2338.20
479.26	2363.94
479.44	2431.82
479.62	2272.66
479.80	2232.87
479.98	2363.94
480.16	2282.02
480.34	2317.13
480.52	2326.49
480.70	2345.22
480.88	2373.30
481.06	2333.51
481.24	2370.96
481.41	2520.76
481.59	2476.29
481.77	2607.36
481.95	2502.03
482.13	2469.27
482.31	2459.90
482.49	2520.76
482.67	2464.58
482.85	2520.76
483.03	2483.31
483.21	2546.50
483.39	2616.72
483.57	2504.37
483.74	2567.57
483.92	2593.31
484.10	2483.31
484.28	2581.61
484.46	2593.31
484.64	2544.16
484.82	2593.31
485.00	2569.91
485.18	2448.20
485.35	2450.54
485.53	2333.51
485.71	2054.99
485.89	1914.56
486.07	1933.28
486.25	2251.60
486.43	2392.03
486.61	2406.07
486.78	2455.22
486.96	2480.97
487.14	2511.39
487.32	2607.36
487.50	2796.94
487.68	2855.45
487.85	2794.60
488.03	2981.84
488.21	2853.11
488.39	2867.16
488.57	2593.31
488.75	2614.38
488.92	2754.81
489.10	2946.73
489.28	3040.36
489.46	3164.40
489.64	3042.70
489.81	3122.27
489.99	3194.83
490.17	3033.33
490.35	3194.83
490.53	3136.32
490.70	3096.53
490.88	3012.27
491.06	3087.17
491.24	3096.53
491.41	3014.61
491.59	2766.51
491.77	2782.90
491.95	2708.00
492.13	3040.36
492.30	3131.64
492.48	3155.04
492.66	3400.80
492.84	3213.56
493.01	3054.40
493.19	3124.62
493.37	3096.53
493.54	3197.17
493.72	3178.45
493.90	3258.03
494.08	3222.92
494.25	3536.55
494.43	3517.83
494.61	3410.16
494.79	3492.08
494.96	3410.16
495.14	3351.65
495.32	3356.33
495.49	3162.06
495.67	3283.77
495.85	3510.80
496.02	3506.12
496.20	3529.53
496.38	3442.93
496.55	3454.63
496.73	3403.14
496.91	3466.33
497.09	3595.06
497.26	3726.13
497.44	3646.55
497.62	3421.86
497.79	3396.12
497.97	3068.44
498.14	3227.60
498.32	3281.43
498.50	3410.16
498.67	3552.93
498.85	3641.87
499.03	3660.60
499.20	3520.17
499.38	3674.64
499.56	3609.11
499.73	3559.95
499.91	3494.42
500.08	3449.95
500.26	3248.66
500.44	3372.71
500.61	3531.87
500.79	3353.99
500.97	3386.76
501.14	3398.46
501.32	3349.31
501.49	3480.38
501.67	3384.41
501.84	3489.74
502.02	3435.91
502.20	3440.59
502.37	3562.30
502.55	3410.16
502.72	3581.02
502.90	3679.32
503.07	3543.57
503.25	3557.61
503.43	3485.06
503.60	3375.05
503.78	3253.34
503.95	3428.88
504.13	3679.32
504.30	3620.81
504.48	3604.42
504.65	3538.89
504.83	3660.60
505.01	3623.15
505.18	3627.83
505.36	3770.60
505.53	3920.40
505.71	3824.44
505.88	3822.09
506.06	3852.52
506.23	3644.21
506.41	3602.08
506.58	3590.38
506.76	3679.32
506.93	3564.64
507.11	3559.95
507.28	3639.53
507.46	3520.17
507.63	3566.98
507.81	3494.42
507.98	3468.67
508.16	3735.50
508.33	3765.92
508.50	3712.09
508.68	3712.09
508.85	3925.08
509.03	3969.55
509.20	3864.22
509.38	3655.92
509.55	3644.21
509.73	3536.55
509.90	3857.20
510.08	3730.81
510.25	3637.19
510.42	3653.58
510.60	3618.47
510.77	3625.49
510.95	3803.37
511.12	3805.71
511.30	3950.82
511.47	3782.31
511.64	3777.62
511.82	3803.37
511.99	3691.02
512.17	3672.30
512.34	3613.79
512.51	3566.98
512.69	3611.45
512.86	3681.66
513.04	3555.27
513.21	3779.97
513.38	3648.90
513.56	3426.54
513.73	3468.67
513.90	3426.54
514.08	3478.04
514.25	3606.77
514.43	3779.97
514.60	3613.79
514.77	3665.28
514.95	3754.22
515.12	3531.87
515.29	3705.07
515.47	3751.88
515.64	3840.82
515.81	3698.05
515.99	3595.06
516.16	3393.78
516.33	3225.26
516.51	2965.46
516.68	2925.67
516.85	2974.82
517.03	2911.63
517.20	3211.22
517.37	3424.20
517.54	3529.53
517.72	3459.31
517.89	3279.09
518.06	2918.65
518.24	3042.70
518.41	3133.98
518.58	3438.25
518.75	3461.65
518.93	3424.20
519.10	3506.12
519.27	3431.23
519.45	3637.19
519.62	3487.40
519.79	3662.94
519.96	3747.20
520.14	3485.06
520.31	3440.59
520.48	3494.42
520.65	3419.52
520.83	3655.92
521.00	3801.03
521.17	3618.47
521.34	3501.44
521.52	3611.45
521.69	3742.52
521.86	3782.31
522.03	3824.44
522.20	3534.21
522.38	3314.20
522.55	3288.45
522.72	3595.06
522.89	3503.78
523.07	3585.70
523.24	3590.38
523.41	3784.65
523.58	3648.90
523.75	3691.02
523.92	3676.98
524.10	3749.54
524.27	3735.50
524.44	3843.16
524.61	3681.66
524.78	3705.07
524.96	3700.39
525.13	3789.33
525.30	3777.62
525.47	3733.15
525.64	3861.88
525.81	3838.48
525.98	3562.30
526.16	3396.12
526.33	3316.54
526.50	3143.34
526.67	3126.96
526.84	3206.53
527.01	3311.86
527.18	3332.92
527.36	3515.48
527.53	3716.77
527.70	3831.46
527.87	3588.04
528.04	3653.58
528.21	3674.64
528.38	3749.54
528.55	3864.22
528.72	3992.95
528.89	3880.61
529.07	3887.63
529.24	3688.68
529.41	3648.90
529.58	3557.61
529.75	3552.93
529.92	3602.08
530.09	3681.66
530.26	3707.41
530.43	3707.41
530.60	3838.48
530.77	3899.33
530.94	3857.20
531.11	3688.68
531.28	3705.07
531.46	3782.31
531.63	3545.91
531.80	3721.45
531.97	3592.72
532.14	3623.15
532.31	3368.03
532.48	3361.01
532.65	3297.81
532.82	3398.46
532.99	3501.44
533.16	3595.06
533.33	3595.06
533.50	3674.64
533.67	3531.87
533.84	3482.72
534.01	3550.59
534.18	3538.89
534.35	3363.35
534.52	3637.19
534.69	3763.58
534.86	3588.04
535.03	3644.21
535.20	3756.56
535.37	3669.96
535.54	3648.90
535.71	3838.48
535.88	3562.30
536.05	3618.47
536.22	3452.29
536.38	3295.47
536.55	3445.27
536.72	3372.71
536.89	3461.65
537.06	3487.40
537.23	3660.60
537.40	3634.85
537.57	3517.83
537.74	3604.42
537.91	3449.95
538.08	3604.42
538.25	3566.98
538.42	3721.45
538.59	3623.15
538.75	3492.08
538.92	3503.78
539.09	3520.17
539.26	3321.22
539.43	3440.59
539.60	3403.14
539.77	3410.16
539.94	3382.07
540.11	3375.05
540.28	3243.98
540.44	3318.88
540.61	3246.32
540.78	3370.37
540.95	3403.14
541.12	3361.01
541.29	3489.74
541.46	3461.65
541.62	3475.70
541.79	3585.70
541.96	3351.65
542.13	3480.38
542.30	3590.38
542.47	3548.25
542.63	3562.30
542.80	3386.76
542.97	3407.82
543.14	3328.24
543.31	3431.23
543.48	3463.99
543.64	3578.68
543.81	3646.55
543.98	3744.86
544.15	3552.93
544.32	3461.65
544.48	3492.08
544.65	3454.63
544.82	3550.59
544.99	3517.83
545.16	3433.57
545.32	3503.78
545.49	3662.94
545.66	3557.61
545.83	3637.19
546.00	3468.67
546.16	3363.35
546.33	3426.54
546.50	3557.61
546.67	3536.55
546.83	3400.80
547.00	3375.05
547.17	3417.18
547.34	3152.70
547.50	3344.63
547.67	3358.67
547.84	3346.97
548.00	3421.86
548.17	3475.70
548.34	3361.01
548.51	3403.14
548.67	3445.27
548.84	3403.14
549.01	3489.74
549.18	3454.63
549.34	3419.52
549.51	3325.90
549.68	3211.22
549.84	3283.77
550.01	3365.69
550.18	3349.31
550.34	3255.69
550.51	3363.35
550.68	3311.86
550.84	3309.52
551.01	3173.77
551.18	3332.92
551.34	3304.84
551.51	3365.69
551.68	3297.81
551.84	3424.20
552.01	3440.59
552.18	3337.60
552.34	3232.28
552.51	3185.47
552.68	3208.87
552.84	3281.43
553.01	3328.24
553.18	3169.09
553.34	3321.22
553.51	3335.26
553.67	3281.43
553.84	3321.22
554.01	3332.92
554.17	3344.63
554.34	3403.14
554.51	3290.79
554.67	3309.52
554.84	3297.81
555.00	3208.87
555.17	3302.50
555.33	3253.34
555.50	3152.70
555.67	3325.90
555.83	3218.24
556.00	3365.69
556.16	3159.72
556.33	3307.18
556.50	3150.36
556.66	3150.36
556.83	3049.72
556.99	3122.27
557.16	3045.04
557.32	3096.53
557.49	3155.04
557.65	3178.45
557.82	3143.34
557.98	3040.36
558.15	3105.89
558.32	3000.57
558.48	2846.09
558.65	2899.92
558.81	2892.90
558.98	3026.31
559.14	3199.51
559.31	3110.57
559.47	3077.80
559.64	3103.55
559.80	3073.12
559.97	2949.08
560.13	3038.02
560.30	3075.46
560.46	3239.30
560.63	3274.41
560.79	3192.49
560.96	3164.40
561.12	2853.11
561.29	2939.71
561.45	2958.44
561.61	2977.16
561.78	3049.72
561.94	3108.23
562.11	3094.19
562.27	2991.20
562.44	3000.57
562.60	3019.29
562.77	3009.93
562.93	3094.19
563.10	3145.68
563.26	3073.12
563.42	3000.57
563.59	2909.29
563.75	3112.91
563.92	2909.29
564.08	3148.02
564.24	3108.23
564.41	3070.78
564.57	2953.76
564.74	2913.97
564.90	2881.20
565.07	2869.50
565.23	2897.58
565.39	2946.73
565.56	2913.97
565.72	2869.50
565.88	2843.75
566.05	2953.76
566.21	2913.97
566.38	2918.65
566.54	2932.69
566.70	2867.16
566.87	3005.25
567.03	2977.16
567.19	3002.91
567.36	3056.74
567.52	2782.90
567.68	2834.39
567.85	2717.36
568.01	2876.52
568.17	2888.22
568.34	2747.79
568.50	2719.70
568.66	2843.75
568.83	2864.82
568.99	2836.73
569.15	2827.37
569.32	2810.98
569.48	2771.19
569.64	2778.22
569.81	2839.07
569.97	2726.72
570.13	2691.62
570.30	2612.04
570.46	2600.34
570.62	2539.48
570.78	2502.03
570.95	2689.28
571.11	2740.77
571.27	2670.55
571.43	2761.83
571.60	2799.28
571.76	2686.94
571.92	2839.07
572.09	2703.32
572.25	2829.71
572.41	2750.13
572.57	2743.11
572.74	2822.69
572.90	2897.58
573.06	2705.66
573.22	2754.81
573.38	2740.77
573.55	2806.30
573.71	2759.49
573.87	2778.22
574.03	2729.06
574.20	2731.41
574.36	2771.19
574.52	2616.72
574.68	2548.84
574.84	2649.49
575.01	2518.42
575.17	2679.91
575.33	2544.16
575.49	2612.04
575.65	2738.43
575.82	2600.34
575.98	2679.91
576.14	2693.96
576.30	2696.30
576.46	2637.78
576.62	2745.45
576.79	2710.34
576.95	2703.32
577.11	2569.91
577.27	2630.76
577.43	2576.93
577.59	2640.12
577.75	2602.68
577.92	2499.69
578.08	2448.20
578.24	2684.59
578.40	2520.76
578.56	2544.16
578.72	2495.01
578.88	2377.98
579.04	2579.27
579.21	2544.16
579.37	2558.21
579.53	2581.61
579.69	2476.29
579.85	2597.99
580.01	2553.52
580.17	2560.55
580.33	2562.89
580.49	2581.61
580.65	2583.95
580.82	2670.55
580.98	2644.81
581.14	2574.59
581.30	2623.74
581.46	2736.09
581.62	2715.02
581.78	2569.91
581.94	2619.06
582.10	2509.05
582.26	2677.57
582.42	2560.55
582.58	2670.55
582.74	2518.42
582.90	2567.57
583.06	2537.14
583.22	2619.06
583.38	2602.68
583.54	2537.14
583.70	2562.89
583.86	2708.00
584.02	2567.57
584.18	2544.16
584.34	2506.71
584.50	2544.16
584.66	2567.57
584.82	2534.80
584.98	2504.37
585.14	2368.62
585.30	2373.30
585.46	2361.60
585.62	2363.94
585.78	2396.71
585.94	2464.58
586.10	2438.84
586.26	2448.20
586.42	2476.29
586.58	2462.24
586.74	2471.61
586.90	2448.20
587.06	2565.23
587.22	2380.32
587.38	2480.97
587.54	2340.54
587.70	2370.96
587.86	2335.85
588.02	2466.92
588.18	2377.98
588.34	2356.92
588.49	2066.69
588.65	2026.90
588.81	1907.54
588.97	1968.39
589.13	1973.07
589.29	2026.90
589.45	1980.09
589.61	2172.02
589.77	2186.06
589.93	2387.35
590.08	2310.11
590.24	2253.94
590.40	2303.09
590.56	2275.00
590.72	2221.17
590.88	2401.39
591.04	2230.53
591.20	2307.77
591.35	2246.91
591.51	2279.68
591.67	2305.43
591.83	2148.61
591.99	2279.68
592.15	2211.81
592.31	2289.04
592.46	2284.36
592.62	2244.57
592.78	2242.23
592.94	2237.55
593.10	2214.15
593.26	2249.25
593.41	2335.85
593.57	2211.81
593.73	2267.98
593.89	2207.13
594.05	2090.10
594.20	2148.61
594.36	2193.08
594.52	2071.37
594.68	2139.25
594.84	2050.31
594.99	2148.61
595.15	2235.21
595.31	2183.72
595.47	2122.87
595.62	2186.06
595.78	2204.78
595.94	2104.14
596.10	2232.87
596.25	2249.25
596.41	2235.21
596.57	2094.78
596.73	2267.98
596.88	2186.06
597.04	2232.87
597.20	2263.30
597.36	2153.29
597.51	2134.57
597.67	2223.51
597.83	2200.10
597.99	2120.53
598.14	2085.42
598.30	2017.54
598.46	2134.57
598.61	2111.16
598.77	2092.44
598.93	2214.15
599.09	2160.31
599.24	2099.46
599.40	2157.97
599.56	2179.04
