SpectraSuite Data File
++++++++++++++++++++++++++++++++++++
Date: Mon Oct 07 14:53:19 GMT-05:00 2013
User: price-jones
Dark Spectrum Present: No
Reference Spectrum Present: No
Number of Sampled Component Spectra: 1
Spectrometers: USB2+H05261
Integration Time (usec): 100000 (USB2+H05261)
Spectra Averaged: 1 (USB2+H05261)
Boxcar Smoothing: 0 (USB2+H05261)
Correct for Electrical Dark: No (USB2+H05261)
Strobe/Lamp Enabled: No (USB2+H05261)
Correct for Detector Non-linearity: No (USB2+H05261)
Correct for Stray Light: No (USB2+H05261)
Number of Pixels in Processed Spectrum: 2048
>>>>>Begin Processed Spectral Data<<<<<
365.73	0.00
365.92	0.00
366.12	0.00
366.32	0.00
366.52	0.00
366.72	0.00
366.91	0.00
367.11	0.00
367.31	0.00
367.51	0.00
367.70	0.00
367.90	0.00
368.10	0.00
368.30	0.00
368.49	0.00
368.69	0.00
368.89	0.00
369.09	0.00
369.28	0.00
369.48	0.00
369.68	0.00
369.87	0.00
370.07	0.00
370.27	0.00
370.47	1259.21
370.66	5526.00
370.86	6310.08
371.06	6619.04
371.25	6817.98
371.45	6069.01
371.65	5444.09
371.84	5135.14
372.04	5460.47
372.24	5975.39
372.44	6249.23
372.63	6047.94
372.83	5640.69
373.03	5060.24
373.22	4685.75
373.42	5085.98
373.62	5785.80
373.81	6263.27
374.01	5980.07
374.21	5359.83
374.40	5069.60
374.60	5509.62
374.79	6218.80
374.99	7035.65
375.19	7414.82
375.38	7449.93
375.58	7054.37
375.78	6888.20
375.97	6958.41
376.17	7143.32
376.37	7302.47
376.56	7588.02
376.76	8032.72
376.95	8344.01
377.15	8631.90
377.35	9233.41
377.54	9554.07
377.74	10010.47
377.93	9987.07
378.13	9488.53
378.33	9050.85
378.52	8339.33
378.72	8013.99
378.91	7988.25
379.11	7871.22
379.31	7318.86
379.50	7424.18
379.70	8056.12
379.89	8762.97
380.09	9350.44
380.28	9745.99
380.48	9633.64
380.68	9406.61
380.87	9097.66
381.07	8418.91
381.26	7768.24
381.46	7351.62
381.65	7096.50
381.85	6822.66
382.04	6509.03
382.24	6031.56
382.43	5781.12
382.63	5713.25
382.83	5731.97
383.02	5708.57
383.22	5624.31
383.41	5731.97
383.61	6246.89
383.80	7150.34
384.00	7988.25
384.19	8938.51
384.39	9270.86
384.58	9479.17
384.78	9170.22
384.97	8816.80
385.17	8526.57
385.36	8100.59
385.56	7866.54
385.75	8058.46
385.95	8751.26
386.14	9600.88
386.34	9448.74
386.53	9039.15
386.72	8606.15
386.92	8685.73
387.11	9060.21
387.31	9476.83
387.50	9427.68
387.70	9146.81
387.89	8957.23
388.09	8887.01
388.28	9156.18
388.48	9362.14
388.67	9783.44
388.86	10836.68
389.06	11644.17
389.25	12444.63
389.45	12262.07
389.64	11997.59
389.84	12060.78
390.03	11793.96
390.22	12013.97
390.42	12439.95
390.61	13111.68
390.81	14097.05
391.00	14087.68
391.19	14040.87
391.39	13727.24
391.58	12987.63
391.78	12016.31
391.97	11658.21
392.16	10637.73
392.36	9745.99
392.55	7681.64
392.75	6279.66
392.94	5093.01
393.13	5144.50
393.33	6235.19
393.52	7901.65
393.71	9650.03
393.91	10860.09
394.10	11892.26
394.29	12961.89
394.49	13696.82
394.68	14890.49
394.88	14523.02
395.07	15248.59
395.26	15140.93
395.46	14452.81
395.65	13722.56
395.84	11960.14
396.04	10111.11
396.23	8091.23
396.42	6949.05
396.62	6949.05
396.81	7751.85
397.00	10164.95
397.19	12762.94
397.39	15250.93
397.58	16952.50
397.77	17249.75
397.97	18307.67
398.16	18726.63
398.35	19379.64
398.55	19957.75
398.74	20739.49
398.93	20908.01
399.12	20390.75
399.32	19885.19
399.51	20751.19
399.70	21874.65
399.90	21401.86
400.09	21474.42
400.28	21200.57
400.47	21708.47
400.67	22321.69
400.86	22700.86
401.05	23028.53
401.24	22946.61
401.44	23393.65
401.63	23424.08
401.82	23800.91
402.01	23555.15
402.21	23974.11
402.40	23819.63
402.59	23248.54
402.78	21727.19
402.97	21673.36
403.17	22345.09
403.36	23718.99
403.55	24718.40
403.74	24877.55
403.93	23520.04
404.13	21991.67
404.32	21539.95
404.51	22684.47
404.70	24217.52
404.89	24053.69
405.09	23688.56
405.28	22761.71
405.47	23232.16
405.66	23087.04
405.85	22314.67
406.05	21734.21
406.24	22560.42
406.43	23094.07
406.62	24315.83
406.81	24051.34
407.00	23159.60
407.20	22796.82
407.39	22986.40
407.58	23800.91
407.77	24819.04
407.96	25734.19
408.15	25930.80
408.34	26181.23
408.54	27332.78
408.73	27295.33
408.92	26749.98
409.11	26132.08
409.30	24961.81
409.49	23136.20
409.68	21771.66
409.87	21048.44
410.07	22747.67
410.26	23948.36
410.45	25907.39
410.64	26237.41
410.83	27395.97
411.02	28161.33
411.21	29010.94
411.40	28552.20
411.59	28910.30
411.78	28198.77
411.98	28109.83
412.17	28657.52
412.36	27934.29
412.55	28423.47
412.74	27520.02
412.93	26934.88
413.12	27398.31
413.31	29752.89
413.50	29909.71
413.69	30153.12
413.88	29186.48
414.07	28587.30
414.26	28863.49
414.45	30003.33
414.64	30106.31
414.83	30040.78
415.02	29439.26
415.22	29528.20
415.41	30253.76
415.60	30775.70
415.79	32168.32
415.98	32947.72
416.17	33139.65
416.36	32208.11
416.55	31512.97
416.74	30672.72
416.93	29633.52
417.12	29322.23
417.31	30448.03
417.50	30536.97
417.69	31791.50
417.88	31637.02
418.07	31068.27
418.26	30607.19
418.45	31075.29
418.64	32231.52
418.83	33151.35
419.02	32804.95
419.21	32481.95
419.39	31269.56
419.58	29755.23
419.77	29895.66
419.96	30911.46
420.15	32889.21
420.34	33696.69
420.53	34696.10
420.72	35063.57
420.91	34824.83
421.10	34422.26
421.29	34586.10
421.48	33280.08
421.67	34511.20
421.86	33425.19
422.05	31445.10
422.24	28196.43
422.43	28091.11
422.61	30906.77
422.80	33303.48
422.99	33804.36
423.18	32385.99
423.37	31840.65
423.56	31943.63
423.75	32283.01
423.94	33029.64
424.13	31409.99
424.32	31342.11
424.50	31747.03
424.69	31197.00
424.88	31239.13
425.07	31543.40
425.26	31307.01
425.45	31016.78
425.64	29942.47
425.83	30312.28
426.01	31707.24
426.20	32704.31
426.39	32414.08
426.58	30361.43
426.77	27938.97
426.96	27297.67
427.15	28126.22
427.33	30766.34
427.52	31480.21
427.71	31255.51
427.90	31442.76
428.09	31133.81
428.28	30309.94
428.46	29249.67
428.65	28978.17
428.84	29825.45
429.03	30059.50
429.22	28353.25
429.40	26738.28
429.59	24397.74
429.78	21671.02
429.97	22050.19
430.16	22155.51
430.34	22064.23
430.53	21991.67
430.72	22834.27
430.91	25120.97
431.10	29860.55
431.28	34955.90
431.47	37053.02
431.66	37411.12
431.85	34085.22
432.03	31431.05
432.22	30450.37
432.41	31309.35
432.60	34927.81
432.79	36254.90
432.97	37102.17
433.16	36093.40
433.35	33230.93
433.54	29441.60
433.72	28156.64
433.91	29359.68
434.10	32369.61
434.28	34700.78
434.47	36439.80
434.66	35402.94
434.85	34396.51
435.03	34611.84
435.22	35381.88
435.41	37673.26
435.59	37284.73
435.78	38099.24
435.97	38890.34
436.16	38731.18
436.34	38553.30
436.53	37748.16
436.72	38078.18
436.90	36011.48
437.09	35943.61
437.28	35260.17
437.46	36292.35
437.65	36439.80
437.84	33820.74
438.02	31395.95
438.21	31227.43
438.40	32744.09
438.58	35510.61
438.77	36786.20
438.96	36671.51
439.14	38518.20
439.33	38763.95
439.52	39943.58
439.70	38745.23
439.89	37972.85
440.08	36910.25
440.26	36451.50
440.45	38202.22
440.63	40641.06
440.82	42492.43
441.01	42190.50
441.19	41661.54
441.38	42368.38
441.57	43243.74
441.75	43770.36
441.94	44404.64
442.12	43849.94
442.31	44779.13
442.50	44659.76
442.68	44266.55
442.87	43540.99
443.05	42768.61
443.24	44378.90
443.43	44666.78
443.61	45280.00
443.80	45525.76
443.98	43505.88
444.17	43288.21
444.35	45343.20
444.54	45815.99
444.73	45556.19
444.91	44088.67
445.10	42258.37
445.28	41109.17
445.47	40404.67
445.65	40762.77
445.84	41984.53
446.02	43051.81
446.21	43899.09
446.39	44076.97
446.58	44044.20
446.77	45312.77
446.95	45050.63
447.14	46302.82
447.32	46969.87
447.51	45677.90
447.69	44643.38
447.88	43875.68
448.06	44657.42
448.25	45659.17
448.43	45595.98
448.62	44781.47
448.80	44629.34
448.99	45429.80
449.17	45968.12
449.36	45221.49
449.54	46997.96
449.73	47409.89
449.91	47821.83
450.10	49003.80
450.28	49361.90
450.46	49118.48
450.65	49188.70
450.83	48701.87
451.02	48079.28
451.20	47765.65
451.39	47426.28
451.57	47470.75
451.76	47997.37
451.94	47447.34
452.13	46461.97
452.31	44669.12
452.49	42780.31
452.68	43646.31
452.86	43555.03
453.05	44612.95
453.23	45228.51
453.42	46188.13
453.60	47346.70
453.78	47615.86
453.97	47187.54
454.15	47318.61
454.34	46204.52
454.52	46230.26
454.70	45436.82
454.89	46171.75
455.07	45947.06
455.26	46791.99
455.44	48041.84
455.62	48746.34
455.81	49148.91
455.99	48540.37
456.17	48196.31
456.36	48374.19
456.54	49441.48
456.73	49511.69
456.91	50071.08
457.09	50206.83
457.28	50688.98
457.46	49193.38
457.64	48573.14
457.83	48135.46
458.01	47042.43
458.19	48451.43
458.38	48470.15
458.56	49687.23
458.74	49120.82
458.93	48685.48
459.11	48442.07
459.29	48079.28
459.48	48570.80
459.66	48322.70
459.84	48954.64
460.03	49212.10
460.21	49191.04
460.39	50141.30
460.57	50066.40
460.76	50504.08
460.94	50618.77
461.12	50150.66
461.31	50543.87
461.49	50148.32
461.67	50038.31
461.85	51255.39
462.04	50726.43
462.22	51393.48
462.40	51011.98
462.59	50691.32
462.77	50927.72
462.95	51290.50
463.13	50607.06
463.32	50127.25
463.50	50143.64
463.68	50157.68
463.86	50298.11
464.05	49439.14
464.23	48734.63
464.41	48849.32
464.59	48397.60
464.78	49642.76
464.96	49944.69
465.14	49567.87
465.32	50234.92
465.50	50897.29
465.69	51208.58
465.87	50466.63
466.05	49064.65
466.23	47952.90
466.41	47547.98
466.60	48533.35
466.78	48266.53
466.96	49347.86
467.14	49932.99
467.32	49923.63
467.51	50312.16
467.69	48835.28
467.87	49448.50
468.05	49804.26
468.23	49696.59
468.41	49642.76
468.60	49801.92
468.78	50178.75
468.96	50040.65
469.14	50719.41
469.32	50464.29
469.50	49031.88
469.69	49287.00
469.87	48924.22
470.05	48266.53
470.23	48811.87
470.41	48746.34
470.59	49202.74
470.77	49434.45
470.95	50424.50
471.14	50468.97
471.32	50525.14
471.50	52711.20
471.68	52446.72
471.86	52439.70
472.04	52919.51
472.22	52900.79
472.40	51243.69
472.58	51014.32
472.77	50794.31
472.95	51391.14
473.13	52135.43
473.31	51084.53
473.49	51578.39
473.67	52301.61
473.85	52584.82
474.03	53268.25
474.21	53247.19
474.39	53315.06
474.57	53492.94
474.75	53574.86
474.93	53331.45
475.12	52624.60
475.30	52987.39
475.48	53104.41
475.66	53595.93
475.84	52807.17
476.02	52402.25
476.20	52493.54
476.38	52949.94
476.56	53504.65
476.74	54300.43
476.92	54183.40
477.10	54899.61
477.28	55248.35
477.46	55456.65
477.64	55906.04
477.82	55955.19
478.00	56135.41
478.18	55505.80
478.36	55517.51
478.54	55461.33
478.72	55983.27
478.90	56479.47
479.08	57015.45
479.26	57373.55
479.44	57080.98
479.62	57118.43
479.80	57141.84
479.98	57284.61
480.16	57422.70
480.34	57050.56
480.52	57336.10
480.70	57570.16
480.88	57394.62
481.06	58129.54
481.24	58265.30
481.41	58808.30
481.59	59388.75
481.77	59002.56
481.95	58529.78
482.13	58564.88
482.31	58791.92
482.49	59023.63
482.67	58990.86
482.85	59091.51
483.03	59475.35
483.21	59601.74
483.39	59774.94
483.57	59192.15
483.74	59187.47
483.92	59524.50
484.10	59327.90
484.28	60168.15
484.46	60107.30
484.64	60549.66
484.82	59678.98
485.00	59814.73
485.18	59157.04
485.35	58269.98
485.53	56053.49
485.71	53511.67
485.89	53326.77
486.07	54808.32
486.25	57106.73
486.43	58599.99
486.61	59007.25
486.78	58822.34
486.96	59077.46
487.14	59990.27
487.32	60580.09
487.50	61172.24
487.68	61769.08
487.85	62103.77
488.03	62017.17
488.21	61869.72
488.39	61373.53
488.57	60874.99
488.75	60783.71
488.92	61530.34
489.10	63114.89
489.28	64067.48
489.46	64650.28
489.64	64329.62
489.81	64451.33
489.99	64346.01
490.17	64282.81
490.35	64664.32
490.53	63990.25
490.70	63784.28
490.88	63854.50
491.06	64680.70
491.24	64617.51
491.41	63557.25
491.59	62611.67
491.77	62082.71
491.95	62911.26
492.13	63646.19
492.30	64809.43
492.48	65354.78
492.66	65535.00
492.84	65535.00
493.01	65476.49
493.19	65144.13
493.37	64786.03
493.54	64713.47
493.72	65307.97
493.90	65535.00
494.08	65535.00
494.25	65535.00
494.43	65535.00
494.61	65535.00
494.79	65535.00
494.96	65535.00
495.14	65535.00
495.32	65535.00
495.49	65492.87
495.67	65535.00
495.85	65535.00
496.02	65535.00
496.20	65535.00
496.38	65535.00
496.55	65535.00
496.73	65535.00
496.91	65535.00
497.09	65535.00
497.26	65535.00
497.44	65535.00
497.62	65535.00
497.79	65535.00
497.97	65535.00
498.14	65535.00
498.32	65535.00
498.50	65535.00
498.67	65535.00
498.85	65535.00
499.03	65535.00
499.20	65535.00
499.38	65535.00
499.56	65535.00
499.73	65535.00
499.91	65535.00
500.08	65535.00
500.26	65535.00
500.44	65535.00
500.61	65535.00
500.79	65535.00
500.97	65535.00
501.14	65535.00
501.32	65535.00
501.49	65535.00
501.67	65535.00
501.84	65535.00
502.02	65535.00
502.20	65535.00
502.37	65535.00
502.55	65535.00
502.72	65535.00
502.90	65535.00
503.07	65535.00
503.25	65535.00
503.43	65535.00
503.60	65535.00
503.78	65535.00
503.95	65535.00
504.13	65535.00
504.30	65535.00
504.48	65535.00
504.65	65535.00
504.83	65535.00
505.01	65535.00
505.18	65535.00
505.36	65535.00
505.53	65535.00
505.71	65535.00
505.88	65535.00
506.06	65535.00
506.23	65535.00
506.41	65535.00
506.58	65535.00
506.76	65535.00
506.93	65535.00
507.11	65535.00
507.28	65535.00
507.46	65535.00
507.63	65535.00
507.81	65535.00
507.98	65535.00
508.16	65535.00
508.33	65535.00
508.50	65535.00
508.68	65535.00
508.85	65535.00
509.03	65535.00
509.20	65535.00
509.38	65535.00
509.55	65535.00
509.73	65535.00
509.90	65535.00
510.08	65535.00
510.25	65535.00
510.42	65535.00
510.60	65535.00
510.77	65535.00
510.95	65535.00
511.12	65535.00
511.30	65535.00
511.47	65535.00
511.64	65535.00
511.82	65535.00
511.99	65535.00
512.17	65535.00
512.34	65535.00
512.51	65535.00
512.69	65535.00
512.86	65535.00
513.04	65535.00
513.21	65535.00
513.38	65535.00
513.56	65535.00
513.73	65535.00
513.90	65535.00
514.08	65535.00
514.25	65535.00
514.43	65535.00
514.60	65535.00
514.77	65535.00
514.95	65535.00
515.12	65535.00
515.29	65535.00
515.47	65535.00
515.64	65535.00
515.81	65535.00
515.99	65535.00
516.16	65535.00
516.33	65535.00
516.51	65535.00
516.68	64280.47
516.85	63737.47
517.03	64203.24
517.20	65535.00
517.37	65535.00
517.54	65535.00
517.72	65535.00
517.89	65535.00
518.06	65535.00
518.24	65233.07
518.41	65535.00
518.58	65535.00
518.75	65535.00
518.93	65535.00
519.10	65535.00
519.27	65535.00
519.45	65535.00
519.62	65535.00
519.79	65535.00
519.96	65535.00
520.14	65535.00
520.31	65535.00
520.48	65535.00
520.65	65535.00
520.83	65535.00
521.00	65535.00
521.17	65535.00
521.34	65535.00
521.52	65535.00
521.69	65535.00
521.86	65535.00
522.03	65535.00
522.20	65535.00
522.38	65535.00
522.55	65535.00
522.72	65535.00
522.89	65535.00
523.07	65535.00
523.24	65535.00
523.41	65535.00
523.58	65535.00
523.75	65535.00
523.92	65535.00
524.10	65535.00
524.27	65535.00
524.44	65535.00
524.61	65535.00
524.78	65535.00
524.96	65535.00
525.13	65535.00
525.30	65535.00
525.47	65535.00
525.64	65535.00
525.81	65535.00
525.98	65535.00
526.16	65535.00
526.33	65535.00
526.50	65535.00
526.67	65535.00
526.84	65535.00
527.01	65535.00
527.18	65535.00
527.36	65535.00
527.53	65535.00
527.70	65535.00
527.87	65535.00
528.04	65535.00
528.21	65535.00
528.38	65535.00
528.55	65535.00
528.72	65535.00
528.89	65535.00
529.07	65535.00
529.24	65535.00
529.41	65535.00
529.58	65535.00
529.75	65535.00
529.92	65535.00
530.09	65535.00
530.26	65535.00
530.43	65535.00
530.60	65535.00
530.77	65535.00
530.94	65535.00
531.11	65535.00
531.28	65535.00
531.46	65535.00
531.63	65535.00
531.80	65535.00
531.97	65535.00
532.14	65535.00
532.31	65535.00
532.48	65535.00
532.65	65535.00
532.82	65535.00
532.99	65535.00
533.16	65535.00
533.33	65535.00
533.50	65535.00
533.67	65535.00
533.84	65535.00
534.01	65535.00
534.18	65535.00
534.35	65535.00
534.52	65535.00
534.69	65535.00
534.86	65535.00
535.03	65535.00
535.20	65535.00
535.37	65535.00
535.54	65535.00
535.71	65535.00
535.88	65535.00
536.05	65535.00
536.22	65535.00
536.38	65535.00
536.55	65535.00
536.72	65535.00
536.89	65535.00
537.06	65535.00
537.23	65535.00
537.40	65535.00
537.57	65535.00
537.74	65535.00
537.91	65535.00
538.08	65535.00
538.25	65535.00
538.42	65535.00
538.59	65535.00
538.75	65535.00
538.92	65535.00
539.09	65535.00
539.26	65535.00
539.43	65535.00
539.60	65535.00
539.77	65535.00
539.94	65535.00
540.11	65535.00
540.28	65535.00
540.44	65535.00
540.61	65535.00
540.78	65535.00
540.95	65535.00
541.12	65535.00
541.29	65535.00
541.46	65535.00
541.62	65535.00
541.79	65535.00
541.96	65535.00
542.13	65535.00
542.30	65535.00
542.47	65535.00
542.63	65535.00
542.80	65535.00
542.97	65535.00
543.14	65535.00
543.31	65535.00
543.48	65535.00
543.64	65535.00
543.81	65535.00
543.98	65535.00
544.15	65535.00
544.32	65535.00
544.48	65535.00
544.65	65535.00
544.82	65535.00
544.99	65535.00
545.16	65535.00
545.32	65535.00
545.49	65535.00
545.66	65535.00
545.83	65535.00
546.00	65535.00
546.16	65535.00
546.33	65535.00
546.50	65535.00
546.67	65535.00
546.83	65535.00
547.00	65535.00
547.17	65535.00
547.34	65535.00
547.50	65535.00
547.67	65535.00
547.84	65535.00
548.00	65535.00
548.17	65535.00
548.34	65535.00
548.51	65535.00
548.67	65535.00
548.84	65535.00
549.01	65535.00
549.18	65535.00
549.34	65535.00
549.51	65535.00
549.68	65535.00
549.84	65535.00
550.01	65535.00
550.18	65535.00
550.34	65535.00
550.51	65535.00
550.68	65535.00
550.84	65535.00
551.01	65535.00
551.18	65535.00
551.34	65535.00
551.51	65535.00
551.68	65535.00
551.84	65535.00
552.01	65535.00
552.18	65535.00
552.34	65535.00
552.51	65535.00
552.68	65535.00
552.84	65535.00
553.01	65535.00
553.18	65535.00
553.34	65535.00
553.51	65535.00
553.67	65535.00
553.84	65535.00
554.01	65535.00
554.17	65535.00
554.34	65535.00
554.51	65535.00
554.67	65535.00
554.84	65535.00
555.00	65535.00
555.17	65535.00
555.33	65535.00
555.50	65535.00
555.67	65535.00
555.83	65535.00
556.00	65535.00
556.16	65535.00
556.33	65535.00
556.50	65535.00
556.66	65535.00
556.83	65535.00
556.99	65535.00
557.16	65535.00
557.32	65535.00
557.49	65535.00
557.65	65535.00
557.82	65535.00
557.98	65535.00
558.15	65535.00
558.32	65535.00
558.48	65535.00
558.65	65535.00
558.81	65535.00
558.98	65535.00
559.14	65535.00
559.31	65535.00
559.47	65535.00
559.64	65535.00
559.80	65535.00
559.97	65535.00
560.13	65535.00
560.30	65535.00
560.46	65535.00
560.63	65535.00
560.79	65535.00
560.96	65535.00
561.12	65535.00
561.29	65535.00
561.45	65535.00
561.61	65535.00
561.78	65535.00
561.94	65535.00
562.11	65535.00
562.27	65535.00
562.44	65535.00
562.60	65535.00
562.77	65535.00
562.93	65535.00
563.10	65535.00
563.26	65535.00
563.42	65535.00
563.59	65535.00
563.75	65535.00
563.92	65535.00
564.08	65535.00
564.24	65535.00
564.41	65535.00
564.57	65535.00
564.74	65535.00
564.90	65535.00
565.07	65535.00
565.23	65535.00
565.39	65535.00
565.56	65516.28
565.72	65242.43
565.88	65535.00
566.05	65535.00
566.21	65535.00
566.38	65535.00
566.54	65535.00
566.70	65535.00
566.87	65535.00
567.03	65535.00
567.19	65535.00
567.36	65535.00
567.52	65535.00
567.68	65535.00
567.85	65535.00
568.01	65322.01
568.17	65038.81
568.34	65207.32
568.50	64884.33
568.66	65050.51
568.83	65448.40
568.99	65319.67
569.15	65535.00
569.32	65535.00
569.48	65448.40
569.64	65263.50
569.81	65148.81
569.97	65045.83
570.13	64928.80
570.30	64437.29
570.46	64055.78
570.62	63805.34
570.78	63721.08
570.95	63957.48
571.11	64624.53
571.27	64626.87
571.43	64793.05
571.60	64984.97
571.76	65167.54
571.92	65499.89
572.09	65535.00
572.25	65535.00
572.41	65457.76
572.57	65310.31
572.74	65368.82
572.90	64994.34
573.06	65113.70
573.22	64999.02
573.38	64907.74
573.55	64966.25
573.71	65024.76
573.87	65057.53
574.03	64984.97
574.20	64984.97
574.36	64788.37
574.52	64523.89
574.68	64514.53
574.84	64126.00
575.01	63744.49
575.17	63838.11
575.33	64189.19
575.49	64362.39
575.65	64170.47
575.82	64149.40
575.98	63941.10
576.14	64257.07
576.30	64292.18
576.46	64444.31
576.62	64287.49
576.79	64362.39
576.95	64039.40
577.11	64065.14
577.27	63987.91
577.43	64168.13
577.59	63803.00
577.75	63554.91
577.92	63119.57
578.08	63079.78
578.24	63028.29
578.40	62941.69
578.56	63320.85
578.72	63498.73
578.88	63613.42
579.04	63889.60
579.21	63882.58
579.37	64032.38
579.53	63994.93
579.69	63842.79
579.85	63952.80
580.01	63620.44
580.17	63339.58
580.33	63372.34
580.49	63510.44
580.65	63756.19
580.82	63945.78
580.98	63728.11
581.14	63515.12
581.30	64006.63
581.46	63728.11
581.62	63894.28
581.78	64037.06
581.94	64121.32
582.10	64161.11
582.26	64023.01
582.42	64102.59
582.58	64051.10
582.74	64048.76
582.90	64102.59
583.06	63898.97
583.22	63753.85
583.38	63674.27
583.54	63742.15
583.70	63690.66
583.86	63611.08
584.02	63707.04
584.18	63814.71
584.34	63653.21
584.50	63627.46
584.66	63370.00
584.82	62990.84
