SpectraSuite Data File
++++++++++++++++++++++++++++++++++++
Date: Mon Oct 07 14:53:23 GMT-05:00 2013
User: price-jones
Dark Spectrum Present: No
Reference Spectrum Present: No
Number of Sampled Component Spectra: 1
Spectrometers: USB2+H05261
Integration Time (usec): 100000 (USB2+H05261)
Spectra Averaged: 1 (USB2+H05261)
Boxcar Smoothing: 0 (USB2+H05261)
Correct for Electrical Dark: No (USB2+H05261)
Strobe/Lamp Enabled: No (USB2+H05261)
Correct for Detector Non-linearity: No (USB2+H05261)
Correct for Stray Light: No (USB2+H05261)
Number of Pixels in Processed Spectrum: 2048
>>>>>Begin Processed Spectral Data<<<<<
365.73	0.00
365.92	0.00
366.12	0.00
366.32	0.00
366.52	0.00
366.72	0.00
366.91	0.00
367.11	0.00
367.31	0.00
367.51	0.00
367.70	0.00
367.90	0.00
368.10	0.00
368.30	0.00
368.49	0.00
368.69	0.00
368.89	0.00
369.09	0.00
369.28	0.00
369.48	0.00
369.68	0.00
369.87	0.00
370.07	0.00
370.27	0.00
370.47	606.20
370.66	2799.28
370.86	3405.48
371.06	3499.10
371.25	3698.05
371.45	3332.92
371.65	3007.59
371.84	2832.05
372.04	2981.84
372.24	3358.67
372.44	3531.87
372.63	3454.63
372.83	3293.13
373.03	2789.92
373.22	2682.25
373.42	2672.89
373.62	3169.09
373.81	3396.12
374.01	3372.71
374.21	3157.38
374.40	2841.41
374.60	3059.08
374.79	3494.42
374.99	3864.22
375.19	4278.50
375.38	4315.95
375.58	3971.89
375.78	3875.93
375.97	3922.74
376.17	3957.85
376.37	3967.21
376.56	4325.31
376.76	4505.53
376.95	4737.24
377.15	5013.43
377.35	5331.74
377.54	5650.05
377.74	5486.22
377.93	5554.09
378.13	5434.72
378.33	5226.42
378.52	4793.42
378.72	4781.71
378.91	4479.79
379.11	4442.34
379.31	4205.94
379.50	4250.41
379.70	4540.64
379.89	5046.20
380.09	5462.81
380.28	5582.18
380.48	5528.35
380.68	5369.19
380.87	5376.21
381.07	4931.51
381.26	4512.55
381.46	4292.54
381.65	4030.40
381.85	4124.02
382.04	3775.28
382.24	3632.51
382.43	3384.41
382.63	3251.00
382.83	3447.61
383.02	3300.16
383.22	3543.57
383.41	3335.26
383.61	3471.01
383.80	4093.60
384.00	4660.01
384.19	5294.29
384.39	5500.26
384.58	5385.57
384.78	5451.11
384.97	5411.32
385.17	5188.97
385.36	4887.04
385.56	4531.28
385.75	4704.48
385.95	5153.86
386.14	5624.31
386.34	5619.63
386.53	5364.51
386.72	5111.73
386.92	5158.54
387.11	5195.99
387.31	5600.90
387.50	5397.28
387.70	5327.06
387.89	5275.57
388.09	5233.44
388.28	5392.59
388.48	5366.85
388.67	5902.83
388.86	6562.86
389.06	6810.96
389.25	7283.75
389.45	7426.52
389.64	7253.32
389.84	7136.29
390.03	7119.91
390.22	7082.46
390.42	7255.66
390.61	7758.88
390.81	8329.97
391.00	8475.08
391.19	8468.06
391.39	8006.97
391.58	7644.19
391.78	7159.70
391.97	7028.63
392.16	6604.99
392.36	5959.00
392.55	4840.23
392.75	3775.28
392.94	3014.61
393.13	3016.95
393.33	3698.05
393.52	4660.01
393.71	5652.39
393.91	6668.19
394.10	7021.61
394.29	7618.44
394.49	8142.72
394.68	8704.45
394.88	8858.93
395.07	9303.63
395.26	9114.05
395.46	8798.07
395.65	8250.39
395.84	7208.85
396.04	6207.10
396.23	4877.68
396.42	4252.75
396.62	4093.60
396.81	4807.46
397.00	5959.00
397.19	7487.37
397.39	9048.51
397.58	10085.37
397.77	10738.38
397.97	11204.14
398.16	11269.68
398.35	11620.76
398.55	11784.60
398.74	12304.20
398.93	12809.75
399.12	12535.91
399.32	11953.12
399.51	12458.67
399.70	12989.97
399.90	12973.59
400.09	12849.54
400.28	12779.32
400.47	13020.40
400.67	13408.93
400.86	13816.18
401.05	13954.27
401.24	13951.93
401.44	14361.53
401.63	14228.12
401.82	14607.28
402.01	14354.51
402.21	14579.20
402.40	14476.21
402.59	14501.96
402.78	13518.93
402.97	13455.74
403.17	13502.55
403.36	14672.82
403.55	14944.32
403.74	15461.58
403.93	14483.24
404.13	13327.01
404.32	13193.60
404.51	13717.88
404.70	14883.47
404.89	15026.24
405.09	14420.04
405.28	14265.57
405.47	14218.75
405.66	14153.22
405.85	13680.43
406.05	13607.87
406.24	13891.08
406.43	14122.79
406.62	14611.96
406.81	14766.44
407.00	13998.74
407.20	14054.92
407.39	14164.92
407.58	14700.90
407.77	15356.25
407.96	15861.81
408.15	15817.34
408.34	16081.82
408.54	16723.13
408.73	16798.02
408.92	16650.57
409.11	15969.48
409.30	15410.09
409.49	14593.24
409.68	13584.47
409.87	13043.81
410.07	13657.03
410.26	15173.69
410.45	16065.44
410.64	16482.05
410.83	16739.51
411.02	17216.98
411.21	18125.11
411.40	17631.26
411.59	17886.37
411.78	17614.87
411.98	17462.74
412.17	18008.08
412.36	17317.62
412.55	17420.61
412.74	17088.25
412.93	16521.84
413.12	16823.77
413.31	18256.18
413.50	18565.13
413.69	19147.92
413.88	18244.48
414.07	17479.12
414.26	18050.21
414.45	18778.12
414.64	18618.96
414.83	18815.57
415.02	18164.90
415.22	18202.35
415.41	18778.12
415.60	19370.27
415.79	20056.05
415.98	20528.84
416.17	20327.55
416.36	19859.45
416.55	19826.68
416.74	19023.87
416.93	18377.89
417.12	18347.46
417.31	18654.07
417.50	18925.57
417.69	19786.89
417.88	19541.13
418.07	19379.64
418.26	18988.77
418.45	19445.17
418.64	20039.67
418.83	20559.27
419.02	20079.46
419.21	20381.38
419.39	19363.25
419.58	18260.86
419.77	18466.83
419.96	19648.80
420.15	20285.42
420.34	20891.62
420.53	21947.20
420.72	22111.04
420.91	22085.30
421.10	21596.12
421.29	21261.43
421.48	20713.74
421.67	21804.43
421.86	21034.39
422.05	19711.99
422.24	17535.29
422.43	17479.12
422.61	19300.06
422.80	20968.86
422.99	20812.04
423.18	20278.40
423.37	19690.93
423.56	19995.20
423.75	20339.26
423.94	20376.70
424.13	19473.26
424.32	19576.24
424.50	19782.21
424.69	19594.96
424.88	19456.87
425.07	19541.13
425.26	19417.08
425.45	19290.70
425.64	18817.91
425.83	18977.06
426.01	20180.10
426.20	20418.83
426.39	20067.75
426.58	19145.58
426.77	17476.78
426.96	16975.91
427.15	17678.07
427.33	19000.47
427.52	19983.49
427.71	19908.60
427.90	19719.01
428.09	19363.25
428.28	19271.97
428.46	18321.71
428.65	17961.27
428.84	18604.92
429.03	18937.27
429.22	17832.54
429.40	16961.86
429.59	15255.61
429.78	13652.34
429.97	13582.13
430.16	13748.31
430.34	13928.53
430.53	14108.75
430.72	14017.47
430.91	15382.00
431.10	18054.89
431.28	21495.48
431.47	23311.74
431.66	23828.99
431.85	21617.19
432.03	19988.18
432.22	18984.09
432.41	19805.61
432.60	21530.59
432.79	22885.76
432.97	23199.39
433.16	22513.61
433.35	20861.19
433.54	18775.78
433.72	17673.39
433.91	17884.03
434.10	20004.56
434.28	21509.52
434.47	22759.37
434.66	22071.25
434.85	21893.37
435.03	21619.53
435.22	22331.05
435.41	23850.06
435.59	23693.24
435.78	23990.49
435.97	24538.18
436.16	24891.60
436.34	24587.33
436.53	24086.45
436.72	24034.96
436.90	22998.10
437.09	22162.53
437.28	22263.18
437.46	23084.70
437.65	22874.06
437.84	21523.57
438.02	19704.97
438.21	19379.64
438.40	20631.82
438.58	22787.46
438.77	23293.01
438.96	23353.87
439.14	24238.59
439.33	24664.57
439.52	25006.28
439.70	24531.15
439.89	23623.03
440.08	23201.73
440.26	23328.12
440.45	24187.10
440.63	25535.24
440.82	27150.21
441.01	26843.60
441.19	25970.58
441.38	26508.91
441.57	27887.48
441.75	27878.12
441.94	28442.19
442.12	27803.22
442.31	28706.67
442.50	28594.32
442.68	28294.74
442.87	28079.41
443.05	27199.37
443.24	28231.54
443.43	28697.31
443.61	29015.62
443.80	29240.31
443.98	27805.56
444.17	27538.74
444.35	29223.93
444.54	29738.85
444.73	29724.80
444.91	28500.70
445.10	27026.17
445.28	26008.03
445.47	25582.06
445.65	25855.90
445.84	26504.23
446.02	26881.05
446.21	27882.80
446.39	27707.26
446.58	28037.28
446.77	28863.49
446.95	28643.48
447.14	29762.25
447.32	30012.69
447.51	29518.84
447.69	28858.81
447.88	28135.58
448.06	28545.17
448.25	29062.43
448.43	29411.17
448.62	28847.10
448.80	28779.23
448.99	28741.78
449.17	29390.11
449.36	29170.10
449.54	30464.41
449.73	30412.92
449.91	31302.32
450.10	31838.31
450.28	32081.72
450.46	31903.84
450.65	32280.67
450.83	31936.61
451.02	30962.95
451.20	30899.75
451.39	31122.10
451.57	30646.97
451.76	30459.73
451.94	30513.56
452.13	29975.24
452.31	28861.15
452.49	27398.31
452.68	27658.11
452.86	27821.95
453.05	28091.11
453.23	28994.56
453.42	29670.97
453.60	30101.63
453.78	30738.26
453.97	30096.95
454.15	30412.92
454.34	29785.66
454.52	29902.68
454.70	29336.27
454.89	29752.89
455.07	29418.19
455.26	29989.28
455.44	31119.76
455.62	31967.04
455.81	32102.79
455.99	31850.01
456.17	31613.62
456.36	31681.49
456.54	31938.95
456.73	32341.52
456.91	32971.13
457.09	32617.71
457.28	33675.63
457.46	32313.44
457.64	32081.72
457.83	31307.01
458.01	30178.87
458.19	31592.55
458.38	31229.77
458.56	32776.86
458.74	32020.87
458.93	31365.52
459.11	31625.32
459.29	31475.52
459.48	31328.07
459.66	31311.69
459.84	31763.41
460.03	32545.15
460.21	31873.42
460.39	33244.97
460.57	32716.01
460.76	33273.06
460.94	33673.29
461.12	32800.27
461.31	33132.62
461.49	33022.62
461.67	32856.44
461.85	34330.98
462.04	34082.88
462.22	34242.04
462.40	33902.66
462.59	33579.67
462.77	33961.17
462.95	34019.69
463.13	33268.37
463.32	32811.97
463.50	33015.60
463.68	33036.66
463.86	33287.10
464.05	32388.33
464.23	31978.74
464.41	31889.80
464.59	31061.25
464.78	32577.92
464.96	32521.74
465.14	32091.09
465.32	32957.08
465.50	33940.11
465.69	34197.57
465.87	33762.23
466.05	32666.86
466.23	31208.70
466.41	30314.62
466.60	31409.99
466.78	31332.75
466.96	32060.66
467.14	32493.66
467.32	33200.50
467.51	33083.47
467.69	31548.08
467.87	32297.05
468.05	32861.12
468.23	32797.93
468.41	32940.70
468.60	33088.15
468.78	33418.17
468.96	32472.59
469.14	33443.91
469.32	33095.18
469.50	31985.76
469.69	32615.37
469.87	31838.31
470.05	31611.28
470.23	31660.43
470.41	32184.71
470.59	32165.98
470.77	32238.54
470.95	33134.96
471.14	33539.88
471.32	33591.37
471.50	35468.48
471.68	35365.49
471.86	35889.77
472.04	35931.90
472.22	36133.19
472.40	34230.33
472.58	34136.71
472.77	33621.80
472.95	34316.93
473.13	35246.13
473.31	34103.95
473.49	34384.81
473.67	35023.78
473.85	35014.41
474.03	36032.55
474.21	36147.23
474.39	36500.65
474.57	36807.26
474.75	36596.62
474.93	36591.94
475.12	35440.39
475.30	35693.17
475.48	36018.50
475.66	36800.24
475.84	36030.21
476.02	35828.92
476.20	35187.61
476.38	35611.25
476.56	36725.35
476.74	37046.00
476.92	37720.07
477.10	38359.04
477.28	39243.76
477.46	39215.68
477.64	39583.14
477.82	39826.56
478.00	39852.30
478.18	39222.70
478.36	39246.10
478.54	39098.65
478.72	39714.21
478.90	39990.39
479.08	41027.25
479.26	42204.54
479.44	41530.47
479.62	41724.73
479.80	41385.35
479.98	42515.83
480.16	42316.89
480.34	41422.80
480.52	42291.14
480.70	41858.14
480.88	42387.10
481.06	43091.60
481.24	42944.15
481.41	44182.29
481.59	44807.22
481.77	44507.63
481.95	43910.79
482.13	43592.48
482.31	43697.80
482.49	44650.40
482.67	44196.34
482.85	44285.28
483.03	45153.62
483.21	45942.38
483.39	45820.67
483.57	45120.85
483.74	44554.44
483.92	45034.25
484.10	44940.63
484.28	46314.52
484.46	46749.86
484.64	46873.91
484.82	46171.75
485.00	45235.53
485.18	44304.00
485.35	43037.77
485.53	40371.90
485.71	36666.83
485.89	36095.74
486.07	38323.93
486.25	41102.15
486.43	43665.03
486.61	44334.43
486.78	44437.41
486.96	44355.49
487.14	46389.42
487.32	46976.89
487.50	48219.72
487.68	49003.80
487.85	49689.57
488.03	49312.75
488.21	49057.63
488.39	48299.30
488.57	47650.97
488.75	47253.08
488.92	48556.75
489.10	50806.01
489.28	52051.17
489.46	52680.78
489.64	52533.32
489.81	52713.55
489.99	52374.17
490.17	52645.67
490.35	52947.60
490.53	52275.87
490.70	52140.11
490.88	51828.82
491.06	52982.71
491.24	52830.57
491.41	51814.78
491.59	49879.16
491.77	49219.13
491.95	50490.04
492.13	51852.23
492.30	52835.25
492.48	53602.95
492.66	54305.11
492.84	54316.81
493.01	53982.12
493.19	53097.39
493.37	53310.38
493.54	52748.65
493.72	53624.01
493.90	54354.26
494.08	55124.30
494.25	55461.33
494.43	55585.38
494.61	56163.50
494.79	56308.61
494.96	56076.90
495.14	55433.25
495.32	54312.13
495.49	53696.57
495.67	54857.48
495.85	56205.62
496.02	56685.43
496.20	56432.66
496.38	56079.24
496.55	55723.47
496.73	56273.50
496.91	56498.19
497.09	57083.33
497.26	57399.30
497.44	56528.62
497.62	56210.31
497.79	55451.97
497.97	54171.70
498.14	54457.24
498.32	55456.65
498.50	56327.33
498.67	57003.75
498.85	56921.83
499.03	57045.88
499.20	57303.34
499.38	57247.16
499.56	57134.82
499.73	56460.74
499.91	56341.38
500.08	55686.03
500.26	54962.80
500.44	55501.12
500.61	56135.41
500.79	56039.45
500.97	55620.49
501.14	55496.44
501.32	55196.85
501.49	55393.46
501.67	55444.95
501.84	56002.00
502.02	56350.74
502.20	56615.22
502.37	56772.03
502.55	56732.25
502.72	57219.08
502.90	57729.31
503.07	57422.70
503.25	57200.35
503.43	56245.41
503.60	55524.53
503.78	55023.65
503.95	55522.19
504.13	56865.66
504.30	57726.97
504.48	57378.23
504.65	57015.45
504.83	57298.65
505.01	57593.56
505.18	58131.89
505.36	58585.95
505.53	58518.07
505.71	58803.62
505.88	58937.03
506.06	58073.37
506.23	58082.73
506.41	57701.23
506.58	57961.03
506.76	57867.40
506.93	57977.41
507.11	57457.81
507.28	57710.59
507.46	57563.14
507.63	56804.80
507.81	56383.51
507.98	56842.25
508.16	57544.41
508.33	57668.46
508.50	58190.40
508.68	58609.35
508.85	59054.06
509.03	58922.99
509.20	58930.01
509.38	58206.78
509.55	57392.28
509.73	57638.03
509.90	57921.24
510.08	58293.38
510.25	58239.55
510.42	58047.63
510.60	57916.56
510.77	58370.62
510.95	58852.77
511.12	58918.31
511.30	59178.10
511.47	59222.58
511.64	59543.23
511.82	59133.63
511.99	58267.64
512.17	57858.04
512.34	57350.15
512.51	57839.32
512.69	57724.63
512.86	57860.38
513.04	58326.15
513.21	58354.24
513.38	58145.93
513.56	57621.65
513.73	56886.72
513.90	57169.93
514.08	57202.69
514.25	57628.67
514.43	57813.57
514.60	57663.78
514.77	58347.21
514.95	58298.06
515.12	57986.77
515.29	58064.01
515.47	58599.99
515.64	58834.05
515.81	58564.88
515.99	57914.22
516.16	56638.62
516.33	54326.17
516.51	52921.85
516.68	52083.94
516.85	51489.45
517.03	51590.09
517.20	54829.39
517.37	57251.84
517.54	58288.70
517.72	57801.87
517.89	55412.18
518.06	52502.90
518.24	53408.68
518.41	55215.58
518.58	56713.52
518.75	56999.07
518.93	57022.47
519.10	56954.60
519.27	57485.90
519.45	57528.03
519.62	58368.28
519.79	58672.55
519.96	58429.13
520.14	58106.14
520.31	57158.22
520.48	57361.85
520.65	57614.63
520.83	58499.35
521.00	58784.90
521.17	58569.57
521.34	58035.92
521.52	58445.52
521.69	59091.51
521.86	59290.45
522.03	59028.31
522.20	57832.30
522.38	56774.37
522.55	56617.56
522.72	57602.92
522.89	57659.10
523.07	57829.96
523.24	58136.57
523.41	58958.09
523.58	59154.70
523.75	59587.70
523.92	59557.27
524.10	59449.61
524.27	59583.02
524.44	59325.56
524.61	59063.42
524.78	58939.37
524.96	58740.42
525.13	58857.45
525.30	59135.98
525.47	59306.83
525.64	59484.72
525.81	58852.77
525.98	57291.63
526.16	56002.00
526.33	55379.42
526.50	55121.96
526.67	54560.23
526.84	55054.08
527.01	56226.69
527.18	57228.44
527.36	57811.23
527.53	58843.41
527.70	58906.60
527.87	58216.14
528.04	57925.92
528.21	58632.76
528.38	59114.91
528.55	59772.60
528.72	59847.50
528.89	60109.64
529.07	59746.86
529.24	59187.47
529.41	58691.27
529.58	58010.18
529.75	58012.52
529.92	58527.44
530.09	58960.44
530.26	59498.76
530.43	59735.15
530.60	59552.59
530.77	59807.71
530.94	60055.81
531.11	59386.41
531.28	59105.55
531.46	58965.12
531.63	59236.62
531.80	59114.91
531.97	58396.37
532.14	57851.02
532.31	56968.64
532.48	56149.45
532.65	55992.64
532.82	57301.00
532.99	58258.27
533.16	58569.57
533.33	59084.48
533.50	58827.02
533.67	58246.57
533.84	57932.94
534.01	57979.75
534.18	58234.87
534.35	58663.19
534.52	58251.25
534.69	58569.57
534.86	58939.37
535.03	59196.83
535.20	59451.95
535.37	60144.75
535.54	59952.82
535.71	59597.06
535.88	59250.66
536.05	58607.01
536.22	58412.75
536.38	58117.84
536.55	57607.61
536.72	57013.11
536.89	57041.20
537.06	57888.47
537.23	58674.89
537.40	58827.02
537.57	58974.48
537.74	58614.04
537.91	58639.78
538.08	58546.16
538.25	58630.42
538.42	58904.26
538.59	58642.12
538.75	58075.71
538.92	57640.37
539.09	57652.08
539.26	57539.73
539.43	57268.23
539.60	57375.89
539.77	57504.62
539.94	57408.66
540.11	56828.21
540.28	56222.01
540.44	56229.03
540.61	56505.21
540.78	56786.08
540.95	57132.48
541.12	57560.79
541.29	57776.12
541.46	58089.76
541.62	58300.40
541.79	57881.45
541.96	57380.57
542.13	57310.36
542.30	57626.33
542.47	57951.66
542.63	57415.68
542.80	57378.23
542.97	57516.32
543.14	57322.06
543.31	57319.72
543.48	57825.28
543.64	58787.24
543.81	58979.16
543.98	58843.41
544.15	58145.93
544.32	57338.44
544.48	57481.22
544.65	58094.44
544.82	58108.48
544.99	57893.15
545.16	57680.16
545.32	57350.15
545.49	58361.26
545.66	58756.81
545.83	58312.11
546.00	57696.55
546.16	57588.88
546.33	57710.59
546.50	57560.79
546.67	58225.51
546.83	57680.16
547.00	57633.35
547.17	57169.93
547.34	56547.34
547.50	56575.43
547.67	56872.68
547.84	57036.51
548.00	57284.61
548.17	57752.72
548.34	57539.73
548.51	57621.65
548.67	57600.58
548.84	57841.66
549.01	57551.43
549.18	57792.51
549.34	57778.46
549.51	57373.55
549.68	57509.30
549.84	57120.77
550.01	57064.60
550.18	57071.62
550.34	56985.02
550.51	57284.61
550.68	57436.75
550.84	56825.87
551.01	56797.78
551.18	56807.14
551.34	57116.09
551.51	57195.67
551.68	57546.75
551.84	57521.01
552.01	57485.90
552.18	57336.10
552.34	56718.20
552.51	56264.14
552.68	56116.68
552.84	56577.77
553.01	56875.02
553.18	56566.07
553.34	56807.14
553.51	56985.02
553.67	57258.87
553.84	57450.79
554.01	57235.46
554.17	57303.34
554.34	57106.73
554.51	57303.34
554.67	57647.39
554.84	57434.41
555.00	57017.79
555.17	56706.50
555.33	56725.22
555.50	56863.32
555.67	56605.86
555.83	56570.75
556.00	56427.98
556.16	56411.59
556.33	55920.08
556.50	55653.26
556.66	55913.06
556.83	55847.52
556.99	55693.05
557.16	55772.63
557.32	56135.41
557.49	56563.73
557.65	56243.07
557.82	56264.14
557.98	56229.03
558.15	55693.05
558.32	54887.90
558.48	53996.16
558.65	54471.29
558.81	54607.04
558.98	55018.97
559.14	54990.89
559.31	55168.77
559.47	55058.76
559.64	55007.27
559.80	54611.72
559.97	54653.85
560.13	54941.74
560.30	55891.99
560.46	56545.00
560.63	56502.87
560.79	56554.36
560.96	56353.08
561.12	55391.12
561.29	54174.04
561.45	54382.35
561.61	54981.52
561.78	55330.26
561.94	55213.24
562.11	55381.76
562.27	54878.54
562.44	55217.92
562.60	55737.52
562.77	55854.54
562.93	55526.87
563.10	55557.30
563.26	54967.48
563.42	55168.77
563.59	54920.67
563.75	54621.08
563.92	54768.54
564.08	54686.62
564.24	55164.09
564.41	55348.99
564.57	55040.04
564.74	54726.41
564.90	54700.66
565.07	54429.16
565.23	54354.26
565.39	53839.34
565.56	53518.69
565.72	53137.18
565.88	53546.78
566.05	53504.65
566.21	54010.20
566.38	53897.86
566.54	54103.82
566.70	54733.43
566.87	55241.32
567.03	55065.78
567.19	54932.37
567.36	54873.86
567.52	54717.04
567.68	54543.84
567.85	53719.98
568.01	53240.17
568.17	52877.38
568.34	53111.44
568.50	52978.03
568.66	53176.97
568.83	53464.86
568.99	53581.88
569.15	53820.62
569.32	53504.65
569.48	53312.72
569.64	53265.91
569.81	52849.30
569.97	52947.60
570.13	52676.10
570.30	52203.31
570.46	51515.19
570.62	51021.34
570.78	51185.18
570.95	51213.26
571.11	52353.10
571.27	52203.31
571.43	52753.33
571.60	53312.72
571.76	53083.35
571.92	53167.61
572.09	53518.69
572.25	53539.75
572.41	53389.96
572.57	53207.40
572.74	53495.28
572.90	52680.78
573.06	52793.12
573.22	52900.79
573.38	52762.70
573.55	53043.56
573.71	53261.23
573.87	52924.19
574.03	52823.55
574.20	52729.93
574.36	52505.24
574.52	52406.94
574.68	51782.01
574.84	51667.33
575.01	51231.99
575.17	50890.27
575.33	51442.63
575.49	51599.45
575.65	51936.49
575.82	51629.88
575.98	51419.23
576.14	51613.49
576.30	52126.07
576.46	52154.16
576.62	51938.83
576.79	52030.11
576.95	51718.82
577.11	51592.43
577.27	51440.29
577.43	51510.51
577.59	51222.62
577.75	51110.28
577.92	50162.36
578.08	49708.30
578.24	49701.28
578.40	50241.94
578.56	50398.76
578.72	50798.99
578.88	50806.01
579.04	50873.88
579.21	51011.98
579.37	51171.13
579.53	51395.82
579.69	51440.29
579.85	51412.21
580.01	51456.68
580.17	51023.68
580.33	50593.02
580.49	50581.32
580.65	51171.13
580.82	51454.34
580.98	51164.11
581.14	51313.90
581.30	50866.86
581.46	50969.85
581.62	50955.80
581.78	51241.35
581.94	51372.42
582.10	51435.61
582.26	51393.48
582.42	51084.53
582.58	51349.01
582.74	51587.75
582.90	51395.82
583.06	51409.87
583.22	51009.64
583.38	50946.44
583.54	51351.35
583.70	50721.75
583.86	50904.31
584.02	50609.40
584.18	50883.25
584.34	50705.37
584.50	50625.79
584.66	50763.88
584.82	50375.35
584.98	49865.11
585.14	49729.36
585.30	48683.14
