SpectraSuite Data File
++++++++++++++++++++++++++++++++++++
Date: Mon Oct 07 14:52:55 GMT-05:00 2013
User: price-jones
Dark Spectrum Present: No
Reference Spectrum Present: No
Number of Sampled Component Spectra: 1
Spectrometers: USB2+H05261
Integration Time (usec): 100000 (USB2+H05261)
Spectra Averaged: 1 (USB2+H05261)
Boxcar Smoothing: 0 (USB2+H05261)
Correct for Electrical Dark: No (USB2+H05261)
Strobe/Lamp Enabled: No (USB2+H05261)
Correct for Detector Non-linearity: No (USB2+H05261)
Correct for Stray Light: No (USB2+H05261)
Number of Pixels in Processed Spectrum: 2048
>>>>>Begin Processed Spectral Data<<<<<
365.73	0.00
365.92	0.00
366.12	0.00
366.32	0.00
366.52	0.00
366.72	0.00
366.91	0.00
367.11	0.00
367.31	0.00
367.51	0.00
367.70	0.00
367.90	0.00
368.10	0.00
368.30	0.00
368.49	0.00
368.69	0.00
368.89	0.00
369.09	0.00
369.28	0.00
369.48	0.00
369.68	0.00
369.87	0.00
370.07	0.00
370.27	0.00
370.47	383.85
370.66	2385.01
370.86	2855.45
371.06	3080.14
371.25	3080.14
371.45	2818.00
371.65	2406.07
371.84	2403.73
372.04	2492.67
372.24	2785.24
372.44	2876.52
372.63	2759.49
372.83	2544.16
373.03	2324.15
373.22	2113.50
373.42	2331.17
373.62	2747.79
373.81	2878.86
374.01	2764.17
374.21	2668.21
374.40	2335.85
374.60	2649.49
374.79	2862.48
374.99	3487.40
375.19	3368.03
375.38	3611.45
375.58	3272.07
375.78	3300.16
375.97	3452.29
376.17	3529.53
376.37	3424.20
376.56	3637.19
376.76	3707.41
376.95	3995.29
377.15	4266.80
377.35	4409.57
377.54	4629.58
377.74	4566.39
377.93	4786.40
378.13	4559.36
378.33	4287.86
378.52	4028.06
378.72	3885.29
378.91	3747.20
379.11	3611.45
379.31	3522.51
379.50	3592.72
379.70	3885.29
379.89	4264.46
380.09	4575.75
380.28	4629.58
380.48	4685.75
380.68	4573.41
380.87	4388.50
381.07	4079.55
381.26	3943.80
381.46	3616.13
381.65	3323.56
381.85	3295.47
382.04	3141.00
382.24	3059.08
382.43	2829.71
382.63	2698.64
382.83	2764.17
383.02	2846.09
383.22	2729.06
383.41	2834.39
383.61	2977.16
383.80	3513.14
384.00	4093.60
384.19	4252.75
384.39	4592.13
384.58	4407.23
384.78	4512.55
384.97	4430.63
385.17	4208.28
385.36	4119.34
385.56	3889.97
385.75	4035.08
385.95	4362.76
386.14	4770.01
386.34	4746.61
386.53	4624.90
386.72	4198.92
386.92	4381.48
387.11	4624.90
387.31	4695.11
387.50	4692.77
387.70	4542.98
387.89	4505.53
388.09	4416.59
388.28	4519.57
388.48	4695.11
388.67	4922.15
388.86	5465.15
389.06	5687.50
389.25	6097.10
389.45	6157.95
389.64	6160.29
389.84	5928.58
390.03	5806.87
390.22	5895.81
390.42	6399.02
390.61	6607.33
390.81	7080.12
391.00	7171.40
391.19	7028.63
391.39	6874.15
391.58	6607.33
391.78	5928.58
391.97	5762.40
392.16	5472.17
392.36	4945.55
392.55	4128.70
392.75	3014.61
392.94	2597.99
393.13	2738.43
393.33	3119.93
393.52	4121.68
393.71	4922.15
393.91	5577.50
394.10	6078.37
394.29	6609.67
394.49	6991.18
394.68	7552.91
394.88	7698.02
395.07	7754.19
395.26	7700.36
395.46	7377.37
395.65	7105.87
395.84	6260.93
396.04	5221.74
396.23	4278.50
396.42	3499.10
396.62	3576.34
396.81	4109.98
397.00	5235.78
397.19	6499.67
397.39	7796.32
397.58	8652.96
397.77	9193.62
397.97	9338.74
398.16	9479.17
398.35	9935.57
398.55	10221.12
398.74	10534.75
398.93	10963.07
399.12	10778.17
399.32	10345.17
399.51	10310.06
399.70	11309.47
399.90	10881.15
400.09	11080.10
400.28	11030.94
400.47	11459.26
400.67	11726.08
400.86	11932.05
401.05	11960.14
401.24	12142.70
401.44	12126.32
401.63	12182.49
401.82	12421.22
402.01	12278.45
402.21	12510.16
402.40	12475.06
402.59	12224.62
402.78	11695.66
402.97	11260.32
403.17	11822.05
403.36	12119.29
403.55	12952.52
403.74	13109.34
403.93	12458.67
404.13	11536.50
404.32	11140.95
404.51	11822.05
404.70	12917.42
404.89	12690.38
405.09	12362.71
405.28	12187.17
405.47	12088.87
405.66	12248.02
405.85	11824.39
406.05	11522.46
406.24	11552.88
406.43	11950.78
406.62	12418.88
406.81	12842.52
407.00	12381.43
407.20	11871.20
407.39	12016.31
407.58	12634.21
407.77	13156.15
407.96	13547.02
408.15	13635.96
408.34	13947.25
408.54	14373.23
408.73	14298.33
408.92	14244.50
409.11	13678.09
409.30	13050.83
409.49	12292.49
409.68	11566.93
409.87	11344.58
410.07	11969.50
410.26	12938.48
410.45	13752.99
410.64	14094.71
410.83	14771.12
411.02	14867.08
411.21	15208.80
411.40	15227.53
411.59	15232.21
411.78	15206.46
411.98	14857.72
412.17	15264.97
412.36	15012.20
412.55	15005.17
412.74	14544.09
412.93	14153.22
413.12	14532.39
413.31	15955.43
413.50	16016.29
413.69	16224.59
413.88	15501.37
414.07	15122.20
414.26	15639.46
414.45	16046.71
414.64	16161.40
414.83	16182.46
415.02	15618.39
415.22	15927.35
415.41	16002.24
415.60	16594.40
415.79	17174.85
415.98	17717.86
416.17	17792.75
416.36	17343.37
416.55	17095.27
416.74	16372.05
416.93	15920.32
417.12	15796.28
417.31	16128.63
417.50	16643.55
417.69	17142.08
417.88	16879.94
418.07	16585.04
418.26	16587.38
418.45	16463.33
418.64	17151.45
418.83	17769.35
419.02	17397.20
419.21	17589.13
419.39	16622.48
419.58	15920.32
419.77	16121.61
419.96	16737.17
420.15	17736.58
420.34	18246.82
420.53	18836.63
420.72	18958.34
420.91	18750.03
421.10	18663.43
421.29	18850.67
421.48	17893.40
421.67	18759.39
421.86	18487.89
422.05	17174.85
422.24	15281.36
422.43	15358.60
422.61	17018.04
422.80	18192.98
422.99	18139.15
423.18	17586.79
423.37	17106.98
423.56	17160.81
423.75	17497.84
423.94	17909.78
424.13	16788.66
424.32	16816.75
424.50	17060.16
424.69	16755.90
424.88	17057.82
425.07	16847.18
425.26	16910.37
425.45	16807.39
425.64	16339.28
425.83	16732.49
426.01	17657.00
426.20	18082.98
426.39	17647.64
426.58	16423.54
426.77	14920.92
426.96	14731.33
427.15	15173.69
427.33	16264.38
427.52	17146.76
427.71	17123.36
427.90	16884.62
428.09	16891.65
428.28	16573.33
428.46	15882.88
428.65	15407.75
428.84	16226.93
429.03	16470.35
429.22	15733.08
429.40	14506.64
429.59	13341.05
429.78	11690.98
429.97	11899.28
430.16	12135.68
430.34	11889.92
430.53	11838.43
430.72	12332.28
430.91	13823.20
431.10	16297.15
431.28	18916.21
431.47	20226.91
431.66	20339.26
431.85	18871.74
432.03	17151.45
432.22	16273.74
432.41	17158.47
432.60	18998.13
432.79	19756.46
432.97	20170.74
433.16	20051.37
433.35	17862.97
433.54	16233.96
433.72	15311.78
433.91	16067.78
434.10	17706.15
434.28	18775.78
434.47	19920.30
434.66	19648.80
434.85	19147.92
435.03	19152.60
435.22	19594.96
435.41	20966.52
435.59	20924.39
435.78	20992.26
435.97	21404.20
436.16	21661.66
436.34	21261.43
436.53	20734.81
436.72	20994.61
436.90	19922.64
437.09	19662.84
437.28	19613.69
437.46	20116.90
437.65	20121.59
437.84	18492.57
438.02	17116.34
438.21	17369.12
438.40	17923.82
438.58	19494.32
438.77	20002.22
438.96	20297.13
439.14	21132.70
439.33	21647.61
439.52	21724.85
439.70	21303.56
439.89	20655.23
440.08	20388.41
440.26	20592.03
440.45	21539.95
440.63	22588.51
440.82	23491.96
441.01	23239.18
441.19	23129.17
441.38	23386.63
441.57	24222.20
441.75	24744.14
441.94	24858.83
442.12	24402.43
442.31	25338.64
442.50	25392.47
442.68	24936.07
442.87	24367.32
443.05	24154.33
443.24	24142.63
443.43	25069.48
443.61	25532.90
443.80	25523.54
443.98	24210.50
444.17	24212.84
444.35	25958.88
444.54	26487.84
444.73	25769.30
444.91	24910.32
445.10	23709.63
445.28	22963.00
445.47	22434.03
445.65	22740.64
445.84	23393.65
446.02	23906.23
446.21	24814.36
446.39	24348.59
446.58	24943.09
446.77	25535.24
446.95	25495.46
447.14	26380.18
447.32	26424.65
447.51	25912.07
447.69	25315.23
447.88	24957.13
448.06	25144.38
448.25	25661.63
448.43	26092.29
448.62	25266.08
448.80	25067.14
448.99	25404.17
449.17	25640.57
449.36	25832.49
449.54	26778.07
449.73	26831.90
449.91	27402.99
450.10	28060.68
450.28	28599.01
450.46	28254.95
450.65	28313.46
450.83	27880.46
451.02	27660.45
451.20	27372.57
451.39	27555.13
451.57	27466.19
451.76	27101.06
451.94	27122.13
452.13	26417.63
452.31	25703.76
452.49	24147.31
452.68	24545.20
452.86	24451.58
453.05	25109.27
453.23	25397.15
453.42	26387.20
453.60	26710.19
453.78	27309.37
453.97	26822.54
454.15	27023.83
454.34	26171.87
454.52	26555.72
454.70	26134.42
454.89	25970.58
455.07	26150.81
455.26	27367.88
455.44	27332.78
455.62	28023.23
455.81	28449.21
455.99	27903.87
456.17	27971.74
456.36	28081.75
456.54	28442.19
456.73	28802.63
456.91	29181.80
457.09	29256.70
457.28	29677.99
457.46	28577.94
457.64	28343.89
457.83	27470.87
458.01	26785.09
458.19	27690.88
458.38	28114.52
458.56	28732.42
458.74	28730.08
458.93	27854.72
459.11	27974.08
459.29	28187.07
459.48	28332.18
459.66	28215.16
459.84	28432.83
460.03	28737.10
460.21	28407.08
460.39	29617.14
460.57	29469.69
460.76	29570.33
460.94	29551.60
461.12	29425.22
461.31	29652.25
461.49	29151.37
461.67	29273.08
461.85	30522.93
462.04	29893.32
462.22	30817.83
462.40	30382.49
462.59	29858.21
462.77	30513.56
462.95	30125.04
463.13	29675.65
463.32	29399.47
463.50	29305.85
463.68	29565.65
463.86	29748.21
464.05	28716.03
464.23	28339.21
464.41	28519.43
464.59	27985.79
464.78	29359.68
464.96	29090.52
465.14	28582.62
465.32	29834.81
465.50	30569.74
465.69	30768.68
465.87	29865.24
466.05	29219.25
466.23	28196.43
466.41	27285.97
466.60	28294.74
466.78	28226.86
466.96	28374.31
467.14	29041.37
467.32	29415.85
467.51	29418.19
467.69	28308.78
467.87	28535.81
468.05	29493.09
468.23	29614.80
468.41	29404.15
468.60	29205.20
468.78	29310.53
468.96	29074.13
469.14	30050.14
469.32	30176.53
469.50	28599.01
469.69	28872.85
469.87	28252.61
470.05	28374.31
470.23	28144.94
470.41	28594.32
470.59	28898.59
470.77	29099.88
470.95	29523.52
471.14	29652.25
471.32	29928.43
471.50	31367.86
471.68	32084.06
471.86	31999.80
472.04	32467.91
472.22	32554.51
472.40	30188.23
472.58	30349.73
472.77	30127.38
472.95	30787.41
473.13	31480.21
473.31	30618.89
473.49	30991.03
473.67	31349.14
473.85	31871.07
474.03	32245.56
474.21	32458.55
474.39	32950.06
474.57	32680.90
474.75	33226.24
474.93	32751.12
475.12	32041.93
475.30	32053.64
475.48	32037.25
475.66	32758.14
475.84	32332.16
476.02	32037.25
476.20	31496.59
476.38	32598.98
476.56	33266.03
476.74	33900.32
476.92	33670.95
477.10	34361.40
477.28	35093.99
477.46	35337.41
477.64	35351.45
477.82	35538.69
478.00	35777.43
478.18	35400.60
478.36	35299.96
478.54	35126.76
478.72	35489.54
478.90	36388.31
479.08	37153.66
479.26	37467.30
479.44	37394.74
479.62	37745.82
479.80	37422.83
479.98	37991.58
480.16	37949.45
480.34	38038.39
480.52	37837.10
480.70	38059.45
480.88	38464.36
481.06	38829.49
481.24	39281.21
481.41	39714.21
481.59	40374.24
481.77	40222.11
481.95	39648.68
482.13	39318.66
482.31	39613.57
482.49	40404.67
482.67	40357.86
482.85	40268.92
483.03	40713.62
483.21	41460.25
483.39	41467.27
483.57	40605.95
483.74	40493.61
483.92	40896.18
484.10	40823.62
484.28	41846.44
484.46	42403.49
484.64	42724.14
484.82	41972.83
485.00	41401.74
485.18	40685.53
485.35	39330.36
485.53	36137.87
485.71	32982.83
485.89	32985.17
486.07	34728.87
486.25	38127.33
486.43	39833.58
486.61	40133.17
486.78	39920.18
486.96	40556.80
487.14	42438.59
487.32	42792.01
487.50	44472.52
487.68	44797.85
487.85	45542.14
488.03	45411.07
488.21	45045.95
488.39	44083.99
488.57	43257.78
488.75	42983.94
488.92	44655.08
489.10	46953.49
489.28	48751.02
489.46	49340.83
489.64	48966.35
489.81	49509.35
489.99	48886.77
490.17	48861.02
490.35	49078.69
490.53	48591.86
490.70	47950.56
490.88	48182.27
491.06	49389.98
491.24	49308.07
491.41	48023.11
491.59	46028.98
491.77	44935.95
491.95	46689.01
492.13	47784.38
492.30	49766.81
492.48	50564.93
492.66	51133.68
492.84	51093.89
493.01	51316.25
493.19	50071.08
493.37	49801.92
493.54	49670.85
493.72	50422.16
493.90	51323.27
494.08	52016.07
494.25	52301.61
494.43	52825.89
494.61	53223.78
494.79	53413.37
494.96	53275.27
495.14	52275.87
495.32	51498.81
495.49	50986.23
495.67	51789.03
495.85	53478.90
496.02	53827.64
496.20	53701.25
496.38	53251.87
496.55	52987.39
496.73	53600.61
496.91	53778.49
497.09	54497.03
497.26	54609.38
497.44	53949.35
497.62	53366.55
497.79	52505.24
497.97	50965.17
498.14	51454.34
498.32	52678.44
498.50	53291.66
498.67	54066.38
498.85	54108.50
499.03	53989.14
499.20	54553.21
499.38	54691.30
499.56	54368.30
499.73	53745.72
499.91	53066.97
500.08	52793.12
500.26	52128.41
500.44	52804.83
500.61	53429.75
500.79	53499.97
500.97	52811.85
501.14	52491.19
501.32	52240.76
501.49	52233.74
501.67	52669.08
501.84	53389.96
502.02	53731.68
502.20	53813.60
502.37	54049.99
502.55	54260.64
502.72	54885.56
502.90	55241.32
503.07	54749.81
503.25	54585.97
503.43	53418.05
503.60	52739.29
503.78	52313.31
503.95	52617.58
504.13	54321.49
504.30	54958.12
504.48	54988.55
504.65	54478.31
504.83	54593.00
505.01	55274.09
505.18	55510.49
505.36	56186.90
505.53	55978.59
505.71	56563.73
505.88	56507.55
506.06	55650.92
506.23	55650.92
506.41	55018.97
506.58	55344.31
506.76	55253.03
506.93	55215.58
507.11	54892.58
507.28	55110.25
507.46	54623.42
507.63	53890.83
507.81	53682.53
507.98	54326.17
508.16	55004.93
508.33	55519.85
508.50	55693.05
508.68	56355.42
508.85	56722.88
509.03	56671.39
509.20	56481.81
509.38	55777.31
509.55	54805.98
509.73	54997.91
509.90	55440.27
510.08	55908.38
510.25	55634.53
510.42	55559.64
510.60	55330.26
510.77	55840.50
510.95	56570.75
511.12	56418.61
511.30	56938.21
511.47	57055.24
511.64	57181.63
511.82	56573.09
511.99	55903.70
512.17	55323.24
512.34	54817.69
512.51	55246.00
512.69	55529.21
512.86	55318.56
513.04	55952.85
513.21	56039.45
513.38	55419.20
513.56	54836.41
513.73	54232.55
513.90	54754.49
514.08	54749.81
514.25	54892.58
514.43	55353.67
514.60	55613.47
514.77	55597.09
514.95	55728.16
515.12	55592.40
515.29	55838.16
515.47	56430.32
515.64	56259.46
515.81	55908.38
515.99	55374.73
516.16	53715.29
516.33	51571.36
516.51	49982.14
516.68	48872.73
516.85	48247.80
517.03	48959.33
517.20	52554.39
517.37	54937.05
517.54	55796.03
517.72	55049.40
517.89	52355.44
518.06	50087.46
518.24	50384.71
518.41	52533.32
518.58	54148.29
518.75	54244.26
518.93	54506.40
519.10	54272.34
519.27	54960.46
519.45	55217.92
519.62	56013.70
519.79	56355.42
519.96	55976.25
520.14	55618.15
520.31	54665.55
520.48	54691.30
520.65	55358.35
520.83	56247.75
521.00	56327.33
521.17	56009.02
521.34	55805.39
521.52	56191.58
521.69	56612.88
521.86	57116.09
522.03	56755.65
522.20	55503.46
522.38	54415.11
522.55	54646.83
522.72	55100.89
522.89	55159.41
523.07	55594.74
523.24	55662.62
523.41	56676.07
523.58	56970.98
523.75	57436.75
523.92	57141.84
524.10	57303.34
524.27	57120.77
524.44	57062.26
524.61	56837.57
524.78	56563.73
524.96	56640.96
525.13	56781.40
525.30	56985.02
525.47	57481.22
525.64	57088.01
525.81	56516.92
525.98	55133.66
526.16	53436.77
526.33	52865.68
526.50	52594.18
526.67	51863.93
526.84	52921.85
527.01	53570.18
527.18	54618.74
527.36	55573.68
527.53	56596.49
527.70	56629.26
527.87	56060.51
528.04	55704.75
528.21	56280.52
528.38	57069.28
528.55	57434.41
528.72	57965.71
528.89	57895.49
529.07	57556.11
529.24	56786.08
529.41	56313.29
529.58	55707.09
529.75	55922.42
529.92	56238.39
530.09	56893.74
530.26	57230.78
530.43	57684.84
530.60	57373.55
530.77	57633.35
530.94	57600.58
531.11	57392.28
531.28	56912.47
531.46	56790.76
531.63	56896.08
531.80	56896.08
531.97	56360.10
532.14	55526.87
532.31	54396.39
532.48	54017.22
532.65	54038.29
532.82	54850.45
532.99	55927.10
533.16	56301.59
533.33	56893.74
533.50	56605.86
533.67	56097.96
533.84	55587.72
534.01	55812.41
534.18	56067.53
534.35	56390.53
534.52	56112.00
534.69	56334.35
534.86	56470.11
535.03	56860.97
535.20	57532.71
535.37	57897.83
535.54	57897.83
535.71	57586.54
535.88	57193.33
536.05	56315.63
536.22	56133.07
536.38	55664.96
536.55	55269.41
536.72	54845.77
536.89	54850.45
537.06	55786.67
537.23	56561.39
537.40	56844.59
537.57	56832.89
537.74	56397.55
537.91	56430.32
538.08	56442.02
538.25	56746.29
538.42	56793.10
538.59	56432.66
538.75	55573.68
538.92	55573.68
539.09	55388.78
539.26	55206.22
539.43	55164.09
539.60	55121.96
539.77	55426.23
539.94	54986.21
540.11	54419.80
540.28	53822.96
540.44	54035.95
540.61	54160.00
540.78	54478.31
540.95	54930.03
541.12	55316.22
541.29	55601.77
541.46	56076.90
541.62	55999.66
541.79	55786.67
541.96	55042.38
542.13	55276.43
542.30	55402.82
542.47	55812.41
542.63	55470.70
542.80	55224.94
542.97	55393.46
543.14	55035.36
543.31	55304.52
543.48	55772.63
543.64	56528.62
543.81	57010.77
543.98	56612.88
544.15	56018.38
544.32	55442.61
544.48	55433.25
544.65	56048.81
544.82	56479.47
544.99	55866.25
545.16	55774.97
545.32	55295.16
545.49	56123.71
545.66	56495.85
545.83	55903.70
546.00	55800.71
546.16	55543.25
546.33	55763.26
546.50	55491.76
546.67	55803.05
546.83	55480.06
547.00	55119.62
547.17	54593.00
547.34	54176.38
547.50	54358.94
547.67	54763.85
547.84	54883.22
548.00	55320.90
548.17	55606.45
548.34	55571.34
548.51	55620.49
548.67	55547.93
548.84	55784.33
549.01	55739.86
549.18	55552.62
549.34	55381.76
549.51	55374.73
549.68	55136.00
549.84	55086.85
550.01	54836.41
550.18	54714.70
550.34	54859.82
550.51	54925.35
550.68	55227.28
550.84	54616.40
551.01	54485.33
551.18	54679.60
551.34	54923.01
551.51	55182.81
551.68	55421.55
551.84	55187.49
552.01	55241.32
552.18	55030.68
552.34	54377.67
552.51	54188.08
552.68	53972.75
552.84	54478.31
553.01	54562.57
553.18	54740.45
553.34	54843.43
553.51	55217.92
553.67	55356.01
553.84	55220.26
554.01	54930.03
554.17	55152.38
554.34	55220.26
554.51	55150.04
554.67	55491.76
554.84	55604.11
555.00	54897.27
555.17	54529.80
555.33	54761.51
555.50	54351.92
555.67	54761.51
555.83	54321.49
556.00	54478.31
556.16	54248.94
556.33	53764.45
556.50	53595.93
556.66	53949.35
556.83	53380.60
556.99	53621.67
557.16	53712.95
557.32	54141.27
557.49	54241.92
557.65	54014.88
557.82	53911.90
557.98	53551.46
558.15	53286.98
558.32	52617.58
558.48	51578.39
558.65	51873.29
558.81	52102.67
558.98	52523.96
559.14	52676.10
559.31	53003.77
559.47	52907.81
559.64	52708.86
559.80	52102.67
559.97	52156.50
560.13	52966.32
560.30	53722.32
560.46	53996.16
560.63	54784.92
560.79	54710.02
560.96	54068.72
561.12	52633.97
561.29	51875.63
561.45	52137.77
561.61	53090.37
561.78	53258.89
561.94	52919.51
562.11	52610.56
562.27	52624.60
562.44	52994.41
562.60	53172.29
562.77	53839.34
562.93	53614.65
563.10	53336.13
563.26	52790.78
563.42	52715.89
563.59	52392.89
563.75	52463.11
563.92	52652.69
564.08	52411.62
564.24	52992.07
564.41	52715.89
564.57	52739.29
564.74	52640.99
564.90	52439.70
565.07	52332.04
565.23	51920.10
565.39	51166.45
565.56	51189.86
565.72	50829.41
565.88	51653.28
566.05	51386.46
566.21	51831.16
566.38	51828.82
566.54	51833.50
566.70	52114.37
566.87	52732.27
567.03	52406.94
567.19	52697.16
567.36	52320.34
567.52	52257.14
567.68	51805.42
567.85	51356.03
568.01	50808.35
568.17	50775.58
568.34	50422.16
568.50	50700.68
568.66	50473.65
568.83	50974.53
568.99	51114.96
569.15	51213.26
569.32	51386.46
569.48	50789.62
569.64	50955.80
569.81	50480.67
569.97	50412.80
570.13	50141.30
570.30	49563.18
570.46	49504.67
570.62	48680.80
570.78	48495.90
570.95	48800.17
571.11	49626.38
571.27	50106.19
571.43	50377.69
571.60	50691.32
571.76	51236.67
571.92	51356.03
572.09	51622.86
572.25	51372.42
572.41	51393.48
572.57	51058.79
572.74	51063.47
572.90	50487.70
573.06	50375.35
573.22	50490.04
573.38	50398.76
573.55	50494.72
573.71	50656.21
573.87	50658.56
574.03	49916.61
574.20	50162.36
574.36	49722.34
574.52	49837.03
574.68	49755.11
574.84	49001.46
575.01	48488.88
575.17	48601.22
575.33	48655.06
575.49	49595.95
575.65	49446.16
575.82	49521.05
575.98	48891.45
576.14	49338.49
576.30	49766.81
576.46	49705.96
576.62	49504.67
576.79	49757.45
576.95	49116.14
577.11	49230.83
577.27	48886.77
577.43	49141.89
577.59	48119.07
577.75	48783.79
577.92	47597.13
578.08	47578.41
578.24	47241.37
578.40	48034.81
578.56	48210.35
578.72	48067.58
578.88	48404.62
579.04	48605.91
579.21	48699.53
579.37	48713.57
579.53	48818.89
579.69	48758.04
579.85	48994.43
580.01	48903.15
580.17	48004.39
580.33	47714.16
580.49	48018.43
580.65	48701.87
580.82	49022.52
580.98	48566.12
581.14	48318.02
581.30	48994.43
581.46	48332.06
581.62	48509.94
581.78	48870.39
581.94	49090.40
582.10	48783.79
582.26	48868.05
582.42	48589.52
582.58	49247.21
582.74	48837.62
582.90	49179.34
583.06	48528.67
583.22	48879.75
583.38	48395.26
583.54	48381.21
583.70	48435.05
583.86	48800.17
584.02	48526.33
584.18	48280.57
584.34	48591.86
584.50	48456.11
584.66	48577.82
584.82	47866.30
584.98	47667.35
585.14	46543.89
585.30	45902.59
