SpectraSuite Data File
++++++++++++++++++++++++++++++++++++
Date: Mon Oct 07 14:53:00 GMT-05:00 2013
User: price-jones
Dark Spectrum Present: No
Reference Spectrum Present: No
Number of Sampled Component Spectra: 1
Spectrometers: USB2+H05261
Integration Time (usec): 100000 (USB2+H05261)
Spectra Averaged: 1 (USB2+H05261)
Boxcar Smoothing: 0 (USB2+H05261)
Correct for Electrical Dark: No (USB2+H05261)
Strobe/Lamp Enabled: No (USB2+H05261)
Correct for Detector Non-linearity: No (USB2+H05261)
Correct for Stray Light: No (USB2+H05261)
Number of Pixels in Processed Spectrum: 2048
>>>>>Begin Processed Spectral Data<<<<<
365.73	0.00
365.92	0.00
366.12	0.00
366.32	0.00
366.52	0.00
366.72	0.00
366.91	0.00
367.11	0.00
367.31	0.00
367.51	0.00
367.70	0.00
367.90	0.00
368.10	0.00
368.30	0.00
368.49	0.00
368.69	0.00
368.89	0.00
369.09	0.00
369.28	0.00
369.48	0.00
369.68	0.00
369.87	0.00
370.07	0.00
370.27	0.00
370.47	559.39
370.66	2761.83
370.86	3398.46
371.06	3735.50
371.25	3695.71
371.45	3356.33
371.65	3068.44
371.84	2836.73
372.04	2937.37
372.24	3330.58
372.44	3527.19
372.63	3517.83
372.83	3148.02
373.03	2757.15
373.22	2537.14
373.42	2703.32
373.62	3103.55
373.81	3503.78
374.01	3304.84
374.21	3040.36
374.40	2850.77
374.60	3021.63
374.79	3433.57
374.99	3911.04
375.19	4142.75
375.38	4271.48
375.58	3992.95
375.78	3875.93
375.97	3875.93
376.17	4161.47
376.37	4245.73
376.56	4182.54
376.76	4365.10
376.95	4758.31
377.15	5081.30
377.35	5198.33
377.54	5659.42
377.74	5675.80
377.93	5696.86
378.13	5621.97
378.33	5123.43
378.52	4884.70
378.72	4636.60
378.91	4477.44
379.11	4418.93
379.31	4222.33
379.50	4149.77
379.70	4547.66
379.89	5109.39
380.09	5256.84
380.28	5717.93
380.48	5509.62
380.68	5514.30
380.87	5282.59
381.07	4936.19
381.26	4575.75
381.46	4203.60
381.65	4067.85
381.85	3962.53
382.04	3826.78
382.24	3648.90
382.43	3410.16
382.63	3330.58
382.83	3258.03
383.02	3337.60
383.22	3309.52
383.41	3428.88
383.61	3658.26
383.80	4131.05
384.00	4681.07
384.19	5181.95
384.39	5483.88
384.58	5416.00
384.78	5373.87
384.97	5313.02
385.17	5090.67
385.36	4828.53
385.56	4620.22
385.75	4610.86
385.95	5177.26
386.14	5643.03
386.34	5626.65
386.53	5408.98
386.72	5069.60
386.92	5116.41
387.11	5432.38
387.31	5610.26
387.50	5589.20
387.70	5123.43
387.89	5172.58
388.09	5420.68
388.28	5371.53
388.48	5556.43
388.67	5837.30
388.86	6530.09
389.06	6738.40
389.25	7222.89
389.45	7342.26
389.64	7286.09
389.84	7316.51
390.03	7122.25
390.22	7227.57
390.42	7328.22
390.61	7810.37
390.81	8264.43
391.00	8542.96
391.19	8255.07
391.39	8231.66
391.58	7733.13
391.78	7276.73
391.97	6965.43
392.16	6431.79
392.36	5923.90
392.55	4793.42
392.75	3854.86
392.94	3225.26
393.13	3129.30
393.33	3723.79
393.52	4702.14
393.71	5898.15
393.91	6553.50
394.10	7000.54
394.29	7707.38
394.49	8322.94
394.68	8856.59
394.88	8910.42
395.07	9188.94
395.26	9153.84
395.46	8912.76
395.65	8219.96
395.84	7183.10
396.04	6258.59
396.23	4980.66
396.42	4217.65
396.62	4088.92
396.81	4744.27
397.00	5991.77
397.19	7665.25
397.39	9123.41
397.58	10059.62
397.77	10693.91
397.97	11321.17
398.16	11279.04
398.35	11836.09
398.55	11925.03
398.74	12315.90
398.93	12910.40
399.12	12526.55
399.32	12093.55
399.51	12248.02
399.70	13032.10
399.90	12954.87
400.09	12994.65
400.28	12994.65
400.47	13102.32
400.67	13771.71
400.86	14221.10
401.05	14223.44
401.24	13958.96
401.44	14342.80
401.63	14359.19
401.82	14380.25
402.01	14391.95
402.21	14574.52
402.40	14747.72
402.59	14382.59
402.78	13645.32
402.97	13345.73
403.17	13872.36
403.36	14614.30
403.55	14916.23
403.74	15693.29
403.93	14654.09
404.13	13476.80
404.32	13254.45
404.51	14146.20
404.70	14911.55
404.89	14616.65
405.09	14764.10
405.28	14539.41
405.47	14586.22
405.66	14469.19
405.85	13760.01
406.05	13415.95
406.24	13631.28
406.43	14354.51
406.62	14686.86
406.81	14740.69
407.00	14420.04
407.20	14054.92
407.39	14326.42
407.58	14979.43
407.77	15360.94
407.96	15913.30
408.15	16250.34
408.34	16044.37
408.54	17003.99
408.73	17008.67
408.92	16489.07
409.11	16238.64
409.30	15616.05
409.49	14689.20
409.68	13535.32
409.87	12971.25
410.07	14242.16
410.26	14883.47
410.45	16311.19
410.64	16603.76
410.83	17116.34
411.02	17584.44
411.21	18078.30
411.40	17532.95
411.59	17827.86
411.78	17811.48
411.98	17734.24
412.17	17867.65
412.36	17549.34
412.55	17752.96
412.74	17432.31
412.93	16833.13
413.12	17062.51
413.31	18838.97
413.50	18906.85
413.69	19391.34
413.88	18443.42
414.07	17809.14
414.26	18300.65
414.45	18761.73
414.64	18600.24
414.83	18651.73
415.02	18452.78
415.22	18410.65
415.41	18834.29
415.60	19548.15
415.79	20109.88
415.98	20596.71
416.17	20786.30
416.36	20329.89
416.55	19997.54
416.74	19367.93
416.93	18745.35
417.12	18705.56
417.31	18895.14
417.50	19286.01
417.69	19941.36
417.88	19882.85
418.07	19484.96
418.26	19133.88
418.45	19620.71
418.64	20156.69
418.83	21085.89
419.02	20334.57
419.21	20372.02
419.39	19187.71
419.58	18663.43
419.77	18970.04
419.96	19620.71
420.15	20311.17
420.34	21322.28
420.53	21933.16
420.72	22253.81
420.91	22073.59
421.10	22012.74
421.29	21855.92
421.48	20772.25
421.67	21923.80
421.86	21582.08
422.05	20163.72
422.24	17851.27
422.43	17820.84
422.61	19824.34
422.80	21378.45
422.99	20886.94
423.18	20365.00
423.37	20149.67
423.56	19826.68
423.75	20299.47
423.94	20809.70
424.13	19971.79
424.32	20072.43
424.50	20004.56
424.69	19728.38
424.88	19969.45
425.07	19953.07
425.26	19580.92
425.45	19513.05
425.64	19171.33
425.83	19501.34
426.01	20159.03
426.20	20737.15
426.39	20542.88
426.58	19363.25
426.77	17865.31
426.96	17053.14
427.15	17837.22
427.33	19337.51
427.52	20079.46
427.71	20212.87
427.90	19894.55
428.09	19634.75
428.28	19278.99
428.46	18663.43
428.65	18111.07
428.84	18735.99
429.03	19278.99
429.22	17942.55
429.40	17006.33
429.59	15653.50
429.78	13767.03
429.97	13767.03
430.16	13951.93
430.34	13926.19
430.53	13935.55
430.72	14621.33
430.91	15894.58
431.10	18726.63
431.28	22415.31
431.47	23931.98
431.66	23936.66
431.85	21841.88
432.03	19756.46
432.22	19028.56
432.41	20360.32
432.60	22459.78
432.79	22848.31
432.97	23630.05
433.16	22918.53
433.35	21256.75
433.54	18836.63
433.72	18015.10
433.91	18508.96
434.10	20816.72
434.28	22040.82
434.47	23403.02
434.66	22932.57
434.85	22302.96
435.03	22230.41
435.22	22595.53
435.41	24077.09
435.59	24060.71
435.78	24627.12
435.97	25104.59
436.16	24999.26
436.34	25142.03
436.53	24357.96
436.72	24472.64
436.90	23164.28
437.09	23056.62
437.28	22635.32
437.46	23669.84
437.65	23800.91
437.84	21443.99
438.02	19939.02
438.21	20121.59
438.40	21160.78
438.58	23089.38
438.77	23517.70
438.96	23468.55
439.14	24844.79
439.33	25434.60
439.52	25530.56
439.70	25006.28
439.89	24079.43
440.08	23726.01
440.26	23632.39
440.45	24732.44
440.63	26288.90
440.82	27742.37
441.01	26883.39
441.19	26817.86
441.38	27239.15
441.57	28596.67
441.75	28634.11
441.94	29024.98
442.12	28383.68
442.31	29331.59
442.50	29188.82
442.68	28950.09
442.87	28430.49
443.05	28191.75
443.24	28425.81
443.43	29069.45
443.61	29567.99
443.80	29942.47
443.98	27992.81
444.17	28271.33
444.35	29848.85
444.54	30349.73
444.73	29961.20
444.91	28254.95
445.10	27686.20
445.28	26494.86
445.47	25841.85
445.65	26417.63
445.84	27185.32
446.02	28051.32
446.21	28676.24
446.39	28526.45
446.58	28809.65
446.77	29085.84
446.95	29970.56
447.14	30321.64
447.32	30850.60
447.51	30328.66
447.69	29027.32
447.88	29048.39
448.06	29219.25
448.25	30029.07
448.43	30162.48
448.62	29418.19
448.80	29539.90
448.99	29467.34
449.17	29811.40
449.36	29867.58
449.54	30834.22
449.73	31508.29
449.91	31714.26
450.10	32720.69
450.28	33113.90
450.46	32762.82
450.65	32797.93
450.83	32676.22
451.02	31955.33
451.20	31585.53
451.39	31740.00
451.57	31601.91
451.76	31480.21
451.94	31033.16
452.13	30632.93
452.31	29142.01
452.49	27885.14
452.68	28449.21
452.86	28634.11
453.05	28858.81
453.23	29614.80
453.42	30244.40
453.60	31014.44
453.78	31480.21
453.97	30808.47
454.15	30789.75
454.34	30560.37
454.52	30331.00
454.70	30230.36
454.89	30333.34
455.07	30443.35
455.26	31082.31
455.44	32158.96
455.62	32533.45
455.81	32809.63
455.99	32470.25
456.17	32135.56
456.36	32187.05
456.54	33312.84
456.73	33015.60
456.91	33806.70
457.09	33787.97
457.28	34293.53
457.46	32936.02
457.64	33336.25
457.83	31857.03
458.01	31131.47
458.19	32240.88
458.38	32348.54
458.56	33404.13
458.74	33219.22
458.93	32615.37
459.11	32540.47
459.29	32116.83
459.48	32456.21
459.66	32409.40
459.84	32851.76
460.03	33057.73
460.21	33106.88
460.39	33759.89
460.57	34022.03
460.76	34321.62
460.94	34302.89
461.12	34059.48
461.31	33710.74
461.49	34373.11
461.67	34122.67
461.85	35157.19
462.04	34991.01
462.22	35438.05
462.40	34944.20
462.59	34817.81
462.77	34763.98
462.95	34838.87
463.13	34368.43
463.32	34136.71
463.50	33598.39
463.68	33806.70
463.86	33921.38
464.05	33500.09
464.23	32879.85
464.41	32905.59
464.59	32432.80
464.78	34225.65
464.96	33310.50
465.14	33195.82
465.32	34401.19
465.50	35033.14
465.69	35278.89
465.87	34293.53
466.05	33542.22
466.23	31892.14
466.41	31199.34
466.60	32851.76
466.78	32624.73
466.96	33027.30
467.14	33518.81
467.32	34438.64
467.51	34019.69
467.69	32685.58
467.87	33188.80
468.05	33958.83
468.23	33883.94
468.41	33717.76
468.60	33799.68
468.78	34312.25
468.96	33635.84
469.14	34775.68
469.32	34387.15
469.50	33099.86
469.69	33207.52
469.87	32826.01
470.05	32411.74
470.23	33078.79
470.41	32842.40
470.59	33738.82
470.77	33577.33
470.95	34237.36
471.14	34576.73
471.32	34742.91
471.50	36676.19
471.68	36842.37
471.86	37237.92
472.04	37102.17
472.22	36861.10
472.40	35372.52
472.58	34721.85
472.77	34834.19
472.95	35445.07
473.13	36706.62
473.31	35220.38
473.49	35534.01
473.67	35976.37
473.85	36201.07
474.03	37214.52
474.21	37844.12
474.39	37848.80
474.57	38419.89
474.75	37769.22
474.93	37745.82
475.12	37287.07
475.30	37120.90
475.48	37097.49
475.66	37813.70
475.84	37551.56
476.02	36914.93
476.20	36837.69
476.38	37247.29
476.56	38220.95
476.74	38447.98
476.92	39117.37
477.10	39447.39
477.28	40954.69
477.46	40521.69
477.64	40849.37
477.82	41291.73
478.00	41029.59
478.18	40896.18
478.36	40346.15
478.54	40383.60
478.72	40889.16
478.90	41921.34
479.08	43033.09
479.26	43126.71
479.44	43178.20
479.62	42768.61
479.80	42960.53
479.98	42997.98
480.16	43508.22
480.34	42848.19
480.52	43564.39
480.70	43847.60
480.88	43772.70
481.06	44732.32
481.24	45097.44
481.41	45846.41
481.59	46429.21
481.77	45827.69
481.95	44891.48
482.13	45214.47
482.31	45256.60
482.49	45902.59
482.67	45916.63
482.85	46300.48
483.03	46836.46
483.21	46911.36
483.39	46817.74
483.57	46497.08
483.74	45633.42
483.92	46370.69
484.10	46560.28
484.28	47669.69
484.46	47955.24
484.64	48493.56
484.82	47325.63
485.00	46637.51
485.18	46230.26
485.35	44835.30
485.53	41579.62
485.71	38146.05
485.89	37771.57
486.07	39629.95
486.25	42878.61
486.43	45331.50
486.61	46469.00
486.78	45951.74
486.96	46192.81
487.14	47817.14
487.32	48315.68
487.50	49769.15
487.68	50532.17
487.85	50930.06
488.03	50871.54
488.21	50124.91
488.39	49844.05
488.57	49095.08
488.75	48809.53
488.92	50176.40
489.10	52509.92
489.28	53743.38
489.46	54195.10
489.64	53890.83
489.81	54010.20
489.99	53705.93
490.17	53832.32
490.35	54202.13
490.53	53235.48
490.70	53125.48
490.88	53125.48
491.06	54167.02
491.24	54059.35
491.41	53249.53
491.59	51393.48
491.77	50883.25
491.95	52009.04
492.13	53104.41
492.30	54372.99
492.48	55168.77
492.66	55688.37
492.84	55620.49
493.01	55353.67
493.19	54609.38
493.37	54319.15
493.54	54223.19
493.72	54983.86
493.90	55915.40
494.08	56687.78
494.25	56800.12
494.43	56872.68
494.61	57237.80
494.79	57340.78
494.96	57104.39
495.14	56844.59
495.32	55721.13
495.49	55229.62
495.67	56285.20
495.85	57565.48
496.02	57881.45
496.20	57586.54
496.38	56996.73
496.55	57237.80
496.73	57483.56
496.91	57677.82
497.09	58398.71
497.26	58515.73
497.44	57769.10
497.62	57403.98
497.79	56505.21
497.97	55580.70
498.14	55796.03
498.32	56662.03
498.50	57513.98
498.67	58262.96
498.85	58120.18
499.03	58204.44
499.20	58567.23
499.38	58330.83
499.56	58071.03
499.73	57626.33
499.91	57485.90
500.08	56856.29
500.26	56320.31
500.44	56790.76
500.61	57223.76
500.79	57317.38
500.97	56835.23
501.14	56748.63
501.32	56636.28
501.49	56697.14
501.67	56889.06
501.84	57207.37
502.02	57549.09
502.20	57890.81
502.37	57996.13
502.55	58101.46
502.72	58590.63
502.90	59051.72
503.07	58670.21
503.25	58246.57
503.43	57293.97
503.60	56914.81
503.78	56451.38
503.95	57029.49
504.13	58035.92
504.30	58850.43
504.48	58780.21
504.65	58260.62
504.83	58272.32
505.01	58972.14
505.18	59199.17
505.36	59824.09
505.53	60016.02
505.71	59987.93
505.88	60200.92
506.06	59484.72
506.23	59423.86
506.41	58745.11
506.58	59058.74
506.76	59051.72
506.93	59021.29
507.11	58857.45
507.28	59093.85
507.46	58492.33
507.63	57778.46
507.81	57879.11
507.98	58021.88
508.16	58796.60
508.33	59269.39
508.50	59688.34
508.68	59730.47
508.85	60137.72
509.03	60144.75
509.20	60151.77
509.38	59227.26
509.55	58571.91
509.73	58864.47
509.90	59395.77
510.08	59559.61
510.25	59327.90
510.42	59051.72
510.60	59374.71
510.77	59611.10
510.95	60130.70
511.12	60069.85
511.30	60310.92
511.47	60589.45
511.64	60441.99
511.82	60114.32
511.99	59386.41
512.17	59100.87
512.34	58981.50
512.51	59079.80
512.69	59175.76
512.86	59264.70
513.04	59744.51
513.21	59639.19
513.38	59135.98
513.56	58693.61
513.73	58225.51
513.90	58569.57
514.08	58599.99
514.25	58731.06
514.43	59112.57
514.60	59194.49
514.77	59585.36
514.95	59433.22
515.12	59131.29
515.29	59590.04
515.47	60074.53
515.64	60261.77
515.81	59777.28
515.99	59185.13
516.16	57818.25
516.33	55545.59
516.51	54415.11
516.68	53581.88
516.85	53167.61
517.03	53918.92
517.20	56500.53
517.37	58670.21
517.54	59379.39
517.72	58880.86
517.89	56610.54
518.06	54387.03
518.24	55241.32
518.41	57088.01
518.58	58003.16
518.75	58333.17
518.93	58227.85
519.10	58291.04
519.27	58817.66
519.45	58967.46
519.62	59742.17
519.79	59927.08
519.96	59765.58
520.14	59489.40
520.31	58403.39
520.48	58548.50
520.65	58878.52
520.83	59880.27
521.00	60226.66
521.17	59704.73
521.34	59395.77
521.52	59840.48
521.69	60369.44
521.86	60694.77
522.03	60102.62
522.20	59082.14
522.38	58152.95
522.55	58431.47
522.72	59000.22
522.89	58890.22
523.07	59330.24
523.24	59426.20
523.41	60275.82
523.58	60687.75
523.75	61090.32
523.92	60767.33
524.10	60807.12
524.27	60851.59
524.44	60580.09
524.61	60456.04
524.78	60512.21
524.96	60172.83
525.13	60280.50
525.30	60479.44
525.47	60891.38
525.64	60694.77
525.81	59997.29
525.98	58663.19
526.16	57429.72
526.33	56961.62
526.50	56399.89
526.67	55978.59
526.84	56919.49
527.01	57640.37
527.18	58468.92
527.36	59332.58
527.53	60219.64
527.70	60013.68
527.87	59615.79
528.04	59334.92
528.21	60095.60
528.38	60416.25
528.55	61144.16
528.72	61361.82
528.89	61366.51
529.07	60835.20
529.24	60575.40
529.41	60004.31
529.58	59564.29
529.75	59489.40
529.92	60083.89
530.09	60441.99
530.26	60804.78
530.43	60940.53
530.60	60982.66
530.77	61256.50
530.94	61385.23
531.11	60818.82
531.28	60540.30
531.46	60413.91
531.63	60458.38
531.80	60385.82
531.97	60030.06
532.14	59409.82
532.31	58085.07
532.48	57818.25
532.65	58089.76
532.82	59009.59
532.99	59725.79
533.16	59992.61
533.33	60505.19
533.50	60523.91
533.67	59629.83
533.84	59199.17
534.01	59639.19
534.18	59641.53
534.35	59959.84
534.52	59714.09
534.69	60044.10
534.86	60039.42
535.03	60692.43
535.20	60882.02
535.37	61265.86
535.54	61392.25
535.71	61006.06
535.88	60769.67
536.05	60114.32
536.22	59891.97
536.38	59517.48
536.55	58979.16
536.72	58553.18
536.89	58429.13
537.06	59487.06
537.23	60161.13
537.40	60388.16
537.57	60467.74
537.74	60189.22
537.91	60254.75
538.08	60090.91
538.25	60060.49
538.42	60264.11
538.59	60135.38
538.75	59470.67
538.92	59365.35
539.09	58930.01
539.26	59103.21
539.43	58892.56
539.60	58754.47
539.77	59110.23
539.94	58878.52
540.11	58241.89
540.28	57881.45
540.44	57949.32
540.61	58159.97
540.78	58396.37
540.95	58768.51
541.12	59025.97
541.29	59194.49
541.46	59737.49
541.62	59643.87
541.79	59559.61
541.96	58939.37
542.13	59011.93
542.30	59210.87
542.47	59419.18
542.63	59248.32
542.80	58983.84
542.97	59114.91
543.14	58913.62
543.31	58920.65
543.48	59447.27
543.64	60133.04
543.81	60488.80
543.98	60257.09
544.15	59491.74
544.32	59126.61
544.48	59374.71
544.65	59669.62
544.82	60053.47
544.99	59510.46
545.16	59133.63
545.32	59140.66
545.49	59707.07
545.66	60088.57
545.83	59674.30
546.00	59407.48
546.16	59077.46
546.33	59320.88
546.50	59255.34
546.67	59632.17
546.83	59182.79
547.00	59444.93
547.17	58653.82
547.34	58108.48
547.50	58225.51
547.67	58520.41
547.84	58562.54
548.00	59100.87
548.17	59360.67
548.34	59257.68
548.51	59154.70
548.67	59313.86
548.84	59428.54
549.01	59306.83
549.18	59208.53
549.34	58969.80
549.51	59091.51
549.68	59208.53
549.84	58883.20
550.01	58749.79
550.18	58728.72
550.34	59018.95
550.51	58958.09
550.68	58976.82
550.84	58447.86
551.01	58787.24
551.18	58464.24
551.34	58770.85
551.51	59096.19
551.68	59302.15
551.84	59299.81
552.01	59213.21
552.18	59061.08
552.34	58014.86
552.51	57954.00
552.68	58010.18
552.84	58363.60
553.01	58852.77
553.18	58410.41
553.34	58525.10
553.51	58841.07
553.67	58894.90
553.84	59114.91
554.01	59119.59
554.17	58848.09
554.34	58749.79
554.51	59171.08
554.67	59346.62
554.84	59042.35
555.00	58571.91
555.17	58695.95
555.33	58855.11
555.50	58637.44
555.67	58738.08
555.83	58295.72
556.00	57970.39
556.16	58019.54
556.33	57656.76
556.50	57710.59
556.66	57684.84
556.83	57509.30
556.99	57600.58
557.16	57872.09
557.32	57876.77
557.49	58007.84
557.65	58054.65
557.82	58183.38
557.98	57939.96
558.15	57385.25
558.32	56624.58
558.48	56072.21
558.65	56383.51
558.81	56409.25
558.98	56858.63
559.14	57113.75
559.31	56910.13
559.47	57069.28
559.64	56690.12
559.80	56353.08
559.97	56765.01
560.13	56814.16
560.30	57780.81
560.46	58110.82
560.63	58511.05
560.79	58487.65
560.96	57977.41
561.12	57006.09
561.29	56161.15
561.45	56296.91
561.61	56900.76
561.78	57109.07
561.94	56945.23
562.11	56765.01
562.27	57017.79
562.44	57195.67
562.60	57392.28
562.77	57609.95
562.93	57574.84
563.10	57422.70
563.26	56790.76
563.42	57071.62
563.59	56783.74
563.75	56942.89
563.92	56860.97
564.08	56928.85
564.24	57162.90
564.41	57146.52
564.57	56994.39
564.74	56863.32
564.90	57010.77
565.07	56537.98
565.23	56198.60
565.39	55831.14
565.56	55421.55
565.72	55264.73
565.88	55674.32
566.05	55917.74
566.21	56097.96
566.38	56142.43
566.54	56479.47
566.70	56746.29
566.87	56837.57
567.03	56596.49
567.19	56926.51
567.36	56481.81
567.52	56842.25
567.68	56109.66
567.85	55669.64
568.01	55517.51
568.17	55269.41
568.34	55224.94
568.50	55152.38
568.66	55276.43
568.83	55648.58
568.99	55515.17
569.15	55887.31
569.32	55786.67
569.48	55480.06
569.64	55374.73
569.81	55199.19
569.97	55327.92
570.13	54724.07
570.30	54255.96
570.46	54167.02
570.62	53495.28
570.78	53581.88
570.95	53808.92
571.11	54571.93
571.27	54798.96
571.43	54787.26
571.60	55140.68
571.76	55288.13
571.92	55505.80
572.09	55737.52
572.25	55449.63
572.41	55384.10
572.57	55573.68
572.74	55358.35
572.90	55007.27
573.06	54997.91
573.22	55344.31
573.38	55192.17
573.55	55388.78
573.71	55440.27
573.87	55114.94
574.03	55056.42
574.20	55138.34
574.36	54499.37
574.52	54499.37
574.68	54677.25
574.84	54033.61
575.01	53712.95
575.17	53663.80
575.33	53951.69
575.49	54064.03
575.65	54452.56
575.82	54136.59
575.98	53837.00
576.14	54246.60
576.30	54351.92
576.46	54272.34
576.62	54396.39
576.79	54527.46
576.95	54057.01
577.11	54000.84
577.27	53911.90
577.43	54246.60
577.59	53291.66
577.75	53286.98
577.92	52341.40
578.08	52568.43
578.24	52530.98
578.40	52814.19
578.56	53169.95
578.72	53399.32
578.88	53134.84
579.04	53897.86
579.21	53530.39
579.37	53731.68
579.53	53822.96
579.69	53666.14
579.85	53951.69
580.01	53881.47
580.17	53153.57
580.33	53008.45
580.49	53406.34
580.65	53565.50
580.82	53792.53
580.98	53918.92
581.14	53710.61
581.30	53516.35
581.46	53399.32
581.62	53822.96
581.78	53642.74
581.94	53979.78
582.10	54068.72
582.26	54167.02
582.42	54026.59
582.58	53909.56
582.74	53832.32
582.90	53972.75
583.06	54047.65
583.22	53326.77
583.38	53698.91
583.54	53666.14
583.70	53656.78
583.86	53626.35
584.02	53176.97
584.18	53820.62
584.34	53516.35
584.50	53434.43
584.66	53226.12
584.82	52645.67
584.98	52952.28
585.14	52364.81
585.30	51672.01
