SpectraSuite Data File
++++++++++++++++++++++++++++++++++++
Date: Mon Oct 07 14:53:41 GMT-05:00 2013
User: price-jones
Dark Spectrum Present: No
Reference Spectrum Present: No
Number of Sampled Component Spectra: 1
Spectrometers: USB2+H05261
Integration Time (usec): 100000 (USB2+H05261)
Spectra Averaged: 1 (USB2+H05261)
Boxcar Smoothing: 0 (USB2+H05261)
Correct for Electrical Dark: No (USB2+H05261)
Strobe/Lamp Enabled: No (USB2+H05261)
Correct for Detector Non-linearity: No (USB2+H05261)
Correct for Stray Light: No (USB2+H05261)
Number of Pixels in Processed Spectrum: 2048
>>>>>Begin Processed Spectral Data<<<<<
365.73	0.00
365.92	0.00
366.12	0.00
366.32	0.00
366.52	0.00
366.72	0.00
366.91	0.00
367.11	0.00
367.31	0.00
367.51	0.00
367.70	0.00
367.90	0.00
368.10	0.00
368.30	0.00
368.49	0.00
368.69	0.00
368.89	0.00
369.09	0.00
369.28	0.00
369.48	0.00
369.68	0.00
369.87	0.00
370.07	0.00
370.27	0.00
370.47	589.82
370.66	2698.64
370.86	3155.04
371.06	3529.53
371.25	3651.24
371.45	3190.15
371.65	2813.32
371.84	2628.42
372.04	2855.45
372.24	3171.43
372.44	3253.34
372.63	3328.24
372.83	3054.40
373.03	2626.08
373.22	2431.82
373.42	2523.10
373.62	3005.25
373.81	3295.47
374.01	3208.87
374.21	2995.89
374.40	2626.08
374.60	2761.83
374.79	3141.00
374.99	3723.79
375.19	4007.00
375.38	3969.55
375.58	3866.56
375.78	3770.60
375.97	3740.18
376.17	4014.02
376.37	3871.25
376.56	4056.15
376.76	4147.43
376.95	4484.47
377.15	4681.07
377.35	5029.81
377.54	5153.86
377.74	5308.34
377.93	5294.29
378.13	5373.87
378.33	5198.33
378.52	4566.39
378.72	4428.29
378.91	4435.32
379.11	4117.00
379.31	4259.78
379.50	4086.58
379.70	4325.31
379.89	4868.31
380.09	4987.68
380.28	5401.96
380.48	5125.77
380.68	5345.78
380.87	5205.35
381.07	4667.03
381.26	4285.52
381.46	4037.42
381.65	3950.82
381.85	3808.05
382.04	3674.64
382.24	3473.36
382.43	3269.73
382.63	3108.23
382.83	3192.49
383.02	3199.51
383.22	3171.43
383.41	3255.69
383.61	3428.88
383.80	4042.11
384.00	4374.46
384.19	5064.92
384.39	5268.55
384.58	5317.70
384.78	5128.11
384.97	5184.29
385.17	4816.82
385.36	4585.11
385.56	4315.95
385.75	4624.90
385.95	5018.11
386.14	5528.35
386.34	5516.64
386.53	5195.99
386.72	4887.04
386.92	4950.23
387.11	5259.18
387.31	5320.04
387.50	5324.72
387.70	5064.92
387.89	5025.13
388.09	5100.03
388.28	5128.11
388.48	5060.24
388.67	5621.97
388.86	6115.82
389.06	6750.10
389.25	7084.80
389.45	7014.59
389.64	7028.63
389.84	6974.80
390.03	6855.43
390.22	7091.82
390.42	6998.20
390.61	7604.40
390.81	8100.59
391.00	8404.86
391.19	8042.08
391.39	7927.39
391.58	7389.07
391.78	6981.82
391.97	6754.79
392.16	6396.68
392.36	5830.27
392.55	4620.22
392.75	3662.94
392.94	2937.37
393.13	2953.76
393.33	3468.67
393.52	4564.04
393.71	5577.50
393.91	6050.28
394.10	6759.47
394.29	7293.11
394.49	8098.25
394.68	8676.37
394.88	8498.49
395.07	8987.66
395.26	8835.52
395.46	8823.82
395.65	8234.00
395.84	7105.87
396.04	6125.18
396.23	4791.08
396.42	4072.53
396.62	4067.85
396.81	4571.07
397.00	5802.19
397.19	7377.37
397.39	8730.20
397.58	9750.67
397.77	10368.57
397.97	10696.25
398.16	10862.43
398.35	11176.06
398.55	11580.97
398.74	12070.14
398.93	12294.83
399.12	12072.48
399.32	11648.85
399.51	12147.38
399.70	12608.47
399.90	12699.75
400.09	12549.95
400.28	12435.27
400.47	12758.26
400.67	13219.35
400.86	13561.06
401.05	13502.55
401.24	13572.77
401.44	13991.72
401.63	13907.46
401.82	13926.19
402.01	14029.17
402.21	13944.91
402.40	14111.09
402.59	13752.99
402.78	13254.45
402.97	12847.20
403.17	13181.90
403.36	13907.46
403.55	14677.50
403.74	15061.35
403.93	14265.57
404.13	13057.85
404.32	12713.79
404.51	13071.89
404.70	14441.11
404.89	14651.75
405.09	14288.97
405.28	13989.38
405.47	13750.65
405.66	13659.37
405.85	13322.33
406.05	12945.50
406.24	12945.50
406.43	13788.10
406.62	14335.78
406.81	14504.30
407.00	14059.60
407.20	13523.62
407.39	13820.86
407.58	14347.48
407.77	14705.59
407.96	15473.28
408.15	15400.72
408.34	15487.32
408.54	16273.74
408.73	16475.03
408.92	16334.60
409.11	15751.81
409.30	15136.24
409.49	14015.13
409.68	13263.82
409.87	13186.58
410.07	13528.30
410.26	14546.43
410.45	15243.91
410.64	15901.60
410.83	16341.62
411.02	16561.63
411.21	17586.79
411.40	17469.76
411.59	17369.12
411.78	17195.92
411.98	16901.01
412.17	17343.37
412.36	16994.63
412.55	16926.75
412.74	16940.80
412.93	16334.60
413.12	16329.92
413.31	17987.02
413.50	18022.12
413.69	18515.98
413.88	17954.25
414.07	17118.68
414.26	17446.35
414.45	18211.71
414.64	18349.80
414.83	18090.00
415.02	17886.37
415.22	17685.09
415.41	18338.10
415.60	19030.90
415.79	19417.08
415.98	20130.95
416.17	20034.99
416.36	19587.94
416.55	19606.67
416.74	18668.11
416.93	17961.27
417.12	17996.38
417.31	18429.38
417.50	18548.75
417.69	19260.27
417.88	19311.76
418.07	19044.94
418.26	18810.89
418.45	19218.14
418.64	19494.32
418.83	20210.53
419.02	20093.50
419.21	19962.43
419.39	18672.79
419.58	18061.91
419.77	18120.43
419.96	18677.48
420.15	19913.28
420.34	20732.47
420.53	21029.71
420.72	21685.06
420.91	21420.58
421.10	20954.82
421.29	21193.55
421.48	20016.26
421.67	21546.97
421.86	20585.01
422.05	19405.38
422.24	17160.81
422.43	16947.82
422.61	19267.29
422.80	20575.65
422.99	20381.38
423.18	20135.63
423.37	19424.11
423.56	19456.87
423.75	19836.04
423.94	20100.52
424.13	19164.31
424.32	19339.85
424.50	19517.73
424.69	19220.48
424.88	19356.23
425.07	19562.20
425.26	19089.41
425.45	18902.17
425.64	18534.70
425.83	18445.76
426.01	19784.55
426.20	20257.34
426.39	20325.21
426.58	18583.85
426.77	17310.60
426.96	16456.31
427.15	17406.56
427.33	18717.26
427.52	19367.93
427.71	19613.69
427.90	19229.84
428.09	19171.33
428.28	18558.11
428.46	18054.89
428.65	17570.40
428.84	18157.88
429.03	18607.26
429.22	17500.19
429.40	16578.01
429.59	15077.73
429.78	13315.31
429.97	13392.55
430.16	13631.28
430.34	13755.33
430.53	13444.04
430.72	13743.63
430.91	15192.42
431.10	17902.76
431.28	21394.84
431.47	23082.36
431.66	23323.44
431.85	21034.39
432.03	19433.47
432.22	18389.59
432.41	19363.25
432.60	21582.08
432.79	22525.32
432.97	22944.27
433.16	22436.38
433.35	20886.94
433.54	18663.43
433.72	17172.51
433.91	17750.62
434.10	19819.66
434.28	21252.06
434.47	22398.93
434.66	22211.68
434.85	21490.80
435.03	21277.81
435.22	22106.36
435.41	23183.01
435.59	23470.89
435.78	23543.45
435.97	24528.81
436.16	24306.46
436.34	24137.94
436.53	23321.10
436.72	23915.59
436.90	22235.09
437.09	22249.13
437.28	21785.71
437.46	22637.66
437.65	22775.75
437.84	21261.43
438.02	19428.79
438.21	19051.96
438.40	20130.95
438.58	22097.00
438.77	22855.33
438.96	22703.20
439.14	23882.83
439.33	24215.18
439.52	24680.95
439.70	24566.26
439.89	23541.11
440.08	23065.98
440.26	22771.07
440.45	23660.48
440.63	25282.47
440.82	26665.72
441.01	26253.79
441.19	26085.27
441.38	26396.56
441.57	27590.24
441.75	27742.37
441.94	28151.96
442.12	27541.08
442.31	28402.40
442.50	28280.69
442.68	27950.68
442.87	27414.69
443.05	26817.86
443.24	27391.29
443.43	27950.68
443.61	28367.29
443.80	28816.68
443.98	27466.19
444.17	27388.95
444.35	28985.19
444.54	29479.05
444.73	29170.10
444.91	27866.42
445.10	26623.59
445.28	25991.65
445.47	25443.96
445.65	25298.85
445.84	26434.01
446.02	27126.81
446.21	27456.82
446.39	27578.53
446.58	27843.01
446.77	28287.71
446.95	28271.33
447.14	29525.86
447.32	29621.82
447.51	29188.82
447.69	28247.93
447.88	27716.62
448.06	28081.75
448.25	29010.94
448.43	29137.33
448.62	28182.39
448.80	28257.29
448.99	28280.69
449.17	29088.18
449.36	28802.63
449.54	29696.72
449.73	30043.12
449.91	30686.76
450.10	31648.72
450.28	32058.32
450.46	31587.87
450.65	31562.12
450.83	31791.50
451.02	30728.89
451.20	30874.01
451.39	30663.36
451.57	30279.51
451.76	30469.09
451.94	30396.54
452.13	29834.81
452.31	28278.35
452.49	27381.93
452.68	27302.35
452.86	27524.70
453.05	27625.34
453.23	28968.81
453.42	29261.38
453.60	30115.67
453.78	30335.68
453.97	29970.56
454.15	30361.43
454.34	29448.62
454.52	29474.37
454.70	28954.77
454.89	29418.19
455.07	29567.99
455.26	29813.74
455.44	31061.25
455.62	31508.29
455.81	31564.46
455.99	31323.39
456.17	31201.68
456.36	30969.97
456.54	32165.98
456.73	31779.79
456.91	32641.11
457.09	32606.00
457.28	33617.11
457.46	32037.25
457.64	31740.00
457.83	30651.66
458.01	30073.54
458.19	31012.10
458.38	30663.36
458.56	32215.13
458.74	32037.25
458.93	31541.06
459.11	31189.98
459.29	31299.98
459.48	31330.41
459.66	31241.47
459.84	31342.11
460.03	32105.13
460.21	31917.89
460.39	32772.18
460.57	32711.33
460.76	32980.49
460.94	32961.76
461.12	32966.45
461.31	32893.89
461.49	32496.00
461.67	32549.83
461.85	33926.07
462.04	33537.54
462.22	33589.03
462.40	33876.91
462.59	33291.78
462.77	33699.03
462.95	33853.51
463.13	33095.18
463.32	32884.53
463.50	32755.80
463.68	32524.08
463.86	32706.65
464.05	32315.78
464.23	31786.82
464.41	31463.82
464.59	30806.13
464.78	32318.12
464.96	32194.07
465.14	32034.91
465.32	32968.79
465.50	33614.77
465.69	34223.31
465.87	33455.62
466.05	32294.71
466.23	30995.71
466.41	30181.21
466.60	31405.31
466.78	31009.76
466.96	31943.63
467.14	32250.24
467.32	32952.40
467.51	33186.46
467.69	31061.25
467.87	32154.28
468.05	32545.15
468.23	32294.71
468.41	32545.15
468.60	32748.78
468.78	33085.81
468.96	32875.16
469.14	33385.40
469.32	32879.85
469.50	31885.12
469.69	32236.20
469.87	32016.19
470.05	31311.69
470.23	31529.36
470.41	31892.14
470.59	32079.38
470.77	32280.67
470.95	32964.10
471.14	33312.84
471.32	33514.13
471.50	35079.95
471.68	35337.41
471.86	35885.09
472.04	35658.06
472.22	36208.09
472.40	34527.58
472.58	33778.61
472.77	33376.04
472.95	33895.64
473.13	35086.97
473.31	34206.93
473.49	34164.80
473.67	34913.77
473.85	34958.24
474.03	35999.78
474.21	36137.87
474.39	36245.54
474.57	36954.72
474.75	36339.16
474.93	36383.63
475.12	35725.94
475.30	35395.92
475.48	35978.72
475.66	36402.35
475.84	35990.42
476.02	35880.41
476.20	35028.46
476.38	35957.65
476.56	36381.29
476.74	36987.49
476.92	37357.29
477.10	38230.31
477.28	38890.34
477.46	39332.70
477.64	39370.15
477.82	39810.17
478.00	40210.40
478.18	38951.20
478.36	39236.74
478.54	38871.62
478.72	39227.38
478.90	40343.81
479.08	41251.94
479.26	41741.11
479.44	41415.78
479.62	41474.29
479.80	41226.20
479.98	41425.14
480.16	41940.06
480.34	41368.97
480.52	42043.04
480.70	41764.52
480.88	41979.85
481.06	43342.04
481.24	42923.08
481.41	43906.11
481.59	44664.44
481.77	44243.15
481.95	44240.81
482.13	43166.50
482.31	43863.98
482.49	44996.80
482.67	44292.30
482.85	44807.22
483.03	44994.46
483.21	45123.19
483.39	45415.76
483.57	44687.85
483.74	44259.53
483.92	44905.52
484.10	45123.19
484.28	46216.22
484.46	46153.02
484.64	46981.57
484.82	45525.76
485.00	45085.74
485.18	44378.90
485.35	43491.83
485.53	40617.66
485.71	36896.20
485.89	36091.06
486.07	37879.23
486.25	41179.39
486.43	43482.47
486.61	44357.83
486.78	44098.03
486.96	44744.02
487.14	46387.08
487.32	47082.22
487.50	47824.17
487.68	48907.83
487.85	49617.02
488.03	49591.27
488.21	48830.60
488.39	48240.78
488.57	47800.76
488.75	47091.58
488.92	48184.61
489.10	50768.56
489.28	52046.49
489.46	52966.32
489.64	52736.95
489.81	52856.32
489.99	52423.32
490.17	52322.68
490.35	52767.38
490.53	52238.42
490.70	52044.15
490.88	51770.31
491.06	53017.82
491.24	52589.50
491.41	51922.44
491.59	50183.43
491.77	49106.78
491.95	50319.18
492.13	51810.10
492.30	52666.73
492.48	54059.35
492.66	54490.01
492.84	54295.75
493.01	54145.95
493.19	53375.92
493.37	52924.19
493.54	52910.15
493.72	53436.77
493.90	54440.86
494.08	55110.25
494.25	55526.87
494.43	55833.48
494.61	56432.66
494.79	56161.15
494.96	56018.38
495.14	55608.79
495.32	54555.55
495.49	54124.89
495.67	54742.79
495.85	56149.45
496.02	56432.66
496.20	56603.52
496.38	55936.46
496.55	55896.67
496.73	56479.47
496.91	56376.48
497.09	57130.14
497.26	57221.42
497.44	56664.37
497.62	56193.92
497.79	55805.39
497.97	54265.32
498.14	54239.57
498.32	55344.31
498.50	56453.72
498.67	56849.27
498.85	56882.04
499.03	57027.15
499.20	57233.12
499.38	57214.40
499.56	56956.94
499.73	56287.54
499.91	56137.75
500.08	55725.81
500.26	54997.91
500.44	55711.77
500.61	56137.75
500.79	55990.30
500.97	55791.35
501.14	55456.65
501.32	55143.02
501.49	55419.20
501.67	55592.40
501.84	56463.08
502.02	56418.61
502.20	56657.35
502.37	56942.89
502.55	56825.87
502.72	57467.17
502.90	57815.91
503.07	57399.30
503.25	57195.67
503.43	56624.58
503.60	55779.65
503.78	55112.59
503.95	55536.23
504.13	56980.34
504.30	57773.78
504.48	57509.30
504.65	57066.94
504.83	57146.52
505.01	57839.32
505.18	58227.85
505.36	58679.57
505.53	58445.52
505.71	58925.33
505.88	58883.20
506.06	58396.37
506.23	58049.97
506.41	57722.29
506.58	57935.28
506.76	57841.66
506.93	57874.43
507.11	57780.81
507.28	57839.32
507.46	57420.36
507.63	56828.21
507.81	56451.38
507.98	56860.97
508.16	57584.20
508.33	58223.17
508.50	58246.57
508.68	58663.19
508.85	59152.36
509.03	58953.41
509.20	58958.09
509.38	58073.37
509.55	57605.26
509.73	57621.65
509.90	58103.80
510.08	58398.71
510.25	58354.24
510.42	58239.55
510.60	58085.07
510.77	58307.43
510.95	58829.37
511.12	59201.51
511.30	59297.47
511.47	59568.97
511.64	59454.29
511.82	58997.88
511.99	58328.49
512.17	58047.63
512.34	57579.52
512.51	57780.81
512.69	57963.37
512.86	58087.42
513.04	58520.41
513.21	58422.11
513.38	58106.14
513.56	57733.99
513.73	56973.32
513.90	57240.14
514.08	57242.48
514.25	57733.99
514.43	57968.05
514.60	57930.60
514.77	58218.49
514.95	58089.76
515.12	57921.24
515.29	58234.87
515.47	58557.86
515.64	59032.99
515.81	58564.88
515.99	57874.43
516.16	56631.60
516.33	54506.40
516.51	52905.47
516.68	51901.38
516.85	51817.12
517.03	52219.69
517.20	54644.49
517.37	57244.82
517.54	58267.64
517.72	57825.28
517.89	55384.10
518.06	53048.24
518.24	53183.99
518.41	55491.76
518.58	56910.13
518.75	57106.73
518.93	57403.98
519.10	57298.65
519.27	57528.03
519.45	57832.30
519.62	58464.24
519.79	58894.90
519.96	58515.73
520.14	58155.29
520.31	57289.29
520.48	57385.25
520.65	57801.87
520.83	58712.34
521.00	58981.50
521.17	58728.72
521.34	58319.13
521.52	58539.14
521.69	58939.37
521.86	59372.37
522.03	59288.11
522.20	58108.48
522.38	56917.15
522.55	57085.67
522.72	57544.41
522.89	57780.81
523.07	57921.24
523.24	58284.02
523.41	58848.09
523.58	59187.47
523.75	59824.09
523.92	59786.64
524.10	59716.43
524.27	59447.27
524.44	59423.86
524.61	59168.74
524.78	59040.01
524.96	59079.80
525.13	59164.06
525.30	59274.07
525.47	59538.55
525.64	59545.57
525.81	58859.79
525.98	57666.12
526.16	56018.38
526.33	55299.84
526.50	55037.70
526.67	54607.04
526.84	55463.67
527.01	56357.76
527.18	57141.84
527.36	58106.14
527.53	58927.67
527.70	59171.08
527.87	58564.88
528.04	58071.03
528.21	58843.41
528.38	59126.61
528.55	59833.46
528.72	60184.54
528.89	60329.65
529.07	59868.56
529.24	59271.73
529.41	58688.93
529.58	58211.46
529.75	58237.21
529.92	58543.82
530.09	58958.09
530.26	59739.83
530.43	59718.77
530.60	59746.86
530.77	60119.00
530.94	60289.86
531.11	59800.69
531.28	59313.86
531.46	59213.21
531.63	59222.58
531.80	59262.36
531.97	58763.83
532.14	58286.36
532.31	57233.12
532.48	56308.61
532.65	56463.08
532.82	57516.32
532.99	58401.05
533.16	58782.55
533.33	59435.56
533.50	59070.44
533.67	58370.62
533.84	58005.50
534.01	58363.60
534.18	58277.00
534.35	58848.09
534.52	58557.86
534.69	58885.54
534.86	59075.12
535.03	59180.45
535.20	59714.09
535.37	59983.25
535.54	60149.43
535.71	59707.07
535.88	59585.36
536.05	59014.27
536.22	58452.54
536.38	58340.19
536.55	57621.65
536.72	57375.89
536.89	57378.23
537.06	57773.78
537.23	58801.28
537.40	58993.20
537.57	59192.15
537.74	58742.77
537.91	58939.37
538.08	58611.70
538.25	58820.00
538.42	59133.63
538.59	58738.08
538.75	58188.06
538.92	57733.99
539.09	57654.42
539.26	57532.71
539.43	57345.47
539.60	57673.14
539.77	57755.06
539.94	57942.30
540.11	56907.79
540.28	56336.69
540.44	56575.43
540.61	56905.44
540.78	56741.61
540.95	57408.66
541.12	57764.42
541.29	58148.27
541.46	58265.30
541.62	58328.49
541.79	58368.28
541.96	57513.98
542.13	57563.14
542.30	57776.12
542.47	58134.23
542.63	57771.44
542.80	57776.12
542.97	57982.09
543.14	57509.30
543.31	57560.79
543.48	58033.58
543.64	58990.86
543.81	59374.71
543.98	59185.13
544.15	58557.86
544.32	57778.46
544.48	57797.19
544.65	58199.76
544.82	58651.48
544.99	58417.43
545.16	58007.84
545.32	57612.29
545.49	58548.50
545.66	58766.17
545.83	58557.86
546.00	58122.52
546.16	57886.13
546.33	57958.69
546.50	58038.26
546.67	58288.70
546.83	58033.58
547.00	57846.34
547.17	57511.64
547.34	56821.19
547.50	56790.76
547.67	57242.48
547.84	57240.14
548.00	57364.19
548.17	58099.12
548.34	57984.43
548.51	57961.03
548.67	58059.33
548.84	57935.28
549.01	58092.10
549.18	57951.66
549.34	57853.36
549.51	57649.74
549.68	57642.71
549.84	57736.34
550.01	57471.85
550.18	57202.69
550.34	57481.22
550.51	57343.12
550.68	57544.41
550.84	57092.69
551.01	57130.14
551.18	57251.84
551.34	57394.62
551.51	57769.10
551.68	58150.61
551.84	58024.22
552.01	57631.01
552.18	57874.43
552.34	56743.95
552.51	56519.26
552.68	56465.42
552.84	56886.72
553.01	57228.44
553.18	57127.80
553.34	57254.18
553.51	57361.85
553.67	57427.38
553.84	57778.46
554.01	57577.18
554.17	57153.54
554.34	57441.43
554.51	57549.09
554.67	57876.77
554.84	57806.55
555.00	57237.80
555.17	57284.61
555.33	57403.98
555.50	57207.37
555.67	57324.40
555.83	57057.58
556.00	56645.65
556.16	56435.00
556.33	56444.36
556.50	56165.84
556.66	56154.13
556.83	56074.55
556.99	56060.51
557.16	56079.24
557.32	56474.79
557.49	56842.25
557.65	56605.86
557.82	56474.79
557.98	56392.87
558.15	55997.32
558.32	55217.92
558.48	54480.65
558.65	54595.34
558.81	54923.01
558.98	55367.71
559.14	55559.64
559.31	55381.76
559.47	55501.12
559.64	55201.53
559.80	54876.20
559.97	54873.86
560.13	55529.21
560.30	56219.67
560.46	56741.61
560.63	57095.03
560.79	57071.62
560.96	56561.39
561.12	55320.90
561.29	54953.44
561.45	54691.30
561.61	55250.69
561.78	55861.57
561.94	55613.47
562.11	55435.59
562.27	55433.25
562.44	55634.53
562.60	56013.70
562.77	56165.84
562.93	55856.88
563.10	56060.51
563.26	55206.22
563.42	55187.49
563.59	55018.97
563.75	55248.35
563.92	55356.01
564.08	55330.26
564.24	55454.31
564.41	55657.94
564.57	55405.16
564.74	55360.69
564.90	55016.63
565.07	55098.55
565.23	54698.32
565.39	54143.61
565.56	53897.86
565.72	53563.16
565.88	53993.82
566.05	53837.00
566.21	54377.67
566.38	54337.88
566.54	54546.18
566.70	55100.89
566.87	55344.31
567.03	55260.05
567.19	55487.08
567.36	55033.02
567.52	54766.20
567.68	54749.81
567.85	54365.96
568.01	53790.19
568.17	53139.52
568.34	53361.87
568.50	53183.99
568.66	53137.18
568.83	54054.67
568.99	53909.56
569.15	54370.64
569.32	54071.06
569.48	53609.97
569.64	53752.74
569.81	53289.32
569.97	53296.34
570.13	53247.19
570.30	52725.25
570.46	52236.08
570.62	51920.10
570.78	51707.12
570.95	52074.58
571.11	52769.72
571.27	52924.19
571.43	53347.83
571.60	53418.05
571.76	53340.81
571.92	53752.74
572.09	53815.94
572.25	53925.94
572.41	53886.15
572.57	53815.94
572.74	53860.41
572.90	53228.46
573.06	53413.37
573.22	53221.44
573.38	53422.73
573.55	53467.20
573.71	53324.43
573.87	53457.84
574.03	52849.30
574.20	53258.89
574.36	52861.00
574.52	53008.45
574.68	52809.51
574.84	52193.95
575.01	51601.79
575.17	51367.74
575.33	51749.24
575.49	52186.92
575.65	52392.89
575.82	52062.88
575.98	51634.56
576.14	52109.69
576.30	52399.91
576.46	52282.89
576.62	52690.14
576.79	52301.61
576.95	52107.35
577.11	52182.24
577.27	52317.99
577.43	52360.12
577.59	52067.56
577.75	51271.78
577.92	50782.60
578.08	50635.15
578.24	50447.91
578.40	50824.73
578.56	51313.90
578.72	51084.53
578.88	51409.87
579.04	51580.73
579.21	51690.73
579.37	51765.63
579.53	51709.46
579.69	51728.18
579.85	51758.61
580.01	51854.57
580.17	51524.55
580.33	51281.14
580.49	51320.93
580.65	51367.74
580.82	51845.21
580.98	51821.80
581.14	51704.77
581.30	51863.93
581.46	51622.86
581.62	51695.41
581.78	51948.19
581.94	52023.09
582.10	51697.75
582.26	51952.87
582.42	51894.36
582.58	52016.07
582.74	51995.00
582.90	51889.68
583.06	51847.55
583.22	51793.71
583.38	51620.52
583.54	51688.39
583.70	51449.66
583.86	51749.24
584.02	51599.45
584.18	51793.71
584.34	51531.57
584.50	51227.31
584.66	51164.11
584.82	50990.91
584.98	50726.43
585.14	50328.54
585.30	49741.06
