SpectraSuite Data File
++++++++++++++++++++++++++++++++++++
Date: Mon Oct 07 14:53:17 GMT-05:00 2013
User: price-jones
Dark Spectrum Present: No
Reference Spectrum Present: No
Number of Sampled Component Spectra: 1
Spectrometers: USB2+H05261
Integration Time (usec): 100000 (USB2+H05261)
Spectra Averaged: 1 (USB2+H05261)
Boxcar Smoothing: 0 (USB2+H05261)
Correct for Electrical Dark: No (USB2+H05261)
Strobe/Lamp Enabled: No (USB2+H05261)
Correct for Detector Non-linearity: No (USB2+H05261)
Correct for Stray Light: No (USB2+H05261)
Number of Pixels in Processed Spectrum: 2048
>>>>>Begin Processed Spectral Data<<<<<
365.73	0.00
365.92	0.00
366.12	0.00
366.32	0.00
366.52	0.00
366.72	0.00
366.91	0.00
367.11	0.00
367.31	0.00
367.51	0.00
367.70	0.00
367.90	0.00
368.10	0.00
368.30	0.00
368.49	0.00
368.69	0.00
368.89	0.00
369.09	0.00
369.28	0.00
369.48	0.00
369.68	0.00
369.87	0.00
370.07	0.00
370.27	0.00
370.47	1776.47
370.66	7803.35
370.86	8828.50
371.06	9743.65
371.25	9415.98
371.45	8461.04
371.65	7758.88
371.84	7391.41
372.04	8021.02
372.24	8622.53
372.44	8919.78
372.63	8809.78
372.83	8109.96
373.03	7019.27
373.22	6670.53
373.42	7108.21
373.62	8198.90
373.81	8683.39
374.01	8596.79
374.21	7463.97
374.40	7143.32
374.60	7833.77
374.79	8564.02
374.99	10286.65
375.19	10525.39
375.38	10363.89
375.58	10078.35
375.78	9809.19
375.97	9785.78
376.17	10274.95
376.37	10429.43
376.56	10665.82
376.76	10986.47
376.95	11969.50
377.15	12793.37
377.35	13357.44
377.54	13561.06
377.74	13628.94
377.93	13767.03
378.13	13018.06
378.33	12561.66
378.52	11847.79
378.72	11239.25
378.91	11052.01
379.11	10827.32
379.31	10368.57
379.50	10436.45
379.70	11489.69
379.89	12666.98
380.09	13078.91
380.28	13532.98
380.48	13408.93
380.68	13179.56
380.87	12505.48
381.07	11885.24
381.26	10817.96
381.46	10281.97
381.65	10068.98
381.85	9607.90
382.04	9179.58
382.24	8580.40
382.43	8245.71
382.63	7948.46
382.83	8042.08
383.02	7936.76
383.22	8074.85
383.41	8175.49
383.61	8688.07
383.80	10354.53
384.00	11115.20
384.19	12669.32
384.39	13275.52
384.58	12971.25
384.78	12814.43
384.97	12320.58
385.17	11815.02
385.36	11094.14
385.56	11122.23
385.75	11616.08
385.95	12313.56
386.14	13291.90
386.34	13371.48
386.53	12774.64
386.72	12006.95
386.92	12091.21
387.11	12676.34
387.31	13474.46
387.50	13172.54
387.70	12877.63
387.89	12788.69
388.09	12655.28
388.28	12334.62
388.48	13011.04
388.67	14043.21
388.86	15461.58
389.06	16468.01
389.25	16915.05
389.45	17123.36
389.64	17310.60
389.84	16896.33
390.03	16624.83
390.22	16683.34
390.42	17617.21
390.61	18768.76
390.81	19594.96
391.00	19405.38
391.19	19618.37
391.39	18972.38
391.58	17699.13
391.78	16533.54
391.97	16201.19
392.16	14932.62
392.36	13200.62
392.55	10668.16
392.75	8713.81
392.94	7377.37
393.13	7503.76
393.33	8748.92
393.52	11054.35
393.71	13572.77
393.91	15002.83
394.10	16140.33
394.29	18171.92
394.49	19220.48
394.68	20641.18
394.88	20933.75
395.07	21048.44
395.26	20992.26
395.46	20589.69
395.65	19176.01
395.84	16446.94
396.04	13628.94
396.23	11372.66
396.42	9635.99
396.62	9352.78
396.81	11339.90
397.00	14595.58
397.19	18073.62
397.39	21191.21
397.58	23480.25
397.77	24730.10
397.97	25268.42
398.16	25773.98
398.35	27094.04
398.55	27496.61
398.74	28496.02
398.93	28966.47
399.12	28580.28
399.32	27426.40
399.51	28442.19
399.70	30024.39
399.90	29366.70
400.09	29240.31
400.28	29015.62
400.47	29895.66
400.67	30639.95
400.86	31620.64
401.05	31409.99
401.24	32126.19
401.44	32381.31
401.63	32114.49
401.82	32854.10
402.01	32332.16
402.21	32758.14
402.40	32936.02
402.59	31606.59
402.78	29989.28
402.97	29809.06
403.17	31344.45
403.36	32613.02
403.55	34127.35
403.74	34574.39
403.93	32655.15
404.13	30562.72
404.32	29649.91
404.51	31037.84
404.70	33537.54
404.89	33062.41
405.09	32973.47
405.28	31922.57
405.47	32203.43
405.66	31613.62
405.85	31192.32
406.05	30431.65
406.24	30857.62
406.43	31983.42
406.62	33329.23
406.81	33167.73
407.00	32084.06
407.20	31271.90
407.39	31367.86
407.58	33034.32
407.77	33965.85
407.96	35147.82
408.15	35454.44
408.34	35688.49
408.54	37486.02
408.73	37214.52
408.92	36582.57
409.11	35775.09
409.30	34281.83
409.49	31915.54
409.68	30057.16
409.87	29216.91
410.07	32016.19
410.26	33813.72
410.45	35847.64
410.64	36470.23
410.83	38047.75
411.02	38522.88
411.21	39807.83
411.40	38979.28
411.59	39250.78
411.78	39140.78
411.98	38543.94
412.17	39112.69
412.36	38438.62
412.55	38993.32
412.74	37862.85
412.93	37055.36
413.12	37301.12
413.31	40748.73
413.50	41336.20
413.69	41174.70
413.88	39599.52
414.07	38885.66
414.26	39318.66
414.45	41160.66
414.64	41104.49
414.83	41537.49
415.02	40165.93
415.22	40329.77
415.41	41010.87
415.60	42230.29
415.79	44203.36
415.98	44584.86
416.17	44629.34
416.36	43522.26
416.55	42824.78
416.74	41818.35
416.93	40119.12
417.12	40643.40
417.31	40966.40
417.50	41514.08
417.69	43241.40
417.88	42976.92
418.07	42436.25
418.26	41605.36
418.45	42129.64
418.64	43873.34
418.83	44989.78
419.02	44289.96
419.21	43852.28
419.39	42005.59
419.58	40589.57
419.77	40704.26
419.96	42632.86
420.15	44009.09
420.34	45127.87
420.53	46836.46
420.72	47009.66
420.91	47065.83
421.10	46794.33
421.29	46426.87
421.48	45036.59
421.67	46492.40
421.86	44999.14
422.05	42122.62
422.24	39030.77
422.43	38651.61
422.61	42239.65
422.80	45249.58
422.99	45081.06
423.18	43466.09
423.37	43192.25
423.56	43278.85
423.75	43566.73
423.94	44978.07
424.13	41886.23
424.32	42632.86
424.50	42586.05
424.69	41907.29
424.88	42572.00
425.07	42230.29
425.26	41825.37
425.45	41521.10
425.64	40868.09
425.83	41649.83
426.01	43639.29
426.20	44273.57
426.39	44130.80
426.58	40591.91
426.77	38223.29
426.96	37050.68
427.15	38644.59
427.33	41235.56
427.52	42665.63
427.71	42298.16
427.90	42134.32
428.09	41511.74
428.28	41071.72
428.46	39459.09
428.65	39449.73
428.84	40978.10
429.03	40514.67
429.22	38443.30
429.40	36584.91
429.59	32900.91
429.78	29633.52
429.97	29879.28
430.16	29921.41
430.34	30429.30
430.53	30410.58
430.72	31440.42
430.91	34733.55
431.10	40486.59
431.28	46567.30
431.47	48996.77
431.66	49022.52
431.85	45193.40
432.03	41617.07
432.22	40877.46
432.41	42749.88
432.60	46663.26
432.79	48413.98
432.97	48505.26
433.16	47182.86
433.35	43711.84
433.54	39676.76
433.72	37984.55
433.91	40128.48
434.10	43519.92
434.28	46106.21
434.47	47892.04
434.66	47555.00
434.85	46476.02
435.03	46220.90
435.22	47540.96
435.41	49404.03
435.59	49572.55
435.78	49628.72
435.97	50923.04
436.16	50639.83
436.34	49940.01
436.53	49565.52
436.72	49132.53
436.90	47512.88
437.09	47875.66
437.28	46829.44
437.46	48465.47
437.65	47910.77
437.84	44893.82
438.02	42251.35
438.21	42029.00
438.40	44219.74
438.58	47288.18
438.77	48301.64
438.96	48772.08
439.14	50443.23
439.33	50618.77
439.52	51124.32
439.70	50429.18
439.89	49684.89
440.08	48690.16
440.26	48715.91
440.45	49968.10
440.63	51723.50
440.82	53556.14
441.01	53144.20
441.19	52619.92
441.38	53689.55
441.57	54344.90
441.75	54497.03
441.94	54686.62
442.12	54665.55
442.31	55128.98
442.50	54983.86
442.68	54550.87
442.87	54164.68
443.05	54052.33
443.24	54749.81
443.43	55360.69
443.61	55320.90
443.80	55847.52
443.98	54155.32
444.17	54155.32
444.35	55664.96
444.54	56163.50
444.73	55962.21
444.91	54602.36
445.10	53275.27
445.28	52374.17
445.47	51976.28
445.65	52516.94
445.84	52849.30
446.02	53904.88
446.21	54574.27
446.39	54291.07
446.58	54782.58
446.77	55341.97
446.95	55657.94
447.14	56493.51
447.32	56814.16
447.51	56044.13
447.69	55049.40
447.88	54780.24
448.06	55028.34
448.25	55796.03
448.43	56158.81
448.62	55316.22
448.80	55103.23
448.99	55309.20
449.17	55545.59
449.36	55470.70
449.54	56502.87
449.73	56816.50
449.91	57432.07
450.10	58251.25
450.28	58253.59
450.46	58096.78
450.65	58265.30
450.83	57755.06
451.02	57380.57
451.20	57118.43
451.39	57148.86
451.57	57258.87
451.76	57289.29
451.94	56708.84
452.13	56324.99
452.31	55077.49
452.49	53853.39
452.68	53982.12
452.86	54211.49
453.05	54836.41
453.23	55751.56
453.42	56285.20
453.60	56439.68
453.78	56999.07
453.97	56907.79
454.15	56486.49
454.34	56226.69
454.52	56601.18
454.70	55655.60
454.89	55803.05
455.07	56231.37
455.26	56324.99
455.44	57495.26
455.62	57752.72
455.81	57876.77
455.99	57712.93
456.17	57516.32
456.36	57324.40
456.54	58389.34
456.73	58417.43
456.91	58864.47
457.09	58918.31
457.28	59484.72
457.46	58113.16
457.64	58141.25
457.83	57209.71
458.01	56636.28
458.19	57755.06
458.38	57614.63
458.56	58246.57
458.74	57916.56
458.93	57888.47
459.11	57701.23
459.29	57577.18
459.48	57883.79
459.66	57689.52
459.84	57998.48
460.03	58129.54
460.21	58206.78
460.39	58656.17
460.57	58630.42
460.76	59030.65
460.94	59025.97
461.12	58834.05
461.31	58768.51
461.49	58817.66
461.67	58946.39
461.85	59547.91
462.04	59370.03
462.22	59405.14
462.40	59538.55
462.59	59201.51
462.77	59260.02
462.95	59355.99
463.13	59093.85
463.32	58700.64
463.50	58518.07
463.68	58796.60
463.86	58674.89
464.05	58408.07
464.23	57923.58
464.41	57888.47
464.59	57443.77
464.78	58684.25
464.96	58564.88
465.14	58319.13
465.32	59164.06
465.50	59721.11
465.69	59920.05
465.87	59215.55
466.05	58653.82
466.23	57329.08
466.41	56853.95
466.60	57815.91
466.78	57558.45
466.96	58042.95
467.14	58698.30
467.32	58791.92
467.51	58618.72
467.69	57542.07
467.87	57881.45
468.05	58506.37
468.23	58181.04
468.41	58145.93
468.60	58197.42
468.78	58609.35
468.96	58632.76
469.14	59157.04
469.32	59159.38
469.50	57986.77
469.69	57918.90
469.87	57963.37
470.05	57757.40
470.23	57389.94
470.41	57708.25
470.59	57932.94
470.77	58190.40
470.95	58532.12
471.14	58794.26
471.32	59023.63
471.50	60385.82
471.68	60236.03
471.86	60612.85
472.04	60959.25
472.22	60715.84
472.40	59587.70
472.58	59428.54
472.77	58918.31
472.95	59547.91
473.13	60374.12
473.31	59884.95
473.49	59884.95
473.67	60079.21
473.85	60376.46
474.03	60975.64
474.21	61104.37
474.39	60963.93
474.57	61127.77
474.75	61303.31
474.93	61155.86
475.12	60547.32
475.30	60530.93
475.48	60729.88
475.66	61226.07
475.84	60666.69
476.02	60814.14
476.20	60310.92
476.38	60886.70
476.56	61628.65
476.74	61829.93
476.92	61862.70
477.10	62269.95
477.28	62843.38
477.46	62934.66
477.64	62878.49
477.82	63107.86
478.00	63075.10
478.18	62649.12
478.36	62878.49
478.54	62862.11
478.72	63299.79
478.90	63634.48
479.08	64189.19
479.26	64530.91
479.44	64434.95
479.62	64285.15
479.80	64165.79
479.98	64121.32
480.16	64175.15
480.34	64133.02
480.52	64348.35
480.70	64556.66
480.88	64652.62
481.06	64996.68
481.24	65041.15
481.41	65535.00
481.59	65535.00
481.77	65535.00
481.95	65535.00
482.13	65322.01
482.31	65535.00
482.49	65535.00
482.67	65535.00
482.85	65535.00
483.03	65535.00
483.21	65535.00
483.39	65535.00
483.57	65535.00
483.74	65535.00
483.92	65535.00
484.10	65535.00
484.28	65535.00
484.46	65535.00
484.64	65535.00
484.82	65535.00
485.00	65535.00
485.18	65535.00
485.35	65111.36
485.53	63152.33
485.71	61153.52
485.89	60975.64
486.07	62461.88
486.25	64268.77
486.43	65535.00
486.61	65535.00
486.78	65535.00
486.96	65535.00
487.14	65535.00
487.32	65535.00
487.50	65535.00
487.68	65535.00
487.85	65535.00
488.03	65535.00
488.21	65535.00
488.39	65535.00
488.57	65535.00
488.75	65535.00
488.92	65535.00
489.10	65535.00
489.28	65535.00
489.46	65535.00
489.64	65535.00
489.81	65535.00
489.99	65535.00
490.17	65535.00
490.35	65535.00
490.53	65535.00
490.70	65535.00
490.88	65535.00
491.06	65535.00
491.24	65535.00
491.41	65535.00
491.59	65535.00
491.77	65535.00
491.95	65535.00
492.13	65535.00
492.30	65535.00
492.48	65535.00
492.66	65535.00
492.84	65535.00
493.01	65535.00
493.19	65535.00
493.37	65535.00
493.54	65535.00
493.72	65535.00
493.90	65535.00
494.08	65535.00
494.25	65535.00
494.43	65535.00
494.61	65535.00
494.79	65535.00
494.96	65535.00
495.14	65535.00
495.32	65535.00
495.49	65535.00
495.67	65535.00
495.85	65535.00
496.02	65535.00
496.20	65535.00
496.38	65535.00
496.55	65535.00
496.73	65535.00
496.91	65535.00
497.09	65535.00
497.26	65535.00
497.44	65535.00
497.62	65535.00
497.79	65535.00
497.97	65535.00
498.14	65535.00
498.32	65535.00
498.50	65535.00
498.67	65535.00
498.85	65535.00
499.03	65535.00
499.20	65535.00
499.38	65535.00
499.56	65535.00
499.73	65535.00
499.91	65535.00
500.08	65535.00
500.26	65535.00
500.44	65535.00
500.61	65535.00
500.79	65535.00
500.97	65535.00
501.14	65535.00
501.32	65535.00
501.49	65535.00
501.67	65535.00
501.84	65535.00
502.02	65535.00
502.20	65535.00
502.37	65535.00
502.55	65535.00
502.72	65535.00
502.90	65535.00
503.07	65535.00
503.25	65535.00
503.43	65535.00
503.60	65535.00
503.78	65535.00
503.95	65535.00
504.13	65535.00
504.30	65535.00
504.48	65535.00
504.65	65535.00
504.83	65535.00
505.01	65535.00
505.18	65535.00
505.36	65535.00
505.53	65535.00
505.71	65535.00
505.88	65535.00
506.06	65535.00
506.23	65535.00
506.41	65535.00
506.58	65535.00
506.76	65535.00
506.93	65535.00
507.11	65535.00
507.28	65535.00
507.46	65535.00
507.63	65535.00
507.81	65535.00
507.98	65535.00
508.16	65535.00
508.33	65535.00
508.50	65535.00
508.68	65535.00
508.85	65535.00
509.03	65535.00
509.20	65535.00
509.38	65535.00
509.55	65535.00
509.73	65535.00
509.90	65535.00
510.08	65535.00
510.25	65535.00
510.42	65535.00
510.60	65535.00
510.77	65535.00
510.95	65535.00
511.12	65535.00
511.30	65535.00
511.47	65535.00
511.64	65535.00
511.82	65535.00
511.99	65535.00
512.17	65535.00
512.34	65535.00
512.51	65535.00
512.69	65535.00
512.86	65535.00
513.04	65535.00
513.21	65535.00
513.38	65535.00
513.56	65535.00
513.73	65535.00
513.90	65535.00
514.08	65535.00
514.25	65535.00
514.43	65535.00
514.60	65535.00
514.77	65535.00
514.95	65535.00
515.12	65535.00
515.29	65535.00
515.47	65535.00
515.64	65535.00
515.81	65535.00
515.99	65535.00
516.16	65535.00
516.33	65535.00
516.51	65535.00
516.68	65535.00
516.85	65535.00
517.03	65535.00
517.20	65535.00
517.37	65535.00
517.54	65535.00
517.72	65535.00
517.89	65535.00
518.06	65535.00
518.24	65535.00
518.41	65535.00
518.58	65535.00
518.75	65535.00
518.93	65535.00
519.10	65535.00
519.27	65535.00
519.45	65535.00
519.62	65535.00
519.79	65535.00
519.96	65535.00
520.14	65535.00
520.31	65535.00
520.48	65535.00
520.65	65535.00
520.83	65535.00
521.00	65535.00
521.17	65535.00
521.34	65535.00
521.52	65535.00
521.69	65535.00
521.86	65535.00
522.03	65535.00
522.20	65535.00
522.38	65535.00
522.55	65535.00
522.72	65535.00
522.89	65535.00
523.07	65535.00
523.24	65535.00
523.41	65535.00
523.58	65535.00
523.75	65535.00
523.92	65535.00
524.10	65535.00
524.27	65535.00
524.44	65535.00
524.61	65535.00
524.78	65535.00
524.96	65535.00
525.13	65535.00
525.30	65535.00
525.47	65535.00
525.64	65535.00
525.81	65535.00
525.98	65535.00
526.16	65535.00
526.33	65535.00
526.50	65535.00
526.67	65535.00
526.84	65535.00
527.01	65535.00
527.18	65535.00
527.36	65535.00
527.53	65535.00
527.70	65535.00
527.87	65535.00
528.04	65535.00
528.21	65535.00
528.38	65535.00
528.55	65535.00
528.72	65535.00
528.89	65535.00
529.07	65535.00
529.24	65535.00
529.41	65535.00
529.58	65535.00
529.75	65535.00
529.92	65535.00
530.09	65535.00
530.26	65535.00
530.43	65535.00
530.60	65535.00
530.77	65535.00
530.94	65535.00
531.11	65535.00
531.28	65535.00
531.46	65535.00
531.63	65535.00
531.80	65535.00
531.97	65535.00
532.14	65535.00
532.31	65535.00
532.48	65535.00
532.65	65535.00
532.82	65535.00
532.99	65535.00
533.16	65535.00
533.33	65535.00
533.50	65535.00
533.67	65535.00
533.84	65535.00
534.01	65535.00
534.18	65535.00
534.35	65535.00
534.52	65535.00
534.69	65535.00
534.86	65535.00
535.03	65535.00
535.20	65535.00
535.37	65535.00
535.54	65535.00
535.71	65535.00
535.88	65535.00
536.05	65535.00
536.22	65535.00
536.38	65535.00
536.55	65535.00
536.72	65535.00
536.89	65535.00
537.06	65535.00
537.23	65535.00
537.40	65535.00
537.57	65535.00
537.74	65535.00
537.91	65535.00
538.08	65535.00
538.25	65535.00
538.42	65535.00
538.59	65535.00
538.75	65535.00
538.92	65535.00
539.09	65535.00
539.26	65535.00
539.43	65535.00
539.60	65535.00
539.77	65535.00
539.94	65535.00
540.11	65535.00
540.28	65535.00
540.44	65535.00
540.61	65535.00
540.78	65535.00
540.95	65535.00
541.12	65535.00
541.29	65535.00
541.46	65535.00
541.62	65535.00
541.79	65535.00
541.96	65535.00
542.13	65535.00
542.30	65535.00
542.47	65535.00
542.63	65535.00
542.80	65535.00
542.97	65535.00
543.14	65535.00
543.31	65535.00
543.48	65535.00
543.64	65535.00
543.81	65535.00
543.98	65535.00
544.15	65535.00
544.32	65535.00
544.48	65535.00
544.65	65535.00
544.82	65535.00
544.99	65535.00
545.16	65535.00
545.32	65535.00
545.49	65535.00
545.66	65535.00
545.83	65535.00
546.00	65535.00
546.16	65535.00
546.33	65535.00
546.50	65535.00
546.67	65535.00
546.83	65535.00
547.00	65535.00
547.17	65535.00
547.34	65535.00
547.50	65535.00
547.67	65535.00
547.84	65535.00
548.00	65535.00
548.17	65535.00
548.34	65535.00
548.51	65535.00
548.67	65535.00
548.84	65535.00
549.01	65535.00
549.18	65535.00
549.34	65535.00
549.51	65535.00
549.68	65535.00
549.84	65535.00
550.01	65535.00
550.18	65535.00
550.34	65535.00
550.51	65535.00
550.68	65535.00
550.84	65535.00
551.01	65535.00
551.18	65535.00
551.34	65535.00
551.51	65535.00
551.68	65535.00
551.84	65535.00
552.01	65535.00
552.18	65535.00
552.34	65535.00
552.51	65535.00
552.68	65535.00
552.84	65535.00
553.01	65535.00
553.18	65535.00
553.34	65535.00
553.51	65535.00
553.67	65535.00
553.84	65535.00
554.01	65535.00
554.17	65535.00
554.34	65535.00
554.51	65535.00
554.67	65535.00
554.84	65535.00
555.00	65535.00
555.17	65535.00
555.33	65535.00
555.50	65535.00
555.67	65535.00
555.83	65535.00
556.00	65535.00
556.16	65535.00
556.33	65535.00
556.50	65535.00
556.66	65535.00
556.83	65535.00
556.99	65535.00
557.16	65535.00
557.32	65535.00
557.49	65535.00
557.65	65535.00
557.82	65535.00
557.98	65535.00
558.15	65535.00
558.32	65535.00
558.48	65535.00
558.65	65535.00
558.81	65535.00
558.98	65535.00
559.14	65535.00
559.31	65535.00
559.47	65535.00
559.64	65535.00
559.80	65535.00
559.97	65535.00
560.13	65535.00
560.30	65535.00
560.46	65535.00
560.63	65535.00
560.79	65535.00
560.96	65535.00
561.12	65535.00
561.29	65535.00
561.45	65535.00
561.61	65535.00
561.78	65535.00
561.94	65535.00
562.11	65535.00
562.27	65535.00
562.44	65535.00
562.60	65535.00
562.77	65535.00
562.93	65535.00
563.10	65535.00
563.26	65535.00
563.42	65535.00
563.59	65535.00
563.75	65535.00
563.92	65535.00
564.08	65535.00
564.24	65535.00
564.41	65535.00
564.57	65535.00
564.74	65535.00
564.90	65535.00
565.07	65535.00
565.23	65535.00
565.39	65535.00
565.56	65535.00
565.72	65535.00
565.88	65535.00
566.05	65535.00
566.21	65535.00
566.38	65535.00
566.54	65535.00
566.70	65535.00
566.87	65535.00
567.03	65535.00
567.19	65535.00
567.36	65535.00
567.52	65535.00
567.68	65535.00
567.85	65535.00
568.01	65535.00
568.17	65535.00
568.34	65535.00
568.50	65535.00
568.66	65535.00
568.83	65535.00
568.99	65535.00
569.15	65535.00
569.32	65535.00
569.48	65535.00
569.64	65535.00
569.81	65535.00
569.97	65535.00
570.13	65535.00
570.30	65535.00
570.46	65535.00
570.62	65535.00
570.78	65535.00
570.95	65535.00
571.11	65535.00
571.27	65535.00
571.43	65535.00
571.60	65535.00
571.76	65535.00
571.92	65535.00
572.09	65535.00
572.25	65535.00
572.41	65535.00
572.57	65535.00
572.74	65535.00
572.90	65535.00
573.06	65535.00
573.22	65535.00
573.38	65535.00
573.55	65535.00
573.71	65535.00
573.87	65535.00
574.03	65535.00
574.20	65535.00
574.36	65535.00
574.52	65535.00
574.68	65535.00
574.84	65535.00
575.01	65535.00
575.17	65535.00
575.33	65535.00
575.49	65535.00
575.65	65535.00
575.82	65535.00
575.98	65535.00
576.14	65535.00
576.30	65535.00
576.46	65535.00
576.62	65535.00
576.79	65535.00
576.95	65535.00
577.11	65535.00
577.27	65535.00
577.43	65535.00
577.59	65535.00
577.75	65535.00
577.92	65535.00
578.08	65535.00
578.24	65535.00
578.40	65535.00
578.56	65535.00
578.72	65535.00
578.88	65535.00
579.04	65535.00
579.21	65535.00
579.37	65535.00
579.53	65535.00
579.69	65535.00
579.85	65535.00
580.01	65535.00
580.17	65535.00
580.33	65535.00
580.49	65535.00
580.65	65535.00
580.82	65535.00
580.98	65535.00
581.14	65535.00
581.30	65535.00
581.46	65535.00
581.62	65535.00
581.78	65535.00
581.94	65535.00
582.10	65535.00
582.26	65535.00
582.42	65535.00
582.58	65535.00
582.74	65535.00
582.90	65535.00
583.06	65535.00
583.22	65535.00
583.38	65535.00
583.54	65535.00
583.70	65535.00
583.86	65535.00
584.02	65535.00
584.18	65535.00
