SpectraSuite Data File
++++++++++++++++++++++++++++++++++++
Date: Mon Oct 07 14:54:58 GMT-05:00 2013
User: price-jones
Dark Spectrum Present: No
Reference Spectrum Present: No
Number of Sampled Component Spectra: 1
Spectrometers: USB2+H05261
Integration Time (usec): 10000 (USB2+H05261)
Spectra Averaged: 1 (USB2+H05261)
Boxcar Smoothing: 0 (USB2+H05261)
Correct for Electrical Dark: No (USB2+H05261)
Strobe/Lamp Enabled: No (USB2+H05261)
Correct for Detector Non-linearity: No (USB2+H05261)
Correct for Stray Light: No (USB2+H05261)
Number of Pixels in Processed Spectrum: 2048
>>>>>Begin Processed Spectral Data<<<<<
365.73	0.00
365.92	0.00
366.12	0.00
366.32	0.00
366.52	0.00
366.72	0.00
366.91	0.00
367.11	0.00
367.31	0.00
367.51	0.00
367.70	0.00
367.90	0.00
368.10	0.00
368.30	0.00
368.49	0.00
368.69	0.00
368.89	0.00
369.09	0.00
369.28	0.00
369.48	0.00
369.68	0.00
369.87	0.00
370.07	0.00
370.27	0.00
370.47	0.00
370.66	88.94
370.86	107.66
371.06	248.10
371.25	196.60
371.45	208.31
371.65	133.41
371.84	133.41
372.04	135.75
372.24	271.50
372.44	248.10
372.63	217.67
372.83	161.50
373.03	191.92
373.22	112.35
373.42	161.50
373.62	215.33
373.81	194.26
374.01	203.63
374.21	191.92
374.40	147.45
374.60	114.69
374.79	306.61
374.99	294.91
375.19	322.99
375.38	355.76
375.58	308.95
375.78	259.80
375.97	404.91
376.17	276.18
376.37	304.27
376.56	318.31
376.76	386.19
376.95	463.43
377.15	470.45
377.35	465.77
377.54	540.66
377.74	482.15
377.93	566.41
378.13	550.03
378.33	491.51
378.52	383.85
378.72	402.57
378.91	402.57
379.11	351.08
379.31	365.12
379.50	315.97
379.70	454.06
379.89	402.57
380.09	414.27
380.28	557.05
380.48	545.34
380.68	437.68
380.87	461.09
381.07	475.13
381.26	346.40
381.46	283.20
381.65	297.25
381.85	299.59
382.04	379.17
382.24	189.58
382.43	173.20
382.63	201.29
382.83	262.14
383.02	117.03
383.22	191.92
383.41	156.82
383.61	276.18
383.80	271.50
384.00	388.53
384.19	418.96
384.39	526.62
384.58	372.15
384.78	379.17
384.97	437.68
385.17	346.40
385.36	360.44
385.56	393.21
385.75	374.49
385.95	416.62
386.14	397.89
386.34	456.40
386.53	461.09
386.72	393.21
386.92	400.23
387.11	468.11
387.31	475.13
387.50	479.81
387.70	451.72
387.89	381.51
388.09	435.34
388.28	496.19
388.48	411.93
388.67	514.92
388.86	547.69
389.06	624.92
389.25	720.88
389.45	669.39
389.64	678.76
389.84	674.07
390.03	606.20
390.22	657.69
390.42	634.29
390.61	711.52
390.81	842.59
391.00	819.19
391.19	861.32
391.39	774.72
391.58	669.39
391.78	657.69
391.97	608.54
392.16	535.98
392.36	496.19
392.55	372.15
392.75	177.88
392.94	152.13
393.13	16.38
393.33	227.03
393.52	351.08
393.71	507.90
393.91	578.11
394.10	667.05
394.29	760.67
394.49	774.72
394.68	779.40
394.88	849.61
395.07	947.92
395.26	912.81
395.46	844.93
395.65	741.95
395.84	706.84
396.04	531.30
396.23	404.91
396.42	304.27
396.62	266.82
396.81	348.74
397.00	503.22
397.19	648.33
397.39	798.12
397.58	978.34
397.77	1046.22
397.97	1078.99
398.16	1196.01
398.35	1172.61
398.55	1186.65
398.74	1294.32
398.93	1313.04
399.12	1341.13
399.32	1203.04
399.51	1158.57
399.70	1432.41
399.90	1397.30
400.09	1345.81
400.28	1322.40
400.47	1212.40
400.67	1352.83
400.86	1448.79
401.05	1530.71
401.24	1420.71
401.44	1376.24
401.63	1409.00
401.82	1483.90
402.01	1500.28
402.21	1425.39
402.40	1533.05
402.59	1476.88
402.78	1280.27
402.97	1303.68
403.17	1444.11
403.36	1533.05
403.55	1593.90
403.74	1528.37
403.93	1476.88
404.13	1397.30
404.32	1306.02
404.51	1392.62
404.70	1542.41
404.89	1582.20
405.09	1582.20
405.28	1542.41
405.47	1455.81
405.66	1401.98
405.85	1425.39
406.05	1376.24
406.24	1476.88
406.43	1284.95
406.62	1514.33
406.81	1542.41
407.00	1544.75
407.20	1479.22
407.39	1540.07
407.58	1385.60
407.77	1577.52
407.96	1621.99
408.15	1551.78
408.34	1607.95
408.54	1708.59
408.73	1739.02
408.92	1603.27
409.11	1736.68
409.30	1474.54
409.49	1462.83
409.68	1273.25
409.87	1252.19
410.07	1432.41
410.26	1469.86
410.45	1568.16
410.64	1762.42
410.83	1629.01
411.02	1802.21
411.21	1717.95
411.40	1799.87
411.59	1785.83
411.78	1717.95
411.98	1764.76
412.17	1827.96
412.36	1757.74
412.55	1734.34
412.74	1736.68
412.93	1724.97
413.12	1636.03
413.31	1914.56
413.50	1895.83
413.69	1966.05
413.88	1778.81
414.07	1720.29
414.26	1811.57
414.45	1842.00
414.64	1949.67
414.83	1863.07
415.02	1856.04
415.22	1802.21
415.41	1884.13
415.60	1825.62
415.79	2097.12
415.98	2059.67
416.17	2146.27
416.36	1975.41
416.55	2005.84
416.74	1919.24
416.93	1818.60
417.12	1844.34
417.31	1844.34
417.50	1905.20
417.69	1891.15
417.88	2005.84
418.07	1900.52
418.26	1923.92
418.45	1895.83
418.64	1980.09
418.83	2069.03
419.02	2029.24
419.21	2190.74
419.39	1961.37
419.58	1839.66
419.77	1886.47
419.96	1944.99
420.15	1970.73
420.34	2150.95
420.53	2190.74
420.72	2275.00
420.91	2204.78
421.10	2190.74
421.29	2190.74
421.48	1996.48
421.67	2111.16
421.86	2083.08
422.05	1919.24
422.24	1652.42
422.43	1863.07
422.61	1806.89
422.80	2085.42
422.99	2148.61
423.18	1970.73
423.37	1935.62
423.56	1970.73
423.75	1933.28
423.94	1949.67
424.13	1900.52
424.32	1947.33
424.50	1919.24
424.69	1912.22
424.88	1905.20
425.07	1949.67
425.26	1900.52
425.45	1832.64
425.64	1790.51
425.83	1799.87
426.01	2017.54
426.20	2078.40
426.39	1975.41
426.58	1832.64
426.77	1696.89
426.96	1652.42
427.15	1734.34
427.33	1785.83
427.52	2031.58
427.71	1858.39
427.90	1905.20
428.09	1834.98
428.28	1778.81
428.46	1797.53
428.65	1710.93
428.84	1720.29
429.03	1734.34
429.22	1753.06
429.40	1572.84
429.59	1472.20
429.78	1252.19
429.97	1219.42
430.16	1341.13
430.34	1334.11
430.53	1331.76
430.72	1247.51
430.91	1530.71
431.10	1809.23
431.28	2090.10
431.47	2167.34
431.66	2396.71
431.85	2083.08
432.03	1989.46
432.22	1837.32
432.41	1914.56
432.60	2057.33
432.79	2160.31
432.97	2349.90
433.16	2160.31
433.35	2043.29
433.54	1820.94
433.72	1643.06
433.91	1741.36
434.10	1921.58
434.28	2078.40
434.47	2291.38
434.66	2190.74
434.85	2148.61
435.03	2024.56
435.22	2200.10
435.41	2218.83
435.59	2298.41
435.78	2349.90
435.97	2401.39
436.16	2396.71
436.34	2298.41
436.53	2300.75
436.72	2284.36
436.90	2195.42
437.09	2134.57
437.28	2064.35
437.46	2118.18
437.65	2069.03
437.84	1996.48
438.02	1865.41
438.21	1863.07
438.40	1935.62
438.58	2057.33
438.77	2331.17
438.96	2305.43
439.14	2509.05
439.33	2272.66
439.52	2342.88
439.70	2335.85
439.89	2260.96
440.08	2097.12
440.26	2118.18
440.45	2186.06
440.63	2513.74
440.82	2593.31
441.01	2462.24
441.19	2492.67
441.38	2483.31
441.57	2630.76
441.75	2619.06
441.94	2677.57
442.12	2612.04
442.31	2740.77
442.50	2703.32
442.68	2691.62
442.87	2665.87
443.05	2565.23
443.24	2644.81
443.43	2637.78
443.61	2839.07
443.80	2726.72
443.98	2614.38
444.17	2562.89
444.35	2771.19
444.54	2841.41
444.73	2787.58
444.91	2679.91
445.10	2513.74
445.28	2420.11
445.47	2427.14
445.65	2480.97
445.84	2567.57
446.02	2597.99
446.21	2628.42
446.39	2640.12
446.58	2682.25
446.77	2597.99
446.95	2881.20
447.14	2810.98
447.32	2869.50
447.51	2862.48
447.69	2616.72
447.88	2644.81
448.06	2764.17
448.25	2708.00
448.43	2803.96
448.62	2738.43
448.80	2789.92
448.99	2679.91
449.17	2740.77
449.36	2696.30
449.54	2829.71
449.73	2843.75
449.91	2963.12
450.10	3077.80
450.28	3040.36
450.46	3138.66
450.65	3138.66
450.83	2986.52
451.02	2956.10
451.20	2864.82
451.39	2904.60
451.57	2878.86
451.76	2963.12
451.94	2888.22
452.13	2750.13
452.31	2703.32
452.49	2590.97
452.68	2546.50
452.86	2555.86
453.05	2668.21
453.23	2719.70
453.42	2740.77
453.60	2937.37
453.78	2855.45
453.97	2834.39
454.15	2705.66
454.34	2670.55
454.52	2808.64
454.70	2799.28
454.89	2715.02
455.07	2733.75
455.26	2913.97
455.44	2942.05
455.62	3026.31
455.81	3014.61
455.99	2841.41
456.17	2988.86
456.36	2928.01
456.54	3040.36
456.73	3038.02
456.91	3112.91
457.09	3054.40
457.28	3141.00
457.46	2916.31
457.64	3038.02
457.83	3023.97
458.01	2803.96
458.19	3000.57
458.38	2899.92
458.56	3098.87
458.74	2986.52
458.93	2897.58
459.11	2951.42
459.29	2984.18
459.48	2881.20
459.66	2867.16
459.84	2888.22
460.03	3023.97
460.21	2759.49
460.39	3112.91
460.57	2984.18
460.76	3150.36
460.94	3246.32
461.12	3038.02
461.31	3002.91
461.49	3073.12
461.67	2981.84
461.85	3194.83
462.04	3030.99
462.22	3155.04
462.40	3136.32
462.59	3049.72
462.77	3059.08
462.95	3040.36
463.13	3105.89
463.32	2995.89
463.50	3052.06
463.68	3014.61
463.86	3035.67
464.05	2977.16
464.23	2935.03
464.41	2909.29
464.59	2796.94
464.78	2944.39
464.96	3042.70
465.14	3059.08
465.32	3119.93
465.50	3103.55
465.69	3094.19
465.87	3122.27
466.05	2949.08
466.23	2815.66
466.41	2775.88
466.60	2839.07
466.78	2920.99
466.96	2855.45
467.14	2916.31
467.32	3105.89
467.51	2951.42
467.69	2991.20
467.87	2899.92
468.05	2878.86
468.23	2956.10
468.41	2937.37
468.60	2871.84
468.78	3005.25
468.96	2911.63
469.14	3000.57
469.32	3126.96
469.50	2913.97
469.69	2937.37
469.87	2911.63
470.05	2850.77
470.23	2892.90
470.41	2794.60
470.59	2949.08
470.77	2998.23
470.95	2986.52
471.14	2995.89
471.32	2869.50
471.50	3267.39
471.68	3400.80
471.86	3218.24
472.04	3403.14
472.22	3222.92
472.40	3150.36
472.58	3077.80
472.77	2993.55
472.95	3133.98
473.13	3133.98
473.31	3094.19
473.49	3042.70
473.67	3162.06
473.85	3101.21
474.03	3241.64
474.21	3260.37
474.39	3318.88
474.57	3368.03
474.75	3255.69
474.93	3337.60
475.12	3166.74
475.30	3199.51
475.48	3236.96
475.66	3379.73
475.84	3232.28
476.02	3239.30
476.20	3272.07
476.38	3295.47
476.56	3475.70
476.74	3447.61
476.92	3382.07
477.10	3328.24
477.28	3592.72
477.46	3758.90
477.64	3538.89
477.82	3559.95
478.00	3562.30
478.18	3428.88
478.36	3478.04
478.54	3578.68
478.72	3412.50
478.90	3684.00
479.08	3754.22
479.26	3967.21
479.44	3817.41
479.62	3716.77
479.80	3726.13
479.98	3726.13
480.16	3946.14
480.34	3744.86
480.52	3796.35
480.70	3756.56
480.88	3824.44
481.06	3983.59
481.24	3934.44
481.41	3922.74
481.59	4058.49
481.77	4156.79
481.95	4079.55
482.13	3995.29
482.31	4021.04
482.49	4095.94
482.67	4198.92
482.85	3995.29
483.03	4166.15
483.21	4217.65
483.39	4086.58
483.57	4051.47
483.74	4042.11
483.92	4154.45
484.10	4056.15
484.28	4152.11
484.46	4217.65
484.64	4189.56
484.82	4180.20
485.00	4180.20
485.18	4149.77
485.35	3906.35
485.53	3646.55
485.71	3286.11
485.89	3110.57
486.07	3480.38
486.25	3723.79
486.43	3929.76
486.61	4056.15
486.78	3988.27
486.96	4121.68
487.14	4360.42
487.32	4245.73
487.50	4367.44
487.68	4463.40
487.85	4610.86
488.03	4629.58
488.21	4545.32
488.39	4550.00
488.57	4449.36
488.75	4421.27
488.92	4418.93
489.10	4746.61
489.28	4947.89
489.46	5088.32
489.64	4933.85
489.81	4940.87
489.99	4884.70
490.17	5025.13
490.35	4964.28
490.53	4985.34
490.70	4978.32
490.88	4968.96
491.06	5027.47
491.24	5076.62
491.41	5050.88
491.59	4627.24
491.77	4571.07
491.95	4622.56
492.13	4863.63
492.30	4966.62
492.48	5259.18
492.66	5334.08
492.84	5413.66
493.01	5153.86
493.19	5116.41
493.37	5050.88
493.54	5050.88
493.72	5144.50
493.90	5383.23
494.08	5446.43
494.25	5565.79
494.43	5631.33
494.61	5701.54
494.79	5570.48
494.96	5638.35
495.14	5399.62
495.32	5268.55
495.49	5165.56
495.67	5277.91
495.85	5509.62
496.02	5743.67
496.20	5769.42
496.38	5717.93
496.55	5654.73
496.73	5628.99
496.91	5757.72
497.09	5774.10
497.26	5809.21
497.44	5713.25
497.62	5547.07
497.79	5551.75
497.97	5413.66
498.14	5179.61
498.32	5563.45
498.50	5783.46
498.67	5977.73
498.85	5729.63
499.03	5898.15
499.20	5856.02
499.38	5860.70
499.56	5661.76
499.73	5755.38
499.91	5591.54
500.08	5497.92
500.26	5472.17
500.44	5366.85
500.61	5605.58
500.79	5631.33
500.97	5500.26
501.14	5444.09
501.32	5411.32
501.49	5427.70
501.67	5394.93
501.84	5500.26
502.02	5561.11
502.20	5643.03
502.37	5806.87
502.55	5610.26
502.72	5746.02
502.90	5825.59
503.07	5678.14
503.25	5823.25
503.43	5518.98
503.60	5547.07
503.78	5212.37
503.95	5500.26
504.13	5841.98
504.30	5809.21
504.48	5762.40
504.65	5755.38
504.83	5746.02
505.01	5954.32
505.18	5944.96
505.36	6118.16
505.53	5982.41
505.71	6164.97
505.88	6263.27
506.06	5937.94
506.23	6033.90
506.41	5996.45
506.58	5898.15
506.76	5951.98
506.93	5865.38
507.11	5895.81
507.28	5891.13
507.46	5764.74
507.63	5734.31
507.81	5530.69
507.98	5692.18
508.16	5703.89
508.33	5914.53
508.50	5935.60
508.68	6113.48
508.85	6099.44
509.03	6242.21
509.20	6083.05
509.38	5895.81
509.55	5769.42
509.73	5802.19
509.90	5930.92
510.08	6017.52
510.25	6108.80
510.42	6045.60
510.60	5977.73
510.77	6066.67
510.95	6146.25
511.12	6242.21
511.30	6195.40
511.47	6148.59
511.64	6160.29
511.82	6221.14
511.99	6069.01
512.17	5853.68
512.34	5977.73
512.51	6024.54
512.69	5926.24
512.86	5762.40
513.04	6038.58
513.21	6078.37
513.38	5872.40
513.56	5907.51
513.73	5689.84
513.90	5605.58
514.08	5795.17
514.25	5734.31
514.43	5764.74
514.60	5783.46
514.77	5879.43
514.95	6029.22
515.12	5954.32
515.29	5804.53
515.47	6029.22
515.64	6108.80
515.81	5863.04
515.99	5949.64
516.16	5521.32
516.33	5142.16
516.51	4777.03
516.68	4760.65
516.85	4788.74
517.03	4629.58
517.20	4954.91
517.37	5551.75
517.54	5783.46
517.72	5804.53
517.89	5200.67
518.06	4699.80
518.24	4924.49
518.41	5284.93
518.58	5427.70
518.75	5579.84
518.93	5495.58
519.10	5582.18
519.27	5713.25
519.45	5671.12
519.62	5830.27
519.79	6061.99
519.96	5907.51
520.14	5678.14
520.31	5526.00
520.48	5621.97
520.65	5582.18
520.83	5870.06
521.00	5774.10
521.17	5905.17
521.34	5802.19
521.52	5926.24
521.69	6104.12
521.86	6113.48
522.03	6104.12
522.20	5692.18
522.38	5628.99
522.55	5516.64
522.72	5760.06
522.89	5727.29
523.07	5743.67
523.24	5865.38
523.41	6083.05
523.58	6001.13
523.75	6174.33
523.92	6188.38
524.10	6099.44
524.27	6125.18
524.44	6139.23
524.61	6087.73
524.78	6069.01
524.96	5907.51
525.13	5973.05
525.30	6069.01
525.47	6043.26
525.64	6160.29
525.81	5989.43
525.98	5549.41
526.16	5282.59
526.33	5074.28
526.50	5034.49
526.67	5029.81
526.84	5238.12
527.01	5322.38
527.18	5495.58
527.36	5664.10
527.53	5926.24
527.70	5996.45
527.87	5760.06
528.04	5790.49
528.21	6005.81
528.38	5863.04
528.55	6061.99
528.72	6122.84
528.89	6352.21
529.07	6207.10
529.24	6129.86
529.41	5905.17
529.58	5748.36
529.75	5671.12
529.92	6064.33
530.09	6080.71
530.26	6029.22
530.43	6127.52
530.60	6230.51
530.77	6319.45
530.94	6193.06
531.11	6036.24
531.28	5966.03
531.46	6122.84
531.63	5963.68
531.80	6108.80
531.97	5916.87
532.14	5720.27
532.31	5390.25
532.48	5343.44
532.65	5313.02
532.82	5521.32
532.99	5888.79
533.16	5865.38
533.33	6183.70
533.50	5827.93
533.67	5893.47
533.84	5647.71
534.01	5760.06
534.18	5624.31
534.35	5879.43
534.52	5736.65
534.69	5764.74
534.86	5961.34
535.03	5853.68
535.20	5947.30
535.37	6237.53
535.54	6263.27
535.71	6122.84
535.88	6090.07
536.05	5856.02
536.22	5762.40
536.38	5736.65
536.55	5455.79
536.72	5462.81
536.89	5362.17
537.06	5526.00
537.23	5715.59
537.40	5722.61
537.57	5874.74
537.74	5790.49
537.91	5818.57
538.08	5926.24
538.25	5769.42
538.42	5895.81
538.59	5760.06
538.75	5743.67
538.92	5551.75
539.09	5610.26
539.26	5430.04
539.43	5535.37
539.60	5460.47
539.77	5547.07
539.94	5586.86
540.11	5352.81
540.28	5315.36
540.44	5247.48
540.61	5228.76
540.78	5376.21
540.95	5507.28
541.12	5720.27
541.29	5238.12
541.46	5675.80
541.62	5710.91
541.79	5619.63
541.96	5448.77
542.13	5453.45
542.30	5584.52
542.47	5582.18
542.63	5490.90
542.80	5514.30
542.97	5612.60
543.14	5490.90
543.31	5549.41
543.48	5535.37
543.64	5734.31
543.81	5919.21
543.98	5802.19
544.15	5624.31
544.32	5514.30
544.48	5561.11
544.65	5540.05
544.82	5554.09
544.99	5657.07
545.16	5418.34
545.32	5359.83
545.49	5849.00
545.66	5781.12
545.83	5657.07
546.00	5633.67
546.16	5575.16
546.33	5476.85
546.50	5563.45
546.67	5636.01
546.83	5533.03
547.00	5518.98
547.17	5565.79
547.34	5270.89
547.50	5301.31
547.67	5420.68
547.84	5322.38
548.00	5383.23
548.17	5556.43
548.34	5540.05
548.51	5542.39
548.67	5486.22
548.84	5638.35
549.01	5521.32
549.18	5542.39
549.34	5556.43
549.51	5453.45
549.68	5614.95
549.84	5462.81
550.01	5406.64
550.18	5303.65
550.34	5331.74
550.51	5371.53
550.68	5397.28
550.84	5266.21
551.01	5317.70
551.18	5156.20
551.34	5591.54
551.51	5432.38
551.68	5416.00
551.84	5509.62
552.01	5504.94
552.18	5345.78
552.34	5195.99
552.51	5301.31
552.68	5109.39
552.84	5123.43
553.01	5343.44
553.18	5359.83
553.34	5341.10
553.51	5366.85
553.67	5423.02
553.84	5324.72
554.01	5345.78
554.17	5263.86
554.34	5348.12
554.51	5408.98
554.67	5504.94
554.84	5298.97
555.00	5252.16
555.17	5151.52
555.33	5303.65
555.50	5427.70
555.67	5418.34
555.83	5301.31
556.00	5207.69
556.16	5247.48
556.33	5195.99
556.50	5081.30
556.66	4961.94
556.83	5013.43
556.99	5057.90
557.16	5137.48
557.32	5100.03
557.49	5193.65
557.65	5132.79
557.82	5102.37
557.98	5160.88
558.15	5109.39
558.32	4882.36
558.48	4692.77
558.65	4737.24
558.81	4870.65
558.98	4947.89
559.14	4961.94
559.31	4992.36
559.47	5029.81
559.64	4947.89
559.80	4903.42
559.97	4961.94
560.13	4896.40
560.30	5200.67
560.46	5179.61
560.63	5322.38
560.79	5362.17
560.96	5111.73
561.12	4990.02
561.29	4891.72
561.45	4713.84
561.61	4940.87
561.78	5132.79
561.94	5034.49
562.11	4821.50
562.27	4938.53
562.44	4840.23
562.60	5027.47
562.77	5046.20
562.93	5041.51
563.10	4987.68
563.26	4887.04
563.42	4847.25
563.59	4861.29
563.75	4884.70
563.92	5001.72
564.08	4903.42
564.24	4753.63
564.41	4805.12
564.57	4936.19
564.74	4896.40
564.90	4901.08
565.07	4725.54
565.23	4561.70
565.39	4627.24
565.56	4571.07
565.72	4372.12
565.88	4660.01
566.05	4748.95
566.21	4774.69
566.38	4688.09
566.54	4760.65
566.70	4861.29
566.87	4903.42
567.03	4873.00
567.19	4861.29
567.36	4767.67
567.52	4723.20
567.68	4667.03
567.85	4657.67
568.01	4573.41
568.17	4514.89
568.34	4601.49
568.50	4554.68
568.66	4526.60
568.83	4704.48
568.99	4650.64
569.15	4517.23
569.32	4739.58
569.48	4697.46
569.64	4573.41
569.81	4535.96
569.97	4454.04
570.13	4346.37
570.30	4456.38
570.46	4344.03
570.62	4318.29
570.78	4290.20
570.95	4337.01
571.11	4442.34
571.27	4554.68
571.43	4425.95
571.60	4458.72
571.76	4526.60
571.92	4575.75
572.09	4596.81
572.25	4613.20
572.41	4592.13
572.57	4608.51
572.74	4683.41
572.90	4493.83
573.06	4437.66
573.22	4592.13
573.38	4510.21
573.55	4421.27
573.71	4421.27
573.87	4507.87
574.03	4550.00
574.20	4601.49
574.36	4383.82
574.52	4313.61
574.68	4477.44
574.84	4372.12
575.01	4264.46
575.17	4170.83
575.33	4212.96
575.49	4308.93
575.65	4231.69
575.82	4358.08
575.98	4262.12
576.14	4283.18
576.30	4482.13
576.46	4367.44
576.62	4301.90
576.79	4355.74
576.95	4152.11
577.11	4229.35
577.27	4297.22
577.43	4264.46
577.59	4346.37
577.75	4170.83
577.92	4023.38
578.08	3950.82
578.24	3948.48
578.40	4121.68
578.56	4184.88
578.72	4084.23
578.88	4262.12
579.04	4187.22
579.21	4248.07
579.37	4334.67
579.53	4285.52
579.69	4091.26
579.85	4217.65
580.01	4290.20
580.17	4196.58
580.33	4191.90
580.49	4187.22
580.65	4154.45
580.82	4224.67
580.98	4229.35
581.14	4180.20
581.30	4194.24
581.46	4248.07
581.62	4315.95
581.78	4128.70
581.94	4271.48
582.10	4042.11
582.26	4182.54
582.42	4341.69
582.58	4175.52
582.74	4250.41
582.90	4161.47
583.06	4264.46
583.22	4299.56
583.38	4140.41
583.54	4121.68
583.70	4269.14
583.86	4262.12
584.02	4243.39
584.18	4177.86
584.34	4077.21
584.50	4227.01
584.66	4131.05
584.82	4156.79
584.98	4121.68
585.14	3936.78
585.30	3983.59
585.46	3864.22
585.62	3946.14
585.78	3967.21
585.94	3911.04
586.10	3920.40
586.26	3878.27
586.42	4044.45
586.58	4042.11
586.74	3981.25
586.90	4088.92
587.06	3936.78
587.22	4037.42
587.38	4077.21
587.54	3927.42
587.70	3971.89
587.86	3950.82
588.02	3892.31
588.18	3758.90
588.34	3705.07
588.49	3592.72
588.65	3309.52
588.81	3222.92
588.97	3342.28
589.13	3272.07
589.29	3164.40
589.45	3314.20
589.61	3426.54
589.77	3515.48
589.93	3552.93
590.08	3789.33
590.24	3850.18
590.40	3892.31
590.56	3819.75
590.72	3777.62
590.88	3716.77
591.04	3660.60
591.20	3644.21
591.35	3772.94
591.51	3557.61
591.67	3684.00
591.83	3669.96
591.99	3730.81
592.15	3735.50
592.31	3742.52
592.46	3590.38
592.62	3672.30
592.78	3679.32
592.94	3691.02
593.10	3716.77
593.26	3672.30
593.41	3740.18
593.57	3754.22
593.73	3786.99
593.89	3564.64
594.05	3508.46
594.20	3637.19
594.36	3545.91
594.52	3574.00
594.68	3494.42
594.84	3508.46
594.99	3545.91
595.15	3475.70
595.31	3531.87
595.47	3644.21
595.62	3646.55
595.78	3637.19
595.94	3651.24
596.10	3665.28
596.25	3499.10
596.41	3566.98
596.57	3562.30
596.73	3658.26
596.88	3641.87
597.04	3548.25
597.20	3499.10
597.36	3597.40
597.51	3653.58
597.67	3478.04
597.83	3550.59
597.99	3487.40
