SpectraSuite Data File
++++++++++++++++++++++++++++++++++++
Date: Mon Oct 07 14:53:15 GMT-05:00 2013
User: price-jones
Dark Spectrum Present: No
Reference Spectrum Present: No
Number of Sampled Component Spectra: 1
Spectrometers: USB2+H05261
Integration Time (usec): 100000 (USB2+H05261)
Spectra Averaged: 1 (USB2+H05261)
Boxcar Smoothing: 0 (USB2+H05261)
Correct for Electrical Dark: No (USB2+H05261)
Strobe/Lamp Enabled: No (USB2+H05261)
Correct for Detector Non-linearity: No (USB2+H05261)
Correct for Stray Light: No (USB2+H05261)
Number of Pixels in Processed Spectrum: 2048
>>>>>Begin Processed Spectral Data<<<<<
365.73	0.00
365.92	0.00
366.12	0.00
366.32	0.00
366.52	0.00
366.72	0.00
366.91	0.00
367.11	0.00
367.31	0.00
367.51	0.00
367.70	0.00
367.90	0.00
368.10	0.00
368.30	0.00
368.49	0.00
368.69	0.00
368.89	0.00
369.09	0.00
369.28	0.00
369.48	0.00
369.68	0.00
369.87	0.00
370.07	0.00
370.27	0.00
370.47	552.37
370.66	2951.42
370.86	3658.26
371.06	3836.14
371.25	3859.54
371.45	3485.06
371.65	3087.17
371.84	3033.33
372.04	3084.83
372.24	3489.74
372.44	3676.98
372.63	3632.51
372.83	3307.18
373.03	3042.70
373.22	2738.43
373.42	2958.44
373.62	3412.50
373.81	3524.85
374.01	3452.29
374.21	3283.77
374.40	2899.92
374.60	3047.38
374.79	3571.66
374.99	4205.94
375.19	4540.64
375.38	4423.61
375.58	4044.45
375.78	4021.04
375.97	4156.79
376.17	4269.14
376.37	4245.73
376.56	4456.38
376.76	4706.82
376.95	4997.04
377.15	5214.71
377.35	5645.37
377.54	5919.21
377.74	5778.78
377.93	5884.11
378.13	5701.54
378.33	5366.85
378.52	5170.24
378.72	4751.29
378.91	4643.62
379.11	4627.24
379.31	4442.34
379.50	4444.68
379.70	4760.65
379.89	5191.31
380.09	5537.71
380.28	5809.21
380.48	5762.40
380.68	5661.76
380.87	5518.98
381.07	5123.43
381.26	4779.37
381.46	4348.72
381.65	4273.82
381.85	4180.20
382.04	3976.57
382.24	3836.14
382.43	3571.66
382.63	3419.52
382.83	3541.23
383.02	3482.72
383.22	3478.04
383.41	3684.00
383.61	3824.44
383.80	4287.86
384.00	4929.17
384.19	5404.30
384.39	5666.44
384.58	5769.42
384.78	5605.58
384.97	5692.18
385.17	5221.74
385.36	4945.55
385.56	4910.44
385.75	4999.38
385.95	5404.30
386.14	5909.85
386.34	5921.56
386.53	5572.82
386.72	5289.61
386.92	5359.83
387.11	5699.20
387.31	5959.00
387.50	5748.36
387.70	5549.41
387.89	5514.30
388.09	5584.52
388.28	5596.22
388.48	5668.78
388.67	6141.57
388.86	6813.30
389.06	7262.68
389.25	7637.17
389.45	7740.15
389.64	7625.47
389.84	7751.85
390.03	7414.82
390.22	7536.52
390.42	7716.75
390.61	8315.92
390.81	8753.60
391.00	8924.46
391.19	8872.97
391.39	8505.51
391.58	7974.21
391.78	7749.51
391.97	7342.26
392.16	6801.60
392.36	6305.40
392.55	4929.17
392.75	3948.48
392.94	3295.47
393.13	3096.53
393.33	3695.71
393.52	4994.70
393.71	6087.73
393.91	6712.66
394.10	7250.98
394.29	8046.76
394.49	8748.92
394.68	9312.99
394.88	9158.52
395.07	9455.76
395.26	9745.99
395.46	9303.63
395.65	8678.71
395.84	7679.30
396.04	6314.77
396.23	5263.86
396.42	4418.93
396.62	4301.90
396.81	5018.11
397.00	6246.89
397.19	7779.94
397.39	9582.15
397.58	10621.35
397.77	11255.64
397.97	11585.65
398.16	12018.65
398.35	12318.24
398.55	12678.68
398.74	13074.23
398.93	13308.29
399.12	13219.35
399.32	12681.02
399.51	13057.85
399.70	13888.74
399.90	13886.40
400.09	13827.88
400.28	13556.38
400.47	13633.62
400.67	14303.01
400.86	14785.16
401.05	14616.65
401.24	14754.74
401.44	15061.35
401.63	15108.16
401.82	15124.54
402.01	15337.53
402.21	15417.11
402.40	15389.02
402.59	15070.71
402.78	14319.40
402.97	13982.36
403.17	14506.64
403.36	15307.10
403.55	15772.87
403.74	16023.31
403.93	15243.91
404.13	13935.55
404.32	13958.96
404.51	14546.43
404.70	15697.97
404.89	15726.06
405.09	15660.52
405.28	15082.41
405.47	15066.03
405.66	14953.68
405.85	14516.00
406.05	14160.24
406.24	14380.25
406.43	15021.56
406.62	15908.62
406.81	15735.42
407.00	14946.66
407.20	14841.34
407.39	14920.92
407.58	15775.21
407.77	16294.81
407.96	16659.93
408.15	17081.23
408.34	16929.09
408.54	17617.21
408.73	18150.85
408.92	17701.47
409.11	17013.35
409.30	16313.53
409.49	15496.69
409.68	14274.93
409.87	13951.93
410.07	14867.08
410.26	15981.18
410.45	17090.59
410.64	17406.56
410.83	17891.06
411.02	18448.10
411.21	19398.36
411.40	18972.38
411.59	18567.47
411.78	18686.84
411.98	18508.96
412.17	18934.93
412.36	18527.68
412.55	18455.12
412.74	18221.07
412.93	17940.21
413.12	17940.21
413.31	20004.56
413.50	19555.18
413.69	20315.85
413.88	19220.48
414.07	18810.89
414.26	19358.57
414.45	20060.73
414.64	19714.33
414.83	20027.96
415.02	19583.26
415.22	19534.11
415.41	20144.99
415.60	20540.54
415.79	21535.27
415.98	21879.33
416.17	21774.00
416.36	21273.13
416.55	21081.21
416.74	20402.45
416.93	19913.28
417.12	19751.78
417.31	20205.84
417.50	20620.12
417.69	21116.31
417.88	21062.48
418.07	20746.51
418.26	20486.71
418.45	20819.07
418.64	21504.84
418.83	22214.02
419.02	22134.45
419.21	21617.19
419.39	20379.04
419.58	19866.47
419.77	19711.99
419.96	20561.61
420.15	21886.35
420.34	22703.20
420.53	23028.53
420.72	23754.10
420.91	23630.05
421.10	23178.33
421.29	22930.23
421.48	22314.67
421.67	23524.72
421.86	22911.50
422.05	21120.99
422.24	18841.31
422.43	18820.25
422.61	20863.54
422.80	22560.42
422.99	22583.83
423.18	21774.00
423.37	21486.12
423.56	21425.26
423.75	21764.64
423.94	21951.88
424.13	20842.47
424.32	21186.53
424.50	21167.80
424.69	21214.62
424.88	21226.32
425.07	20915.03
425.26	21118.65
425.45	20940.77
425.64	20255.00
425.83	20570.97
426.01	21752.94
426.20	21979.97
426.39	21970.61
426.58	20236.27
426.77	19047.28
426.96	18412.99
427.15	18984.09
427.33	20833.11
427.52	21369.09
427.71	21551.65
427.90	21212.28
428.09	21069.50
428.28	20648.21
428.46	19889.87
428.65	19637.09
428.84	20645.87
429.03	20372.02
429.22	19154.94
429.40	18225.75
429.59	16566.31
429.78	14626.01
429.97	14911.55
430.16	15108.16
430.34	15112.84
430.53	14899.85
430.72	15178.37
430.91	17289.54
431.10	20152.01
431.28	23660.48
431.47	25078.84
431.66	25474.39
431.85	23410.04
432.03	21331.64
432.22	20421.17
432.41	21525.91
432.60	23618.35
432.79	24793.29
432.97	25249.70
433.16	24912.66
433.35	22424.67
433.54	20098.18
433.72	18965.36
433.91	19805.61
434.10	21970.61
434.28	23843.04
434.47	24739.46
434.66	24374.34
434.85	24004.53
435.03	23496.64
435.22	24130.92
435.41	25965.90
435.59	25881.64
435.78	26139.10
435.97	26967.65
436.16	27330.44
436.34	26637.64
436.53	25860.58
436.72	25720.15
436.90	24699.67
437.09	24739.46
437.28	24393.06
437.46	25135.01
437.65	24975.86
437.84	23199.39
438.02	21207.59
438.21	21048.44
438.40	22419.99
438.58	24713.72
438.77	25303.53
438.96	25385.45
439.14	26539.33
439.33	27342.14
439.52	27868.76
439.70	26848.29
439.89	26237.41
440.08	25425.24
440.26	25570.35
440.45	26389.54
440.63	27807.90
440.82	29788.00
441.01	29092.86
441.19	29013.28
441.38	29376.06
441.57	30305.26
441.75	31035.50
441.94	31084.65
442.12	30700.81
442.31	31133.81
442.50	31243.81
442.68	30859.96
442.87	30642.29
443.05	29706.08
443.24	30555.69
443.43	31494.25
443.61	31938.95
443.80	32170.66
443.98	30665.70
444.17	30536.97
444.35	31985.76
444.54	32559.19
444.73	32453.87
444.91	30508.88
445.10	29563.31
445.28	28505.38
445.47	28343.89
445.65	28423.47
445.84	29125.63
446.02	29951.84
446.21	30658.68
446.39	30567.40
446.58	31421.69
446.77	31850.01
446.95	31716.60
447.14	32744.09
447.32	33186.46
447.51	32393.01
447.69	31388.92
447.88	31007.42
448.06	31388.92
448.25	32472.59
448.43	32568.55
448.62	31597.23
448.80	31302.32
448.99	31241.47
449.17	31974.06
449.36	32060.66
449.54	33048.36
449.73	33806.70
449.91	34012.66
450.10	35232.08
450.28	35517.63
450.46	35044.84
450.65	35309.32
450.83	35159.53
451.02	34611.84
451.20	34089.90
451.39	34345.02
451.57	33841.81
451.76	33593.71
451.94	33457.96
452.13	33244.97
452.31	31845.33
452.49	29874.60
452.68	30897.41
452.86	30588.46
453.05	31232.11
453.23	32034.91
453.42	32718.35
453.60	33680.31
453.78	33752.87
453.97	33914.36
454.15	33373.70
454.34	32870.48
454.52	32879.85
454.70	32348.54
454.89	32826.01
455.07	32708.99
455.26	33624.14
455.44	34546.31
455.62	35021.44
455.81	35143.14
455.99	34412.90
456.17	34845.90
456.36	34946.54
456.54	35789.13
456.73	35992.76
456.91	36348.52
457.09	36594.28
457.28	37228.56
457.46	35688.49
457.64	35569.12
457.83	34333.32
458.01	33401.79
458.19	34445.66
458.38	35154.85
458.56	36077.02
458.74	35847.64
458.93	35283.58
459.11	35512.95
459.29	35138.46
459.48	35126.76
459.66	34396.51
459.84	35723.60
460.03	35796.15
460.21	35536.35
460.39	36809.61
460.57	36390.65
460.76	37186.43
460.94	37493.04
461.12	36697.26
461.31	37046.00
461.49	36503.00
461.67	36615.34
461.85	37921.36
462.04	37404.10
462.22	38082.86
462.40	37642.84
462.59	37500.06
462.77	37446.23
462.95	37450.91
463.13	36889.18
463.32	36641.09
463.50	36561.51
463.68	36554.49
463.86	36905.57
464.05	36217.45
464.23	35426.35
464.41	35337.41
464.59	34703.12
464.78	36500.65
464.96	36666.83
465.14	35793.81
465.32	36842.37
465.50	37972.85
465.69	37654.54
465.87	37301.12
466.05	36397.67
466.23	34639.93
466.41	34518.22
466.60	35213.36
466.78	35232.08
466.96	35637.00
467.14	36699.60
467.32	36556.83
467.51	36886.84
467.69	35304.64
467.87	35714.23
468.05	36701.94
468.23	36507.68
468.41	36510.02
468.60	36907.91
468.78	36971.10
468.96	36346.18
469.14	37305.80
469.32	36992.17
469.50	36009.14
469.69	36119.15
469.87	35852.33
470.05	35051.86
470.23	35386.56
470.41	35044.84
470.59	35880.41
470.77	36727.69
470.95	36875.14
471.14	37839.44
471.32	37586.66
471.50	39395.90
471.68	39491.86
471.86	40069.97
472.04	40268.92
472.22	40123.80
472.40	38319.25
472.58	38031.36
472.77	37801.99
472.95	38462.02
473.13	39393.56
473.31	38050.09
473.49	38941.83
473.67	39557.39
473.85	39622.93
474.03	40737.02
474.21	40715.96
474.39	41301.09
474.57	41474.29
474.75	41282.37
474.93	40699.58
475.12	40561.48
475.30	40137.85
475.48	40297.00
475.66	40884.48
475.84	40261.90
476.02	39555.05
476.20	39447.39
476.38	40233.81
476.56	41116.19
476.74	41752.82
476.92	41762.18
477.10	42307.52
477.28	43604.18
477.46	43849.94
477.64	44617.63
477.82	44481.88
478.00	44425.71
478.18	44114.42
478.36	44018.46
478.54	43821.85
478.72	44046.54
478.90	44964.03
479.08	46497.08
479.26	46658.58
479.44	46417.50
479.62	46316.86
479.80	45874.50
479.98	46550.91
480.16	46272.39
480.34	46384.74
480.52	46728.80
480.70	46838.80
480.88	46927.74
481.06	48030.13
481.24	47674.37
481.41	48793.15
481.59	49401.69
481.77	49034.22
481.95	48451.43
482.13	48453.77
482.31	48423.34
482.49	49106.78
482.67	48928.90
482.85	49675.53
483.03	49766.81
483.21	50026.61
483.39	50298.11
483.57	49357.22
483.74	49228.49
483.92	49698.94
484.10	49425.09
484.28	50370.67
484.46	50688.98
484.64	51236.67
484.82	50696.00
485.00	50368.33
485.18	49186.36
485.35	48432.71
485.53	45081.06
485.71	41511.74
485.89	40954.69
486.07	42698.39
486.25	45998.55
486.43	48353.13
486.61	48966.35
486.78	49104.44
486.96	49226.15
487.14	50911.33
487.32	51786.69
487.50	52652.69
487.68	53006.11
487.85	53696.57
488.03	53598.27
488.21	53038.88
488.39	52486.51
488.57	52037.13
488.75	51847.55
488.92	52933.56
489.10	54848.11
489.28	55674.32
489.46	56561.39
489.64	56296.91
489.81	56322.65
489.99	56039.45
490.17	56231.37
490.35	56341.38
490.53	55964.55
490.70	55800.71
490.88	55990.30
491.06	56479.47
491.24	56617.56
491.41	55498.78
491.59	54309.79
491.77	53502.31
491.95	54370.64
492.13	55430.91
492.30	56556.70
492.48	57411.00
492.66	57708.25
492.84	57731.65
493.01	57612.29
493.19	56811.82
493.37	56811.82
493.54	56409.25
493.72	56956.94
493.90	58300.40
494.08	58773.19
494.25	59327.90
494.43	59250.66
494.61	59458.97
494.79	59625.15
494.96	59487.06
495.14	58794.26
495.32	57939.96
495.49	57771.44
495.67	58672.55
495.85	59494.08
496.02	59922.40
496.20	59828.77
496.38	59473.01
496.55	59327.90
496.73	59709.41
496.91	60037.08
497.09	60334.33
497.26	60608.17
497.44	59964.52
497.62	59693.02
497.79	58946.39
497.97	57818.25
498.14	58136.57
498.32	58979.16
498.50	59760.90
498.67	60395.18
498.85	60058.15
499.03	60303.90
499.20	60470.08
499.38	60598.81
499.56	60474.76
499.73	59859.20
499.91	59643.87
500.08	59107.89
500.26	58363.60
500.44	58873.84
500.61	59805.37
500.79	59393.43
500.97	59248.32
501.14	59061.08
501.32	58908.94
501.49	58932.35
501.67	59166.40
501.84	59590.04
502.02	59746.86
502.20	60186.88
502.37	60484.12
502.55	60322.63
502.72	60823.50
502.90	61174.58
503.07	60849.25
503.25	60566.04
503.43	59791.33
503.60	59168.74
503.78	58611.70
503.95	59021.29
504.13	60399.86
504.30	61064.58
504.48	60886.70
504.65	60608.17
504.83	60704.13
505.01	60947.55
505.18	61504.60
505.36	62103.77
505.53	61911.85
505.71	62106.12
505.88	62316.76
506.06	61684.82
506.23	61492.89
506.41	61043.51
506.58	61226.07
506.76	61322.04
506.93	61371.19
507.11	61062.24
507.28	61102.03
507.46	60823.50
507.63	60212.62
507.81	60079.21
507.98	60357.74
508.16	61006.06
508.33	61401.61
508.50	61743.33
508.68	61893.13
508.85	62389.32
509.03	62307.40
509.20	62269.95
509.38	61586.52
509.55	61034.15
509.73	61130.11
509.90	61366.51
510.08	61663.75
510.25	61647.37
510.42	61647.37
510.60	61410.98
510.77	61724.61
510.95	62227.82
511.12	62134.20
511.30	62782.53
511.47	62784.87
511.64	62815.30
511.82	62384.64
511.99	61598.22
512.17	61385.23
512.34	60776.69
512.51	61085.64
512.69	61441.40
512.86	61511.62
513.04	61818.23
513.21	61827.59
513.38	61537.36
513.56	61095.00
513.73	60577.75
513.90	60900.74
514.08	61031.81
514.25	61080.96
514.43	61520.98
514.60	61450.77
514.77	61612.26
514.95	61715.25
515.12	61511.62
515.29	61595.88
515.47	62021.86
515.64	62300.38
515.81	61946.96
515.99	61441.40
516.16	60266.45
516.33	58131.89
516.51	57085.67
516.68	56236.05
516.85	56093.28
517.03	56140.09
517.20	58777.87
517.37	60809.46
517.54	61609.92
517.72	61186.28
517.89	59023.63
518.06	57155.88
518.24	57448.45
518.41	59178.10
518.58	60439.65
518.75	60512.21
518.93	60795.42
519.10	60699.45
519.27	61038.83
519.45	61216.71
519.62	61930.58
519.79	62232.50
519.96	61867.38
520.14	61670.78
520.31	60800.10
520.48	60818.82
520.65	61197.99
520.83	62171.65
521.00	62403.36
521.17	61984.41
521.34	61663.75
521.52	62197.40
521.69	62681.89
521.86	62831.68
522.03	62466.56
522.20	61415.66
522.38	60706.47
522.55	60755.63
522.72	61293.95
522.89	61340.76
523.07	61403.95
523.24	61876.74
523.41	62759.12
523.58	62801.25
523.75	63297.45
523.92	63025.95
524.10	63154.68
524.27	63011.90
524.44	62836.36
524.61	62487.62
524.78	62394.00
524.96	62492.30
525.13	62543.80
525.30	62707.63
525.47	63215.53
525.64	63054.03
525.81	62342.51
525.98	61176.92
526.16	59618.13
526.33	59442.59
526.50	59044.69
526.67	58618.72
526.84	59316.20
527.01	60144.75
527.18	60940.53
527.36	61623.96
527.53	62515.71
527.70	62529.75
527.87	61937.60
528.04	61867.38
528.21	62035.90
528.38	62726.36
528.55	63358.30
528.72	63587.67
528.89	63810.03
529.07	63391.07
529.24	62899.56
529.41	62279.31
529.58	61703.54
529.75	61743.33
529.92	62361.23
530.09	62705.29
530.26	63112.55
530.43	63409.79
530.60	63585.33
530.77	63566.61
530.94	63693.00
531.11	63234.25
531.28	63023.61
531.46	62838.70
531.63	62864.45
531.80	62911.26
531.97	62391.66
532.14	61652.05
532.31	60914.78
532.48	60097.94
532.65	60114.32
532.82	60945.21
532.99	61944.62
533.16	62300.38
533.33	63023.61
533.50	62625.71
533.67	61862.70
533.84	61726.95
534.01	61900.15
534.18	62253.57
534.35	62117.82
534.52	62188.03
534.69	62457.20
534.86	62770.83
535.03	62904.24
535.20	63379.37
535.37	63561.93
535.54	63730.45
535.71	63386.39
535.88	63121.91
536.05	62431.45
536.22	62255.91
536.38	61836.95
536.55	61336.08
536.72	60970.96
536.89	61080.96
537.06	61986.75
537.23	62616.35
537.40	62674.87
537.57	62642.10
537.74	62323.78
537.91	62562.52
538.08	62415.07
538.25	62571.88
538.42	62677.21
538.59	62450.17
538.75	61853.34
538.92	61752.69
539.09	61478.85
539.26	61553.75
539.43	61247.14
539.60	61429.70
539.77	61408.64
539.94	61427.36
540.11	60718.18
540.28	60303.90
540.44	60434.97
540.61	60636.26
540.78	60828.18
540.95	61193.31
541.12	61453.11
541.29	61609.92
541.46	62061.64
541.62	62108.46
541.79	61946.96
541.96	61336.08
542.13	61226.07
542.30	61710.56
542.47	61748.01
542.63	61581.84
542.80	61626.31
542.97	61368.85
543.14	61275.22
543.31	61497.58
543.48	61939.94
543.64	62656.14
543.81	62901.90
543.98	62667.84
544.15	61932.92
544.32	61581.84
544.48	61609.92
544.65	62033.56
544.82	62501.67
544.99	62078.03
545.16	61586.52
545.32	61743.33
545.49	62267.61
545.66	62656.14
545.83	62230.16
546.00	61928.23
546.16	61687.16
546.33	61710.56
546.50	61680.14
546.67	62120.16
546.83	61574.81
547.00	61797.16
547.17	60970.96
547.34	60498.17
547.50	60629.24
547.67	61055.21
547.84	61132.45
548.00	61523.32
548.17	61827.59
548.34	61623.96
548.51	61642.69
548.67	61530.34
548.84	61829.93
549.01	61738.65
549.18	61743.33
549.34	61499.92
549.51	61822.91
549.68	61633.33
549.84	61289.27
550.01	61336.08
550.18	61202.67
550.34	61326.72
550.51	61230.75
550.68	61455.45
550.84	61052.87
551.01	60933.51
551.18	60924.14
551.34	61235.44
551.51	61481.19
551.68	61654.39
551.84	61654.39
552.01	61516.30
552.18	61343.10
552.34	60624.56
552.51	60575.40
552.68	60404.55
552.84	60919.46
553.01	61059.90
553.18	61031.81
553.34	61195.65
553.51	61324.38
553.67	61478.85
553.84	61495.24
554.01	61441.40
554.17	61095.00
554.34	61347.78
554.51	61602.90
554.67	61801.85
554.84	61544.39
555.00	61443.74
555.17	60896.06
555.33	61202.67
555.50	61106.71
555.67	61006.06
555.83	60828.18
556.00	60598.81
556.16	60783.71
556.33	60172.83
556.50	60114.32
556.66	60236.03
556.83	60023.04
556.99	60196.24
557.16	60280.50
557.32	60427.95
557.49	60645.62
557.65	60753.29
557.82	60507.53
557.98	60460.72
558.15	60182.19
558.32	59456.63
558.48	58702.98
558.65	58892.56
558.81	59217.89
558.98	59473.01
559.14	59475.35
559.31	59803.03
559.47	59721.11
559.64	59428.54
559.80	59128.95
559.97	59072.78
560.13	59583.02
560.30	60287.52
560.46	60713.50
560.63	60889.04
560.79	60823.50
560.96	60598.81
561.12	59480.03
561.29	58894.90
561.45	58850.43
561.61	59461.31
561.78	59901.33
561.94	59784.30
562.11	59599.40
562.27	59519.82
562.44	59709.41
562.60	59938.78
562.77	60261.77
562.93	60079.21
563.10	60107.30
563.26	59496.42
563.42	59662.60
563.59	59327.90
563.75	59550.25
563.92	59508.12
564.08	59498.76
564.24	59852.18
564.41	59945.80
564.57	59423.86
564.74	59402.80
564.90	59519.82
565.07	59194.49
565.23	58953.41
565.39	58307.43
565.56	58192.74
565.72	58150.61
565.88	58363.60
566.05	58450.20
566.21	58834.05
566.38	58609.35
566.54	58937.03
566.70	59407.48
566.87	59377.05
567.03	59281.09
567.19	59519.82
567.36	59320.88
567.52	59274.07
567.68	59035.33
567.85	58312.11
568.01	58429.13
568.17	57790.17
568.34	57890.81
568.50	57820.59
568.66	57829.96
568.83	58241.89
568.99	58312.11
569.15	58632.76
569.32	58515.73
569.48	58293.38
569.64	57949.32
569.81	57675.48
569.97	57680.16
570.13	57516.32
570.30	57134.82
570.46	56870.34
570.62	56566.07
570.78	56507.55
570.95	56650.33
571.11	57190.99
571.27	57471.85
571.43	57642.71
571.60	57804.21
571.76	58031.24
571.92	58258.27
572.09	58314.45
572.25	58328.49
572.41	58204.44
572.57	58312.11
572.74	58202.10
572.90	57925.92
573.06	57649.74
573.22	57897.83
573.38	57951.66
573.55	57822.93
573.71	58174.02
573.87	58010.18
574.03	57881.45
574.20	57808.89
574.36	57502.28
574.52	57593.56
574.68	57340.78
574.84	56797.78
575.01	56612.88
575.17	56519.26
575.33	56765.01
575.49	56858.63
575.65	57277.59
575.82	56853.95
575.98	56608.20
576.14	56987.36
576.30	57024.81
576.46	57247.16
576.62	57305.68
576.79	57137.16
576.95	56765.01
577.11	56615.22
577.27	56935.87
577.43	57013.11
577.59	56549.68
577.75	56076.90
577.92	55845.18
578.08	55543.25
578.24	55503.46
578.40	55849.86
578.56	56205.62
578.72	56147.11
578.88	56409.25
579.04	56488.83
579.21	56526.28
579.37	56844.59
579.53	56781.40
579.69	56755.65
579.85	56849.27
580.01	56664.37
580.17	56463.08
580.33	56217.33
580.49	56271.16
580.65	56516.92
580.82	56676.07
580.98	56470.11
581.14	56626.92
581.30	56788.42
581.46	56413.93
581.62	56678.41
581.78	56781.40
581.94	56863.32
582.10	56694.80
582.26	56615.22
582.42	56659.69
582.58	56882.04
582.74	56605.86
582.90	56582.45
583.06	56769.69
583.22	56240.73
583.38	56411.59
583.54	56521.60
583.70	56502.87
583.86	56678.41
584.02	56509.89
584.18	56626.92
584.34	56378.82
584.50	56329.67
584.66	56137.75
584.82	55819.44
584.98	55786.67
585.14	55309.20
585.30	54766.20
