SpectraSuite Data File
++++++++++++++++++++++++++++++++++++
Date: Mon Oct 07 14:53:51 GMT-05:00 2013
User: price-jones
Dark Spectrum Present: No
Reference Spectrum Present: No
Number of Sampled Component Spectra: 1
Spectrometers: USB2+H05261
Integration Time (usec): 100000 (USB2+H05261)
Spectra Averaged: 1 (USB2+H05261)
Boxcar Smoothing: 0 (USB2+H05261)
Correct for Electrical Dark: No (USB2+H05261)
Strobe/Lamp Enabled: No (USB2+H05261)
Correct for Detector Non-linearity: No (USB2+H05261)
Correct for Stray Light: No (USB2+H05261)
Number of Pixels in Processed Spectrum: 2048
>>>>>Begin Processed Spectral Data<<<<<
365.73	0.00
365.92	0.00
366.12	0.00
366.32	0.00
366.52	0.00
366.72	0.00
366.91	0.00
367.11	0.00
367.31	0.00
367.51	0.00
367.70	0.00
367.90	0.00
368.10	0.00
368.30	0.00
368.49	0.00
368.69	0.00
368.89	0.00
369.09	0.00
369.28	0.00
369.48	0.00
369.68	0.00
369.87	0.00
370.07	0.00
370.27	0.00
370.47	575.77
370.66	3019.29
370.86	3609.11
371.06	3880.61
371.25	4016.36
371.45	3581.02
371.65	3082.49
371.84	2881.20
372.04	3229.94
372.24	3520.17
372.44	3770.60
372.63	3726.13
372.83	3508.46
373.03	3019.29
373.22	2792.26
373.42	2960.78
373.62	3417.18
373.81	3597.40
374.01	3712.09
374.21	3229.94
374.40	3026.31
374.60	3157.38
374.79	3506.12
374.99	4241.05
375.19	4496.17
375.38	4444.68
375.58	4138.07
375.78	4065.51
375.97	4344.03
376.17	4344.03
376.37	4318.29
376.56	4339.35
376.76	4697.46
376.95	4945.55
377.15	5523.66
377.35	5399.62
377.54	5703.89
377.74	6064.33
377.93	6197.74
378.13	5813.89
378.33	5514.30
378.52	5111.73
378.72	4882.36
378.91	4929.17
379.11	4739.58
379.31	4582.77
379.50	4440.00
379.70	4809.80
379.89	5537.71
380.09	5535.37
380.28	5774.10
380.48	5888.79
380.68	5767.08
380.87	5579.84
381.07	5139.82
381.26	4884.70
381.46	4517.23
381.65	4304.25
381.85	4252.75
382.04	4067.85
382.24	3843.16
382.43	3669.96
382.63	3482.72
382.83	3592.72
383.02	3581.02
383.22	3475.70
383.41	3588.04
383.61	3782.31
383.80	4407.23
384.00	4938.53
384.19	5568.13
384.39	5888.79
384.58	5699.20
384.78	5614.95
384.97	5495.58
385.17	5434.72
385.36	5102.37
385.56	4910.44
385.75	5093.01
385.95	5530.69
386.14	5982.41
386.34	5984.75
386.53	5621.97
386.72	5327.06
386.92	5530.69
387.11	5636.01
387.31	5877.09
387.50	5893.47
387.70	5575.16
387.89	5678.14
388.09	5703.89
388.28	5753.04
388.48	5764.74
388.67	6239.87
388.86	6801.60
389.06	7243.96
389.25	7695.68
389.45	7569.29
389.64	7585.68
389.84	7641.85
390.03	7588.02
390.22	7323.54
390.42	7779.94
390.61	8063.15
390.81	8730.20
391.00	9032.13
391.19	8894.04
391.39	8741.90
391.58	8147.40
391.78	7742.49
391.97	7527.16
392.16	6944.37
392.36	6148.59
392.55	5083.64
392.75	3932.10
392.94	3248.66
393.13	3283.77
393.33	3815.07
393.52	4847.25
393.71	5994.11
393.91	6925.65
394.10	7581.00
394.29	8124.00
394.49	8741.90
394.68	9252.14
394.88	9542.36
395.07	9818.55
395.26	9437.04
395.46	9322.35
395.65	8865.95
395.84	7789.30
396.04	6696.27
396.23	5378.55
396.42	4407.23
396.62	4217.65
396.81	5004.07
397.00	6356.90
397.19	7899.31
397.39	9324.69
397.58	10525.39
397.77	11187.76
397.97	11676.93
398.16	11875.88
398.35	12053.76
398.55	12620.17
398.74	13242.75
398.93	13434.68
399.12	13111.68
399.32	12556.97
399.51	13008.70
399.70	13628.94
399.90	13544.68
400.09	13933.21
400.28	13844.27
400.47	13614.90
400.67	14340.46
400.86	14768.78
401.05	14958.36
401.24	14925.60
401.44	14984.11
401.63	15131.56
401.82	15040.28
402.01	15192.42
402.21	15489.67
402.40	15559.88
402.59	15023.90
402.78	14303.01
402.97	13745.97
403.17	14207.05
403.36	15335.19
403.55	15964.79
403.74	16233.96
403.93	15243.91
404.13	14317.06
404.32	13820.86
404.51	14754.74
404.70	15934.37
404.89	15796.28
405.09	15489.67
405.28	14864.74
405.47	14785.16
405.66	15054.33
405.85	14565.15
406.05	14284.29
406.24	14342.80
406.43	15082.41
406.62	15716.70
406.81	15646.48
407.00	14951.34
407.20	14520.68
407.39	14700.90
407.58	15630.10
407.77	16016.29
407.96	16678.66
408.15	16755.90
408.34	16837.81
408.54	17750.62
408.73	17610.19
408.92	17413.59
409.11	16910.37
409.30	16315.87
409.49	15410.09
409.68	14223.44
409.87	13862.99
410.07	14448.13
410.26	15786.91
410.45	16713.77
410.64	17186.55
410.83	17657.00
411.02	17902.76
411.21	18705.56
411.40	18815.57
411.59	18640.03
411.78	18445.76
411.98	18328.74
412.17	18747.69
412.36	18230.43
412.55	18424.70
412.74	17944.89
412.93	17661.68
413.12	17628.92
413.31	19274.31
413.50	19417.08
413.69	20018.60
413.88	19300.06
414.07	18326.39
414.26	18986.43
414.45	19590.28
414.64	19569.22
414.83	19679.22
415.02	19248.57
415.22	19276.65
415.41	19435.81
415.60	20336.91
415.79	20915.03
415.98	21626.55
416.17	21598.46
416.36	20849.49
416.55	20884.60
416.74	20119.24
416.93	19234.52
417.12	19321.12
417.31	19550.49
417.50	20240.95
417.69	20620.12
417.88	20666.93
418.07	20236.27
418.26	20112.22
418.45	20404.79
418.64	20961.84
418.83	21717.83
419.02	21652.30
419.21	21500.16
419.39	20348.62
419.58	19449.85
419.77	19517.73
419.96	20208.19
420.15	21451.01
420.34	21984.65
420.53	22939.59
420.72	22946.61
420.91	22899.80
421.10	22625.96
421.29	22214.02
421.48	21570.38
421.67	22773.41
421.86	22415.31
422.05	20699.70
422.24	18492.57
422.43	18389.59
422.61	20297.13
422.80	21834.86
422.99	22410.63
423.18	20980.56
423.37	20673.95
423.56	20641.18
423.75	21432.29
423.94	21816.13
424.13	20318.19
424.32	20678.63
424.50	20734.81
424.69	20159.03
424.88	20608.42
425.07	20496.07
425.26	20552.24
425.45	19997.54
425.64	19655.82
425.83	19829.02
426.01	20912.69
426.20	21685.06
426.39	21221.64
426.58	19896.89
426.77	18380.23
426.96	17462.74
427.15	18649.39
427.33	19955.41
427.52	20645.87
427.71	20985.24
427.90	20313.51
428.09	20166.06
428.28	19796.25
428.46	19047.28
428.65	18743.01
428.84	19346.87
429.03	19585.60
429.22	18785.14
429.40	17710.83
429.59	15777.55
429.78	14300.67
429.97	14303.01
430.16	14516.00
430.34	14626.01
430.53	14391.95
430.72	15009.86
430.91	16493.76
431.10	19463.90
431.28	22759.37
431.47	24379.02
431.66	24856.49
431.85	22415.31
432.03	20641.18
432.22	19543.47
432.41	20641.18
432.60	22813.20
432.79	23501.32
432.97	24278.38
433.16	23840.70
433.35	21673.36
433.54	19491.98
433.72	18242.14
433.91	18960.68
434.10	21163.12
434.28	22588.51
434.47	23845.38
434.66	23164.28
434.85	22951.29
435.03	22703.20
435.22	23573.88
435.41	24442.21
435.59	24732.44
435.78	24837.76
435.97	25699.08
436.16	26113.36
436.34	25078.84
436.53	24809.68
436.72	25137.35
436.90	23838.36
437.09	23468.55
437.28	23367.91
437.46	23573.88
437.65	24135.60
437.84	22534.68
438.02	20491.39
438.21	20386.07
438.40	21441.65
438.58	23105.77
438.77	23906.23
438.96	24208.16
439.14	24966.49
439.33	25862.92
439.52	26211.66
439.70	25216.93
439.89	24893.94
440.08	24224.54
440.26	24194.12
440.45	25216.93
440.63	26579.12
440.82	27978.76
441.01	27901.53
441.19	27290.65
441.38	28011.53
441.57	28648.16
441.75	29394.79
441.94	29645.23
442.12	29207.55
442.31	29633.52
442.50	29921.41
442.68	29366.70
442.87	29216.91
443.05	28402.40
443.24	29116.26
443.43	29699.06
443.61	29783.32
443.80	30700.81
443.98	29003.92
444.17	28725.39
444.35	30466.75
444.54	30972.31
444.73	30616.55
444.91	29736.51
445.10	28308.78
445.28	26906.80
445.47	26661.04
445.65	26705.51
445.84	27309.37
446.02	28599.01
446.21	28996.90
446.39	28783.91
446.58	29275.42
446.77	29727.14
446.95	30050.14
447.14	30808.47
447.32	31342.11
447.51	30593.14
447.69	29352.66
447.88	29324.57
448.06	29411.17
448.25	30050.14
448.43	30553.35
448.62	29675.65
448.80	29713.10
448.99	30361.43
449.17	30345.05
449.36	29879.28
449.54	31353.82
449.73	31824.26
449.91	32123.85
450.10	32701.96
450.28	33305.82
450.46	33411.15
450.65	33282.42
450.83	32858.78
451.02	32107.47
451.20	31952.99
451.39	32545.15
451.57	31945.97
451.76	31800.86
451.94	31693.19
452.13	31220.41
452.31	29963.54
452.49	28379.00
452.68	28957.11
452.86	28943.06
453.05	29130.31
453.23	29865.24
453.42	30703.15
453.60	31365.52
453.78	31688.51
453.97	31182.96
454.15	31491.91
454.34	30590.80
454.52	30876.35
454.70	30595.48
454.89	30567.40
455.07	30691.44
455.26	31349.14
455.44	32198.75
455.62	33481.36
455.81	32800.27
455.99	32617.71
456.17	32767.50
456.36	32460.89
456.54	33722.44
456.73	33127.94
456.91	33921.38
457.09	34015.01
457.28	34761.64
457.46	33535.20
457.64	33074.11
457.83	32341.52
458.01	31559.78
458.19	32219.81
458.38	32484.30
458.56	33649.88
458.74	33598.39
458.93	33041.34
459.11	32371.95
459.29	32662.18
459.48	32423.44
459.66	32449.19
459.84	33092.83
460.03	33034.32
460.21	33284.76
460.39	34181.18
460.57	34164.80
460.76	34529.92
460.94	34747.59
461.12	34026.71
461.31	34419.92
461.49	34073.52
461.67	33942.45
461.85	35407.62
462.04	34976.97
462.22	34953.56
462.40	34993.35
462.59	34965.26
462.77	34965.26
462.95	34761.64
463.13	34417.58
463.32	34143.74
463.50	33975.22
463.68	33965.85
463.86	33787.97
464.05	33507.11
464.23	33130.28
464.41	32737.07
464.59	32135.56
464.78	34108.63
464.96	33574.98
465.14	33127.94
465.32	34096.92
465.50	35014.41
465.69	35086.97
465.87	34412.90
466.05	33738.82
466.23	32549.83
466.41	31147.85
466.60	32238.54
466.78	32671.54
466.96	33240.29
467.14	33291.78
467.32	34335.66
467.51	33773.93
467.69	32617.71
467.87	32804.95
468.05	33780.95
468.23	33645.20
468.41	33579.67
468.60	33486.04
468.78	34459.71
468.96	33617.11
469.14	34356.72
469.32	34410.56
469.50	33268.37
469.69	33324.55
469.87	33031.98
470.05	32540.47
470.23	33251.99
470.41	32547.49
470.59	33322.21
470.77	33460.30
470.95	34033.73
471.14	34565.03
471.32	34391.83
471.50	36257.24
471.68	36533.42
471.86	37013.23
472.04	36957.06
472.22	36774.50
472.40	35042.50
472.58	34944.20
472.77	34712.49
472.95	35496.56
473.13	35934.24
473.31	35154.85
473.49	35133.78
473.67	36114.47
473.85	36517.04
474.03	37144.30
474.21	37247.29
474.39	38047.75
474.57	37656.88
474.75	38043.07
474.93	37312.82
475.12	36341.50
475.30	36683.22
475.48	36921.95
475.66	37603.05
475.84	37053.02
476.02	36928.97
476.20	36006.80
476.38	37057.70
476.56	38164.78
476.74	38492.45
476.92	38574.37
477.10	39257.81
477.28	40184.66
477.46	40189.34
477.64	40952.35
477.82	40961.72
478.00	41102.15
478.18	40189.34
478.36	40638.72
478.54	40009.12
478.72	40278.28
478.90	41439.18
479.08	42349.65
479.26	43304.59
479.44	42609.45
479.62	42553.28
479.80	42705.41
479.98	42562.64
480.16	42904.36
480.34	42717.12
480.52	42827.12
480.70	43508.22
480.88	43320.98
481.06	44011.43
481.24	44409.32
481.41	45600.66
481.59	45511.72
481.77	45455.54
481.95	45085.74
482.13	44385.92
482.31	45013.18
482.49	45743.43
482.67	45303.41
482.85	45647.47
483.03	46157.70
483.21	46469.00
483.39	46405.80
483.57	46143.66
483.74	45734.07
483.92	45558.53
484.10	46000.89
484.28	46925.40
484.46	47224.99
484.64	47854.59
484.82	46677.30
485.00	46457.29
485.18	45731.73
485.35	44495.92
485.53	41563.23
485.71	37783.27
485.89	37003.87
486.07	38878.64
486.25	42597.75
486.43	44215.06
486.61	45265.96
486.78	45558.53
486.96	45343.20
487.14	47405.21
487.32	47945.87
487.50	49003.80
487.68	49841.71
487.85	50305.13
488.03	50513.44
488.21	50010.23
488.39	49230.83
488.57	48608.25
488.75	48079.28
488.92	49226.15
489.10	51332.63
489.28	52907.81
489.46	53483.58
489.64	53429.75
489.81	53567.84
489.99	53155.91
490.17	53301.02
490.35	53521.03
490.53	53148.88
490.70	52755.68
490.88	52486.51
491.06	53514.01
491.24	53432.09
491.41	52416.30
491.59	50588.34
491.77	50506.42
491.95	51215.60
492.13	52638.65
492.30	53532.73
492.48	54539.16
492.66	55018.97
492.84	55044.72
493.01	54649.17
493.19	54150.63
493.37	54010.20
493.54	53745.72
493.72	54101.48
493.90	54946.42
494.08	55971.57
494.25	56210.31
494.43	56222.01
494.61	56793.10
494.79	56652.67
494.96	56589.47
495.14	56236.05
495.32	55079.83
495.49	54590.66
495.67	55531.55
495.85	56786.08
496.02	56963.96
496.20	57066.94
496.38	56535.64
496.55	56442.02
496.73	56900.76
496.91	56970.98
497.09	57792.51
497.26	57801.87
497.44	57308.02
497.62	56793.10
497.79	56034.77
497.97	54885.56
498.14	54927.69
498.32	56135.41
498.50	57031.83
498.67	57513.98
498.85	57293.97
499.03	57593.56
499.20	57996.13
499.38	57804.21
499.56	57666.12
499.73	57162.90
499.91	56765.01
500.08	56659.69
500.26	55229.62
500.44	55955.19
500.61	56594.15
500.79	56645.65
500.97	56016.04
501.14	55997.32
501.32	55896.67
501.49	55985.61
501.67	56060.51
501.84	56554.36
502.02	57106.73
502.20	57125.46
502.37	57275.25
502.55	57406.32
502.72	57851.02
502.90	58220.83
503.07	58014.86
503.25	57762.08
503.43	56900.76
503.60	56142.43
503.78	55370.05
503.95	56090.94
504.13	57270.57
504.30	58190.40
504.48	57923.58
504.65	57591.22
504.83	57581.86
505.01	58218.49
505.18	58754.47
505.36	59107.89
505.53	59131.29
505.71	59143.00
505.88	59442.59
506.06	58841.07
506.23	58515.73
506.41	58211.46
506.58	58557.86
506.76	58431.47
506.93	58326.15
507.11	58117.84
507.28	58248.91
507.46	57907.19
507.63	57308.02
507.81	57020.13
507.98	57242.48
508.16	57836.98
508.33	58370.62
508.50	58726.38
508.68	58911.28
508.85	59519.82
509.03	59395.77
509.20	59297.47
509.38	58714.68
509.55	57911.88
509.73	57991.45
509.90	58471.26
510.08	58677.23
510.25	58555.52
510.42	58585.95
510.60	58408.07
510.77	58621.06
510.95	59220.23
511.12	59323.22
511.30	59613.44
511.47	59903.67
511.64	59678.98
511.82	59498.76
511.99	58693.61
512.17	58209.12
512.34	58024.22
512.51	58106.14
512.69	58239.55
512.86	58564.88
513.04	58960.44
513.21	58878.52
513.38	58459.56
513.56	57799.53
513.73	57324.40
513.90	57680.16
514.08	57741.02
514.25	58073.37
514.43	57921.24
514.60	58127.20
514.77	58522.76
514.95	58305.09
515.12	58499.35
515.29	58684.25
515.47	59011.93
515.64	59253.00
515.81	58941.71
515.99	58377.64
516.16	56952.26
516.33	54651.51
516.51	53326.77
516.68	52390.55
516.85	51831.16
517.03	52390.55
517.20	55091.53
517.37	57518.67
517.54	58473.60
517.72	57954.00
517.89	55728.16
518.06	53258.89
518.24	53528.05
518.41	55824.12
518.58	57097.37
518.75	57403.98
518.93	57403.98
519.10	57188.65
519.27	57743.36
519.45	57893.15
519.62	58688.93
519.79	58848.09
519.96	58834.05
520.14	58370.62
520.31	57411.00
520.48	57684.84
520.65	57862.72
520.83	58752.13
521.00	59196.83
521.17	58712.34
521.34	58569.57
521.52	58777.87
521.69	59164.06
521.86	59814.73
522.03	59145.34
522.20	58295.72
522.38	57144.18
522.55	57532.71
522.72	57680.16
522.89	57979.75
523.07	58237.21
523.24	58499.35
523.41	59327.90
523.58	59690.68
523.75	59833.46
523.92	59735.15
524.10	59793.67
524.27	59849.84
524.44	59721.11
524.61	59400.46
524.78	59473.01
524.96	58981.50
525.13	59236.62
525.30	59557.27
525.47	59725.79
525.64	59756.22
525.81	59014.27
525.98	57851.02
526.16	56409.25
526.33	55714.11
526.50	55171.11
526.67	54731.09
526.84	55468.36
527.01	56535.64
527.18	57219.08
527.36	57939.96
527.53	59096.19
527.70	59409.82
527.87	58532.12
528.04	58178.70
528.21	58658.51
528.38	59365.35
528.55	59807.71
528.72	60247.73
528.89	60296.88
529.07	59999.63
529.24	59524.50
529.41	58890.22
529.58	58017.20
529.75	58293.38
529.92	58695.95
530.09	59077.46
530.26	59634.51
530.43	60020.70
530.60	59894.31
530.77	60224.32
530.94	60238.37
531.11	59817.07
531.28	59557.27
531.46	59571.32
531.63	59671.96
531.80	59348.96
531.97	58939.37
532.14	58223.17
532.31	57237.80
532.48	56381.16
532.65	56594.15
532.82	57509.30
532.99	58541.48
533.16	58791.92
533.33	59447.27
533.50	59299.81
533.67	58506.37
533.84	58265.30
534.01	58473.60
534.18	58501.69
534.35	58848.09
534.52	58506.37
534.69	58742.77
534.86	59030.65
535.03	59437.90
535.20	59962.18
535.37	60233.69
535.54	60229.01
535.71	59922.40
535.88	59597.06
536.05	58829.37
536.22	58693.61
536.38	58293.38
536.55	57752.72
536.72	57371.21
536.89	57080.98
537.06	58134.23
537.23	58838.73
537.40	59021.29
537.57	59075.12
537.74	58824.68
537.91	58827.02
538.08	58717.02
538.25	59042.35
538.42	59063.42
538.59	58979.16
538.75	58260.62
538.92	57813.57
539.09	57991.45
539.26	57886.13
539.43	57411.00
539.60	57441.43
539.77	57595.90
539.94	57528.03
540.11	57003.75
540.28	56446.70
540.44	56502.87
540.61	56687.78
540.78	56823.53
540.95	57455.47
541.12	57783.15
541.29	58169.33
541.46	58424.45
541.62	58302.74
541.79	58049.97
541.96	57518.67
542.13	57619.31
542.30	57794.85
542.47	58019.54
542.63	57741.02
542.80	57675.48
542.97	57684.84
543.14	57467.17
543.31	57483.56
543.48	58183.38
543.64	58880.86
543.81	59171.08
543.98	58901.92
544.15	58347.21
544.32	57766.76
544.48	57565.48
544.65	58061.67
544.82	58581.27
544.99	58347.21
545.16	57942.30
545.32	57621.65
545.49	58351.90
545.66	58976.82
545.83	58342.53
546.00	58113.16
546.16	57785.49
546.33	57628.67
546.50	57846.34
546.67	58169.33
546.83	57797.19
547.00	58185.72
547.17	57190.99
547.34	56807.14
547.50	56509.89
547.67	57242.48
547.84	57116.09
548.00	57366.53
548.17	57932.94
548.34	57869.75
548.51	57670.80
548.67	57895.49
548.84	57918.90
549.01	58000.82
549.18	57893.15
549.34	57495.26
549.51	57724.63
549.68	57506.96
549.84	57427.38
550.01	57298.65
550.18	57387.60
550.34	57200.35
550.51	57422.70
550.68	57340.78
550.84	56980.34
551.01	56970.98
551.18	57064.60
551.34	56959.28
551.51	57502.28
551.68	57715.27
551.84	57916.56
552.01	57532.71
552.18	57448.45
552.34	56685.43
552.51	56727.56
552.68	56184.56
552.84	56718.20
553.01	57233.12
553.18	56921.83
553.34	56947.57
553.51	57160.56
553.67	57350.15
553.84	57425.04
554.01	57413.34
554.17	57303.34
554.34	57319.72
554.51	57523.35
554.67	57574.84
554.84	57427.38
555.00	57265.89
555.17	56877.36
555.33	56987.36
555.50	57031.83
555.67	57076.30
555.83	56713.52
556.00	56381.16
556.16	56292.22
556.33	56112.00
556.50	55969.23
556.66	55943.48
556.83	55611.13
556.99	55824.12
557.16	55831.14
557.32	56324.99
557.49	56413.93
557.65	56406.91
557.82	56526.28
557.98	56179.88
558.15	55955.19
558.32	54911.31
558.48	54417.46
558.65	54394.05
558.81	54892.58
558.98	54841.09
559.14	55131.32
559.31	55334.95
559.47	55079.83
559.64	54990.89
559.80	54466.61
559.97	54782.58
560.13	55117.28
560.30	55950.51
560.46	56453.72
560.63	56739.27
560.79	56673.73
560.96	56149.45
561.12	55192.17
561.29	54504.06
561.45	54183.40
561.61	55136.00
561.78	55224.94
561.94	55405.16
562.11	55093.87
562.27	55044.72
562.44	55419.20
562.60	55725.81
562.77	55983.27
562.93	55620.49
563.10	55503.46
563.26	54967.48
563.42	55309.20
563.59	54644.49
563.75	54838.75
563.92	54707.68
564.08	55044.72
564.24	55206.22
564.41	55128.98
564.57	55112.59
564.74	54915.99
564.90	54642.15
565.07	54567.25
565.23	54106.16
565.39	53645.08
565.56	53673.16
565.72	53139.52
565.88	53616.99
566.05	53862.75
566.21	54122.55
566.38	54143.61
566.54	54185.74
566.70	54618.74
566.87	54759.17
567.03	54937.05
567.19	55159.41
567.36	54801.30
567.52	54731.09
567.68	54288.73
567.85	53865.09
568.01	53551.46
568.17	52935.90
568.34	52996.75
568.50	52823.55
568.66	53137.18
568.83	53441.45
568.99	53502.31
569.15	53916.58
569.32	53783.17
569.48	53359.53
569.64	53162.93
569.81	52825.89
569.97	52800.15
570.13	52753.33
570.30	52310.97
570.46	51774.99
570.62	51452.00
570.78	51379.44
570.95	51353.69
571.11	52212.67
571.27	52509.92
571.43	52673.76
571.60	52980.37
571.76	53301.02
571.92	53289.32
572.09	53654.44
572.25	53401.66
572.41	53546.78
572.57	53366.55
572.74	53382.94
572.90	52954.62
573.06	52645.67
573.22	52982.71
573.38	53165.27
573.55	52896.11
573.71	52945.26
573.87	52987.39
574.03	52729.93
574.20	52750.99
574.36	52549.71
574.52	52420.98
574.68	52107.35
574.84	51845.21
575.01	51264.75
575.17	51129.00
575.33	51524.55
575.49	51306.88
575.65	52083.94
575.82	51601.79
575.98	51416.89
576.14	51524.55
576.30	52121.39
576.46	52385.87
576.62	51735.20
576.79	52004.36
576.95	51487.10
577.11	51339.65
577.27	51716.48
577.43	51810.10
577.59	51173.47
577.75	50890.27
577.92	50071.08
578.08	49923.63
578.24	49698.94
578.40	50361.31
578.56	50473.65
578.72	50834.10
578.88	50740.47
579.04	50738.13
579.21	50761.54
579.37	51220.28
579.53	51246.03
579.69	51040.06
579.85	51405.19
580.01	51194.54
580.17	50761.54
580.33	50466.63
580.49	50724.09
580.65	50878.57
580.82	51367.74
580.98	51086.87
581.14	51004.95
581.30	51089.21
581.46	50916.01
581.62	51124.32
581.78	51353.69
581.94	51430.93
582.10	51554.98
582.26	51325.61
582.42	51377.10
582.58	51407.53
582.74	51100.92
582.90	51096.24
583.06	51360.72
583.22	51239.01
583.38	51065.81
583.54	51058.79
583.70	50813.03
583.86	51077.51
584.02	50848.14
584.18	50848.14
584.34	50759.20
584.50	50408.12
584.66	50377.69
584.82	50302.79
584.98	50148.32
585.14	49439.14
585.30	49078.69
