SpectraSuite Data File
++++++++++++++++++++++++++++++++++++
Date: Mon Oct 07 14:53:56 GMT-05:00 2013
User: price-jones
Dark Spectrum Present: No
Reference Spectrum Present: No
Number of Sampled Component Spectra: 1
Spectrometers: USB2+H05261
Integration Time (usec): 100000 (USB2+H05261)
Spectra Averaged: 1 (USB2+H05261)
Boxcar Smoothing: 0 (USB2+H05261)
Correct for Electrical Dark: No (USB2+H05261)
Strobe/Lamp Enabled: No (USB2+H05261)
Correct for Detector Non-linearity: No (USB2+H05261)
Correct for Stray Light: No (USB2+H05261)
Number of Pixels in Processed Spectrum: 2048
>>>>>Begin Processed Spectral Data<<<<<
365.73	0.00
365.92	0.00
366.12	0.00
366.32	0.00
366.52	0.00
366.72	0.00
366.91	0.00
367.11	0.00
367.31	0.00
367.51	0.00
367.70	0.00
367.90	0.00
368.10	0.00
368.30	0.00
368.49	0.00
368.69	0.00
368.89	0.00
369.09	0.00
369.28	0.00
369.48	0.00
369.68	0.00
369.87	0.00
370.07	0.00
370.27	0.00
370.47	526.62
370.66	3215.90
370.86	3674.64
371.06	3995.29
371.25	4241.05
371.45	3756.56
371.65	3410.16
371.84	3173.77
372.04	3318.88
372.24	3667.62
372.44	3936.78
372.63	3749.54
372.83	3613.79
373.03	3199.51
373.22	2979.50
373.42	3218.24
373.62	3576.34
373.81	3751.88
374.01	3712.09
374.21	3475.70
374.40	3176.11
374.60	3255.69
374.79	3754.22
374.99	4489.15
375.19	4833.21
375.38	4695.11
375.58	4437.66
375.78	4491.49
375.97	4322.97
376.17	4634.26
376.37	4568.73
376.56	4667.03
376.76	4863.63
376.95	5327.06
377.15	5671.12
377.35	5989.43
377.54	6094.76
377.74	6150.93
377.93	6427.11
378.13	6167.31
378.33	5778.78
378.52	5280.25
378.72	5074.28
378.91	5013.43
379.11	4999.38
379.31	4755.97
379.50	4601.49
379.70	5043.85
379.89	5448.77
380.09	5963.68
380.28	6181.35
380.48	6190.72
380.68	5944.96
380.87	5902.83
381.07	5425.36
381.26	5004.07
381.46	4664.69
381.65	4442.34
381.85	4461.06
382.04	4091.26
382.24	3929.76
382.43	3941.46
382.63	3571.66
382.83	3625.49
383.02	3822.09
383.22	3840.82
383.41	3716.77
383.61	4081.89
383.80	4535.96
384.00	5179.61
384.19	5547.07
384.39	6010.50
384.58	6186.04
384.78	5830.27
384.97	5820.91
385.17	5671.12
385.36	5177.26
385.56	4964.28
385.75	5144.50
385.95	5724.95
386.14	6197.74
386.34	6333.49
386.53	5877.09
386.72	5621.97
386.92	5628.99
387.11	6064.33
387.31	6197.74
387.50	6225.82
387.70	5818.57
387.89	6001.13
388.09	5877.09
388.28	5949.64
388.48	6017.52
388.67	6560.52
388.86	7148.00
389.06	7716.75
389.25	7988.25
389.45	8100.59
389.64	8013.99
389.84	8013.99
390.03	7901.65
390.22	7808.03
390.42	8198.90
390.61	8748.92
390.81	9277.88
391.00	9383.21
391.19	9343.42
391.39	8945.53
391.58	8528.91
391.78	7847.82
391.97	7793.98
392.16	7300.13
392.36	6539.46
392.55	5289.61
392.75	4227.01
392.94	3545.91
393.13	3363.35
393.33	4093.60
393.52	5121.09
393.71	6207.10
393.91	6949.05
394.10	7733.13
394.29	8315.92
394.49	9195.96
394.68	9816.21
394.88	9743.65
395.07	10244.52
395.26	10052.60
395.46	9912.17
395.65	9163.20
395.84	8004.63
396.04	6984.16
396.23	5504.94
396.42	4699.80
396.62	4582.77
396.81	5235.78
397.00	6710.32
397.19	8166.13
397.39	9944.94
397.58	11267.34
397.77	11442.88
397.97	12142.70
398.16	12486.76
398.35	12865.92
398.55	12847.20
398.74	13549.36
398.93	13930.87
399.12	13593.83
399.32	13085.94
399.51	13589.15
399.70	14274.93
399.90	14249.18
400.09	14078.32
400.28	14162.58
400.47	14211.73
400.67	15150.29
400.86	15468.60
401.05	15475.62
401.24	15349.23
401.44	15917.98
401.63	15597.33
401.82	15967.13
402.01	15789.25
402.21	15887.56
402.40	16042.03
402.59	15412.43
402.78	14934.96
402.97	14448.13
403.17	14937.30
403.36	15695.63
403.55	16355.66
403.74	16755.90
403.93	15843.09
404.13	14827.29
404.32	14530.05
404.51	14944.32
404.70	16662.27
404.89	16161.40
405.09	15735.42
405.28	15644.14
405.47	15403.07
405.66	15625.42
405.85	15166.67
406.05	14588.56
406.24	14991.13
406.43	15597.33
406.62	16428.22
406.81	16444.60
407.00	15910.96
407.20	15232.21
407.39	15314.13
407.58	15988.20
407.77	16774.62
407.96	17195.92
408.15	17406.56
408.34	17575.08
408.54	18256.18
408.73	18597.90
408.92	18134.47
409.11	17741.26
409.30	16809.73
409.49	15840.75
409.68	14682.18
409.87	14384.93
410.07	15318.81
410.26	16383.75
410.45	17525.93
410.64	17813.82
410.83	18684.50
411.02	18948.98
411.21	19468.58
411.40	19255.59
411.59	19403.04
411.78	19178.35
411.98	19030.90
412.17	19679.22
412.36	18857.70
412.55	19023.87
412.74	18616.62
412.93	18293.63
413.12	18405.97
413.31	20191.80
413.50	20236.27
413.69	20982.90
413.88	20077.12
414.07	19218.14
414.26	19711.99
414.45	20098.18
414.64	20311.17
414.83	20430.54
415.02	19730.72
415.22	19889.87
415.41	20137.97
415.60	21113.97
415.79	21909.75
415.98	22286.58
416.17	22593.19
416.36	21867.63
416.55	21458.03
416.74	20629.48
416.93	20238.61
417.12	20070.09
417.31	20369.68
417.50	20767.57
417.69	21446.33
417.88	21509.52
418.07	21137.38
418.26	20648.21
418.45	20961.84
418.64	21715.49
418.83	22054.87
419.02	22122.74
419.21	22024.44
419.39	21013.33
419.58	20173.08
419.77	20039.67
419.96	20999.29
420.15	21846.56
420.34	22902.14
420.53	23335.14
420.72	23988.15
420.91	23913.25
421.10	23267.27
421.29	23527.06
421.48	22534.68
421.67	23632.39
421.86	22778.09
422.05	21439.31
422.24	19073.03
422.43	18841.31
422.61	21032.05
422.80	22455.10
422.99	23065.98
423.18	21741.24
423.37	21200.57
423.56	21443.99
423.75	21563.36
423.94	22225.73
424.13	20908.01
424.32	21322.28
424.50	21282.49
424.69	21362.07
424.88	21397.18
425.07	21308.24
425.26	21050.78
425.45	20762.89
425.64	20744.17
425.83	20664.59
426.01	21853.58
426.20	22207.00
426.39	22125.08
426.58	20772.25
426.77	18857.70
426.96	18129.79
427.15	18773.44
427.33	20404.79
427.52	21511.86
427.71	21294.19
427.90	21280.15
428.09	21092.91
428.28	20685.65
428.46	19747.10
428.65	19304.74
428.84	20039.67
429.03	20517.14
429.22	19363.25
429.40	18216.39
429.59	16643.55
429.78	14572.18
429.97	14611.96
430.16	14899.85
430.34	14986.45
430.53	14967.73
430.72	15077.73
430.91	16828.45
431.10	19716.67
431.28	23449.83
431.47	25111.61
431.66	25575.03
431.85	23019.17
432.03	21614.85
432.22	20306.49
432.41	21102.27
432.60	23791.55
432.79	24603.71
432.97	24961.81
433.16	24315.83
433.35	22324.03
433.54	20341.60
433.72	18750.03
433.91	19208.78
434.10	21823.16
434.28	23262.58
434.47	24367.32
434.66	24491.37
434.85	23583.24
435.03	23248.54
435.22	23960.06
435.41	25238.00
435.59	25612.48
435.78	25642.91
435.97	26426.99
436.16	26703.17
436.34	26120.38
436.53	25549.29
436.72	25703.76
436.90	24067.73
437.09	24292.42
437.28	24208.16
437.46	24718.40
437.65	24826.06
437.84	23145.56
438.02	20961.84
438.21	21048.44
438.40	22387.22
438.58	23847.72
438.77	24744.14
438.96	24926.71
439.14	25699.08
439.33	26106.34
439.52	26827.22
439.70	26579.12
439.89	25968.24
440.08	25135.01
440.26	24919.68
440.45	25781.00
440.63	27431.08
440.82	29027.32
441.01	28528.79
441.19	28430.49
441.38	28364.95
441.57	29572.67
441.75	30621.23
441.94	30010.35
442.12	29998.65
442.31	30555.69
442.50	30426.96
442.68	29951.84
442.87	29773.95
443.05	29628.84
443.24	29804.38
443.43	30494.84
443.61	30906.77
443.80	31501.27
443.98	29883.96
444.17	29640.54
444.35	31129.12
444.54	31864.05
444.73	31115.08
444.91	30024.39
445.10	29081.16
445.28	28252.61
445.47	27096.38
445.65	27459.16
445.84	28535.81
446.02	29252.02
446.21	29535.22
446.39	29677.99
446.58	30202.27
446.77	30675.06
446.95	30855.28
447.14	31655.75
447.32	32627.07
447.51	31515.31
447.69	30122.69
447.88	29902.68
448.06	30602.50
448.25	31131.47
448.43	31353.82
448.62	30569.74
448.80	30490.16
448.99	30630.59
449.17	30902.09
449.36	31234.45
449.54	32016.19
449.73	32545.15
449.91	32844.74
450.10	33699.03
450.28	34178.84
450.46	34359.06
450.65	34511.20
450.83	33914.36
451.02	33013.26
451.20	33308.16
451.39	32973.47
451.57	32545.15
451.76	32704.31
451.94	32407.06
452.13	31798.52
452.31	30675.06
452.49	29123.29
452.68	29118.60
452.86	29991.62
453.05	30249.08
453.23	30972.31
453.42	31360.84
453.60	32252.58
453.78	32840.06
453.97	32617.71
454.15	32458.55
454.34	31711.92
454.52	31615.96
454.70	31138.49
454.89	31379.56
455.07	31700.22
455.26	32212.79
455.44	32975.81
455.62	33923.72
455.81	34150.76
455.99	33544.56
456.17	32886.87
456.36	33301.14
456.54	34450.35
456.73	34047.77
456.91	34906.75
457.09	35175.91
457.28	35751.68
457.46	33823.08
457.64	34015.01
457.83	32741.75
458.01	32418.76
458.19	33081.13
458.38	33401.79
458.56	34321.62
458.74	34117.99
458.93	33284.76
459.11	33584.35
459.29	33308.16
459.48	33649.88
459.66	33748.18
459.84	33502.43
460.03	33940.11
460.21	34307.57
460.39	34602.48
460.57	34862.28
460.76	35257.83
460.94	35262.51
461.12	34562.69
461.31	35367.84
461.49	34689.08
461.67	34630.57
461.85	36332.14
462.04	35447.41
462.22	36290.01
462.40	35812.54
462.59	35889.77
462.77	35700.19
462.95	35978.72
463.13	35185.27
463.32	35054.20
463.50	34752.27
463.68	34895.05
463.86	35021.44
464.05	34443.32
464.23	33799.68
464.41	33607.75
464.59	32973.47
464.78	34892.71
464.96	34899.73
465.14	33888.62
465.32	34829.51
465.50	35990.42
465.69	36208.09
465.87	35194.64
466.05	34338.00
466.23	32877.51
466.41	32053.64
466.60	32889.21
466.78	33385.40
466.96	33855.85
467.14	34335.66
467.32	34869.30
467.51	34983.99
467.69	33298.80
467.87	33603.07
468.05	34314.59
468.23	34775.68
468.41	34440.98
468.60	34773.34
468.78	34691.42
468.96	34237.36
469.14	34916.11
469.32	35351.45
469.50	33619.46
469.69	34082.88
469.87	33521.15
470.05	33411.15
470.23	33326.89
470.41	33315.19
470.59	33851.17
470.77	34176.50
470.95	34771.00
471.14	35143.14
471.32	35068.25
471.50	37263.67
471.68	37294.10
471.86	37633.47
472.04	37596.03
472.22	37743.48
472.40	35667.42
472.58	35681.47
472.77	35370.18
472.95	35744.66
473.13	36863.44
473.31	35955.31
473.49	35854.67
473.67	37064.72
473.85	37092.81
474.03	37776.25
474.21	38022.00
474.39	38705.44
474.57	38527.56
474.75	38473.73
474.93	37886.25
475.12	37134.94
475.30	37560.92
475.48	37699.01
475.66	37879.23
475.84	38073.49
476.02	37717.73
476.20	36912.59
476.38	37385.38
476.56	38958.22
476.74	38927.79
476.92	39653.36
477.10	39950.60
477.28	40973.42
477.46	40912.56
477.64	41617.07
477.82	41577.28
478.00	41818.35
478.18	41324.50
478.36	41036.61
478.54	40451.48
478.72	41031.93
478.90	42342.63
479.08	43075.22
479.26	43590.14
479.44	43732.91
479.62	43309.27
479.80	43299.91
479.98	43494.18
480.16	44037.18
480.34	43519.92
480.52	43763.34
480.70	44322.72
480.88	43730.57
481.06	44921.90
481.24	45017.86
481.41	46312.18
481.59	46691.35
481.77	45958.76
481.95	45792.58
482.13	45317.45
482.31	45621.72
482.49	46387.08
482.67	46066.42
482.85	46307.50
483.03	47096.26
483.21	47140.73
483.39	47089.24
483.57	46813.05
483.74	46050.04
483.92	46593.04
484.10	46567.30
484.28	47828.85
484.46	48114.39
484.64	48315.68
484.82	47384.15
485.00	47173.50
485.18	46370.69
485.35	44978.07
485.53	41986.87
485.71	37928.38
485.89	37546.87
486.07	39676.76
486.25	42810.74
486.43	45240.21
486.61	45986.85
486.78	45904.93
486.96	46356.65
487.14	47936.51
487.32	48781.45
487.50	49600.63
487.68	50368.33
487.85	51049.42
488.03	51229.65
488.21	50487.70
488.39	49904.90
488.57	49661.49
488.75	48839.96
488.92	50040.65
489.10	52128.41
489.28	53551.46
489.46	54064.03
489.64	54017.22
489.81	54007.86
489.99	53429.75
490.17	53731.68
490.35	54073.40
490.53	53595.93
490.70	53361.87
490.88	53127.82
491.06	54148.29
491.24	53989.14
491.41	53242.51
491.59	51400.50
491.77	50504.08
491.95	51423.91
492.13	52865.68
492.30	54087.44
492.48	55143.02
492.66	55449.63
492.84	55267.07
493.01	55185.15
493.19	54784.92
493.37	54410.43
493.54	53986.80
493.72	54841.09
493.90	55611.13
494.08	56458.40
494.25	56582.45
494.43	56821.19
494.61	57153.54
494.79	57265.89
494.96	57209.71
495.14	56313.29
495.32	55613.47
495.49	54908.97
495.67	55697.73
495.85	57249.50
496.02	57586.54
496.20	57579.52
496.38	56926.51
496.55	56868.00
496.73	57481.22
496.91	57563.14
497.09	57918.90
497.26	58190.40
497.44	57598.24
497.62	57345.47
497.79	56568.41
497.97	55423.89
498.14	55344.31
498.32	56479.47
498.50	57317.38
498.67	57832.30
498.85	57832.30
499.03	58019.54
499.20	58120.18
499.38	58082.73
499.56	57914.22
499.73	57607.61
499.91	56999.07
500.08	56615.22
500.26	56062.85
500.44	56533.30
500.61	57190.99
500.79	56917.15
500.97	56619.90
501.14	56582.45
501.32	55997.32
501.49	56397.55
501.67	56474.79
501.84	56816.50
502.02	57205.03
502.20	57593.56
502.37	57790.17
502.55	57560.79
502.72	58309.77
502.90	58827.02
503.07	58326.15
503.25	57977.41
503.43	57333.76
503.60	56584.79
503.78	55891.99
503.95	56458.40
504.13	57602.92
504.30	58494.67
504.48	58522.76
504.65	57977.41
504.83	58066.35
505.01	58656.17
505.18	58841.07
505.36	59423.86
505.53	59374.71
505.71	59737.49
505.88	59796.01
506.06	59161.72
506.23	58897.24
506.41	58492.33
506.58	58621.06
506.76	58614.04
506.93	58466.58
507.11	58408.07
507.28	58602.33
507.46	58213.80
507.63	57619.31
507.81	57429.72
507.98	57523.35
508.16	58155.29
508.33	58651.48
508.50	59119.59
508.68	59473.01
508.85	59896.65
509.03	60030.06
509.20	59632.17
509.38	58988.52
509.55	58225.51
509.73	58206.78
509.90	58960.44
510.08	58897.24
510.25	59173.42
510.42	58939.37
510.60	58820.00
510.77	59002.56
510.95	59449.61
511.12	59686.00
511.30	59868.56
511.47	60252.41
511.64	60198.58
511.82	59877.93
511.99	59070.44
512.17	58576.59
512.34	58457.22
512.51	58515.73
512.69	58520.41
512.86	58616.38
513.04	59161.72
513.21	59100.87
513.38	58817.66
513.56	58260.62
513.73	57682.50
513.90	57733.99
514.08	57911.88
514.25	58328.49
514.43	58372.96
514.60	58611.70
514.77	58665.53
514.95	59002.56
515.12	58646.80
515.29	59063.42
515.47	59393.43
515.64	59599.40
515.81	59171.08
515.99	58520.41
516.16	57350.15
516.33	55079.83
516.51	53570.18
516.68	52601.20
516.85	52481.83
517.03	52865.68
517.20	55075.15
517.37	57605.26
517.54	58702.98
517.72	58328.49
517.89	55952.85
518.06	53609.97
518.24	53780.83
518.41	56205.62
518.58	57319.72
518.75	57853.36
518.93	57731.65
519.10	57598.24
519.27	58019.54
519.45	58199.76
519.62	58960.44
519.79	59128.95
519.96	59047.04
520.14	58712.34
520.31	57975.07
520.48	58038.26
520.65	58103.80
520.83	59100.87
521.00	59320.88
521.17	59164.06
521.34	58592.97
521.52	59025.97
521.69	59627.49
521.86	59983.25
522.03	59697.70
522.20	58426.79
522.38	57640.37
522.55	57455.47
522.72	58120.18
522.89	58288.70
523.07	58288.70
523.24	58637.44
523.41	59695.36
523.58	59976.23
523.75	60233.69
523.92	60074.53
524.10	60053.47
524.27	60100.28
524.44	59772.60
524.61	59648.55
524.78	59449.61
524.96	59522.16
525.13	59381.73
525.30	59683.66
525.47	60151.77
525.64	60039.42
525.81	59140.66
525.98	58101.46
526.16	56601.18
526.33	55863.91
526.50	55522.19
526.67	55030.68
526.84	55877.95
527.01	56846.93
527.18	57694.21
527.36	58684.25
527.53	59133.63
527.70	59449.61
527.87	58862.13
528.04	58513.39
528.21	59128.95
528.38	59594.72
528.55	60172.83
528.72	60488.80
528.89	60559.02
529.07	60285.18
529.24	59599.40
529.41	59131.29
529.58	58658.51
529.75	58630.42
529.92	59166.40
530.09	59421.52
530.26	59831.11
530.43	60135.38
530.60	60388.16
530.77	60353.05
530.94	60505.19
531.11	60198.58
531.28	59744.51
531.46	59409.82
531.63	59618.13
531.80	59664.94
531.97	59154.70
532.14	58349.56
532.31	57282.27
532.48	56783.74
532.65	56807.14
532.82	57691.86
532.99	58894.90
533.16	58976.82
533.33	59739.83
533.50	59283.43
533.67	58721.70
533.84	58319.13
534.01	58721.70
534.18	58904.26
534.35	59037.67
534.52	58705.32
534.69	59269.39
534.86	59346.62
535.03	59721.11
535.20	60067.51
535.37	60320.29
535.54	60350.71
535.71	60072.19
535.88	59889.63
536.05	59089.16
536.22	58721.70
536.38	58478.28
536.55	57832.30
536.72	57612.29
536.89	57446.11
537.06	58492.33
537.23	58979.16
537.40	59264.70
537.57	59384.07
537.74	59161.72
537.91	59011.93
538.08	58761.49
538.25	59058.74
538.42	59257.68
538.59	58990.86
538.75	58307.43
538.92	58134.23
539.09	58134.23
539.26	57855.70
539.43	57759.74
539.60	57752.72
539.77	57860.38
539.94	58115.50
540.11	57176.95
540.28	56521.60
540.44	56533.30
540.61	57050.56
540.78	57052.90
540.95	57549.09
541.12	57932.94
541.29	57986.77
541.46	58438.50
541.62	58567.23
541.79	58471.26
541.96	57645.05
542.13	57448.45
542.30	58159.97
542.47	58237.21
542.63	57729.31
542.80	57705.91
542.97	57935.28
543.14	57626.33
543.31	57635.69
543.48	58518.07
543.64	59089.16
543.81	59416.84
543.98	59089.16
544.15	58440.84
544.32	57972.73
544.48	57895.49
544.65	58211.46
544.82	58852.77
544.99	58349.56
545.16	58143.59
545.32	57619.31
545.49	58543.82
545.66	59002.56
545.83	58431.47
546.00	57972.73
546.16	57991.45
546.33	57675.48
546.50	58131.89
546.67	58539.14
546.83	57755.06
547.00	58007.84
547.17	57162.90
547.34	56797.78
547.50	56781.40
547.67	57230.78
547.84	57172.27
548.00	57588.88
548.17	58038.26
548.34	57860.38
548.51	57619.31
548.67	57911.88
548.84	57977.41
549.01	58054.65
549.18	57876.77
549.34	57708.25
549.51	57806.55
549.68	57846.34
549.84	57326.74
550.01	57275.25
550.18	57284.61
550.34	57511.64
550.51	57385.25
550.68	57609.95
550.84	57190.99
551.01	57095.03
551.18	57183.97
551.34	57251.84
551.51	57612.29
551.68	58000.82
551.84	57904.85
552.01	57729.31
552.18	57572.50
552.34	56889.06
552.51	56706.50
552.68	56334.35
552.84	56858.63
553.01	57066.94
553.18	56982.68
553.34	57125.46
553.51	57221.42
553.67	57385.25
553.84	57542.07
554.01	57572.50
554.17	57183.97
554.34	57380.57
554.51	57567.82
554.67	57764.42
554.84	57551.43
555.00	57361.85
555.17	56914.81
555.33	57092.69
555.50	56994.39
555.67	56870.34
555.83	57022.47
556.00	56537.98
556.16	56690.12
556.33	56364.78
556.50	56095.62
556.66	56250.09
556.83	55489.42
556.99	56060.51
557.16	56121.37
557.32	56109.66
557.49	56577.77
557.65	56647.99
557.82	56488.83
557.98	56245.41
558.15	56004.34
558.32	55082.17
558.48	54424.48
558.65	54457.24
558.81	54908.97
558.98	55098.55
559.14	55131.32
559.31	55393.46
559.47	55311.54
559.64	54962.80
559.80	54660.87
559.97	54901.95
560.13	55028.34
560.30	56072.21
560.46	56456.06
560.63	56790.76
560.79	56729.90
560.96	56353.08
561.12	55543.25
561.29	54267.66
561.45	54557.89
561.61	55075.15
561.78	55578.36
561.94	55320.90
562.11	55302.18
562.27	55234.30
562.44	55203.88
562.60	55613.47
562.77	55929.44
562.93	55765.60
563.10	55590.06
563.26	55243.66
563.42	55180.47
563.59	54962.80
563.75	54721.72
563.92	54993.23
564.08	54831.73
564.24	55154.72
564.41	55255.37
564.57	55028.34
564.74	54906.63
564.90	54829.39
565.07	54805.98
565.23	54333.20
565.39	53928.28
565.56	53263.57
565.72	53347.83
565.88	53855.73
566.05	53794.87
566.21	54129.57
566.38	54150.63
566.54	54408.09
566.70	54630.44
566.87	54901.95
567.03	54782.58
567.19	55178.13
567.36	54705.34
567.52	54471.29
567.68	54459.58
567.85	53609.97
568.01	53209.74
568.17	52865.68
568.34	52837.59
568.50	52971.00
568.66	52767.38
568.83	53628.69
568.99	53261.23
569.15	53642.74
569.32	53911.90
569.48	53382.94
569.64	53212.08
569.81	53153.57
569.97	52935.90
570.13	52961.64
570.30	52135.43
570.46	51653.28
570.62	51070.49
570.78	51002.61
570.95	51459.02
571.11	52327.36
571.27	52067.56
571.43	52559.07
571.60	53165.27
571.76	53057.60
571.92	53301.02
572.09	53432.09
572.25	53514.01
572.41	53392.30
572.57	53123.14
572.74	53289.32
572.90	52671.42
573.06	52748.65
573.22	53029.52
573.38	53109.10
573.55	52968.66
573.71	53001.43
573.87	52952.28
574.03	52839.93
574.20	52690.14
574.36	52678.44
574.52	52423.32
574.68	52126.07
574.84	51962.23
575.01	51433.27
575.17	51023.68
575.33	51215.60
575.49	51391.14
575.65	51601.79
575.82	51433.27
575.98	51147.73
576.14	51533.92
576.30	51782.01
576.46	52191.61
576.62	51796.06
576.79	51590.09
576.95	51442.63
577.11	51388.80
577.27	51679.03
577.43	51784.35
577.59	51143.05
577.75	50763.88
577.92	49951.71
578.08	49422.75
578.24	50246.62
578.40	50258.32
578.56	50279.39
578.72	50384.71
578.88	50871.54
579.04	51040.06
579.21	51047.08
579.37	51341.99
579.53	51203.90
579.69	50904.31
579.85	51407.53
580.01	50960.48
580.17	50703.03
580.33	50639.83
580.49	50777.92
580.65	50983.89
580.82	51014.32
580.98	51482.42
581.14	51019.00
581.30	50873.88
581.46	50553.23
581.62	51058.79
581.78	51014.32
581.94	51428.59
582.10	51124.32
582.26	51386.46
582.42	51224.96
582.58	51138.36
582.74	51318.59
582.90	51224.96
583.06	51356.03
583.22	50857.50
583.38	50958.14
583.54	50733.45
583.70	50817.71
583.86	51089.21
584.02	50775.58
584.18	50581.32
584.34	50571.96
584.50	50578.98
584.66	50288.75
584.82	49888.52
584.98	49888.52
585.14	49354.88
