SpectraSuite Data File
++++++++++++++++++++++++++++++++++++
Date: Mon Oct 07 14:55:02 GMT-05:00 2013
User: price-jones
Dark Spectrum Present: No
Reference Spectrum Present: No
Number of Sampled Component Spectra: 1
Spectrometers: USB2+H05261
Integration Time (usec): 10000 (USB2+H05261)
Spectra Averaged: 1 (USB2+H05261)
Boxcar Smoothing: 0 (USB2+H05261)
Correct for Electrical Dark: No (USB2+H05261)
Strobe/Lamp Enabled: No (USB2+H05261)
Correct for Detector Non-linearity: No (USB2+H05261)
Correct for Stray Light: No (USB2+H05261)
Number of Pixels in Processed Spectrum: 2048
>>>>>Begin Processed Spectral Data<<<<<
365.73	0.00
365.92	0.00
366.12	0.00
366.32	0.00
366.52	0.00
366.72	0.00
366.91	0.00
367.11	0.00
367.31	0.00
367.51	0.00
367.70	0.00
367.90	0.00
368.10	0.00
368.30	0.00
368.49	0.00
368.69	0.00
368.89	0.00
369.09	0.00
369.28	0.00
369.48	0.00
369.68	0.00
369.87	0.00
370.07	0.00
370.27	0.00
370.47	390.87
370.66	2752.47
370.86	3080.14
371.06	3220.58
371.25	3183.13
371.45	2778.22
371.65	2560.55
371.84	2647.15
372.04	2733.75
372.24	2981.84
372.44	3288.45
372.63	2974.82
372.83	2733.75
373.03	2319.47
373.22	2244.57
373.42	2703.32
373.62	2911.63
373.81	3152.70
374.01	3007.59
374.21	2612.04
374.40	2457.56
374.60	2663.53
374.79	3089.51
374.99	3625.49
375.19	3730.81
375.38	3763.58
375.58	3527.19
375.78	3574.00
375.97	3543.57
376.17	3660.60
376.37	3595.06
376.56	3941.46
376.76	4070.19
376.95	4411.91
377.15	4587.45
377.35	4720.86
377.54	5036.83
377.74	4997.04
377.93	5071.94
378.13	4793.42
378.33	4636.60
378.52	4374.46
378.72	4049.13
378.91	3983.59
379.11	3880.61
379.31	3794.01
379.50	3852.52
379.70	4088.92
379.89	4739.58
380.09	4737.24
380.28	5013.43
380.48	4992.36
380.68	4746.61
380.87	4755.97
381.07	4318.29
381.26	3836.14
381.46	3578.68
381.65	3515.48
381.85	3510.80
382.04	3311.86
382.24	3005.25
382.43	3054.40
382.63	2970.14
382.83	2946.73
383.02	2988.86
383.22	3077.80
383.41	3131.64
383.61	3307.18
383.80	3873.59
384.00	4386.16
384.19	4821.50
384.39	4971.30
384.58	4847.25
384.78	4835.55
384.97	4620.22
385.17	4491.49
385.36	4102.96
385.56	4070.19
385.75	4381.48
385.95	4858.95
386.14	5174.92
386.34	5015.77
386.53	4826.18
386.72	4629.58
386.92	4622.56
387.11	5018.11
387.31	5146.84
387.50	5284.93
387.70	4856.61
387.89	4840.23
388.09	4924.49
388.28	5069.60
388.48	5231.10
388.67	5420.68
388.86	6160.29
389.06	6469.24
389.25	6743.08
389.45	6696.27
389.64	6679.89
389.84	6649.46
390.03	6331.15
390.22	6710.32
390.42	7213.53
390.61	7417.16
390.81	7786.96
391.00	7815.05
391.19	7716.75
391.39	7590.36
391.58	7103.53
391.78	6754.79
391.97	6459.88
392.16	5977.73
392.36	5107.05
392.55	4058.49
392.75	3255.69
392.94	2775.88
393.13	2801.62
393.33	3700.39
393.52	4685.75
393.71	5287.27
393.91	6125.18
394.10	6663.51
394.29	7398.43
394.49	7824.41
394.68	8369.76
394.88	8152.09
395.07	8587.43
395.26	8655.30
395.46	8081.87
395.65	7482.69
395.84	6434.13
396.04	5446.43
396.23	4435.32
396.42	3698.05
396.62	3824.44
396.81	4697.46
397.00	6040.92
397.19	7377.37
397.39	8657.64
397.58	9755.35
397.77	10108.77
397.97	10501.98
398.16	10738.38
398.35	11147.97
398.55	11330.53
398.74	11796.30
398.93	11606.72
399.12	11749.49
399.32	11508.41
399.51	11676.93
399.70	12765.28
399.90	12245.68
400.09	12322.92
400.28	11920.35
400.47	12461.01
400.67	12975.93
400.86	13317.65
401.05	13109.34
401.24	13303.60
401.44	13547.02
401.63	13738.94
401.82	13561.06
402.01	13394.89
402.21	13865.33
402.40	14073.64
402.59	12992.31
402.78	12496.12
402.97	12559.31
403.17	13366.80
403.36	14045.55
403.55	14164.92
403.74	14572.18
403.93	13767.03
404.13	12535.91
404.32	12393.14
404.51	13483.83
404.70	13942.57
404.89	14129.81
405.09	13905.12
405.28	13448.72
405.47	13603.19
405.66	13277.86
405.85	12924.44
406.05	12863.58
406.24	13322.33
406.43	13516.59
406.62	13937.89
406.81	13834.91
407.00	13699.16
407.20	13350.42
407.39	13364.46
407.58	14274.93
407.77	14672.82
407.96	15042.62
408.15	15517.75
408.34	15716.70
408.54	16177.78
408.73	16112.25
408.92	16126.29
409.11	14937.30
409.30	14523.02
409.49	13661.71
409.68	12617.83
409.87	12769.96
410.07	13764.69
410.26	14511.32
410.45	15272.00
410.64	15868.83
410.83	15964.79
411.02	16688.02
411.21	17263.79
411.40	17008.67
411.59	17366.78
411.78	16952.50
411.98	17069.53
412.17	17259.11
412.36	16919.73
412.55	16683.34
412.74	16231.62
412.93	16063.10
413.12	16631.85
413.31	18188.30
413.50	18319.37
413.69	18628.32
413.88	17296.56
414.07	17146.76
414.26	17664.02
414.45	17977.65
414.64	18024.47
414.83	18164.90
415.02	18106.38
415.22	17942.55
415.41	18537.04
415.60	18803.86
415.79	19669.86
415.98	19967.11
416.17	19613.69
416.36	19346.87
416.55	19126.86
416.74	18155.54
416.93	18036.17
417.12	17879.35
417.31	18312.35
417.50	18677.48
417.69	19143.24
417.88	18656.41
418.07	18714.92
418.26	18649.39
418.45	18878.76
418.64	19749.44
418.83	20685.65
419.02	19740.08
419.21	19047.28
419.39	18766.42
419.58	18003.40
419.77	18558.11
419.96	19627.73
420.15	20236.27
420.34	21223.98
420.53	21420.58
420.72	21446.33
420.91	21551.65
421.10	21261.43
421.29	20996.95
421.48	20533.52
421.67	21280.15
421.86	20435.22
422.05	18593.22
422.24	17240.39
422.43	18090.00
422.61	20044.35
422.80	20517.14
422.99	19995.20
423.18	19491.98
423.37	19625.39
423.56	19814.98
423.75	20119.24
423.94	20734.81
424.13	19463.90
424.32	19328.14
424.50	19435.81
424.69	19761.14
424.88	19693.27
425.07	19658.16
425.26	19669.86
425.45	18916.21
425.64	18693.86
425.83	19232.18
426.01	20205.84
426.20	20444.58
426.39	20053.71
426.58	18373.21
426.77	17441.67
426.96	17343.37
427.15	18052.55
427.33	19337.51
427.52	19833.70
427.71	19812.63
427.90	19791.57
428.09	19541.13
428.28	19168.99
428.46	18082.98
428.65	18045.53
428.84	18703.22
429.03	18640.03
429.22	17631.26
429.40	16280.77
429.59	14731.33
429.78	13266.16
429.97	13785.76
430.16	13802.14
430.34	13841.93
430.53	14244.50
430.72	14956.02
430.91	16517.16
431.10	19080.05
431.28	22349.78
431.47	23988.15
431.66	23496.64
431.85	21062.48
432.03	19386.66
432.22	19274.31
432.41	20725.44
432.60	22541.70
432.79	22885.76
432.97	23559.83
433.16	22347.44
433.35	20339.26
433.54	18408.31
433.72	17818.50
433.91	19044.94
434.10	21118.65
434.28	22450.42
434.47	23096.41
434.66	21998.70
434.85	21476.76
435.03	22424.67
435.22	22593.19
435.41	23969.43
435.59	23978.79
435.78	24491.37
435.97	25036.71
436.16	24837.76
436.34	24313.48
436.53	24168.37
436.72	24276.04
436.90	23152.58
437.09	22829.59
437.28	22721.92
437.46	23592.60
437.65	22794.48
437.84	21130.36
438.02	20084.14
438.21	20540.54
438.40	20861.19
438.58	22232.75
438.77	23419.40
438.96	23740.05
439.14	25120.97
439.33	25348.00
439.52	25523.54
439.70	24322.85
439.89	23803.25
440.08	23342.16
440.26	23765.80
440.45	24961.81
440.63	26925.52
440.82	27098.72
441.01	26705.51
441.19	26670.40
441.38	27587.89
441.57	28540.49
441.75	28301.76
441.94	28830.72
442.12	28250.27
442.31	29097.54
442.50	29273.08
442.68	28449.21
442.87	28268.99
443.05	27875.78
443.24	28313.46
443.43	28844.76
443.61	29493.09
443.80	29785.66
443.98	28758.16
444.17	28016.21
444.35	29291.80
444.54	30272.49
444.73	29610.12
444.91	28095.79
445.10	26735.94
445.28	26003.35
445.47	26122.72
445.65	26331.03
445.84	27346.82
446.02	28060.68
446.21	28423.47
446.39	28402.40
446.58	28978.17
446.77	29776.30
446.95	29923.75
447.14	30419.94
447.32	30843.58
447.51	30295.89
447.69	29104.56
447.88	28889.23
448.06	29565.65
448.25	30029.07
448.43	29413.51
448.62	29649.91
448.80	29324.57
448.99	28985.19
449.17	30190.57
449.36	29914.39
449.54	30878.69
449.73	31686.17
449.91	31765.75
450.10	32765.16
450.28	33001.55
450.46	32921.98
450.65	33060.07
450.83	32531.11
451.02	32041.93
451.20	31615.96
451.39	32205.77
451.57	31761.07
451.76	31674.47
451.94	30965.29
452.13	30258.45
452.31	28776.89
452.49	27833.65
452.68	28360.27
452.86	28755.82
453.05	29275.42
453.23	30462.07
453.42	30696.13
453.60	31597.23
453.78	30932.52
453.97	31227.43
454.15	30904.43
454.34	29827.79
454.52	30000.99
454.70	29907.37
454.89	30492.50
455.07	30689.10
455.26	31096.36
455.44	32121.51
455.62	32716.01
455.81	32266.63
455.99	32706.65
456.17	32662.18
456.36	33488.38
456.54	33574.98
456.73	32790.91
456.91	33472.00
457.09	33865.21
457.28	34490.13
457.46	32868.14
457.64	32643.45
457.83	31775.11
458.01	31627.66
458.19	33230.93
458.38	33703.71
458.56	33914.36
458.74	33219.22
458.93	32865.80
459.11	32252.58
459.29	31983.42
459.48	32877.51
459.66	31929.59
459.84	32175.34
460.03	33149.01
460.21	34015.01
460.39	34501.84
460.57	33771.59
460.76	33720.10
460.94	34558.01
461.12	34330.98
461.31	34338.00
461.49	34635.25
461.67	34700.78
461.85	35267.19
462.04	35082.29
462.22	35260.17
462.40	34806.11
462.59	34328.64
462.77	34789.72
462.95	34497.16
463.13	34309.91
463.32	33986.92
463.50	33738.82
463.68	34279.49
463.86	34473.75
464.05	33141.99
464.23	32826.01
464.41	32755.80
464.59	32142.58
464.78	34452.69
464.96	33607.75
465.14	33043.68
465.32	34529.92
465.50	35374.86
465.69	36107.44
465.87	34731.21
466.05	33399.44
466.23	32275.99
466.41	31913.20
466.60	33102.20
466.78	32882.19
466.96	32818.99
467.14	33722.44
467.32	34024.37
467.51	33921.38
467.69	32481.95
467.87	33518.81
468.05	34045.43
468.23	33902.66
468.41	33942.45
468.60	34216.29
468.78	34562.69
468.96	34279.49
469.14	34838.87
469.32	34815.47
469.50	32821.33
469.69	33305.82
469.87	33195.82
470.05	32952.40
470.23	33106.88
470.41	33359.66
470.59	34017.35
470.77	33764.57
470.95	34429.28
471.14	35709.55
471.32	35267.19
471.50	36882.16
471.68	37156.00
471.86	37394.74
472.04	36582.57
472.22	37249.63
472.40	36407.03
472.58	35555.08
472.77	35049.52
472.95	35999.78
473.13	37024.93
473.31	35194.64
473.49	35204.00
473.67	36687.90
473.85	37137.28
474.03	38714.80
474.21	38904.38
474.39	38794.38
474.57	38277.12
474.75	38909.07
474.93	38223.29
475.12	37317.50
475.30	37631.13
475.48	36947.70
475.66	37523.47
475.84	36828.33
476.02	37130.26
476.20	37003.87
476.38	37338.57
476.56	38766.29
476.74	39262.49
476.92	39878.05
477.10	39423.98
477.28	40470.20
477.46	41146.62
477.64	41528.13
477.82	42085.17
478.00	41834.74
478.18	40554.46
478.36	40215.08
478.54	40704.26
478.72	41298.75
478.90	42927.77
479.08	44781.47
479.26	44322.72
479.44	44587.21
479.62	43409.92
479.80	44449.11
479.98	44355.49
480.16	44830.62
480.34	43648.65
480.52	44795.51
480.70	44872.75
480.88	44446.77
481.06	45425.12
481.24	45382.99
481.41	46525.17
481.59	47440.32
481.77	46054.72
481.95	45713.00
482.13	45713.00
482.31	46672.62
482.49	46581.34
482.67	46181.11
482.85	46447.93
483.03	46717.09
483.21	47770.33
483.39	47129.03
483.57	46740.50
483.74	46981.57
483.92	47487.13
484.10	47009.66
484.28	47636.92
484.46	47428.62
484.64	49092.74
484.82	47835.87
485.00	47180.52
485.18	46712.41
485.35	44697.21
485.53	39321.00
485.71	36982.80
485.89	37954.13
486.07	40835.33
486.25	43103.31
486.43	46043.02
486.61	46330.90
486.78	45752.79
486.96	47058.81
487.14	48685.48
487.32	48846.98
487.50	50241.94
487.68	51330.29
487.85	51917.76
488.03	50733.45
488.21	50958.14
488.39	50309.82
488.57	49081.03
488.75	49109.12
488.92	50611.74
489.10	52568.43
489.28	53294.00
489.46	54770.88
489.64	54490.01
489.81	54637.47
489.99	53490.60
490.17	53888.49
490.35	53986.80
490.53	53839.34
490.70	53162.93
490.88	53237.83
491.06	54546.18
491.24	54735.77
491.41	53609.97
491.59	52044.15
491.77	51863.93
491.95	52975.69
492.13	54756.83
492.30	55056.42
492.48	55739.86
492.66	55966.89
492.84	55657.94
493.01	55159.41
493.19	55180.47
493.37	54714.70
493.54	55213.24
493.72	55959.87
493.90	56282.86
494.08	56676.07
494.25	56521.60
494.43	57085.67
494.61	57619.31
494.79	57822.93
494.96	58171.67
495.14	57745.70
495.32	56039.45
495.49	56559.05
495.67	57607.61
495.85	58157.63
496.02	58756.81
496.20	58181.04
496.38	57939.96
496.55	57958.69
496.73	58644.46
496.91	58475.94
497.09	58595.31
497.26	58817.66
497.44	58639.78
497.62	57715.27
497.79	56830.55
497.97	56165.84
498.14	56694.80
498.32	58106.14
498.50	57984.43
498.67	57946.98
498.85	58195.08
499.03	58995.54
499.20	59061.08
499.38	58482.97
499.56	57865.06
499.73	57733.99
499.91	57638.03
500.08	56814.16
500.26	56652.67
500.44	57549.09
500.61	57773.78
500.79	57406.32
500.97	57808.89
501.14	56568.41
501.32	56633.94
501.49	56647.99
501.67	57226.10
501.84	57181.63
502.02	57872.09
502.20	58745.11
502.37	58754.47
502.55	58817.66
502.72	59334.92
502.90	59503.44
503.07	59374.71
503.25	58262.96
503.43	57439.09
503.60	57010.77
503.78	57111.41
503.95	57109.07
504.13	58527.44
504.30	59121.93
504.48	58319.13
504.65	58499.35
504.83	58728.72
505.01	59384.07
505.18	59620.47
505.36	60130.70
505.53	59929.42
505.71	60385.82
505.88	60299.22
506.06	59796.01
506.23	59475.35
506.41	59531.53
506.58	59702.38
506.76	59590.04
506.93	58845.75
507.11	59051.72
507.28	59255.34
507.46	58482.97
507.63	58735.74
507.81	58108.48
507.98	58597.65
508.16	59700.04
508.33	59653.23
508.50	59788.98
508.68	60294.54
508.85	60680.73
509.03	60842.23
509.20	60236.03
509.38	59016.61
509.55	59192.15
509.73	59311.52
509.90	59561.95
510.08	59821.75
510.25	59203.85
510.42	59187.47
510.60	59889.63
510.77	59931.76
510.95	59980.91
511.12	60364.76
511.30	60966.27
511.47	61495.24
511.64	61120.75
511.82	60921.80
511.99	59929.42
512.17	59994.95
512.34	59421.52
512.51	59447.27
512.69	59913.03
512.86	59618.13
513.04	59924.74
513.21	59423.86
513.38	58702.98
513.56	58466.58
513.73	58302.74
513.90	58815.32
514.08	58852.77
514.25	58990.86
514.43	59255.34
514.60	59510.46
514.77	59788.98
514.95	59821.75
515.12	59714.09
515.29	60179.85
515.47	60795.42
515.64	60617.53
515.81	60004.31
515.99	59082.14
516.16	57523.35
516.33	55306.86
516.51	55100.89
516.68	53609.97
516.85	53169.95
517.03	54738.11
517.20	57071.62
517.37	58878.52
517.54	59945.80
517.72	58358.92
517.89	55517.51
518.06	54204.47
518.24	55491.76
518.41	57701.23
518.58	58614.04
518.75	58663.19
518.93	58562.54
519.10	58052.31
519.27	59152.36
519.45	59299.81
519.62	60051.12
519.79	60116.66
519.96	59580.68
520.14	59147.68
520.31	58014.86
520.48	58293.38
520.65	59625.15
520.83	60470.08
521.00	60135.38
521.17	59482.37
521.34	59772.60
521.52	60184.54
521.69	60353.05
521.86	60678.39
522.03	60552.00
522.20	58925.33
522.38	58478.28
522.55	59100.87
522.72	59512.80
522.89	58740.42
523.07	59730.47
523.24	59948.14
523.41	61020.11
523.58	61279.91
523.75	61464.81
523.92	61158.20
524.10	60697.11
524.27	60617.53
524.44	60587.11
524.61	60011.34
524.78	60598.81
524.96	60516.89
525.13	60540.30
525.30	61038.83
525.47	61361.82
525.64	60999.04
525.81	60254.75
525.98	58349.56
526.16	57310.36
526.33	57385.25
526.50	56868.00
526.67	56924.17
526.84	57237.80
527.01	58391.68
527.18	59016.61
527.36	59877.93
527.53	60903.08
527.70	60044.10
527.87	58724.04
528.04	59744.51
528.21	60388.16
528.38	60739.24
528.55	61717.59
528.72	61305.65
528.89	60797.76
529.07	60816.48
529.24	59938.78
529.41	59388.75
529.58	59639.19
529.75	60341.35
529.92	60458.38
530.09	60458.38
530.26	61153.52
530.43	61858.02
530.60	60832.86
530.77	61275.22
530.94	61621.62
531.11	60832.86
531.28	60889.04
531.46	60961.59
531.63	60802.44
531.80	60156.45
531.97	59737.49
532.14	59856.86
532.31	58452.54
532.48	57759.74
532.65	58344.87
532.82	58850.43
532.99	60193.90
533.16	60505.19
533.33	60549.66
533.50	60713.50
533.67	60521.57
533.84	59917.71
534.01	60278.16
534.18	60303.90
534.35	60004.31
534.52	59449.61
534.69	60072.19
534.86	60671.37
535.03	60879.67
535.20	60767.33
535.37	61429.70
535.54	61499.92
535.71	61432.04
535.88	61579.49
536.05	60294.54
536.22	59817.07
536.38	59536.21
536.55	58745.11
536.72	58614.04
536.89	59363.01
537.06	59245.98
537.23	59999.63
537.40	59969.21
537.57	59475.35
537.74	59873.24
537.91	60156.45
538.08	59805.37
538.25	60065.17
538.42	60669.03
538.59	60238.37
538.75	59154.70
538.92	58836.39
539.09	59295.13
539.26	58962.78
539.43	58878.52
539.60	58824.68
539.77	59690.68
539.94	59143.00
540.11	58431.47
540.28	58314.45
540.44	57883.79
540.61	57958.69
540.78	58511.05
540.95	59447.27
541.12	59189.81
541.29	59627.49
541.46	59896.65
541.62	60027.72
541.79	59220.23
541.96	58686.59
542.13	58887.88
542.30	58623.40
542.47	59231.94
542.63	59341.94
542.80	59079.80
542.97	58686.59
543.14	58529.78
543.31	58590.63
543.48	59812.39
543.64	59882.61
543.81	60877.33
543.98	60863.29
544.15	59035.33
544.32	59655.57
544.48	59353.65
544.65	59297.47
544.82	60013.68
544.99	58415.09
545.16	58113.16
545.32	58618.72
545.49	59229.60
545.66	59243.64
545.83	58986.18
546.00	59316.20
546.16	59440.24
546.33	59278.75
546.50	59299.81
546.67	59992.61
546.83	58862.13
547.00	59615.79
547.17	58347.21
547.34	57485.90
547.50	57806.55
547.67	58695.95
547.84	59498.76
548.00	59505.78
548.17	59238.96
548.34	59480.03
548.51	59711.75
548.67	59744.51
548.84	59461.31
549.01	59856.86
549.18	58958.09
549.34	59096.19
549.51	59512.80
549.68	59414.50
549.84	59262.36
550.01	58525.10
550.18	58192.74
550.34	58398.71
550.51	58754.47
550.68	59217.89
550.84	59236.62
551.01	58227.85
551.18	58075.71
551.34	57654.42
551.51	59032.99
551.68	58995.54
551.84	59058.74
552.01	58815.32
552.18	58522.76
552.34	57708.25
552.51	57673.14
552.68	57495.26
552.84	57872.09
553.01	57853.36
553.18	58733.40
553.34	58700.64
553.51	58754.47
553.67	58417.43
553.84	58457.22
554.01	58784.90
554.17	58429.13
554.34	58801.28
554.51	58464.24
554.67	58021.88
554.84	58005.50
555.00	57911.88
555.17	57986.77
555.33	57715.27
555.50	57450.79
555.67	58012.52
555.83	58213.80
556.00	57741.02
556.16	57537.39
556.33	57043.54
556.50	57867.40
556.66	57551.43
556.83	57394.62
556.99	56912.47
557.16	57385.25
557.32	57020.13
557.49	57425.04
557.65	57188.65
557.82	57858.04
557.98	58033.58
558.15	56882.04
558.32	56112.00
558.48	55664.96
558.65	55714.11
558.81	56065.19
558.98	57015.45
559.14	57277.59
559.31	56870.34
559.47	56442.02
559.64	56451.38
559.80	55543.25
559.97	56570.75
560.13	57235.46
560.30	58323.81
560.46	58717.02
560.63	58880.86
560.79	58539.14
560.96	57785.49
561.12	56603.52
561.29	56287.54
561.45	56135.41
561.61	57733.99
561.78	56704.16
561.94	57382.91
562.11	57432.07
562.27	56289.88
562.44	57623.99
562.60	57607.61
562.77	57719.95
562.93	56697.14
563.10	56521.60
563.26	56662.03
563.42	57570.16
563.59	56769.69
563.75	56456.06
563.92	56420.95
564.08	55852.20
564.24	56825.87
564.41	56449.04
564.57	57137.16
564.74	56701.82
564.90	56016.04
565.07	56189.24
565.23	55040.04
565.39	55004.93
565.56	55332.60
565.72	55620.49
565.88	54255.96
566.05	56488.83
566.21	56818.84
566.38	56231.37
566.54	56205.62
566.70	56779.06
566.87	56547.34
567.03	55917.74
567.19	57205.03
567.36	57733.99
567.52	56121.37
567.68	55744.54
567.85	55040.04
568.01	55365.37
568.17	55543.25
568.34	55854.54
568.50	55440.27
568.66	55587.72
568.83	54941.74
568.99	54499.37
569.15	54960.46
569.32	54983.86
569.48	54749.81
569.64	54567.25
569.81	54621.08
569.97	54485.33
570.13	53977.43
570.30	53579.54
570.46	52980.37
570.62	52065.22
570.78	52416.30
570.95	53359.53
571.11	53422.73
571.27	53118.46
571.43	53378.26
571.60	53076.33
571.76	54344.90
571.92	54878.54
572.09	55236.64
572.25	55093.87
572.41	55470.70
572.57	54887.90
572.74	55278.77
572.90	56502.87
573.06	55435.59
573.22	55587.72
573.38	55526.87
573.55	56523.94
573.71	55292.82
573.87	55213.24
574.03	55217.92
574.20	54695.98
574.36	54859.82
574.52	54035.95
574.68	53881.47
574.84	53139.52
575.01	53614.65
575.17	53914.24
575.33	53722.32
575.49	53932.96
575.65	53088.03
575.82	53474.22
575.98	53015.47
576.14	54141.27
576.30	54653.85
576.46	53226.12
576.62	53535.07
576.79	53588.91
576.95	53804.24
577.11	53848.71
577.27	53535.07
577.43	54171.70
577.59	53406.34
577.75	52369.49
577.92	52411.62
578.08	52781.42
578.24	53352.51
578.40	53038.88
578.56	51962.23
578.72	52718.23
578.88	52186.92
579.04	52542.69
579.21	52587.16
579.37	52556.73
579.53	53490.60
579.69	52467.79
579.85	52495.88
580.01	52671.42
580.17	52481.83
580.33	53279.96
580.49	53364.21
580.65	51920.10
580.82	52399.91
580.98	53303.36
581.14	53422.73
581.30	52863.34
581.46	52896.11
581.62	52767.38
581.78	53963.39
581.94	53893.18
582.10	53923.60
582.26	53862.75
582.42	53799.55
582.58	52182.24
582.74	52233.74
582.90	52992.07
583.06	52795.46
583.22	52837.59
583.38	53233.14
583.54	53331.45
583.70	53722.32
583.86	53181.65
584.02	52512.26
584.18	52479.49
584.34	51807.76
584.50	51522.21
584.66	51934.15
584.82	52243.10
584.98	52027.77
585.14	51833.50
585.30	51789.03
