SpectraSuite Data File
++++++++++++++++++++++++++++++++++++
Date: Mon Oct 07 14:52:54 GMT-05:00 2013
User: price-jones
Dark Spectrum Present: No
Reference Spectrum Present: No
Number of Sampled Component Spectra: 1
Spectrometers: USB2+H05261
Integration Time (usec): 100000 (USB2+H05261)
Spectra Averaged: 1 (USB2+H05261)
Boxcar Smoothing: 0 (USB2+H05261)
Correct for Electrical Dark: No (USB2+H05261)
Strobe/Lamp Enabled: No (USB2+H05261)
Correct for Detector Non-linearity: No (USB2+H05261)
Correct for Stray Light: No (USB2+H05261)
Number of Pixels in Processed Spectrum: 2048
>>>>>Begin Processed Spectral Data<<<<<
365.73	0.00
365.92	0.00
366.12	0.00
366.32	0.00
366.52	0.00
366.72	0.00
366.91	0.00
367.11	0.00
367.31	0.00
367.51	0.00
367.70	0.00
367.90	0.00
368.10	0.00
368.30	0.00
368.49	0.00
368.69	0.00
368.89	0.00
369.09	0.00
369.28	0.00
369.48	0.00
369.68	0.00
369.87	0.00
370.07	0.00
370.27	0.00
370.47	784.08
370.66	3941.46
370.86	4383.82
371.06	4873.00
371.25	4793.42
371.45	4348.72
371.65	3880.61
371.84	3817.41
372.04	4049.13
372.24	4447.02
372.44	4662.35
372.63	4519.57
372.83	4081.89
373.03	3597.40
373.22	3325.90
373.42	3616.13
373.62	4053.81
373.81	4482.13
374.01	4341.69
374.21	3920.40
374.40	3569.32
374.60	3812.73
374.79	4428.29
374.99	4912.78
375.19	5474.51
375.38	5329.40
375.58	5130.45
375.78	5128.11
375.97	5111.73
376.17	5324.72
376.37	5474.51
376.56	5504.94
376.76	5727.29
376.95	5966.03
377.15	6640.10
377.35	6939.69
377.54	6913.94
377.74	7243.96
377.93	7300.13
378.13	7040.33
378.33	6642.44
378.52	6232.85
378.72	5980.07
378.91	5790.49
379.11	5619.63
379.31	5455.79
379.50	5624.31
379.70	5905.17
379.89	6586.27
380.09	6825.00
380.28	7063.74
380.48	7016.93
380.68	6956.07
380.87	6626.06
381.07	6277.32
381.26	5741.33
381.46	5481.53
381.65	5193.65
381.85	5130.45
382.04	4755.97
382.24	4695.11
382.43	4313.61
382.63	4154.45
382.83	4208.28
383.02	4222.33
383.22	4175.52
383.41	4297.22
383.61	4571.07
383.80	5338.76
384.00	5933.26
384.19	6682.23
384.39	6977.14
384.58	6991.18
384.78	6750.10
384.97	6773.51
385.17	6420.09
385.36	6188.38
385.56	5951.98
385.75	6085.39
385.95	6691.59
386.14	7080.12
386.34	7040.33
386.53	6820.32
386.72	6415.41
386.92	6509.03
387.11	6850.75
387.31	7318.86
387.50	7185.44
387.70	6722.02
387.89	6836.70
388.09	6843.73
388.28	6895.22
388.48	6881.18
388.67	7527.16
388.86	8224.64
389.06	8842.54
389.25	9090.64
389.45	9294.27
389.64	9195.96
389.84	9008.72
390.03	8863.61
390.22	8987.66
390.42	9418.32
390.61	10134.52
390.81	10300.70
391.00	10616.67
391.19	10609.65
391.39	10324.10
391.58	9357.46
391.78	8945.53
391.97	8746.58
392.16	7988.25
392.36	7241.62
392.55	6005.81
392.75	4823.84
392.94	3957.85
393.13	3976.57
393.33	4608.51
393.52	5902.83
393.71	7281.41
393.91	8081.87
394.10	8690.41
394.29	9556.41
394.49	10368.57
394.68	11204.14
394.88	11206.48
395.07	11737.79
395.26	11726.08
395.46	11084.78
395.65	10483.26
395.84	9069.58
396.04	7651.21
396.23	6324.13
396.42	5238.12
396.62	5118.75
396.81	6169.65
397.00	7819.73
397.19	9703.86
397.39	11424.15
397.58	12765.28
397.77	13455.74
397.97	14010.45
398.16	14253.86
398.35	14726.65
398.55	15023.90
398.74	15873.51
398.93	16238.64
399.12	15833.72
399.32	15070.71
399.51	15562.22
399.70	16812.07
399.90	16198.85
400.09	16486.73
400.28	16262.04
400.47	16482.05
400.67	17525.93
400.86	17685.09
401.05	17376.14
401.24	17671.04
401.44	18024.47
401.63	17778.71
401.82	18256.18
402.01	18347.46
402.21	18492.57
402.40	18574.49
402.59	17888.71
402.78	16922.07
402.97	16727.81
403.17	17317.62
403.36	18204.69
403.55	19026.21
403.74	19491.98
403.93	18342.78
404.13	17015.69
404.32	16800.37
404.51	17528.27
404.70	18644.71
404.89	18750.03
405.09	18541.72
405.28	17869.99
405.47	17937.87
405.66	17958.93
405.85	17413.59
406.05	17048.46
406.24	17362.09
406.43	18054.89
406.62	18867.06
406.81	18857.70
407.00	18080.64
407.20	17696.79
407.39	17759.98
407.58	18869.40
407.77	19042.60
407.96	20020.94
408.15	20411.81
408.34	20320.53
408.54	21298.88
408.73	21397.18
408.92	20788.64
409.11	20470.33
409.30	19220.48
409.49	18066.60
409.68	17025.06
409.87	16360.34
410.07	17848.93
410.26	19084.73
410.45	20203.50
410.64	20807.36
410.83	21223.98
411.02	21460.37
411.21	22986.40
411.40	22497.23
411.59	22710.22
411.78	22511.27
411.98	22181.26
412.17	22349.78
412.36	21970.61
412.55	21795.07
412.74	21324.62
412.93	21284.83
413.12	21511.86
413.31	23459.19
413.50	23608.98
413.69	23747.08
413.88	22841.29
414.07	22544.04
414.26	22869.37
414.45	23454.51
414.64	23761.12
414.83	23613.66
415.02	23122.15
415.22	23168.96
415.41	23618.35
415.60	24439.87
415.79	25336.30
415.98	25736.53
416.17	26031.44
416.36	25305.87
416.55	24720.74
416.74	23733.03
416.93	23096.41
417.12	23260.24
417.31	23693.24
417.50	24107.52
417.69	25078.84
417.88	24690.31
418.07	24393.06
418.26	24341.57
418.45	24346.25
418.64	25413.54
418.83	26204.64
419.02	25596.10
419.21	25851.22
419.39	24531.15
419.58	23073.00
419.77	23335.14
419.96	24269.01
420.15	25542.27
420.34	26544.02
420.53	27470.87
420.72	28123.88
420.91	27634.71
421.10	27402.99
421.29	27218.09
421.48	26277.19
421.67	27332.78
421.86	26862.33
422.05	24936.07
422.24	22176.58
422.43	22632.98
422.61	24662.22
422.80	26558.06
422.99	26731.26
423.18	25518.86
423.37	25123.31
423.56	25226.29
423.75	25722.49
423.94	25961.22
424.13	24662.22
424.32	24840.11
424.50	24858.83
424.69	24760.53
424.88	25151.40
425.07	24938.41
425.26	24802.66
425.45	24381.36
425.64	24009.22
425.83	24336.89
426.01	25312.89
426.20	26096.97
426.39	25773.98
426.58	23924.96
426.77	21736.56
426.96	21397.18
427.15	22611.92
427.33	24308.80
427.52	25202.89
427.71	25184.16
427.90	24524.13
428.09	24760.53
428.28	24011.56
428.46	23178.33
428.65	22939.59
428.84	23740.05
429.03	23941.34
429.22	22431.69
429.40	21441.65
429.59	19250.91
429.78	17156.13
429.97	17322.30
430.16	17582.10
430.34	17626.57
430.53	17640.62
430.72	18239.79
430.91	20039.67
431.10	23690.90
431.28	27938.97
431.47	29706.08
431.66	30089.93
431.85	27435.76
432.03	25202.89
432.22	24084.11
432.41	25202.89
432.60	27861.74
432.79	28905.62
432.97	29144.35
433.16	28643.48
433.35	26017.40
433.54	23494.30
433.72	22457.44
433.91	23119.81
434.10	25984.63
434.28	27608.96
434.47	29170.10
434.66	28311.12
434.85	27948.34
435.03	27997.49
435.22	28301.76
435.41	30155.46
435.59	29928.43
435.78	30445.69
435.97	31187.64
436.16	31370.20
436.34	30583.78
436.53	30047.80
436.72	29984.60
436.90	29060.09
437.09	28561.56
437.28	28334.53
437.46	29336.27
437.65	29254.36
437.84	26911.48
438.02	24746.48
438.21	25116.29
438.40	26623.59
438.58	28561.56
438.77	29457.98
438.96	29380.74
439.14	30665.70
439.33	31571.49
439.52	32048.96
439.70	31204.02
439.89	31000.40
440.08	30073.54
440.26	30188.23
440.45	30698.47
440.63	32535.79
440.82	34295.87
441.01	34064.16
441.19	33804.36
441.38	34038.41
441.57	35700.19
441.75	35901.48
441.94	35648.70
442.12	35697.85
442.31	36301.71
442.50	36613.00
442.68	35814.88
442.87	35267.19
443.05	34782.70
443.24	35316.34
443.43	36397.67
443.61	37053.02
443.80	37542.19
443.98	35398.26
444.17	35255.49
444.35	37280.05
444.54	37724.75
444.73	36940.68
444.91	36055.95
445.10	34457.37
445.28	33251.99
445.47	32676.22
445.65	32872.82
445.84	33926.07
446.02	34988.67
446.21	35615.93
446.39	35833.60
446.58	35819.56
446.77	36371.92
446.95	36954.72
447.14	37785.61
447.32	38459.68
447.51	37523.47
447.69	36201.07
447.88	35714.23
448.06	36458.52
448.25	37235.58
448.43	37752.84
448.62	36449.16
448.80	36664.49
448.99	36711.30
449.17	37134.94
449.36	37469.64
449.54	38150.73
449.73	39042.48
449.91	39484.84
450.10	40900.86
450.28	40610.64
450.46	40751.07
450.65	40650.42
450.83	40156.57
451.02	39360.79
451.20	39695.49
451.39	39653.36
451.57	39178.23
451.76	39030.77
451.94	38576.71
452.13	38438.62
452.31	36507.68
452.49	34951.22
452.68	35861.69
452.86	36006.80
453.05	36044.25
453.23	37067.06
453.42	37794.97
453.60	38569.69
453.78	39054.18
453.97	38581.39
454.15	38529.90
454.34	37809.01
454.52	38169.46
454.70	37888.59
454.89	37596.03
455.07	38167.12
455.26	39065.88
455.44	40172.96
455.62	40596.59
455.81	40694.89
455.99	40416.37
456.17	39784.43
456.36	40341.47
456.54	40837.67
456.73	40910.22
456.91	41923.68
457.09	42422.21
457.28	42398.80
457.46	40835.33
457.64	41340.88
457.83	39892.09
458.01	39014.39
458.19	39854.64
458.38	40367.22
458.56	41530.47
458.74	41120.87
458.93	40870.43
459.11	40540.42
459.29	40116.78
459.48	40655.11
459.66	40076.99
459.84	40900.86
460.03	41060.02
460.21	41247.26
460.39	42335.61
460.57	41888.57
460.76	42431.57
460.94	42866.91
461.12	41846.44
461.31	42572.00
461.49	41865.16
461.67	42129.64
461.85	43524.60
462.04	43276.51
462.22	43817.17
462.40	43501.20
462.59	42927.77
462.77	42766.27
462.95	43227.35
463.13	42579.03
463.32	42216.24
463.50	42089.85
463.68	42110.92
463.86	42337.95
464.05	41670.90
464.23	40636.38
464.41	40921.93
464.59	40477.22
464.78	41897.93
464.96	41975.17
465.14	41701.32
465.32	42792.01
465.50	43643.97
465.69	43819.51
465.87	42637.54
466.05	41628.77
466.23	40128.48
466.41	39192.27
466.60	40407.01
466.78	40119.12
466.96	40968.74
467.14	41284.71
467.32	42167.09
467.51	42838.83
467.69	40844.69
467.87	41588.98
468.05	41717.71
468.23	42071.13
468.41	42103.90
468.60	41977.51
468.78	42880.95
468.96	41968.15
469.14	42766.27
469.32	43143.09
469.50	41064.70
469.69	41502.38
469.87	40732.34
470.05	40648.08
470.23	40720.64
470.41	40823.62
470.59	41354.93
470.77	41663.88
470.95	42403.49
471.14	42995.64
471.32	42822.44
471.50	45296.39
471.68	45289.37
471.86	45951.74
472.04	45595.98
472.22	45144.25
472.40	44128.46
472.58	43756.32
472.77	42997.98
472.95	44285.28
473.13	44802.53
473.31	43840.57
473.49	44119.10
473.67	44858.71
473.85	45539.80
474.03	46003.23
474.21	45790.24
474.39	46579.00
474.57	46548.57
474.75	46724.11
474.93	46761.56
475.12	45806.62
475.30	45886.20
475.48	46033.66
475.66	46476.02
475.84	46012.59
476.02	45991.53
476.20	44809.56
476.38	45872.16
476.56	46794.33
476.74	47313.93
476.92	47920.13
477.10	48224.40
477.28	49413.39
477.46	49441.48
477.64	49724.68
477.82	49420.41
478.00	49916.61
478.18	49427.43
478.36	49434.45
478.54	49434.45
478.72	49677.87
478.90	50403.44
479.08	51622.86
479.26	51746.90
479.44	51564.34
479.62	51208.58
479.80	51466.04
479.98	51625.20
480.16	51662.64
480.34	51349.01
480.52	51856.91
480.70	52044.15
480.88	52116.71
481.06	52809.51
481.24	53027.18
481.41	53680.19
481.59	54202.13
481.77	53876.79
481.95	53446.13
482.13	53141.86
482.31	53380.60
482.49	53844.02
482.67	53865.09
482.85	54054.67
483.03	54429.16
483.21	54621.08
483.39	54674.91
483.57	53846.36
483.74	54000.84
483.92	54246.60
484.10	54241.92
484.28	54719.38
484.46	55110.25
484.64	55470.70
484.82	54703.00
485.00	54419.80
485.18	53895.52
485.35	52907.81
485.53	50068.74
485.71	46653.90
485.89	46461.97
486.07	48570.80
486.25	51620.52
486.43	53291.66
486.61	53277.61
486.78	53738.70
486.96	53829.98
487.14	55231.96
487.32	55875.61
487.50	56678.41
487.68	57071.62
487.85	57425.04
488.03	57322.06
488.21	57038.86
488.39	56584.79
488.57	56095.62
488.75	56048.81
488.92	56875.02
489.10	58546.16
489.28	59423.86
489.46	60123.68
489.64	59744.51
489.81	60177.51
489.99	59578.34
490.17	59657.91
490.35	60156.45
490.53	59662.60
490.70	59325.56
490.88	59316.20
491.06	60001.97
491.24	59887.29
491.41	59065.76
491.59	57916.56
491.77	57375.89
491.95	58365.94
492.13	59124.27
492.30	60261.77
492.48	60865.63
492.66	61371.19
492.84	61422.68
493.01	61034.15
493.19	60528.59
493.37	60247.73
493.54	60076.87
493.72	60797.76
493.90	61633.33
494.08	62019.52
494.25	62386.98
494.43	62405.70
494.61	62808.28
494.79	62756.78
494.96	62803.59
495.14	62094.41
495.32	61410.98
495.49	60975.64
495.67	62000.79
495.85	63082.12
496.02	63409.79
496.20	63056.37
496.38	62632.74
496.55	62780.19
496.73	63149.99
496.91	63107.86
497.09	63781.94
497.26	63725.77
497.44	63339.58
497.62	62927.64
497.79	62134.20
497.97	61205.01
498.14	61750.35
498.32	62436.13
498.50	63128.93
498.67	63629.80
498.85	63395.75
499.03	63489.37
499.20	63728.11
499.38	63859.18
499.56	63529.16
499.73	63358.30
499.91	62981.48
500.08	62553.16
500.26	61986.75
500.44	62330.81
500.61	62979.14
500.79	62707.63
500.97	62375.28
501.14	62295.70
501.32	62206.76
501.49	62012.49
501.67	62527.41
501.84	62887.85
502.02	63032.97
502.20	63428.52
502.37	63412.13
502.55	63678.96
502.72	63868.54
502.90	64306.22
503.07	64046.42
503.25	63739.81
503.43	62770.83
503.60	62534.43
503.78	61883.76
503.95	62415.07
504.13	63690.66
504.30	64259.41
504.48	63905.99
504.65	63746.83
504.83	63943.44
505.01	64411.54
505.18	64587.08
505.36	65087.96
505.53	65195.62
505.71	65396.91
505.88	65535.00
506.06	64870.29
506.23	64416.22
506.41	64090.89
506.58	64399.84
506.76	64362.39
506.93	64537.93
507.11	64406.86
507.28	64481.76
507.46	64013.65
507.63	63402.77
507.81	63288.09
507.98	63742.15
508.16	64072.17
508.33	64465.38
508.50	64877.31
508.68	65113.70
508.85	65467.12
509.03	65535.00
509.20	65209.67
509.38	64624.53
509.55	63950.46
509.73	64226.64
509.90	64715.81
510.08	65020.08
510.25	64881.99
510.42	64589.42
510.60	64570.70
510.77	64879.65
510.95	65244.77
511.12	65476.49
511.30	65535.00
511.47	65535.00
511.64	65535.00
511.82	65535.00
511.99	64828.16
512.17	64821.14
512.34	64324.94
512.51	64465.38
512.69	64486.44
512.86	64512.19
513.04	64856.24
513.21	64814.12
513.38	64598.79
513.56	64362.39
513.73	63693.00
513.90	63950.46
514.08	63941.10
514.25	64308.56
514.43	64427.93
514.60	64430.27
514.77	64669.00
514.95	64795.39
515.12	64619.85
515.29	64842.20
515.47	65235.41
515.64	65464.78
515.81	65069.23
515.99	64685.39
516.16	63215.53
516.33	61322.04
516.51	60193.90
516.68	59749.20
516.85	59231.94
517.03	59707.07
517.20	61815.89
517.37	64074.51
517.54	65001.36
517.72	64327.28
517.89	62162.29
518.06	60369.44
518.24	60645.62
518.41	62471.24
518.58	63463.63
518.75	63889.60
518.93	63788.96
519.10	63934.07
519.27	64147.06
519.45	64526.23
519.62	65034.13
519.79	65448.40
519.96	65139.45
520.14	64657.30
520.31	63870.88
520.48	64008.97
520.65	64317.92
520.83	65139.45
521.00	65296.27
521.17	64910.08
521.34	64994.34
521.52	65132.43
521.69	65483.51
521.86	65535.00
522.03	65535.00
522.20	64554.32
522.38	63611.08
522.55	63999.61
522.72	64287.49
522.89	64418.56
523.07	64526.23
523.24	64858.59
523.41	65506.91
523.58	65535.00
523.75	65535.00
523.92	65535.00
524.10	65535.00
524.27	65535.00
524.44	65535.00
524.61	65535.00
524.78	65535.00
524.96	65523.30
525.13	65535.00
525.30	65535.00
525.47	65535.00
525.64	65535.00
525.81	65474.15
525.98	64217.28
526.16	63079.78
526.33	62628.05
526.50	62152.93
526.67	61909.51
526.84	62447.83
527.01	63264.68
527.18	64008.97
527.36	64722.83
527.53	65535.00
527.70	65535.00
527.87	65010.72
528.04	64708.79
528.21	65230.73
528.38	65535.00
528.55	65535.00
528.72	65535.00
528.89	65535.00
529.07	65535.00
529.24	65535.00
529.41	65275.20
529.58	64690.07
529.75	64992.00
529.92	65406.27
530.09	65535.00
530.26	65535.00
530.43	65535.00
530.60	65535.00
530.77	65535.00
530.94	65535.00
531.11	65535.00
531.28	65535.00
531.46	65535.00
531.63	65535.00
531.80	65535.00
531.97	65511.59
532.14	64750.92
532.31	63765.56
532.48	63257.66
532.65	63346.60
532.82	64189.19
532.99	65106.68
533.16	65417.97
533.33	65535.00
533.50	65535.00
533.67	65207.32
533.84	64647.94
534.01	64849.22
534.18	65043.49
534.35	65197.96
534.52	64989.66
534.69	65361.80
534.86	65535.00
535.03	65535.00
535.20	65535.00
535.37	65535.00
535.54	65535.00
535.71	65535.00
535.88	65535.00
536.05	65378.18
536.22	65141.79
536.38	64825.82
536.55	64456.01
536.72	63927.05
536.89	63884.92
537.06	64741.56
537.23	65518.62
537.40	65535.00
537.57	65535.00
537.74	65535.00
537.91	65375.84
538.08	65422.65
538.25	65523.30
538.42	65535.00
538.59	65310.31
538.75	64725.17
538.92	64669.00
539.09	64460.69
539.26	64502.82
539.43	64046.42
539.60	64287.49
539.77	64402.18
539.94	64320.26
540.11	63575.97
540.28	63360.64
540.44	63358.30
540.61	63444.90
540.78	63887.26
540.95	64013.65
541.12	64484.10
541.29	64746.24
541.46	64889.01
541.62	65048.17
541.79	64968.59
541.96	64327.28
542.13	64409.20
542.30	64821.14
542.47	64720.49
542.63	64575.38
542.80	64381.12
542.97	64591.76
543.14	64404.52
543.31	64341.33
543.48	64900.71
543.64	65535.00
543.81	65535.00
543.98	65535.00
544.15	65022.42
544.32	64704.11
544.48	64640.92
544.65	65181.58
544.82	65272.86
544.99	64884.33
545.16	64708.79
545.32	64624.53
545.49	65125.41
545.66	65387.55
545.83	65069.23
546.00	64914.76
546.16	64594.10
546.33	64577.72
546.50	64706.45
546.67	65073.91
546.83	64615.17
547.00	64671.34
547.17	64004.29
547.34	63543.20
547.50	63533.84
547.67	63983.22
547.84	64179.83
548.00	64437.29
548.17	64872.63
548.34	64736.88
548.51	64699.43
548.67	64694.75
548.84	64858.59
549.01	64680.70
549.18	64551.98
549.34	64324.94
549.51	64544.95
549.68	64439.63
549.84	64273.45
550.01	64128.34
550.18	64090.89
550.34	64224.30
550.51	64268.77
550.68	64402.18
550.84	63882.58
551.01	63992.59
551.18	63908.33
551.34	63971.52
551.51	64430.27
551.68	64725.17
551.84	64669.00
552.01	64530.91
552.18	64280.47
552.34	63580.65
552.51	63597.04
552.68	63358.30
552.84	63739.81
553.01	63990.25
553.18	64055.78
553.34	63997.27
553.51	64039.40
553.67	64381.12
553.84	64472.40
554.01	64350.69
554.17	64130.68
554.34	64341.33
554.51	64217.28
554.67	64692.41
554.84	64559.00
555.00	64238.34
555.17	63917.69
555.33	63875.56
555.50	64083.87
555.67	63880.24
555.83	63704.70
556.00	63440.22
556.16	63599.38
556.33	63257.66
556.50	63302.13
556.66	63271.70
556.83	63135.95
556.99	63107.86
557.16	63135.95
557.32	63496.39
557.49	63697.68
557.65	63622.78
557.82	63552.57
557.98	63386.39
558.15	63082.12
558.32	62286.34
558.48	61638.01
558.65	61780.78
558.81	62124.84
558.98	62358.89
559.14	62578.90
559.31	62850.41
559.47	62611.67
559.64	62326.13
559.80	62021.86
559.97	62328.47
560.13	62770.83
560.30	63379.37
560.46	63669.59
560.63	63997.27
560.79	63887.26
560.96	63482.35
561.12	62473.58
561.29	61827.59
561.45	62003.13
561.61	62401.02
561.78	62859.77
561.94	62642.10
562.11	62473.58
562.27	62482.94
562.44	62782.53
562.60	63140.63
562.77	63072.76
562.93	63159.36
563.10	62988.50
563.26	62576.56
563.42	62447.83
563.59	62511.03
563.75	62251.23
563.92	62574.22
564.08	62485.28
564.24	62693.59
564.41	62660.82
564.57	62768.49
564.74	62499.33
564.90	62370.60
565.07	62113.14
565.23	61883.76
565.39	61652.05
565.56	61202.67
565.72	61174.58
565.88	61432.04
566.05	61673.12
566.21	61719.93
566.38	61832.27
566.54	61961.00
566.70	62169.31
566.87	62379.96
567.03	62330.81
567.19	62630.40
567.36	62162.29
567.52	62143.56
567.68	61909.51
567.85	61464.81
568.01	61244.80
568.17	60940.53
568.34	60877.33
568.50	60633.92
568.66	60910.10
568.83	61387.57
568.99	61350.12
569.15	61439.06
569.32	61591.20
569.48	61410.98
569.64	61296.29
569.81	60549.66
569.97	60891.38
570.13	60601.15
570.30	60308.58
570.46	60039.42
570.62	59405.14
570.78	59583.02
570.95	59756.22
571.11	60552.00
571.27	60666.69
571.43	60652.64
571.60	61186.28
571.76	61045.85
571.92	61399.27
572.09	61703.54
572.25	61478.85
572.41	61532.68
572.57	61394.59
572.74	61205.01
572.90	61113.73
573.06	61071.60
573.22	60959.25
573.38	60921.80
573.55	60671.37
573.71	61212.03
573.87	61083.30
574.03	60823.50
574.20	60764.99
574.36	60699.45
574.52	60324.97
574.68	60348.37
574.84	59849.84
575.01	59444.93
575.17	59536.21
575.33	59906.01
575.49	60210.28
575.65	60519.23
575.82	60079.21
575.98	59746.86
576.14	60011.34
576.30	60411.57
576.46	60418.59
576.62	60329.65
576.79	60343.69
576.95	60126.02
577.11	60023.04
577.27	60058.15
577.43	60053.47
577.59	59636.85
577.75	59384.07
577.92	58883.20
578.08	58742.77
578.24	58770.85
578.40	59257.68
578.56	59269.39
578.72	59302.15
578.88	59405.14
579.04	59470.67
579.21	59604.08
579.37	59526.84
579.53	59800.69
579.69	59700.04
579.85	59826.43
580.01	59725.79
580.17	59388.75
580.33	59281.09
580.49	59206.19
580.65	59536.21
580.82	59695.36
580.98	59676.64
581.14	59744.51
581.30	59681.32
581.46	59454.29
581.62	59824.09
581.78	59725.79
581.94	59728.13
582.10	59920.05
582.26	59950.48
582.42	59700.04
582.58	60046.44
582.74	59728.13
582.90	60018.36
583.06	59800.69
583.22	59561.95
583.38	59557.27
583.54	59552.59
583.70	59566.63
583.86	59625.15
584.02	59531.53
584.18	59576.00
584.34	59426.20
584.50	59386.41
584.66	59395.77
584.82	59152.36
584.98	59025.97
585.14	58581.27
