SpectraSuite Data File
++++++++++++++++++++++++++++++++++++
Date: Mon Oct 07 14:54:55 GMT-05:00 2013
User: price-jones
Dark Spectrum Present: No
Reference Spectrum Present: No
Number of Sampled Component Spectra: 1
Spectrometers: USB2+H05261
Integration Time (usec): 10000 (USB2+H05261)
Spectra Averaged: 1 (USB2+H05261)
Boxcar Smoothing: 0 (USB2+H05261)
Correct for Electrical Dark: No (USB2+H05261)
Strobe/Lamp Enabled: No (USB2+H05261)
Correct for Detector Non-linearity: No (USB2+H05261)
Correct for Stray Light: No (USB2+H05261)
Number of Pixels in Processed Spectrum: 2048
>>>>>Begin Processed Spectral Data<<<<<
365.73	0.00
365.92	0.00
366.12	0.00
366.32	0.00
366.52	0.00
366.72	0.00
366.91	0.00
367.11	0.00
367.31	0.00
367.51	0.00
367.70	0.00
367.90	0.00
368.10	0.00
368.30	0.00
368.49	0.00
368.69	0.00
368.89	0.00
369.09	0.00
369.28	0.00
369.48	0.00
369.68	0.00
369.87	0.00
370.07	0.00
370.27	0.00
370.47	0.00
370.66	0.00
370.86	21.06
371.06	70.22
371.25	65.54
371.45	32.77
371.65	53.83
371.84	35.11
372.04	4.68
372.24	88.94
372.44	0.00
372.63	182.56
372.83	86.60
373.03	107.66
373.22	0.00
373.42	128.73
373.62	98.30
373.81	198.95
374.01	201.29
374.21	98.30
374.40	77.24
374.60	0.00
374.79	161.50
374.99	91.28
375.19	175.54
375.38	248.10
375.58	131.07
375.78	133.41
375.97	117.03
376.17	114.69
376.37	168.52
376.56	182.56
376.76	292.57
376.95	182.56
377.15	271.50
377.35	313.63
377.54	262.14
377.74	367.46
377.93	327.68
378.13	355.76
378.33	222.35
378.52	271.50
378.72	222.35
378.91	236.39
379.11	168.52
379.31	182.56
379.50	215.33
379.70	273.84
379.89	238.73
380.09	243.42
380.28	290.23
380.48	334.70
380.68	250.44
380.87	351.08
381.07	278.52
381.26	187.24
381.46	149.79
381.65	177.88
381.85	215.33
382.04	79.58
382.24	147.45
382.43	74.90
382.63	149.79
382.83	98.30
383.02	105.32
383.22	112.35
383.41	142.77
383.61	112.35
383.80	210.65
384.00	198.95
384.19	262.14
384.39	248.10
384.58	301.93
384.78	294.91
384.97	255.12
385.17	264.48
385.36	229.37
385.56	224.69
385.75	224.69
385.95	339.38
386.14	301.93
386.34	327.68
386.53	299.59
386.72	280.86
386.92	271.50
387.11	227.03
387.31	304.27
387.50	208.31
387.70	297.25
387.89	292.57
388.09	287.89
388.28	283.20
388.48	301.93
388.67	383.85
388.86	442.36
389.06	512.58
389.25	517.26
389.45	383.85
389.64	456.40
389.84	470.45
390.03	451.72
390.22	482.15
390.42	500.87
390.61	514.92
390.81	545.34
391.00	585.13
391.19	519.60
391.39	552.37
391.58	498.53
391.78	372.15
391.97	409.59
392.16	360.44
392.36	334.70
392.55	194.26
392.75	177.88
392.94	58.51
393.13	21.06
393.33	128.73
393.52	182.56
393.71	320.65
393.91	353.42
394.10	421.30
394.29	500.87
394.49	547.69
394.68	599.18
394.88	564.07
395.07	622.58
395.26	695.14
395.46	571.09
395.65	573.43
395.84	482.15
396.04	346.40
396.23	259.80
396.42	215.33
396.62	126.39
396.81	198.95
397.00	320.65
397.19	496.19
397.39	636.63
397.58	777.06
397.77	774.72
397.97	814.51
398.16	861.32
398.35	936.21
398.55	854.30
398.74	919.83
398.93	983.02
399.12	866.00
399.32	901.11
399.51	870.68
399.70	971.32
399.90	997.07
400.09	1011.11
400.28	990.05
400.47	1032.18
400.67	1135.16
400.86	1125.80
401.05	1043.88
401.24	1039.20
401.44	1100.05
401.63	1078.99
401.82	1172.61
402.01	1097.71
402.21	1174.95
402.40	1163.25
402.59	1055.58
402.78	987.71
402.97	1022.81
403.17	1027.50
403.36	1083.67
403.55	1165.59
403.74	1254.53
403.93	1013.45
404.13	1083.67
404.32	1029.84
404.51	1022.81
404.70	1240.48
404.89	1191.33
405.09	1144.52
405.28	1057.92
405.47	1046.22
405.66	1130.48
405.85	1062.60
406.05	1015.79
406.24	1015.79
406.43	1102.39
406.62	1191.33
406.81	1193.67
407.00	1107.07
407.20	1200.69
407.39	1149.20
407.58	1167.93
407.77	1184.31
407.96	1259.21
408.15	1329.42
408.34	1254.53
408.54	1291.98
408.73	1348.15
408.92	1343.47
409.11	1245.16
409.30	1226.44
409.49	1109.41
409.68	1013.45
409.87	966.64
410.07	1067.28
410.26	1109.41
410.45	1217.08
410.64	1352.83
410.83	1366.87
411.02	1357.51
411.21	1490.92
411.40	1392.62
411.59	1519.01
411.78	1465.18
411.98	1387.94
412.17	1420.71
412.36	1411.34
412.55	1432.41
412.74	1280.27
412.93	1366.87
413.12	1390.28
413.31	1479.22
413.50	1528.37
413.69	1504.96
413.88	1451.13
414.07	1432.41
414.26	1334.11
414.45	1547.09
414.64	1610.29
414.83	1558.80
415.02	1469.86
415.22	1437.09
415.41	1369.21
415.60	1495.60
415.79	1614.97
415.98	1614.97
416.17	1654.76
416.36	1547.09
416.55	1561.14
416.74	1458.15
416.93	1493.26
417.12	1455.81
417.31	1561.14
417.50	1504.96
417.69	1476.88
417.88	1540.07
418.07	1519.01
418.26	1504.96
418.45	1549.43
418.64	1572.84
418.83	1526.03
419.02	1652.42
419.21	1542.41
419.39	1486.24
419.58	1519.01
419.77	1617.31
419.96	1514.33
420.15	1631.35
420.34	1741.36
420.53	1755.40
420.72	1863.07
420.91	1734.34
421.10	1736.68
421.29	1687.53
421.48	1652.42
421.67	1701.57
421.86	1797.53
422.05	1519.01
422.24	1497.94
422.43	1373.89
422.61	1521.35
422.80	1687.53
422.99	1755.40
423.18	1701.57
423.37	1629.01
423.56	1493.26
423.75	1636.03
423.94	1687.53
424.13	1600.93
424.32	1507.30
424.50	1519.01
424.69	1614.97
424.88	1626.67
425.07	1511.99
425.26	1565.82
425.45	1533.05
425.64	1479.22
425.83	1542.41
426.01	1657.10
426.20	1629.01
426.39	1521.35
426.58	1448.79
426.77	1343.47
426.96	1268.57
427.15	1322.40
427.33	1458.15
427.52	1558.80
427.71	1668.80
427.90	1514.33
428.09	1547.09
428.28	1551.78
428.46	1504.96
428.65	1366.87
428.84	1502.62
429.03	1460.49
429.22	1490.92
429.40	1301.34
429.59	1121.12
429.78	1060.26
429.97	971.32
430.16	945.58
430.34	1004.09
430.53	1053.24
430.72	919.83
430.91	1240.48
431.10	1467.52
431.28	1614.97
431.47	1720.29
431.66	1827.96
431.85	1666.46
432.03	1612.63
432.22	1488.58
432.41	1502.62
432.60	1774.13
432.79	1790.51
432.97	1886.47
433.16	1699.23
433.35	1586.88
433.54	1390.28
433.72	1261.55
433.91	1308.36
434.10	1556.46
434.28	1703.91
434.47	1872.43
434.66	1895.83
434.85	1713.27
435.03	1678.16
435.22	1724.97
435.41	1865.41
435.59	1827.96
435.78	1891.15
435.97	1968.39
436.16	1963.71
436.34	1764.76
436.53	1891.15
436.72	1837.32
436.90	1778.81
437.09	1921.58
437.28	1579.86
437.46	1832.64
437.65	1816.26
437.84	1769.44
438.02	1497.94
438.21	1413.68
438.40	1535.39
438.58	1680.50
438.77	1703.91
438.96	1916.90
439.14	1872.43
439.33	1935.62
439.52	1954.35
439.70	1980.09
439.89	1949.67
440.08	1827.96
440.26	1816.26
440.45	2029.24
440.63	1966.05
440.82	2179.04
441.01	2073.71
441.19	2120.53
441.38	2111.16
441.57	2230.53
441.75	2267.98
441.94	2157.97
442.12	2253.94
442.31	2342.88
442.50	2235.21
442.68	2139.25
442.87	2209.47
443.05	2099.46
443.24	2272.66
443.43	2146.27
443.61	2197.76
443.80	2340.54
443.98	2155.63
444.17	2118.18
444.35	2366.28
444.54	2305.43
444.73	2319.47
444.91	2218.83
445.10	2047.97
445.28	1984.77
445.47	1963.71
445.65	1970.73
445.84	2050.31
446.02	2146.27
446.21	2015.20
446.39	2253.94
446.58	2092.44
446.77	2373.30
446.95	2338.20
447.14	2223.51
447.32	2317.13
447.51	2319.47
447.69	2321.81
447.88	2249.25
448.06	2275.00
448.25	2244.57
448.43	2284.36
448.62	2342.88
448.80	2368.62
448.99	2270.32
449.17	2349.90
449.36	2207.13
449.54	2333.51
449.73	2490.33
449.91	2392.03
450.10	2553.52
450.28	2513.74
450.46	2583.95
450.65	2602.68
450.83	2509.05
451.02	2373.30
451.20	2450.54
451.39	2354.58
451.57	2392.03
451.76	2307.77
451.94	2354.58
452.13	2258.62
452.31	2181.38
452.49	1991.80
452.68	2026.90
452.86	2132.23
453.05	2143.93
453.23	2366.28
453.42	2366.28
453.60	2436.50
453.78	2462.24
453.97	2389.69
454.15	2459.90
454.34	2277.34
454.52	2317.13
454.70	2331.17
454.89	2293.72
455.07	2399.05
455.26	2235.21
455.44	2319.47
455.62	2443.52
455.81	2452.88
455.99	2499.69
456.17	2359.26
456.36	2396.71
456.54	2396.71
456.73	2506.71
456.91	2649.49
457.09	2576.93
457.28	2534.80
457.46	2509.05
457.64	2413.09
457.83	2258.62
458.01	2331.17
458.19	2420.11
458.38	2518.42
458.56	2450.54
458.74	2401.39
458.93	2415.43
459.11	2513.74
459.29	2434.16
459.48	2452.88
459.66	2382.67
459.84	2448.20
460.03	2476.29
460.21	2509.05
460.39	2473.95
460.57	2590.97
460.76	2614.38
460.94	2621.40
461.12	2544.16
461.31	2525.44
461.49	2612.04
461.67	2560.55
461.85	2621.40
462.04	2569.91
462.22	2675.23
462.40	2731.41
462.59	2567.57
462.77	2656.51
462.95	2548.84
463.13	2661.19
463.32	2525.44
463.50	2527.78
463.68	2438.84
463.86	2473.95
464.05	2539.48
464.23	2511.39
464.41	2462.24
464.59	2335.85
464.78	2436.50
464.96	2614.38
465.14	2427.14
465.32	2532.46
465.50	2616.72
465.69	2607.36
465.87	2518.42
466.05	2469.27
466.23	2265.64
466.41	2401.39
466.60	2382.67
466.78	2368.62
466.96	2574.59
467.14	2462.24
467.32	2525.44
467.51	2560.55
467.69	2427.14
467.87	2523.10
468.05	2450.54
468.23	2492.67
468.41	2462.24
468.60	2338.20
468.78	2457.56
468.96	2586.29
469.14	2642.46
469.32	2626.08
469.50	2509.05
469.69	2389.69
469.87	2333.51
470.05	2375.64
470.23	2347.56
470.41	2406.07
470.59	2399.05
470.77	2347.56
470.95	2553.52
471.14	2567.57
471.32	2567.57
471.50	2668.21
471.68	2628.42
471.86	2876.52
472.04	2693.96
472.22	2715.02
472.40	2719.70
472.58	2513.74
472.77	2354.58
472.95	2642.46
473.13	2682.25
473.31	2621.40
473.49	2686.94
473.67	2612.04
473.85	2782.90
474.03	2682.25
474.21	2918.65
474.39	2803.96
474.57	2803.96
474.75	2867.16
474.93	2832.05
475.12	2768.85
475.30	2757.15
475.48	2752.47
475.66	2813.32
475.84	2654.17
476.02	2754.81
476.20	2602.68
476.38	2689.28
476.56	2689.28
476.74	2834.39
476.92	2850.77
477.10	2818.00
477.28	3047.38
477.46	3040.36
477.64	2995.89
477.82	3061.42
478.00	2888.22
478.18	2949.08
478.36	3049.72
478.54	2967.80
478.72	2991.20
478.90	3082.49
479.08	3239.30
479.26	3187.81
479.44	3143.34
479.62	3075.46
479.80	3094.19
479.98	3077.80
480.16	3124.62
480.34	3108.23
480.52	3309.52
480.70	3262.71
480.88	3138.66
481.06	3211.22
481.24	3288.45
481.41	3393.78
481.59	3452.29
481.77	3424.20
481.95	3370.37
482.13	3316.54
482.31	3433.57
482.49	3442.93
482.67	3286.11
482.85	3480.38
483.03	3552.93
483.21	3506.12
483.39	3665.28
483.57	3548.25
483.74	3480.38
483.92	3396.12
484.10	3412.50
484.28	3527.19
484.46	3524.85
484.64	3705.07
484.82	3566.98
485.00	3510.80
485.18	3468.67
485.35	3269.73
485.53	3112.91
485.71	2719.70
485.89	2698.64
486.07	2759.49
486.25	3251.00
486.43	3463.99
486.61	3426.54
486.78	3323.56
486.96	3321.22
487.14	3531.87
487.32	3660.60
487.50	3737.84
487.68	3908.69
487.85	3803.37
488.03	3756.56
488.21	4021.04
488.39	3840.82
488.57	3691.02
488.75	3672.30
488.92	3742.52
489.10	4095.94
489.28	4250.41
489.46	4273.82
489.64	4344.03
489.81	4292.54
489.99	4311.27
490.17	4285.52
490.35	4264.46
490.53	4201.26
490.70	4182.54
490.88	4126.36
491.06	4262.12
491.24	4301.90
491.41	4194.24
491.59	3899.33
491.77	3878.27
491.95	4067.85
492.13	4175.52
492.30	4313.61
492.48	4299.56
492.66	4496.17
492.84	4580.43
493.01	4444.68
493.19	4301.90
493.37	4236.37
493.54	4322.97
493.72	4365.10
493.90	4468.08
494.08	4592.13
494.25	4697.46
494.43	4657.67
494.61	4814.48
494.79	4774.69
494.96	4762.99
495.14	4645.96
495.32	4533.62
495.49	4327.65
495.67	4660.01
495.85	4727.88
496.02	4971.30
496.20	4657.67
496.38	4748.95
496.55	4685.75
496.73	4741.93
496.91	4858.95
497.09	4774.69
497.26	5004.07
497.44	4784.06
497.62	4706.82
497.79	4624.90
497.97	4486.81
498.14	4545.32
498.32	4828.53
498.50	4713.84
498.67	4901.08
498.85	4997.04
499.03	4947.89
499.20	4849.59
499.38	4931.51
499.56	4990.02
499.73	4868.31
499.91	4573.41
500.08	4746.61
500.26	4503.19
500.44	4538.30
500.61	4755.97
500.79	4784.06
500.97	4741.93
501.14	4737.24
501.32	4571.07
501.49	4540.64
501.67	4566.39
501.84	4652.98
502.02	4739.58
502.20	4910.44
502.37	5006.41
502.55	4985.34
502.72	5027.47
502.90	5107.05
503.07	4992.36
503.25	4910.44
503.43	4924.49
503.60	4514.89
503.78	4484.47
503.95	4636.60
504.13	4784.06
504.30	4952.57
504.48	5048.54
504.65	4889.38
504.83	4978.32
505.01	5041.51
505.18	5228.76
505.36	5184.29
505.53	5219.39
505.71	5345.78
505.88	5249.82
506.06	5093.01
506.23	5102.37
506.41	4842.57
506.58	5020.45
506.76	4966.62
506.93	5123.43
507.11	5046.20
507.28	5032.15
507.46	4849.59
507.63	4770.01
507.81	4837.89
507.98	4755.97
508.16	4910.44
508.33	5001.72
508.50	5015.77
508.68	5261.52
508.85	5268.55
509.03	5198.33
509.20	5341.10
509.38	5008.75
509.55	4947.89
509.73	5153.86
509.90	5039.17
510.08	5067.26
510.25	5093.01
510.42	4957.25
510.60	4933.85
510.77	5041.51
510.95	5167.90
511.12	5287.27
511.30	5376.21
511.47	5420.68
511.64	5387.91
511.82	5270.89
511.99	5130.45
512.17	4971.30
512.34	4912.78
512.51	4938.53
512.69	5020.45
512.86	4938.53
513.04	5207.69
513.21	5062.58
513.38	4983.00
513.56	5067.26
513.73	4802.78
513.90	4884.70
514.08	4875.34
514.25	4978.32
514.43	4877.68
514.60	5076.62
514.77	5013.43
514.95	4994.70
515.12	4983.00
515.29	5025.13
515.47	5048.54
515.64	5214.71
515.81	5041.51
515.99	5064.92
516.16	4805.12
516.33	4407.23
516.51	4046.79
516.68	4002.32
516.85	3875.93
517.03	4035.08
517.20	4332.33
517.37	4657.67
517.54	4975.98
517.72	5121.09
517.89	4496.17
518.06	4124.02
518.24	4187.22
518.41	4486.81
518.58	4854.27
518.75	4873.00
518.93	4720.86
519.10	4674.05
519.27	4774.69
519.45	4891.72
519.62	5039.17
519.79	5090.67
519.96	5064.92
520.14	4945.55
520.31	4762.99
520.48	4676.39
520.65	4786.40
520.83	5165.56
521.00	5179.61
521.17	5064.92
521.34	4943.21
521.52	5027.47
521.69	4999.38
521.86	5270.89
522.03	5036.83
522.20	4798.10
522.38	4744.27
522.55	4685.75
522.72	4819.16
522.89	4990.02
523.07	4947.89
523.24	5081.30
523.41	5008.75
523.58	5334.08
523.75	5160.88
523.92	5226.42
524.10	5135.14
524.27	5282.59
524.44	5430.04
524.61	5142.16
524.78	5121.09
524.96	5043.85
525.13	5046.20
525.30	5179.61
525.47	5123.43
525.64	5329.40
525.81	5027.47
525.98	4851.93
526.16	4468.08
526.33	4421.27
526.50	4329.99
526.67	4411.91
526.84	4393.19
527.01	4617.88
527.18	4753.63
527.36	4805.12
527.53	4933.85
527.70	5144.50
527.87	5008.75
528.04	4863.63
528.21	4940.87
528.38	5247.48
528.55	5387.91
528.72	5322.38
528.89	5476.85
529.07	5195.99
529.24	4997.04
529.41	4943.21
529.58	4903.42
529.75	5008.75
529.92	4826.18
530.09	5200.67
530.26	5284.93
530.43	5320.04
530.60	5270.89
530.77	5343.44
530.94	5252.16
531.11	5287.27
531.28	5163.22
531.46	5235.78
531.63	5228.76
531.80	5018.11
531.97	5060.24
532.14	4973.64
532.31	4739.58
532.48	4477.44
532.65	4386.16
532.82	4627.24
532.99	4863.63
533.16	4990.02
533.33	5074.28
533.50	4971.30
533.67	5018.11
533.84	4793.42
534.01	4880.02
534.18	4919.81
534.35	4945.55
534.52	4922.15
534.69	4812.14
534.86	5151.52
535.03	5144.50
535.20	5341.10
535.37	5310.68
535.54	5200.67
535.71	5116.41
535.88	5198.33
536.05	4882.36
536.22	4896.40
536.38	4858.95
536.55	4882.36
536.72	4716.18
536.89	4645.96
537.06	4868.31
537.23	4952.57
537.40	5060.24
537.57	5081.30
537.74	5036.83
537.91	5111.73
538.08	4912.78
538.25	5071.94
538.42	5104.71
538.59	4994.70
538.75	4690.43
538.92	4638.94
539.09	4800.44
539.26	4795.76
539.43	4809.80
539.60	4739.58
539.77	4854.27
539.94	4660.01
540.11	4624.90
540.28	4362.76
540.44	4629.58
540.61	4519.57
540.78	4622.56
540.95	4540.64
541.12	4655.33
541.29	4873.00
541.46	4786.40
541.62	4830.87
541.79	4961.94
541.96	4762.99
542.13	4634.26
542.30	4741.93
542.47	4526.60
542.63	4723.20
542.80	4540.64
542.97	4706.82
543.14	4819.16
543.31	4741.93
543.48	4812.14
543.64	5130.45
543.81	5064.92
543.98	4999.38
544.15	4863.63
544.32	4748.95
544.48	4688.09
544.65	4887.04
544.82	4983.00
544.99	4882.36
545.16	4638.94
545.32	4580.43
545.49	4870.65
545.66	4781.71
545.83	4961.94
546.00	4821.50
546.16	4704.48
546.33	4847.25
546.50	4688.09
546.67	4915.12
546.83	4751.29
547.00	4627.24
547.17	4606.17
547.34	4589.79
547.50	4521.92
547.67	4655.33
547.84	4660.01
548.00	4793.42
548.17	4725.54
548.34	4819.16
548.51	4837.89
548.67	4720.86
548.84	4751.29
549.01	4788.74
549.18	4847.25
549.34	4723.20
549.51	4669.37
549.68	4868.31
549.84	4671.71
550.01	4622.56
550.18	4781.71
550.34	4748.95
550.51	4514.89
550.68	4753.63
550.84	4741.93
551.01	4676.39
551.18	4414.25
551.34	4720.86
551.51	4514.89
551.68	4620.22
551.84	4697.46
552.01	4599.15
552.18	4592.13
552.34	4667.03
552.51	4365.10
552.68	4622.56
552.84	4521.92
553.01	4603.83
553.18	4652.98
553.34	4559.36
553.51	4631.92
553.67	4571.07
553.84	4802.78
554.01	4582.77
554.17	4596.81
554.34	4634.26
554.51	4765.33
554.67	4748.95
554.84	4573.41
555.00	4552.34
555.17	4603.83
555.33	4664.69
555.50	4507.87
555.67	4681.07
555.83	4589.79
556.00	4542.98
556.16	4444.68
556.33	4337.01
556.50	4521.92
556.66	4425.95
556.83	4444.68
556.99	4210.62
557.16	4440.00
557.32	4304.25
557.49	4472.76
557.65	4510.21
557.82	4531.28
557.98	4475.10
558.15	4418.93
558.32	4135.73
558.48	4117.00
558.65	3969.55
558.81	4140.41
558.98	4203.60
559.14	4329.99
559.31	4383.82
559.47	4280.84
559.64	4149.77
559.80	4245.73
559.97	4215.30
560.13	4269.14
560.30	4379.14
560.46	4521.92
560.63	4393.19
560.79	4491.49
560.96	4444.68
561.12	4329.99
561.29	4060.83
561.45	4081.89
561.61	4184.88
561.78	4128.70
561.94	4182.54
562.11	4461.06
562.27	4327.65
562.44	4236.37
562.60	4397.87
562.77	4360.42
562.93	4311.27
563.10	4341.69
563.26	4126.36
563.42	4205.94
563.59	4248.07
563.75	4238.71
563.92	4142.75
564.08	4154.45
564.24	4320.63
564.41	4194.24
564.57	4175.52
564.74	4095.94
564.90	4205.94
565.07	4194.24
565.23	4142.75
565.39	4011.68
565.56	3922.74
565.72	3770.60
565.88	3962.53
566.05	3992.95
566.21	4046.79
566.38	4091.26
566.54	4142.75
566.70	4042.11
566.87	4004.66
567.03	4219.99
567.19	4236.37
567.36	4102.96
567.52	4081.89
567.68	4091.26
567.85	3915.72
568.01	3784.65
568.17	3925.08
568.34	3817.41
568.50	3845.50
568.66	3894.65
568.83	4021.04
568.99	4002.32
569.15	4149.77
569.32	4081.89
569.48	3864.22
569.64	4037.42
569.81	3719.11
569.97	3817.41
570.13	3896.99
570.30	3775.28
570.46	3747.20
570.62	3669.96
570.78	3548.25
570.95	3627.83
571.11	3782.31
571.27	3866.56
571.43	3840.82
571.60	3918.06
571.76	3864.22
571.92	4121.68
572.09	4023.38
572.25	4119.34
572.41	3953.16
572.57	3716.77
572.74	3948.48
572.90	3948.48
573.06	3868.91
573.22	3880.61
573.38	3796.35
573.55	3826.78
573.71	3932.10
573.87	4032.74
574.03	3686.34
574.20	3822.09
574.36	3754.22
574.52	3829.12
574.68	3742.52
574.84	3805.71
575.01	3662.94
575.17	3674.64
575.33	3812.73
575.49	3698.05
575.65	3765.92
575.82	3705.07
575.98	3646.55
576.14	3698.05
576.30	3756.56
576.46	3698.05
576.62	3751.88
576.79	3627.83
576.95	3691.02
577.11	3712.09
577.27	3524.85
577.43	3765.92
577.59	3747.20
577.75	3735.50
577.92	3485.06
578.08	3545.91
578.24	3634.85
578.40	3691.02
578.56	3555.27
578.72	3527.19
578.88	3751.88
579.04	3669.96
579.21	3658.26
579.37	3693.37
579.53	3667.62
579.69	3705.07
579.85	3712.09
580.01	3705.07
580.17	3648.90
580.33	3459.31
580.49	3588.04
580.65	3674.64
580.82	3585.70
580.98	3733.15
581.14	3684.00
581.30	3494.42
581.46	3524.85
581.62	3536.55
581.78	3555.27
581.94	3707.41
582.10	3611.45
582.26	3574.00
582.42	3646.55
582.58	3655.92
582.74	3517.83
582.90	3648.90
583.06	3620.81
583.22	3548.25
583.38	3595.06
583.54	3440.59
583.70	3604.42
583.86	3403.14
584.02	3588.04
584.18	3660.60
584.34	3566.98
584.50	3581.02
584.66	3686.34
584.82	3618.47
584.98	3534.21
585.14	3424.20
585.30	3419.52
585.46	3445.27
585.62	3358.67
585.78	3391.44
585.94	3386.76
586.10	3480.38
586.26	3358.67
586.42	3468.67
586.58	3524.85
586.74	3503.78
586.90	3503.78
587.06	3501.44
587.22	3503.78
587.38	3426.54
587.54	3403.14
587.70	3513.14
587.86	3428.88
588.02	3290.79
588.18	3272.07
588.34	3234.62
588.49	2977.16
588.65	2710.34
588.81	2803.96
588.97	2822.69
589.13	2871.84
589.29	2738.43
589.45	2801.62
589.61	3042.70
589.77	3066.10
589.93	3159.72
590.08	3246.32
590.24	3297.81
590.40	3304.84
590.56	3314.20
590.72	3286.11
590.88	3199.51
591.04	3269.73
591.20	3122.27
591.35	3108.23
591.51	3229.94
591.67	3087.17
591.83	3061.42
591.99	3164.40
592.15	3171.43
592.31	3236.96
592.46	3148.02
592.62	3152.70
592.78	3033.33
592.94	3227.60
593.10	3220.58
593.26	3183.13
593.41	3255.69
593.57	3176.11
593.73	3045.04
593.89	3026.31
594.05	3098.87
594.20	3042.70
594.36	3133.98
594.52	3084.83
594.68	3045.04
594.84	2937.37
594.99	3000.57
595.15	2925.67
595.31	3075.46
595.47	3112.91
595.62	3059.08
595.78	3002.91
595.94	3030.99
596.10	3035.67
596.25	3047.38
596.41	3148.02
596.57	3021.63
596.73	3049.72
596.88	2937.37
597.04	2993.55
597.20	3084.83
597.36	2958.44
597.51	3169.09
597.67	3026.31
597.83	3038.02
597.99	2953.76
598.14	2993.55
598.30	2981.84
598.46	3023.97
