SpectraSuite Data File
++++++++++++++++++++++++++++++++++++
Date: Mon Oct 07 14:55:02 GMT-05:00 2013
User: price-jones
Dark Spectrum Present: No
Reference Spectrum Present: No
Number of Sampled Component Spectra: 1
Spectrometers: USB2+H05261
Integration Time (usec): 10000 (USB2+H05261)
Spectra Averaged: 1 (USB2+H05261)
Boxcar Smoothing: 0 (USB2+H05261)
Correct for Electrical Dark: No (USB2+H05261)
Strobe/Lamp Enabled: No (USB2+H05261)
Correct for Detector Non-linearity: No (USB2+H05261)
Correct for Stray Light: No (USB2+H05261)
Number of Pixels in Processed Spectrum: 2048
>>>>>Begin Processed Spectral Data<<<<<
365.73	0.00
365.92	0.00
366.12	0.00
366.32	0.00
366.52	0.00
366.72	0.00
366.91	0.00
367.11	0.00
367.31	0.00
367.51	0.00
367.70	0.00
367.90	0.00
368.10	0.00
368.30	0.00
368.49	0.00
368.69	0.00
368.89	0.00
369.09	0.00
369.28	0.00
369.48	0.00
369.68	0.00
369.87	0.00
370.07	0.00
370.27	0.00
370.47	470.45
370.66	2719.70
370.86	3112.91
371.06	3426.54
371.25	3447.61
371.45	3108.23
371.65	2813.32
371.84	2787.58
372.04	2946.73
372.24	3145.68
372.44	3243.98
372.63	3054.40
372.83	2801.62
373.03	2525.44
373.22	2373.30
373.42	2686.94
373.62	3038.02
373.81	3208.87
374.01	3105.89
374.21	2745.45
374.40	2649.49
374.60	2691.62
374.79	3386.76
374.99	3871.25
375.19	3838.48
375.38	3934.44
375.58	3616.13
375.78	3693.37
375.97	3611.45
376.17	3695.71
376.37	3840.82
376.56	4051.47
376.76	4287.86
376.95	4603.83
377.15	4821.50
377.35	5029.81
377.54	5242.80
377.74	5263.86
377.93	5359.83
378.13	5071.94
378.33	4791.08
378.52	4341.69
378.72	4386.16
378.91	4205.94
379.11	4152.11
379.31	3971.89
379.50	4028.06
379.70	4461.06
379.89	4957.25
380.09	5284.93
380.28	5273.23
380.48	5268.55
380.68	5179.61
380.87	4968.96
381.07	4493.83
381.26	4161.47
381.46	3892.31
381.65	3857.20
381.85	3721.45
382.04	3534.21
382.24	3349.31
382.43	3232.28
382.63	3133.98
382.83	2981.84
383.02	3082.49
383.22	3059.08
383.41	3162.06
383.61	3574.00
383.80	4063.17
384.00	4655.33
384.19	5093.01
384.39	5170.24
384.58	5249.82
384.78	5193.65
384.97	5013.43
385.17	4755.97
385.36	4606.17
385.56	4315.95
385.75	4678.73
385.95	5242.80
386.14	5364.51
386.34	5359.83
386.53	5158.54
386.72	4727.88
386.92	4936.19
387.11	5359.83
387.31	5401.96
387.50	5486.22
387.70	5207.69
387.89	5083.64
388.09	5111.73
388.28	5132.79
388.48	5217.05
388.67	5816.23
388.86	6317.11
389.06	6738.40
389.25	7037.99
389.45	6995.86
389.64	7049.69
389.84	6817.98
390.03	6745.42
390.22	6918.62
390.42	7274.38
390.61	7742.49
390.81	8175.49
391.00	8470.40
391.19	8142.72
391.39	7824.41
391.58	7389.07
391.78	6913.94
391.97	6724.36
392.16	6270.30
392.36	5413.66
392.55	4306.59
392.75	3328.24
392.94	2972.48
393.13	3119.93
393.33	3833.80
393.52	4650.64
393.71	5722.61
393.91	6490.31
394.10	7059.06
394.29	7854.84
394.49	8234.00
394.68	8744.24
394.88	8812.12
395.07	9083.62
395.26	8964.25
395.46	8449.33
395.65	7896.97
395.84	6764.15
396.04	5542.39
396.23	4580.43
396.42	4021.04
396.62	3922.74
396.81	4884.70
397.00	6347.53
397.19	7775.26
397.39	9350.44
397.58	10216.44
397.77	10738.38
397.97	11061.37
398.16	11360.96
398.35	11733.11
398.55	11969.50
398.74	12341.64
398.93	12549.95
399.12	12318.24
399.32	11882.90
399.51	12203.55
399.70	13036.78
399.90	12606.13
400.09	12615.49
400.28	12744.22
400.47	12919.76
400.67	13446.38
400.86	14019.81
401.05	13975.34
401.24	13862.99
401.44	14253.86
401.63	14342.80
401.82	14429.40
402.01	14523.02
402.21	14464.51
402.40	14539.41
402.59	13944.91
402.78	13355.10
402.97	13376.16
403.17	14075.98
403.36	14726.65
403.55	15026.24
403.74	15159.65
403.93	14181.31
404.13	13177.22
404.32	13191.26
404.51	14228.12
404.70	14988.79
404.89	14714.95
405.09	14499.62
405.28	14274.93
405.47	14265.57
405.66	14115.77
405.85	13528.30
406.05	13123.38
406.24	13935.55
406.43	14253.86
406.62	14824.95
406.81	14792.19
407.00	14700.90
407.20	14043.21
407.39	14246.84
407.58	15037.94
407.77	15967.13
407.96	16219.91
408.15	16493.76
408.34	16400.13
408.54	16975.91
408.73	16985.27
408.92	16699.72
409.11	16046.71
409.30	15548.18
409.49	14099.39
409.68	13259.13
409.87	13413.61
410.07	14490.26
410.26	15407.75
410.45	16278.43
410.64	16666.95
410.83	17460.40
411.02	17413.59
411.21	18384.91
411.40	17987.02
411.59	18068.94
411.78	17947.23
411.98	17996.38
412.17	18214.05
412.36	18012.76
412.55	17926.16
412.74	17446.35
412.93	17341.03
413.12	17542.32
413.31	19424.11
413.50	19253.25
413.69	19318.78
413.88	18391.93
414.07	18352.14
414.26	18932.59
414.45	19115.16
414.64	18813.23
414.83	19051.96
415.02	18520.66
415.22	18787.48
415.41	19616.03
415.60	20149.67
415.79	20570.97
415.98	21069.50
416.17	20638.84
416.36	20409.47
416.55	20175.42
416.74	19248.57
416.93	19318.78
417.12	19192.39
417.31	19161.97
417.50	19653.48
417.69	20512.46
417.88	19932.00
418.07	20126.27
418.26	19899.23
418.45	20187.12
418.64	20884.60
418.83	22043.17
419.02	21336.32
419.21	20556.93
419.39	19920.30
419.58	19119.84
419.77	19410.06
419.96	20882.26
420.15	21462.71
420.34	22010.40
420.53	22752.35
420.72	22827.24
420.91	22852.99
421.10	21961.25
421.29	22073.59
421.48	21429.94
421.67	22670.43
421.86	21453.35
422.05	19730.72
422.24	18539.38
422.43	18932.59
422.61	21146.74
422.80	21776.34
422.99	21401.86
423.18	20821.41
423.37	20570.97
423.56	20973.54
423.75	21553.99
423.94	22026.78
424.13	21003.97
424.32	20592.03
424.50	20229.25
424.69	20552.24
424.88	20648.21
425.07	20727.78
425.26	20760.55
425.45	20109.88
425.64	19644.12
425.83	20081.80
426.01	21425.26
426.20	21790.39
426.39	21350.37
426.58	19686.25
426.77	18427.04
426.96	18295.97
427.15	19016.85
427.33	20343.94
427.52	20592.03
427.71	21188.87
427.90	20889.28
428.09	20521.82
428.28	19990.52
428.46	19112.81
428.65	19094.09
428.84	19896.89
429.03	19702.63
429.22	18670.45
429.40	17280.18
429.59	15714.36
429.78	14085.34
429.97	14361.53
430.16	14176.62
430.34	14548.77
430.53	14986.45
430.72	15910.96
430.91	17256.77
431.10	20463.30
431.28	23793.89
431.47	25369.07
431.66	24561.58
431.85	21783.37
432.03	20381.38
432.22	20554.58
432.41	22012.74
432.60	23639.41
432.79	24521.79
432.97	24514.77
433.16	23475.57
433.35	21284.83
433.54	19335.17
433.72	18773.44
433.91	20018.60
434.10	22518.29
434.28	23763.46
434.47	24608.39
434.66	23587.92
434.85	23073.00
435.03	23747.08
435.22	23903.89
435.41	24978.20
435.59	25928.45
435.78	26047.82
435.97	26508.91
436.16	26583.80
436.34	25633.55
436.53	25282.47
436.72	25663.97
436.90	24446.90
437.09	24261.99
437.28	23903.89
437.46	24905.64
437.65	23995.17
437.84	22089.98
438.02	20676.29
438.21	21558.67
438.40	22033.80
438.58	23983.47
438.77	24851.81
438.96	25275.45
439.14	26497.20
439.33	26726.58
439.52	26717.22
439.70	25776.32
439.89	25565.67
440.08	25062.46
440.26	25095.22
440.45	26155.49
440.63	28219.84
440.82	29106.90
441.01	28276.01
441.19	28446.87
441.38	29230.95
441.57	29977.58
441.75	29851.19
441.94	30213.98
442.12	30211.64
442.31	31035.50
442.50	30728.89
442.68	29902.68
442.87	30136.74
443.05	29572.67
443.24	30223.34
443.43	30686.76
443.61	31456.80
443.80	31388.92
443.98	30520.59
444.17	30204.61
444.35	31466.16
444.54	32130.87
444.73	30939.54
444.91	29497.77
445.10	29146.69
445.28	28229.20
445.47	27871.10
445.65	27957.70
445.84	29200.52
446.02	29376.06
446.21	29855.87
446.39	30403.56
446.58	30464.41
446.77	31419.35
446.95	31398.29
447.14	32100.45
447.32	32847.08
447.51	31915.54
447.69	30824.86
447.88	30951.24
448.06	31126.78
448.25	31704.90
448.43	31101.04
448.62	30953.58
448.80	30941.88
448.99	31220.41
449.17	31180.62
449.36	32018.53
449.54	33067.09
449.73	33474.34
449.91	34050.11
450.10	34948.88
450.28	35152.51
450.46	35360.81
450.65	35147.82
450.83	34597.80
451.02	33722.44
451.20	33914.36
451.39	33748.18
451.57	33792.65
451.76	33677.97
451.94	32999.21
452.13	32098.11
452.31	30689.10
452.49	28811.99
452.68	30485.48
452.86	30768.68
453.05	30993.37
453.23	32144.92
453.42	32610.68
453.60	33509.45
453.78	33273.06
453.97	33298.80
454.15	32804.95
454.34	31749.37
454.52	31515.31
454.70	31810.22
454.89	32486.64
455.07	32287.69
455.26	32884.53
455.44	34064.16
455.62	34607.16
455.81	34541.63
455.99	34141.39
456.17	34370.77
456.36	35353.79
456.54	35676.79
456.73	34689.08
456.91	35548.06
457.09	35964.67
457.28	36788.54
457.46	35063.57
457.64	34803.77
457.83	33617.11
458.01	33413.49
458.19	35115.06
458.38	35611.25
458.56	35686.15
458.74	35199.32
458.93	34974.63
459.11	34209.27
459.29	34340.34
459.48	34855.26
459.66	34370.77
459.84	34445.66
460.03	34969.94
460.21	36074.68
460.39	36479.59
460.57	36046.59
460.76	35910.84
460.94	36664.49
461.12	36472.57
461.31	36488.95
461.49	37053.02
461.67	36547.47
461.85	37706.03
462.04	37371.33
462.22	37312.82
462.40	37305.80
462.59	36795.56
462.77	36842.37
462.95	36622.36
463.13	36950.04
463.32	35859.35
463.50	35765.73
463.68	35990.42
463.86	36355.54
464.05	35323.36
464.23	34829.51
464.41	34724.19
464.59	34150.76
464.78	36519.38
464.96	35587.85
465.14	34871.64
465.32	36741.73
465.50	37628.79
465.69	38710.12
465.87	36947.70
466.05	36165.96
466.23	34089.90
466.41	33462.64
466.60	34733.55
466.78	34742.91
466.96	34939.52
467.14	35885.09
467.32	35477.84
467.51	36151.91
467.69	34382.47
467.87	35812.54
468.05	36170.64
468.23	35845.30
468.41	35915.52
468.60	36339.16
468.78	36715.98
468.96	36196.38
469.14	37303.46
469.32	37483.68
469.50	34803.77
469.69	35548.06
469.87	35356.13
470.05	34845.90
470.23	34909.09
470.41	35393.58
470.59	35576.14
470.77	35328.05
470.95	36397.67
471.14	37212.18
471.32	37560.92
471.50	39447.39
471.68	39489.52
471.86	39395.90
472.04	39257.81
472.22	39086.95
472.40	38415.21
472.58	37502.40
472.77	37750.50
472.95	38174.14
473.13	39203.97
473.31	37888.59
473.49	37977.53
473.67	38759.27
473.85	39613.57
474.03	40905.54
474.21	41359.61
474.39	41181.73
474.57	41027.25
474.75	41312.80
474.93	40500.63
475.12	39026.09
475.30	39693.15
475.48	39328.02
475.66	40062.95
475.84	38944.17
476.02	40208.06
476.20	38876.30
476.38	40182.32
476.56	40957.03
476.74	41315.14
476.92	41970.49
477.10	42110.92
477.28	43360.76
477.46	43477.79
477.64	44109.74
477.82	44191.65
478.00	43838.23
478.18	43171.18
478.36	42707.76
478.54	43246.08
478.72	44027.82
478.90	45647.47
479.08	46773.27
479.26	46174.09
479.44	47477.77
479.62	46382.40
479.80	46927.74
479.98	46274.73
480.16	46705.39
480.34	46295.80
480.52	47367.76
480.70	46866.89
480.88	46600.07
481.06	47550.32
481.24	47913.11
481.41	49191.04
481.59	49696.59
481.77	48556.75
481.95	48470.15
482.13	48327.38
482.31	48477.18
482.49	49918.95
482.67	49139.55
482.85	49144.23
483.03	49277.64
483.21	50089.80
483.39	49680.21
483.57	49691.91
483.74	49567.87
483.92	49633.40
484.10	49495.31
484.28	49785.54
484.46	49911.92
484.64	51349.01
484.82	50543.87
485.00	49766.81
485.18	49109.12
485.35	47035.41
485.53	41872.18
485.71	38972.26
485.89	40556.80
486.07	43468.43
486.25	45895.56
486.43	48282.91
486.61	48732.29
486.78	47976.30
486.96	49544.46
487.14	50672.60
487.32	51168.79
487.50	52156.50
487.68	53052.92
487.85	53965.73
488.03	53008.45
488.21	52378.85
488.39	52446.72
488.57	50761.54
488.75	51103.26
488.92	52823.55
489.10	54403.41
489.28	55147.70
489.46	56119.02
489.64	56233.71
489.81	56088.60
489.99	55313.88
490.17	55796.03
490.35	56090.94
490.53	55620.49
490.70	55583.04
490.88	54962.80
491.06	56395.21
491.24	56669.05
491.41	55774.97
491.59	53944.67
491.77	53820.62
491.95	54939.39
492.13	56332.01
492.30	56722.88
492.48	57406.32
492.66	57607.61
492.84	57352.49
493.01	57181.63
493.19	56828.21
493.37	56463.08
493.54	56912.47
493.72	57631.01
493.90	58085.07
494.08	58482.97
494.25	58515.73
494.43	58983.84
494.61	59512.80
494.79	59180.45
494.96	59618.13
495.14	59098.53
495.32	57827.62
495.49	58110.82
495.67	59098.53
495.85	59840.48
496.02	60282.84
496.20	59639.19
496.38	59257.68
496.55	59313.86
496.73	59831.11
496.91	60116.66
497.09	60210.28
497.26	60514.55
497.44	60034.74
497.62	59248.32
497.79	58932.35
497.97	57766.76
498.14	58426.79
498.32	59531.53
498.50	59707.07
498.67	59664.94
498.85	59491.74
499.03	60252.41
499.20	60346.03
499.38	59828.77
499.56	59316.20
499.73	59367.69
499.91	59365.35
500.08	58513.39
500.26	58260.62
500.44	58972.14
500.61	59709.41
500.79	59110.23
500.97	59245.98
501.14	58319.13
501.32	57701.23
501.49	58216.14
501.67	59068.10
501.84	58988.52
502.02	59613.44
502.20	60273.48
502.37	60158.79
502.55	60292.20
502.72	60961.59
502.90	61125.43
503.07	61092.66
503.25	60018.36
503.43	59035.33
503.60	58899.58
503.78	58820.00
503.95	59140.66
504.13	60144.75
504.30	60711.16
504.48	60130.70
504.65	60130.70
504.83	60481.78
505.01	61242.46
505.18	61446.08
505.36	61731.63
505.53	61724.61
505.71	61769.08
505.88	61942.28
506.06	61532.68
506.23	61127.77
506.41	60996.70
506.58	61230.75
506.76	61001.38
506.93	60388.16
507.11	60575.40
507.28	60772.01
507.46	59999.63
507.63	60350.71
507.81	59695.36
507.98	59966.87
508.16	61249.48
508.33	61247.14
508.50	61443.74
508.68	61820.57
508.85	62033.56
509.03	62412.73
509.20	61623.96
509.38	60917.12
509.55	61275.22
509.73	61132.45
509.90	61242.46
510.08	61361.82
510.25	61113.73
510.42	60764.99
510.60	61263.52
510.77	61537.36
510.95	61467.15
511.12	61972.70
511.30	62557.84
511.47	63135.95
511.64	62742.74
511.82	62817.64
511.99	61626.31
512.17	61455.45
512.34	60828.18
512.51	61272.88
512.69	61560.77
512.86	61183.94
513.04	61593.54
513.21	61027.13
513.38	60409.23
513.56	59957.50
513.73	59973.89
513.90	60776.69
514.08	60624.56
514.25	60729.88
514.43	61132.45
514.60	61029.47
514.77	61315.01
514.95	61387.57
515.12	61265.86
515.29	61581.84
515.47	62071.01
515.64	62272.29
515.81	61811.21
515.99	60631.58
516.16	59065.76
516.33	57066.94
516.51	56893.74
516.68	55760.92
516.85	55049.40
517.03	56610.54
517.20	58897.24
517.37	60580.09
517.54	61371.19
517.72	60322.63
517.89	57392.28
518.06	55922.42
518.24	57312.70
518.41	58990.86
518.58	60362.42
518.75	60385.82
518.93	60299.22
519.10	59744.51
519.27	60999.04
519.45	61176.92
519.62	61862.70
519.79	61914.19
519.96	61420.34
520.14	61286.93
520.31	59976.23
520.48	60170.49
520.65	60947.55
520.83	62284.00
521.00	61801.85
521.17	61251.82
521.34	61446.08
521.52	61874.40
521.69	62276.97
521.86	62539.11
522.03	62223.14
522.20	60743.92
522.38	60264.11
522.55	60615.19
522.72	60961.59
522.89	60608.17
523.07	61467.15
523.24	61719.93
523.41	62504.01
523.58	62747.42
523.75	62817.64
523.92	62780.19
524.10	62541.45
524.27	62335.49
524.44	61832.27
524.61	61197.99
524.78	61961.00
524.96	62010.15
525.13	61925.89
525.30	62646.78
525.47	62878.49
525.64	62688.91
525.81	61822.91
525.98	60182.19
526.16	58841.07
526.33	59178.10
526.50	58438.50
526.67	58478.28
526.84	59367.69
527.01	60067.51
527.18	60528.59
527.36	61312.67
527.53	62333.15
527.70	61719.93
527.87	60427.95
528.04	61315.01
528.21	61677.80
528.38	62433.79
528.55	63416.82
528.72	62960.41
528.89	62560.18
529.07	62543.80
529.24	61497.58
529.41	61286.93
529.58	61230.75
529.75	62185.69
529.92	62429.11
530.09	62122.50
530.26	62906.58
530.43	63592.36
530.60	62747.42
530.77	63178.08
530.94	63405.11
531.11	62349.53
531.28	62443.15
531.46	62635.08
531.63	62358.89
531.80	62246.55
531.97	61673.12
532.14	61745.67
532.31	60154.11
532.48	59487.06
532.65	59891.97
532.82	60694.77
532.99	62307.40
533.16	62047.60
533.33	62269.95
533.50	62398.68
533.67	62033.56
533.84	61570.13
534.01	61930.58
534.18	61984.41
534.35	61403.95
534.52	61197.99
534.69	61794.82
534.86	62066.33
535.03	62527.41
535.20	62417.41
535.37	63135.95
535.54	63299.79
535.71	62922.96
535.88	62979.14
536.05	61904.83
536.22	61343.10
536.38	61223.73
536.55	60554.34
536.72	60142.41
536.89	61055.21
537.06	61043.51
537.23	61448.42
537.40	61385.23
537.57	61102.03
537.74	61640.35
537.91	61825.25
538.08	61785.46
538.25	61951.64
538.42	62731.04
538.59	62202.08
538.75	61226.07
538.92	60437.31
539.09	60931.17
539.26	60914.78
539.43	60711.16
539.60	60329.65
539.77	61272.88
539.94	60949.89
540.11	60341.35
540.28	60093.25
540.44	59866.22
540.61	59583.02
540.78	60191.56
540.95	60685.41
541.12	60914.78
541.29	61345.44
541.46	61333.74
541.62	61773.76
541.79	60947.55
541.96	60336.67
542.13	60664.35
542.30	60488.80
542.47	61116.07
542.63	60882.02
542.80	60734.56
542.97	60296.88
543.14	60310.92
543.31	60671.37
543.48	61560.77
543.64	61558.43
543.81	62485.28
543.98	62443.15
544.15	60968.61
544.32	61317.35
544.48	60903.08
544.65	60893.72
544.82	61771.42
544.99	60301.56
545.16	60163.47
545.32	60484.12
545.49	61090.32
545.66	61134.79
545.83	61102.03
546.00	61375.87
546.16	61034.15
546.33	60708.82
546.50	60828.18
546.67	61535.02
546.83	60811.80
547.00	61298.63
547.17	60065.17
547.34	59363.01
547.50	59360.67
547.67	60231.35
547.84	61160.54
548.00	61132.45
548.17	60776.69
548.34	61197.99
548.51	61130.11
548.67	61141.81
548.84	61024.79
549.01	61408.64
549.18	60786.05
549.34	60872.65
549.51	61134.79
549.68	61399.27
549.84	60589.45
550.01	59927.08
550.18	60121.34
550.34	60245.39
550.51	60505.19
550.68	60846.91
550.84	60867.97
551.01	60088.57
551.18	60275.82
551.34	59920.05
551.51	60954.57
551.68	60917.12
551.84	61251.82
552.01	60924.14
552.18	60322.63
552.34	59634.51
552.51	59419.18
552.68	59374.71
552.84	59758.56
553.01	59833.46
553.18	60175.17
553.34	60198.58
553.51	60392.84
553.67	60327.31
553.84	60790.73
554.01	61027.13
554.17	60203.26
554.34	60514.55
554.51	60399.86
554.67	59592.38
554.84	59784.30
555.00	59468.33
555.17	59847.50
555.33	59576.00
555.50	59192.15
555.67	59873.24
555.83	59774.94
556.00	59395.77
556.16	59337.26
556.33	58894.90
556.50	59498.76
556.66	59337.26
556.83	58983.84
556.99	58789.58
557.16	59143.00
557.32	59007.25
557.49	59227.26
557.65	59119.59
557.82	59522.16
557.98	59882.61
558.15	58677.23
558.32	58178.70
558.48	57834.64
558.65	57785.49
558.81	58099.12
558.98	59145.34
559.14	59096.19
559.31	58754.47
559.47	58454.88
559.64	58326.15
559.80	57801.87
559.97	58616.38
560.13	59295.13
560.30	60100.28
560.46	60404.55
560.63	60594.13
560.79	60367.10
560.96	59587.70
561.12	58534.46
561.29	58265.30
561.45	58351.90
561.61	59442.59
561.78	58459.56
561.94	59157.04
562.11	58913.62
562.27	58131.89
562.44	59299.81
562.60	59365.35
562.77	59531.53
562.93	58941.71
563.10	58749.79
563.26	58911.28
563.42	59229.60
563.59	58855.11
563.75	58574.25
563.92	58241.89
564.08	58007.84
564.24	58913.62
564.41	58190.40
564.57	59105.55
564.74	58862.13
564.90	58377.64
565.07	57968.05
565.23	57233.12
565.39	56755.65
565.56	57003.75
565.72	57757.40
565.88	56507.55
566.05	58438.50
566.21	58536.80
566.38	58284.02
566.54	58445.52
566.70	59171.08
566.87	58827.02
567.03	58213.80
567.19	59344.28
567.36	59650.89
567.52	58082.73
567.68	57677.82
567.85	57162.90
568.01	57628.67
568.17	57422.70
568.34	57785.49
568.50	57214.40
568.66	57326.74
568.83	56889.06
568.99	57104.39
569.15	57120.77
569.32	57015.45
569.48	56739.27
569.64	56970.98
569.81	56856.29
569.97	56559.05
570.13	55973.91
570.30	55529.21
570.46	54862.16
570.62	54511.08
570.78	54880.88
570.95	55632.19
571.11	55999.66
571.27	55681.34
571.43	56126.05
571.60	55578.36
571.76	56741.61
571.92	56954.60
572.09	57403.98
572.25	57003.75
572.41	57116.09
572.57	56830.55
572.74	57261.21
572.90	58216.14
573.06	57691.86
573.22	57780.81
573.38	57565.48
573.55	58569.57
573.71	57265.89
573.87	57134.82
574.03	57116.09
574.20	56683.09
574.36	56746.29
574.52	56006.68
574.68	56072.21
574.84	55255.37
575.01	55648.58
575.17	55566.66
575.33	56161.15
575.49	55985.61
575.65	55138.34
575.82	55243.66
575.98	55402.82
576.14	56509.89
576.30	57043.54
576.46	55798.37
576.62	55611.13
576.79	56065.19
576.95	55934.12
577.11	56339.04
577.27	56018.38
577.43	56362.44
577.59	55615.81
577.75	54822.37
577.92	54866.84
578.08	54925.35
578.24	55182.81
578.40	55290.48
578.56	54190.42
578.72	54693.64
578.88	54457.24
579.04	55133.66
579.21	54899.61
579.37	55016.63
579.53	55365.37
579.69	54995.57
579.85	54623.42
580.01	54763.85
580.17	54546.18
580.33	55260.05
580.49	55639.22
580.65	54351.92
580.82	54913.65
580.98	55515.17
581.14	55381.76
581.30	54962.80
581.46	54623.42
581.62	55098.55
581.78	55749.22
581.94	55917.74
582.10	55746.88
582.26	55941.14
582.42	55601.77
582.58	54646.83
582.74	54969.82
582.90	54784.92
583.06	55456.65
583.22	55330.26
583.38	55341.97
583.54	55767.94
583.70	55440.27
583.86	55662.62
584.02	54712.36
584.18	54564.91
584.34	54330.86
584.50	54398.73
584.66	54471.29
584.82	54258.30
584.98	54569.59
585.14	53624.01
585.30	54218.51
