SpectraSuite Data File
++++++++++++++++++++++++++++++++++++
Date: Mon Oct 07 14:55:02 GMT-05:00 2013
User: price-jones
Dark Spectrum Present: No
Reference Spectrum Present: No
Number of Sampled Component Spectra: 1
Spectrometers: USB2+H05261
Integration Time (usec): 10000 (USB2+H05261)
Spectra Averaged: 1 (USB2+H05261)
Boxcar Smoothing: 0 (USB2+H05261)
Correct for Electrical Dark: No (USB2+H05261)
Strobe/Lamp Enabled: No (USB2+H05261)
Correct for Detector Non-linearity: No (USB2+H05261)
Correct for Stray Light: No (USB2+H05261)
Number of Pixels in Processed Spectrum: 2048
>>>>>Begin Processed Spectral Data<<<<<
365.73	0.00
365.92	0.00
366.12	0.00
366.32	0.00
366.52	0.00
366.72	0.00
366.91	0.00
367.11	0.00
367.31	0.00
367.51	0.00
367.70	0.00
367.90	0.00
368.10	0.00
368.30	0.00
368.49	0.00
368.69	0.00
368.89	0.00
369.09	0.00
369.28	0.00
369.48	0.00
369.68	0.00
369.87	0.00
370.07	0.00
370.27	0.00
370.47	479.81
370.66	2733.75
370.86	3119.93
371.06	3356.33
371.25	3405.48
371.45	2965.46
371.65	2656.51
371.84	2473.95
372.04	2801.62
372.24	2939.71
372.44	3119.93
372.63	3131.64
372.83	2780.56
373.03	2464.58
373.22	2382.67
373.42	2602.68
373.62	2925.67
373.81	3169.09
374.01	3042.70
374.21	2600.34
374.40	2560.55
374.60	2810.98
374.79	3365.69
374.99	3665.28
375.19	3880.61
375.38	3772.94
375.58	3606.77
375.78	3555.27
375.97	3571.66
376.17	3604.42
376.37	3796.35
376.56	4021.04
376.76	4077.21
376.95	4381.48
377.15	4702.14
377.35	4767.67
377.54	4922.15
377.74	5179.61
377.93	5291.95
378.13	4849.59
378.33	4617.88
378.52	4250.41
378.72	4257.43
378.91	4121.68
379.11	3974.23
379.31	3808.05
379.50	4079.55
379.70	4430.63
379.89	4788.74
380.09	4971.30
380.28	5128.11
380.48	5095.35
380.68	4929.17
380.87	4924.49
381.07	4294.88
381.26	4051.47
381.46	3833.80
381.65	3737.84
381.85	3728.47
382.04	3485.06
382.24	3148.02
382.43	3201.85
382.63	3199.51
382.83	3038.02
383.02	3049.72
383.22	3117.59
383.41	3208.87
383.61	3480.38
383.80	3941.46
384.00	4521.92
384.19	5011.09
384.39	5085.98
384.58	5085.98
384.78	4828.53
384.97	4908.10
385.17	4629.58
385.36	4322.97
385.56	4131.05
385.75	4535.96
385.95	5027.47
386.14	5359.83
386.34	5212.37
386.53	5060.24
386.72	4734.90
386.92	4826.18
387.11	5032.15
387.31	5210.03
387.50	5163.22
387.70	5109.39
387.89	4903.42
388.09	5076.62
388.28	4950.23
388.48	5137.48
388.67	5570.48
388.86	6118.16
389.06	6740.74
389.25	7021.61
389.45	7035.65
389.64	6677.55
389.84	6647.12
390.03	6506.69
390.22	6977.14
390.42	7068.42
390.61	7548.23
390.81	8039.74
391.00	8133.36
391.19	8009.31
391.39	7786.96
391.58	7358.64
391.78	6773.51
391.97	6562.86
392.16	6047.94
392.36	5355.15
392.55	4196.58
392.75	3382.07
392.94	2794.60
393.13	3016.95
393.33	3726.13
393.52	4753.63
393.71	5638.35
393.91	6078.37
394.10	6806.28
394.29	7665.25
394.49	8018.68
394.68	8582.74
394.88	8519.55
395.07	8798.07
395.26	8631.90
395.46	8589.77
395.65	7758.88
395.84	6722.02
396.04	5387.91
396.23	4498.51
396.42	3899.33
396.62	3929.76
396.81	4870.65
397.00	5996.45
397.19	7852.50
397.39	9050.85
397.58	9923.87
397.77	10619.01
397.97	10862.43
398.16	10890.51
398.35	11421.81
398.55	11716.72
398.74	11988.22
398.93	12203.55
399.12	12140.36
399.32	11918.01
399.51	11997.59
399.70	12915.08
399.90	12613.15
400.09	12334.62
400.28	12276.11
400.47	12449.31
400.67	13200.62
400.86	13757.67
401.05	13748.31
401.24	13635.96
401.44	13769.37
401.63	13930.87
401.82	13895.76
402.01	13898.10
402.21	14216.41
402.40	14031.51
402.59	13605.53
402.78	12952.52
402.97	12877.63
403.17	13495.53
403.36	14190.67
403.55	14537.07
403.74	14897.51
403.93	13645.32
404.13	12994.65
404.32	12795.71
404.51	13841.93
404.70	14361.53
404.89	14136.84
405.09	14295.99
405.28	14003.43
405.47	13874.70
405.66	14066.62
405.85	13245.09
406.05	13174.88
406.24	13619.58
406.43	14239.82
406.62	14347.48
406.81	14464.51
407.00	14305.35
407.20	13916.83
407.39	13916.83
407.58	14670.48
407.77	15403.07
407.96	15632.44
408.15	15742.44
408.34	16283.11
408.54	16655.25
408.73	16638.87
408.92	16299.49
409.11	15501.37
409.30	14661.12
409.49	13696.82
409.68	13235.73
409.87	12800.39
410.07	14286.63
410.26	15049.64
410.45	15627.76
410.64	16027.99
410.83	16938.46
411.02	16879.94
411.21	17781.05
411.40	17287.20
411.59	17507.21
411.78	17465.08
411.98	17490.82
412.17	17523.59
412.36	17092.93
412.55	17364.43
412.74	16912.71
412.93	16837.81
413.12	17436.99
413.31	19005.15
413.50	18735.99
413.69	18806.20
413.88	18064.25
414.07	17745.94
414.26	18183.62
414.45	18925.57
414.64	18466.83
414.83	18544.06
415.02	18214.05
415.22	18497.25
415.41	19019.19
415.60	19576.24
415.79	20074.77
415.98	20362.66
416.17	20276.06
416.36	20027.96
416.55	19613.69
416.74	18668.11
416.93	18415.34
417.12	18864.72
417.31	18726.63
417.50	19253.25
417.69	19903.92
417.88	19358.57
418.07	19438.15
418.26	19309.42
418.45	19843.06
418.64	20561.61
418.83	21427.60
419.02	20570.97
419.21	20056.05
419.39	19166.65
419.58	18469.17
419.77	18768.76
419.96	20086.48
420.15	20870.56
420.34	21858.26
420.53	21867.63
420.72	22431.69
420.91	21986.99
421.10	21656.98
421.29	21118.65
421.48	21291.85
421.67	22059.55
421.86	20795.66
422.05	19077.71
422.24	17413.59
422.43	18635.35
422.61	20573.31
422.80	21259.09
422.99	20709.06
423.18	20255.00
423.37	20037.33
423.56	20196.48
423.75	20882.26
423.94	21399.52
424.13	20088.82
424.32	19943.70
424.50	19754.12
424.69	20074.77
424.88	20711.40
425.07	20276.06
425.26	20299.47
425.45	19520.07
425.64	19194.73
425.83	19758.80
426.01	20795.66
426.20	20592.03
426.39	20889.28
426.58	19084.73
426.77	18080.64
426.96	17980.00
427.15	18555.77
427.33	19962.43
427.52	20226.91
427.71	20545.22
427.90	20016.26
428.09	20100.52
428.28	19311.76
428.46	18494.91
428.65	18359.16
428.84	19307.08
429.03	19138.56
429.22	18192.98
429.40	16634.19
429.59	15342.21
429.78	13879.38
429.97	14118.11
430.16	13991.72
430.34	14162.58
430.53	14635.37
430.72	15634.78
430.91	16643.55
431.10	20072.43
431.28	23068.32
431.47	24500.73
431.66	24112.20
431.85	21252.06
432.03	19711.99
432.22	19740.08
432.41	21645.27
432.60	22979.38
432.79	23758.78
432.97	23943.68
433.16	23019.17
433.35	20503.09
433.54	18616.62
433.72	18473.85
433.91	19550.49
434.10	21546.97
434.28	23005.13
434.47	24046.66
434.66	22960.66
434.85	22457.44
435.03	23075.34
435.22	23384.29
435.41	24397.74
435.59	24694.99
435.78	24982.88
435.97	25809.09
436.16	25645.25
436.34	25535.24
436.53	24718.40
436.72	25083.52
436.90	23704.95
437.09	23730.69
437.28	23206.41
437.46	24182.42
437.65	23122.15
437.84	21610.17
438.02	20528.84
438.21	21006.31
438.40	21745.92
438.58	23440.47
438.77	24032.62
438.96	24187.10
439.14	25685.04
439.33	25813.77
439.52	26288.90
439.70	25123.31
439.89	24395.40
440.08	24215.18
440.26	24776.91
440.45	25434.60
440.63	27419.38
440.82	27908.55
441.01	27459.16
441.19	27374.91
441.38	28828.38
441.57	29605.44
441.75	29317.55
441.94	29518.84
442.12	29708.42
442.31	30197.59
442.50	29766.93
442.68	29252.02
442.87	29200.52
443.05	28584.96
443.24	29610.12
443.43	29748.21
443.61	30644.63
443.80	30700.81
443.98	30103.97
444.17	28978.17
444.35	30693.79
444.54	31358.50
444.73	30749.96
444.91	29198.18
445.10	28187.07
445.28	27379.59
445.47	26869.35
445.65	27190.00
445.84	28379.00
446.02	28620.07
446.21	29109.24
446.39	29600.76
446.58	29883.96
446.77	30679.74
446.95	30888.05
447.14	31353.82
447.32	31950.65
447.51	31377.22
447.69	29888.64
447.88	29848.85
448.06	30487.82
448.25	31168.91
448.43	30504.20
448.62	29919.07
448.80	30347.39
448.99	30473.78
449.17	30909.11
449.36	30951.24
449.54	32254.92
449.73	32367.27
449.91	33057.73
450.10	34244.38
450.28	34101.61
450.46	34043.09
450.65	34075.86
450.83	33324.55
451.02	33376.04
451.20	33003.89
451.39	33071.77
451.57	33134.96
451.76	33003.89
451.94	32051.30
452.13	31601.91
452.31	29738.85
452.49	28697.31
452.68	29214.57
452.86	29893.32
453.05	30148.44
453.23	31805.54
453.42	31878.10
453.60	32795.59
453.78	32566.21
453.97	32261.94
454.15	31864.05
454.34	31129.12
454.52	30527.61
454.70	30803.79
454.89	31737.66
455.07	31262.54
455.26	32275.99
455.44	33069.43
455.62	33914.36
455.81	33684.99
455.99	33591.37
456.17	33710.74
456.36	34487.79
456.54	34543.97
456.73	34174.16
456.91	34579.07
457.09	35016.75
457.28	35754.02
457.46	33975.22
457.64	33748.18
457.83	33324.55
458.01	32973.47
458.19	33912.02
458.38	34682.06
458.56	34651.63
458.74	34471.41
458.93	33542.22
459.11	33144.33
459.29	33577.33
459.48	34183.52
459.66	33708.40
459.84	33872.23
460.03	33762.23
460.21	34431.62
460.39	35019.10
460.57	34855.26
460.76	34707.80
460.94	35601.89
461.12	35622.95
461.31	35456.78
461.49	35218.04
461.67	35484.86
461.85	36247.88
462.04	36142.55
462.22	36493.63
462.40	36128.51
462.59	35662.74
462.77	36133.19
462.95	35754.02
463.13	35828.92
463.32	35126.76
463.50	34609.50
463.68	34960.58
463.86	35346.77
464.05	33972.88
464.23	33954.15
464.41	34117.99
464.59	33715.42
464.78	34983.99
464.96	34438.64
465.14	33481.36
465.32	35864.03
465.50	37226.22
465.69	37591.34
465.87	36161.28
466.05	35264.85
466.23	33427.53
466.41	32816.65
466.60	34164.80
466.78	33743.50
466.96	34462.05
467.14	35358.47
467.32	34834.19
467.51	34855.26
467.69	33446.26
467.87	34258.42
468.05	34976.97
468.23	34888.03
468.41	35058.88
468.60	35536.35
468.78	35807.86
468.96	34682.06
469.14	35899.14
469.32	36580.23
469.50	34080.54
469.69	34368.43
469.87	34333.32
470.05	33928.41
470.23	34120.33
470.41	34761.64
470.59	35079.95
470.77	34946.54
470.95	35459.12
471.14	36282.98
471.32	36416.40
471.50	38363.72
471.68	37979.87
471.86	38616.50
472.04	38225.63
472.22	38239.67
472.40	36947.70
472.58	36704.28
472.77	36643.43
472.95	37055.36
473.13	38024.34
473.31	36858.76
473.49	36828.33
473.67	37663.90
473.85	38085.20
474.03	40030.18
474.21	40079.33
474.39	40144.87
474.57	39751.66
474.75	40016.14
474.93	39498.88
475.12	38433.94
475.30	38759.27
475.48	38141.37
475.66	38644.59
475.84	38370.74
476.02	38871.62
476.20	37956.47
476.38	38799.06
476.56	40247.85
476.74	40966.40
476.92	41036.61
477.10	40917.25
477.28	42157.73
477.46	42389.44
477.64	43566.73
477.82	43016.71
478.00	43063.52
478.18	41944.74
478.36	41532.81
478.54	42447.96
478.72	42801.38
478.90	44390.60
479.08	45951.74
479.26	45296.39
479.44	45865.14
479.62	44933.60
479.80	45734.07
479.98	45282.34
480.16	45680.24
480.34	45193.40
480.52	46185.79
480.70	45970.46
480.88	45872.16
481.06	46483.04
481.24	46777.95
481.41	48083.97
481.59	48926.56
481.77	47358.40
481.95	47342.02
482.13	47220.31
482.31	47746.93
482.49	48568.46
482.67	47978.64
482.85	47737.57
483.03	47873.32
483.21	48935.92
483.39	48921.88
483.57	48318.02
483.74	48158.86
483.92	48430.36
484.10	48428.02
484.28	48910.17
484.46	48629.31
484.64	50354.29
484.82	49516.37
485.00	48566.12
485.18	48215.04
485.35	45914.29
485.53	40212.74
485.71	37977.53
485.89	39374.83
486.07	42532.22
486.25	44601.25
486.43	47122.01
486.61	47812.46
486.78	47196.90
486.96	48186.95
487.14	49415.73
487.32	50340.24
487.50	51454.34
487.68	52198.63
487.85	52910.15
488.03	52240.76
488.21	52032.45
488.39	51414.55
488.57	50485.36
488.75	50347.26
488.92	51667.33
489.10	53549.12
489.28	54169.36
489.46	55449.63
489.64	55065.78
489.81	55346.65
489.99	54450.22
490.17	54937.05
490.35	55131.32
490.53	54630.44
490.70	54452.56
490.88	54466.61
491.06	55641.56
491.24	55955.19
491.41	54688.96
491.59	53104.41
491.77	53104.41
491.95	54239.57
492.13	55646.24
492.30	56053.49
492.48	56650.33
492.66	56743.95
492.84	56577.77
493.01	56217.33
493.19	56229.03
493.37	55664.96
493.54	55805.39
493.72	56945.23
493.90	57436.75
494.08	57696.55
494.25	57701.23
494.43	58197.42
494.61	58714.68
494.79	58590.63
494.96	58974.48
495.14	58501.69
495.32	56985.02
495.49	57305.68
495.67	58527.44
495.85	59250.66
496.02	59524.50
496.20	58754.47
496.38	58576.59
496.55	58691.27
496.73	59423.86
496.91	59458.97
497.09	59393.43
497.26	59990.27
497.44	59304.49
497.62	58614.04
497.79	57790.17
497.97	57127.80
498.14	57827.62
498.32	58871.49
498.50	59159.38
498.67	58812.98
498.85	59075.12
499.03	59601.74
499.20	59938.78
499.38	59208.53
499.56	58644.46
499.73	58583.61
499.91	58422.11
500.08	57958.69
500.26	57490.58
500.44	58394.03
500.61	58691.27
500.79	58450.20
500.97	58513.39
501.14	57825.28
501.32	57095.03
501.49	57656.76
501.67	58047.63
501.84	58323.81
502.02	58834.05
502.20	59367.69
502.37	59568.97
502.55	59498.76
502.72	60137.72
502.90	60526.25
503.07	60229.01
503.25	59201.51
503.43	58511.05
503.60	58073.37
503.78	57935.28
503.95	58466.58
504.13	59475.35
504.30	59980.91
504.48	59262.36
504.65	59723.45
504.83	59601.74
505.01	60315.61
505.18	60694.77
505.36	61116.07
505.53	60935.85
505.71	60954.57
505.88	61340.76
506.06	60659.66
506.23	60591.79
506.41	60259.43
506.58	60519.23
506.76	60444.33
506.93	59887.29
507.11	59758.56
507.28	59906.01
507.46	59274.07
507.63	59482.37
507.81	59103.21
507.98	59391.09
508.16	60514.55
508.33	60343.69
508.50	60610.51
508.68	61095.00
508.85	61366.51
509.03	61712.91
509.20	61153.52
509.38	60329.65
509.55	60385.82
509.73	60374.12
509.90	60484.12
510.08	60835.20
510.25	60231.35
510.42	60088.57
510.60	60491.15
510.77	60797.76
510.95	60849.25
511.12	61382.89
511.30	61764.40
511.47	62225.48
511.64	62181.01
511.82	62101.43
511.99	60879.67
512.17	60788.39
512.34	60271.14
512.51	60839.89
512.69	61073.94
512.86	60416.25
513.04	60734.56
513.21	60371.78
513.38	59655.57
513.56	59363.01
513.73	59145.34
513.90	60097.94
514.08	59976.23
514.25	59655.57
514.43	60334.33
514.60	60451.36
514.77	60535.62
514.95	60713.50
515.12	60692.43
515.29	61212.03
515.47	61457.79
515.64	61343.10
515.81	61286.93
515.99	59929.42
516.16	58344.87
516.33	56236.05
516.51	56219.67
516.68	54637.47
516.85	53923.60
517.03	55959.87
517.20	57982.09
517.37	60053.47
517.54	60767.33
517.72	59395.77
517.89	56673.73
518.06	55269.41
518.24	56559.05
518.41	58557.86
518.58	59559.61
518.75	59728.13
518.93	59402.80
519.10	58948.73
519.27	60123.68
519.45	60617.53
519.62	61109.05
519.79	61209.69
519.96	60619.88
520.14	60378.80
520.31	59416.84
520.48	59484.72
520.65	60395.18
520.83	61261.18
521.00	61010.74
521.17	60605.83
521.34	60687.75
521.52	61062.24
521.69	61593.54
521.86	61691.84
522.03	61343.10
522.20	59910.69
522.38	59533.87
522.55	59845.16
522.72	60172.83
522.89	59728.13
523.07	60729.88
523.24	61272.88
523.41	61872.06
523.58	62344.85
523.75	62148.24
523.92	62085.05
524.10	61663.75
524.27	61469.49
524.44	61155.86
524.61	60556.68
524.78	61216.71
524.96	61413.32
525.13	61350.12
525.30	62021.86
525.47	62073.35
525.64	62049.94
525.81	61073.94
525.98	59351.30
526.16	58288.70
526.33	58497.01
526.50	57785.49
526.67	57979.75
526.84	58614.04
527.01	59428.54
527.18	59784.30
527.36	60392.84
527.53	61499.92
527.70	60853.93
527.87	59803.03
528.04	60811.80
528.21	61336.08
528.38	61783.12
528.55	62644.44
528.72	62323.78
528.89	61918.87
529.07	61951.64
529.24	60615.19
529.41	60598.81
529.58	60584.77
529.75	61394.59
529.92	61652.05
530.09	61338.42
530.26	62096.75
530.43	62731.04
530.60	61874.40
530.77	62464.22
530.94	62611.67
531.11	61537.36
531.28	61668.44
531.46	61841.63
531.63	61647.37
531.80	61469.49
531.97	61038.83
532.14	60832.86
532.31	59355.99
532.48	58838.73
532.65	59306.83
532.82	59788.98
532.99	61315.01
533.16	61602.90
533.33	61481.19
533.50	61577.15
533.67	61329.06
533.84	60879.67
534.01	61165.22
534.18	61275.22
534.35	60956.91
534.52	60324.97
534.69	60994.36
534.86	61387.57
535.03	61928.23
535.20	61883.76
535.37	62651.46
535.54	62590.61
535.71	62410.38
535.88	62424.43
536.05	61286.93
536.22	60605.83
536.38	60481.78
536.55	59955.16
536.72	59526.84
536.89	60109.64
537.06	60296.88
537.23	60739.24
537.40	60591.79
537.57	60432.63
537.74	60903.08
537.91	61158.20
538.08	60942.87
538.25	61132.45
538.42	61785.46
538.59	61230.75
538.75	60282.84
538.92	59662.60
539.09	60196.24
539.26	60126.02
539.43	60224.32
539.60	59597.06
539.77	60526.25
539.94	60130.70
540.11	59653.23
540.28	59143.00
540.44	58852.77
540.61	59014.27
540.78	59564.29
540.95	59807.71
541.12	60229.01
541.29	60896.06
541.46	60741.58
541.62	60970.96
541.79	60395.18
541.96	59739.83
542.13	59882.61
542.30	59891.97
542.47	60156.45
542.63	60322.63
542.80	60048.78
542.97	59386.41
543.14	59671.96
543.31	59814.73
543.48	60736.90
543.64	60914.78
543.81	61729.29
543.98	61574.81
544.15	60158.79
544.32	60926.49
544.48	60261.77
544.65	60425.61
544.82	60673.71
544.99	59618.13
545.16	59107.89
545.32	59456.63
545.49	60285.18
545.66	60383.48
545.83	60179.85
546.00	60657.32
546.16	60470.08
546.33	60062.83
546.50	60062.83
546.67	60762.65
546.83	60046.44
547.00	60605.83
547.17	59264.70
547.34	58429.13
547.50	58681.91
547.67	59547.91
547.84	60406.89
548.00	60465.40
548.17	60097.94
548.34	60402.21
548.51	60552.00
548.67	60406.89
548.84	60360.08
549.01	60596.47
549.18	59929.42
549.34	60193.90
549.51	60535.62
549.68	60535.62
549.84	59929.42
550.01	59353.65
550.18	59316.20
550.34	59386.41
550.51	59962.18
550.68	60240.71
550.84	60226.66
551.01	59180.45
551.18	59262.36
551.34	58885.54
551.51	60067.51
551.68	60130.70
551.84	60411.57
552.01	59971.55
552.18	59463.65
552.34	58787.24
552.51	58670.21
552.68	58632.76
552.84	58866.81
553.01	59257.68
553.18	59494.08
553.34	59393.43
553.51	59788.98
553.67	59676.64
553.84	59739.83
554.01	60133.04
554.17	59320.88
554.34	59707.07
554.51	59657.91
554.67	58805.96
554.84	59063.42
555.00	58707.66
555.17	59058.74
555.33	58944.05
555.50	58232.53
555.67	59096.19
555.83	58944.05
556.00	58658.51
556.16	58679.57
556.33	58223.17
556.50	58735.74
556.66	58628.08
556.83	58251.25
556.99	58049.97
557.16	58499.35
557.32	58028.90
557.49	58649.14
557.65	58262.96
557.82	58812.98
557.98	59070.44
558.15	58136.57
558.32	57254.18
558.48	56966.30
558.65	57179.29
558.81	57331.42
558.98	58237.21
559.14	58166.99
559.31	58120.18
559.47	57549.09
559.64	57605.26
559.80	57118.43
559.97	57888.47
560.13	58232.53
560.30	59330.24
560.46	59700.04
560.63	59618.13
560.79	59597.06
560.96	58871.49
561.12	57890.81
561.29	57708.25
561.45	57436.75
561.61	58618.72
561.78	57853.36
561.94	58340.19
562.11	58265.30
562.27	57528.03
562.44	58489.99
562.60	58574.25
562.77	58869.15
562.93	58026.56
563.10	57993.79
563.26	58014.86
563.42	58358.92
563.59	57958.69
563.75	57684.84
563.92	57537.39
564.08	57429.72
564.24	58197.42
564.41	57399.30
564.57	58482.97
564.74	58174.02
564.90	57329.08
565.07	57155.88
565.23	56203.28
565.39	55868.59
565.56	56378.82
565.72	56938.21
565.88	55620.49
566.05	57516.32
566.21	57771.44
566.38	57242.48
566.54	57698.89
566.70	58255.93
566.87	57839.32
567.03	57305.68
567.19	58571.91
567.36	58649.14
567.52	57272.91
567.68	56626.92
567.85	56109.66
568.01	56610.54
568.17	56676.07
568.34	56935.87
568.50	56554.36
568.66	56341.38
568.83	55941.14
568.99	55817.10
569.15	56123.71
569.32	56107.32
569.48	56247.75
569.64	56107.32
569.81	55859.23
569.97	55543.25
570.13	55084.51
570.30	54717.04
570.46	54160.00
570.62	53635.72
570.78	54005.52
570.95	54749.81
571.11	54951.10
571.27	54454.90
571.43	55054.08
571.60	54864.50
571.76	55870.93
571.92	56243.07
572.09	56573.09
572.25	56226.69
572.41	56451.38
572.57	55976.25
572.74	56423.29
572.90	57446.11
573.06	56816.50
573.22	56687.78
573.38	56711.18
573.55	57668.46
573.71	56268.82
573.87	56278.18
574.03	56362.44
574.20	55910.72
574.36	55538.57
574.52	55208.56
574.68	55187.49
574.84	54368.30
575.01	54555.55
575.17	54873.86
575.33	55124.30
575.49	55159.41
575.65	53954.03
575.82	54593.00
575.98	54527.46
576.14	55648.58
576.30	56121.37
576.46	54885.56
576.62	54939.39
576.79	55061.10
576.95	55154.72
577.11	55620.49
577.27	55182.81
577.43	55395.80
577.59	54731.09
577.75	53457.84
577.92	53591.25
578.08	53951.69
578.24	54408.09
578.40	54515.76
578.56	53361.87
578.72	53659.12
578.88	53499.97
579.04	54108.50
579.21	53717.64
579.37	54064.03
579.53	54482.99
579.69	53865.09
579.85	53628.69
580.01	53832.32
580.17	53705.93
580.33	54389.37
580.49	54843.43
580.65	53340.81
580.82	53820.62
580.98	54466.61
581.14	54625.76
581.30	54291.07
581.46	53930.62
581.62	54178.72
581.78	54897.27
581.94	54986.21
582.10	54817.69
582.26	54934.71
582.42	54569.59
582.58	53848.71
582.74	53972.75
582.90	53900.20
583.06	54508.74
583.22	54192.76
583.38	54384.69
583.54	54897.27
583.70	55058.76
583.86	54688.96
584.02	53825.30
584.18	53518.69
584.34	53216.76
584.50	53127.82
584.66	53588.91
584.82	53530.39
584.98	53621.67
585.14	52861.00
585.30	52905.47
