SpectraSuite Data File
++++++++++++++++++++++++++++++++++++
Date: Mon Oct 07 14:54:56 GMT-05:00 2013
User: price-jones
Dark Spectrum Present: No
Reference Spectrum Present: No
Number of Sampled Component Spectra: 1
Spectrometers: USB2+H05261
Integration Time (usec): 10000 (USB2+H05261)
Spectra Averaged: 1 (USB2+H05261)
Boxcar Smoothing: 0 (USB2+H05261)
Correct for Electrical Dark: No (USB2+H05261)
Strobe/Lamp Enabled: No (USB2+H05261)
Correct for Detector Non-linearity: No (USB2+H05261)
Correct for Stray Light: No (USB2+H05261)
Number of Pixels in Processed Spectrum: 2048
>>>>>Begin Processed Spectral Data<<<<<
365.73	0.00
365.92	0.00
366.12	0.00
366.32	0.00
366.52	0.00
366.72	0.00
366.91	0.00
367.11	0.00
367.31	0.00
367.51	0.00
367.70	0.00
367.90	0.00
368.10	0.00
368.30	0.00
368.49	0.00
368.69	0.00
368.89	0.00
369.09	0.00
369.28	0.00
369.48	0.00
369.68	0.00
369.87	0.00
370.07	0.00
370.27	0.00
370.47	0.00
370.66	311.29
370.86	297.25
371.06	287.89
371.25	407.25
371.45	215.33
371.65	379.17
371.84	252.78
372.04	168.52
372.24	271.50
372.44	355.76
372.63	294.91
372.83	271.50
373.03	241.08
373.22	212.99
373.42	166.18
373.62	292.57
373.81	430.66
374.01	358.10
374.21	315.97
374.40	278.52
374.60	292.57
374.79	332.36
374.99	472.79
375.19	477.47
375.38	442.36
375.58	433.00
375.78	425.98
375.97	430.66
376.17	463.43
376.37	461.09
376.56	425.98
376.76	510.24
376.95	603.86
377.15	517.26
377.35	648.33
377.54	690.46
377.74	641.31
377.93	636.63
378.13	711.52
378.33	559.39
378.52	449.38
378.72	458.74
378.91	557.05
379.11	475.13
379.31	400.23
379.50	409.59
379.70	540.66
379.89	587.47
380.09	601.52
380.28	603.86
380.48	634.29
380.68	704.50
380.87	643.65
381.07	561.73
381.26	524.28
381.46	430.66
381.65	337.04
381.85	353.42
382.04	294.91
382.24	201.29
382.43	287.89
382.63	285.55
382.83	220.01
383.02	318.31
383.22	313.63
383.41	257.46
383.61	372.15
383.80	376.83
384.00	477.47
384.19	512.58
384.39	596.84
384.58	561.73
384.78	568.75
384.97	603.86
385.17	561.73
385.36	547.69
385.56	482.15
385.75	479.81
385.95	564.07
386.14	608.54
386.34	709.18
386.53	557.05
386.72	524.28
386.92	592.16
387.11	608.54
387.31	615.56
387.50	676.41
387.70	587.47
387.89	594.50
388.09	575.77
388.28	571.09
388.48	521.94
388.67	599.18
388.86	800.46
389.06	828.55
389.25	812.17
389.45	784.08
389.64	774.72
389.84	849.61
390.03	786.42
390.22	854.30
390.42	812.17
390.61	971.32
390.81	1041.54
391.00	999.41
391.19	901.11
391.39	873.02
391.58	863.66
391.78	856.64
391.97	819.19
392.16	709.18
392.36	669.39
392.55	430.66
392.75	360.44
392.94	297.25
393.13	182.56
393.33	255.12
393.52	545.34
393.71	655.35
393.91	727.91
394.10	828.55
394.29	863.66
394.49	936.21
394.68	976.00
394.88	990.05
395.07	1123.46
395.26	1025.15
395.46	1046.22
395.65	954.94
395.84	931.53
396.04	660.03
396.23	507.90
396.42	344.06
396.62	379.17
396.81	463.43
397.00	608.54
397.19	856.64
397.39	1032.18
397.58	1156.22
397.77	1439.43
397.97	1362.19
398.16	1331.76
398.35	1357.51
398.55	1394.96
398.74	1500.28
398.93	1500.28
399.12	1469.86
399.32	1502.62
399.51	1327.08
399.70	1530.71
399.90	1540.07
400.09	1519.01
400.28	1610.29
400.47	1603.27
400.67	1626.67
400.86	1722.63
401.05	1703.91
401.24	1685.19
401.44	1652.42
401.63	1818.60
401.82	1785.83
402.01	1717.95
402.21	1746.04
402.40	1671.14
402.59	1788.17
402.78	1570.50
402.97	1614.97
403.17	1612.63
403.36	1776.47
403.55	1804.55
403.74	1888.81
403.93	1729.66
404.13	1673.48
404.32	1523.69
404.51	1610.29
404.70	1842.00
404.89	1753.06
405.09	1799.87
405.28	1659.44
405.47	1619.65
405.66	1640.72
405.85	1575.18
406.05	1547.09
406.24	1650.08
406.43	1671.14
406.62	1764.76
406.81	1640.72
407.00	1645.40
407.20	1661.78
407.39	1521.35
407.58	1715.61
407.77	1802.21
407.96	1881.79
408.15	1853.70
408.34	1792.85
408.54	2036.27
408.73	1996.48
408.92	1973.07
409.11	1827.96
409.30	1769.44
409.49	1605.61
409.68	1535.39
409.87	1516.67
410.07	1610.29
410.26	1762.42
410.45	1933.28
410.64	1942.64
410.83	1947.33
411.02	2019.88
411.21	2080.74
411.40	2008.18
411.59	1968.39
411.78	2073.71
411.98	2015.20
412.17	2141.59
412.36	2073.71
412.55	2019.88
412.74	2029.24
412.93	1900.52
413.12	1949.67
413.31	2143.93
413.50	2209.47
413.69	2216.49
413.88	2052.65
414.07	2036.27
414.26	2078.40
414.45	2179.04
414.64	2118.18
414.83	2230.53
415.02	2155.63
415.22	2057.33
415.41	2221.17
415.60	2260.96
415.79	2403.73
415.98	2438.84
416.17	2502.03
416.36	2359.26
416.55	2331.17
416.74	2139.25
416.93	2015.20
417.12	2085.42
417.31	2221.17
417.50	2139.25
417.69	2230.53
417.88	2204.78
418.07	2136.91
418.26	2064.35
418.45	2141.59
418.64	2293.72
418.83	2338.20
419.02	2293.72
419.21	2310.11
419.39	2200.10
419.58	2099.46
419.77	2054.99
419.96	2258.62
420.15	2312.45
420.34	2443.52
420.53	2518.42
420.72	2605.02
420.91	2654.17
421.10	2513.74
421.29	2363.94
421.48	2406.07
421.67	2464.58
421.86	2370.96
422.05	2237.55
422.24	2071.37
422.43	2031.58
422.61	2153.29
422.80	2406.07
422.99	2431.82
423.18	2368.62
423.37	2167.34
423.56	2258.62
423.75	2200.10
423.94	2214.15
424.13	2253.94
424.32	2286.70
424.50	2200.10
424.69	2223.51
424.88	2139.25
425.07	2218.83
425.26	2062.01
425.45	2188.40
425.64	2197.76
425.83	2087.76
426.01	2218.83
426.20	2298.41
426.39	2347.56
426.58	2097.12
426.77	1933.28
426.96	1832.64
427.15	2026.90
427.33	2218.83
427.52	2260.96
427.71	2172.02
427.90	2179.04
428.09	2148.61
428.28	2031.58
428.46	1966.05
428.65	1968.39
428.84	1959.03
429.03	2017.54
429.22	1839.66
429.40	1834.98
429.59	1572.84
429.78	1549.43
429.97	1434.75
430.16	1462.83
430.34	1355.17
430.53	1448.79
430.72	1526.03
430.91	1757.74
431.10	2001.16
431.28	2424.80
431.47	2504.37
431.66	2600.34
431.85	2345.22
432.03	2172.02
432.22	2090.10
432.41	2162.66
432.60	2471.61
432.79	2483.31
432.97	2438.84
433.16	2455.22
433.35	2289.04
433.54	2031.58
433.72	1933.28
433.91	1919.24
434.10	2150.95
434.28	2380.32
434.47	2523.10
434.66	2466.92
434.85	2382.67
435.03	2427.14
435.22	2434.16
435.41	2619.06
435.59	2644.81
435.78	2705.66
435.97	2672.89
436.16	2717.36
436.34	2602.68
436.53	2551.18
436.72	2644.81
436.90	2480.97
437.09	2469.27
437.28	2359.26
437.46	2530.12
437.65	2417.77
437.84	2282.02
438.02	2062.01
438.21	2101.80
438.40	2277.34
438.58	2415.43
438.77	2410.75
438.96	2516.08
439.14	2612.04
439.33	2623.74
439.52	2775.88
439.70	2764.17
439.89	2661.19
440.08	2532.46
440.26	2490.33
440.45	2637.78
440.63	2780.56
440.82	2892.90
441.01	2939.71
441.19	2892.90
441.38	2750.13
441.57	3101.21
441.75	2986.52
441.94	3068.44
442.12	3159.72
442.31	3213.56
442.50	3119.93
442.68	3126.96
442.87	2963.12
443.05	2988.86
443.24	3038.02
443.43	3171.43
443.61	3141.00
443.80	3178.45
443.98	2979.50
444.17	3042.70
444.35	3206.53
444.54	3265.05
444.73	3192.49
444.91	3164.40
445.10	2942.05
445.28	2768.85
445.47	2839.07
445.65	2736.09
445.84	2923.33
446.02	3012.27
446.21	3007.59
446.39	3122.27
446.58	2984.18
446.77	3059.08
446.95	3143.34
447.14	3258.03
447.32	3243.98
447.51	3117.59
447.69	3082.49
447.88	2974.82
448.06	3091.85
448.25	3145.68
448.43	3091.85
448.62	3087.17
448.80	2953.76
448.99	3150.36
449.17	3089.51
449.36	3103.55
449.54	3300.16
449.73	3281.43
449.91	3431.23
450.10	3407.82
450.28	3424.20
450.46	3281.43
450.65	3433.57
450.83	3386.76
451.02	3332.92
451.20	3328.24
451.39	3421.86
451.57	3204.19
451.76	3365.69
451.94	3211.22
452.13	3148.02
452.31	2932.69
452.49	2916.31
452.68	3091.85
452.86	2998.23
453.05	2902.26
453.23	3089.51
453.42	3030.99
453.60	3290.79
453.78	3251.00
453.97	3166.74
454.15	3131.64
454.34	3096.53
454.52	3089.51
454.70	3016.95
454.89	3070.78
455.07	3082.49
455.26	3164.40
455.44	3258.03
455.62	3379.73
455.81	3311.86
455.99	3459.31
456.17	3314.20
456.36	3262.71
456.54	3328.24
456.73	3396.12
456.91	3428.88
457.09	3501.44
457.28	3515.48
457.46	3382.07
457.64	3330.58
457.83	3251.00
458.01	3265.05
458.19	3255.69
458.38	3321.22
458.56	3513.14
458.74	3396.12
458.93	3454.63
459.11	3424.20
459.29	3353.99
459.48	3318.88
459.66	3246.32
459.84	3267.39
460.03	3272.07
460.21	3386.76
460.39	3283.77
460.57	3473.36
460.76	3578.68
460.94	3550.59
461.12	3440.59
461.31	3314.20
461.49	3459.31
461.67	3421.86
461.85	3454.63
462.04	3616.13
462.22	3552.93
462.40	3604.42
462.59	3478.04
462.77	3536.55
462.95	3454.63
463.13	3506.12
463.32	3389.10
463.50	3339.94
463.68	3522.51
463.86	3368.03
464.05	3471.01
464.23	3255.69
464.41	3269.73
464.59	3185.47
464.78	3431.23
464.96	3417.18
465.14	3396.12
465.32	3562.30
465.50	3480.38
465.69	3480.38
465.87	3365.69
466.05	3300.16
466.23	3206.53
466.41	3220.58
466.60	3206.53
466.78	3251.00
466.96	3332.92
467.14	3255.69
467.32	3368.03
467.51	3304.84
467.69	3190.15
467.87	3236.96
468.05	3283.77
468.23	3386.76
468.41	3274.41
468.60	3428.88
468.78	3421.86
468.96	3370.37
469.14	3295.47
469.32	3309.52
469.50	3379.73
469.69	3314.20
469.87	3325.90
470.05	3349.31
470.23	3234.62
470.41	3143.34
470.59	3155.04
470.77	3283.77
470.95	3258.03
471.14	3531.87
471.32	3545.91
471.50	3616.13
471.68	3543.57
471.86	3634.85
472.04	3646.55
472.22	3698.05
472.40	3566.98
472.58	3445.27
472.77	3440.59
472.95	3414.84
473.13	3461.65
473.31	3578.68
473.49	3501.44
473.67	3510.80
473.85	3728.47
474.03	3536.55
474.21	3716.77
474.39	3719.11
474.57	3950.82
474.75	3854.86
474.93	3714.43
475.12	3611.45
475.30	3501.44
475.48	3620.81
475.66	3679.32
475.84	3658.26
476.02	3562.30
476.20	3414.84
476.38	3604.42
476.56	3798.69
476.74	3756.56
476.92	3798.69
477.10	3932.10
477.28	4098.28
477.46	3871.25
477.64	3845.50
477.82	3871.25
478.00	3997.64
478.18	4021.04
478.36	3782.31
478.54	3943.80
478.72	3971.89
478.90	4119.34
479.08	4133.39
479.26	4355.74
479.44	4299.56
479.62	4339.35
479.80	4208.28
479.98	4212.96
480.16	4386.16
480.34	4177.86
480.52	4271.48
480.70	4245.73
480.88	4163.81
481.06	4428.29
481.24	4503.19
481.41	4524.26
481.59	4669.37
481.77	4580.43
481.95	4432.97
482.13	4395.53
482.31	4676.39
482.49	4575.75
482.67	4337.01
482.85	4535.96
483.03	4636.60
483.21	4596.81
483.39	4826.18
483.57	4730.22
483.74	4571.07
483.92	4734.90
484.10	4568.73
484.28	4531.28
484.46	4865.97
484.64	4894.06
484.82	4678.73
485.00	4606.17
485.18	4622.56
485.35	4432.97
485.53	4021.04
485.71	3604.42
485.89	3583.36
486.07	3852.52
486.25	4152.11
486.43	4447.02
486.61	4650.64
486.78	4550.00
486.96	4573.41
487.14	4812.14
487.32	4870.65
487.50	4966.62
487.68	5050.88
487.85	5165.56
488.03	5142.16
488.21	5125.77
488.39	4950.23
488.57	4929.17
488.75	4826.18
488.92	4924.49
489.10	5238.12
489.28	5371.53
489.46	5661.76
489.64	5612.60
489.81	5666.44
489.99	5586.86
490.17	5647.71
490.35	5643.03
490.53	5685.16
490.70	5687.50
490.88	5341.10
491.06	5823.25
491.24	5577.50
491.41	5488.56
491.59	5203.01
491.77	4919.81
491.95	5322.38
492.13	5385.57
492.30	5682.82
492.48	5771.76
492.66	5914.53
492.84	6064.33
493.01	5825.59
493.19	5813.89
493.37	5813.89
493.54	5717.93
493.72	5713.25
493.90	5888.79
494.08	6366.26
494.25	6307.74
494.43	6207.10
494.61	6349.87
494.79	6317.11
494.96	6333.49
495.14	6050.28
495.32	5987.09
495.49	5837.30
495.67	5970.71
495.85	6298.38
496.02	6574.56
496.20	6590.95
496.38	6359.24
496.55	6183.70
496.73	6333.49
496.91	6338.17
497.09	6539.46
497.26	6539.46
497.44	6583.93
497.62	6319.45
497.79	6216.46
497.97	5923.90
498.14	5851.34
498.32	6153.27
498.50	6431.79
498.67	6459.88
498.85	6581.59
499.03	6469.24
499.20	6607.33
499.38	6576.91
499.56	6471.58
499.73	6375.62
499.91	6216.46
500.08	6071.35
500.26	6026.88
500.44	6101.78
500.61	6225.82
500.79	6265.61
500.97	6244.55
501.14	6181.35
501.32	6125.18
501.49	6094.76
501.67	6169.65
501.84	6249.23
502.02	6399.02
502.20	6370.94
502.37	6562.86
502.55	6258.59
502.72	6534.78
502.90	6612.01
503.07	6731.38
503.25	6593.29
503.43	6324.13
503.60	6160.29
503.78	6150.93
503.95	5961.34
504.13	6441.15
504.30	6520.73
504.48	6544.14
504.65	6413.07
504.83	6445.84
505.01	6623.72
505.18	6719.68
505.36	6902.24
505.53	6899.90
505.71	7241.62
505.88	7087.14
506.06	6693.93
506.23	6644.78
506.41	6523.07
506.58	6853.09
506.76	6609.67
506.93	6560.52
507.11	6497.33
507.28	6733.72
507.46	6300.72
507.63	6291.36
507.81	6209.44
507.98	6345.19
508.16	6567.54
508.33	6792.23
508.50	6586.27
508.68	6729.04
508.85	6899.90
509.03	6953.73
509.20	6897.56
509.38	6750.10
509.55	6576.91
509.73	6422.43
509.90	6628.40
510.08	6607.33
510.25	6703.29
510.42	6647.12
510.60	6581.59
510.77	6604.99
510.95	6885.86
511.12	6759.47
511.30	6993.52
511.47	7129.27
511.64	7061.40
511.82	6801.60
511.99	6626.06
512.17	6579.25
512.34	6623.72
512.51	6492.65
512.69	6604.99
512.86	6523.07
513.04	6644.78
513.21	6745.42
513.38	6544.14
513.56	6586.27
513.73	6377.96
513.90	6494.99
514.08	6473.92
514.25	6595.63
514.43	6466.90
514.60	6626.06
514.77	6700.95
514.95	6663.51
515.12	6597.97
515.29	6693.93
515.47	6602.65
515.64	6726.70
515.81	6717.34
515.99	6523.07
516.16	6202.42
516.33	5689.84
516.51	5526.00
516.68	5378.55
516.85	5125.77
517.03	5355.15
517.20	5834.96
517.37	6307.74
517.54	6672.87
517.72	6567.54
517.89	5956.66
518.06	5451.11
518.24	5521.32
518.41	5738.99
518.58	6218.80
518.75	6263.27
518.93	6317.11
519.10	6223.48
519.27	6394.34
519.45	6359.24
519.62	6619.04
519.79	6707.98
519.96	6780.53
520.14	6541.80
520.31	6338.17
520.48	6319.45
520.65	6377.96
520.83	6686.91
521.00	6649.46
521.17	6590.95
521.34	6534.78
521.52	6574.56
521.69	6726.70
521.86	6895.22
522.03	6527.75
522.20	6445.84
522.38	6221.14
522.55	6225.82
522.72	6466.90
522.89	6448.18
523.07	6509.03
523.24	6555.84
523.41	6883.52
523.58	6806.28
523.75	6960.75
523.92	6946.71
524.10	6792.23
524.27	7108.21
524.44	6825.00
524.61	6689.25
524.78	6768.83
524.96	6715.00
525.13	6745.42
525.30	6740.74
525.47	6956.07
525.64	6946.71
525.81	6794.58
525.98	6293.70
526.16	5902.83
526.33	5806.87
526.50	5788.14
526.67	5727.29
526.84	5832.62
527.01	6085.39
527.18	6265.61
527.36	6499.67
527.53	6792.23
527.70	6562.86
527.87	6483.28
528.04	6373.28
528.21	6665.85
528.38	6656.48
528.55	7059.06
528.72	7124.59
528.89	6906.92
529.07	6895.22
529.24	6773.51
529.41	6548.82
529.58	6459.88
529.75	6633.08
529.92	6499.67
530.09	6862.45
530.26	6764.15
530.43	6883.52
530.60	7016.93
530.77	6888.20
530.94	6984.16
531.11	7049.69
531.28	6815.64
531.46	6731.38
531.63	6626.06
531.80	6590.95
531.97	6630.74
532.14	6567.54
532.31	6031.56
532.48	6106.46
532.65	6122.84
532.82	6251.57
532.99	6483.28
533.16	6593.29
533.33	6583.93
533.50	6623.72
533.67	6527.75
533.84	6244.55
534.01	6497.33
534.18	6424.77
534.35	6672.87
534.52	6555.84
534.69	6518.39
534.86	6494.99
535.03	6752.45
535.20	6780.53
535.37	6913.94
535.54	6722.02
535.71	6827.34
535.88	6715.00
536.05	6574.56
536.22	6420.09
536.38	6338.17
536.55	6356.90
536.72	6267.95
536.89	6005.81
537.06	6361.58
537.23	6647.12
537.40	6668.19
537.57	6651.80
537.74	6595.63
537.91	6616.69
538.08	6513.71
538.25	6434.13
538.42	6663.51
538.59	6420.09
538.75	6394.34
538.92	6160.29
539.09	6417.75
539.26	6115.82
539.43	6099.44
539.60	6370.94
539.77	6373.28
539.94	6258.59
540.11	6146.25
540.28	5839.64
540.44	5949.64
540.61	5933.26
540.78	5930.92
540.95	6225.82
541.12	6174.33
541.29	6368.60
541.46	6370.94
541.62	6497.33
541.79	6169.65
541.96	6270.30
542.13	6258.59
542.30	6417.75
542.47	6375.62
542.63	6307.74
542.80	6129.86
542.97	6195.40
543.14	6171.99
543.31	6356.90
543.48	6366.26
543.64	6352.21
543.81	6658.82
543.98	6471.58
544.15	6520.73
544.32	6061.99
544.48	6256.25
544.65	6312.42
544.82	6307.74
544.99	6303.06
545.16	6209.44
545.32	6160.29
545.49	6415.41
545.66	6366.26
545.83	6284.34
546.00	6307.74
546.16	6237.53
546.33	6127.52
546.50	6083.05
546.67	6228.17
546.83	6153.27
547.00	6218.80
547.17	6036.24
547.34	6038.58
547.50	6239.87
547.67	6019.86
547.84	6104.12
548.00	6003.47
548.17	6314.77
548.34	6244.55
548.51	6200.08
548.67	6293.70
548.84	6232.85
549.01	6157.95
549.18	6260.93
549.34	6019.86
549.51	6260.93
549.68	6284.34
549.84	6108.80
550.01	6008.16
550.18	6078.37
550.34	5872.40
550.51	5947.30
550.68	6071.35
550.84	5959.00
551.01	6153.27
551.18	6010.50
551.34	6054.97
551.51	6150.93
551.68	6143.91
551.84	6272.64
552.01	6143.91
552.18	6033.90
552.34	6005.81
552.51	5816.23
552.68	5750.70
552.84	6003.47
553.01	6078.37
553.18	6108.80
553.34	5956.66
553.51	5923.90
553.67	6069.01
553.84	6078.37
554.01	6115.82
554.17	6010.50
554.34	6155.61
554.51	6186.04
554.67	6073.69
554.84	6087.73
555.00	5949.64
555.17	5884.11
555.33	5959.00
555.50	5853.68
555.67	5991.77
555.83	5778.78
556.00	6057.31
556.16	6083.05
556.33	5755.38
556.50	5680.48
556.66	5816.23
556.83	5755.38
556.99	5619.63
557.16	5586.86
557.32	5755.38
557.49	5795.17
557.65	5832.62
557.82	5774.10
557.98	5790.49
558.15	5727.29
558.32	5647.71
558.48	5420.68
558.65	5338.76
558.81	5427.70
558.98	5359.83
559.14	5584.52
559.31	5469.83
559.47	5626.65
559.64	5427.70
559.80	5387.91
559.97	5483.88
560.13	5589.20
560.30	5694.52
560.46	5984.75
560.63	5923.90
560.79	5865.38
560.96	5778.78
561.12	5563.45
561.29	5500.26
561.45	5451.11
561.61	5565.79
561.78	5760.06
561.94	5612.60
562.11	5643.03
562.27	5533.03
562.44	5596.22
562.60	5586.86
562.77	5783.46
562.93	5659.42
563.10	5434.72
563.26	5528.35
563.42	5568.13
563.59	5411.32
563.75	5439.40
563.92	5575.16
564.08	5544.73
564.24	5460.47
564.41	5589.20
564.57	5554.09
564.74	5385.57
564.90	5380.89
565.07	5453.45
565.23	5327.06
565.39	5242.80
565.56	5303.65
565.72	5146.84
565.88	5123.43
566.05	5355.15
566.21	5273.23
566.38	5341.10
566.54	5378.55
566.70	5343.44
566.87	5584.52
567.03	5390.25
567.19	5416.00
567.36	5376.21
567.52	5423.02
567.68	5226.42
567.85	5088.32
568.01	5238.12
568.17	5029.81
568.34	5097.69
568.50	5114.07
568.66	5071.94
568.83	5078.96
568.99	5132.79
569.15	5284.93
569.32	5186.63
569.48	5284.93
569.64	5139.82
569.81	5083.64
569.97	5163.22
570.13	5069.60
570.30	4844.91
570.46	4863.63
570.62	4781.71
570.78	4758.31
570.95	4830.87
571.11	4924.49
571.27	5114.07
571.43	4880.02
571.60	5078.96
571.76	5191.31
571.92	5083.64
572.09	5385.57
572.25	5305.99
572.41	5210.03
572.57	5177.26
572.74	5102.37
572.90	4987.68
573.06	4999.38
573.22	5050.88
573.38	5205.35
573.55	5083.64
573.71	5132.79
573.87	5172.58
574.03	5011.09
574.20	4901.08
574.36	4961.94
574.52	4985.34
574.68	4744.27
574.84	4774.69
575.01	4835.55
575.17	4910.44
575.33	4975.98
575.49	4997.04
575.65	4926.83
575.82	4847.25
575.98	4788.74
576.14	4966.62
576.30	4990.02
576.46	4938.53
576.62	4835.55
576.79	4940.87
576.95	4954.91
577.11	4821.50
577.27	4873.00
577.43	4814.48
577.59	4868.31
577.75	4641.28
577.92	4645.96
578.08	4554.68
578.24	4713.84
578.40	4608.51
578.56	4781.71
578.72	4730.22
578.88	4699.80
579.04	4880.02
579.21	4702.14
579.37	4809.80
579.53	4758.31
579.69	4793.42
579.85	4697.46
580.01	4896.40
580.17	4746.61
580.33	4755.97
580.49	4753.63
580.65	4528.94
580.82	4805.12
580.98	4779.37
581.14	4674.05
581.30	4727.88
581.46	4737.24
581.62	4760.65
581.78	4819.16
581.94	4772.35
582.10	4772.35
582.26	4826.18
582.42	4812.14
582.58	4702.14
582.74	4699.80
582.90	4678.73
583.06	4961.94
583.22	4613.20
583.38	4779.37
583.54	4695.11
583.70	4748.95
583.86	4737.24
584.02	4655.33
584.18	4730.22
584.34	4720.86
584.50	4777.03
584.66	4716.18
584.82	4671.71
584.98	4660.01
585.14	4620.22
585.30	4540.64
585.46	4308.93
585.62	4444.68
585.78	4461.06
585.94	4344.03
586.10	4524.26
586.26	4617.88
586.42	4493.83
586.58	4552.34
586.74	4648.30
586.90	4564.04
587.06	4519.57
587.22	4538.30
587.38	4428.29
587.54	4318.29
587.70	4521.92
587.86	4301.90
588.02	4386.16
588.18	4248.07
588.34	4156.79
588.49	3861.88
588.65	3667.62
588.81	3763.58
588.97	3747.20
589.13	3676.98
589.29	3836.14
589.45	3740.18
589.61	3817.41
589.77	3948.48
589.93	4194.24
590.08	4266.80
590.24	4219.99
590.40	4264.46
590.56	4290.20
590.72	4367.44
590.88	4182.54
591.04	4159.13
591.20	4241.05
591.35	4215.30
591.51	4135.73
591.67	4168.49
591.83	4201.26
591.99	4273.82
592.15	4201.26
592.31	4128.70
592.46	4180.20
592.62	4161.47
592.78	4086.58
592.94	4074.87
593.10	4023.38
593.26	4276.16
593.41	4184.88
593.57	4255.09
593.73	4079.55
593.89	4093.60
594.05	3913.38
594.20	4044.45
594.36	4002.32
594.52	3925.08
594.68	3962.53
594.84	4025.72
594.99	3964.87
595.15	4112.32
595.31	4011.68
595.47	3983.59
595.62	4278.50
595.78	4266.80
595.94	4304.25
596.10	4098.28
596.25	4196.58
596.41	3941.46
596.57	3948.48
596.73	4009.34
596.88	3992.95
597.04	3971.89
597.20	4046.79
597.36	3943.80
597.51	4072.53
597.67	4084.23
597.83	3913.38
