SpectraSuite Data File
++++++++++++++++++++++++++++++++++++
Date: Mon Oct 07 14:54:02 GMT-05:00 2013
User: price-jones
Dark Spectrum Present: No
Reference Spectrum Present: No
Number of Sampled Component Spectra: 1
Spectrometers: USB2+H05261
Integration Time (usec): 100000 (USB2+H05261)
Spectra Averaged: 1 (USB2+H05261)
Boxcar Smoothing: 0 (USB2+H05261)
Correct for Electrical Dark: No (USB2+H05261)
Strobe/Lamp Enabled: No (USB2+H05261)
Correct for Detector Non-linearity: No (USB2+H05261)
Correct for Stray Light: No (USB2+H05261)
Number of Pixels in Processed Spectrum: 2048
>>>>>Begin Processed Spectral Data<<<<<
365.73	0.00
365.92	0.00
366.12	0.00
366.32	0.00
366.52	0.00
366.72	0.00
366.91	0.00
367.11	0.00
367.31	0.00
367.51	0.00
367.70	0.00
367.90	0.00
368.10	0.00
368.30	0.00
368.49	0.00
368.69	0.00
368.89	0.00
369.09	0.00
369.28	0.00
369.48	0.00
369.68	0.00
369.87	0.00
370.07	0.00
370.27	0.00
370.47	732.59
370.66	3449.95
370.86	4023.38
371.06	4528.94
371.25	4402.55
371.45	3992.95
371.65	3707.41
371.84	3379.73
372.04	3478.04
372.24	3896.99
372.44	4124.02
372.63	4133.39
372.83	3847.84
373.03	3356.33
373.22	3150.36
373.42	3218.24
373.62	3768.26
373.81	4173.18
374.01	3976.57
374.21	3719.11
374.40	3459.31
374.60	3506.12
374.79	3786.99
374.99	4660.01
375.19	4999.38
375.38	5205.35
375.58	4788.74
375.78	4695.11
375.97	4762.99
376.17	4814.48
376.37	4718.52
376.56	4795.76
376.76	5387.91
376.95	5781.12
377.15	6031.56
377.35	6167.31
377.54	6389.66
377.74	6724.36
377.93	6682.23
378.13	6663.51
378.33	6270.30
378.52	5837.30
378.72	5467.49
378.91	5301.31
379.11	5249.82
379.31	4987.68
379.50	5053.22
379.70	5486.22
379.89	5898.15
380.09	6347.53
380.28	6546.48
380.48	6609.67
380.68	6483.28
380.87	6382.64
381.07	5802.19
381.26	5320.04
381.46	4966.62
381.65	4807.46
381.85	4720.86
382.04	4503.19
382.24	4320.63
382.43	4142.75
382.63	3894.65
382.83	3906.35
383.02	3948.48
383.22	3857.20
383.41	4044.45
383.61	4297.22
383.80	4994.70
384.00	5523.66
384.19	6246.89
384.39	6459.88
384.58	6539.46
384.78	6370.94
384.97	6282.00
385.17	5959.00
385.36	5781.12
385.56	5430.04
385.75	5633.67
385.95	5973.05
386.14	6541.80
386.34	6700.95
386.53	6312.42
386.72	6059.65
386.92	6069.01
387.11	6328.81
387.31	6693.93
387.50	6621.38
387.70	6389.66
387.89	6181.35
388.09	6340.51
388.28	6413.07
388.48	6490.31
388.67	6808.62
388.86	7597.38
389.06	8016.33
389.25	8456.36
389.45	8585.08
389.64	8580.40
389.84	8500.83
390.03	8318.26
390.22	8250.39
390.42	8690.41
390.61	9359.80
390.81	9715.56
391.00	10101.75
391.19	10073.67
391.39	9643.01
391.58	9032.13
391.78	8451.67
391.97	8252.73
392.16	7637.17
392.36	7030.97
392.55	5598.56
392.75	4489.15
392.94	3545.91
393.13	3658.26
393.33	4329.99
393.52	5451.11
393.71	6738.40
393.91	7632.49
394.10	8236.35
394.29	8957.23
394.49	9439.38
394.68	10441.13
394.88	10422.41
395.07	10761.78
395.26	10609.65
395.46	10387.30
395.65	9895.78
395.84	8428.27
396.04	7351.62
396.23	5776.44
396.42	4987.68
396.62	4676.39
396.81	5537.71
397.00	6876.49
397.19	8608.49
397.39	10656.46
397.58	11639.48
397.77	12453.99
397.97	13060.19
398.16	13275.52
398.35	13809.16
398.55	14181.31
398.74	14743.03
398.93	14808.57
399.12	14544.09
399.32	14256.20
399.51	14417.70
399.70	15557.54
399.90	15262.63
400.09	15269.66
400.28	15248.59
400.47	15145.61
400.67	15754.15
400.86	16573.33
401.05	16332.26
401.24	16381.41
401.44	17106.98
401.63	16601.42
401.82	16650.57
402.01	16428.22
402.21	16732.49
402.40	16985.27
402.59	16624.83
402.78	15791.59
402.97	15213.48
403.17	15838.41
403.36	16758.24
403.55	17547.00
403.74	17923.82
403.93	16905.69
404.13	15803.30
404.32	15358.60
404.51	16058.42
404.70	17420.61
404.89	17310.60
405.09	17001.65
405.28	16304.17
405.47	16547.59
405.66	16606.10
405.85	16145.02
406.05	15637.12
406.24	15957.77
406.43	16477.37
406.62	17238.05
406.81	17359.75
407.00	16329.92
407.20	16191.83
407.39	16444.60
407.58	17092.93
407.77	17720.20
407.96	18450.44
408.15	18504.28
408.34	18473.85
408.54	19138.56
408.73	19433.47
408.92	19353.89
409.11	18609.60
409.30	17668.70
409.49	16723.13
409.68	15634.78
409.87	15129.22
410.07	16030.33
410.26	17245.07
410.45	18579.17
410.64	18885.78
410.83	19503.68
411.02	20105.20
411.21	21013.33
411.40	20629.48
411.59	20643.52
411.78	20327.55
411.98	19985.83
412.17	20943.11
412.36	20130.95
412.55	20411.81
412.74	19908.60
412.93	19386.66
413.12	19290.70
413.31	21247.38
413.50	21252.06
413.69	21888.69
413.88	20732.47
414.07	20245.63
414.26	20933.75
414.45	21235.68
414.64	21724.85
414.83	21619.53
415.02	20922.05
415.22	20781.62
415.41	21497.82
415.60	22115.72
415.79	23157.26
415.98	23854.74
416.17	23683.88
416.36	23033.21
416.55	22822.56
416.74	21907.41
416.93	21053.12
417.12	21247.38
417.31	21401.86
417.50	22113.38
417.69	22506.59
417.88	22593.19
418.07	22097.00
418.26	21865.28
418.45	22139.13
418.64	22864.69
418.83	23641.75
419.02	23527.06
419.21	23632.39
419.39	21996.35
419.58	21172.49
419.77	21256.75
419.96	22036.14
420.15	23459.19
420.34	23953.04
420.53	24950.11
420.72	25507.16
420.91	25216.93
421.10	25085.86
421.29	24945.43
421.48	23777.50
421.67	24982.88
421.86	24617.75
422.05	22492.55
422.24	20484.37
422.43	19850.08
422.61	21989.33
422.80	23749.42
422.99	23920.28
423.18	23173.64
423.37	22862.35
423.56	22747.67
423.75	23115.13
423.94	23300.03
424.13	22298.28
424.32	22424.67
424.50	22441.06
424.69	22497.23
424.88	22342.75
425.07	22427.01
425.26	22199.98
425.45	22015.08
425.64	21483.78
425.83	21628.89
426.01	22977.04
426.20	23587.92
426.39	23325.78
426.58	21551.65
426.77	20004.56
426.96	19281.33
427.15	19917.96
427.33	21759.96
427.52	22579.15
427.71	22649.36
427.90	22267.86
428.09	22228.07
428.28	21994.01
428.46	21069.50
428.65	20315.85
428.84	21219.30
429.03	21532.93
429.22	20460.96
429.40	19587.94
429.59	17476.78
429.78	15644.14
429.97	15679.25
430.16	15424.13
430.34	15910.96
430.53	15822.02
430.72	16002.24
430.91	17874.67
431.10	20950.14
431.28	24767.55
431.47	26574.44
431.66	27351.50
431.85	24416.47
432.03	22515.95
432.22	21383.13
432.41	21998.70
432.60	25060.12
432.79	25795.04
432.97	26405.92
433.16	25741.21
433.35	23620.69
433.54	21041.42
433.72	20020.94
433.91	20634.16
434.10	22864.69
434.28	24533.50
434.47	25940.16
434.66	25579.71
434.85	25029.69
435.03	24636.48
435.22	25469.71
435.41	26801.47
435.59	26911.48
435.78	27243.84
435.97	28142.60
436.16	27960.04
436.34	27777.48
436.53	27054.25
436.72	27077.66
436.90	25556.31
437.09	25610.14
437.28	25490.77
437.46	25942.50
437.65	26115.70
437.84	24603.71
438.02	22253.81
438.21	22061.89
438.40	23295.35
438.58	25539.93
438.77	26015.05
438.96	26347.41
439.14	27510.66
439.33	28245.58
439.52	28341.55
439.70	27428.74
439.89	26913.82
440.08	26242.09
440.26	26391.88
440.45	27379.59
440.63	29212.23
440.82	30340.36
441.01	30483.14
441.19	29902.68
441.38	30099.29
441.57	31332.75
441.75	31524.68
441.94	31779.79
442.12	31714.26
442.31	32374.29
442.50	32196.41
442.68	31740.00
442.87	31388.92
443.05	30813.15
443.24	31527.02
443.43	31976.40
443.61	32830.69
443.80	33053.05
443.98	31185.30
444.17	31091.68
444.35	33284.76
444.54	33881.60
444.73	32994.53
444.91	31777.45
445.10	30815.49
445.28	29343.30
445.47	29006.26
445.65	28804.97
445.84	29972.90
446.02	30852.94
446.21	31044.87
446.39	31145.51
446.58	31945.97
446.77	31608.93
446.95	32367.27
447.14	33378.38
447.32	33642.86
447.51	33188.80
447.69	31840.65
447.88	31468.50
448.06	31976.40
448.25	32629.41
448.43	33446.26
448.62	32456.21
448.80	32165.98
448.99	32580.26
449.17	32718.35
449.36	32638.77
449.54	33743.50
449.73	34497.16
449.91	34815.47
450.10	35693.17
450.28	35765.73
450.46	35669.76
450.65	35931.90
450.83	34972.28
451.02	34417.58
451.20	34995.69
451.39	34813.13
451.57	34590.78
451.76	34295.87
451.94	34511.20
452.13	33589.03
452.31	32105.13
452.49	30066.52
452.68	30913.80
452.86	30843.58
453.05	31253.17
453.23	32238.54
453.42	32992.19
453.60	33600.73
453.78	34244.38
453.97	34199.91
454.15	33851.17
454.34	33062.41
454.52	33228.59
454.70	32624.73
454.89	33500.09
455.07	32954.74
455.26	33502.43
455.44	34906.75
455.62	35487.20
455.81	35405.28
455.99	35374.86
456.17	34815.47
456.36	35152.51
456.54	36280.64
456.73	35969.35
456.91	36697.26
457.09	36781.52
457.28	37354.95
457.46	36030.21
457.64	35541.03
457.83	34625.89
458.01	33834.78
458.19	35049.52
458.38	34941.86
458.56	35807.86
458.74	35826.58
458.93	35129.10
459.11	35061.22
459.29	34925.47
459.48	35206.34
459.66	34934.84
459.84	35201.66
460.03	36039.57
460.21	35686.15
460.39	36301.71
460.57	36760.45
460.76	37160.69
460.94	37455.59
461.12	36346.18
461.31	36685.56
461.49	37125.58
461.67	36236.17
461.85	37738.80
462.04	37490.70
462.22	37993.92
462.40	37820.72
462.59	37675.60
462.77	37340.91
462.95	37591.34
463.13	36994.51
463.32	36788.54
463.50	36407.03
463.68	36451.50
463.86	37118.56
464.05	35871.05
464.23	35466.14
464.41	35634.66
464.59	34419.92
464.78	36444.48
464.96	36023.19
465.14	35538.69
465.32	36634.06
465.50	37490.70
465.69	37771.57
465.87	36809.61
466.05	36547.47
466.23	34607.16
466.41	33905.00
466.60	34862.28
466.78	34703.12
466.96	35438.05
467.14	35999.78
467.32	36605.98
467.51	36329.80
467.69	35070.59
467.87	35466.14
468.05	36261.92
468.23	36175.32
468.41	36400.01
468.60	35768.07
468.78	36582.57
468.96	35941.27
469.14	36971.10
469.32	37024.93
469.50	35629.98
469.69	35576.14
469.87	34962.92
470.05	35468.48
470.23	35435.71
470.41	35559.76
470.59	35842.96
470.77	35878.07
470.95	36315.75
471.14	36982.80
471.32	37167.71
471.50	39192.27
471.68	38939.49
471.86	39391.22
472.04	39679.10
472.22	39634.63
472.40	37642.84
472.58	37687.31
472.77	36636.41
472.95	37659.22
473.13	38731.18
473.31	37404.10
473.49	37787.95
473.67	38817.78
473.85	38216.27
474.03	39693.15
474.21	40196.36
474.39	40451.48
474.57	40287.64
474.75	40446.80
474.93	40278.28
475.12	39470.79
475.30	39414.62
475.48	39442.71
475.66	40313.39
475.84	39019.07
476.02	38916.09
476.20	38834.17
476.38	39510.58
476.56	40685.53
476.74	41151.30
476.92	41282.37
477.10	41663.88
477.28	43016.71
477.46	43023.73
477.64	43215.65
477.82	43356.08
478.00	43650.99
478.18	42834.14
478.36	42993.30
478.54	42426.89
478.72	43438.00
478.90	43969.30
479.08	45188.72
479.26	45420.44
479.44	45432.14
479.62	45574.91
479.80	44964.03
479.98	45406.39
480.16	45497.67
480.34	45216.81
480.52	45488.31
480.70	46478.36
480.88	45876.84
481.06	46616.45
481.24	46864.55
481.41	47889.70
481.59	48212.70
481.77	48053.54
481.95	47318.61
482.13	47260.10
482.31	47515.22
482.49	48341.42
482.67	47866.30
482.85	48264.19
483.03	48938.26
483.21	49464.88
483.39	49158.27
483.57	48502.92
483.74	47636.92
483.92	48350.79
484.10	48294.61
484.28	49518.71
484.46	49792.56
484.64	50096.83
484.82	49207.42
485.00	48926.56
485.18	48610.59
485.35	46885.61
485.53	43943.56
485.71	40055.93
485.89	39178.23
486.07	41500.04
486.25	45078.72
486.43	47215.63
486.61	47971.62
486.78	47753.95
486.96	47908.43
487.14	49453.18
487.32	50527.48
487.50	51388.80
487.68	52259.48
487.85	52753.33
488.03	52556.73
488.21	52355.44
488.39	51679.03
488.57	50745.15
488.75	50609.40
488.92	51770.31
489.10	53404.00
489.28	54621.08
489.46	55512.83
489.64	55037.70
489.81	55285.79
489.99	54967.48
490.17	54946.42
490.35	55377.08
490.53	54948.76
490.70	54803.64
490.88	54262.98
491.06	55367.71
491.24	55554.96
491.41	54356.60
491.59	52727.59
491.77	52203.31
491.95	53352.51
492.13	54291.07
492.30	55543.25
492.48	56442.02
492.66	56814.16
492.84	56809.48
493.01	56556.70
493.19	55957.53
493.37	55679.00
493.54	55227.28
493.72	56147.11
493.90	57048.22
494.08	57581.86
494.25	57752.72
494.43	57897.83
494.61	58417.43
494.79	58387.00
494.96	58351.90
495.14	57609.95
495.32	56769.69
495.49	56268.82
495.67	57078.64
495.85	58607.01
496.02	58731.06
496.20	58908.94
496.38	58230.19
496.55	58059.33
496.73	58621.06
496.91	58747.45
497.09	59320.88
497.26	59468.33
497.44	58897.24
497.62	58312.11
497.79	57743.36
497.97	56842.25
498.14	56825.87
498.32	57743.36
498.50	58499.35
498.67	59178.10
498.85	58922.99
499.03	59089.16
499.20	59187.47
499.38	59480.03
499.56	59091.51
499.73	58663.19
499.91	58183.38
500.08	57989.11
500.26	57207.37
500.44	57748.04
500.61	58342.53
500.79	58199.76
500.97	57504.62
501.14	57595.90
501.32	57469.51
501.49	57631.01
501.67	57518.67
501.84	58185.72
502.02	58438.50
502.20	58707.66
502.37	58700.64
502.55	58492.33
502.72	59365.35
502.90	59863.88
503.07	59671.96
503.25	59084.48
503.43	58440.84
503.60	57996.13
503.78	56989.70
503.95	57563.14
504.13	58789.58
504.30	59519.82
504.48	59468.33
504.65	59100.87
504.83	59260.02
505.01	59749.20
505.18	60004.31
505.36	60633.92
505.53	60652.64
505.71	60711.16
505.88	60992.02
506.06	60154.11
506.23	59915.37
506.41	59751.54
506.58	59784.30
506.76	59873.24
506.93	59796.01
507.11	59384.07
507.28	59519.82
507.46	59360.67
507.63	58789.58
507.81	58590.63
507.98	58768.51
508.16	59304.49
508.33	59805.37
508.50	60168.15
508.68	60514.55
508.85	60786.05
509.03	61038.83
509.20	60659.66
509.38	59917.71
509.55	59449.61
509.73	59442.59
509.90	59866.22
510.08	60301.56
510.25	60006.65
510.42	59854.52
510.60	59868.56
510.77	60133.04
510.95	60521.57
511.12	60809.46
511.30	61052.87
511.47	61151.18
511.64	61286.93
511.82	60952.23
511.99	60271.14
512.17	59838.14
512.34	59601.74
512.51	59646.21
512.69	59683.66
512.86	59718.77
513.04	60149.43
513.21	60374.12
513.38	59906.01
513.56	59346.62
513.73	58726.38
513.90	58953.41
514.08	59084.48
514.25	59269.39
514.43	59669.62
514.60	59683.66
514.77	59955.16
514.95	59929.42
515.12	59686.00
515.29	59882.61
515.47	60444.33
515.64	60743.92
515.81	60301.56
515.99	59697.70
516.16	58539.14
516.33	56512.23
516.51	54887.90
516.68	53895.52
516.85	53820.62
517.03	54010.20
517.20	56671.39
517.37	58768.51
517.54	59938.78
517.72	59264.70
517.89	57310.36
518.06	54965.14
518.24	54976.84
518.41	57202.69
518.58	58508.71
518.75	58628.08
518.93	58965.12
519.10	58691.27
519.27	59047.04
519.45	59332.58
519.62	60006.65
519.79	60334.33
519.96	60182.19
520.14	59824.09
520.31	58981.50
520.48	58726.38
520.65	59089.16
520.83	60076.87
521.00	60603.49
521.17	60039.42
521.34	59765.58
521.52	60301.56
521.69	60764.99
521.86	61038.83
522.03	60804.78
522.20	59716.43
522.38	58616.38
522.55	58693.61
522.72	59196.83
522.89	59253.00
523.07	59456.63
523.24	59737.49
523.41	60484.12
523.58	60830.52
523.75	61226.07
523.92	61031.81
524.10	60954.57
524.27	61069.26
524.44	60928.83
524.61	60781.37
524.78	60690.09
524.96	60357.74
525.13	60397.52
525.30	60818.82
525.47	61125.43
525.64	61015.43
525.81	60432.63
525.98	59093.85
526.16	57654.42
526.33	56767.35
526.50	56708.84
526.67	56502.87
526.84	56949.92
527.01	57663.78
527.18	58489.99
527.36	59620.47
527.53	60278.16
527.70	60636.26
527.87	60013.68
528.04	59437.90
528.21	59983.25
528.38	60757.97
528.55	61123.09
528.72	61513.96
528.89	61645.03
529.07	61455.45
529.24	60608.17
529.41	59943.46
529.58	59597.06
529.75	59664.94
529.92	60083.89
530.09	60392.84
530.26	61055.21
530.43	61158.20
530.60	61254.16
530.77	61371.19
530.94	61528.00
531.11	60928.83
531.28	60781.37
531.46	60533.28
531.63	60816.48
531.80	60493.49
531.97	60140.07
532.14	59463.65
532.31	58379.98
532.48	57743.36
532.65	57867.40
532.82	58735.74
532.99	59686.00
533.16	59955.16
533.33	60594.13
533.50	60329.65
533.67	59877.93
533.84	59590.04
534.01	59568.97
534.18	59758.56
534.35	60109.64
534.52	59798.35
534.69	60259.43
534.86	60456.04
535.03	60755.63
535.20	61041.17
535.37	61270.54
535.54	61443.74
535.71	60889.04
535.88	60743.92
536.05	60252.41
536.22	59910.69
536.38	59531.53
536.55	59189.81
536.72	58665.53
536.89	58372.96
537.06	59318.54
537.23	60083.89
537.40	60381.14
537.57	60207.94
537.74	60121.34
537.91	60001.97
538.08	59980.91
538.25	60130.70
538.42	60289.86
538.59	60027.72
538.75	59334.92
538.92	59297.47
539.09	59065.76
539.26	58897.24
539.43	58817.66
539.60	58747.45
539.77	58894.90
539.94	58794.26
540.11	58293.38
540.28	57626.33
540.44	57855.70
540.61	57923.58
540.78	58230.19
540.95	58700.64
541.12	58955.75
541.29	59110.23
541.46	59568.97
541.62	59592.38
541.79	59346.62
541.96	58742.77
542.13	58810.64
542.30	59037.67
542.47	59313.86
542.63	58761.49
542.80	58841.07
542.97	58852.77
543.14	58628.08
543.31	58712.34
543.48	59213.21
543.64	59948.14
543.81	60280.50
543.98	60041.76
544.15	59547.91
544.32	58805.96
544.48	58845.75
544.65	59213.21
544.82	59980.91
544.99	59517.48
545.16	59023.63
545.32	58569.57
545.49	59543.23
545.66	59845.16
545.83	59552.59
546.00	59049.38
546.16	58960.44
546.33	59185.13
546.50	58873.84
546.67	59501.10
546.83	59082.14
547.00	58972.14
547.17	58408.07
547.34	58003.16
547.50	57904.85
547.67	58293.38
547.84	58405.73
548.00	58700.64
548.17	59068.10
548.34	58976.82
548.51	58908.94
548.67	59021.29
548.84	59213.21
549.01	59105.55
549.18	58850.43
549.34	58834.05
549.51	58880.86
549.68	58726.38
549.84	58721.70
550.01	58445.52
550.18	58312.11
550.34	58382.32
550.51	58567.23
550.68	58667.87
550.84	57956.35
551.01	58085.07
551.18	57911.88
551.34	58298.06
551.51	58904.26
551.68	58871.49
551.84	58965.12
552.01	58752.13
552.18	58688.93
552.34	57677.82
552.51	57528.03
552.68	57509.30
552.84	57869.75
553.01	58202.10
553.18	58005.50
553.34	58202.10
553.51	58052.31
553.67	58569.57
553.84	58754.47
554.01	58450.20
554.17	58422.11
554.34	58234.87
554.51	58440.84
554.67	58869.15
554.84	58698.30
555.00	58284.02
555.17	58188.06
555.33	57989.11
555.50	58014.86
555.67	58159.97
555.83	57904.85
556.00	57537.39
556.16	57642.71
556.33	57333.76
556.50	57034.17
556.66	57123.11
556.83	56547.34
556.99	57106.73
557.16	57265.89
557.32	57488.24
557.49	57666.12
557.65	57214.40
557.82	57670.80
557.98	57319.72
558.15	57102.05
558.32	56074.55
558.48	55299.84
558.65	55599.43
558.81	55941.14
558.98	56144.77
559.14	56268.82
559.31	56446.70
559.47	56463.08
559.64	56086.26
559.80	55676.66
559.97	55976.25
560.13	56280.52
560.30	57141.84
560.46	57598.24
560.63	57689.52
560.79	57752.72
560.96	57640.37
561.12	56308.61
561.29	55545.59
561.45	55545.59
561.61	56268.82
561.78	56608.20
561.94	56151.79
562.11	56240.73
562.27	56046.47
562.44	56589.47
562.60	56617.56
562.77	57102.05
562.93	56905.44
563.10	56652.67
563.26	56219.67
563.42	56535.64
563.59	56245.41
563.75	56142.43
563.92	56123.71
564.08	56273.50
564.24	56266.48
564.41	56463.08
564.57	56261.80
564.74	56055.83
564.90	56067.53
565.07	55796.03
565.23	55419.20
565.39	54843.43
565.56	54780.24
565.72	54443.20
565.88	54883.22
566.05	54941.74
566.21	55203.88
566.38	55058.76
566.54	55217.92
566.70	55714.11
566.87	56252.44
567.03	56072.21
567.19	56142.43
567.36	55880.29
567.52	55746.88
567.68	55489.42
567.85	54618.74
568.01	54457.24
568.17	54092.12
568.34	54354.26
568.50	53993.82
568.66	54295.75
568.83	54674.91
568.99	54754.49
569.15	54646.83
569.32	54803.64
569.48	54513.42
569.64	54518.10
569.81	53862.75
569.97	53755.08
570.13	54038.29
570.30	53511.67
570.46	53151.23
570.62	52367.15
570.78	52273.52
570.95	52793.12
571.11	53158.25
571.27	53727.00
571.43	53521.03
571.60	53956.37
571.76	54321.49
571.92	54585.97
572.09	54583.63
572.25	54501.71
572.41	54644.49
572.57	54415.11
572.74	54288.73
572.90	54073.40
573.06	54152.97
573.22	53972.75
573.38	54099.14
573.55	54012.54
573.71	54251.28
573.87	53832.32
574.03	53874.45
574.20	54148.29
574.36	53542.10
574.52	53373.58
574.68	53200.38
574.84	52699.50
575.01	52357.78
575.17	52505.24
575.33	52683.12
575.49	52980.37
575.65	52928.87
575.82	52516.94
575.98	52687.80
576.14	52842.27
576.30	53216.76
576.46	53464.86
576.62	52924.19
576.79	53057.60
576.95	52823.55
577.11	52758.02
577.27	52727.59
577.43	52898.45
577.59	52432.68
577.75	52076.92
577.92	51121.98
578.08	51393.48
578.24	51199.22
578.40	51632.22
578.56	51861.59
578.72	51643.92
578.88	52051.17
579.04	52055.85
579.21	52254.80
579.37	52491.19
579.53	52465.45
579.69	52432.68
579.85	52772.06
580.01	52224.37
580.17	51842.87
580.33	51650.94
580.49	52109.69
580.65	52200.97
580.82	52313.31
580.98	52432.68
581.14	52067.56
581.30	52177.56
581.46	52095.64
581.62	52451.41
581.78	52268.84
581.94	52325.02
582.10	52549.71
582.26	52348.42
582.42	52460.77
582.58	52521.62
582.74	52259.48
582.90	52247.78
583.06	52289.91
583.22	52116.71
583.38	52261.82
583.54	52062.88
583.70	52184.58
583.86	52238.42
584.02	51702.43
584.18	52133.09
584.34	51803.08
584.50	51856.91
584.66	51667.33
584.82	51482.42
584.98	51381.78
585.14	50986.23
