SpectraSuite Data File
++++++++++++++++++++++++++++++++++++
Date: Mon Oct 07 14:53:24 GMT-05:00 2013
User: price-jones
Dark Spectrum Present: No
Reference Spectrum Present: No
Number of Sampled Component Spectra: 1
Spectrometers: USB2+H05261
Integration Time (usec): 100000 (USB2+H05261)
Spectra Averaged: 1 (USB2+H05261)
Boxcar Smoothing: 0 (USB2+H05261)
Correct for Electrical Dark: No (USB2+H05261)
Strobe/Lamp Enabled: No (USB2+H05261)
Correct for Detector Non-linearity: No (USB2+H05261)
Correct for Stray Light: No (USB2+H05261)
Number of Pixels in Processed Spectrum: 2048
>>>>>Begin Processed Spectral Data<<<<<
365.73	0.00
365.92	0.00
366.12	0.00
366.32	0.00
366.52	0.00
366.72	0.00
366.91	0.00
367.11	0.00
367.31	0.00
367.51	0.00
367.70	0.00
367.90	0.00
368.10	0.00
368.30	0.00
368.49	0.00
368.69	0.00
368.89	0.00
369.09	0.00
369.28	0.00
369.48	0.00
369.68	0.00
369.87	0.00
370.07	0.00
370.27	0.00
370.47	540.66
370.66	2757.15
370.86	3290.79
371.06	3578.68
371.25	3658.26
371.45	3220.58
371.65	3126.96
371.84	2853.11
372.04	3016.95
372.24	3243.98
372.44	3372.71
372.63	3473.36
372.83	3124.62
373.03	2773.53
373.22	2513.74
373.42	2717.36
373.62	3152.70
373.81	3358.67
374.01	3545.91
374.21	3082.49
374.40	2766.51
374.60	2970.14
374.79	3304.84
374.99	3904.01
375.19	4032.74
375.38	4161.47
375.58	3901.67
375.78	3904.01
375.97	3978.91
376.17	4065.51
376.37	4004.66
376.56	4208.28
376.76	4423.61
376.95	4557.02
377.15	4964.28
377.35	5203.01
377.54	5352.81
377.74	5451.11
377.93	5652.39
378.13	5514.30
378.33	5231.10
378.52	4650.64
378.72	4547.66
378.91	4510.21
379.11	4425.95
379.31	4147.43
379.50	4126.36
379.70	4643.62
379.89	4992.36
380.09	5116.41
380.28	5364.51
380.48	5364.51
380.68	5298.97
380.87	5263.86
381.07	4833.21
381.26	4458.72
381.46	4252.75
381.65	4051.47
381.85	3946.14
382.04	3866.56
382.24	3454.63
382.43	3323.56
382.63	3281.43
382.83	3215.90
383.02	3307.18
383.22	3335.26
383.41	3316.54
383.61	3595.06
383.80	4023.38
384.00	4566.39
384.19	5195.99
384.39	5329.40
384.58	5327.06
384.78	5172.58
384.97	5221.74
385.17	4924.49
385.36	4699.80
385.56	4624.90
385.75	4601.49
385.95	5048.54
386.14	5720.27
386.34	5563.45
386.53	5221.74
386.72	4936.19
386.92	5174.92
387.11	5359.83
387.31	5617.29
387.50	5551.75
387.70	5334.08
387.89	5249.82
388.09	5296.63
388.28	5303.65
388.48	5268.55
388.67	5734.31
388.86	6253.91
389.06	6792.23
389.25	7103.53
389.45	7208.85
389.64	7164.38
389.84	7073.10
390.03	7124.59
390.22	6935.01
390.42	7272.04
390.61	7681.64
390.81	8271.45
391.00	8292.52
391.19	8374.44
391.39	8243.37
391.58	7665.25
391.78	7110.55
391.97	6902.24
392.16	6441.15
392.36	6054.97
392.55	4725.54
392.75	3864.22
392.94	3075.46
393.13	2981.84
393.33	3623.15
393.52	4533.62
393.71	5699.20
393.91	6443.49
394.10	6794.58
394.29	7602.06
394.49	8025.70
394.68	8814.46
394.88	8835.52
395.07	9083.62
395.26	8716.16
395.46	8716.16
395.65	8259.75
395.84	7194.81
396.04	6134.54
396.23	4952.57
396.42	4194.24
396.62	4028.06
396.81	4613.20
397.00	5825.59
397.19	7435.88
397.39	8840.20
397.58	10003.45
397.77	10689.23
397.97	10904.56
398.16	10920.94
398.35	11595.01
398.55	11796.30
398.74	12318.24
398.93	12774.64
399.12	12327.60
399.32	11939.07
399.51	12299.52
399.70	12954.87
399.90	12940.82
400.09	13025.08
400.28	12716.13
400.47	12704.43
400.67	13319.99
400.86	13862.99
401.05	14097.05
401.24	13624.26
401.44	13720.22
401.63	14193.01
401.82	14087.68
402.01	14230.46
402.21	14274.93
402.40	14413.02
402.59	14061.94
402.78	13401.91
402.97	12975.93
403.17	13497.87
403.36	14338.12
403.55	14586.22
403.74	15321.15
403.93	14235.14
404.13	13282.54
404.32	13195.94
404.51	13731.92
404.70	14710.27
404.89	14785.16
405.09	14235.14
405.28	14012.79
405.47	14099.39
405.66	13968.32
405.85	13544.68
406.05	13331.69
406.24	13511.91
406.43	13949.59
406.62	14483.24
406.81	14796.87
407.00	14171.94
407.20	13923.85
407.39	13933.21
407.58	14588.56
407.77	15255.61
407.96	15477.96
408.15	15854.79
408.34	15812.66
408.54	16582.70
408.73	16589.72
408.92	16482.05
409.11	15927.35
409.30	15187.74
409.49	14097.05
409.68	13357.44
409.87	13055.51
410.07	13797.46
410.26	14916.23
410.45	15948.41
410.64	16500.78
410.83	16695.04
411.02	16933.78
411.21	17774.03
411.40	17462.74
411.59	17572.74
411.78	17516.57
411.98	17238.05
412.17	17640.62
412.36	17139.74
412.55	17509.55
412.74	16765.26
412.93	16264.38
413.12	16922.07
413.31	18279.58
413.50	18136.81
413.69	18691.52
413.88	17956.59
414.07	17308.26
414.26	17645.30
414.45	18307.67
414.64	18279.58
414.83	18471.51
415.02	18031.49
415.22	18061.91
415.41	18820.25
415.60	19051.96
415.79	20219.89
415.98	20093.50
416.17	20432.88
416.36	19953.07
416.55	19510.71
416.74	18897.49
416.93	18263.20
417.12	18281.92
417.31	18534.70
417.50	19147.92
417.69	19480.28
417.88	19473.26
418.07	19185.37
418.26	18946.64
418.45	19080.05
418.64	19658.16
418.83	20573.31
419.02	20149.67
419.21	20142.65
419.39	18984.09
419.58	18094.68
419.77	18281.92
419.96	18984.09
420.15	20215.21
420.34	20685.65
420.53	21458.03
420.72	21647.61
420.91	21476.76
421.10	21303.56
421.29	21095.25
421.48	20339.26
421.67	21357.39
421.86	20802.68
422.05	19414.74
422.24	17605.51
422.43	17041.44
422.61	19140.90
422.80	21022.69
422.99	20812.04
423.18	19892.21
423.37	19761.14
423.56	19604.33
423.75	19770.51
423.94	20357.98
424.13	19220.48
424.32	19412.40
424.50	19454.53
424.69	19168.99
424.88	19335.17
425.07	19381.98
425.26	19295.38
425.45	19051.96
425.64	18607.26
425.83	18733.65
426.01	19857.10
426.20	20386.07
426.39	19840.72
426.58	18679.82
426.77	17514.23
426.96	16517.16
427.15	17378.48
427.33	19002.81
427.52	19627.73
427.71	19557.52
427.90	19517.73
428.09	19438.15
428.28	18686.84
428.46	18061.91
428.65	17916.80
428.84	18293.63
429.03	18611.94
429.22	17593.81
429.40	16348.64
429.59	15400.72
429.78	13118.70
429.97	13334.03
430.16	13855.97
430.34	13565.74
430.53	13504.89
430.72	14129.81
430.91	15295.40
431.10	18511.30
431.28	21205.25
431.47	23241.52
431.66	23494.30
431.85	21177.17
432.03	19445.17
432.22	18630.66
432.41	19587.94
432.60	21294.19
432.79	22370.84
432.97	23009.81
433.16	22480.85
433.35	20514.80
433.54	18752.37
433.72	16980.59
433.91	17839.56
434.10	19852.42
434.28	21235.68
434.47	22527.66
434.66	22092.32
434.85	21563.36
435.03	21294.19
435.22	22043.17
435.41	23501.32
435.59	23241.52
435.78	23934.32
435.97	24215.18
436.16	24460.94
436.34	23843.04
436.53	23564.51
436.72	23587.92
436.90	22155.51
437.09	22270.20
437.28	22064.23
437.46	22934.91
437.65	22705.54
437.84	21104.61
438.02	19398.36
438.21	19391.34
438.40	20367.34
438.58	22040.82
438.77	22932.57
438.96	23248.54
439.14	23894.53
439.33	24367.32
439.52	24636.48
439.70	24540.52
439.89	23681.54
440.08	23056.62
440.26	23049.60
440.45	23981.13
440.63	25593.76
440.82	27117.45
441.01	26195.28
441.19	26249.11
441.38	26651.68
441.57	27417.04
441.75	27761.09
441.94	27784.50
442.12	27761.09
442.31	28203.46
442.50	27938.97
442.68	27931.95
442.87	27747.05
443.05	26761.69
443.24	27445.12
443.43	27828.97
443.61	28671.56
443.80	28982.85
443.98	27543.42
444.17	27494.27
444.35	29050.73
444.54	29308.19
444.73	28985.19
444.91	27887.48
445.10	26820.20
445.28	25755.26
445.47	25514.18
445.65	25722.49
445.84	26113.36
446.02	27023.83
446.21	27527.04
446.39	27243.84
446.58	27990.47
446.77	28414.10
446.95	28613.05
447.14	29392.45
447.32	29867.58
447.51	29144.35
447.69	27690.88
447.88	27990.47
448.06	28163.67
448.25	28584.96
448.43	29228.61
448.62	28273.67
448.80	28191.75
448.99	28587.30
449.17	28854.12
449.36	28760.50
449.54	29830.13
449.73	30061.84
449.91	30305.26
450.10	31384.24
450.28	31754.05
450.46	31782.13
450.65	31428.71
450.83	31342.11
451.02	30459.73
451.20	30665.70
451.39	30726.55
451.57	30419.94
451.76	30625.91
451.94	30244.40
452.13	29565.65
452.31	27910.89
452.49	27222.77
452.68	27234.47
452.86	27688.54
453.05	27796.20
453.23	28802.63
453.42	29476.71
453.60	29804.38
453.78	30146.10
453.97	29881.62
454.15	29865.24
454.34	28931.36
454.52	29317.55
454.70	29057.75
454.89	29207.55
455.07	29345.64
455.26	29832.47
455.44	30766.34
455.62	31758.73
455.81	31573.83
455.99	31197.00
456.17	30974.65
456.36	31028.48
456.54	31997.46
456.73	32116.83
456.91	32327.48
457.09	32638.77
457.28	33090.49
457.46	32135.56
457.64	31381.90
457.83	30646.97
458.01	30213.98
458.19	30981.67
458.38	30838.90
458.56	32112.15
458.74	32187.05
458.93	31545.74
459.11	31028.48
459.29	31131.47
459.48	31255.51
459.66	30981.67
459.84	31803.20
460.03	31992.78
460.21	31592.55
460.39	32533.45
460.57	32584.94
460.76	32936.02
460.94	32666.86
461.12	32549.83
461.31	32823.67
461.49	32521.74
461.67	32594.30
461.85	33486.04
462.04	33530.51
462.22	34242.04
462.40	33530.51
462.59	33209.86
462.77	33333.91
462.95	33455.62
463.13	33069.43
463.32	32334.50
463.50	31976.40
463.68	32151.94
463.86	32547.49
464.05	32528.77
464.23	31524.68
464.41	31030.82
464.59	30740.60
464.78	32189.39
464.96	32540.47
465.14	31632.34
465.32	32737.07
465.50	33663.93
465.69	33502.43
465.87	32980.49
466.05	32203.43
466.23	30672.72
466.41	29832.47
466.60	31131.47
466.78	31189.98
466.96	31613.62
467.14	32350.88
467.32	32613.02
467.51	32734.73
467.69	30841.24
467.87	31522.34
468.05	31889.80
468.23	32290.03
468.41	32400.04
468.60	32371.95
468.78	32821.33
468.96	32095.77
469.14	32854.10
469.32	33301.14
469.50	31505.95
469.69	31545.74
469.87	31257.85
470.05	31213.38
470.23	31189.98
470.41	31697.88
470.59	31873.42
470.77	32353.23
470.95	32835.38
471.14	33240.29
471.32	32657.49
471.50	34562.69
471.68	34733.55
471.86	35569.12
472.04	35587.85
472.22	35805.52
472.40	33638.18
472.58	33284.76
472.77	33558.60
472.95	33893.30
473.13	34611.84
473.31	33881.60
473.49	34031.39
473.67	34785.04
473.85	35321.02
474.03	35477.84
474.21	35772.75
474.39	35793.81
474.57	36371.92
474.75	36233.83
474.93	36128.51
475.12	35316.34
475.30	35395.92
475.48	35332.73
475.66	36041.91
475.84	35487.20
476.02	35005.05
476.20	34974.63
476.38	35152.51
476.56	36676.19
476.74	37144.30
476.92	36905.57
477.10	37514.11
477.28	38700.76
477.46	38522.88
477.64	38995.67
477.82	39351.43
478.00	39538.67
478.18	38740.55
478.36	38878.64
478.54	38609.48
478.72	38810.76
478.90	39693.15
479.08	40673.83
479.26	41411.10
479.44	41045.97
479.62	40987.46
479.80	41268.33
479.98	41212.15
480.16	41605.36
480.34	41186.41
480.52	41713.03
480.70	41682.60
480.88	42101.56
481.06	42370.72
481.24	43215.65
481.41	43997.39
481.59	44318.04
481.77	43899.09
481.95	43255.44
482.13	43604.18
482.31	43136.07
482.49	44231.44
482.67	43756.32
482.85	43992.71
483.03	44891.48
483.21	45338.52
483.39	45242.56
483.57	44264.21
483.74	43894.41
483.92	44041.86
484.10	44547.42
484.28	45722.37
484.46	45876.84
484.64	46270.05
484.82	45507.04
485.00	44858.71
485.18	44088.67
485.35	42756.91
485.53	39351.43
485.71	36194.04
485.89	35859.35
486.07	37581.98
486.25	41104.49
486.43	42986.28
486.61	43707.16
486.78	43608.86
486.96	43695.46
487.14	45710.66
487.32	46574.32
487.50	47709.48
487.68	48257.17
487.85	48790.81
488.03	49336.15
488.21	48444.41
488.39	47711.82
488.57	47435.64
488.75	46831.78
488.92	47861.61
489.10	50349.60
489.28	51545.62
489.46	52416.30
489.64	52088.62
489.81	52453.75
489.99	52020.75
490.17	51987.98
490.35	52292.25
490.53	51849.89
490.70	51650.94
490.88	51325.61
491.06	52505.24
491.24	52072.24
491.41	51227.31
491.59	49530.42
491.77	48636.33
491.95	49982.14
492.13	51201.56
492.30	52303.95
492.48	53303.36
492.66	53998.50
492.84	53961.05
493.01	53731.68
493.19	52776.74
493.37	52758.02
493.54	52673.76
493.72	52767.38
493.90	54038.29
494.08	54908.97
494.25	55470.70
494.43	55297.50
494.61	55934.12
494.79	55849.86
494.96	55580.70
495.14	54805.98
495.32	54071.06
495.49	53418.05
495.67	54354.26
495.85	55812.41
496.02	56327.33
496.20	56121.37
496.38	55360.69
496.55	55686.03
496.73	56016.04
496.91	55952.85
497.09	56624.58
497.26	56830.55
497.44	56247.75
497.62	56058.17
497.79	55075.15
497.97	53935.30
498.14	53965.73
498.32	55215.58
498.50	56135.41
498.67	56435.00
498.85	56465.42
499.03	56453.72
499.20	57010.77
499.38	56715.86
499.56	56523.94
499.73	56006.68
499.91	55877.95
500.08	55430.91
500.26	54710.02
500.44	55070.46
500.61	55847.52
500.79	55583.04
500.97	54967.48
501.14	55070.46
501.32	54831.73
501.49	54691.30
501.67	55194.51
501.84	55814.76
502.02	55875.61
502.20	56360.10
502.37	56334.35
502.55	56549.68
502.72	56842.25
502.90	57293.97
503.07	57303.34
503.25	56835.23
503.43	55826.46
503.60	55152.38
503.78	54328.52
503.95	55035.36
504.13	56638.62
504.30	57289.29
504.48	56999.07
504.65	56631.60
504.83	56615.22
505.01	57427.38
505.18	57794.85
505.36	58237.21
505.53	57986.77
505.71	58576.59
505.88	58653.82
506.06	57879.11
506.23	57434.41
506.41	57233.12
506.58	57439.09
506.76	57607.61
506.93	57354.83
507.11	57116.09
507.28	57214.40
507.46	57036.51
507.63	56563.73
507.81	56055.83
507.98	56362.44
508.16	57134.82
508.33	57586.54
508.50	57792.51
508.68	58188.06
508.85	58756.81
509.03	58674.89
509.20	58560.20
509.38	57525.69
509.55	57144.18
509.73	57200.35
509.90	57914.22
510.08	58031.24
510.25	57860.38
510.42	57759.74
510.60	57570.16
510.77	57911.88
510.95	58546.16
511.12	58684.25
511.30	58969.80
511.47	59178.10
511.64	59077.46
511.82	58937.03
511.99	57851.02
512.17	57535.05
512.34	57036.51
512.51	57286.95
512.69	57492.92
512.86	57492.92
513.04	58054.65
513.21	57904.85
513.38	57635.69
513.56	57134.82
513.73	56439.68
513.90	56933.53
514.08	56884.38
514.25	57066.94
514.43	57399.30
514.60	57429.72
514.77	57790.17
514.95	57528.03
515.12	57446.11
515.29	57764.42
515.47	58436.16
515.64	58693.61
515.81	58183.38
515.99	57499.94
516.16	55990.30
516.33	53876.79
516.51	52266.50
516.68	51681.37
516.85	50974.53
517.03	51557.32
517.20	54424.48
517.37	56711.18
517.54	57708.25
517.72	57059.92
517.89	54714.70
518.06	52364.81
518.24	52760.36
518.41	54859.82
518.58	56437.34
518.75	56519.26
518.93	56715.86
519.10	56673.73
519.27	57095.03
519.45	57268.23
519.62	57942.30
519.79	58204.44
519.96	58129.54
520.14	57635.69
520.31	56732.25
520.48	56692.46
520.65	57118.43
520.83	57958.69
521.00	58534.46
521.17	57928.26
521.34	57743.36
521.52	58412.75
521.69	58592.97
521.86	58901.92
522.03	58681.91
522.20	57347.81
522.38	56416.27
522.55	56275.84
522.72	57249.50
522.89	57158.22
523.07	57602.92
523.24	57614.63
523.41	58599.99
523.58	58794.26
523.75	59348.96
523.92	59091.51
524.10	59126.61
524.27	59068.10
524.44	59007.25
524.61	58452.54
524.78	58382.32
524.96	58473.60
525.13	58473.60
525.30	58777.87
525.47	59253.00
525.64	58831.71
525.81	58560.20
525.98	57020.13
526.16	55468.36
526.33	54759.17
526.50	54265.32
526.67	54129.57
526.84	54796.62
527.01	55880.29
527.18	56690.12
527.36	57544.41
527.53	58319.13
527.70	58592.97
527.87	57851.02
528.04	57701.23
528.21	58075.71
528.38	58672.55
528.55	59393.43
528.72	59568.97
528.89	59517.48
529.07	59435.56
529.24	58831.71
529.41	58265.30
529.58	57715.27
529.75	57776.12
529.92	58202.10
530.09	58614.04
530.26	59072.78
530.43	59199.17
530.60	59325.56
530.77	59629.83
530.94	59435.56
531.11	59075.12
531.28	58773.19
531.46	58546.16
531.63	58824.68
531.80	58784.90
531.97	58293.38
532.14	57640.37
532.31	56530.96
532.48	55971.57
532.65	55831.14
532.82	56992.04
532.99	57970.39
533.16	58227.85
533.33	58681.91
533.50	58658.51
533.67	57869.75
533.84	57605.26
534.01	57677.82
534.18	57836.98
534.35	58003.16
534.52	58024.22
534.69	58323.81
534.86	58557.86
535.03	58787.24
535.20	59124.27
535.37	59608.76
535.54	59817.07
535.71	59194.49
535.88	58932.35
536.05	58230.19
536.22	57914.22
536.38	57666.12
536.55	57146.52
536.72	56722.88
536.89	56615.22
537.06	57392.28
537.23	58258.27
537.40	58679.57
537.57	58372.96
537.74	58358.92
537.91	58089.76
538.08	58071.03
538.25	58361.26
538.42	58635.10
538.59	58307.43
538.75	57467.17
538.92	57389.94
539.09	57497.60
539.26	56884.38
539.43	56800.12
539.60	57020.13
539.77	57223.76
539.94	56931.19
540.11	56404.57
540.28	55760.92
540.44	56018.38
540.61	56135.41
540.78	56514.58
540.95	56664.37
541.12	57024.81
541.29	57464.83
541.46	57654.42
541.62	57694.21
541.79	57628.67
541.96	56949.92
542.13	56910.13
542.30	57237.80
542.47	57642.71
542.63	57244.82
542.80	57024.81
542.97	57165.24
543.14	56928.85
543.31	57078.64
543.48	57588.88
543.64	58337.85
543.81	58740.42
543.98	58422.11
544.15	57689.52
544.32	57118.43
544.48	57165.24
544.65	57764.42
544.82	58192.74
544.99	57708.25
545.16	57406.32
545.32	57120.77
545.49	58117.84
545.66	58216.14
545.83	58005.50
546.00	57488.24
546.16	57279.93
546.33	57216.74
546.50	57181.63
546.67	57733.99
546.83	57354.83
547.00	57361.85
547.17	56715.86
547.34	55978.59
547.50	56214.99
547.67	56540.32
547.84	56491.17
548.00	57003.75
548.17	57448.45
548.34	57523.35
548.51	57249.50
548.67	57439.09
548.84	57453.13
549.01	57326.74
549.18	57268.23
549.34	57357.17
549.51	57373.55
549.68	57099.71
549.84	56753.31
550.01	56790.76
550.18	56762.67
550.34	56652.67
550.51	56736.93
550.68	56673.73
550.84	56470.11
551.01	56451.38
551.18	56493.51
551.34	56610.54
551.51	56999.07
551.68	57406.32
551.84	57333.76
552.01	57284.61
552.18	56985.02
552.34	56175.20
552.51	55781.99
552.68	55627.51
552.84	56320.31
553.01	56317.97
553.18	56435.00
553.34	56598.83
553.51	56596.49
553.67	56994.39
553.84	57043.54
554.01	56928.85
554.17	56767.35
554.34	56774.37
554.51	56856.29
554.67	57209.71
554.84	57162.90
555.00	56570.75
555.17	56383.51
555.33	56456.06
555.50	56266.48
555.67	56346.06
555.83	56247.75
556.00	56002.00
556.16	56037.11
556.33	55643.90
556.50	55458.99
556.66	55503.46
556.83	55365.37
556.99	55423.89
557.16	55648.58
557.32	55817.10
557.49	56051.15
557.65	55950.51
557.82	55875.61
557.98	55587.72
558.15	55351.33
558.32	54485.33
558.48	53434.43
558.65	53757.42
558.81	54087.44
558.98	54279.36
559.14	54801.30
559.31	54827.05
559.47	54827.05
559.64	54478.31
559.80	54101.48
559.97	54131.91
560.13	54567.25
560.30	55529.21
560.46	55969.23
560.63	56243.07
560.79	56369.46
560.96	55920.08
561.12	54859.82
561.29	53666.14
561.45	53771.47
561.61	54485.33
561.78	55070.46
561.94	54813.01
562.11	54555.55
562.27	54611.72
562.44	54862.16
562.60	55056.42
562.77	55234.30
562.93	55246.00
563.10	55238.98
563.26	54532.14
563.42	54993.23
563.59	54490.01
563.75	54576.61
563.92	54705.34
564.08	54527.46
564.24	54670.23
564.41	54908.97
564.57	54761.51
564.74	54412.77
564.90	54490.01
565.07	54138.93
565.23	53780.83
565.39	53380.60
565.56	53148.88
565.72	52711.20
565.88	52921.85
566.05	53038.88
566.21	53389.96
566.38	53677.85
566.54	54057.01
566.70	54314.47
566.87	54429.16
567.03	54408.09
567.19	54838.75
567.36	54375.33
567.52	53923.60
567.68	53605.29
567.85	53104.41
568.01	52966.32
568.17	52439.70
568.34	52575.45
568.50	52348.42
568.66	52369.49
568.83	53092.71
568.99	53071.65
569.15	53317.40
569.32	53244.85
569.48	52741.63
569.64	52765.04
569.81	52509.92
569.97	52428.00
570.13	52332.04
570.30	51416.89
570.46	51379.44
570.62	50850.48
570.78	50445.57
570.95	50871.54
571.11	51763.29
571.27	51779.67
571.43	52247.78
571.60	52392.89
571.76	52617.58
571.92	52963.98
572.09	52982.71
572.25	52924.19
572.41	52856.32
572.57	52975.69
572.74	52978.03
572.90	52428.00
573.06	52329.70
573.22	52493.54
573.38	52598.86
573.55	52320.34
573.71	52622.26
573.87	52430.34
574.03	52191.61
574.20	52205.65
574.36	52088.62
574.52	51847.55
574.68	51580.73
574.84	51360.72
575.01	50904.31
575.17	50506.42
575.33	51089.21
575.49	51236.67
575.65	51437.95
575.82	51246.03
575.98	51201.56
576.14	50937.08
576.30	51636.90
576.46	51690.73
576.62	51550.30
576.79	51543.28
576.95	51210.92
577.11	51154.75
577.27	51229.65
577.43	51178.15
577.59	50944.10
577.75	50733.45
577.92	49715.32
578.08	49181.68
578.24	49153.59
578.40	49972.78
578.56	50288.75
578.72	50150.66
578.88	50438.54
579.04	50691.32
579.21	50965.17
579.37	50597.70
579.53	50883.25
579.69	50803.67
579.85	50817.71
580.01	50798.99
580.17	50461.95
580.33	50071.08
580.49	49932.99
580.65	50454.93
580.82	50766.22
580.98	50602.38
581.14	50707.71
581.30	50646.85
581.46	50607.06
581.62	50593.02
581.78	50864.52
581.94	51016.66
582.10	50862.18
582.26	50838.78
582.42	50749.84
582.58	50539.19
582.74	50607.06
582.90	51054.11
583.06	50862.18
583.22	50450.25
583.38	50227.90
583.54	50841.12
583.70	50614.08
583.86	50471.31
584.02	50415.14
584.18	50375.35
584.34	50286.41
584.50	50197.47
584.66	50078.10
584.82	49848.73
584.98	49476.58
585.14	49137.21
585.30	48376.53
