SpectraSuite Data File
++++++++++++++++++++++++++++++++++++
Date: Mon Oct 07 14:55:00 GMT-05:00 2013
User: price-jones
Dark Spectrum Present: No
Reference Spectrum Present: No
Number of Sampled Component Spectra: 1
Spectrometers: USB2+H05261
Integration Time (usec): 10000 (USB2+H05261)
Spectra Averaged: 1 (USB2+H05261)
Boxcar Smoothing: 0 (USB2+H05261)
Correct for Electrical Dark: No (USB2+H05261)
Strobe/Lamp Enabled: No (USB2+H05261)
Correct for Detector Non-linearity: No (USB2+H05261)
Correct for Stray Light: No (USB2+H05261)
Number of Pixels in Processed Spectrum: 2048
>>>>>Begin Processed Spectral Data<<<<<
365.73	0.00
365.92	0.00
366.12	0.00
366.32	0.00
366.52	0.00
366.72	0.00
366.91	0.00
367.11	0.00
367.31	0.00
367.51	0.00
367.70	0.00
367.90	0.00
368.10	0.00
368.30	0.00
368.49	0.00
368.69	0.00
368.89	0.00
369.09	0.00
369.28	0.00
369.48	0.00
369.68	0.00
369.87	0.00
370.07	0.00
370.27	0.00
370.47	313.63
370.66	2204.78
370.86	2647.15
371.06	2745.45
371.25	2729.06
371.45	2469.27
371.65	2071.37
371.84	2076.06
372.04	2221.17
372.24	2469.27
372.44	2619.06
372.63	2487.99
372.83	2197.76
373.03	1916.90
373.22	1867.75
373.42	2057.33
373.62	2375.64
373.81	2555.86
374.01	2523.10
374.21	2204.78
374.40	2033.93
374.60	2319.47
374.79	2583.95
374.99	3087.17
375.19	3143.34
375.38	2949.08
375.58	2967.80
375.78	2867.16
375.97	2920.99
376.17	2883.54
376.37	3117.59
376.56	3133.98
376.76	3361.01
376.95	3719.11
377.15	3819.75
377.35	3899.33
377.54	4081.89
377.74	4208.28
377.93	4161.47
378.13	3899.33
378.33	3854.86
378.52	3623.15
378.72	3407.82
378.91	3398.46
379.11	3358.67
379.31	3103.55
379.50	3232.28
379.70	3492.08
379.89	3880.61
380.09	3981.25
380.28	4205.94
380.48	4198.92
380.68	4098.28
380.87	3847.84
381.07	3602.08
381.26	3267.39
381.46	3133.98
381.65	3023.97
381.85	2888.22
382.04	2682.25
382.24	2644.81
382.43	2534.80
382.63	2450.54
382.83	2495.01
383.02	2480.97
383.22	2588.63
383.41	2497.35
383.61	2825.03
383.80	3201.85
384.00	3562.30
384.19	3999.98
384.39	4166.15
384.58	4049.13
384.78	3882.95
384.97	3936.78
385.17	3777.62
385.36	3660.60
385.56	3471.01
385.75	3648.90
385.95	3840.82
386.14	4409.57
386.34	4376.80
386.53	3971.89
386.72	3726.13
386.92	3892.31
387.11	4081.89
387.31	4248.07
387.50	4152.11
387.70	4161.47
387.89	4086.58
388.09	4180.20
388.28	4081.89
388.48	4252.75
388.67	4610.86
388.86	4961.94
389.06	5423.02
389.25	5558.77
389.45	5753.04
389.64	5530.69
389.84	5479.19
390.03	5621.97
390.22	5556.43
390.42	5783.46
390.61	6054.97
390.81	6562.86
391.00	6707.98
391.19	6473.92
391.39	6284.34
391.58	5867.72
391.78	5416.00
391.97	5441.75
392.16	5135.14
392.36	4285.52
392.55	3454.63
392.75	2717.36
392.94	2228.19
393.13	2401.39
393.33	3000.57
393.52	3901.67
393.71	4519.57
393.91	5172.58
394.10	5467.49
394.29	6204.76
394.49	6633.08
394.68	7145.66
394.88	7014.59
395.07	7269.70
395.26	7091.82
395.46	6761.81
395.65	6188.38
395.84	5334.08
396.04	4442.34
396.23	3798.69
396.42	3080.14
396.62	3349.31
396.81	3953.16
397.00	5137.48
397.19	6136.88
397.39	7360.98
397.58	8142.72
397.77	8428.27
397.97	8807.44
398.16	8910.42
398.35	9263.84
398.55	9727.27
398.74	9966.00
398.93	10125.16
399.12	10125.16
399.32	9579.81
399.51	10019.83
399.70	10284.31
399.90	10143.88
400.09	10228.14
400.28	10314.74
400.47	10305.38
400.67	10885.83
400.86	11035.63
401.05	11328.19
401.24	11300.11
401.44	11332.87
401.63	11353.94
401.82	11803.32
402.01	11475.65
402.21	11620.76
402.40	11571.61
402.59	10949.03
402.78	10670.50
402.97	10560.50
403.17	11187.76
403.36	11847.79
403.55	12035.03
403.74	12121.63
403.93	11087.12
404.13	10459.85
404.32	10448.15
404.51	11260.32
404.70	11875.88
404.89	11683.95
405.09	11545.86
405.28	11456.92
405.47	11485.01
405.66	11260.32
405.85	10995.84
406.05	10670.50
406.24	11213.51
406.43	11499.05
406.62	11824.39
406.81	11829.07
407.00	11389.05
407.20	11243.93
407.39	11339.90
407.58	12116.95
407.77	12489.10
407.96	12823.80
408.15	12776.98
408.34	13081.25
408.54	13596.17
408.73	13467.44
408.92	13039.12
409.11	12643.57
409.30	12203.55
409.49	11391.39
409.68	10942.00
409.87	10651.78
410.07	11501.39
410.26	12336.96
410.45	12807.41
410.64	13364.46
410.83	13703.84
411.02	13984.70
411.21	14216.41
411.40	14157.90
411.59	14532.39
411.78	14054.92
411.98	14122.79
412.17	14445.79
412.36	14291.31
412.55	14314.72
412.74	13909.80
412.93	13582.13
413.12	13954.27
413.31	15304.76
413.50	15082.41
413.69	15318.81
413.88	14771.12
414.07	14670.48
414.26	14691.54
414.45	15098.80
414.64	14974.75
414.83	15051.99
415.02	14705.59
415.22	14595.58
415.41	15534.14
415.60	16093.52
415.79	16685.68
415.98	16695.04
416.17	16594.40
416.36	16367.37
416.55	16386.09
416.74	15641.80
416.93	15105.82
417.12	15290.72
417.31	15534.14
417.50	15653.50
417.69	16044.37
417.88	16072.46
418.07	16081.82
418.26	15833.72
418.45	15920.32
418.64	16702.06
418.83	17144.42
419.02	16732.49
419.21	16587.38
419.39	15573.92
419.58	15255.61
419.77	15164.33
419.96	16376.73
420.15	17315.28
420.34	17647.64
420.53	17858.29
420.72	18024.47
420.91	17717.86
421.10	17661.68
421.29	17565.72
421.48	17392.52
421.67	18099.36
421.86	17429.97
422.05	15871.17
422.24	14171.94
422.43	14839.00
422.61	16606.10
422.80	17476.78
422.99	17130.38
423.18	16870.58
423.37	16575.67
423.56	16875.26
423.75	16973.56
423.94	17268.47
424.13	16046.71
424.32	16252.68
424.50	16318.22
424.69	16395.45
424.88	16865.90
425.07	16861.22
425.26	16556.95
425.45	15880.53
425.64	15887.56
425.83	16177.78
426.01	16975.91
426.20	17273.15
426.39	16793.34
426.58	15644.14
426.77	14352.16
426.96	14443.45
427.15	15094.11
427.33	16215.23
427.52	16875.26
427.71	16676.32
427.90	16641.21
428.09	16231.62
428.28	15873.51
428.46	15159.65
428.65	15026.24
428.84	15648.82
429.03	15363.28
429.22	14792.19
429.40	13418.29
429.59	12678.68
429.78	11054.35
429.97	11705.02
430.16	11396.07
430.34	11571.61
430.53	11719.06
430.72	12236.32
430.91	13919.17
431.10	16285.45
431.28	18750.03
431.47	19875.83
431.66	19850.08
431.85	17495.50
432.03	16311.19
432.22	16348.64
432.41	17310.60
432.60	18963.02
432.79	19206.44
432.97	19459.21
433.16	18895.14
433.35	17048.46
433.54	15321.15
433.72	14721.97
433.91	15585.63
434.10	17715.51
434.28	18611.94
434.47	19154.94
434.66	18483.21
434.85	18242.14
435.03	18553.43
435.22	18820.25
435.41	19601.99
435.59	20259.68
435.78	20753.53
435.97	21266.11
436.16	21156.10
436.34	20484.37
436.53	19932.00
436.72	20362.66
436.90	19201.76
437.09	19070.68
437.28	19140.90
437.46	19653.48
437.65	19278.99
437.84	17404.22
438.02	16702.06
438.21	17053.14
438.40	17771.69
438.58	19119.84
438.77	19522.41
438.96	19758.80
439.14	21132.70
439.33	21006.31
439.52	21174.83
439.70	20964.18
439.89	20589.69
440.08	20105.20
440.26	19964.77
440.45	20652.89
440.63	22235.09
440.82	23009.81
441.01	22368.50
441.19	22696.17
441.38	23201.73
441.57	23852.40
441.75	24079.43
441.94	24121.56
442.12	23981.13
442.31	24606.05
442.50	24245.61
442.68	24046.66
442.87	23702.61
443.05	23356.21
443.24	24741.80
443.43	25123.31
443.61	24793.29
443.80	24924.36
443.98	24144.97
444.17	23978.79
444.35	25357.36
444.54	25399.49
444.73	25221.61
444.91	24273.70
445.10	23150.24
445.28	22265.52
445.47	22291.26
445.65	21998.70
445.84	22829.59
446.02	23552.81
446.21	24095.82
446.39	24142.63
446.58	24088.79
446.77	25305.87
446.95	25029.69
447.14	26366.13
447.32	26167.19
447.51	25619.50
447.69	24648.18
447.88	24987.56
448.06	25193.53
448.25	25301.19
448.43	24896.28
448.62	24505.41
448.80	24872.87
448.99	24905.64
449.17	25256.72
449.36	25418.22
449.54	26066.55
449.73	26960.63
449.91	27159.58
450.10	27601.94
450.28	27503.64
450.46	27798.54
450.65	27924.93
450.83	27463.85
451.02	26602.53
451.20	26923.18
451.39	27068.30
451.57	26888.07
451.76	27274.26
451.94	26370.82
452.13	26047.82
452.31	24669.25
452.49	23293.01
452.68	24119.22
452.86	24023.26
453.05	24140.29
453.23	25748.23
453.42	26206.98
453.60	26024.42
453.78	26630.62
453.97	26185.91
454.15	25783.34
454.34	25266.08
454.52	25371.41
454.70	25256.72
454.89	25689.72
455.07	26075.91
455.26	26600.19
455.44	27800.88
455.62	27938.97
455.81	28011.53
455.99	27756.41
456.17	27470.87
456.36	28158.99
456.54	28107.49
456.73	28144.94
456.91	28603.69
457.09	28744.12
457.28	29441.60
457.46	27915.57
457.64	27634.71
457.83	27047.23
458.01	26824.88
458.19	27166.60
458.38	28144.94
458.56	28437.51
458.74	28322.82
458.93	27775.14
459.11	27489.59
459.29	27339.80
459.48	27407.67
459.66	27182.98
459.84	27728.33
460.03	28318.14
460.21	28053.66
460.39	28676.24
460.57	28811.99
460.76	29198.18
460.94	28783.91
461.12	28802.63
461.31	28989.88
461.49	29202.86
461.67	29039.03
461.85	29495.43
462.04	29591.39
462.22	29659.27
462.40	29605.44
462.59	29249.67
462.77	29488.41
462.95	29757.57
463.13	29214.57
463.32	28844.76
463.50	29053.07
463.68	29113.92
463.86	29418.19
464.05	29172.44
464.23	27599.60
464.41	27749.39
464.59	27885.14
464.78	29167.76
464.96	28746.46
465.14	27510.66
465.32	29565.65
465.50	30258.45
465.69	30094.61
465.87	29567.99
466.05	28837.74
466.23	27700.24
466.41	27103.40
466.60	27314.05
466.78	27288.31
466.96	27639.39
467.14	28102.81
467.32	28783.91
467.51	29116.26
467.69	27850.03
467.87	28657.52
468.05	29336.27
468.23	29535.22
468.41	28978.17
468.60	29132.65
468.78	29427.56
468.96	29472.03
469.14	30059.50
469.32	29577.35
469.50	28144.94
469.69	28418.78
469.87	28236.22
470.05	27702.58
470.23	28360.27
470.41	28058.34
470.59	28907.96
470.77	28486.66
470.95	29184.14
471.14	29830.13
471.32	29876.94
471.50	31718.94
471.68	31194.66
471.86	31491.91
472.04	31166.57
472.22	31447.44
472.40	29467.34
472.58	29926.09
472.77	29972.90
472.95	30258.45
473.13	31276.58
473.31	30319.30
473.49	30955.93
473.67	31147.85
473.85	32203.43
474.03	32217.47
474.21	32704.31
474.39	32790.91
474.57	32261.94
474.75	33024.96
474.93	32437.48
475.12	31484.89
475.30	32133.21
475.48	31749.37
475.66	32264.28
475.84	31543.40
476.02	31779.79
476.20	30810.81
476.38	31859.37
476.56	32554.51
476.74	33102.20
476.92	33596.05
477.10	34113.31
477.28	34703.12
477.46	34785.04
477.64	35814.88
477.82	35351.45
478.00	35037.82
478.18	34403.53
478.36	34986.33
478.54	35159.53
478.72	35370.18
478.90	35976.37
479.08	36935.99
479.26	36547.47
479.44	37591.34
479.62	37184.09
479.80	36861.10
479.98	37062.38
480.16	37787.95
480.34	36840.03
480.52	37399.42
480.70	37329.20
480.88	37408.78
481.06	37897.95
481.24	38305.21
481.41	40025.50
481.59	40257.21
481.77	38927.79
481.95	39208.65
482.13	40009.12
482.31	39028.43
482.49	39622.93
482.67	39398.24
482.85	39431.01
483.03	40526.38
483.21	41495.36
483.39	41745.80
483.57	40346.15
483.74	39927.20
483.92	40540.42
484.10	40182.32
484.28	41062.36
484.46	41773.88
484.64	42408.17
484.82	41104.49
485.00	41179.39
485.18	39763.36
485.35	38169.46
485.53	34281.83
485.71	31990.44
485.89	32060.66
486.07	35154.85
486.25	36980.46
486.43	39026.09
486.61	40091.04
486.78	39337.38
486.96	41317.48
487.14	42218.58
487.32	43641.63
487.50	43927.17
487.68	44044.20
487.85	45181.70
488.03	44638.70
488.21	43868.66
488.39	43613.54
488.57	42349.65
488.75	43091.60
488.92	44423.37
489.10	47257.76
489.28	47063.49
489.46	48259.51
489.64	47849.91
489.81	48437.39
489.99	48652.72
490.17	48690.16
490.35	48678.46
490.53	48226.74
490.70	48390.58
490.88	48004.39
491.06	49764.47
491.24	49436.80
491.41	47419.25
491.59	45579.59
491.77	45230.85
491.95	46799.01
492.13	48765.06
492.30	49647.44
492.48	50532.17
492.66	50852.82
492.84	50234.92
493.01	49766.81
493.19	49984.48
493.37	49546.80
493.54	49567.87
493.72	50520.46
493.90	51517.53
494.08	52299.27
494.25	52491.19
494.43	52760.36
494.61	53102.07
494.79	53116.12
494.96	52622.26
495.14	52828.23
495.32	50911.33
495.49	50782.60
495.67	51524.55
495.85	52811.85
496.02	53525.71
496.20	53034.20
496.38	53207.40
496.55	52458.43
496.73	53244.85
496.91	53439.11
497.09	54012.54
497.26	54703.00
497.44	53829.98
497.62	53097.39
497.79	52069.90
497.97	51014.32
498.14	51882.66
498.32	52905.47
498.50	53169.95
498.67	53635.72
498.85	53350.17
499.03	54251.28
499.20	54574.27
499.38	53874.45
499.56	53151.23
499.73	53113.78
499.91	52945.26
500.08	52631.63
500.26	52233.74
500.44	52467.79
500.61	53525.71
500.79	52500.56
500.97	52545.03
501.14	52355.44
501.32	51669.67
501.49	51777.33
501.67	52753.33
501.84	53202.72
502.02	53563.16
502.20	53272.93
502.37	53247.19
502.55	53734.02
502.72	54656.19
502.90	55260.05
503.07	54424.48
503.25	53275.27
503.43	52439.70
503.60	52151.82
503.78	52116.71
503.95	52538.01
504.13	54321.49
504.30	55313.88
504.48	54721.72
504.65	54798.96
504.83	54342.56
505.01	55255.37
505.18	55189.83
505.36	55863.91
505.53	55863.91
505.71	56191.58
505.88	56179.88
506.06	55952.85
506.23	55414.52
506.41	54588.31
506.58	55025.99
506.76	55274.09
506.93	55112.59
507.11	54703.00
507.28	54560.23
507.46	53942.33
507.63	54110.85
507.81	53696.57
507.98	53904.88
508.16	54784.92
508.33	55384.10
508.50	55622.83
508.68	55707.09
508.85	56130.73
509.03	56926.51
509.20	56406.91
509.38	55454.31
509.55	55348.99
509.73	54770.88
509.90	54780.24
510.08	55669.64
510.25	55264.73
510.42	54492.35
510.60	54820.03
510.77	55660.28
510.95	56367.12
511.12	56324.99
511.30	56912.47
511.47	56765.01
511.64	56903.10
511.82	56739.27
511.99	55213.24
512.17	55283.45
512.34	54649.17
512.51	55082.17
512.69	55639.22
512.86	54813.01
513.04	55615.81
513.21	55007.27
513.38	54557.89
513.56	53598.27
513.73	52921.85
513.90	54625.76
514.08	54138.93
514.25	54511.08
514.43	54663.21
514.60	54555.55
514.77	55341.97
514.95	56053.49
515.12	55543.25
515.29	55819.44
515.47	56324.99
515.64	56554.36
515.81	55674.32
515.99	54323.83
516.16	52388.21
516.33	49977.46
516.51	49638.08
516.68	47997.37
516.85	46305.16
517.03	48645.69
517.20	51576.04
517.37	54429.16
517.54	55676.66
517.72	54597.68
517.89	50925.38
518.06	49401.69
518.24	50501.74
518.41	53308.04
518.58	54457.24
518.75	53247.19
518.93	53790.19
519.10	53804.24
519.27	54525.12
519.45	55079.83
519.62	55697.73
519.79	55578.36
519.96	55136.00
520.14	55351.33
520.31	54621.08
520.48	54419.80
520.65	55414.52
520.83	55730.50
521.00	55323.24
521.17	55047.06
521.34	55426.23
521.52	56631.60
521.69	56423.29
521.86	57282.27
522.03	56254.78
522.20	54424.48
522.38	53755.08
522.55	53773.81
522.72	54262.98
522.89	54784.92
523.07	54850.45
523.24	55723.47
523.41	56362.44
523.58	56413.93
523.75	56818.84
523.92	57364.19
524.10	56931.19
524.27	56540.32
524.44	56273.50
524.61	56046.47
524.78	55980.93
524.96	55861.57
525.13	56259.46
525.30	57041.20
525.47	57167.58
525.64	56779.06
525.81	55494.10
525.98	53951.69
526.16	52097.98
526.33	52205.65
526.50	51856.91
526.67	51861.59
526.84	52949.94
527.01	53478.90
527.18	54340.22
527.36	55323.24
527.53	55779.65
527.70	55667.30
527.87	54831.73
528.04	54525.12
528.21	55704.75
528.38	56046.47
528.55	57212.06
528.72	57673.14
528.89	57031.83
529.07	56896.08
529.24	55770.28
529.41	55356.01
529.58	55594.74
529.75	55901.36
529.92	57029.49
530.09	56741.61
530.26	56669.05
530.43	57001.41
530.60	57052.90
530.77	57008.43
530.94	57249.50
531.11	56697.14
531.28	56069.87
531.46	56512.23
531.63	56982.68
531.80	55798.37
531.97	55618.15
532.14	54915.99
532.31	53900.20
532.48	53801.89
532.65	53689.55
532.82	54089.78
532.99	56254.78
533.16	56465.42
533.33	56589.47
533.50	56477.13
533.67	55187.49
533.84	55641.56
534.01	56004.34
534.18	55627.51
534.35	55985.61
534.52	55779.65
534.69	55856.88
534.86	56477.13
535.03	56516.92
535.20	57034.17
535.37	57659.10
535.54	57794.85
535.71	56975.66
535.88	56252.44
536.05	55620.49
536.22	55180.47
536.38	55491.76
536.55	55114.94
536.72	54567.25
536.89	54663.21
537.06	55618.15
537.23	56327.33
537.40	55777.31
537.57	56413.93
537.74	56058.17
537.91	55913.06
538.08	55487.08
538.25	56395.21
538.42	55973.91
538.59	56133.07
538.75	55384.10
538.92	54216.17
539.09	54550.87
539.26	54738.11
539.43	54735.77
539.60	54532.14
539.77	55047.06
539.94	54684.28
540.11	53888.49
540.28	53378.26
540.44	54052.33
540.61	54033.61
540.78	54258.30
540.95	54527.46
541.12	54110.85
541.29	55318.56
541.46	55021.31
541.62	55154.72
541.79	54307.45
541.96	53851.05
542.13	54433.84
542.30	54880.88
542.47	54880.88
542.63	54585.97
542.80	54468.95
542.97	53731.68
543.14	54340.22
543.31	54969.82
543.48	55606.45
543.64	56264.14
543.81	56477.13
543.98	56212.65
544.15	55222.60
544.32	55250.69
544.48	56163.50
544.65	55311.54
544.82	55938.80
544.99	54883.22
545.16	54635.13
545.32	55056.42
545.49	55344.31
545.66	56231.37
545.83	55552.62
546.00	55386.44
546.16	55185.15
546.33	54583.63
546.50	54333.20
546.67	55576.02
546.83	55339.63
547.00	55159.41
547.17	53436.77
547.34	53160.59
547.50	53694.23
547.67	54045.31
547.84	54490.01
548.00	55334.95
548.17	55136.00
548.34	55468.36
548.51	55138.34
548.67	54714.70
548.84	54878.54
549.01	54855.14
549.18	54742.79
549.34	54419.80
549.51	54611.72
549.68	55510.49
549.84	54255.96
550.01	53853.39
550.18	54295.75
550.34	54300.43
550.51	54321.49
550.68	54188.08
550.84	54560.23
551.01	54307.45
551.18	54419.80
551.34	54457.24
551.51	54314.47
551.68	54597.68
551.84	55253.03
552.01	54738.11
552.18	54679.60
552.34	53523.37
552.51	53322.08
552.68	53357.19
552.84	54064.03
553.01	54054.67
553.18	53202.72
553.34	53956.37
553.51	54452.56
553.67	54490.01
553.84	54377.67
554.01	55196.85
554.17	54415.11
554.34	54171.70
554.51	54698.32
554.67	53996.16
554.84	54129.57
555.00	53827.64
555.17	54209.15
555.33	54080.42
555.50	53396.98
555.67	53815.94
555.83	53418.05
556.00	52954.62
556.16	52418.64
556.33	53326.77
556.50	54019.56
556.66	53408.68
556.83	52896.11
556.99	52542.69
557.16	53099.73
557.32	53467.20
557.49	53975.09
557.65	52933.56
557.82	53783.17
557.98	53759.76
558.15	52615.24
558.32	51927.13
558.48	50529.83
558.65	50822.39
558.81	51571.36
558.98	51356.03
559.14	51208.58
559.31	52353.10
559.47	52779.08
559.64	51229.65
559.80	50670.26
559.97	51239.01
560.13	51746.90
560.30	52861.00
560.46	54138.93
560.63	54335.54
560.79	54286.39
560.96	53010.79
561.12	52343.74
561.29	52718.23
561.45	52505.24
561.61	53062.29
561.78	52215.01
561.94	51885.00
562.11	51543.28
562.27	51540.94
562.44	52303.95
562.60	52498.22
562.77	52760.36
562.93	52633.97
563.10	52839.93
563.26	52348.42
563.42	52306.29
563.59	52591.84
563.75	51672.01
563.92	52257.14
564.08	52425.66
564.24	53146.54
564.41	51189.86
564.57	52758.02
564.74	52460.77
564.90	51945.85
565.07	50827.07
565.23	50660.90
565.39	49745.75
565.56	50099.17
565.72	50927.72
565.88	50578.98
566.05	52032.45
566.21	51007.29
566.38	51590.09
566.54	52687.80
566.70	52519.28
566.87	52163.52
567.03	52772.06
567.19	52978.03
567.36	52587.16
567.52	51852.23
567.68	51599.45
567.85	50473.65
568.01	50511.10
568.17	50370.67
568.34	50749.84
568.50	50370.67
568.66	49743.41
568.83	49907.24
568.99	49619.36
569.15	50691.32
569.32	50703.03
569.48	50738.13
569.64	50417.48
569.81	50691.32
569.97	50115.55
570.13	48980.39
570.30	48531.01
570.46	49375.94
570.62	48306.32
570.78	48446.75
570.95	48428.02
571.11	48725.27
571.27	48430.36
571.43	50014.91
571.60	50337.90
571.76	49979.80
571.92	50340.24
572.09	50192.79
572.25	49675.53
572.41	49591.27
572.57	50534.51
572.74	51374.76
572.90	50082.78
573.06	51559.66
573.22	51157.09
573.38	50862.18
573.55	50962.82
573.71	50693.66
573.87	50904.31
574.03	50508.76
574.20	49581.91
574.36	48580.16
574.52	49029.54
574.68	48334.40
574.84	48030.13
575.01	47697.78
575.17	48949.96
575.33	49123.16
575.49	49244.87
575.65	48669.10
575.82	47964.60
575.98	49193.38
576.14	49408.71
576.30	49614.68
576.46	49752.77
576.62	48446.75
576.79	48240.78
576.95	49467.22
577.11	49113.80
577.27	48095.67
577.43	48275.89
577.59	48680.80
577.75	48704.21
577.92	47494.15
578.08	46948.81
578.24	46337.93
578.40	46859.87
578.56	46146.00
578.72	46782.63
578.88	48046.52
579.04	47449.68
579.21	47718.84
579.37	47466.06
579.53	47037.75
579.69	46761.56
579.85	47543.30
580.01	47676.71
580.17	47054.13
580.33	48158.86
580.49	47814.80
580.65	48238.44
580.82	48083.97
580.98	47847.57
581.14	46899.65
581.30	46532.19
581.46	46358.99
581.62	47437.98
581.78	48133.12
581.94	48154.18
582.10	47852.25
582.26	47379.46
582.42	48109.71
582.58	48275.89
582.74	47058.81
582.90	47002.64
583.06	49610.00
583.22	47798.42
583.38	47856.93
583.54	47739.91
583.70	47814.80
583.86	47730.54
584.02	46728.80
584.18	46976.89
584.34	46646.88
584.50	46632.83
584.66	46253.67
584.82	46232.60
584.98	46614.11
585.14	45464.91
585.30	44584.86
