SpectraSuite Data File
++++++++++++++++++++++++++++++++++++
Date: Mon Oct 07 14:54:02 GMT-05:00 2013
User: price-jones
Dark Spectrum Present: No
Reference Spectrum Present: No
Number of Sampled Component Spectra: 1
Spectrometers: USB2+H05261
Integration Time (usec): 100000 (USB2+H05261)
Spectra Averaged: 1 (USB2+H05261)
Boxcar Smoothing: 0 (USB2+H05261)
Correct for Electrical Dark: No (USB2+H05261)
Strobe/Lamp Enabled: No (USB2+H05261)
Correct for Detector Non-linearity: No (USB2+H05261)
Correct for Stray Light: No (USB2+H05261)
Number of Pixels in Processed Spectrum: 2048
>>>>>Begin Processed Spectral Data<<<<<
365.73	0.00
365.92	0.00
366.12	0.00
366.32	0.00
366.52	0.00
366.72	0.00
366.91	0.00
367.11	0.00
367.31	0.00
367.51	0.00
367.70	0.00
367.90	0.00
368.10	0.00
368.30	0.00
368.49	0.00
368.69	0.00
368.89	0.00
369.09	0.00
369.28	0.00
369.48	0.00
369.68	0.00
369.87	0.00
370.07	0.00
370.27	0.00
370.47	770.04
370.66	3524.85
370.86	4159.13
371.06	4493.83
371.25	4599.15
371.45	4079.55
371.65	3791.67
371.84	3342.28
372.04	3672.30
372.24	4095.94
372.44	4189.56
372.63	4252.75
372.83	3896.99
373.03	3543.57
373.22	3232.28
373.42	3311.86
373.62	3918.06
373.81	4238.71
374.01	4215.30
374.21	3712.09
374.40	3496.76
374.60	3555.27
374.79	4086.58
374.99	4805.12
375.19	5064.92
375.38	5107.05
375.58	4868.31
375.78	4683.41
375.97	4880.02
376.17	4961.94
376.37	4950.23
376.56	5184.29
376.76	5329.40
376.95	5682.82
377.15	6237.53
377.35	6387.32
377.54	6810.96
377.74	6754.79
377.93	6843.73
378.13	6565.20
378.33	6289.02
378.52	5806.87
378.72	5659.42
378.91	5441.75
379.11	5191.31
379.31	5167.90
379.50	5170.24
379.70	5570.48
379.89	6033.90
380.09	6445.84
380.28	6832.02
380.48	6745.42
380.68	6532.44
380.87	6392.00
381.07	6019.86
381.26	5434.72
381.46	5116.41
381.65	4830.87
381.85	4833.21
382.04	4559.36
382.24	4369.78
382.43	4168.49
382.63	4114.66
382.83	3960.19
383.02	4035.08
383.22	4114.66
383.41	4210.62
383.61	4334.67
383.80	4915.12
384.00	5495.58
384.19	6377.96
384.39	6588.61
384.58	6597.97
384.78	6579.25
384.97	6342.85
385.17	6263.27
385.36	5884.11
385.56	5755.38
385.75	5558.77
385.95	6396.68
386.14	6829.68
386.34	6712.66
386.53	6494.99
386.72	6171.99
386.92	6101.78
387.11	6516.05
387.31	6970.12
387.50	6771.17
387.70	6569.88
387.89	6289.02
388.09	6420.09
388.28	6476.26
388.48	6513.71
388.67	6925.65
388.86	7840.79
389.06	8280.82
389.25	8636.58
389.45	8709.13
389.64	8706.79
389.84	8765.31
390.03	8402.52
390.22	8542.96
390.42	8765.31
390.61	9415.98
390.81	10038.56
391.00	10349.85
391.19	10216.44
391.39	9731.95
391.58	9296.61
391.78	8870.63
391.97	8451.67
392.16	7653.55
392.36	7068.42
392.55	5673.46
392.75	4599.15
392.94	3662.94
393.13	3707.41
393.33	4372.12
393.52	5460.47
393.71	6768.83
393.91	7929.74
394.10	8463.38
394.29	9163.20
394.49	9963.66
394.68	10679.86
394.88	10623.69
395.07	10944.34
395.26	10663.48
395.46	10525.39
395.65	9937.91
395.84	8725.52
396.04	7403.11
396.23	5921.56
396.42	5088.32
396.62	4779.37
396.81	5617.29
397.00	7152.68
397.19	8858.93
397.39	10672.84
397.58	12095.89
397.77	12650.60
397.97	13137.43
398.16	13104.66
398.35	13806.82
398.55	14024.49
398.74	14799.21
398.93	15115.18
399.12	14855.38
399.32	14413.02
399.51	14572.18
399.70	15777.55
399.90	15396.04
400.09	15712.02
400.28	15304.76
400.47	15602.01
400.67	16229.27
400.86	16489.07
401.05	16409.50
401.24	16446.94
401.44	17144.42
401.63	16805.05
401.82	17228.68
402.01	17006.33
402.21	17027.40
402.40	17305.92
402.59	16865.90
402.78	15910.96
402.97	15564.56
403.17	16119.27
403.36	17139.74
403.55	17954.25
403.74	18251.50
403.93	17188.89
404.13	15925.00
404.32	15674.57
404.51	16030.33
404.70	17582.10
404.89	17631.26
405.09	17312.94
405.28	16631.85
405.47	16613.12
405.66	16910.37
405.85	16379.07
406.05	15873.51
406.24	15637.12
406.43	16889.31
406.62	17326.99
406.81	17413.59
407.00	16856.54
407.20	16610.78
407.39	16695.04
407.58	17465.08
407.77	18167.24
407.96	18630.66
408.15	18611.94
408.34	18956.00
408.54	19969.45
408.73	19824.34
408.92	19463.90
409.11	19105.79
409.30	17965.95
409.49	17216.98
409.68	16240.98
409.87	15185.40
410.07	16702.06
410.26	17664.02
410.45	18501.93
410.64	19021.53
410.83	19365.59
411.02	20400.11
411.21	21308.24
411.40	20589.69
411.59	21055.46
411.78	20613.10
411.98	20442.24
412.17	21001.63
412.36	20451.60
412.55	20781.62
412.74	20175.42
412.93	19513.05
413.12	19873.49
413.31	21792.73
413.50	21762.30
413.69	22204.66
413.88	21144.40
414.07	20882.26
414.26	21322.28
414.45	21914.44
414.64	21884.01
414.83	21991.67
415.02	21481.44
415.22	21460.37
415.41	22066.57
415.60	22595.53
415.79	23775.16
415.98	24128.58
416.17	24023.26
416.36	23314.08
416.55	22878.74
416.74	22480.85
416.93	21589.10
417.12	21584.42
417.31	22178.92
417.50	22146.15
417.69	22658.73
417.88	22787.46
418.07	22775.75
418.26	22309.99
418.45	22616.60
418.64	23388.97
418.83	24198.80
419.02	24175.39
419.21	23981.13
419.39	22843.63
419.58	21266.11
419.77	21467.39
419.96	22586.17
420.15	23978.79
420.34	24517.11
420.53	25310.55
420.72	25689.72
420.91	25799.73
421.10	25240.34
421.29	25296.51
421.48	24320.51
421.67	25523.54
421.86	24510.09
422.05	23152.58
422.24	20554.58
422.43	20360.32
422.61	22438.72
422.80	24496.05
422.99	24439.87
423.18	23644.09
423.37	23283.65
423.56	23194.71
423.75	23360.89
423.94	23826.65
424.13	22735.96
424.32	22902.14
424.50	22965.34
424.69	22955.97
424.88	22637.66
425.07	22462.12
425.26	22405.95
425.45	22773.41
425.64	22157.85
425.83	22169.55
426.01	23524.72
426.20	24091.13
426.39	23831.33
426.58	22029.12
426.77	20552.24
426.96	19482.62
427.15	20383.73
427.33	22038.48
427.52	22810.86
427.71	22979.38
427.90	22735.96
428.09	22850.65
428.28	22293.60
428.46	21509.52
428.65	20924.39
428.84	21537.61
429.03	21933.16
429.22	20594.37
429.40	19969.45
429.59	18136.81
429.78	15646.48
429.97	15829.04
430.16	16093.52
430.34	16278.43
430.53	16109.91
430.72	16201.19
430.91	18141.49
431.10	21177.17
431.28	24783.93
431.47	26972.33
431.66	27681.52
431.85	25247.36
432.03	23021.51
432.22	21848.90
432.41	22651.70
432.60	25198.21
432.79	26281.88
432.97	27016.80
433.16	26214.00
433.35	24009.22
433.54	21853.58
433.72	20245.63
433.91	20800.34
434.10	23124.49
434.28	24783.93
434.47	26422.31
434.66	25748.23
434.85	25151.40
435.03	25039.05
435.22	26047.82
435.41	27435.76
435.59	27175.96
435.78	27789.18
435.97	28297.08
436.16	28512.41
436.34	28133.24
436.53	27604.28
436.72	27716.62
436.90	25785.68
437.09	25970.58
437.28	25371.41
437.46	26960.63
437.65	26438.69
437.84	24865.85
438.02	22834.27
438.21	22342.75
438.40	23866.44
438.58	25724.83
438.77	26263.15
438.96	26443.37
439.14	27747.05
439.33	28320.48
439.52	29076.48
439.70	28439.85
439.89	27648.75
440.08	26738.28
440.26	26897.44
440.45	27625.34
440.63	29455.64
440.82	31201.68
441.01	30850.60
441.19	30562.72
441.38	30621.23
441.57	31763.41
441.75	32385.99
441.94	32446.85
442.12	32371.95
442.31	33001.55
442.50	32463.23
442.68	32411.74
442.87	32002.14
443.05	31442.76
443.24	31700.22
443.43	32561.53
443.61	32973.47
443.80	33682.65
443.98	31981.08
444.17	31552.76
444.35	33317.53
444.54	33935.43
444.73	33764.57
444.91	32088.74
445.10	30787.41
445.28	29500.11
445.47	29001.58
445.65	29504.79
445.84	30089.93
446.02	31367.86
446.21	31658.09
446.39	32091.09
446.58	32283.01
446.77	32783.88
446.95	32870.48
447.14	33968.19
447.32	34494.82
447.51	33642.86
447.69	32077.04
447.88	31960.02
448.06	32397.70
448.25	32776.86
448.43	33380.72
448.62	32561.53
448.80	32432.80
448.99	32517.06
449.17	33359.66
449.36	33134.96
449.54	34368.43
449.73	35229.74
449.91	35285.92
450.10	36437.46
450.28	36503.00
450.46	36210.43
450.65	36811.95
450.83	36084.04
451.02	35196.98
451.20	35199.32
451.39	35180.59
451.57	34937.18
451.76	34958.24
451.94	34340.34
452.13	34476.09
452.31	32472.59
452.49	31047.21
452.68	31409.99
452.86	31627.66
453.05	32147.26
453.23	32804.95
453.42	33577.33
453.60	34532.26
453.78	34958.24
453.97	34223.31
454.15	34756.96
454.34	33523.49
454.52	33390.08
454.70	33174.75
454.89	33556.26
455.07	33706.05
455.26	34326.30
455.44	35292.94
455.62	35548.06
455.81	36023.19
455.99	36271.28
456.17	35494.22
456.36	35562.10
456.54	36411.71
456.73	36671.51
456.91	36870.46
457.09	36786.20
457.28	38108.60
457.46	36060.63
457.64	35978.72
457.83	34890.37
458.01	34918.45
458.19	35433.37
458.38	35182.93
458.56	36655.13
458.74	36856.42
458.93	35985.74
459.11	35732.96
459.29	35409.96
459.48	35536.35
459.66	35292.94
459.84	36062.97
460.03	36245.54
460.21	35943.61
460.39	37195.79
460.57	36943.02
460.76	37635.81
460.94	37614.75
461.12	36797.90
461.31	37338.57
461.49	37165.37
461.67	36975.78
461.85	38588.41
462.04	38003.28
462.22	38822.47
462.40	38270.10
462.59	37778.59
462.77	37933.06
462.95	38096.90
463.13	37701.35
463.32	36835.35
463.50	37322.18
463.68	37268.35
463.86	37277.71
464.05	36531.08
464.23	35393.58
464.41	35873.39
464.59	35388.90
464.78	37111.53
464.96	36610.66
465.14	36095.74
465.32	37195.79
465.50	37930.72
465.69	38380.10
465.87	37427.51
466.05	36802.58
466.23	35086.97
466.41	34129.69
466.60	35126.76
466.78	34939.52
466.96	36233.83
467.14	36346.18
467.32	36804.92
467.51	37345.59
467.69	35505.93
467.87	36105.10
468.05	36699.60
468.23	36645.77
468.41	36793.22
468.60	37041.32
468.78	37376.01
468.96	36137.87
469.14	37415.80
469.32	37605.39
469.50	36182.34
469.69	36100.42
469.87	35353.79
470.05	35756.36
470.23	35328.05
470.41	36261.92
470.59	36004.46
470.77	36395.33
470.95	37017.91
471.14	37624.11
471.32	37490.70
471.50	39304.62
471.68	39796.13
471.86	39903.79
472.04	40039.54
472.22	40121.46
472.40	38389.47
472.58	38127.33
472.77	37867.53
472.95	38586.07
473.13	39063.54
473.31	38150.73
473.49	38246.69
473.67	38902.04
473.85	39330.36
474.03	40531.06
474.21	40112.10
474.39	40793.20
474.57	40950.01
474.75	41544.51
474.93	40676.17
475.12	40060.61
475.30	39756.34
475.48	40051.25
475.66	40484.25
475.84	39758.68
476.02	39964.65
476.20	39122.05
476.38	39859.32
476.56	40989.80
476.74	41832.39
476.92	42040.70
477.10	42490.09
477.28	43543.33
477.46	43232.04
477.64	44208.04
477.82	43807.81
478.00	44264.21
478.18	43475.45
478.36	43405.23
478.54	43430.98
478.72	43454.39
478.90	44762.75
479.08	45460.23
479.26	46564.96
479.44	45921.31
479.62	45954.08
479.80	45680.24
479.98	46036.00
480.16	46506.44
480.34	45897.91
480.52	46204.52
480.70	46426.87
480.88	46497.08
481.06	47562.03
481.24	47316.27
481.41	48531.01
481.59	48648.03
481.77	48526.33
481.95	48261.85
482.13	47901.40
482.31	48055.88
482.49	48645.69
482.67	48439.73
482.85	48804.85
483.03	49104.44
483.21	49626.38
483.39	49638.08
483.57	48875.07
483.74	48552.07
483.92	48926.56
484.10	49071.67
484.28	50263.00
484.46	50274.71
484.64	50672.60
484.82	49734.04
485.00	49488.29
485.18	48725.27
485.35	47456.70
485.53	44673.81
485.71	40704.26
485.89	39896.77
486.07	41799.63
486.25	45247.24
486.43	47538.62
486.61	48259.51
486.78	48498.24
486.96	48439.73
487.14	50288.75
487.32	50962.82
487.50	51786.69
487.68	52523.96
487.85	53076.33
488.03	52708.86
488.21	52327.36
488.39	52107.35
488.57	51311.56
488.75	50948.78
488.92	51852.23
489.10	53998.50
489.28	55030.68
489.46	55777.31
489.64	55599.43
489.81	55753.90
489.99	55372.39
490.17	55554.96
490.35	55730.50
490.53	55554.96
490.70	54988.55
490.88	55070.46
491.06	55711.77
491.24	55725.81
491.41	54850.45
491.59	53249.53
491.77	52608.22
491.95	53329.11
492.13	54801.30
492.30	55838.16
492.48	56650.33
492.66	57125.46
492.84	57230.78
493.01	56889.06
493.19	56353.08
493.37	56048.81
493.54	55613.47
493.72	56399.89
493.90	57202.69
494.08	57965.71
494.25	58284.02
494.43	58485.31
494.61	58611.70
494.79	58822.34
494.96	58585.95
495.14	57956.35
495.32	57282.27
495.49	56502.87
495.67	57602.92
495.85	58834.05
496.02	59058.74
496.20	59133.63
496.38	58379.98
496.55	58419.77
496.73	59035.33
496.91	59011.93
497.09	59515.14
497.26	59746.86
497.44	59100.87
497.62	58822.34
497.79	57958.69
497.97	56872.68
498.14	57050.56
498.32	57825.28
498.50	59037.67
498.67	59620.47
498.85	59194.49
499.03	59370.03
499.20	59690.68
499.38	59721.11
499.56	59367.69
499.73	58974.48
499.91	58644.46
500.08	58312.11
500.26	57668.46
500.44	57745.70
500.61	58644.46
500.79	58468.92
500.97	57965.71
501.14	57961.03
501.32	57925.92
501.49	57839.32
501.67	57867.40
501.84	58499.35
502.02	58850.43
502.20	59091.51
502.37	59138.32
502.55	59248.32
502.72	59634.51
502.90	60196.24
503.07	59952.82
503.25	59473.01
503.43	58836.39
503.60	58096.78
503.78	57521.01
503.95	57855.70
504.13	59290.45
504.30	60020.70
504.48	59845.16
504.65	59470.67
504.83	59524.50
505.01	60055.81
505.18	60402.21
505.36	60818.82
505.53	60886.70
505.71	61233.10
505.88	61172.24
506.06	60390.50
506.23	60303.90
506.41	59985.59
506.58	60083.89
506.76	59994.95
506.93	60163.47
507.11	59927.08
507.28	59973.89
507.46	59461.31
507.63	58908.94
507.81	58829.37
507.98	59168.74
508.16	59714.09
508.33	60247.73
508.50	60413.91
508.68	60959.25
508.85	61202.67
509.03	61261.18
509.20	61020.11
509.38	60343.69
509.55	59849.84
509.73	59774.94
509.90	60399.86
510.08	60500.51
510.25	60512.21
510.42	60154.11
510.60	59985.59
510.77	60470.08
510.95	60858.61
511.12	61111.39
511.30	61300.97
511.47	61762.06
511.64	61621.62
511.82	61403.95
511.99	60200.92
512.17	60130.70
512.34	59742.17
512.51	59955.16
512.69	59943.46
512.86	60367.10
513.04	60317.95
513.21	60711.16
513.38	60303.90
513.56	59697.70
513.73	59166.40
513.90	59421.52
514.08	59419.18
514.25	59859.20
514.43	59800.69
514.60	60032.40
514.77	60303.90
514.95	60315.61
515.12	60074.53
515.29	60320.29
515.47	60659.66
515.64	61017.77
515.81	60608.17
515.99	60264.11
516.16	58766.17
516.33	56664.37
516.51	55084.51
516.68	54569.59
516.85	54092.12
517.03	54520.44
517.20	57034.17
517.37	59243.64
517.54	60367.10
517.72	59781.96
517.89	57439.09
518.06	55150.04
518.24	55620.49
518.41	57722.29
518.58	58728.72
518.75	59082.14
518.93	59138.32
519.10	59292.79
519.27	59618.13
519.45	59613.44
519.62	60217.30
519.79	60622.22
519.96	60528.59
520.14	60023.04
520.31	59325.56
520.48	59185.13
520.65	59618.13
520.83	60535.62
521.00	60842.23
521.17	60577.75
521.34	60217.30
521.52	60427.95
521.69	60874.99
521.86	61406.30
522.03	61062.24
522.20	59849.84
522.38	59035.33
522.55	58930.01
522.72	59353.65
522.89	59791.33
523.07	59587.70
523.24	60285.18
523.41	61008.40
523.58	61277.57
523.75	61581.84
523.92	61333.74
524.10	61581.84
524.27	61600.56
524.44	61109.05
524.61	60905.42
524.78	60823.50
524.96	60683.07
525.13	60788.39
525.30	60898.40
525.47	61633.33
525.64	61221.39
525.81	60619.88
525.98	59437.90
526.16	57825.28
526.33	57626.33
526.50	57066.94
526.67	57066.94
526.84	57361.85
527.01	58379.98
527.18	59119.59
527.36	59840.48
527.53	60479.44
527.70	60718.18
527.87	60292.20
528.04	59861.54
528.21	60418.59
528.38	60999.04
528.55	61687.16
528.72	61841.63
528.89	62110.80
529.07	61677.80
529.24	61155.86
529.41	60343.69
529.58	59798.35
529.75	60069.85
529.92	60498.17
530.09	60692.43
530.26	61158.20
530.43	61410.98
530.60	61598.22
530.77	61729.29
530.94	61825.25
531.11	61336.08
531.28	60839.89
531.46	60790.73
531.63	60933.51
531.80	60914.78
531.97	60388.16
532.14	59625.15
532.31	58899.58
532.48	58155.29
532.65	58295.72
532.82	59117.25
532.99	60114.32
533.16	60516.89
533.33	61001.38
533.50	60715.84
533.67	60048.78
533.84	59817.07
534.01	59997.29
534.18	60247.73
534.35	60350.71
534.52	60275.82
534.69	60362.42
534.86	60544.98
535.03	61029.47
535.20	61443.74
535.37	61691.84
535.54	61815.89
535.71	61485.87
535.88	61085.64
536.05	60507.53
536.22	60334.33
536.38	59749.20
536.55	59337.26
536.72	58642.12
536.89	58780.21
537.06	59568.97
537.23	60472.42
537.40	60664.35
537.57	60687.75
537.74	60369.44
537.91	60346.03
538.08	60214.96
538.25	60287.52
538.42	60547.32
538.59	60395.18
538.75	59735.15
538.92	59580.68
539.09	59571.32
539.26	59241.30
539.43	59107.89
539.60	59145.34
539.77	59208.53
539.94	59171.08
540.11	58377.64
540.28	57858.04
540.44	58152.95
540.61	58248.91
540.78	58286.36
540.95	58997.88
541.12	59320.88
541.29	59678.98
541.46	59788.98
541.62	59791.33
541.79	59805.37
541.96	59021.29
542.13	59021.29
542.30	59377.05
542.47	59590.04
542.63	59276.41
542.80	59082.14
542.97	59124.27
543.14	59112.57
543.31	59037.67
543.48	59634.51
543.64	60214.96
543.81	60626.90
543.98	60207.94
544.15	59810.05
544.32	58920.65
544.48	59276.41
544.65	59695.36
544.82	60119.00
544.99	59695.36
545.16	59339.60
545.32	59128.95
545.49	59913.03
545.66	60219.64
545.83	59950.48
546.00	59473.01
546.16	59217.89
546.33	59262.36
546.50	59281.09
546.67	59870.90
546.83	59143.00
547.00	59597.06
547.17	58752.13
547.34	58358.92
547.50	58078.05
547.67	58885.54
547.84	58707.66
548.00	58939.37
548.17	59533.87
548.34	59437.90
548.51	59267.05
548.67	59229.60
548.84	59512.80
549.01	59381.73
549.18	59187.47
549.34	59253.00
549.51	59192.15
549.68	58897.24
549.84	58906.60
550.01	58871.49
550.18	58857.45
550.34	58831.71
550.51	58904.26
550.68	59040.01
550.84	58403.39
551.01	58494.67
551.18	58515.73
551.34	58567.23
551.51	59044.69
551.68	59414.50
551.84	59269.39
552.01	59135.98
552.18	58667.87
552.34	58176.36
552.51	57918.90
552.68	57668.46
552.84	58239.55
553.01	58422.11
553.18	58293.38
553.34	58394.03
553.51	58534.46
553.67	58944.05
553.84	59093.85
554.01	58878.52
554.17	58585.95
554.34	58663.19
554.51	59002.56
554.67	59285.77
554.84	58927.67
555.00	58649.14
555.17	58527.44
555.33	58459.56
555.50	58321.47
555.67	58396.37
555.83	58166.99
556.00	57750.38
556.16	57982.09
556.33	57722.29
556.50	57308.02
556.66	57336.10
556.83	56980.34
556.99	57394.62
557.16	57406.32
557.32	57848.68
557.49	57848.68
557.65	58059.33
557.82	57914.22
557.98	57785.49
558.15	57382.91
558.32	56467.76
558.48	55751.56
558.65	55833.48
558.81	56360.10
558.98	56353.08
559.14	56715.86
559.31	56732.25
559.47	56828.21
559.64	56423.29
559.80	56343.72
559.97	56292.22
560.13	56530.96
560.30	57305.68
560.46	58038.26
560.63	58003.16
560.79	58363.60
560.96	57921.24
561.12	56645.65
561.29	55952.85
561.45	55882.63
561.61	56484.15
561.78	56807.14
561.94	56676.07
562.11	56589.47
562.27	56388.19
562.44	56743.95
562.60	56924.17
562.77	57153.54
562.93	57022.47
563.10	57066.94
563.26	56512.23
563.42	56683.09
563.59	56399.89
563.75	56285.20
563.92	56446.70
564.08	56254.78
564.24	56348.40
564.41	56446.70
564.57	56589.47
564.74	56296.91
564.90	56458.40
565.07	56116.68
565.23	55615.81
565.39	55040.04
565.56	55100.89
565.72	54511.08
565.88	55377.08
566.05	55157.06
566.21	55543.25
566.38	55756.24
566.54	55927.10
566.70	55866.25
566.87	56346.06
567.03	56385.85
567.19	56575.43
567.36	56217.33
567.52	55927.10
567.68	55980.93
567.85	55278.77
568.01	54614.06
568.17	54447.88
568.34	54473.63
568.50	54464.27
568.66	54602.36
568.83	54836.41
568.99	55054.08
569.15	55257.71
569.32	55030.68
569.48	54855.14
569.64	54653.85
569.81	54422.14
569.97	54356.60
570.13	54230.21
570.30	53687.21
570.46	53343.15
570.62	52830.57
570.78	52666.73
570.95	52982.71
571.11	53813.60
571.27	54143.61
571.43	54099.14
571.60	54564.91
571.76	54721.72
571.92	55077.49
572.09	55049.40
572.25	54784.92
572.41	54925.35
572.57	54859.82
572.74	54614.06
572.90	54286.39
573.06	54440.86
573.22	54454.90
573.38	54181.06
573.55	54663.21
573.71	54293.41
573.87	54557.89
574.03	54110.85
574.20	54564.91
574.36	53907.22
574.52	53848.71
574.68	53666.14
574.84	53347.83
575.01	52640.99
575.17	52325.02
575.33	52954.62
575.49	53418.05
575.65	53549.12
575.82	53418.05
575.98	53045.90
576.14	53179.31
576.30	53661.46
576.46	53422.73
576.62	53572.52
576.79	53392.30
576.95	53172.29
577.11	52851.64
577.27	53118.46
577.43	53319.74
577.59	52662.05
577.75	52395.23
577.92	51767.97
578.08	51618.17
578.24	51388.80
578.40	51779.67
578.56	52224.37
578.72	52172.88
578.88	52570.77
579.04	52636.31
579.21	52940.58
579.37	52919.51
579.53	52872.70
579.69	52905.47
579.85	53078.67
580.01	52704.18
580.17	52332.04
580.33	52325.02
580.49	52296.93
580.65	52748.65
580.82	52825.89
580.98	52629.29
581.14	52399.91
581.30	53013.13
581.46	52493.54
581.62	52877.38
581.78	52772.06
581.94	53106.76
582.10	53083.35
582.26	53050.58
582.42	52582.48
582.58	52807.17
582.74	52776.74
582.90	52776.74
583.06	52736.95
583.22	52502.90
583.38	52495.88
583.54	52350.76
583.70	52296.93
583.86	52399.91
584.02	52271.18
584.18	52399.91
584.34	52207.99
584.50	52240.76
584.66	52292.25
584.82	51730.52
584.98	51845.21
585.14	51360.72
