SpectraSuite Data File
++++++++++++++++++++++++++++++++++++
Date: Mon Oct 07 14:55:35 GMT-05:00 2013
User: price-jones
Dark Spectrum Present: No
Reference Spectrum Present: No
Number of Sampled Component Spectra: 1
Spectrometers: USB2+H05261
Integration Time (usec): 1000000 (USB2+H05261)
Spectra Averaged: 1 (USB2+H05261)
Boxcar Smoothing: 0 (USB2+H05261)
Correct for Electrical Dark: No (USB2+H05261)
Strobe/Lamp Enabled: No (USB2+H05261)
Correct for Detector Non-linearity: No (USB2+H05261)
Correct for Stray Light: No (USB2+H05261)
Number of Pixels in Processed Spectrum: 2048
>>>>>Begin Processed Spectral Data<<<<<
365.73	0.00
365.92	0.00
366.12	0.00
366.32	0.00
366.52	0.00
366.72	154.48
366.91	0.00
367.11	112.35
367.31	46.81
367.51	119.37
367.70	241.08
367.90	486.83
368.10	229.37
368.30	126.39
368.49	0.00
368.69	334.70
368.89	248.10
369.09	0.00
369.28	170.86
369.48	0.00
369.68	121.71
369.87	266.82
370.07	49.15
370.27	517.26
370.47	2043.29
370.66	7176.08
370.86	8491.46
371.06	9130.43
371.25	9415.98
371.45	8018.68
371.65	7522.48
371.84	6801.60
372.04	6984.16
372.24	7878.24
372.44	8264.43
372.63	8215.28
372.83	7859.52
373.03	6759.47
373.22	6087.73
373.42	6487.96
373.62	7470.99
373.81	8257.41
374.01	8084.21
374.21	7620.78
374.40	6843.73
374.60	7339.92
374.79	7988.25
374.99	9020.42
375.19	9837.27
375.38	9984.73
375.58	9214.69
375.78	9458.10
375.97	9275.54
376.17	10005.79
376.37	9563.43
376.56	9619.60
376.76	9958.98
376.95	10644.76
377.15	11536.50
377.35	11887.58
377.54	12329.94
377.74	12414.20
377.93	12645.91
378.13	12126.32
378.33	11901.62
378.52	10913.92
378.72	10677.52
378.91	10623.69
379.11	9996.43
379.31	9523.64
379.50	9535.34
379.70	10431.77
379.89	11466.28
380.09	12140.36
380.28	12098.23
380.48	12222.28
380.68	11700.34
380.87	11480.33
381.07	10857.75
381.26	10471.56
381.46	9366.82
381.65	9502.58
381.85	9160.86
382.04	8837.86
382.24	8102.93
382.43	7985.91
382.63	7349.28
382.83	7562.27
383.02	7878.24
383.22	7786.96
383.41	7468.65
383.61	8322.94
383.80	9490.87
384.00	10064.30
384.19	11272.02
384.39	12044.40
384.58	11850.13
384.78	11716.72
384.97	11468.62
385.17	10775.83
385.36	10333.47
385.56	10164.95
385.75	9933.23
385.95	11550.54
386.14	12170.79
386.34	12123.98
386.53	11428.84
386.72	10668.16
386.92	11545.86
387.11	11452.24
387.31	12077.16
387.50	11690.98
387.70	11302.45
387.89	11190.10
388.09	11297.77
388.28	11197.12
388.48	11372.66
388.67	12535.91
388.86	13362.12
389.06	14525.36
389.25	15220.50
389.45	15051.99
389.64	15281.36
389.84	15302.42
390.03	14459.83
390.22	14775.80
390.42	15105.82
390.61	15665.21
390.81	16643.55
391.00	17525.93
391.19	17638.28
391.39	16449.28
391.58	15576.27
391.78	14731.33
391.97	14352.16
392.16	13224.03
392.36	12587.40
392.55	10157.92
392.75	8058.46
392.94	6656.48
393.13	6885.86
393.33	7686.32
393.52	9914.51
393.71	12159.08
393.91	13238.07
394.10	13837.25
394.29	15260.29
394.49	16365.03
394.68	18038.51
394.88	17942.55
395.07	18513.64
395.26	18195.32
395.46	17455.72
395.65	17064.85
395.84	14576.86
396.04	13209.98
396.23	10186.01
396.42	8645.94
396.62	8650.62
396.81	9877.06
397.00	12383.77
397.19	15503.71
397.39	17858.29
397.58	20395.43
397.77	21216.96
397.97	21722.51
398.16	21752.94
398.35	23068.32
398.55	23000.44
398.74	24299.44
398.93	25181.82
399.12	24210.50
399.32	23447.49
399.51	23929.64
399.70	25785.68
399.90	25074.16
400.09	25329.28
400.28	25392.47
400.47	24884.58
400.67	27044.89
400.86	26630.62
401.05	26838.92
401.24	27068.30
401.44	27768.12
401.63	27496.61
401.82	27695.56
402.01	27304.69
402.21	28205.80
402.40	28161.33
402.59	27194.68
402.78	25975.27
402.97	25137.35
403.17	26216.34
403.36	27896.85
403.55	28437.51
403.74	28833.06
403.93	28034.94
404.13	26506.57
404.32	25369.07
404.51	26930.20
404.70	28793.27
404.89	27974.08
405.09	27946.00
405.28	26850.63
405.47	26649.34
405.66	27171.28
405.85	26324.01
406.05	25689.72
406.24	25764.62
406.43	26946.59
406.62	27791.52
406.81	28563.90
407.00	27365.54
407.20	26541.68
407.39	26588.49
407.58	27548.11
407.77	28538.15
407.96	29567.99
408.15	29818.42
408.34	30188.23
408.54	31260.20
408.73	30930.18
408.92	30984.01
409.11	30050.14
409.30	28861.15
409.49	26747.64
409.68	25139.69
409.87	24599.03
410.07	25954.20
410.26	28130.90
410.45	29331.59
410.64	29944.81
410.83	31145.51
411.02	31601.91
411.21	33127.94
411.40	32790.91
411.59	32208.11
411.78	32109.81
411.98	32123.85
412.17	32428.12
412.36	31945.97
412.55	31732.98
412.74	31384.24
412.93	30951.24
413.12	30408.24
413.31	33546.90
413.50	33935.43
413.69	33890.96
413.88	33242.63
414.07	32144.92
414.26	32882.19
414.45	33607.75
414.64	33916.70
414.83	33745.84
415.02	33118.58
415.22	33329.23
415.41	34335.66
415.60	34539.29
415.79	36247.88
415.98	37486.02
416.17	36877.48
416.36	35679.13
416.55	35445.07
416.74	34389.49
416.93	33453.28
417.12	33069.43
417.31	33486.04
417.50	34213.95
417.69	35515.29
417.88	35416.99
418.07	34504.18
418.26	34148.42
418.45	34850.58
418.64	36137.87
418.83	36514.70
419.02	36896.20
419.21	35754.02
419.39	34258.42
419.58	32748.78
419.77	33043.68
419.96	34700.78
420.15	36795.56
420.34	37294.10
420.53	38022.00
420.72	38672.67
420.91	38171.80
421.10	38291.16
421.29	37869.87
421.48	36411.71
421.67	38492.45
421.86	36943.02
422.05	34752.27
422.24	31197.00
422.43	31192.32
422.61	33797.34
422.80	36715.98
422.99	36542.78
423.18	35597.21
423.37	34843.56
423.56	34614.18
423.75	35978.72
423.94	36046.59
424.13	33977.56
424.32	33961.17
424.50	34277.15
424.69	33706.05
424.88	34333.32
425.07	34115.65
425.26	34230.33
425.45	33649.88
425.64	32816.65
425.83	32746.44
426.01	35321.02
426.20	35297.62
426.39	35742.32
426.58	32748.78
426.77	30714.85
426.96	29434.58
427.15	30747.62
427.33	32896.23
427.52	34635.25
427.71	34204.59
427.90	33509.45
428.09	33205.18
428.28	32477.27
428.46	31557.44
428.65	31089.34
428.84	31850.01
429.03	33209.86
429.22	30670.38
429.40	28854.12
429.59	26621.25
429.78	23756.44
429.97	23868.78
430.16	23826.65
430.34	24201.14
430.53	24030.28
430.72	24566.26
430.91	27435.76
431.10	31477.86
431.28	36825.99
431.47	39475.48
431.66	39468.45
431.85	36130.85
432.03	33448.60
432.22	32870.48
432.41	33654.56
432.60	37251.97
432.79	38094.56
432.97	38696.08
433.16	38223.29
433.35	35580.82
433.54	31779.79
433.72	30073.54
433.91	31072.95
434.10	34494.82
434.28	36418.74
434.47	38211.59
434.66	38073.49
434.85	36542.78
435.03	36891.52
435.22	39861.66
435.41	42836.48
435.59	42014.96
435.78	41324.50
435.97	41495.36
436.16	40767.45
436.34	40313.39
436.53	39995.07
436.72	40100.40
436.90	37841.78
437.09	37792.63
437.28	36975.78
437.46	38686.71
437.65	37771.57
437.84	35679.13
438.02	32947.72
438.21	32409.40
438.40	34611.84
438.58	36966.42
438.77	37900.29
438.96	38272.44
439.14	39573.78
439.33	40634.04
439.52	41069.38
439.70	40109.76
439.89	39377.17
440.08	38691.40
440.26	38480.75
440.45	40226.79
440.63	41577.28
440.82	43639.29
441.01	42944.15
441.19	42897.34
441.38	43508.22
441.57	44435.07
441.75	45226.17
441.94	45553.85
442.12	44608.27
442.31	45546.82
442.50	45392.35
442.68	45263.62
442.87	45015.52
443.05	44081.65
443.24	44989.78
443.43	45764.49
443.61	46461.97
443.80	46176.43
443.98	44158.89
444.17	44119.10
444.35	46356.65
444.54	46976.89
444.73	46256.01
444.91	45104.46
445.10	42873.93
445.28	41750.48
445.47	41338.54
445.65	41167.68
445.84	41977.51
446.02	44013.77
446.21	43768.02
446.39	44130.80
446.58	44453.79
446.77	45200.43
446.95	45191.06
447.14	46660.92
447.32	47571.39
447.51	46256.01
447.69	44858.71
447.88	44421.03
448.06	45523.42
448.25	45837.05
448.43	45769.18
448.62	44870.41
448.80	45230.85
448.99	45097.44
449.17	45024.89
449.36	45750.45
449.54	47236.69
449.73	47026.04
449.91	47711.82
450.10	48804.85
450.28	49736.38
450.46	49352.54
450.65	49130.19
450.83	48617.61
451.02	47672.03
451.20	47320.95
451.39	47206.26
451.57	47480.11
451.76	47606.50
451.94	46646.88
452.13	45553.85
452.31	45008.50
452.49	43033.09
452.68	42616.47
452.86	43592.48
453.05	43770.36
453.23	45116.17
453.42	45221.49
453.60	46742.84
453.78	46724.11
453.97	46192.81
454.15	46377.72
454.34	44952.33
454.52	45549.17
454.70	45076.38
454.89	45645.13
455.07	45577.25
455.26	45869.82
455.44	47681.39
455.62	48428.02
455.81	48624.63
455.99	48140.14
456.17	47365.42
456.36	47351.38
456.54	48978.05
456.73	48767.40
456.91	49123.16
457.09	48952.30
457.28	50380.03
457.46	48409.30
457.64	48676.12
457.83	46494.74
458.01	46117.92
458.19	46600.07
458.38	46997.96
458.56	48655.06
458.74	48011.41
458.93	47356.06
459.11	47690.76
459.29	46644.54
459.48	47227.33
459.66	47374.78
459.84	47805.44
460.03	48554.41
460.21	47758.63
460.39	49106.78
460.57	48912.52
460.76	49537.44
460.94	49469.56
461.12	48643.35
461.31	48828.26
461.49	48809.53
461.67	48816.55
461.85	49656.81
462.04	49535.10
462.22	50564.93
462.40	49097.42
462.59	49834.69
462.77	49439.14
462.95	49666.17
463.13	48776.76
463.32	48877.41
463.50	48339.08
463.68	48301.64
463.86	48542.71
464.05	48140.14
464.23	47468.40
464.41	47353.72
464.59	46323.88
464.78	48142.48
464.96	47620.54
465.14	47737.57
465.32	48676.12
465.50	49432.11
465.69	49155.93
465.87	48996.77
466.05	47959.92
466.23	46230.26
466.41	45502.35
466.60	46237.28
466.78	45996.21
466.96	47430.96
467.14	47386.49
467.32	48451.43
467.51	48477.18
467.69	46340.27
467.87	47810.12
468.05	47681.39
468.23	48294.61
468.41	47697.78
468.60	47732.89
468.78	48238.44
468.96	47854.59
469.14	48397.60
469.32	48629.31
469.50	46700.71
469.69	47657.99
469.87	46274.73
470.05	45909.61
470.23	46026.63
470.41	46696.03
470.59	46902.00
470.77	46916.04
470.95	47901.40
471.14	48598.88
471.32	48203.33
471.50	50714.73
471.68	50621.11
471.86	50253.64
472.04	50253.64
472.22	50536.85
472.40	49120.82
472.58	48048.86
472.77	47683.73
472.95	48917.20
473.13	50218.53
473.31	49144.23
473.49	48645.69
473.67	49453.18
473.85	50192.79
474.03	51091.55
474.21	50464.29
474.39	51402.85
474.57	51377.10
474.75	51475.40
474.93	50719.41
475.12	49724.68
475.30	49916.61
475.48	50202.15
475.66	50962.82
475.84	49975.12
476.02	50143.64
476.20	49420.41
476.38	50138.96
476.56	50925.38
476.74	51264.75
476.92	51810.10
477.10	52179.90
477.28	53020.16
477.46	52779.08
477.64	52816.53
477.82	53649.76
478.00	53595.93
478.18	52765.04
478.36	53059.94
478.54	52783.76
478.72	53148.88
478.90	53801.89
479.08	54550.87
479.26	54651.51
479.44	54700.66
479.62	54246.60
479.80	54628.10
479.98	54527.46
480.16	54595.34
480.34	54724.07
480.52	54873.86
480.70	55243.66
480.88	55238.98
481.06	55442.61
481.24	55777.31
481.41	56090.94
481.59	56940.55
481.77	56793.10
481.95	56207.97
482.13	56357.76
482.31	55746.88
482.49	56615.22
482.67	56435.00
482.85	56498.19
483.03	56999.07
483.21	57364.19
483.39	57041.20
483.57	56521.60
483.74	56147.11
483.92	56598.83
484.10	55922.42
484.28	57146.52
484.46	57619.31
484.64	57862.72
484.82	57286.95
485.00	57085.67
485.18	56484.15
485.35	55554.96
485.53	52966.32
485.71	51077.51
485.89	49691.91
486.07	51550.30
486.25	54255.96
486.43	55800.71
486.61	56427.98
486.78	56177.54
486.96	56116.68
487.14	57408.66
487.32	57883.79
487.50	58836.39
487.68	59040.01
487.85	58892.56
488.03	59566.63
488.21	59334.92
488.39	58766.17
488.57	58197.42
488.75	58019.54
488.92	59505.78
489.10	60341.35
489.28	61563.11
489.46	61448.42
489.64	61551.41
489.81	61602.90
489.99	61504.60
490.17	61027.13
490.35	61923.55
490.53	61151.18
490.70	60540.30
490.88	60872.65
491.06	61701.20
491.24	61511.62
491.41	60823.50
491.59	59629.83
491.77	59049.38
491.95	60151.77
492.13	60439.65
492.30	61750.35
492.48	62319.10
492.66	62454.86
492.84	62492.30
493.01	62447.83
493.19	61944.62
493.37	61902.49
493.54	61682.48
493.72	62000.79
493.90	62848.06
494.08	63393.41
494.25	63501.07
494.43	63161.70
494.61	63487.03
494.79	63877.90
494.96	63987.91
495.14	62993.18
495.32	62712.31
495.49	61731.63
495.67	63159.36
495.85	64179.83
496.02	64343.67
496.20	64357.71
496.38	63632.14
496.55	63863.86
496.73	63915.35
496.91	63784.28
497.09	64746.24
497.26	64303.88
497.44	63688.32
497.62	63700.02
497.79	63341.92
497.97	62157.61
498.14	62138.88
498.32	63011.90
498.50	63339.58
498.67	64626.87
498.85	64097.91
499.03	64238.34
499.20	64610.49
499.38	64612.83
499.56	64437.29
499.73	64320.26
499.91	63999.61
500.08	63365.32
500.26	62688.91
500.44	62929.98
500.61	63889.60
500.79	63318.51
500.97	63070.42
501.14	62911.26
501.32	62742.74
501.49	62993.18
501.67	63421.50
501.84	63639.17
502.02	63657.89
502.20	64228.98
502.37	64191.53
502.55	64107.27
502.72	64509.85
502.90	64954.55
503.07	64776.67
503.25	64317.92
503.43	63339.58
503.60	62852.75
503.78	62382.30
503.95	62986.16
504.13	63955.14
504.30	64753.26
504.48	64474.74
504.65	64011.31
504.83	63936.41
505.01	64640.92
505.18	63793.64
505.36	65532.66
505.53	65523.30
505.71	65174.56
505.88	65535.00
506.06	65038.81
506.23	65204.98
506.41	64463.03
506.58	64842.20
506.76	64451.33
506.93	64903.06
507.11	64722.83
507.28	64308.56
507.46	64254.73
507.63	63344.26
507.81	63655.55
507.98	64121.32
508.16	64573.04
508.33	64945.18
508.50	65087.96
508.68	65293.92
508.85	65535.00
509.03	65532.66
509.20	65333.71
509.38	65272.86
509.55	64324.94
509.73	64395.16
509.90	65116.04
510.08	65078.60
510.25	65006.04
510.42	64622.19
510.60	64669.00
510.77	65113.70
510.95	65535.00
511.12	65282.22
511.30	65535.00
511.47	65535.00
511.64	65535.00
511.82	65535.00
511.99	65146.47
512.17	64802.41
512.34	64470.06
512.51	64706.45
512.69	64589.42
512.86	64598.79
513.04	64952.21
513.21	64982.63
513.38	64465.38
513.56	64685.39
513.73	63627.46
513.90	64219.62
514.08	63735.13
514.25	63971.52
514.43	64608.15
514.60	63728.11
514.77	64189.19
514.95	64678.36
515.12	64722.83
515.29	65020.08
515.47	65413.29
515.64	65535.00
515.81	65298.61
515.99	64718.15
516.16	63461.29
516.33	61647.37
516.51	60357.74
516.68	59798.35
516.85	59615.79
517.03	59831.11
517.20	62164.63
517.37	63845.13
517.54	64842.20
517.72	63922.37
517.89	62637.42
518.06	60500.51
518.24	60800.10
518.41	62548.48
518.58	63561.93
518.75	63952.80
518.93	63819.39
519.10	63250.64
519.27	63934.07
519.45	64161.11
519.62	64755.60
519.79	65272.86
519.96	65097.32
520.14	64701.77
520.31	63936.41
520.48	64020.67
520.65	64203.24
520.83	64825.82
521.00	65106.68
521.17	65010.72
521.34	64551.98
521.52	64947.53
521.69	65270.52
521.86	65535.00
522.03	65450.74
522.20	64769.64
522.38	63419.16
522.55	63718.74
522.72	64013.65
522.89	63898.97
523.07	64392.82
523.24	64999.02
523.41	65499.89
523.58	65535.00
523.75	65535.00
523.92	65535.00
524.10	65535.00
524.27	65535.00
524.44	65298.61
524.61	65535.00
524.78	65303.29
524.96	65284.56
525.13	65263.50
525.30	65263.50
525.47	65535.00
525.64	65373.50
525.81	64973.27
525.98	63962.16
526.16	62670.18
526.33	62347.19
526.50	61174.58
526.67	61530.34
526.84	62106.12
527.01	62501.67
527.18	63753.85
527.36	64175.15
527.53	65233.07
527.70	65303.29
527.87	65036.47
528.04	63863.86
528.21	64779.01
528.38	65535.00
528.55	65535.00
528.72	65535.00
528.89	65535.00
529.07	65535.00
529.24	65322.01
529.41	65017.74
529.58	64748.58
529.75	64446.65
529.92	64961.57
530.09	65106.68
530.26	65535.00
530.43	65535.00
530.60	65535.00
530.77	65535.00
530.94	65535.00
531.11	65535.00
531.28	65298.61
531.46	65221.37
531.63	65408.61
531.80	65392.23
531.97	65123.07
532.14	63636.83
532.31	63585.33
532.48	62761.47
532.65	62859.77
532.82	63540.86
532.99	64638.57
533.16	64821.14
533.33	65242.43
533.50	65535.00
533.67	64465.38
533.84	64376.43
534.01	63728.11
534.18	64584.74
534.35	64643.26
534.52	64877.31
534.69	65204.98
534.86	65202.64
535.03	65354.78
535.20	65535.00
535.37	65535.00
535.54	65535.00
535.71	65535.00
535.88	65535.00
536.05	64992.00
536.22	64533.25
536.38	64224.30
536.55	64093.23
536.72	63662.57
536.89	63365.32
537.06	63943.44
537.23	64374.09
537.40	64523.89
537.57	64551.98
537.74	64790.71
537.91	64610.49
538.08	64540.27
538.25	65045.83
538.42	64931.14
538.59	64465.38
538.75	64065.14
538.92	64271.11
539.09	64004.29
539.26	64041.74
539.43	63861.52
539.60	63840.45
539.77	63971.52
539.94	63971.52
540.11	63604.06
540.28	63154.68
540.44	63152.33
540.61	63217.87
540.78	63767.90
540.95	63894.28
541.12	64736.88
541.29	64924.12
541.46	65059.87
541.62	65104.34
541.79	64867.95
541.96	64626.87
542.13	64575.38
542.30	64622.19
542.47	65031.78
542.63	64528.57
542.80	64425.59
542.97	64444.31
543.14	64605.81
543.31	64350.69
543.48	65027.10
543.64	65535.00
543.81	65535.00
543.98	65420.31
544.15	65097.32
544.32	64460.69
544.48	64610.49
544.65	64769.64
544.82	65258.82
544.99	64839.86
545.16	64706.45
545.32	64566.02
545.49	65535.00
545.66	65535.00
545.83	65535.00
546.00	65535.00
546.16	64860.93
546.33	64577.72
546.50	64427.93
546.67	64690.07
546.83	64228.98
547.00	64542.61
547.17	63742.15
547.34	63084.46
547.50	63171.06
547.67	63763.21
547.84	63723.43
548.00	63868.54
548.17	64252.39
548.34	64198.55
548.51	64308.56
548.67	64294.52
548.84	64193.87
549.01	64273.45
549.18	64008.97
549.34	64142.38
549.51	64090.89
549.68	63725.77
549.84	63540.86
550.01	63454.26
550.18	63721.08
550.34	63646.19
550.51	63468.31
550.68	63524.48
550.84	62745.08
551.01	63047.01
551.18	63217.87
551.34	63121.91
551.51	63428.52
551.68	63847.47
551.84	63819.39
552.01	63283.40
552.18	63545.54
552.34	62801.25
552.51	62777.85
552.68	62099.09
552.84	63093.82
553.01	63133.61
553.18	63241.28
553.34	63241.28
553.51	63093.82
553.67	63346.60
553.84	63781.94
554.01	63433.20
554.17	63344.26
554.34	63304.47
554.51	63421.50
554.67	63700.02
554.84	63393.41
555.00	63002.54
555.17	62791.89
555.33	62946.37
555.50	62714.65
555.67	62990.84
555.83	62761.47
556.00	62482.94
556.16	63187.44
556.33	61904.83
556.50	62045.26
556.66	62195.06
556.83	61668.44
556.99	61949.30
557.16	62031.22
557.32	62347.19
557.49	62585.92
557.65	62309.74
557.82	62424.43
557.98	62181.01
558.15	61874.40
558.32	61286.93
558.48	60591.79
558.65	60449.02
558.81	60643.28
558.98	61174.58
559.14	61300.97
559.31	61261.18
559.47	61422.68
559.64	61174.58
559.80	60760.31
559.97	60755.63
560.13	61031.81
560.30	61883.76
560.46	62649.12
560.63	62459.54
560.79	62457.20
560.96	62092.07
561.12	61111.39
561.29	60226.66
561.45	60376.46
561.61	60725.20
561.78	61506.94
561.94	61530.34
562.11	61251.82
562.27	60985.00
562.44	61155.86
562.60	61450.77
562.77	61904.83
562.93	61797.16
563.10	61560.77
563.26	61043.51
563.42	61181.60
563.59	60835.20
563.75	60701.79
563.92	61076.28
564.08	60877.33
564.24	61242.46
564.41	61275.22
564.57	61073.94
564.74	60874.99
564.90	60451.36
565.07	60542.64
565.23	60671.37
565.39	59884.95
565.56	59655.57
565.72	59426.20
565.88	60060.49
566.05	60154.11
566.21	60130.70
566.38	60210.28
566.54	59957.50
566.70	60713.50
566.87	60678.39
567.03	60594.13
567.19	60818.82
567.36	60760.31
567.52	60486.46
567.68	60453.70
567.85	59606.42
568.01	59337.26
568.17	59339.60
568.34	59318.54
568.50	59363.01
568.66	59217.89
568.83	60140.07
568.99	59531.53
569.15	60037.08
569.32	59688.34
569.48	59318.54
569.64	59245.98
569.81	58944.05
569.97	58803.62
570.13	58834.05
570.30	58522.76
570.46	58220.83
570.62	57848.68
570.78	57521.01
570.95	57535.05
571.11	58480.63
571.27	58726.38
571.43	58789.58
571.60	59161.72
571.76	58815.32
571.92	59580.68
572.09	59650.89
572.25	59583.02
572.41	59496.42
572.57	59269.39
572.74	59667.28
572.90	59157.04
573.06	58988.52
573.22	58714.68
573.38	58997.88
573.55	59011.93
573.71	59245.98
573.87	59236.62
574.03	58759.15
574.20	58944.05
574.36	58630.42
574.52	58728.72
574.68	58248.91
574.84	58220.83
575.01	57687.18
575.17	57539.73
575.33	57862.72
575.49	58272.32
575.65	58330.83
575.82	58099.12
575.98	57949.32
576.14	57780.81
576.30	58286.36
576.46	58925.33
576.62	58876.18
576.79	58710.00
576.95	58262.96
577.11	57684.84
577.27	58061.67
577.43	58361.26
577.59	57663.78
577.75	57560.79
577.92	56846.93
578.08	56240.73
578.24	56900.76
578.40	57418.02
578.56	57680.16
578.72	57909.53
578.88	58246.57
579.04	57829.96
579.21	57897.83
579.37	57682.50
579.53	57874.43
579.69	57577.18
579.85	57656.76
580.01	57586.54
580.17	57146.52
580.33	57200.35
580.49	57296.31
580.65	57663.78
580.82	57853.36
580.98	57326.74
581.14	57661.44
581.30	57755.06
581.46	57439.09
581.62	57996.13
581.78	57584.20
581.94	57968.05
582.10	57836.98
582.26	57853.36
582.42	57897.83
582.58	57942.30
582.74	57696.55
582.90	57925.92
583.06	57865.06
583.22	57558.45
583.38	57558.45
583.54	57689.52
583.70	57609.95
583.86	57579.52
584.02	57626.33
584.18	58288.70
