SpectraSuite Data File
++++++++++++++++++++++++++++++++++++
Date: Mon Oct 07 14:53:41 GMT-05:00 2013
User: price-jones
Dark Spectrum Present: No
Reference Spectrum Present: No
Number of Sampled Component Spectra: 1
Spectrometers: USB2+H05261
Integration Time (usec): 100000 (USB2+H05261)
Spectra Averaged: 1 (USB2+H05261)
Boxcar Smoothing: 0 (USB2+H05261)
Correct for Electrical Dark: No (USB2+H05261)
Strobe/Lamp Enabled: No (USB2+H05261)
Correct for Detector Non-linearity: No (USB2+H05261)
Correct for Stray Light: No (USB2+H05261)
Number of Pixels in Processed Spectrum: 2048
>>>>>Begin Processed Spectral Data<<<<<
365.73	0.00
365.92	0.00
366.12	0.00
366.32	0.00
366.52	0.00
366.72	0.00
366.91	0.00
367.11	0.00
367.31	0.00
367.51	0.00
367.70	0.00
367.90	0.00
368.10	0.00
368.30	0.00
368.49	0.00
368.69	0.00
368.89	0.00
369.09	0.00
369.28	0.00
369.48	0.00
369.68	0.00
369.87	0.00
370.07	0.00
370.27	0.00
370.47	372.15
370.66	2296.07
370.86	2733.75
371.06	2953.76
371.25	3019.29
371.45	2766.51
371.65	2392.03
371.84	2267.98
372.04	2499.69
372.24	2834.39
372.44	2773.53
372.63	2724.38
372.83	2590.97
373.03	2396.71
373.22	2146.27
373.42	2326.49
373.62	2562.89
373.81	2738.43
374.01	2747.79
374.21	2394.37
374.40	2272.66
374.60	2345.22
374.79	2651.83
374.99	3208.87
375.19	3272.07
375.38	3506.12
375.58	3236.96
375.78	3084.83
375.97	3309.52
376.17	3318.88
376.37	3412.50
376.56	3400.80
376.76	3695.71
376.95	3861.88
377.15	4079.55
377.35	4355.74
377.54	4409.57
377.74	4491.49
377.93	4559.36
378.13	4484.47
378.33	4283.18
378.52	3896.99
378.72	3737.84
378.91	3693.37
379.11	3548.25
379.31	3520.17
379.50	3410.16
379.70	3801.03
379.89	4175.52
380.09	4404.89
380.28	4477.44
380.48	4573.41
380.68	4542.98
380.87	4283.18
381.07	4142.75
381.26	3609.11
381.46	3487.40
381.65	3339.94
381.85	3293.13
382.04	3183.13
382.24	2853.11
382.43	2733.75
382.63	2768.85
382.83	2745.45
383.02	2822.69
383.22	2710.34
383.41	2764.17
383.61	2904.60
383.80	3171.43
384.00	3665.28
384.19	4147.43
384.39	4376.80
384.58	4554.68
384.78	4393.19
384.97	4346.37
385.17	4173.18
385.36	4016.36
385.56	3845.50
385.75	3941.46
385.95	4292.54
386.14	4674.05
386.34	4767.67
386.53	4514.89
386.72	4250.41
386.92	4149.77
387.11	4369.78
387.31	4788.74
387.50	4465.74
387.70	4517.23
387.89	4451.70
388.09	4322.97
388.28	4376.80
388.48	4388.50
388.67	4678.73
388.86	5291.95
389.06	5832.62
389.25	5991.77
389.45	6094.76
389.64	6076.03
389.84	6017.52
390.03	5905.17
390.22	5942.62
390.42	5935.60
390.61	6399.02
390.81	6822.66
391.00	6923.30
391.19	7030.97
391.39	6766.49
391.58	6370.94
391.78	5762.40
391.97	5654.73
392.16	5441.75
392.36	4980.66
392.55	3887.63
392.75	3197.17
392.94	2569.91
393.13	2672.89
393.33	3087.17
393.52	3864.22
393.71	4667.03
393.91	5425.36
394.10	5741.33
394.29	6321.79
394.49	6782.87
394.68	7218.21
394.88	7346.94
395.07	7435.88
395.26	7506.10
395.46	7400.77
395.65	6956.07
395.84	6174.33
396.04	5338.76
396.23	4119.34
396.42	3536.55
396.62	3337.60
396.81	3932.10
397.00	5032.15
397.19	6207.10
397.39	7356.30
397.58	8519.55
397.77	8966.59
397.97	9324.69
398.16	9401.93
398.35	9558.75
398.55	9778.76
398.74	10253.89
398.93	10581.56
399.12	10588.58
399.32	10087.71
399.51	10218.78
399.70	11023.92
399.90	10766.46
400.09	10862.43
400.28	10733.70
400.47	10771.15
400.67	11468.62
400.86	11646.51
401.05	11508.41
401.24	11730.76
401.44	11838.43
401.63	11733.11
401.82	11880.56
402.01	12102.91
402.21	12116.95
402.40	12126.32
402.59	11896.94
402.78	11456.92
402.97	11171.38
403.17	11297.77
403.36	12009.29
403.55	12685.70
403.74	12786.35
403.93	12163.76
404.13	11276.70
404.32	11007.54
404.51	11492.03
404.70	12369.73
404.89	12482.08
405.09	12266.75
405.28	11726.08
405.47	11805.66
405.66	11831.41
405.85	11389.05
406.05	11080.10
406.24	11482.67
406.43	11899.28
406.62	12358.03
406.81	12397.82
407.00	11854.81
407.20	11735.45
407.39	11693.32
407.58	12245.68
407.77	12709.11
407.96	13121.04
408.15	13338.71
408.34	13460.42
408.54	14040.87
408.73	14129.81
408.92	13729.58
409.11	13558.72
409.30	12659.96
409.49	12250.36
409.68	11421.81
409.87	11073.07
410.07	11726.08
410.26	12332.28
410.45	13472.12
410.64	13635.96
410.83	14129.81
411.02	14541.75
411.21	14817.93
411.40	14810.91
411.59	14862.40
411.78	14824.95
411.98	14801.55
412.17	14963.04
412.36	14595.58
412.55	14527.71
412.74	14356.85
412.93	13963.64
413.12	13987.04
413.31	15534.14
413.50	15510.73
413.69	15807.98
413.88	15103.48
414.07	14665.80
414.26	15077.73
414.45	15552.86
414.64	15480.30
414.83	15761.17
415.02	15337.53
415.22	15400.72
415.41	15737.76
415.60	16465.67
415.79	16606.10
415.98	17099.95
416.17	17322.30
416.36	16940.80
416.55	16688.02
416.74	16079.48
416.93	15700.31
417.12	15473.28
417.31	15597.33
417.50	15796.28
417.69	16762.92
417.88	16538.23
418.07	16329.92
418.26	16074.80
418.45	16208.21
418.64	16723.13
418.83	17326.99
419.02	17287.20
419.21	16545.25
419.39	16168.42
419.58	15295.40
419.77	15695.63
419.96	16224.59
420.15	17224.00
420.34	17745.94
420.53	18178.94
420.72	18677.48
420.91	18375.55
421.10	18382.57
421.29	17965.95
421.48	17420.61
421.67	18298.31
421.86	17476.78
422.05	16688.02
422.24	14745.38
422.43	14633.03
422.61	16381.41
422.80	17610.19
422.99	17759.98
423.18	17032.08
423.37	16531.20
423.56	16673.98
423.75	16926.75
423.94	17139.74
424.13	16589.72
424.32	16465.67
424.50	16840.15
424.69	16149.70
424.88	16414.18
425.07	16601.42
425.26	16582.70
425.45	16390.77
425.64	16086.50
425.83	15948.41
426.01	16538.23
426.20	17149.11
426.39	17385.50
426.58	16105.23
426.77	14747.72
426.96	14331.10
427.15	14850.70
427.33	16077.14
427.52	16472.69
427.71	16819.09
427.90	16505.46
428.09	16372.05
428.28	15950.75
428.46	15667.55
428.65	15250.93
428.84	15721.38
429.03	16114.59
429.22	15407.75
429.40	14249.18
429.59	12847.20
429.78	11517.78
429.97	11335.21
430.16	11557.57
430.34	11707.36
430.53	11494.37
430.72	12126.32
430.91	13085.94
431.10	15513.07
431.28	18078.30
431.47	19793.91
431.66	20198.82
431.85	18246.82
432.03	16795.68
432.22	15845.43
432.41	16872.92
432.60	18298.31
432.79	18974.72
432.97	19524.75
433.16	19171.33
433.35	17706.15
433.54	15733.08
433.72	14651.75
433.91	15311.78
434.10	17142.08
434.28	18202.35
434.47	19286.01
434.66	18967.70
434.85	18420.02
435.03	18398.95
435.22	18991.11
435.41	20201.16
435.59	19969.45
435.78	20219.89
435.97	20971.20
436.16	21303.56
436.34	20744.17
436.53	20058.39
436.72	20013.92
436.90	19300.06
437.09	19023.87
437.28	18656.41
437.46	19618.37
437.65	19438.15
437.84	18356.82
438.02	16589.72
438.21	16500.78
438.40	17596.15
438.58	18881.10
438.77	19728.38
438.96	19381.98
439.14	20442.24
439.33	20943.11
439.52	21231.00
439.70	21331.64
439.89	20400.11
440.08	19866.47
440.26	19850.08
440.45	20271.38
440.63	21671.02
440.82	22911.50
441.01	22457.44
441.19	22757.03
441.38	22888.10
441.57	23506.00
441.75	23847.72
441.94	24093.47
442.12	23714.31
442.31	24009.22
442.50	24549.88
442.68	24112.20
442.87	23857.08
443.05	23248.54
443.24	23892.19
443.43	24072.41
443.61	24528.81
443.80	25151.40
443.98	23115.13
444.17	23428.76
444.35	25060.12
444.54	25331.62
444.73	25034.37
444.91	24269.01
445.10	23030.87
445.28	21757.62
445.47	21502.50
445.65	21940.18
445.84	22445.74
446.02	23194.71
446.21	23531.75
446.39	23592.60
446.58	24116.88
446.77	24554.56
446.95	24449.24
447.14	25441.62
447.32	25544.61
447.51	25441.62
447.69	24315.83
447.88	23824.31
448.06	24205.82
448.25	24805.00
448.43	25034.37
448.62	24432.85
448.80	24060.71
448.99	24489.03
449.17	24847.13
449.36	24854.15
449.54	25593.76
449.73	25993.99
449.91	26321.66
450.10	27269.58
450.28	27756.41
450.46	27421.72
450.65	27449.80
450.83	26859.99
451.02	26581.46
451.20	26848.29
451.39	26338.05
451.57	26326.35
451.76	26291.24
451.94	25930.80
452.13	25773.98
452.31	24563.92
452.49	23332.80
452.68	23271.95
452.86	23644.09
453.05	24215.18
453.23	24821.38
453.42	25420.56
453.60	25521.20
453.78	26010.37
453.97	25961.22
454.15	25944.84
454.34	25502.48
454.52	25240.34
454.70	24805.00
454.89	25369.07
455.07	25326.94
455.26	25713.13
455.44	26354.43
455.62	27262.56
455.81	27019.14
455.99	26937.23
456.17	26654.02
456.36	26728.92
456.54	27447.46
456.73	27318.73
456.91	27749.39
457.09	28285.37
457.28	28868.17
457.46	27536.40
457.64	27232.13
457.83	26785.09
458.01	25771.64
458.19	26941.91
458.38	26778.07
458.56	28109.83
458.74	27695.56
458.93	26895.10
459.11	27197.02
459.29	26941.91
459.48	26965.31
459.66	26960.63
459.84	27147.87
460.03	27702.58
460.21	27615.98
460.39	27899.19
460.57	28144.94
460.76	29060.09
460.94	28854.12
461.12	28053.66
461.31	28247.93
461.49	28041.96
461.67	28039.62
461.85	28861.15
462.04	28992.22
462.22	28992.22
462.40	28842.42
462.59	28898.59
462.77	28835.40
462.95	29010.94
463.13	29032.00
463.32	28252.61
463.50	28002.17
463.68	28093.45
463.86	28079.41
464.05	27791.52
464.23	27417.04
464.41	27084.68
464.59	26111.02
464.78	27835.99
464.96	28142.60
465.14	27571.51
465.32	28425.81
465.50	28905.62
465.69	29628.84
465.87	28594.32
466.05	28006.85
466.23	26885.73
466.41	25862.92
466.60	26862.33
466.78	26852.97
466.96	27070.64
467.14	27697.90
467.32	28009.19
467.51	27946.00
467.69	26806.16
467.87	27995.15
468.05	28081.75
468.23	27543.42
468.41	28011.53
468.60	28182.39
468.78	28276.01
468.96	27573.85
469.14	28439.85
469.32	28868.17
469.50	27864.08
469.69	27957.70
469.87	27349.16
470.05	27695.56
470.23	27229.79
470.41	27201.71
470.59	27627.68
470.77	27854.72
470.95	28418.78
471.14	28666.88
471.32	28833.06
471.50	30700.81
471.68	30672.72
471.86	30572.08
472.04	30735.92
472.22	30583.78
472.40	29137.33
472.58	28884.55
472.77	28926.68
472.95	29284.78
473.13	30403.56
473.31	29514.16
473.49	29504.79
473.67	30150.78
473.85	30263.13
474.03	31199.34
474.21	31098.70
474.39	31562.12
474.57	31988.10
474.75	31924.91
474.93	31037.84
475.12	30747.62
475.30	30756.98
475.48	30363.77
475.66	31400.63
475.84	30946.56
476.02	30398.88
476.20	30059.50
476.38	30677.40
476.56	31976.40
476.74	31819.58
476.92	32278.33
477.10	32830.69
477.28	33787.97
477.46	33621.80
477.64	34302.89
477.82	34464.39
478.00	34314.59
478.18	33741.16
478.36	34007.98
478.54	33635.84
478.72	33797.34
478.90	34419.92
479.08	35653.38
479.26	36142.55
479.44	36299.37
479.62	35864.03
479.80	35480.18
479.98	36336.82
480.16	36273.62
480.34	35711.89
480.52	36472.57
480.70	36378.95
480.88	36657.47
481.06	37289.42
481.24	37537.51
481.41	38443.30
481.59	38609.48
481.77	38583.73
481.95	37837.10
482.13	37640.50
482.31	37902.64
482.49	38480.75
482.67	38352.02
482.85	38780.34
483.03	39456.75
483.21	39655.70
483.39	39826.56
483.57	39157.16
483.74	38698.42
483.92	38810.76
484.10	39063.54
484.28	40170.61
484.46	40350.84
484.64	40769.79
484.82	40027.84
485.00	39108.01
485.18	39058.86
485.35	37624.11
485.53	34738.23
485.71	31489.57
485.89	31014.44
486.07	32535.79
486.25	36030.21
486.43	37745.82
486.61	38700.76
486.78	38302.87
486.96	38906.73
487.14	40573.19
487.32	40809.58
487.50	42403.49
487.68	43342.04
487.85	43604.18
488.03	43576.09
488.21	43248.42
488.39	42759.25
488.57	41982.19
488.75	41481.31
488.92	42796.70
489.10	44779.13
489.28	46501.76
489.46	47821.83
489.64	47391.17
489.81	47742.25
489.99	46904.34
490.17	47590.11
490.35	47243.71
490.53	46859.87
490.70	46522.83
490.88	46424.53
491.06	47753.95
491.24	47753.95
491.41	46625.81
491.59	44107.40
491.77	43421.62
491.95	44732.32
492.13	46129.62
492.30	47693.10
492.48	48608.25
492.66	49427.43
492.84	49382.96
493.01	48868.05
493.19	48318.02
493.37	48100.35
493.54	47433.30
493.72	48402.28
493.90	49364.24
494.08	50307.47
494.25	51058.79
494.43	51559.66
494.61	51447.32
494.79	51915.42
494.96	51430.93
495.14	50932.40
495.32	49687.23
495.49	49106.78
495.67	50218.53
495.85	51688.39
496.02	52509.92
496.20	52233.74
496.38	51798.40
496.55	51316.25
496.73	51927.13
496.91	52238.42
497.09	52959.30
497.26	53176.97
497.44	52582.48
497.62	51707.12
497.79	50717.07
497.97	49193.38
498.14	49518.71
498.32	50941.76
498.50	52334.38
498.67	52758.02
498.85	52552.05
499.03	52554.39
499.20	53097.39
499.38	53118.46
499.56	52715.89
499.73	51957.55
499.91	51868.61
500.08	51215.60
500.26	50291.09
500.44	50908.99
500.61	51648.60
500.79	51526.89
500.97	50843.46
501.14	50866.86
501.32	50866.86
501.49	50831.75
501.67	51171.13
501.84	51608.81
502.02	51945.85
502.20	52582.48
502.37	52357.78
502.55	52795.46
502.72	53141.86
502.90	53705.93
503.07	53509.33
503.25	52858.66
503.43	52044.15
503.60	51248.37
503.78	50508.76
503.95	50958.14
504.13	52727.59
504.30	53612.31
504.48	53401.66
504.65	53003.77
504.83	52877.38
505.01	53832.32
505.18	54164.68
505.36	54637.47
505.53	54672.57
505.71	55105.57
505.88	54972.16
506.06	54532.14
506.23	53951.69
506.41	53865.09
506.58	53827.64
506.76	53598.27
506.93	53792.53
507.11	53338.47
507.28	53820.62
507.46	53303.36
507.63	52734.61
507.81	52215.01
507.98	52411.62
508.16	53434.43
508.33	54003.18
508.50	54312.13
508.68	54588.31
508.85	54962.80
509.03	55175.79
509.20	55131.32
509.38	53979.78
509.55	53279.96
509.73	53558.48
509.90	53937.65
510.08	54384.69
510.25	54272.34
510.42	54035.95
510.60	53914.24
510.77	54326.17
510.95	54965.14
511.12	55117.28
511.30	55370.05
511.47	55442.61
511.64	55517.51
511.82	55409.84
511.99	54490.01
512.17	53834.66
512.34	53272.93
512.51	53867.43
512.69	53862.75
512.86	54026.59
513.04	54644.49
513.21	54473.63
513.38	54167.02
513.56	53338.47
513.73	52837.59
513.90	52978.03
514.08	53088.03
514.25	53413.37
514.43	53799.55
514.60	53762.11
514.77	54054.67
514.95	54230.21
515.12	53914.24
515.29	54377.67
515.47	54787.26
515.64	55086.85
515.81	54712.36
515.99	54113.19
516.16	52289.91
516.33	49792.56
516.51	47400.53
516.68	46672.62
516.85	46513.47
517.03	46726.46
517.20	50019.59
517.37	52959.30
517.54	54115.53
517.72	53703.59
517.89	50990.91
518.06	47632.24
518.24	48130.78
518.41	50981.55
518.58	52610.56
518.75	52753.33
518.93	53296.34
519.10	52182.24
519.27	53401.66
519.45	53563.16
519.62	54370.64
519.79	54803.64
519.96	54623.42
520.14	54176.38
520.31	53024.84
520.48	53073.99
520.65	53523.37
520.83	54492.35
521.00	54967.48
521.17	54642.15
521.34	54096.80
521.52	54478.31
521.69	54967.48
521.86	55632.19
522.03	55341.97
522.20	54300.43
522.38	52722.91
522.55	52561.41
522.72	53361.87
522.89	53595.93
523.07	53717.64
523.24	54298.09
523.41	55166.43
523.58	55426.23
523.75	55838.16
523.92	55810.07
524.10	55473.04
524.27	55770.28
524.44	55384.10
524.61	55346.65
524.78	55075.15
524.96	55049.40
525.13	55257.71
525.30	55468.36
525.47	55884.97
525.64	55814.76
525.81	54871.52
525.98	53558.48
526.16	51442.63
526.33	50871.54
526.50	50515.78
526.67	49780.85
526.84	51072.83
527.01	52168.20
527.18	52891.43
527.36	54230.21
527.53	55070.46
527.70	55477.72
527.87	54609.38
528.04	54143.61
528.21	54478.31
528.38	55241.32
528.55	56025.40
528.72	56203.28
528.89	56488.83
529.07	56133.07
529.24	55566.66
529.41	55009.61
529.58	54157.66
529.75	54148.29
529.92	54834.07
530.09	54990.89
530.26	55849.86
530.43	55887.31
530.60	56020.72
530.77	56416.27
530.94	56516.92
531.11	55833.48
531.28	55367.71
531.46	55257.71
531.63	55386.44
531.80	55243.66
531.97	54794.28
532.14	53961.05
532.31	52875.04
532.48	52158.84
532.65	52425.66
532.82	53312.72
532.99	54197.44
533.16	54597.68
533.33	55578.36
533.50	55035.36
533.67	54740.45
533.84	54045.31
534.01	54284.04
534.18	54485.33
534.35	54733.43
534.52	54372.99
534.69	54731.09
534.86	55306.86
535.03	55421.55
535.20	55908.38
535.37	56425.64
535.54	56444.36
535.71	55901.36
535.88	55936.46
536.05	55068.12
536.22	54202.13
536.38	54162.34
536.55	53881.47
536.72	52985.05
536.89	53010.79
537.06	53935.30
537.23	54822.37
537.40	54862.16
537.57	55426.23
537.74	54897.27
537.91	54827.05
538.08	54733.43
538.25	54885.56
538.42	54979.18
538.59	54869.18
538.75	53872.11
538.92	54068.72
539.09	53799.55
539.26	53616.99
539.43	53312.72
539.60	53560.82
539.77	53546.78
539.94	53619.33
540.11	52746.31
540.28	52116.71
540.44	51934.15
540.61	52226.71
540.78	52547.37
540.95	53563.16
541.12	53502.31
541.29	53991.48
541.46	54239.57
541.62	54258.30
541.79	54361.28
541.96	53474.22
542.13	53396.98
542.30	53963.39
542.47	54075.74
542.63	53602.95
542.80	53340.81
542.97	53748.06
543.14	53581.88
543.31	53469.54
543.48	54012.54
543.64	54993.23
543.81	55194.51
543.98	55201.53
544.15	54487.67
544.32	53593.59
544.48	53989.14
544.65	54061.69
544.82	54864.50
544.99	54314.47
545.16	53734.02
545.32	53532.73
545.49	54569.59
545.66	55016.63
545.83	54740.45
546.00	54248.94
546.16	53684.87
546.33	53888.49
546.50	53567.84
546.67	54190.42
546.83	53829.98
547.00	54073.40
547.17	53191.01
547.34	52470.13
547.50	52645.67
547.67	53244.85
547.84	53052.92
548.00	53455.50
548.17	53902.54
548.34	53785.51
548.51	54047.65
548.67	54108.50
548.84	54003.18
549.01	53792.53
549.18	53577.20
549.34	53787.85
549.51	53640.40
549.68	53331.45
549.84	53453.15
550.01	53198.04
550.18	53333.79
550.34	53347.83
550.51	53230.80
550.68	53270.59
550.84	53010.79
551.01	52790.78
551.18	52704.18
551.34	53111.44
551.51	53506.99
551.68	53897.86
551.84	54017.22
552.01	53675.51
552.18	53642.74
552.34	52385.87
552.51	52301.61
552.68	52076.92
552.84	52844.62
553.01	52921.85
553.18	52877.38
553.34	52996.75
553.51	52963.98
553.67	53422.73
553.84	53727.00
554.01	53619.33
554.17	53340.81
554.34	53324.43
554.51	53413.37
554.67	53839.34
554.84	53577.20
555.00	52896.11
555.17	52968.66
555.33	53109.10
555.50	52622.26
555.67	53052.92
555.83	52655.03
556.00	52491.19
556.16	52516.94
556.33	52200.97
556.50	51950.53
556.66	51735.20
556.83	51393.48
556.99	51627.54
557.16	51562.00
557.32	52280.55
557.49	52348.42
557.65	52112.03
557.82	52053.51
557.98	51863.93
558.15	51505.83
558.32	50752.18
558.48	49633.40
558.65	49652.12
558.81	50361.31
558.98	50979.21
559.14	50988.57
559.31	51173.47
559.47	51346.67
559.64	50651.53
559.80	50080.44
559.97	50429.18
560.13	50766.22
560.30	52002.02
560.46	52385.87
560.63	53003.77
560.79	52793.12
560.96	52399.91
561.12	51016.66
561.29	49940.01
561.45	50223.22
561.61	50796.65
561.78	51264.75
561.94	51196.88
562.11	51224.96
562.27	50782.60
562.44	51098.58
562.60	51751.59
562.77	51456.68
562.93	51578.39
563.10	51512.85
563.26	50602.38
563.42	50791.97
563.59	50749.84
563.75	50340.24
563.92	50389.39
564.08	50759.20
564.24	50925.38
564.41	51182.84
564.57	50759.20
564.74	50979.21
564.90	50461.95
565.07	50234.92
565.23	49888.52
565.39	49308.07
565.56	48582.50
565.72	48680.80
565.88	49174.66
566.05	49514.03
566.21	49577.23
566.38	49579.57
566.54	50206.83
566.70	50316.84
566.87	50543.87
567.03	50513.44
567.19	51023.68
567.36	50396.42
567.52	50457.27
567.68	50042.99
567.85	49282.32
568.01	48828.26
568.17	48189.29
568.34	48472.49
568.50	48392.92
568.66	48704.21
568.83	49198.06
568.99	48633.99
569.15	49478.92
569.32	49233.17
569.48	48917.20
569.64	48629.31
569.81	48332.06
569.97	48217.38
570.13	48128.44
570.30	47346.70
570.46	47093.92
570.62	46300.48
570.78	46134.30
570.95	46326.22
571.11	47351.38
571.27	47880.34
571.43	47700.12
571.60	48421.00
571.76	48563.78
571.92	48994.43
572.09	49099.76
572.25	49219.13
572.41	48971.03
572.57	48861.02
572.74	48889.11
572.90	48168.22
573.06	48350.79
573.22	48264.19
573.38	48341.42
573.55	48519.31
573.71	48858.68
573.87	48402.28
574.03	48268.87
574.20	47924.81
574.36	47533.94
574.52	47613.52
574.68	47636.92
574.84	47026.04
575.01	46501.76
575.17	46218.56
575.33	46667.94
575.49	46965.19
575.65	47185.20
575.82	46593.04
575.98	46738.16
576.14	46997.96
576.30	47269.46
576.46	47622.88
576.62	47423.93
576.79	47555.00
576.95	46787.31
577.11	46656.24
577.27	47077.54
577.43	46913.70
577.59	46646.88
577.75	46204.52
577.92	45404.05
578.08	45237.87
578.24	45319.79
578.40	45265.96
578.56	45722.37
578.72	45846.41
578.88	45888.54
579.04	46579.00
579.21	46225.58
579.37	46937.10
579.53	46628.15
579.69	46375.37
579.85	46504.10
580.01	46995.62
580.17	45610.02
580.33	45546.82
580.49	45818.33
580.65	46279.41
580.82	46408.14
580.98	46380.06
581.14	46038.34
581.30	46674.96
581.46	46227.92
581.62	46686.67
581.78	46452.61
581.94	46131.96
582.10	46497.08
582.26	46401.12
582.42	46876.25
582.58	46775.61
582.74	46459.63
582.90	46763.90
583.06	46272.39
583.22	46684.33
583.38	45954.08
583.54	46232.60
583.70	46302.82
583.86	45804.28
584.02	45977.48
584.18	46298.14
584.34	45521.08
584.50	45762.15
584.66	45663.85
584.82	45413.41
584.98	45184.04
585.14	44741.68
585.30	44458.48
