SpectraSuite Data File
++++++++++++++++++++++++++++++++++++
Date: Mon Oct 07 14:54:54 GMT-05:00 2013
User: price-jones
Dark Spectrum Present: No
Reference Spectrum Present: No
Number of Sampled Component Spectra: 1
Spectrometers: USB2+H05261
Integration Time (usec): 10000 (USB2+H05261)
Spectra Averaged: 1 (USB2+H05261)
Boxcar Smoothing: 0 (USB2+H05261)
Correct for Electrical Dark: No (USB2+H05261)
Strobe/Lamp Enabled: No (USB2+H05261)
Correct for Detector Non-linearity: No (USB2+H05261)
Correct for Stray Light: No (USB2+H05261)
Number of Pixels in Processed Spectrum: 2048
>>>>>Begin Processed Spectral Data<<<<<
365.73	0.00
365.92	0.00
366.12	0.00
366.32	0.00
366.52	0.00
366.72	0.00
366.91	0.00
367.11	0.00
367.31	0.00
367.51	0.00
367.70	0.00
367.90	0.00
368.10	0.00
368.30	0.00
368.49	0.00
368.69	0.00
368.89	0.00
369.09	0.00
369.28	0.00
369.48	0.00
369.68	0.00
369.87	0.00
370.07	0.00
370.27	0.00
370.47	0.00
370.66	0.00
370.86	0.00
371.06	0.00
371.25	0.00
371.45	93.62
371.65	30.43
371.84	0.00
372.04	21.06
372.24	0.00
372.44	0.00
372.63	14.04
372.83	0.00
373.03	9.36
373.22	0.00
373.42	0.00
373.62	35.11
373.81	81.92
374.01	0.00
374.21	0.00
374.40	0.00
374.60	67.88
374.79	56.17
374.99	98.30
375.19	46.81
375.38	74.90
375.58	95.96
375.78	154.48
375.97	105.32
376.17	51.49
376.37	77.24
376.56	102.98
376.76	117.03
376.95	173.20
377.15	203.63
377.35	208.31
377.54	220.01
377.74	229.37
377.93	156.82
378.13	142.77
378.33	182.56
378.52	173.20
378.72	131.07
378.91	138.09
379.11	107.66
379.31	81.92
379.50	63.19
379.70	131.07
379.89	208.31
380.09	154.48
380.28	161.50
380.48	135.75
380.68	224.69
380.87	161.50
381.07	145.11
381.26	88.94
381.46	93.62
381.65	114.69
381.85	84.26
382.04	46.81
382.24	0.00
382.43	0.00
382.63	0.00
382.83	0.00
383.02	0.00
383.22	49.15
383.41	4.68
383.61	46.81
383.80	65.54
384.00	86.60
384.19	131.07
384.39	220.01
384.58	124.05
384.78	149.79
384.97	140.43
385.17	154.48
385.36	93.62
385.56	88.94
385.75	126.39
385.95	168.52
386.14	210.65
386.34	248.10
386.53	180.22
386.72	180.22
386.92	180.22
387.11	147.45
387.31	248.10
387.50	166.18
387.70	196.60
387.89	161.50
388.09	142.77
388.28	224.69
388.48	93.62
388.67	234.05
388.86	273.84
389.06	294.91
389.25	353.42
389.45	332.36
389.64	358.10
389.84	325.33
390.03	276.18
390.22	222.35
390.42	360.44
390.61	320.65
390.81	447.04
391.00	372.15
391.19	428.32
391.39	390.87
391.58	344.06
391.78	369.80
391.97	332.36
392.16	271.50
392.36	142.77
392.55	205.97
392.75	65.54
392.94	0.00
393.13	21.06
393.33	70.22
393.52	93.62
393.71	110.01
393.91	238.73
394.10	351.08
394.29	337.04
394.49	404.91
394.68	395.55
394.88	386.19
395.07	526.62
395.26	496.19
395.46	484.49
395.65	397.89
395.84	313.63
396.04	299.59
396.23	175.54
396.42	98.30
396.62	37.45
396.81	154.48
397.00	194.26
397.19	334.70
397.39	435.34
397.58	538.32
397.77	554.71
397.97	660.03
398.16	627.26
398.35	718.54
398.55	674.07
398.74	711.52
398.93	695.14
399.12	725.57
399.32	678.76
399.51	730.25
399.70	807.48
399.90	730.25
400.09	767.70
400.28	770.04
400.47	770.04
400.67	739.61
400.86	823.87
401.05	807.48
401.24	744.29
401.44	863.66
401.63	833.23
401.82	819.19
402.01	821.53
402.21	863.66
402.40	851.96
402.59	784.08
402.78	739.61
402.97	660.03
403.17	819.19
403.36	854.30
403.55	866.00
403.74	887.06
403.93	858.98
404.13	800.46
404.32	704.50
404.51	748.97
404.70	926.85
404.89	851.96
405.09	863.66
405.28	763.01
405.47	905.79
405.66	791.10
405.85	777.06
406.05	816.85
406.24	800.46
406.43	847.27
406.62	821.53
406.81	870.68
407.00	884.72
407.20	788.76
407.39	844.93
407.58	795.78
407.77	823.87
407.96	873.02
408.15	1022.81
408.34	908.13
408.54	997.07
408.73	985.37
408.92	1034.52
409.11	931.53
409.30	863.66
409.49	791.10
409.68	697.48
409.87	643.65
410.07	807.48
410.26	891.74
410.45	936.21
410.64	1036.86
410.83	992.39
411.02	997.07
411.21	1078.99
411.40	1057.92
411.59	1067.28
411.78	1093.03
411.98	1050.90
412.17	999.41
412.36	985.37
412.55	1123.46
412.74	926.85
412.93	954.94
413.12	980.68
413.31	1083.67
413.50	1142.18
413.69	1153.88
413.88	1146.86
414.07	1130.48
414.26	1158.57
414.45	1027.50
414.64	1029.84
414.83	1036.86
415.02	1097.71
415.22	1149.20
415.41	1167.93
415.60	1210.06
415.79	1315.38
415.98	1240.48
416.17	1240.48
416.36	1268.57
416.55	1132.82
416.74	1036.86
416.93	1050.90
417.12	1076.65
417.31	1088.35
417.50	1132.82
417.69	1172.61
417.88	1294.32
418.07	1128.14
418.26	1196.01
418.45	1100.05
418.64	1179.63
418.83	1273.25
419.02	1188.99
419.21	1179.63
419.39	1254.53
419.58	1151.54
419.77	1090.69
419.96	1116.44
420.15	1146.86
420.34	1306.02
420.53	1394.96
420.72	1299.00
420.91	1303.68
421.10	1170.27
421.29	1207.72
421.48	1336.45
421.67	1352.83
421.86	1217.08
422.05	1228.78
422.24	1153.88
422.43	933.87
422.61	1076.65
422.80	1299.00
422.99	1343.47
423.18	1259.21
423.37	1132.82
423.56	1048.56
423.75	1186.65
423.94	1207.72
424.13	1174.95
424.32	1118.78
424.50	1125.80
424.69	1179.63
424.88	1090.69
425.07	1142.18
425.26	1078.99
425.45	1247.51
425.64	1137.50
425.83	1137.50
426.01	1198.35
426.20	1221.76
426.39	1219.42
426.58	1078.99
426.77	1001.75
426.96	1027.50
427.15	961.96
427.33	1233.46
427.52	1212.40
427.71	1067.28
427.90	1153.88
428.09	1060.26
428.28	1135.16
428.46	1050.90
428.65	1074.31
428.84	983.02
429.03	1114.10
429.22	980.68
429.40	936.21
429.59	844.93
429.78	767.70
429.97	746.63
430.16	732.59
430.34	786.42
430.53	727.91
430.72	772.38
430.91	849.61
431.10	1041.54
431.28	1376.24
431.47	1420.71
431.66	1373.89
431.85	1240.48
432.03	1242.82
432.22	1088.35
432.41	1130.48
432.60	1287.29
432.79	1348.15
432.97	1348.15
433.16	1310.70
433.35	1320.06
433.54	1109.41
433.72	997.07
433.91	1057.92
434.10	1165.59
434.28	1275.59
434.47	1252.19
434.66	1306.02
434.85	1273.25
435.03	1289.64
435.22	1210.06
435.41	1345.81
435.59	1366.87
435.78	1441.77
435.97	1483.90
436.16	1357.51
436.34	1458.15
436.53	1359.85
436.72	1401.98
436.90	1345.81
437.09	1362.19
437.28	1184.31
437.46	1345.81
437.65	1249.85
437.84	1233.46
438.02	1177.29
438.21	1104.73
438.40	1233.46
438.58	1289.64
438.77	1371.55
438.96	1261.55
439.14	1413.68
439.33	1338.79
439.52	1397.30
439.70	1444.11
439.89	1383.26
440.08	1409.00
440.26	1313.04
440.45	1432.41
440.63	1523.69
440.82	1563.48
441.01	1472.20
441.19	1577.52
441.38	1636.03
441.57	1701.57
441.75	1591.56
441.94	1643.06
442.12	1650.08
442.31	1696.89
442.50	1682.85
442.68	1640.72
442.87	1741.36
443.05	1724.97
443.24	1556.46
443.43	1764.76
443.61	1692.21
443.80	1760.08
443.98	1605.61
444.17	1685.19
444.35	1764.76
444.54	1874.77
444.73	1785.83
444.91	1600.93
445.10	1526.03
445.28	1483.90
445.47	1502.62
445.65	1423.05
445.84	1617.31
446.02	1640.72
446.21	1654.76
446.39	1666.46
446.58	1678.16
446.77	1661.78
446.95	1806.89
447.14	1720.29
447.32	1748.38
447.51	1755.40
447.69	1544.75
447.88	1624.33
448.06	1647.74
448.25	1811.57
448.43	1739.02
448.62	1706.25
448.80	1760.08
448.99	1774.13
449.17	1685.19
449.36	1792.85
449.54	1764.76
449.73	1699.23
449.91	1706.25
450.10	1891.15
450.28	1804.55
450.46	1900.52
450.65	1818.60
450.83	1865.41
451.02	1790.51
451.20	1842.00
451.39	1842.00
451.57	1813.92
451.76	1732.00
451.94	1778.81
452.13	1818.60
452.31	1673.48
452.49	1502.62
452.68	1586.88
452.86	1631.35
453.05	1486.24
453.23	1687.53
453.42	1689.87
453.60	1790.51
453.78	1806.89
453.97	1802.21
454.15	1741.36
454.34	1809.23
454.52	1832.64
454.70	1701.57
454.89	1689.87
455.07	1774.13
455.26	1710.93
455.44	1837.32
455.62	1942.64
455.81	1921.58
455.99	1788.17
456.17	1797.53
456.36	1806.89
456.54	1944.99
456.73	1806.89
456.91	1830.30
457.09	1888.81
457.28	2031.58
457.46	1895.83
457.64	1867.75
457.83	1870.09
458.01	1776.47
458.19	1788.17
458.38	1685.19
458.56	1872.43
458.74	1916.90
458.93	1825.62
459.11	1774.13
459.29	1769.44
459.48	1802.21
459.66	1792.85
459.84	1767.10
460.03	1870.09
460.21	1818.60
460.39	1926.26
460.57	1994.14
460.76	1949.67
460.94	2001.16
461.12	1980.09
461.31	1949.67
461.49	1816.26
461.67	1902.86
461.85	1968.39
462.04	1970.73
462.22	2029.24
462.40	1977.75
462.59	2078.40
462.77	2022.22
462.95	2066.69
463.13	1921.58
463.32	1877.11
463.50	1898.17
463.68	1916.90
463.86	1912.22
464.05	1937.96
464.23	1863.07
464.41	1839.66
464.59	1893.49
464.78	1893.49
464.96	1872.43
465.14	1778.81
465.32	1879.45
465.50	1928.60
465.69	1879.45
465.87	1921.58
466.05	1830.30
466.23	1757.74
466.41	1746.04
466.60	1760.08
466.78	1879.45
466.96	1856.04
467.14	1802.21
467.32	1921.58
467.51	1893.49
467.69	1851.36
467.87	1818.60
468.05	1863.07
468.23	1919.24
468.41	1874.77
468.60	1902.86
468.78	1863.07
468.96	1846.68
469.14	1834.98
469.32	1884.13
469.50	1898.17
469.69	1748.38
469.87	1741.36
470.05	1694.55
470.23	1844.34
470.41	1774.13
470.59	1783.49
470.77	1830.30
470.95	1923.92
471.14	1909.88
471.32	1935.62
471.50	2085.42
471.68	2036.27
471.86	1973.07
472.04	2167.34
472.22	2073.71
472.40	1982.43
472.58	1994.14
472.77	1834.98
472.95	2045.63
473.13	1996.48
473.31	2069.03
473.49	2003.50
473.67	1867.75
473.85	2097.12
474.03	2099.46
474.21	2015.20
474.39	2113.50
474.57	2106.48
474.75	2108.82
474.93	2085.42
475.12	2108.82
475.30	1984.77
475.48	2038.61
475.66	2012.86
475.84	2083.08
476.02	2064.35
476.20	1980.09
476.38	2001.16
476.56	2090.10
476.74	2120.53
476.92	2237.55
477.10	2062.01
477.28	2251.60
477.46	2221.17
477.64	2246.91
477.82	2298.41
478.00	2352.24
478.18	2284.36
478.36	2225.85
478.54	2207.13
478.72	2272.66
478.90	2230.53
479.08	2354.58
479.26	2363.94
479.44	2403.73
479.62	2396.71
479.80	2520.76
479.98	2380.32
480.16	2518.42
480.34	2359.26
480.52	2483.31
480.70	2410.75
480.88	2385.01
481.06	2349.90
481.24	2553.52
481.41	2572.25
481.59	2619.06
481.77	2600.34
481.95	2511.39
482.13	2607.36
482.31	2593.31
482.49	2530.12
482.67	2502.03
482.85	2588.63
483.03	2668.21
483.21	2719.70
483.39	2700.98
483.57	2614.38
483.74	2471.61
483.92	2647.15
484.10	2527.78
484.28	2686.94
484.46	2590.97
484.64	2726.72
484.82	2642.46
485.00	2576.93
485.18	2605.02
485.35	2513.74
485.53	2296.07
485.71	2062.01
485.89	2148.61
486.07	2127.55
486.25	2366.28
486.43	2551.18
486.61	2555.86
486.78	2527.78
486.96	2572.25
487.14	2619.06
487.32	2733.75
487.50	2899.92
487.68	2848.43
487.85	2864.82
488.03	2857.79
488.21	2850.77
488.39	2827.37
488.57	2724.38
488.75	2750.13
488.92	2963.12
489.10	3126.96
489.28	3122.27
489.46	3171.43
489.64	3260.37
489.81	3141.00
489.99	3325.90
490.17	3222.92
490.35	3248.66
490.53	3248.66
490.70	3229.94
490.88	3164.40
491.06	3096.53
491.24	3302.50
491.41	3077.80
491.59	2974.82
491.77	2958.44
491.95	3124.62
492.13	3155.04
492.30	3267.39
492.48	3274.41
492.66	3356.33
492.84	3391.44
493.01	3269.73
493.19	3243.98
493.37	3295.47
493.54	3229.94
493.72	3321.22
493.90	3449.95
494.08	3513.14
494.25	3382.07
494.43	3639.53
494.61	3602.08
494.79	3632.51
494.96	3681.66
495.14	3503.78
495.32	3281.43
495.49	3349.31
495.67	3372.71
495.85	3634.85
496.02	3840.82
496.20	3630.17
496.38	3613.79
496.55	3602.08
496.73	3571.66
496.91	3604.42
497.09	3644.21
497.26	3644.21
497.44	3592.72
497.62	3648.90
497.79	3578.68
497.97	3400.80
498.14	3386.76
498.32	3592.72
498.50	3665.28
498.67	3777.62
498.85	3824.44
499.03	3735.50
499.20	3786.99
499.38	3688.68
499.56	3747.20
499.73	3543.57
499.91	3517.83
500.08	3428.88
500.26	3391.44
500.44	3382.07
500.61	3543.57
500.79	3548.25
500.97	3489.74
501.14	3471.01
501.32	3513.14
501.49	3574.00
501.67	3499.10
501.84	3522.51
502.02	3590.38
502.20	3630.17
502.37	3644.21
502.55	3733.15
502.72	3758.90
502.90	3674.64
503.07	3714.43
503.25	3824.44
503.43	3700.39
503.60	3592.72
503.78	3485.06
503.95	3527.19
504.13	3639.53
504.30	3712.09
504.48	3707.41
504.65	3606.77
504.83	3779.97
505.01	3735.50
505.18	3824.44
505.36	3927.42
505.53	3889.97
505.71	3943.80
505.88	4037.42
506.06	3845.50
506.23	3864.22
506.41	3756.56
506.58	3737.84
506.76	3819.75
506.93	3618.47
507.11	3691.02
507.28	3749.54
507.46	3698.05
507.63	3817.41
507.81	3583.36
507.98	3805.71
508.16	3758.90
508.33	3805.71
508.50	3894.65
508.68	3798.69
508.85	4074.87
509.03	3971.89
509.20	3960.19
509.38	3880.61
509.55	3735.50
509.73	3676.98
509.90	3805.71
510.08	3758.90
510.25	3784.65
510.42	3756.56
510.60	3726.13
510.77	3885.29
510.95	3894.65
511.12	3950.82
511.30	4025.72
511.47	3990.61
511.64	3964.87
511.82	4070.19
511.99	3763.58
512.17	3772.94
512.34	3779.97
512.51	3709.75
512.69	3756.56
512.86	3609.11
513.04	3915.72
513.21	3786.99
513.38	3630.17
513.56	3653.58
513.73	3639.53
513.90	3562.30
514.08	3698.05
514.25	3623.15
514.43	3660.60
514.60	3721.45
514.77	3730.81
514.95	3829.12
515.12	3801.03
515.29	3747.20
515.47	3880.61
515.64	3878.27
515.81	3936.78
515.99	3833.80
516.16	3595.06
516.33	3342.28
516.51	3084.83
516.68	3089.51
516.85	2977.16
517.03	3110.57
517.20	3356.33
517.37	3590.38
517.54	3826.78
517.72	3712.09
517.89	3311.86
518.06	3089.51
518.24	3042.70
518.41	3454.63
518.58	3489.74
518.75	3562.30
518.93	3688.68
519.10	3632.51
519.27	3714.43
519.45	3777.62
519.62	3836.14
519.79	3758.90
519.96	3747.20
520.14	3808.05
520.31	3674.64
520.48	3606.77
520.65	3702.73
520.83	3693.37
521.00	3882.95
521.17	3822.09
521.34	3770.60
521.52	3765.92
521.69	3786.99
521.86	4102.96
522.03	3852.52
522.20	3730.81
522.38	3574.00
522.55	3655.92
522.72	3527.19
522.89	3728.47
523.07	3833.80
523.24	3735.50
523.41	3765.92
523.58	3983.59
523.75	3964.87
523.92	3840.82
524.10	3908.69
524.27	3925.08
524.44	3805.71
524.61	3871.25
524.78	3758.90
524.96	3824.44
525.13	3798.69
525.30	3925.08
525.47	4065.51
525.64	3978.91
525.81	3906.35
525.98	3578.68
526.16	3578.68
526.33	3321.22
526.50	3251.00
526.67	3255.69
526.84	3243.98
527.01	3466.33
527.18	3630.17
527.36	3660.60
527.53	3782.31
527.70	3808.05
527.87	3751.88
528.04	3562.30
528.21	3758.90
528.38	3843.16
528.55	3901.67
528.72	4039.76
528.89	3992.95
529.07	3854.86
529.24	3784.65
529.41	3726.13
529.58	3658.26
529.75	3859.54
529.92	3756.56
530.09	3854.86
530.26	3934.44
530.43	3976.57
530.60	4060.83
530.77	3899.33
530.94	3971.89
531.11	3918.06
531.28	3885.29
531.46	3740.18
531.63	3815.07
531.80	3880.61
531.97	3648.90
532.14	3569.32
532.31	3501.44
532.48	3503.78
532.65	3506.12
532.82	3632.51
532.99	3801.03
533.16	3786.99
533.33	3918.06
533.50	3878.27
533.67	3655.92
533.84	3569.32
534.01	3667.62
534.18	3651.24
534.35	3691.02
534.52	3761.24
534.69	3709.75
534.86	3786.99
535.03	3698.05
535.20	3911.04
535.37	3967.21
535.54	3901.67
535.71	3889.97
535.88	3789.33
536.05	3581.02
536.22	3712.09
536.38	3581.02
536.55	3515.48
536.72	3454.63
536.89	3478.04
537.06	3693.37
537.23	3655.92
537.40	3866.56
537.57	3700.39
537.74	3810.39
537.91	3822.09
538.08	3723.79
538.25	3700.39
538.42	3779.97
538.59	3726.13
538.75	3592.72
538.92	3672.30
539.09	3588.04
539.26	3655.92
539.43	3646.55
539.60	3564.64
539.77	3779.97
539.94	3461.65
540.11	3515.48
540.28	3311.86
540.44	3449.95
540.61	3375.05
540.78	3499.10
540.95	3419.52
541.12	3510.80
541.29	3513.14
541.46	3679.32
541.62	3583.36
541.79	3590.38
541.96	3557.61
542.13	3588.04
542.30	3625.49
542.47	3625.49
542.63	3459.31
542.80	3604.42
542.97	3527.19
543.14	3478.04
543.31	3557.61
543.48	3499.10
543.64	3794.01
543.81	3728.47
543.98	3831.46
544.15	3702.73
544.32	3557.61
544.48	3447.61
544.65	3599.74
544.82	3637.19
544.99	3646.55
545.16	3508.46
545.32	3414.84
545.49	3658.26
545.66	3791.67
545.83	3611.45
546.00	3728.47
546.16	3550.59
546.33	3688.68
546.50	3695.71
546.67	3583.36
546.83	3576.34
547.00	3571.66
547.17	3480.38
547.34	3396.12
547.50	3513.14
547.67	3508.46
547.84	3375.05
548.00	3412.50
548.17	3585.70
548.34	3712.09
548.51	3588.04
548.67	3562.30
548.84	3496.76
549.01	3691.02
549.18	3515.48
549.34	3508.46
549.51	3473.36
549.68	3487.40
549.84	3405.48
550.01	3480.38
550.18	3531.87
550.34	3342.28
550.51	3463.99
550.68	3440.59
550.84	3386.76
551.01	3431.23
551.18	3396.12
551.34	3494.42
551.51	3520.17
551.68	3548.25
551.84	3574.00
552.01	3414.84
552.18	3485.06
552.34	3307.18
552.51	3307.18
552.68	3316.54
552.84	3403.14
553.01	3482.72
553.18	3325.90
553.34	3405.48
553.51	3346.97
553.67	3424.20
553.84	3471.01
554.01	3501.44
554.17	3475.70
554.34	3506.12
554.51	3424.20
554.67	3520.17
554.84	3473.36
555.00	3473.36
555.17	3342.28
555.33	3351.65
555.50	3550.59
555.67	3471.01
555.83	3433.57
556.00	3400.80
556.16	3375.05
556.33	3330.58
556.50	3225.26
556.66	3281.43
556.83	3138.66
556.99	3150.36
557.16	3304.84
557.32	3236.96
557.49	3309.52
557.65	3318.88
557.82	3503.78
557.98	3304.84
558.15	3222.92
558.32	3208.87
558.48	3148.02
558.65	3052.06
558.81	3159.72
558.98	3185.47
559.14	3330.58
559.31	3211.22
559.47	3141.00
559.64	3143.34
559.80	3145.68
559.97	3059.08
560.13	3279.09
560.30	3159.72
560.46	3286.11
560.63	3332.92
560.79	3494.42
560.96	3314.20
561.12	3096.53
561.29	3098.87
561.45	3028.65
561.61	3084.83
561.78	3070.78
561.94	3302.50
562.11	3141.00
562.27	3241.64
562.44	3077.80
562.60	3103.55
562.77	3307.18
562.93	3403.14
563.10	3122.27
563.26	3068.44
563.42	3084.83
563.59	3112.91
563.75	3112.91
563.92	3166.74
564.08	3190.15
564.24	3164.40
564.41	3162.06
564.57	3169.09
564.74	3002.91
564.90	3033.33
565.07	3131.64
565.23	3054.40
565.39	2923.33
565.56	2888.22
565.72	2979.50
565.88	3038.02
566.05	2920.99
566.21	3077.80
566.38	2909.29
566.54	2967.80
566.70	3213.56
566.87	3159.72
567.03	3162.06
567.19	3077.80
567.36	3124.62
567.52	3080.14
567.68	2963.12
567.85	2913.97
568.01	2885.88
568.17	2890.56
568.34	2918.65
568.50	2920.99
568.66	2918.65
568.83	2953.76
568.99	2892.90
569.15	3038.02
569.32	3016.95
569.48	2920.99
569.64	2956.10
569.81	2869.50
569.97	2867.16
570.13	2937.37
570.30	2771.19
570.46	2806.30
570.62	2696.30
570.78	2771.19
570.95	2785.24
571.11	2834.39
571.27	2792.26
571.43	2796.94
571.60	3016.95
571.76	2883.54
571.92	3005.25
572.09	2951.42
572.25	2925.67
572.41	2935.03
572.57	2874.18
572.74	2911.63
572.90	2928.01
573.06	2803.96
573.22	2867.16
573.38	2930.35
573.55	2939.71
573.71	2888.22
573.87	2881.20
574.03	2963.12
574.20	2881.20
574.36	2909.29
574.52	2843.75
574.68	2724.38
574.84	2675.23
575.01	2799.28
575.17	2686.94
575.33	2696.30
575.49	2682.25
575.65	2862.48
575.82	2736.09
575.98	2663.53
576.14	2789.92
576.30	2761.83
576.46	2698.64
576.62	2820.35
576.79	2841.41
576.95	2654.17
577.11	2612.04
577.27	2885.88
577.43	2761.83
577.59	2705.66
577.75	2654.17
577.92	2654.17
578.08	2602.68
578.24	2686.94
578.40	2787.58
578.56	2731.41
578.72	2616.72
578.88	2700.98
579.04	2712.68
579.21	2745.45
579.37	2761.83
579.53	2773.53
579.69	2656.51
579.85	2703.32
580.01	2665.87
580.17	2665.87
580.33	2581.61
580.49	2764.17
580.65	2789.92
580.82	2752.47
580.98	2665.87
581.14	2743.11
581.30	2722.04
581.46	2637.78
581.62	2841.41
581.78	2696.30
581.94	2717.36
582.10	2619.06
582.26	2661.19
582.42	2754.81
582.58	2738.43
582.74	2693.96
582.90	2614.38
583.06	2705.66
583.22	2602.68
583.38	2693.96
583.54	2768.85
583.70	2787.58
583.86	2778.22
584.02	2642.46
584.18	2668.21
584.34	2686.94
584.50	2607.36
584.66	2471.61
584.82	2588.63
584.98	2492.67
585.14	2513.74
585.30	2532.46
585.46	2429.48
585.62	2464.58
585.78	2436.50
585.94	2534.80
586.10	2466.92
586.26	2614.38
586.42	2509.05
586.58	2651.83
586.74	2497.35
586.90	2668.21
587.06	2633.10
587.22	2600.34
587.38	2438.84
587.54	2537.14
587.70	2614.38
587.86	2581.61
588.02	2380.32
588.18	2502.03
588.34	2333.51
588.49	2202.44
588.65	2106.48
588.81	2040.95
588.97	2106.48
589.13	2010.52
589.29	2076.06
589.45	1987.11
589.61	2167.34
589.77	2207.13
589.93	2237.55
590.08	2464.58
590.24	2464.58
590.40	2452.88
590.56	2375.64
590.72	2408.41
590.88	2305.43
591.04	2483.31
591.20	2272.66
591.35	2275.00
591.51	2279.68
591.67	2326.49
591.83	2352.24
591.99	2183.72
592.15	2356.92
592.31	2347.56
592.46	2377.98
592.62	2193.08
592.78	2303.09
592.94	2296.07
593.10	2286.70
593.26	2310.11
593.41	2326.49
593.57	2321.81
593.73	2356.92
593.89	2338.20
594.05	2298.41
594.20	2333.51
594.36	2251.60
594.52	2202.44
594.68	2129.89
594.84	2275.00
594.99	2253.94
595.15	2275.00
595.31	2230.53
595.47	2340.54
595.62	2235.21
595.78	2368.62
595.94	2335.85
596.10	2331.17
596.25	2455.22
596.41	2258.62
596.57	2272.66
596.73	2333.51
596.88	2193.08
597.04	2310.11
597.20	2176.70
597.36	2338.20
597.51	2181.38
597.67	2153.29
597.83	2207.13
597.99	2260.96
598.14	2150.95
598.30	2307.77
598.46	2204.78
598.61	2202.44
598.77	2172.02
598.93	2277.34
599.09	2321.81
599.24	2277.34
599.40	2195.42
599.56	2286.70
599.71	2235.21
