SpectraSuite Data File
++++++++++++++++++++++++++++++++++++
Date: Mon Oct 07 14:53:50 GMT-05:00 2013
User: price-jones
Dark Spectrum Present: No
Reference Spectrum Present: No
Number of Sampled Component Spectra: 1
Spectrometers: USB2+H05261
Integration Time (usec): 100000 (USB2+H05261)
Spectra Averaged: 1 (USB2+H05261)
Boxcar Smoothing: 0 (USB2+H05261)
Correct for Electrical Dark: No (USB2+H05261)
Strobe/Lamp Enabled: No (USB2+H05261)
Correct for Detector Non-linearity: No (USB2+H05261)
Correct for Stray Light: No (USB2+H05261)
Number of Pixels in Processed Spectrum: 2048
>>>>>Begin Processed Spectral Data<<<<<
365.73	0.00
365.92	0.00
366.12	0.00
366.32	0.00
366.52	0.00
366.72	0.00
366.91	0.00
367.11	0.00
367.31	0.00
367.51	0.00
367.70	0.00
367.90	0.00
368.10	0.00
368.30	0.00
368.49	0.00
368.69	0.00
368.89	0.00
369.09	0.00
369.28	0.00
369.48	0.00
369.68	0.00
369.87	0.00
370.07	0.00
370.27	0.00
370.47	564.07
370.66	3061.42
370.86	3674.64
371.06	4070.19
371.25	3967.21
371.45	3517.83
371.65	3185.47
371.84	2878.86
372.04	3211.22
372.24	3592.72
372.44	3669.96
372.63	3676.98
372.83	3473.36
373.03	2918.65
373.22	2717.36
373.42	2916.31
373.62	3349.31
373.81	3583.36
374.01	3613.79
374.21	3239.30
374.40	3000.57
374.60	3180.79
374.79	3513.14
374.99	4166.15
375.19	4463.40
375.38	4615.54
375.58	4215.30
375.78	4098.28
375.97	4121.68
376.17	4587.45
376.37	4414.25
376.56	4510.21
376.76	4870.65
376.95	5015.77
377.15	5387.91
377.35	5680.48
377.54	5699.20
377.74	5888.79
377.93	5928.58
378.13	5916.87
378.33	5427.70
378.52	5188.97
378.72	4945.55
378.91	4826.18
379.11	4657.67
379.31	4526.60
379.50	4414.25
379.70	4727.88
379.89	5303.65
380.09	5699.20
380.28	5757.72
380.48	5806.87
380.68	5806.87
380.87	5554.09
381.07	5308.34
381.26	4835.55
381.46	4535.96
381.65	4496.17
381.85	4329.99
382.04	4058.49
382.24	3833.80
382.43	3562.30
382.63	3463.99
382.83	3524.85
383.02	3585.70
383.22	3576.34
383.41	3569.32
383.61	3875.93
383.80	4285.52
384.00	4898.74
384.19	5481.53
384.39	5825.59
384.58	5790.49
384.78	5605.58
384.97	5851.34
385.17	5486.22
385.36	5184.29
385.56	4919.81
385.75	5018.11
385.95	5521.32
386.14	6183.70
386.34	5977.73
386.53	5860.70
386.72	5313.02
386.92	5542.39
387.11	5544.73
387.31	6017.52
387.50	5998.79
387.70	5643.03
387.89	5746.02
388.09	5643.03
388.28	5685.16
388.48	5659.42
388.67	6101.78
388.86	6768.83
389.06	7379.71
389.25	7625.47
389.45	7779.94
389.64	7588.02
389.84	7681.64
390.03	7581.00
390.22	7548.23
390.42	7857.18
390.61	8313.58
390.81	8697.43
391.00	8805.10
391.19	9018.08
391.39	8748.92
391.58	8063.15
391.78	7618.44
391.97	7447.58
392.16	7061.40
392.36	6413.07
392.55	4978.32
392.75	4131.05
392.94	3342.28
393.13	3339.94
393.33	3831.46
393.52	4807.46
393.71	5940.28
393.91	6778.19
394.10	7391.41
394.29	8021.02
394.49	8594.45
394.68	9420.66
394.88	9448.74
395.07	9867.70
395.26	9792.80
395.46	9504.92
395.65	8922.12
395.84	7969.52
396.04	6602.65
396.23	5406.64
396.42	4463.40
396.62	4257.43
396.81	4943.21
397.00	6253.91
397.19	7985.91
397.39	9488.53
397.58	10860.09
397.77	11108.18
397.97	11723.74
398.16	11864.18
398.35	12184.83
398.55	12753.58
398.74	13135.09
398.93	13724.90
399.12	13422.97
399.32	12772.30
399.51	13238.07
399.70	13994.06
399.90	13848.95
400.09	13813.84
400.28	13628.94
400.47	13872.36
400.67	14712.61
400.86	14946.66
401.05	14897.51
401.24	14813.25
401.44	15117.52
401.63	15110.50
401.82	15459.24
402.01	15524.77
402.21	15417.11
402.40	15726.06
402.59	15211.14
402.78	14558.13
402.97	13858.31
403.17	14490.26
403.36	15358.60
403.55	16030.33
403.74	16306.51
403.93	15501.37
404.13	14537.07
404.32	13949.59
404.51	14520.68
404.70	16039.69
404.89	15803.30
405.09	15496.69
405.28	15037.94
405.47	15089.43
405.66	14888.15
405.85	14473.87
406.05	14181.31
406.24	14094.71
406.43	15138.58
406.62	15386.68
406.81	15704.99
407.00	14958.36
407.20	14831.97
407.39	14712.61
407.58	15527.11
407.77	16023.31
407.96	16643.55
408.15	16868.24
408.34	16982.93
408.54	17661.68
408.73	17846.58
408.92	17610.19
409.11	17071.87
409.30	16435.24
409.49	15410.09
409.68	14478.55
409.87	13823.20
410.07	14480.89
410.26	15910.96
410.45	16917.39
410.64	17338.69
410.83	17771.69
411.02	18274.90
411.21	19136.22
411.40	18698.54
411.59	19122.18
411.78	18733.65
411.98	18202.35
412.17	19021.53
412.36	18314.69
412.55	18621.30
412.74	18080.64
412.93	17572.74
413.12	17769.35
413.31	19531.77
413.50	19426.45
413.69	20088.82
413.88	19154.94
414.07	18649.39
414.26	19068.34
414.45	19648.80
414.64	19814.98
414.83	19882.85
415.02	19264.95
415.22	19447.51
415.41	19714.33
415.60	20304.15
415.79	21392.50
415.98	21790.39
416.17	21905.07
416.36	21226.32
416.55	20669.27
416.74	20311.17
416.93	19484.96
417.12	19541.13
417.31	20159.03
417.50	20278.40
417.69	20833.11
417.88	20723.10
418.07	20603.74
418.26	20233.93
418.45	20526.50
418.64	20943.11
418.83	21736.56
419.02	21823.16
419.21	21195.89
419.39	20423.51
419.58	19433.47
419.77	19648.80
419.96	20479.69
420.15	21446.33
420.34	21692.08
420.53	22930.23
420.72	22979.38
420.91	23344.50
421.10	23073.00
421.29	22616.60
421.48	21879.33
421.67	23002.78
421.86	22319.35
422.05	20996.95
422.24	18801.52
422.43	18174.26
422.61	20161.37
422.80	22216.36
422.99	22005.72
423.18	21163.12
423.37	21006.31
423.56	20879.92
423.75	21146.74
423.94	21783.37
424.13	20491.39
424.32	20610.76
424.50	20952.48
424.69	20826.09
424.88	20847.15
425.07	20247.97
425.26	20425.86
425.45	20350.96
425.64	20198.82
425.83	19679.22
426.01	21130.36
426.20	21867.63
426.39	21626.55
426.58	20058.39
426.77	18707.90
426.96	17900.42
427.15	18684.50
427.33	20163.72
427.52	20872.90
427.71	20842.47
427.90	20837.79
428.09	20617.78
428.28	20180.10
428.46	19300.06
428.65	19094.09
428.84	19681.56
429.03	19971.79
429.22	18951.32
429.40	18008.08
429.59	16163.74
429.78	14167.26
429.97	14003.43
430.16	14541.75
430.34	14799.21
430.53	14698.56
430.72	14815.59
430.91	16442.26
431.10	19344.53
431.28	22352.12
431.47	24482.00
431.66	25212.25
431.85	22733.62
432.03	20985.24
432.22	19704.97
432.41	20563.95
432.60	23112.79
432.79	24053.69
432.97	24711.38
433.16	24313.48
433.35	21961.25
433.54	19693.27
433.72	18436.40
433.91	19042.60
434.10	21018.01
434.28	22661.07
434.47	24063.05
434.66	23585.58
434.85	23026.19
435.03	22466.80
435.22	23456.85
435.41	24706.70
435.59	25163.10
435.78	25436.94
435.97	25816.11
436.16	26267.83
436.34	25673.34
436.53	25025.01
436.72	25202.89
436.90	23805.59
437.09	23836.02
437.28	23241.52
437.46	24091.13
437.65	24027.94
437.84	22515.95
438.02	20807.36
438.21	20477.35
438.40	21638.25
438.58	23466.21
438.77	24414.13
438.96	24318.17
439.14	25324.60
439.33	25633.55
439.52	26347.41
439.70	25418.22
439.89	25191.19
440.08	24521.79
440.26	24704.35
440.45	25518.86
440.63	26937.23
440.82	28549.85
441.01	27929.61
441.19	27562.15
441.38	27835.99
441.57	29268.40
441.75	29535.22
441.94	29874.60
442.12	29647.57
442.31	30213.98
442.50	30061.84
442.68	29759.91
442.87	29095.20
443.05	28788.59
443.24	29479.05
443.43	29900.34
443.61	30810.81
443.80	30801.45
443.98	29085.84
444.17	29111.58
444.35	30756.98
444.54	30934.86
444.73	30639.95
444.91	29385.43
445.10	28769.86
445.28	27351.50
445.47	26904.46
445.65	27091.70
445.84	27665.13
446.02	28671.56
446.21	28741.78
446.39	29256.70
446.58	29535.22
446.77	29935.45
446.95	30314.62
447.14	31311.69
447.32	31887.46
447.51	30998.06
447.69	29928.43
447.88	29507.13
448.06	30115.67
448.25	30342.70
448.43	30848.26
448.62	30185.89
448.80	29954.18
448.99	30019.71
449.17	30677.40
449.36	30412.92
449.54	31208.70
449.73	32137.90
449.91	32577.92
450.10	33319.87
450.28	33247.31
450.46	33759.89
450.65	33518.81
450.83	33366.68
451.02	32154.28
451.20	32180.03
451.39	32320.46
451.57	31765.75
451.76	31971.72
451.94	31627.66
452.13	31630.00
452.31	30387.18
452.49	28706.67
452.68	28933.70
452.86	28931.36
453.05	29294.14
453.23	30352.07
453.42	31087.00
453.60	31761.07
453.78	32081.72
453.97	31674.47
454.15	31728.30
454.34	31402.97
454.52	31182.96
454.70	30756.98
454.89	30892.73
455.07	30962.95
455.26	31714.26
455.44	32793.25
455.62	33317.53
455.81	33607.75
455.99	33308.16
456.17	32797.93
456.36	32776.86
456.54	33752.87
456.73	33993.94
456.91	34588.44
457.09	34316.93
457.28	35079.95
457.46	33596.05
457.64	33647.54
457.83	32587.28
458.01	31770.43
458.19	32367.27
458.38	32650.47
458.56	33865.21
458.74	34033.73
458.93	33134.96
459.11	33062.41
459.29	32793.25
459.48	33331.57
459.66	32914.95
459.84	33385.40
460.03	33968.19
460.21	33392.42
460.39	34749.93
460.57	34216.29
460.76	34871.64
460.94	34691.42
461.12	34057.14
461.31	34630.57
461.49	34595.46
461.67	34143.74
461.85	35424.01
462.04	34845.90
462.22	35143.14
462.40	35456.78
462.59	35098.67
462.77	35381.88
462.95	35232.08
463.13	34904.41
463.32	34590.78
463.50	33923.72
463.68	34188.21
463.86	34242.04
464.05	33876.91
464.23	33153.69
464.41	32907.93
464.59	32407.06
464.78	34239.70
464.96	34117.99
465.14	33663.93
465.32	34380.13
465.50	35138.46
465.69	35814.88
465.87	34995.69
466.05	34267.78
466.23	32432.80
466.41	32156.62
466.60	32978.15
466.78	32341.52
466.96	33640.52
467.14	34050.11
467.32	34630.57
467.51	34298.21
467.69	32374.29
467.87	33558.60
468.05	34345.02
468.23	34260.76
468.41	34265.44
468.60	34122.67
468.78	35002.71
468.96	33724.78
469.14	34794.40
469.32	34876.32
469.50	33399.44
469.69	33495.41
469.87	33362.00
470.05	33074.11
470.23	32964.10
470.41	32877.51
470.59	33696.69
470.77	33659.24
470.95	34127.35
471.14	34782.70
471.32	34831.85
471.50	36697.26
471.68	36690.24
471.86	37589.00
472.04	37146.64
472.22	37589.00
472.40	35592.53
472.58	35395.92
472.77	34424.60
472.95	35559.76
473.13	36730.03
473.31	35704.87
473.49	35803.17
473.67	36570.87
473.85	36746.41
474.03	37443.89
474.21	37516.45
474.39	38096.90
474.57	38618.84
474.75	38265.42
474.93	38054.77
475.12	36896.20
475.30	36776.84
475.48	37310.48
475.66	37830.08
475.84	37745.82
476.02	36954.72
476.20	36566.19
476.38	37118.56
476.56	38251.38
476.74	39206.31
476.92	39150.14
477.10	40072.31
477.28	40753.41
477.46	40561.48
477.64	41043.63
477.82	41141.94
478.00	41336.20
478.18	40872.78
478.36	40631.70
478.54	40725.32
478.72	41081.08
478.90	42148.37
479.08	42927.77
479.26	43360.76
479.44	43166.50
479.62	43026.07
479.80	43281.19
479.98	43339.70
480.16	43367.79
480.34	42986.28
480.52	43288.21
480.70	43763.34
480.88	43690.78
481.06	44786.15
481.24	44711.25
481.41	45642.79
481.59	46188.13
481.77	46167.07
481.95	45237.87
482.13	45291.71
482.31	45111.49
482.49	45773.86
482.67	45448.52
482.85	46192.81
483.03	46270.05
483.21	46953.49
483.39	47384.15
483.57	46148.34
483.74	45647.47
483.92	46153.02
484.10	46248.99
484.28	47510.53
484.46	47700.12
484.64	48336.74
484.82	47538.62
485.00	46742.84
485.18	46546.23
485.35	44694.87
485.53	41680.26
485.71	37565.60
485.89	37060.04
486.07	39372.49
486.25	42899.68
486.43	44687.85
486.61	46124.94
486.78	45722.37
486.96	45858.12
487.14	47583.09
487.32	48261.85
487.50	49729.36
487.68	50057.04
487.85	50897.29
488.03	50817.71
488.21	50368.33
488.39	49617.02
488.57	48669.10
488.75	48624.63
488.92	49741.06
489.10	52062.88
489.28	53558.48
489.46	53696.57
489.64	53315.06
489.81	54003.18
489.99	53422.73
490.17	53598.27
490.35	53757.42
490.53	53649.76
490.70	53008.45
490.88	53055.26
491.06	53977.43
491.24	54024.25
491.41	52935.90
491.59	51274.12
491.77	50272.37
491.95	51564.34
492.13	52680.78
492.30	53881.47
492.48	54862.16
492.66	55136.00
492.84	55054.08
493.01	54815.35
493.19	54593.00
493.37	54197.44
493.54	53886.15
493.72	54705.34
493.90	55491.76
494.08	56488.83
494.25	56619.90
494.43	56512.23
494.61	57038.86
494.79	57216.74
494.96	57017.79
495.14	56357.76
495.32	55213.24
495.49	54904.29
495.67	55833.48
495.85	57261.21
496.02	57572.50
496.20	57284.61
496.38	56774.37
496.55	56718.20
496.73	57392.28
496.91	57230.78
497.09	58047.63
497.26	58056.99
497.44	57668.46
497.62	57045.88
497.79	56437.34
497.97	55051.74
498.14	55164.09
498.32	56257.12
498.50	57347.81
498.67	57963.37
498.85	57577.18
499.03	58028.90
499.20	57958.69
499.38	57759.74
499.56	57752.72
499.73	57455.47
499.91	57179.29
500.08	56374.14
500.26	56034.77
500.44	56348.40
500.61	57088.01
500.79	56741.61
500.97	56559.05
501.14	56371.80
501.32	56135.41
501.49	56172.86
501.67	56210.31
501.84	56980.34
502.02	56935.87
502.20	57268.23
502.37	57584.20
502.55	57626.33
502.72	58202.10
502.90	58553.18
503.07	58225.51
503.25	57778.46
503.43	57263.55
503.60	56636.28
503.78	55667.30
503.95	56402.23
504.13	57621.65
504.30	58426.79
504.48	58239.55
504.65	58061.67
504.83	57921.24
505.01	58609.35
505.18	58944.05
505.36	59465.99
505.53	59337.26
505.71	59573.66
505.88	59894.31
506.06	59128.95
506.23	58808.30
506.41	58403.39
506.58	58461.90
506.76	58607.01
506.93	58525.10
507.11	58351.90
507.28	58707.66
507.46	57872.09
507.63	57518.67
507.81	57106.73
507.98	57659.10
508.16	58239.55
508.33	58845.75
508.50	59121.93
508.68	59330.24
508.85	59683.66
509.03	59700.04
509.20	59779.62
509.38	59250.66
509.55	58220.83
509.73	58372.96
509.90	58817.66
510.08	59051.72
510.25	58904.26
510.42	58773.19
510.60	58679.57
510.77	58857.45
510.95	59505.78
511.12	59639.19
511.30	59831.11
511.47	60217.30
511.64	59987.93
511.82	59929.42
511.99	59047.04
512.17	58588.29
512.34	58220.83
512.51	58223.17
512.69	58630.42
512.86	58658.51
513.04	59217.89
513.21	59072.78
513.38	58674.89
513.56	58150.61
513.73	57822.93
513.90	57588.88
514.08	58117.84
514.25	58370.62
514.43	58597.65
514.60	58602.33
514.77	58843.41
514.95	58674.89
515.12	58436.16
515.29	58906.60
515.47	59561.95
515.64	59737.49
515.81	59114.91
515.99	58707.66
516.16	57289.29
516.33	55201.53
516.51	53483.58
516.68	52952.28
516.85	52341.40
517.03	52875.04
517.20	55606.45
517.37	57888.47
517.54	58885.54
517.72	58288.70
517.89	56142.43
518.06	53525.71
518.24	53968.07
518.41	55756.24
518.58	57584.20
518.75	57745.70
518.93	57862.72
519.10	57708.25
519.27	58255.93
519.45	58375.30
519.62	58969.80
519.79	59388.75
519.96	59025.97
520.14	58618.72
520.31	57741.02
520.48	57921.24
520.65	58150.61
520.83	59185.13
521.00	59367.69
521.17	59131.29
521.34	58918.31
521.52	58995.54
521.69	59674.30
521.86	60264.11
522.03	59566.63
522.20	58501.69
522.38	57492.92
522.55	57364.19
522.72	58120.18
522.89	58045.29
523.07	58419.77
523.24	58827.02
523.41	59667.28
523.58	59959.84
523.75	60327.31
523.92	60168.15
524.10	60135.38
524.27	60072.19
524.44	59840.48
524.61	59742.17
524.78	59477.69
524.96	59437.90
525.13	59655.57
525.30	59674.30
525.47	60079.21
525.64	60285.18
525.81	59416.84
525.98	57958.69
526.16	56530.96
526.33	55875.61
526.50	55564.32
526.67	55269.41
526.84	55835.82
527.01	56987.36
527.18	57577.18
527.36	58560.20
527.53	59341.94
527.70	59599.40
527.87	59150.02
528.04	58700.64
528.21	59028.31
528.38	59767.92
528.55	60390.50
528.72	60458.38
528.89	60849.25
529.07	60226.66
529.24	59793.67
529.41	59164.06
529.58	58499.35
529.75	58525.10
529.92	59051.72
530.09	59377.05
530.26	59906.01
530.43	60308.58
530.60	60432.63
530.77	60460.72
530.94	60690.09
531.11	60072.19
531.28	59676.64
531.46	59458.97
531.63	59821.75
531.80	59728.13
531.97	59220.23
532.14	58447.86
532.31	57502.28
532.48	56868.00
532.65	57099.71
532.82	57841.66
532.99	58815.32
533.16	59264.70
533.33	59664.94
533.50	59515.14
533.67	58932.35
533.84	58408.07
534.01	58597.65
534.18	58871.49
534.35	59143.00
534.52	58845.75
534.69	59128.95
534.86	59465.99
535.03	59690.68
535.20	60224.32
535.37	60374.12
535.54	60425.61
535.71	60252.41
535.88	59821.75
536.05	59145.34
536.22	58822.34
536.38	58597.65
536.55	58204.44
536.72	57549.09
536.89	57546.75
537.06	58333.17
537.23	59180.45
537.40	59407.48
537.57	59393.43
537.74	59213.21
537.91	59159.38
538.08	59091.51
538.25	59171.08
538.42	59353.65
538.59	59201.51
538.75	58609.35
538.92	58300.40
539.09	58258.27
539.26	57979.75
539.43	58038.26
539.60	57820.59
539.77	58335.51
539.94	58005.50
540.11	57251.84
540.28	56786.08
540.44	56786.08
540.61	57043.54
540.78	57354.83
540.95	57729.31
541.12	58064.01
541.29	58326.15
541.46	58623.40
541.62	58534.46
541.79	58489.99
541.96	58033.58
542.13	57675.48
542.30	58248.91
542.47	58351.90
542.63	57963.37
542.80	57918.90
542.97	58089.76
543.14	57949.32
543.31	57867.40
543.48	58389.34
543.64	59203.85
543.81	59407.48
543.98	59274.07
544.15	58482.97
544.32	58017.20
544.48	58068.69
544.65	58499.35
544.82	59150.02
544.99	58597.65
545.16	58166.99
545.32	57801.87
545.49	58766.17
545.66	59037.67
545.83	58698.30
546.00	58595.31
546.16	58061.67
546.33	58155.29
546.50	58255.93
546.67	58485.31
546.83	58225.51
547.00	58082.73
547.17	57633.35
547.34	57097.37
547.50	56996.73
547.67	57488.24
547.84	57310.36
548.00	57862.72
548.17	58440.84
548.34	58206.78
548.51	57989.11
548.67	57921.24
548.84	58347.21
549.01	58225.51
549.18	57991.45
549.34	57860.38
549.51	58035.92
549.68	57748.04
549.84	57794.85
550.01	57546.75
550.18	57324.40
550.34	57820.59
550.51	57836.98
550.68	57893.15
550.84	57312.70
551.01	57291.63
551.18	57357.17
551.34	57460.15
551.51	57916.56
551.68	58145.93
551.84	58401.05
552.01	57900.17
552.18	58000.82
552.34	56980.34
552.51	56844.59
552.68	56650.33
552.84	57375.89
553.01	57340.78
553.18	57293.97
553.34	57277.59
553.51	57357.17
553.67	57902.51
553.84	57836.98
554.01	57710.59
554.17	57659.10
554.34	57689.52
554.51	57808.89
554.67	58258.27
554.84	57708.25
555.00	57612.29
555.17	57542.07
555.33	57160.56
555.50	57233.12
555.67	57261.21
555.83	57038.86
556.00	56755.65
556.16	57043.54
556.33	56474.79
556.50	56542.66
556.66	56210.31
556.83	56205.62
556.99	56259.46
557.16	56261.80
557.32	56516.92
557.49	56872.68
557.65	56697.14
557.82	56800.12
557.98	56664.37
558.15	56273.50
558.32	55136.00
558.48	54351.92
558.65	54562.57
558.81	55070.46
558.98	55482.40
559.14	55735.18
559.31	55697.73
559.47	55583.04
559.64	55384.10
559.80	55098.55
559.97	55154.72
560.13	55402.82
560.30	56479.47
560.46	56959.28
560.63	57083.33
560.79	57104.39
560.96	56741.61
561.12	55487.08
561.29	54915.99
561.45	54796.62
561.61	55428.57
561.78	55629.85
561.94	55674.32
562.11	55615.81
562.27	55430.91
562.44	55552.62
562.60	56011.36
562.77	56250.09
562.93	56245.41
563.10	55880.29
563.26	55433.25
563.42	55489.42
563.59	55206.22
563.75	55388.78
563.92	55299.84
564.08	55131.32
564.24	55756.24
564.41	55611.13
564.57	55519.85
564.74	55201.53
564.90	55098.55
565.07	55047.06
565.23	54595.34
565.39	54429.16
565.56	53942.33
565.72	53418.05
565.88	53982.12
566.05	54316.81
566.21	54684.28
566.38	54281.70
566.54	54623.42
566.70	55196.85
566.87	55201.53
567.03	55178.13
567.19	55334.95
567.36	55164.09
567.52	54937.05
567.68	54803.64
567.85	54099.14
568.01	53741.04
568.17	53132.50
568.34	53701.25
568.50	53425.07
568.66	53380.60
568.83	54012.54
568.99	54066.38
569.15	54080.42
569.32	54319.15
569.48	53556.14
569.64	53703.59
569.81	53326.77
569.97	53127.82
570.13	53331.45
570.30	52849.30
570.46	52212.67
570.62	51428.59
570.78	51386.46
570.95	51657.96
571.11	52877.38
571.27	52914.83
571.43	52816.53
571.60	53371.24
571.76	53446.13
571.92	53900.20
572.09	53776.15
572.25	54134.25
572.41	53776.15
572.57	53418.05
572.74	53523.37
572.90	53375.92
573.06	53207.40
573.22	53359.53
573.38	53195.70
573.55	53279.96
573.71	53591.25
573.87	53202.72
574.03	53205.06
574.20	53352.51
574.36	52790.78
574.52	52931.22
574.68	52828.23
574.84	52069.90
575.01	51887.34
575.17	51554.98
575.33	51796.06
575.49	51889.68
575.65	52327.36
575.82	51941.17
575.98	51753.93
576.14	52172.88
576.30	52383.53
576.46	52526.30
576.62	52360.12
576.79	52282.89
576.95	51751.59
577.11	51728.18
577.27	51901.38
577.43	52053.51
577.59	51796.06
577.75	51208.58
577.92	50457.27
578.08	50143.64
578.24	50628.13
578.40	50873.88
578.56	51082.19
578.72	51138.36
578.88	51501.15
579.04	51702.43
579.21	51763.29
579.37	51540.94
579.53	51767.97
579.69	51646.26
579.85	51840.53
580.01	51604.13
580.17	51054.11
580.33	50777.92
580.49	51033.04
580.65	51767.97
580.82	51554.98
580.98	51594.77
581.14	51550.30
581.30	51709.46
581.46	51152.41
581.62	51805.42
581.78	51573.70
581.94	51901.38
582.10	51482.42
582.26	51828.82
582.42	51517.53
582.58	51753.93
582.74	51629.88
582.90	51756.27
583.06	51840.53
583.22	51505.83
583.38	51650.94
583.54	51302.20
583.70	51423.91
583.86	51215.60
584.02	51475.40
584.18	51587.75
584.34	51231.99
584.50	51002.61
584.66	50916.01
584.82	50546.21
584.98	50815.37
585.14	50251.30
585.30	49244.87
