SpectraSuite Data File
++++++++++++++++++++++++++++++++++++
Date: Mon Oct 07 14:55:00 GMT-05:00 2013
User: price-jones
Dark Spectrum Present: No
Reference Spectrum Present: No
Number of Sampled Component Spectra: 1
Spectrometers: USB2+H05261
Integration Time (usec): 10000 (USB2+H05261)
Spectra Averaged: 1 (USB2+H05261)
Boxcar Smoothing: 0 (USB2+H05261)
Correct for Electrical Dark: No (USB2+H05261)
Strobe/Lamp Enabled: No (USB2+H05261)
Correct for Detector Non-linearity: No (USB2+H05261)
Correct for Stray Light: No (USB2+H05261)
Number of Pixels in Processed Spectrum: 2048
>>>>>Begin Processed Spectral Data<<<<<
365.73	0.00
365.92	0.00
366.12	0.00
366.32	0.00
366.52	0.00
366.72	0.00
366.91	0.00
367.11	0.00
367.31	0.00
367.51	0.00
367.70	0.00
367.90	0.00
368.10	0.00
368.30	0.00
368.49	0.00
368.69	0.00
368.89	0.00
369.09	0.00
369.28	0.00
369.48	0.00
369.68	0.00
369.87	0.00
370.07	0.00
370.27	0.00
370.47	255.12
370.66	2279.68
370.86	2654.17
371.06	2813.32
371.25	2857.79
371.45	2548.84
371.65	2289.04
371.84	2139.25
372.04	2380.32
372.24	2630.76
372.44	2630.76
372.63	2665.87
372.83	2389.69
373.03	2045.63
373.22	1907.54
373.42	2069.03
373.62	2464.58
373.81	2518.42
374.01	2483.31
374.21	2314.79
374.40	2122.87
374.60	2361.60
374.79	2757.15
374.99	3197.17
375.19	3279.09
375.38	3176.11
375.58	3073.12
375.78	2979.50
375.97	3009.93
376.17	3084.83
376.37	3150.36
376.56	3424.20
376.76	3456.97
376.95	3686.34
377.15	4093.60
377.35	4074.87
377.54	4067.85
377.74	4325.31
377.93	4297.22
378.13	4140.41
378.33	3836.14
378.52	3538.89
378.72	3564.64
378.91	3548.25
379.11	3393.78
379.31	3265.05
379.50	3283.77
379.70	3552.93
379.89	4124.02
380.09	4105.30
380.28	4215.30
380.48	4152.11
380.68	4224.67
380.87	3990.61
381.07	3597.40
381.26	3405.48
381.46	3087.17
381.65	3211.22
381.85	3115.25
382.04	2988.86
382.24	2583.95
382.43	2565.23
382.63	2619.06
382.83	2572.25
383.02	2527.78
383.22	2609.70
383.41	2605.02
383.61	2890.56
383.80	3358.67
384.00	3691.02
384.19	4095.94
384.39	4241.05
384.58	4273.82
384.78	4175.52
384.97	4044.45
385.17	3871.25
385.36	3719.11
385.56	3538.89
385.75	3796.35
385.95	4266.80
386.14	4510.21
386.34	4407.23
386.53	4021.04
386.72	3962.53
386.92	4203.60
387.11	4147.43
387.31	4355.74
387.50	4418.93
387.70	4156.79
387.89	4203.60
388.09	4440.00
388.28	4189.56
388.48	4334.67
388.67	4730.22
388.86	5172.58
389.06	5500.26
389.25	5827.93
389.45	5881.77
389.64	5722.61
389.84	5509.62
390.03	5481.53
390.22	5570.48
390.42	5940.28
390.61	6307.74
390.81	6579.25
391.00	6874.15
391.19	6696.27
391.39	6335.83
391.58	6115.82
391.78	5767.08
391.97	5593.88
392.16	5338.76
392.36	4374.46
392.55	3412.50
392.75	2745.45
392.94	2413.09
393.13	2431.82
393.33	2984.18
393.52	4030.40
393.71	4699.80
393.91	5291.95
394.10	5783.46
394.29	6230.51
394.49	6754.79
394.68	7201.83
394.88	7068.42
395.07	7295.45
395.26	7265.02
395.46	7241.62
395.65	6438.81
395.84	5589.20
396.04	4676.39
396.23	3737.84
396.42	3176.11
396.62	3141.00
396.81	4126.36
397.00	5128.11
397.19	6504.35
397.39	7552.91
397.58	8245.71
397.77	8554.66
397.97	9036.81
398.16	9221.71
398.35	9523.64
398.55	9853.66
398.74	10087.71
398.93	10150.90
399.12	10186.01
399.32	9870.04
399.51	10052.60
399.70	10895.19
399.90	10345.17
400.09	10424.75
400.28	10546.45
400.47	10499.64
400.67	11049.67
400.86	11400.75
401.05	11433.52
401.24	11646.51
401.44	11733.11
401.63	11604.38
401.82	11552.88
402.01	11653.53
402.21	11728.42
402.40	11765.87
402.59	11220.53
402.78	10881.15
402.97	10803.91
403.17	11332.87
403.36	11981.20
403.55	12196.53
403.74	12355.69
403.93	11545.86
404.13	10679.86
404.32	10721.99
404.51	11410.11
404.70	12196.53
404.89	11997.59
405.09	11386.71
405.28	11620.76
405.47	11747.15
405.66	11389.05
405.85	11265.00
406.05	11033.29
406.24	11255.64
406.43	12051.42
406.62	12189.51
406.81	12030.35
407.00	11920.35
407.20	11283.72
407.39	11543.52
407.58	12248.02
407.77	12622.51
407.96	13060.19
408.15	13540.00
408.34	13315.31
408.54	14204.71
408.73	13710.86
408.92	13432.33
409.11	13027.42
409.30	12559.31
409.49	11735.45
409.68	11229.89
409.87	11136.27
410.07	11908.65
410.26	12470.37
410.45	13144.45
410.64	13308.29
410.83	14298.33
411.02	14656.43
411.21	14661.12
411.40	14544.09
411.59	14569.83
411.78	14991.13
411.98	14534.73
412.17	14778.14
412.36	14626.01
412.55	14497.28
412.74	14274.93
412.93	13907.46
413.12	14232.80
413.31	15543.50
413.50	15634.78
413.69	15627.76
413.88	14927.94
414.07	14738.35
414.26	15098.80
414.45	15417.11
414.64	15201.78
414.83	15515.41
415.02	15253.27
415.22	15349.23
415.41	15786.91
415.60	16493.76
415.79	17198.26
415.98	17135.06
416.17	17432.31
416.36	16650.57
416.55	16390.77
416.74	15779.89
416.93	15782.23
417.12	15782.23
417.31	15941.39
417.50	16252.68
417.69	16681.00
417.88	16681.00
418.07	16137.99
418.26	16023.31
418.45	16533.54
418.64	17130.38
418.83	17921.48
419.02	17383.16
419.21	16847.18
419.39	15985.86
419.58	15660.52
419.77	15793.94
419.96	16992.29
420.15	17481.46
420.34	18036.17
420.53	18370.86
420.72	18623.64
420.91	18370.86
421.10	17886.37
421.29	17919.14
421.48	17547.00
421.67	18405.97
421.86	17680.41
422.05	16198.85
422.24	14520.68
422.43	15454.56
422.61	17212.30
422.80	17877.01
422.99	17521.25
423.18	16936.12
423.37	16835.47
423.56	17074.21
423.75	17481.46
423.94	17706.15
424.13	16629.51
424.32	16329.92
424.50	16601.42
424.69	16917.39
424.88	17036.76
425.07	16709.08
425.26	16933.78
425.45	16397.79
425.64	15964.79
425.83	16329.92
426.01	17378.48
426.20	17603.17
426.39	17191.23
426.58	16084.16
426.77	14841.34
426.96	14764.10
427.15	15438.17
427.33	16559.29
427.52	16992.29
427.71	17027.40
427.90	17214.64
428.09	16652.91
428.28	16318.22
428.46	15440.51
428.65	15529.45
428.84	16065.44
429.03	16372.05
429.22	15197.10
429.40	13851.29
429.59	12933.80
429.78	11578.63
429.97	11648.85
430.16	11913.33
430.34	11763.53
430.53	11995.25
430.72	12571.02
430.91	14396.64
431.10	16966.54
431.28	19068.34
431.47	20428.20
431.66	19999.88
431.85	17610.19
432.03	16453.97
432.22	16526.52
432.41	18090.00
432.60	19356.23
432.79	19798.59
432.97	20058.39
433.16	19140.90
433.35	17336.35
433.54	15644.14
433.72	15386.68
433.91	16245.66
434.10	18305.33
434.28	18916.21
434.47	19573.90
434.66	18871.74
434.85	18995.79
435.03	19253.25
435.22	19417.08
435.41	20243.29
435.59	21139.72
435.78	20828.43
435.97	21591.44
436.16	21774.00
436.34	21120.99
436.53	20545.22
436.72	20741.83
436.90	19999.88
437.09	19711.99
437.28	19449.85
437.46	20208.19
437.65	19587.94
437.84	18185.96
438.02	17371.46
438.21	17516.57
438.40	18148.51
438.58	19768.16
438.77	20336.91
438.96	20540.54
439.14	21495.48
439.33	21521.23
439.52	21582.08
439.70	21240.36
439.89	20751.19
440.08	20505.43
440.26	20685.65
440.45	21032.05
440.63	22761.71
440.82	23513.02
441.01	22625.96
441.19	23173.64
441.38	23585.58
441.57	24577.97
441.75	24388.38
441.94	24912.66
442.12	24357.96
442.31	25041.39
442.50	24732.44
442.68	24067.73
442.87	24372.00
443.05	23782.18
443.24	24842.45
443.43	24872.87
443.61	25326.94
443.80	25647.59
443.98	24737.12
444.17	24575.62
444.35	25750.57
444.54	25984.63
444.73	25319.92
444.91	24168.37
445.10	23548.13
445.28	22993.42
445.47	22270.20
445.65	22443.40
445.84	23454.51
446.02	23988.15
446.21	24254.97
446.39	24271.36
446.58	24821.38
446.77	25191.19
446.95	25535.24
447.14	26876.37
447.32	27290.65
447.51	26274.85
447.69	24776.91
447.88	24793.29
448.06	25455.67
448.25	25834.83
448.43	25551.63
448.62	25397.15
448.80	25654.61
448.99	25397.15
449.17	25546.95
449.36	26010.37
449.54	26944.25
449.73	27480.23
449.91	27407.67
450.10	28463.25
450.28	28439.85
450.46	28559.22
450.65	28217.50
450.83	27812.59
451.02	27374.91
451.20	27594.92
451.39	27838.33
451.57	27601.94
451.76	27803.22
451.94	26955.95
452.13	26230.38
452.31	24870.53
452.49	23679.20
452.68	24500.73
452.86	24713.72
453.05	24793.29
453.23	25736.53
453.42	26614.23
453.60	27042.55
453.78	27126.81
453.97	26682.11
454.15	27129.15
454.34	25586.74
454.52	25738.87
454.70	25734.19
454.89	26551.04
455.07	26651.68
455.26	27061.27
455.44	27630.02
455.62	28023.23
455.81	28353.25
455.99	28098.13
456.17	27789.18
456.36	28474.96
456.54	28884.55
456.73	28559.22
456.91	28601.35
457.09	29177.12
457.28	30281.85
457.46	28643.48
457.64	28294.74
457.83	27222.77
458.01	27236.81
458.19	28229.20
458.38	28428.15
458.56	29160.73
458.74	28769.86
458.93	27613.64
459.11	27824.29
459.29	28039.62
459.48	28175.37
459.66	28034.94
459.84	28519.43
460.03	28723.05
460.21	28594.32
460.39	29343.30
460.57	29413.51
460.76	29219.25
460.94	29930.77
461.12	29951.84
461.31	29221.59
461.49	29802.04
461.67	29626.50
461.85	30635.27
462.04	30300.58
462.22	30286.53
462.40	30794.43
462.59	29834.81
462.77	30375.47
462.95	30242.06
463.13	30082.91
463.32	28819.02
463.50	29542.24
463.68	29415.85
463.86	29612.46
464.05	28706.67
464.23	28348.57
464.41	28435.17
464.59	27850.03
464.78	29469.69
464.96	28884.55
465.14	28093.45
465.32	29668.63
465.50	30925.50
465.69	31161.89
465.87	30054.82
466.05	29469.69
466.23	28371.97
466.41	27112.77
466.60	28503.04
466.78	27906.21
466.96	28336.87
467.14	28774.55
467.32	29177.12
467.51	29076.48
467.69	27747.05
467.87	28898.59
468.05	29432.24
468.23	29486.07
468.41	29303.51
468.60	29570.33
468.78	29895.66
468.96	29881.62
469.14	30441.01
469.32	29947.15
469.50	28409.42
469.69	28884.55
469.87	28245.58
470.05	28301.76
470.23	28512.41
470.41	28467.94
470.59	29165.42
470.77	28706.67
470.95	29879.28
471.14	30164.82
471.32	30115.67
471.50	31960.02
471.68	31477.86
471.86	32261.94
472.04	31924.91
472.22	32460.89
472.40	30469.09
472.58	30199.93
472.77	30513.56
472.95	30738.26
473.13	31632.34
473.31	30391.86
473.49	31524.68
473.67	31611.28
473.85	32378.97
474.03	33352.63
474.21	33209.86
474.39	33266.03
474.57	33237.95
474.75	33589.03
474.93	32898.57
475.12	32306.41
475.30	32507.70
475.48	32046.62
475.66	32734.73
475.84	32091.09
476.02	32414.08
476.20	31716.60
476.38	32210.45
476.56	33319.87
476.74	33858.19
476.92	34263.10
477.10	34256.08
477.28	35526.99
477.46	35672.10
477.64	36268.94
477.82	35952.97
478.00	35967.01
478.18	35995.10
478.36	34951.22
478.54	35353.79
478.72	36037.23
478.90	37158.34
479.08	38026.68
479.26	38225.63
479.44	38403.51
479.62	38038.39
479.80	38450.32
479.98	38181.16
480.16	38101.58
480.34	37787.95
480.52	38373.08
480.70	37937.74
480.88	38237.33
481.06	38913.75
481.24	38962.90
481.41	40835.33
481.59	41565.57
481.77	40411.69
481.95	39840.60
482.13	40062.95
482.31	40755.75
482.49	41205.13
482.67	40706.60
482.85	40643.40
483.03	40601.27
483.21	41958.78
483.39	42382.42
483.57	41460.25
483.74	40772.13
483.92	41155.98
484.10	40832.99
484.28	41813.67
484.46	42017.30
484.64	43140.75
484.82	41862.82
485.00	41591.32
485.18	40765.11
485.35	39007.37
485.53	34375.45
485.71	32112.15
485.89	32737.07
486.07	35409.96
486.25	37874.55
486.43	40203.38
486.61	40278.28
486.78	39903.79
486.96	42047.72
487.14	42492.43
487.32	44194.00
487.50	44266.55
487.68	45448.52
487.85	46108.55
488.03	45876.84
488.21	44982.76
488.39	44697.21
488.57	42691.37
488.75	43166.50
488.92	45352.56
489.10	47606.50
489.28	47931.83
489.46	49457.86
489.64	48690.16
489.81	49127.84
489.99	49125.50
490.17	49212.10
490.35	49593.61
490.53	48744.00
490.70	48680.80
490.88	48779.10
491.06	49897.88
491.24	50241.94
491.41	48481.86
491.59	46644.54
491.77	45794.92
491.95	47470.75
492.13	49581.91
492.30	50145.98
492.48	50988.57
492.66	50969.85
492.84	50560.25
493.01	50670.26
493.19	50408.12
493.37	49698.94
493.54	49972.78
493.72	51393.48
493.90	51856.91
494.08	52830.57
494.25	52942.92
494.43	53235.48
494.61	53815.94
494.79	53506.99
494.96	53347.83
495.14	53340.81
495.32	51517.53
495.49	51613.49
495.67	52540.35
495.85	53677.85
496.02	54255.96
496.20	53382.94
496.38	53057.60
496.55	53104.41
496.73	53907.22
496.91	54197.44
497.09	54326.17
497.26	55426.23
497.44	54115.53
497.62	53057.60
497.79	52865.68
497.97	51449.66
498.14	52329.70
498.32	53352.51
498.50	53909.56
498.67	54138.93
498.85	53904.88
499.03	54649.17
499.20	54894.92
499.38	54003.18
499.56	52823.55
499.73	53219.10
499.91	53354.85
500.08	52453.75
500.26	52371.83
500.44	52861.00
500.61	53762.11
500.79	53523.37
500.97	52949.94
501.14	52694.82
501.32	52023.09
501.49	51845.21
501.67	52926.53
501.84	53858.07
502.02	53813.60
502.20	54209.15
502.37	53982.12
502.55	54621.08
502.72	55391.12
502.90	55700.07
503.07	55016.63
503.25	53808.92
503.43	53020.16
503.60	52846.96
503.78	52680.78
503.95	53722.32
504.13	54239.57
504.30	55468.36
504.48	54925.35
504.65	54796.62
504.83	54616.40
505.01	55524.53
505.18	55732.84
505.36	56636.28
505.53	56285.20
505.71	56009.02
505.88	56561.39
506.06	55997.32
506.23	55704.75
506.41	55131.32
506.58	55639.22
506.76	55742.20
506.93	55199.19
507.11	55175.79
507.28	54962.80
507.46	54223.19
507.63	54651.51
507.81	53949.35
507.98	54078.08
508.16	55634.53
508.33	55955.19
508.50	55943.48
508.68	56289.88
508.85	56376.48
509.03	57389.94
509.20	56584.79
509.38	56189.24
509.55	55863.91
509.73	55538.57
509.90	55580.70
510.08	55840.50
510.25	55433.25
510.42	55002.59
510.60	55533.89
510.77	56474.79
510.95	56425.64
511.12	56875.02
511.30	57560.79
511.47	57635.69
511.64	57354.83
511.82	57137.16
511.99	55561.98
512.17	55688.37
512.34	55339.63
512.51	55833.48
512.69	56151.79
512.86	55433.25
513.04	55856.88
513.21	55501.12
513.38	54803.64
513.56	54461.93
513.73	53743.38
513.90	55372.39
514.08	54742.79
514.25	54918.33
514.43	55281.11
514.60	55330.26
514.77	55877.95
514.95	56002.00
515.12	55976.25
515.29	56598.83
515.47	56924.17
515.64	56584.79
515.81	56140.09
515.99	54681.94
516.16	53088.03
516.33	50578.98
516.51	50061.72
516.68	48926.56
516.85	47618.20
517.03	49298.70
517.20	52285.23
517.37	54862.16
517.54	55824.12
517.72	54733.43
517.89	51540.94
518.06	49567.87
518.24	50901.97
518.41	52837.59
518.58	54597.68
518.75	54497.03
518.93	54213.83
519.10	54099.14
519.27	55068.12
519.45	55458.99
519.62	56556.70
519.79	56582.45
519.96	55590.06
520.14	55798.37
520.31	54686.62
520.48	54672.57
520.65	55433.25
520.83	56629.26
521.00	56067.53
521.17	55461.33
521.34	56093.28
521.52	57148.86
521.69	56921.83
521.86	57387.60
522.03	56638.62
522.20	54969.82
522.38	54115.53
522.55	54504.06
522.72	54674.91
522.89	54904.29
523.07	56030.08
523.24	56439.68
523.41	56760.33
523.58	57092.69
523.75	57345.47
523.92	57663.78
524.10	56797.78
524.27	56474.79
524.44	56109.66
524.61	55779.65
524.78	56025.40
524.96	56275.84
525.13	56985.02
525.30	57453.13
525.47	57354.83
525.64	57378.23
525.81	55812.41
525.98	54035.95
526.16	52413.96
526.33	52626.95
526.50	51966.91
526.67	52533.32
526.84	53258.89
527.01	54167.02
527.18	54937.05
527.36	55662.62
527.53	56577.77
527.70	56079.24
527.87	54794.28
528.04	55456.65
528.21	56226.69
528.38	56856.29
528.55	57834.64
528.72	57778.46
528.89	57106.73
529.07	57125.46
529.24	55711.77
529.41	55707.09
529.58	55805.39
529.75	56128.39
529.92	57233.12
530.09	56928.85
530.26	57308.02
530.43	57890.81
530.60	57488.24
530.77	57612.29
530.94	57996.13
531.11	56928.85
531.28	56687.78
531.46	56926.51
531.63	57066.94
531.80	56245.41
531.97	56107.32
532.14	55884.97
532.31	54333.20
532.48	53921.26
532.65	53965.73
532.82	54658.53
532.99	56589.47
533.16	56924.17
533.33	57160.56
533.50	56868.00
533.67	56264.14
533.84	56261.80
534.01	56601.18
534.18	56095.62
534.35	56404.57
534.52	55554.96
534.69	56095.62
534.86	56704.16
535.03	57134.82
535.20	57766.76
535.37	58265.30
535.54	58110.82
535.71	57263.55
535.88	57293.97
536.05	56144.77
536.22	55302.18
536.38	55863.91
536.55	55121.96
536.72	54805.98
536.89	55229.62
537.06	55880.29
537.23	56032.42
537.40	55423.89
537.57	56030.08
537.74	56128.39
537.91	56053.49
538.08	55543.25
538.25	56231.37
538.42	56779.06
538.59	56669.05
538.75	55608.79
538.92	54518.10
539.09	55238.98
539.26	55121.96
539.43	55037.70
539.60	54536.82
539.77	55276.43
539.94	55040.04
540.11	54396.39
540.28	54113.19
540.44	54363.62
540.61	53673.16
540.78	54225.53
540.95	54637.47
541.12	55175.79
541.29	55491.76
541.46	55231.96
541.62	55824.12
541.79	54939.39
541.96	54492.35
542.13	55037.70
542.30	54562.57
542.47	55250.69
542.63	54981.52
542.80	54398.73
542.97	53832.32
543.14	54169.36
543.31	55182.81
543.48	55744.54
543.64	56390.53
543.81	56720.54
543.98	56514.58
544.15	55711.77
544.32	55868.59
544.48	55931.78
544.65	55276.43
544.82	55948.17
544.99	54607.04
545.16	54560.23
545.32	55002.59
545.49	55615.81
545.66	56020.72
545.83	55456.65
546.00	55807.73
546.16	55112.59
546.33	54494.69
546.50	55042.38
546.67	55814.76
546.83	55756.24
547.00	55217.92
547.17	53745.72
547.34	53331.45
547.50	53179.31
547.67	54115.53
547.84	54927.69
548.00	55587.72
548.17	55311.54
548.34	55547.93
548.51	55711.77
548.67	54967.48
548.84	55033.02
549.01	55348.99
549.18	54911.31
549.34	54920.67
549.51	55318.56
549.68	56144.77
549.84	54944.08
550.01	54190.42
550.18	54873.86
550.34	54398.73
550.51	54562.57
550.68	54944.08
550.84	55599.43
551.01	54389.37
551.18	54431.50
551.34	54614.06
551.51	54845.77
551.68	55105.57
551.84	56086.26
552.01	54960.46
552.18	54829.39
552.34	53731.68
552.51	53240.17
552.68	53418.05
552.84	54609.38
553.01	54136.59
553.18	54113.19
553.34	53900.20
553.51	54380.01
553.67	54644.49
553.84	55079.83
554.01	55463.67
554.17	54759.17
554.34	54574.27
554.51	54686.62
554.67	53979.78
554.84	54092.12
555.00	53869.77
555.17	53942.33
555.33	53490.60
555.50	53446.13
555.67	53923.60
555.83	53469.54
556.00	53291.66
556.16	52676.10
556.33	53427.41
556.50	53694.23
556.66	53162.93
556.83	52830.57
556.99	52329.70
557.16	53364.21
557.32	53118.46
557.49	54024.25
557.65	53242.51
557.82	54143.61
557.98	53991.48
558.15	52856.32
558.32	52273.52
558.48	51763.29
558.65	50911.33
558.81	51814.78
558.98	52561.41
559.14	52736.95
559.31	52355.44
559.47	52303.95
559.64	51877.97
559.80	51845.21
559.97	52095.64
560.13	52575.45
560.30	53736.36
560.46	54277.02
560.63	54410.43
560.79	54623.42
560.96	53673.16
561.12	52247.78
561.29	52811.85
561.45	52701.84
561.61	53694.23
561.78	52243.10
561.94	52552.05
562.11	51894.36
562.27	51709.46
562.44	53212.08
562.60	53343.15
562.77	53123.14
562.93	52823.55
563.10	53247.19
563.26	52664.39
563.42	53010.79
563.59	52395.23
563.75	52280.55
563.92	52292.25
564.08	52413.96
564.24	53198.04
564.41	51639.24
564.57	53359.53
564.74	52903.13
564.90	52142.45
565.07	51332.63
565.23	51021.34
565.39	50054.70
565.56	50340.24
565.72	51615.83
565.88	50389.39
566.05	52439.70
566.21	51421.57
566.38	51903.72
566.54	52940.58
566.70	53242.51
566.87	52608.22
567.03	52877.38
567.19	53979.78
567.36	53649.76
567.52	52222.03
567.68	51693.07
567.85	50461.95
568.01	51178.15
568.17	50466.63
568.34	51377.10
568.50	50574.30
568.66	50314.50
568.83	50422.16
568.99	49958.73
569.15	50593.02
569.32	50174.06
569.48	50478.33
569.64	50237.26
569.81	50363.65
569.97	50436.20
570.13	49631.06
570.30	48306.32
570.46	48376.53
570.62	47988.00
570.78	48765.06
570.95	48294.61
571.11	49102.10
571.27	48846.98
571.43	49848.73
571.60	49509.35
571.76	50260.66
571.92	50342.58
572.09	50820.05
572.25	49993.84
572.41	49916.61
572.57	50220.87
572.74	51140.71
572.90	51356.03
573.06	51428.59
573.22	51599.45
573.38	51482.42
573.55	52385.87
573.71	51023.68
573.87	50607.06
574.03	50216.19
574.20	49703.62
574.36	49235.51
574.52	49617.02
574.68	49074.01
574.84	48208.01
575.01	48357.81
575.17	48308.66
575.33	48903.15
575.49	49134.87
575.65	48271.21
575.82	48397.60
575.98	49282.32
576.14	49794.90
576.30	50457.27
576.46	49329.13
576.62	48608.25
576.79	48669.10
576.95	49830.01
577.11	49785.54
577.27	48954.64
577.43	49045.93
577.59	48758.04
577.75	48542.71
577.92	47611.18
578.08	47683.73
578.24	47019.02
578.40	47882.68
578.56	46377.72
578.72	46916.04
578.88	47564.37
579.04	47819.49
579.21	47391.17
579.37	47302.23
579.53	47641.60
579.69	46707.73
579.85	47037.75
580.01	47210.95
580.17	46918.38
580.33	48526.33
580.49	48130.78
580.65	47442.66
580.82	48133.12
580.98	48170.57
581.14	47592.45
581.30	47239.03
581.46	47309.25
581.62	47889.70
581.78	48449.09
581.94	48938.26
582.10	48718.25
582.26	48086.31
582.42	48278.23
582.58	47732.89
582.74	47578.41
582.90	47494.15
583.06	48842.30
583.22	47978.64
583.38	48327.38
583.54	48231.42
583.70	48065.24
583.86	48423.34
584.02	46555.60
584.18	47414.57
584.34	47267.12
584.50	46349.63
584.66	46782.63
584.82	46569.64
584.98	47419.25
585.14	45705.98
585.30	45771.52
