SpectraSuite Data File
++++++++++++++++++++++++++++++++++++
Date: Mon Oct 07 14:55:01 GMT-05:00 2013
User: price-jones
Dark Spectrum Present: No
Reference Spectrum Present: No
Number of Sampled Component Spectra: 1
Spectrometers: USB2+H05261
Integration Time (usec): 10000 (USB2+H05261)
Spectra Averaged: 1 (USB2+H05261)
Boxcar Smoothing: 0 (USB2+H05261)
Correct for Electrical Dark: No (USB2+H05261)
Strobe/Lamp Enabled: No (USB2+H05261)
Correct for Detector Non-linearity: No (USB2+H05261)
Correct for Stray Light: No (USB2+H05261)
Number of Pixels in Processed Spectrum: 2048
>>>>>Begin Processed Spectral Data<<<<<
365.73	0.00
365.92	0.00
366.12	0.00
366.32	0.00
366.52	0.00
366.72	0.00
366.91	0.00
367.11	0.00
367.31	0.00
367.51	0.00
367.70	0.00
367.90	0.00
368.10	0.00
368.30	0.00
368.49	0.00
368.69	0.00
368.89	0.00
369.09	0.00
369.28	0.00
369.48	0.00
369.68	0.00
369.87	0.00
370.07	0.00
370.27	0.00
370.47	416.62
370.66	2321.81
370.86	2827.37
371.06	2946.73
371.25	2925.67
371.45	2553.52
371.65	2272.66
371.84	2293.72
372.04	2413.09
372.24	2684.59
372.44	2715.02
372.63	2693.96
372.83	2431.82
373.03	2029.24
373.22	2047.97
373.42	2260.96
373.62	2630.76
373.81	2635.44
374.01	2516.08
374.21	2361.60
374.40	2017.54
374.60	2377.98
374.79	2722.04
374.99	3150.36
375.19	3309.52
375.38	3337.60
375.58	3183.13
375.78	3138.66
375.97	3087.17
376.17	3180.79
376.37	3342.28
376.56	3440.59
376.76	3613.79
376.95	3817.41
377.15	4032.74
377.35	4091.26
377.54	4308.93
377.74	4451.70
377.93	4498.51
378.13	4276.16
378.33	4011.68
378.52	3768.26
378.72	3550.59
378.91	3442.93
379.11	3365.69
379.31	3190.15
379.50	3344.63
379.70	3763.58
379.89	4149.77
380.09	4308.93
380.28	4320.63
380.48	4465.74
380.68	4248.07
380.87	4175.52
381.07	3784.65
381.26	3527.19
381.46	3204.19
381.65	3295.47
381.85	3077.80
382.04	3007.59
382.24	2670.55
382.43	2738.43
382.63	2539.48
382.83	2658.85
383.02	2595.65
383.22	2684.59
383.41	2574.59
383.61	2906.95
383.80	3396.12
384.00	3901.67
384.19	4241.05
384.39	4374.46
384.58	4440.00
384.78	4205.94
384.97	4236.37
385.17	3995.29
385.36	3716.77
385.56	3679.32
385.75	3918.06
385.95	4196.58
386.14	4592.13
386.34	4397.87
386.53	4217.65
386.72	3941.46
386.92	4039.76
387.11	4444.68
387.31	4564.04
387.50	4465.74
387.70	4280.84
387.89	4334.67
388.09	4390.84
388.28	4521.92
388.48	4463.40
388.67	4844.91
388.86	5341.10
389.06	5530.69
389.25	6031.56
389.45	5933.26
389.64	6019.86
389.84	5781.12
390.03	5549.41
390.22	5750.70
390.42	6066.67
390.61	6448.18
390.81	6860.11
391.00	6925.65
391.19	6918.62
391.39	6455.20
391.58	6263.27
391.78	5914.53
391.97	5699.20
392.16	5226.42
392.36	4573.41
392.55	3627.83
392.75	2801.62
392.94	2387.35
393.13	2490.33
393.33	3272.07
393.52	4009.34
393.71	4767.67
393.91	5451.11
394.10	6179.01
394.29	6487.96
394.49	7124.59
394.68	7384.39
394.88	7232.26
395.07	7641.85
395.26	7403.11
395.46	7150.34
395.65	6729.04
395.84	5699.20
396.04	4566.39
396.23	3775.28
396.42	3321.22
396.62	3435.91
396.81	4203.60
397.00	5252.16
397.19	6640.10
397.39	7836.11
397.58	8636.58
397.77	9118.73
397.97	9277.88
398.16	9210.01
398.35	9748.33
398.55	9860.68
398.74	10476.24
398.93	10466.88
399.12	10448.15
399.32	9909.83
399.51	10497.30
399.70	10864.77
399.90	10607.31
400.09	10415.38
400.28	10483.26
400.47	10902.22
400.67	11225.21
400.86	11393.73
401.05	11641.82
401.24	11885.24
401.44	11808.00
401.63	12025.67
401.82	11969.50
402.01	11845.45
402.21	12301.86
402.40	12114.61
402.59	11641.82
402.78	11133.93
402.97	11056.69
403.17	11754.17
403.36	12311.22
403.55	12482.08
403.74	12648.26
403.93	11929.71
404.13	10916.26
404.32	11180.74
404.51	11852.47
404.70	12362.71
404.89	12360.37
405.09	12095.89
405.28	11985.88
405.47	11995.25
405.66	12009.29
405.85	11833.75
406.05	11145.63
406.24	11716.72
406.43	11683.95
406.62	12308.88
406.81	12376.75
407.00	11775.24
407.20	11721.40
407.39	11948.43
407.58	12662.30
407.77	13104.66
407.96	13462.76
408.15	13598.51
408.34	13706.18
408.54	14286.63
408.73	14272.59
408.92	13818.52
409.11	13516.59
409.30	12926.78
409.49	11941.41
409.68	11257.98
409.87	11178.40
410.07	12280.79
410.26	12753.58
410.45	13441.70
410.64	13600.85
410.83	14352.16
411.02	14352.16
411.21	15044.96
411.40	15143.27
411.59	15559.88
411.78	14864.74
411.98	15005.17
412.17	15208.80
412.36	15030.92
412.55	14794.53
412.74	14293.65
412.93	14214.07
413.12	14780.48
413.31	16058.42
413.50	16166.08
413.69	15903.94
413.88	15407.75
414.07	14979.43
414.26	15524.77
414.45	15955.43
414.64	15812.66
414.83	15908.62
415.02	15562.22
415.22	15648.82
415.41	16334.60
415.60	16524.18
415.79	17102.29
415.98	17420.61
416.17	17345.71
416.36	16919.73
416.55	16805.05
416.74	15847.77
416.93	15611.37
417.12	15793.94
417.31	16088.84
417.50	16205.87
417.69	16830.79
417.88	16877.60
418.07	16498.44
418.26	16088.84
418.45	16723.13
418.64	17355.07
418.83	18129.79
419.02	17568.06
419.21	16917.39
419.39	16369.71
419.58	15857.13
419.77	16180.12
419.96	17130.38
420.15	17703.81
420.34	18291.29
420.53	18911.53
420.72	19227.50
420.91	18775.78
421.10	18892.80
421.29	18562.79
421.48	18038.51
421.67	18644.71
421.86	17668.70
422.05	16353.32
422.24	15150.29
422.43	15805.64
422.61	17839.56
422.80	18043.19
422.99	17741.26
423.18	17228.68
423.37	16720.79
423.56	17504.87
423.75	17834.88
423.94	18155.54
424.13	16989.95
424.32	16847.18
424.50	17228.68
424.69	17369.12
424.88	17364.43
425.07	17511.89
425.26	17167.83
425.45	16578.01
425.64	16451.63
425.83	16903.35
426.01	17516.57
426.20	17767.01
426.39	17439.33
426.58	16215.23
426.77	15400.72
426.96	15056.67
427.15	15674.57
427.33	16734.83
427.52	16875.26
427.71	17493.16
427.90	17242.73
428.09	17022.72
428.28	16610.78
428.46	15775.21
428.65	15948.41
428.84	16596.74
429.03	16372.05
429.22	15311.78
429.40	14204.71
429.59	13008.70
429.78	11410.11
429.97	11983.54
430.16	12109.93
430.34	11868.86
430.53	12336.96
430.72	12800.39
430.91	14408.34
431.10	17114.00
431.28	19777.53
431.47	20688.00
431.66	20491.39
431.85	18396.61
432.03	16922.07
432.22	17179.53
432.41	18097.02
432.60	19676.88
432.79	20156.69
432.97	20709.06
433.16	19859.45
433.35	17598.49
433.54	15803.30
433.72	15517.75
433.91	16362.69
434.10	18228.09
434.28	19545.81
434.47	20666.93
434.66	19616.03
434.85	19199.41
435.03	20013.92
435.22	19768.16
435.41	21135.04
435.59	21284.83
435.78	21394.84
435.97	21577.40
436.16	21886.35
436.34	21575.06
436.53	21128.02
436.72	21343.35
436.90	19971.79
437.09	20152.01
437.28	19857.10
437.46	20409.47
437.65	20013.92
437.84	17809.14
438.02	17509.55
438.21	17619.55
438.40	18410.65
438.58	19810.29
438.77	20585.01
438.96	20755.87
439.14	21862.94
439.33	22113.38
439.52	22157.85
439.70	21439.31
439.89	20790.98
440.08	20442.24
440.26	20582.67
440.45	21432.29
440.63	23412.38
440.82	24339.23
441.01	23325.78
441.19	23431.10
441.38	24189.44
441.57	24996.92
441.75	24819.04
441.94	25242.68
442.12	24996.92
442.31	25827.81
442.50	25425.24
442.68	24936.07
442.87	24830.74
443.05	24318.17
443.24	24950.11
443.43	25345.66
443.61	25380.77
443.80	26328.69
443.98	25116.29
444.17	24893.94
444.35	26141.44
444.54	26925.52
444.73	25748.23
444.91	24680.95
445.10	23754.10
445.28	23112.79
445.47	22895.12
445.65	23222.80
445.84	24154.33
446.02	24498.39
446.21	24989.90
446.39	24620.10
446.58	25584.40
446.77	25940.16
446.95	26424.65
447.14	26504.23
447.32	26951.27
447.51	26384.86
447.69	25448.64
447.88	25736.53
448.06	25830.15
448.25	26068.89
448.43	25891.01
448.62	26036.12
448.80	25642.91
448.99	25619.50
449.17	26412.95
449.36	26522.95
449.54	27002.76
449.73	27758.75
449.91	27763.43
450.10	28788.59
450.28	28786.25
450.46	29113.92
450.65	28879.87
450.83	28350.91
451.02	27777.48
451.20	27936.63
451.39	28034.94
451.57	27695.56
451.76	27917.91
451.94	27168.94
452.13	26485.50
452.31	25331.62
452.49	24159.01
452.68	24800.32
452.86	25254.38
453.05	25214.59
453.23	26848.29
453.42	26679.77
453.60	27695.56
453.78	27452.14
453.97	27538.74
454.15	27122.13
454.34	26029.10
454.52	25928.45
454.70	25895.69
454.89	26719.56
455.07	26628.27
455.26	27503.64
455.44	28180.05
455.62	28673.90
455.81	28559.22
455.99	28496.02
456.17	28329.84
456.36	29216.91
456.54	29401.81
456.73	28954.77
456.91	29181.80
457.09	29584.37
457.28	30125.04
457.46	28886.89
457.64	28559.22
457.83	27885.14
458.01	27381.93
458.19	28570.92
458.38	29067.11
458.56	29415.85
458.74	29060.09
458.93	28636.45
459.11	28304.10
459.29	28123.88
459.48	28903.28
459.66	28229.20
459.84	28547.51
460.03	29041.37
460.21	29570.33
460.39	29907.37
460.57	29626.50
460.76	29642.88
460.94	30183.55
461.12	30216.32
461.31	30143.76
461.49	29790.34
461.67	30073.54
461.85	30918.48
462.04	30562.72
462.22	30499.52
462.40	30714.85
462.59	29998.65
462.77	30256.11
462.95	30291.21
463.13	30326.32
463.32	29635.86
463.50	29481.39
463.68	29982.26
463.86	30036.09
464.05	29340.96
464.23	28271.33
464.41	28912.64
464.59	28226.86
464.78	30099.29
464.96	29598.41
465.14	28870.51
465.32	30326.32
465.50	31159.55
465.69	31728.30
465.87	30478.46
466.05	29408.83
466.23	28091.11
466.41	27782.16
466.60	28659.86
466.78	28886.89
466.96	28889.23
467.14	29687.36
467.32	29820.77
467.51	29598.41
467.69	28418.78
467.87	29261.38
468.05	29699.06
468.23	29455.64
468.41	29455.64
468.60	29928.43
468.78	30927.84
468.96	30052.48
469.14	30295.89
469.32	30602.50
469.50	28348.57
469.69	29387.77
469.87	28989.88
470.05	28809.65
470.23	28865.83
470.41	29324.57
470.59	29507.13
470.77	29502.45
470.95	30368.45
471.14	30562.72
471.32	30654.00
471.50	32294.71
471.68	32535.79
471.86	32622.39
472.04	31791.50
472.22	32809.63
472.40	31194.66
472.58	31089.34
472.77	30899.75
472.95	31316.37
473.13	32446.85
473.31	30930.18
473.49	30881.03
473.67	31482.55
473.85	32510.04
474.03	33832.44
474.21	34155.44
474.39	34174.16
474.57	33542.22
474.75	34043.09
474.93	33352.63
475.12	32437.48
475.30	33345.61
475.48	32435.14
475.66	32116.83
475.84	32254.92
476.02	32531.11
476.20	32400.04
476.38	33085.81
476.56	34003.30
476.74	34611.84
476.92	34539.29
477.10	34717.17
477.28	35875.73
477.46	35639.34
477.64	36463.21
477.82	36533.42
478.00	36594.28
478.18	35246.13
478.36	35447.41
478.54	35967.01
478.72	36367.24
478.90	37921.36
479.08	39573.78
479.26	38871.62
479.44	38951.20
479.62	38415.21
479.80	39122.05
479.98	38548.62
480.16	39271.85
480.34	38403.51
480.52	39400.58
480.70	39662.72
480.88	39515.26
481.06	39896.77
481.24	40409.35
481.41	41200.45
481.59	42066.45
481.77	40748.73
481.95	40407.01
482.13	39702.51
482.31	41036.61
482.49	41598.34
482.67	40957.03
482.85	40999.16
483.03	41312.80
483.21	42717.12
483.39	41603.02
483.57	41036.61
483.74	41598.34
483.92	42113.26
484.10	41736.43
484.28	42213.90
484.46	41918.99
484.64	43976.33
484.82	42780.31
485.00	41715.37
485.18	41221.52
485.35	39084.61
485.53	34504.18
485.71	33205.18
485.89	32840.06
486.07	35482.52
486.25	38110.94
486.43	40486.59
486.61	40926.61
486.78	40311.05
486.96	42244.33
487.14	43210.97
487.32	43110.33
487.50	44666.78
487.68	45975.14
487.85	47033.07
488.03	45303.41
488.21	45766.84
488.39	44528.69
488.57	43583.12
488.75	43672.06
488.92	45315.11
489.10	47550.32
489.28	48851.66
489.46	50181.09
489.64	49617.02
489.81	50115.55
489.99	48893.79
490.17	49195.72
490.35	49333.81
490.53	48945.28
490.70	48369.51
490.88	48493.56
491.06	49811.28
491.24	50211.51
491.41	48919.54
491.59	46419.84
491.77	46848.16
491.95	48790.81
492.13	49876.82
492.30	50410.46
492.48	51297.52
492.66	51915.42
492.84	51482.42
493.01	51353.69
493.19	50869.20
493.37	50726.43
493.54	50705.37
493.72	51650.94
493.90	52458.43
494.08	52582.48
494.25	52699.50
494.43	53415.71
494.61	53886.15
494.79	53691.89
494.96	54106.16
495.14	53745.72
495.32	52219.69
495.49	52200.97
495.67	53602.95
495.85	54199.79
496.02	54939.39
496.20	54419.80
496.38	54024.25
496.55	54108.50
496.73	54838.75
496.91	54850.45
497.09	54813.01
497.26	55023.65
497.44	54674.91
497.62	53448.47
497.79	52528.64
497.97	52020.75
498.14	52701.84
498.32	54326.17
498.50	54040.63
498.67	54080.42
498.85	54199.79
499.03	55276.43
499.20	55526.87
499.38	54747.47
499.56	54120.21
499.73	53958.71
499.91	53731.68
500.08	53055.26
500.26	52570.77
500.44	53563.16
500.61	53862.75
500.79	53502.31
500.97	53932.96
501.14	52638.65
501.32	52428.00
501.49	52547.37
501.67	53186.33
501.84	53609.97
502.02	54136.59
502.20	54979.18
502.37	55264.73
502.55	55365.37
502.72	55723.47
502.90	55906.04
503.07	55784.33
503.25	54136.59
503.43	53708.27
503.60	52999.09
503.78	52975.69
503.95	53209.74
504.13	54609.38
504.30	55337.29
504.48	54567.25
504.65	54681.94
504.83	55037.70
505.01	55824.12
505.18	56158.81
505.36	56123.71
505.53	56509.89
505.71	56596.49
505.88	56750.97
506.06	56430.32
506.23	55819.44
506.41	55646.24
506.58	55985.61
506.76	56088.60
506.93	55466.02
507.11	55384.10
507.28	55437.93
507.46	54915.99
507.63	54775.56
507.81	54195.10
507.98	54740.45
508.16	56315.63
508.33	55941.14
508.50	56238.39
508.68	56788.42
508.85	57052.90
509.03	57556.11
509.20	56329.67
509.38	55306.86
509.55	55367.71
509.73	55636.87
509.90	55950.51
510.08	56236.05
510.25	55573.68
510.42	55365.37
510.60	56350.74
510.77	56350.74
510.95	56659.69
511.12	56809.48
511.30	57530.37
511.47	57528.03
511.64	57549.09
511.82	57450.79
511.99	56154.13
512.17	56559.05
512.34	55709.43
512.51	55805.39
512.69	56182.22
512.86	55969.23
513.04	56282.86
513.21	55721.13
513.38	54717.04
513.56	54810.67
513.73	54089.78
513.90	55224.94
514.08	55114.94
514.25	55035.36
514.43	55524.53
514.60	55784.33
514.77	56072.21
514.95	56168.18
515.12	55985.61
515.29	56542.66
515.47	57130.14
515.64	56849.27
515.81	56437.34
515.99	55416.86
516.16	53322.08
516.33	50616.43
516.51	50625.79
516.68	49022.52
516.85	48135.46
517.03	50497.06
517.20	53378.26
517.37	55433.25
517.54	56371.80
517.72	54609.38
517.89	51615.83
518.06	49900.22
518.24	51725.84
518.41	53722.32
518.58	54597.68
518.75	54813.01
518.93	54937.05
519.10	54124.89
519.27	55391.12
519.45	55398.14
519.62	56254.78
519.79	56519.26
519.96	55686.03
520.14	55440.27
520.31	54075.74
520.48	54600.02
520.65	55456.65
520.83	56484.15
521.00	56694.80
521.17	55716.45
521.34	56142.43
521.52	56666.71
521.69	56786.08
521.86	57024.81
522.03	57083.33
522.20	55360.69
522.38	54691.30
522.55	55133.66
522.72	56114.34
522.89	55201.53
523.07	55915.40
523.24	56207.97
523.41	57551.43
523.58	58056.99
523.75	57975.07
523.92	57733.99
524.10	57055.24
524.27	57006.09
524.44	56802.46
524.61	56640.96
524.78	57027.15
524.96	56914.81
525.13	57024.81
525.30	57647.39
525.47	57584.20
525.64	57303.34
525.81	56715.86
525.98	54459.58
526.16	53167.61
526.33	53682.53
526.50	53031.86
526.67	53050.58
526.84	53148.88
527.01	54405.75
527.18	55098.55
527.36	56104.98
527.53	57123.11
527.70	56236.05
527.87	54892.58
528.04	56161.15
528.21	56652.67
528.38	57380.57
528.55	58279.34
528.72	57897.83
528.89	57640.37
529.07	57293.97
529.24	55957.53
529.41	55655.60
529.58	55962.21
529.75	56863.32
529.92	57010.77
530.09	56870.34
530.26	57333.76
530.43	58258.27
530.60	57338.44
530.77	57659.10
530.94	58155.29
531.11	57102.05
531.28	57483.56
531.46	57682.50
531.63	57024.81
531.80	56601.18
531.97	56065.19
532.14	56046.47
532.31	54532.14
532.48	54202.13
532.65	54096.80
532.82	55009.61
532.99	56308.61
533.16	56870.34
533.33	57010.77
533.50	57120.77
533.67	56933.53
533.84	56137.75
534.01	56406.91
534.18	56760.33
534.35	56608.20
534.52	55856.88
534.69	56451.38
534.86	57200.35
535.03	57310.36
535.20	57050.56
535.37	57759.74
535.54	58307.43
535.71	57766.76
535.88	58031.24
536.05	56666.71
536.22	56072.21
536.38	55791.35
536.55	54714.70
536.72	54405.75
536.89	55662.62
537.06	55882.63
537.23	56177.54
537.40	56690.12
537.57	56282.86
537.74	56697.14
537.91	56528.62
538.08	56079.24
538.25	56011.36
538.42	57109.07
538.59	56301.59
538.75	55421.55
538.92	54822.37
539.09	55030.68
539.26	55047.06
539.43	55231.96
539.60	55489.42
539.77	55950.51
539.94	55606.45
540.11	54717.04
540.28	54415.11
540.44	53771.47
540.61	54042.97
540.78	54894.92
540.95	55681.34
541.12	55648.58
541.29	55966.89
541.46	56217.33
541.62	56390.53
541.79	55253.03
541.96	54710.02
542.13	54820.03
542.30	55000.25
542.47	55386.44
542.63	55267.07
542.80	55224.94
542.97	54710.02
543.14	54754.49
543.31	54705.34
543.48	56090.94
543.64	56336.69
543.81	57567.82
543.98	56750.97
544.15	55089.19
544.32	56114.34
544.48	55730.50
544.65	55683.69
544.82	56268.82
544.99	54646.83
545.16	54277.02
545.32	54712.36
545.49	55501.12
545.66	55306.86
545.83	55412.18
546.00	55669.64
546.16	55714.11
546.33	55653.26
546.50	55501.12
546.67	56011.36
546.83	54857.48
547.00	55625.17
547.17	54522.78
547.34	53497.62
547.50	53925.94
547.67	54923.01
547.84	55653.26
548.00	55545.59
548.17	55264.73
548.34	55400.48
548.51	55758.58
548.67	56348.40
548.84	56313.29
549.01	55891.99
549.18	55393.46
549.34	55494.10
549.51	55641.56
549.68	55664.96
549.84	55033.02
550.01	54536.82
550.18	54410.43
550.34	54714.70
550.51	55201.53
550.68	55744.54
550.84	55091.53
551.01	54333.20
551.18	54473.63
551.34	53881.47
551.51	55274.09
551.68	55042.38
551.84	54789.60
552.01	55147.70
552.18	54281.70
552.34	53731.68
552.51	53750.40
552.68	53820.62
552.84	53916.58
553.01	53867.43
553.18	55215.58
553.34	54906.63
553.51	55152.38
553.67	54749.81
553.84	54174.04
554.01	54906.63
554.17	54284.04
554.34	54848.11
554.51	54567.25
554.67	53712.95
554.84	54031.27
555.00	53918.92
555.17	53970.41
555.33	53425.07
555.50	53095.05
555.67	53851.05
555.83	54047.65
556.00	53853.39
556.16	53233.14
556.33	52886.74
556.50	53939.99
556.66	53687.21
556.83	53263.57
556.99	52971.00
557.16	53401.66
557.32	52879.72
557.49	53226.12
557.65	53132.50
557.82	54038.29
557.98	54120.21
558.15	52835.25
558.32	51615.83
558.48	51285.82
558.65	51199.22
558.81	51739.88
558.98	52783.76
559.14	53020.16
559.31	52465.45
559.47	52343.74
559.64	51803.08
559.80	51271.78
559.97	52481.83
560.13	53200.38
560.30	54419.80
560.46	54349.58
560.63	55220.26
560.79	54770.88
560.96	53970.41
561.12	52411.62
561.29	51824.14
561.45	51896.70
561.61	53712.95
561.78	52853.98
561.94	53251.87
562.11	52971.00
562.27	52332.04
562.44	53294.00
562.60	53598.27
562.77	53485.92
562.93	52523.96
563.10	52507.58
563.26	52596.52
563.42	53123.14
563.59	52446.72
563.75	52268.84
563.92	52236.08
564.08	51419.23
564.24	52538.01
564.41	52088.62
564.57	52776.74
564.74	52528.64
564.90	51817.12
565.07	51746.90
565.23	50590.68
565.39	50398.76
565.56	50653.87
565.72	51168.79
565.88	49340.83
566.05	51660.30
566.21	52631.63
566.38	51585.41
566.54	51922.44
566.70	52413.96
566.87	52353.10
567.03	51189.86
567.19	52753.33
567.36	53284.64
567.52	51580.73
567.68	51037.72
567.85	50082.78
568.01	50305.13
568.17	50845.80
568.34	51196.88
568.50	51103.26
568.66	51208.58
568.83	50384.71
568.99	50284.07
569.15	50309.82
569.32	50871.54
569.48	49979.80
569.64	49846.39
569.81	50110.87
569.97	49614.68
570.13	48999.12
570.30	48898.47
570.46	48301.64
570.62	46871.57
570.78	47309.25
570.95	48451.43
571.11	48444.41
571.27	48212.70
571.43	48346.11
571.60	48149.50
571.76	49759.79
571.92	50007.89
572.09	50358.97
572.25	50571.96
572.41	51421.57
572.57	50906.65
572.74	50834.10
572.90	52165.86
573.06	50817.71
573.22	50798.99
573.38	50571.96
573.55	51952.87
573.71	50742.81
573.87	50480.67
574.03	50431.52
574.20	50122.57
574.36	50384.71
574.52	49132.53
574.68	48790.81
574.84	48425.68
575.01	48350.79
575.17	49153.59
575.33	48900.81
575.49	49502.33
575.65	48023.11
575.82	48882.09
575.98	48208.01
576.14	49521.05
576.30	49879.16
576.46	48067.58
576.62	48552.07
576.79	48788.47
576.95	48294.61
577.11	49242.53
577.27	48835.28
577.43	49317.43
577.59	48292.27
577.75	46621.13
577.92	46974.55
578.08	47004.98
578.24	47852.25
578.40	47784.38
578.56	47035.41
578.72	47236.69
578.88	47070.51
579.04	48053.54
579.21	46829.44
579.37	47929.49
579.53	48079.28
579.69	46689.01
579.85	47583.09
580.01	47496.49
580.17	46897.31
580.33	47952.90
580.49	48360.15
580.65	46253.67
580.82	47000.30
580.98	48477.18
581.14	48666.76
581.30	48126.10
581.46	47536.28
581.62	47885.02
581.78	48549.73
581.94	48774.42
582.10	48924.22
582.26	49113.80
582.42	48748.68
582.58	46960.51
582.74	46951.15
582.90	47337.33
583.06	47449.68
583.22	47924.81
583.38	48112.05
583.54	48325.04
583.70	48671.44
583.86	47948.21
584.02	47863.96
584.18	47496.49
584.34	46836.46
584.50	46096.85
584.66	46609.43
584.82	46932.42
584.98	46815.40
585.14	46234.94
585.30	46752.20
