SpectraSuite Data File
++++++++++++++++++++++++++++++++++++
Date: Mon Oct 07 14:53:42 GMT-05:00 2013
User: price-jones
Dark Spectrum Present: No
Reference Spectrum Present: No
Number of Sampled Component Spectra: 1
Spectrometers: USB2+H05261
Integration Time (usec): 100000 (USB2+H05261)
Spectra Averaged: 1 (USB2+H05261)
Boxcar Smoothing: 0 (USB2+H05261)
Correct for Electrical Dark: No (USB2+H05261)
Strobe/Lamp Enabled: No (USB2+H05261)
Correct for Detector Non-linearity: No (USB2+H05261)
Correct for Stray Light: No (USB2+H05261)
Number of Pixels in Processed Spectrum: 2048
>>>>>Begin Processed Spectral Data<<<<<
365.73	0.00
365.92	0.00
366.12	0.00
366.32	0.00
366.52	0.00
366.72	0.00
366.91	0.00
367.11	0.00
367.31	0.00
367.51	0.00
367.70	0.00
367.90	0.00
368.10	0.00
368.30	0.00
368.49	0.00
368.69	0.00
368.89	0.00
369.09	0.00
369.28	0.00
369.48	0.00
369.68	0.00
369.87	0.00
370.07	0.00
370.27	0.00
370.47	489.17
370.66	2565.23
370.86	3112.91
371.06	3428.88
371.25	3377.39
371.45	2977.16
371.65	2722.04
371.84	2553.52
372.04	2672.89
372.24	3110.57
372.44	3173.77
372.63	3185.47
372.83	2928.01
373.03	2551.18
373.22	2317.13
373.42	2471.61
373.62	2909.29
373.81	3141.00
374.01	3164.40
374.21	2766.51
374.40	2562.89
374.60	2869.50
374.79	3030.99
374.99	3492.08
375.19	3756.56
375.38	4002.32
375.58	3632.51
375.78	3566.98
375.97	3744.86
376.17	3702.73
376.37	3803.37
376.56	3836.14
376.76	4049.13
376.95	4383.82
377.15	4631.92
377.35	4945.55
377.54	5149.18
377.74	5177.26
377.93	5350.46
378.13	5011.09
378.33	4985.34
378.52	4503.19
378.72	4250.41
378.91	4273.82
379.11	4198.92
379.31	3859.54
379.50	3782.31
379.70	4283.18
379.89	4807.46
380.09	4908.10
380.28	5135.14
380.48	5076.62
380.68	4950.23
380.87	4915.12
381.07	4444.68
381.26	4278.50
381.46	4046.79
381.65	3880.61
381.85	3770.60
382.04	3522.51
382.24	3337.60
382.43	3094.19
382.63	3133.98
382.83	3117.59
383.02	3141.00
383.22	3098.87
383.41	3028.65
383.61	3316.54
383.80	3768.26
384.00	4395.53
384.19	4905.76
384.39	5050.88
384.58	5102.37
384.78	4994.70
384.97	5032.15
385.17	4610.86
385.36	4550.00
385.56	4224.67
385.75	4402.55
385.95	4856.61
386.14	5387.91
386.34	5455.79
386.53	4912.78
386.72	4725.54
386.92	4751.29
387.11	4961.94
387.31	5203.01
387.50	5193.65
387.70	5093.01
387.89	5093.01
388.09	5149.18
388.28	5100.03
388.48	5177.26
388.67	5315.36
388.86	5994.11
389.06	6263.27
389.25	6920.96
389.45	6775.85
389.64	6883.52
389.84	6626.06
390.03	6586.27
390.22	6581.59
390.42	7033.31
390.61	7410.14
390.81	7705.04
391.00	7925.05
391.19	7885.26
391.39	7595.04
391.58	7218.21
391.78	6696.27
391.97	6572.22
392.16	6195.40
392.36	5572.82
392.55	4493.83
392.75	3506.12
392.94	3084.83
393.13	2899.92
393.33	3452.29
393.52	4308.93
393.71	5437.06
393.91	5982.41
394.10	6593.29
394.29	7103.53
394.49	7620.78
394.68	8322.94
394.88	8252.73
395.07	8524.23
395.26	8386.14
395.46	8449.33
395.65	7763.56
395.84	6974.80
396.04	5937.94
396.23	4819.16
396.42	3885.29
396.62	3812.73
396.81	4507.87
397.00	5621.97
397.19	7201.83
397.39	8266.77
397.58	9430.02
397.77	10193.03
397.97	10546.45
398.16	10239.84
398.35	10899.87
398.55	11286.06
398.74	11660.55
398.93	11964.82
399.12	11836.09
399.32	11618.42
399.51	11648.85
399.70	12276.11
399.90	12189.51
400.09	12229.30
400.28	12175.47
400.47	12105.25
400.67	12849.54
400.86	13064.87
401.05	13366.80
401.24	13364.46
401.44	13472.12
401.63	13327.01
401.82	13406.59
402.01	13289.56
402.21	13715.54
402.40	13664.05
402.59	13214.66
402.78	12697.41
402.97	12423.56
403.17	12837.84
403.36	13462.76
403.55	14277.27
403.74	14394.29
403.93	13879.38
404.13	12561.66
404.32	12205.89
404.51	12989.97
404.70	13879.38
404.89	13930.87
405.09	14190.67
405.28	13221.69
405.47	13231.05
405.66	13593.83
405.85	12856.56
406.05	12711.45
406.24	12835.50
406.43	13336.37
406.62	14139.18
406.81	14073.64
407.00	13312.97
407.20	13273.18
407.39	13429.99
407.58	13752.99
407.77	14244.50
407.96	14796.87
408.15	14899.85
408.34	15056.67
408.54	15985.86
408.73	15822.02
408.92	15506.05
409.11	15435.83
409.30	14501.96
409.49	13853.63
409.68	12769.96
409.87	12322.92
410.07	13062.53
410.26	14384.93
410.45	15049.64
410.64	15351.57
410.83	16060.76
411.02	16198.85
411.21	16957.18
411.40	16783.98
411.59	16617.80
411.78	16491.41
411.98	16432.90
412.17	16779.30
412.36	16327.58
412.55	16414.18
412.74	16339.28
412.93	15501.37
413.12	16009.26
413.31	17394.86
413.50	17565.72
413.69	17844.24
413.88	17338.69
414.07	16545.25
414.26	17104.64
414.45	17610.19
414.64	17610.19
414.83	17685.09
415.02	17032.08
415.22	17570.40
415.41	17701.47
415.60	18120.43
415.79	18920.89
415.98	19339.85
416.17	19328.14
416.36	19047.28
416.55	18642.37
416.74	18118.09
416.93	17317.62
417.12	17212.30
417.31	17820.84
417.50	18139.15
417.69	18647.05
417.88	18448.10
418.07	18216.39
418.26	18054.89
418.45	18277.24
418.64	18848.33
418.83	19491.98
419.02	19639.44
419.21	19129.20
419.39	18349.80
419.58	17310.60
419.77	17586.79
419.96	18377.89
420.15	19328.14
420.34	19953.07
420.53	20666.93
420.72	20903.32
420.91	20748.85
421.10	20397.77
421.29	20247.97
421.48	19564.54
421.67	20554.58
421.86	20226.91
422.05	18691.52
422.24	17125.70
422.43	16479.71
422.61	18204.69
422.80	19641.78
422.99	19946.05
423.18	19384.32
423.37	18677.48
423.56	18885.78
423.75	19126.86
423.94	19674.54
424.13	18569.81
424.32	18567.47
424.50	18761.73
424.69	18450.44
424.88	18611.94
425.07	18462.15
425.26	18476.19
425.45	18579.17
425.64	18061.91
425.83	18068.94
426.01	19414.74
426.20	19400.70
426.39	19281.33
426.58	17802.11
426.77	16545.25
426.96	16060.76
427.15	16421.20
427.33	17991.70
427.52	18941.96
427.71	18944.30
427.90	18558.11
428.09	18129.79
428.28	17895.74
428.46	17432.31
428.65	17114.00
428.84	17673.39
429.03	17926.16
429.22	16807.39
429.40	16084.16
429.59	14415.36
429.78	12922.10
429.97	12856.56
430.16	13036.78
430.34	13256.79
430.53	13226.37
430.72	13490.85
430.91	14714.95
431.10	17266.13
431.28	20725.44
431.47	22242.11
431.66	22464.46
431.85	20734.81
432.03	18911.53
432.22	17984.68
432.41	18820.25
432.60	20971.20
432.79	21692.08
432.97	22473.82
433.16	21785.71
433.35	19838.38
433.54	17717.86
433.72	16858.88
433.91	17399.54
434.10	19255.59
434.28	20570.97
434.47	21654.64
434.66	21465.05
434.85	20945.45
435.03	20819.07
435.22	21252.06
435.41	22553.40
435.59	22710.22
435.78	22890.44
435.97	23236.84
436.16	23367.91
436.34	23187.69
436.53	22478.50
436.72	22677.45
436.90	21483.78
437.09	21493.14
437.28	21287.17
437.46	22155.51
437.65	21624.21
437.84	20814.38
438.02	18714.92
438.21	18417.68
438.40	19744.76
438.58	21266.11
438.77	21986.99
438.96	21862.94
439.14	23267.27
439.33	23470.89
439.52	24041.98
439.70	23513.02
439.89	22656.39
440.08	22424.67
440.26	22141.47
440.45	22785.12
440.63	24566.26
440.82	25795.04
441.01	25488.43
441.19	25376.09
441.38	25294.17
441.57	26513.59
441.75	26862.33
441.94	27157.24
442.12	26810.84
442.31	27075.32
442.50	27112.77
442.68	27080.00
442.87	26909.14
443.05	26122.72
443.24	26295.92
443.43	27058.93
443.61	27620.66
443.80	28060.68
443.98	26345.07
444.17	26125.06
444.35	27901.53
444.54	28437.51
444.73	28070.04
444.91	27131.49
445.10	25694.40
445.28	24947.77
445.47	24493.71
445.65	24893.94
445.84	25280.13
446.02	25944.84
446.21	26181.23
446.39	26679.77
446.58	27178.30
446.77	27431.08
446.95	27400.65
447.14	28247.93
447.32	29069.45
447.51	28395.38
447.69	27180.64
447.88	26726.58
448.06	26822.54
448.25	27892.16
448.43	28610.71
448.62	27424.06
448.80	27346.82
448.99	27569.17
449.17	27782.16
449.36	27908.55
449.54	28694.97
449.73	29600.76
449.91	29830.13
450.10	30754.64
450.28	30639.95
450.46	30567.40
450.65	30485.48
450.83	30216.32
451.02	29886.30
451.20	29596.07
451.39	29820.77
451.57	29809.06
451.76	29244.99
451.94	29663.95
452.13	29013.28
452.31	27592.58
452.49	25914.41
452.68	26822.54
452.86	26478.48
453.05	26785.09
453.23	27704.92
453.42	28540.49
453.60	29022.64
453.78	29413.51
453.97	28985.19
454.15	28982.85
454.34	28549.85
454.52	28364.95
454.70	28273.67
454.89	28865.83
455.07	27941.32
455.26	28898.59
455.44	29898.00
455.62	30719.53
455.81	30574.42
455.99	30382.49
456.17	30277.17
456.36	30008.01
456.54	31330.41
456.73	31122.10
456.91	31445.10
457.09	31618.30
457.28	32409.40
457.46	30995.71
457.64	30707.83
457.83	30022.05
458.01	29106.90
458.19	30000.99
458.38	29933.11
458.56	31234.45
458.74	30876.35
458.93	30256.11
459.11	30696.13
459.29	30291.21
459.48	30279.51
459.66	30256.11
459.84	30300.58
460.03	30696.13
460.21	30726.55
460.39	31454.46
460.57	31917.89
460.76	32130.87
460.94	32173.00
461.12	31761.07
461.31	31873.42
461.49	31175.94
461.67	31662.77
461.85	32807.29
462.04	32535.79
462.22	32790.91
462.40	32973.47
462.59	32680.90
462.77	32292.37
462.95	32779.20
463.13	32119.17
463.32	31721.28
463.50	31438.08
463.68	31527.02
463.86	31768.09
464.05	30623.57
464.23	30462.07
464.41	30806.13
464.59	29930.77
464.78	31262.54
464.96	31388.92
465.14	31002.74
465.32	31569.15
465.50	32381.31
465.69	33141.99
465.87	32170.66
466.05	31290.62
466.23	30274.83
466.41	29244.99
466.60	30141.42
466.78	30270.15
466.96	30789.75
467.14	31367.86
467.32	31501.27
467.51	31660.43
467.69	30024.39
467.87	30815.49
468.05	31164.23
468.23	31447.44
468.41	31637.02
468.60	31426.37
468.78	31798.52
468.96	31307.01
469.14	31922.57
469.32	32018.53
469.50	30909.11
469.69	31372.54
469.87	30717.19
470.05	30508.88
470.23	30951.24
470.41	30359.09
470.59	30969.97
470.77	31143.17
470.95	32020.87
471.14	31833.63
471.32	31875.76
471.50	34139.05
471.68	33907.34
471.86	34574.39
472.04	34480.77
472.22	34724.19
472.40	33022.62
472.58	32826.01
472.77	32201.09
472.95	32769.84
473.13	34169.48
473.31	32882.19
473.49	32694.94
473.67	33645.20
473.85	33977.56
474.03	34843.56
474.21	34937.18
474.39	34937.18
474.57	35002.71
474.75	35363.15
474.93	35040.16
475.12	34513.54
475.30	34242.04
475.48	34291.19
475.66	34939.52
475.84	34778.02
476.02	34703.12
476.20	33706.05
476.38	34518.22
476.56	35583.16
476.74	36285.33
476.92	35938.93
477.10	36610.66
477.28	37951.79
477.46	37963.49
477.64	37801.99
477.82	37916.68
478.00	38628.20
478.18	37893.27
478.36	37621.77
478.54	37612.41
478.72	37689.65
478.90	39129.08
479.08	39772.72
479.26	40229.13
479.44	40442.12
479.62	40046.57
479.80	39985.71
479.98	40509.99
480.16	41123.21
480.34	40046.57
480.52	40697.24
480.70	40566.16
480.88	40718.30
481.06	41638.13
481.24	41588.98
481.41	42623.50
481.59	43461.41
481.77	43107.99
481.95	42293.48
482.13	42260.71
482.31	42464.34
482.49	42831.80
482.67	42639.88
482.85	43381.83
483.03	43615.88
483.21	44233.78
483.39	43973.98
483.57	43325.66
483.74	42827.12
483.92	43243.74
484.10	43540.99
484.28	44495.92
484.46	44945.31
484.64	45322.13
484.82	44336.77
485.00	44172.93
485.18	43320.98
485.35	42110.92
485.53	39023.75
485.71	35178.25
485.89	34923.13
486.07	36840.03
486.25	39885.07
486.43	42178.79
486.61	43201.61
486.78	42960.53
486.96	43208.63
487.14	44641.04
487.32	45530.44
487.50	46459.63
487.68	47707.14
487.85	48154.18
488.03	47826.51
488.21	47381.80
488.39	47257.76
488.57	46375.37
488.75	45881.52
488.92	47157.11
489.10	49797.24
489.28	51267.09
489.46	51592.43
489.64	51449.66
489.81	51760.95
489.99	51037.72
490.17	51058.79
490.35	51744.56
490.53	51351.35
490.70	50784.94
490.88	50630.47
491.06	51969.26
491.24	51664.99
491.41	50813.03
491.59	48641.01
491.77	48088.65
491.95	48989.75
492.13	50138.96
492.30	51552.64
492.48	52699.50
492.66	52868.02
492.84	53279.96
493.01	53008.45
493.19	52507.58
493.37	52224.37
493.54	51559.66
493.72	52540.35
493.90	53448.47
494.08	54298.09
494.25	54667.89
494.43	54864.50
494.61	55318.56
494.79	55313.88
494.96	54794.28
495.14	54574.27
495.32	53464.86
495.49	52743.97
495.67	53956.37
495.85	55409.84
496.02	55529.21
496.20	55667.30
496.38	54962.80
496.55	54873.86
496.73	55608.79
496.91	55358.35
497.09	56144.77
497.26	56465.42
497.44	55800.71
497.62	55311.54
497.79	54754.49
497.97	53256.55
498.14	53286.98
498.32	54588.31
498.50	55585.38
498.67	55997.32
498.85	55800.71
499.03	56039.45
499.20	56451.38
499.38	56193.92
499.56	56343.72
499.73	55704.75
499.91	55253.03
500.08	54864.50
500.26	53897.86
500.44	54471.29
500.61	55332.60
500.79	55075.15
500.97	54796.62
501.14	54593.00
501.32	54525.12
501.49	54330.86
501.67	54515.76
501.84	54887.90
502.02	55437.93
502.20	55913.06
502.37	56154.13
502.55	55847.52
502.72	56727.56
502.90	56835.23
503.07	56645.65
503.25	56168.18
503.43	55412.18
503.60	54784.92
503.78	54021.90
503.95	54330.86
504.13	55877.95
504.30	56736.93
504.48	56673.73
504.65	56355.42
504.83	56186.90
505.01	56821.19
505.18	57305.68
505.36	57930.60
505.53	57923.58
505.71	58157.63
505.88	58035.92
506.06	57549.09
506.23	57265.89
506.41	56821.19
506.58	57230.78
506.76	57165.24
506.93	57038.86
507.11	56830.55
507.28	56877.36
507.46	56427.98
507.63	55999.66
507.81	55793.69
507.98	55931.78
508.16	56774.37
508.33	57251.84
508.50	57565.48
508.68	57975.07
508.85	58078.05
509.03	58171.67
509.20	58288.70
509.38	57303.34
509.55	56582.45
509.73	56830.55
509.90	57230.78
510.08	57631.01
510.25	57326.74
510.42	57406.32
510.60	57141.84
510.77	57375.89
510.95	58003.16
511.12	58064.01
511.30	58110.82
511.47	58705.32
511.64	58630.42
511.82	58368.28
511.99	57696.55
512.17	57120.77
512.34	56584.79
512.51	57111.41
512.69	57174.61
512.86	57212.06
513.04	57670.80
513.21	57593.56
513.38	57329.08
513.56	56582.45
513.73	56006.68
513.90	56383.51
514.08	56390.53
514.25	56647.99
514.43	56882.04
514.60	57085.67
514.77	57275.25
514.95	57223.76
515.12	57350.15
515.29	57357.17
515.47	57895.49
515.64	58028.90
515.81	57822.93
515.99	57387.60
516.16	55632.19
516.33	53471.88
516.51	51917.76
516.68	50918.35
516.85	50546.21
517.03	50869.20
517.20	53787.85
517.37	56381.16
517.54	57268.23
517.72	56870.34
517.89	54583.63
518.06	51760.95
518.24	52280.55
518.41	54693.64
518.58	55966.89
518.75	56016.04
518.93	56238.39
519.10	56184.56
519.27	56519.26
519.45	56736.93
519.62	57586.54
519.79	57900.17
519.96	57804.21
520.14	57265.89
520.31	56261.80
520.48	56273.50
520.65	56886.72
520.83	57605.26
521.00	58092.10
521.17	57712.93
521.34	57396.96
521.52	57680.16
521.69	58216.14
521.86	58459.56
522.03	58342.53
522.20	57003.75
522.38	56083.92
522.55	55786.67
522.72	56835.23
522.89	56949.92
523.07	56690.12
523.24	57441.43
523.41	58218.49
523.58	58426.79
523.75	58934.69
523.92	58777.87
524.10	58691.27
524.27	58724.04
524.44	58429.13
524.61	58527.44
524.78	58309.77
524.96	58085.07
525.13	58110.82
525.30	58213.80
525.47	58742.77
525.64	58684.25
525.81	58005.50
525.98	56692.46
526.16	55224.94
526.33	54277.02
526.50	54300.43
526.67	53558.48
526.84	54314.47
527.01	55442.61
527.18	56027.74
527.36	57097.37
527.53	58099.12
527.70	58227.85
527.87	57574.84
528.04	57272.91
528.21	57846.34
528.38	58291.04
528.55	58944.05
528.72	59269.39
528.89	59348.96
529.07	59365.35
529.24	58597.65
529.41	57757.40
529.58	57214.40
529.75	57176.95
529.92	57757.40
530.09	58106.14
530.26	58670.21
530.43	58925.33
530.60	59035.33
530.77	59138.32
530.94	59255.34
531.11	58822.34
531.28	58403.39
531.46	58370.62
531.63	58578.93
531.80	58487.65
531.97	57872.09
532.14	57446.11
532.31	56226.69
532.48	55391.12
532.65	55496.44
532.82	56413.93
532.99	57350.15
533.16	57776.12
533.33	58515.73
533.50	58433.81
533.67	57446.11
533.84	57097.37
534.01	57371.21
534.18	57434.41
534.35	57911.88
534.52	57677.82
534.69	57748.04
534.86	58162.31
535.03	58227.85
535.20	58796.60
535.37	59227.26
535.54	59288.11
535.71	59098.53
535.88	58623.40
536.05	57996.13
536.22	57684.84
536.38	57392.28
536.55	56907.79
536.72	56453.72
536.89	55831.14
537.06	57052.90
537.23	57958.69
537.40	58164.65
537.57	58085.07
537.74	57853.36
537.91	57989.11
538.08	57888.47
538.25	58031.24
538.42	57982.09
538.59	57860.38
538.75	57209.71
538.92	57158.22
539.09	56788.42
539.26	56727.56
539.43	56563.73
539.60	56582.45
539.77	57001.41
539.94	56669.05
540.11	56184.56
540.28	55503.46
540.44	55536.23
540.61	55751.56
540.78	56095.62
540.95	56465.42
541.12	56748.63
541.29	56992.04
541.46	57331.42
541.62	57462.49
541.79	57411.00
541.96	56804.80
542.13	56741.61
542.30	56865.66
542.47	57429.72
542.63	56877.36
542.80	56762.67
542.97	56844.59
543.14	56727.56
543.31	56849.27
543.48	57183.97
543.64	57949.32
543.81	58326.15
543.98	58080.39
544.15	57326.74
544.32	56821.19
544.48	56856.29
544.65	57389.94
544.82	57841.66
544.99	57340.78
545.16	57024.81
545.32	56729.90
545.49	57378.23
545.66	58042.95
545.83	57607.61
546.00	57249.50
546.16	56807.14
546.33	57174.61
546.50	57062.26
546.67	57485.90
546.83	57062.26
547.00	56938.21
547.17	56329.67
547.34	56055.83
547.50	55695.39
547.67	56376.48
547.84	56374.14
548.00	56713.52
548.17	57319.72
548.34	57041.20
548.51	56842.25
548.67	56999.07
548.84	56999.07
549.01	56779.06
549.18	56814.16
549.34	56917.15
549.51	56917.15
549.68	56870.34
549.84	56474.79
550.01	56591.81
550.18	56388.19
550.34	56577.77
550.51	56348.40
550.68	56713.52
550.84	56198.60
551.01	56362.44
551.18	55931.78
551.34	56247.75
551.51	56650.33
551.68	57013.11
551.84	57261.21
552.01	56860.97
552.18	56828.21
552.34	55987.95
552.51	55664.96
552.68	55388.78
552.84	55831.14
553.01	56023.06
553.18	56147.11
553.34	56341.38
553.51	56245.41
553.67	56631.60
553.84	56757.99
554.01	56781.40
554.17	56343.72
554.34	56516.92
554.51	56582.45
554.67	57088.01
554.84	56870.34
555.00	56456.06
555.17	55913.06
555.33	55997.32
555.50	56182.22
555.67	56030.08
555.83	55899.01
556.00	55456.65
556.16	55714.11
556.33	55348.99
556.50	55105.57
556.66	55561.98
556.83	54845.77
556.99	55267.07
557.16	54932.37
557.32	55657.94
557.49	55547.93
557.65	55660.28
557.82	55690.71
557.98	55426.23
558.15	54951.10
558.32	54092.12
558.48	53296.34
558.65	53492.94
558.81	53860.41
558.98	54152.97
559.14	54576.61
559.31	54305.11
559.47	54480.65
559.64	54340.22
559.80	54031.27
559.97	53963.39
560.13	54108.50
560.30	55327.92
560.46	56016.04
560.63	55971.57
560.79	55786.67
560.96	55730.50
561.12	54244.26
561.29	53221.44
561.45	53654.44
561.61	54370.64
561.78	54457.24
561.94	54770.88
562.11	54241.92
562.27	54347.24
562.44	54714.70
562.60	54930.03
562.77	55058.76
562.93	54721.72
563.10	55002.59
563.26	54478.31
563.42	54527.46
563.59	54042.97
563.75	54117.87
563.92	54101.48
564.08	54014.88
564.24	54609.38
564.41	54745.13
564.57	54295.75
564.74	54227.87
564.90	54408.09
565.07	54124.89
565.23	53420.39
565.39	53088.03
565.56	52589.50
565.72	52570.77
565.88	53010.79
566.05	53137.18
566.21	53457.84
566.38	53361.87
566.54	53511.67
566.70	53841.68
566.87	54192.76
567.03	53977.43
567.19	54534.48
567.36	54042.97
567.52	54005.52
567.68	53731.68
567.85	53193.36
568.01	52584.82
568.17	52268.84
568.34	52406.94
568.50	51976.28
568.66	52301.61
568.83	52931.22
568.99	52938.24
569.15	52914.83
569.32	53038.88
569.48	52437.36
569.64	52767.38
569.81	52301.61
569.97	52151.82
570.13	51868.61
570.30	51213.26
570.46	51133.68
570.62	50461.95
570.78	50459.61
570.95	50628.13
571.11	51782.01
571.27	51716.48
571.43	51842.87
571.60	52371.83
571.76	52381.19
571.92	52715.89
572.09	52956.96
572.25	53076.33
572.41	52758.02
572.57	52481.83
572.74	52538.01
572.90	52165.86
573.06	52416.30
573.22	52313.31
573.38	52259.48
573.55	52418.64
573.71	52247.78
573.87	52252.46
574.03	51952.87
574.20	52170.54
574.36	51725.84
574.52	51763.29
574.68	51533.92
574.84	51203.90
575.01	50646.85
575.17	50431.52
575.33	50616.43
575.49	50890.27
575.65	51283.48
575.82	51180.49
575.98	50644.51
576.14	50887.93
576.30	51349.01
576.46	51519.87
576.62	51393.48
576.79	51356.03
576.95	50578.98
577.11	50696.00
577.27	51215.60
577.43	51096.24
577.59	50880.91
577.75	50124.91
577.92	49373.60
578.08	49361.90
578.24	49504.67
578.40	49811.28
578.56	49846.39
578.72	50234.92
578.88	50223.22
579.04	50595.36
579.21	50415.14
579.37	50820.05
579.53	50794.31
579.69	50464.29
579.85	50742.81
580.01	50593.02
580.17	50127.25
580.33	49921.29
580.49	50038.31
580.65	50501.74
580.82	50724.09
580.98	50705.37
581.14	50541.53
581.30	50445.57
581.46	50394.07
581.62	50539.19
581.78	50766.22
581.94	51068.15
582.10	50534.51
582.26	50562.59
582.42	50777.92
582.58	50742.81
582.74	50616.43
582.90	50850.48
583.06	50511.10
583.22	50710.05
583.38	50302.79
583.54	50548.55
583.70	50574.30
583.86	50127.25
584.02	50117.89
584.18	50017.25
584.34	50190.45
584.50	50192.79
584.66	50092.15
584.82	49776.17
584.98	49352.54
585.14	48971.03
585.30	48296.95
