SpectraSuite Data File
++++++++++++++++++++++++++++++++++++
Date: Mon Oct 07 14:53:45 GMT-05:00 2013
User: price-jones
Dark Spectrum Present: No
Reference Spectrum Present: No
Number of Sampled Component Spectra: 1
Spectrometers: USB2+H05261
Integration Time (usec): 100000 (USB2+H05261)
Spectra Averaged: 1 (USB2+H05261)
Boxcar Smoothing: 0 (USB2+H05261)
Correct for Electrical Dark: No (USB2+H05261)
Strobe/Lamp Enabled: No (USB2+H05261)
Correct for Detector Non-linearity: No (USB2+H05261)
Correct for Stray Light: No (USB2+H05261)
Number of Pixels in Processed Spectrum: 2048
>>>>>Begin Processed Spectral Data<<<<<
365.73	0.00
365.92	0.00
366.12	0.00
366.32	0.00
366.52	0.00
366.72	0.00
366.91	0.00
367.11	0.00
367.31	0.00
367.51	0.00
367.70	0.00
367.90	0.00
368.10	0.00
368.30	0.00
368.49	0.00
368.69	0.00
368.89	0.00
369.09	0.00
369.28	0.00
369.48	0.00
369.68	0.00
369.87	0.00
370.07	0.00
370.27	0.00
370.47	519.60
370.66	2953.76
370.86	3456.97
371.06	3808.05
371.25	3803.37
371.45	3438.25
371.65	3267.39
371.84	2935.03
372.04	3059.08
372.24	3482.72
372.44	3632.51
372.63	3473.36
372.83	3194.83
373.03	2918.65
373.22	2644.81
373.42	2813.32
373.62	3442.93
373.81	3634.85
374.01	3646.55
374.21	3260.37
374.40	3033.33
374.60	3080.14
374.79	3471.01
374.99	4154.45
375.19	4386.16
375.38	4526.60
375.58	4145.09
375.78	4077.21
375.97	4126.36
376.17	4381.48
376.37	4451.70
376.56	4458.72
376.76	4645.96
376.95	5018.11
377.15	5378.55
377.35	5500.26
377.54	5863.04
377.74	5928.58
377.93	5893.47
378.13	5846.66
378.33	5554.09
378.52	4947.89
378.72	4933.85
378.91	4990.02
379.11	4727.88
379.31	4400.21
379.50	4533.62
379.70	4863.63
379.89	5387.91
380.09	5603.24
380.28	5874.74
380.48	6008.16
380.68	5696.86
380.87	5561.11
381.07	5324.72
381.26	4767.67
381.46	4519.57
381.65	4351.06
381.85	4147.43
382.04	4074.87
382.24	3761.24
382.43	3536.55
382.63	3534.21
382.83	3653.58
383.02	3590.38
383.22	3496.76
383.41	3496.76
383.61	3824.44
383.80	4353.40
384.00	4957.25
384.19	5467.49
384.39	5743.67
384.58	5860.70
384.78	5785.80
384.97	5680.48
385.17	5432.38
385.36	5217.05
385.56	5015.77
385.75	4950.23
385.95	5437.06
386.14	6008.16
386.34	6040.92
386.53	5755.38
386.72	5287.27
386.92	5523.66
387.11	5624.31
387.31	6022.20
387.50	5909.85
387.70	5706.23
387.89	5476.85
388.09	5668.78
388.28	5694.52
388.48	5858.36
388.67	6300.72
388.86	6768.83
389.06	7384.39
389.25	7751.85
389.45	7735.47
389.64	7782.28
389.84	7667.60
390.03	7473.33
390.22	7368.01
390.42	7735.47
390.61	8222.30
390.81	8573.38
391.00	9104.68
391.19	8961.91
391.39	8833.18
391.58	8262.09
391.78	7735.47
391.97	7360.98
392.16	6839.05
392.36	6410.73
392.55	5121.09
392.75	3999.98
392.94	3368.03
393.13	3164.40
393.33	3723.79
393.52	4985.34
393.71	6146.25
393.91	6944.37
394.10	7342.26
394.29	8037.40
394.49	8676.37
394.68	9266.18
394.88	9493.21
395.07	9778.76
395.26	9881.74
395.46	9423.00
395.65	8868.29
395.84	8002.29
396.04	6516.05
396.23	5446.43
396.42	4592.13
396.62	4313.61
396.81	5142.16
397.00	6443.49
397.19	8187.19
397.39	9462.79
397.58	10773.49
397.77	11173.72
397.97	11808.00
398.16	12032.69
398.35	12320.58
398.55	12704.43
398.74	13069.55
398.93	13741.29
399.12	13352.76
399.32	12671.66
399.51	13200.62
399.70	14024.49
399.90	13710.86
400.09	13982.36
400.28	13422.97
400.47	13930.87
400.67	14672.82
400.86	14759.42
401.05	14848.36
401.24	14923.26
401.44	15014.54
401.63	15307.10
401.82	15473.28
402.01	15323.49
402.21	15447.54
402.40	15552.86
402.59	15145.61
402.78	14441.11
402.97	13745.97
403.17	14691.54
403.36	15424.13
403.55	15990.54
403.74	16369.71
403.93	15665.21
404.13	14546.43
404.32	13921.51
404.51	14759.42
404.70	15953.09
404.89	15859.47
405.09	15688.61
405.28	15435.83
405.47	15049.64
405.66	15161.99
405.85	14827.29
406.05	14427.06
406.24	14614.30
406.43	15075.39
406.62	15854.79
406.81	16121.61
407.00	15264.97
407.20	14888.15
407.39	15248.59
407.58	15461.58
407.77	16238.64
407.96	16699.72
408.15	16709.08
408.34	17011.01
408.54	17776.37
408.73	17937.87
408.92	17598.49
409.11	17172.51
409.30	16395.45
409.49	15248.59
409.68	14572.18
409.87	13858.31
410.07	14766.44
410.26	15962.45
410.45	17099.95
410.64	17324.65
410.83	18017.44
411.02	18338.10
411.21	19213.46
411.40	19133.88
411.59	19112.81
411.78	18874.08
411.98	18490.23
412.17	19178.35
412.36	18415.34
412.55	18890.46
412.74	18024.47
412.93	17869.99
413.12	17834.88
413.31	19700.29
413.50	19960.09
413.69	20390.75
413.88	19529.43
414.07	18691.52
414.26	18948.98
414.45	19702.63
414.64	19833.70
414.83	19824.34
415.02	19456.87
415.22	19660.50
415.41	19903.92
415.60	20629.48
415.79	21336.32
415.98	22118.06
416.17	22244.45
416.36	21488.46
416.55	20982.90
416.74	20369.68
416.93	19363.25
417.12	19880.51
417.31	19859.45
417.50	20283.08
417.69	21268.45
417.88	20947.79
418.07	20678.63
418.26	20240.95
418.45	20603.74
418.64	21577.40
418.83	22284.24
419.02	21722.51
419.21	21628.89
419.39	20634.16
419.58	19658.16
419.77	19569.22
419.96	20519.48
420.15	21879.33
420.34	22429.35
420.53	23206.41
420.72	23440.47
420.91	23489.62
421.10	23157.26
421.29	23065.98
421.48	21979.97
421.67	23431.10
421.86	22867.03
422.05	21078.86
422.24	19117.50
422.43	18719.60
422.61	20610.76
422.80	22583.83
422.99	22171.89
423.18	21661.66
423.37	21378.45
423.56	21008.65
423.75	21303.56
423.94	21743.58
424.13	20746.51
424.32	20957.16
424.50	21345.69
424.69	20655.23
424.88	21071.84
425.07	20989.92
425.26	20847.15
425.45	20676.29
425.64	19985.83
425.83	20451.60
426.01	21525.91
426.20	21975.29
426.39	22459.78
426.58	20348.62
426.77	18991.11
426.96	18249.16
427.15	18630.66
427.33	20493.73
427.52	20931.41
427.71	21069.50
427.90	21057.80
428.09	21160.78
428.28	20451.60
428.46	19697.95
428.65	19267.29
428.84	19957.75
429.03	20102.86
429.22	18977.06
429.40	18132.13
429.59	16449.28
429.78	14406.00
429.97	14483.24
430.16	14640.05
430.34	15096.46
430.53	14644.73
430.72	15222.84
430.91	16652.91
431.10	19585.60
431.28	23302.37
431.47	24819.04
431.66	25507.16
431.85	23091.73
432.03	21221.64
432.22	20095.84
432.41	21046.10
432.60	23363.23
432.79	24201.14
432.97	24737.12
433.16	24163.69
433.35	22560.42
433.54	19957.75
433.72	18696.20
433.91	19068.34
434.10	21720.17
434.28	23243.86
434.47	24364.98
434.66	23997.51
434.85	23683.88
435.03	23164.28
435.22	23978.79
435.41	25502.48
435.59	25635.89
435.78	25614.82
435.97	26754.66
436.16	26700.83
436.34	26284.22
436.53	25483.75
436.72	25949.52
436.90	24163.69
437.09	24182.42
437.28	23859.42
437.46	24711.38
437.65	24458.60
437.84	23140.88
438.02	21036.74
438.21	20828.43
438.40	21984.65
438.58	24051.34
438.77	24786.27
438.96	25020.33
439.14	26075.91
439.33	26478.48
439.52	27124.47
439.70	26457.42
439.89	25991.65
440.08	25397.15
440.26	25010.96
440.45	25839.51
440.63	27704.92
440.82	28589.64
441.01	28627.09
441.19	28245.58
441.38	28510.07
441.57	29596.07
441.75	30249.08
441.94	30586.12
442.12	29783.32
442.31	30941.88
442.50	30391.86
442.68	30010.35
442.87	29944.81
443.05	29514.16
443.24	29792.68
443.43	30866.98
443.61	31084.65
443.80	31150.19
443.98	29998.65
444.17	29656.93
444.35	31620.64
444.54	32027.89
444.73	31747.03
444.91	30204.61
445.10	29347.98
445.28	27585.55
445.47	27555.13
445.65	27709.60
445.84	28414.10
446.02	29244.99
446.21	30176.53
446.39	29811.40
446.58	29982.26
446.77	30567.40
446.95	30941.88
447.14	31896.82
447.32	32393.01
447.51	31842.99
447.69	30850.60
447.88	29729.48
448.06	29968.22
448.25	31470.84
448.43	31463.82
448.62	30991.03
448.80	30469.09
448.99	30686.76
449.17	31384.24
449.36	31402.97
449.54	32435.14
449.73	32678.56
449.91	33495.41
450.10	34103.95
450.28	34752.27
450.46	34143.74
450.65	34356.72
450.83	34019.69
451.02	33551.58
451.20	33251.99
451.39	33085.81
451.57	33263.69
451.76	33160.71
451.94	32631.75
452.13	31990.44
452.31	30906.77
452.49	29303.51
452.68	29855.87
452.86	29624.16
453.05	30122.69
453.23	31192.32
453.42	31770.43
453.60	32926.66
453.78	32617.71
453.97	32725.37
454.15	32500.68
454.34	31995.12
454.52	31737.66
454.70	31374.88
454.89	32081.72
455.07	31805.54
455.26	32446.85
455.44	33521.15
455.62	34361.40
455.81	34312.25
455.99	34005.64
456.17	33546.90
456.36	33373.70
456.54	34628.23
456.73	34712.49
456.91	35124.42
457.09	35416.99
457.28	36072.34
457.46	34459.71
457.64	34155.44
457.83	33603.07
458.01	32456.21
458.19	33233.27
458.38	33415.83
458.56	34749.93
458.74	34515.88
458.93	33963.51
459.11	34237.36
459.29	33619.46
459.48	33799.68
459.66	33919.04
459.84	34078.20
460.03	34700.78
460.21	34384.81
460.39	35405.28
460.57	35213.36
460.76	35878.07
460.94	36067.66
461.12	35311.66
461.31	35456.78
461.49	35379.54
461.67	35311.66
461.85	36605.98
462.04	35957.65
462.22	36423.42
462.40	36505.34
462.59	36032.55
462.77	36526.40
462.95	36140.21
463.13	36051.27
463.32	35644.02
463.50	35246.13
463.68	35243.79
463.86	35374.86
464.05	34871.64
464.23	34153.10
464.41	33731.80
464.59	33591.37
464.78	35442.73
464.96	35117.40
465.14	34824.83
465.32	35512.95
465.50	36549.81
465.69	36786.20
465.87	36070.00
466.05	34920.79
466.23	33694.35
466.41	32751.12
466.60	33715.42
466.78	33738.82
466.96	33914.36
467.14	35054.20
467.32	35772.75
467.51	35634.66
467.69	34031.39
467.87	34677.38
468.05	35028.46
468.23	35072.93
468.41	35309.32
468.60	35215.70
468.78	35714.23
468.96	35037.82
469.14	36006.80
469.32	35606.57
469.50	34469.07
469.69	34342.68
469.87	34345.02
470.05	33832.44
470.23	34274.80
470.41	34213.95
470.59	34494.82
470.77	34838.87
470.95	35487.20
471.14	35999.78
471.32	36091.06
471.50	37956.47
471.68	38117.96
471.86	38525.22
472.04	38527.56
472.22	38899.70
472.40	36430.44
472.58	36545.12
472.77	35779.77
472.95	36837.69
473.13	37958.81
473.31	36371.92
473.49	36882.16
473.67	37659.22
473.85	37649.86
474.03	38953.54
474.21	38452.66
474.39	39433.35
474.57	39381.85
474.75	40013.80
474.93	39386.54
475.12	38291.16
475.30	38836.51
475.48	38553.30
475.66	39302.28
475.84	38808.42
476.02	38396.49
476.20	37844.12
476.38	38373.08
476.56	39552.71
476.74	40084.01
476.92	40343.81
477.10	40875.12
477.28	42438.59
477.46	42113.26
477.64	42167.09
477.82	42595.41
478.00	42527.53
478.18	41778.56
478.36	42005.59
478.54	41928.36
478.72	42134.32
478.90	42684.35
479.08	44142.50
479.26	45261.28
479.44	44715.93
479.62	44182.29
479.80	44315.70
479.98	44673.81
480.16	44961.69
480.34	44374.22
480.52	44598.91
480.70	45055.31
480.88	45160.64
481.06	46138.98
481.24	46117.92
481.41	47196.90
481.59	47442.66
481.77	47260.10
481.95	46646.88
482.13	46787.31
482.31	46899.65
482.49	47072.85
482.67	47442.66
482.85	47416.91
483.03	47948.21
483.21	48549.73
483.39	48523.99
483.57	47693.10
483.74	47402.87
483.92	47690.76
484.10	47983.32
484.28	48720.59
484.46	49017.84
484.64	49345.51
484.82	48474.84
485.00	47973.96
485.18	47248.39
485.35	46260.69
485.53	43164.16
485.71	39592.50
485.89	38689.06
486.07	40713.62
486.25	44362.51
486.43	46387.08
486.61	47311.59
486.78	47210.95
486.96	47526.92
487.14	49127.84
487.32	49792.56
487.50	51019.00
487.68	51529.23
487.85	51838.18
488.03	52135.43
488.21	51554.98
488.39	50686.64
488.57	50522.80
488.75	49808.94
488.92	51105.60
489.10	53183.99
489.28	54384.69
489.46	55049.40
489.64	54611.72
489.81	54791.94
489.99	54653.85
490.17	54728.75
490.35	55028.34
490.53	54564.91
490.70	54349.58
490.88	53954.03
491.06	55107.91
491.24	55231.96
491.41	54019.56
491.59	52535.66
491.77	51924.78
491.95	52790.78
492.13	54059.35
492.30	54791.94
492.48	56072.21
492.66	56439.68
492.84	56409.25
493.01	55903.70
493.19	55505.80
493.37	55325.58
493.54	54906.63
493.72	55667.30
493.90	56570.75
494.08	57703.57
494.25	57733.99
494.43	57731.65
494.61	58019.54
494.79	58066.35
494.96	57825.28
495.14	57275.25
495.32	56474.79
495.49	55803.05
495.67	56629.26
495.85	58230.19
496.02	58653.82
496.20	58525.10
496.38	57893.15
496.55	57808.89
496.73	58309.77
496.91	58478.28
497.09	59096.19
497.26	59166.40
497.44	58583.61
497.62	58314.45
497.79	57284.61
497.97	56324.99
498.14	56313.29
498.32	57443.77
498.50	58368.28
498.67	58939.37
498.85	58705.32
499.03	58803.62
499.20	59217.89
499.38	59056.40
499.56	59079.80
499.73	58410.41
499.91	58092.10
500.08	57869.75
500.26	57052.90
500.44	57279.93
500.61	58110.82
500.79	57750.38
500.97	57609.95
501.14	57350.15
501.32	57272.91
501.49	57338.44
501.67	57528.03
501.84	57914.22
502.02	58054.65
502.20	58712.34
502.37	58595.31
502.55	58766.17
502.72	59215.55
502.90	59749.20
503.07	59337.26
503.25	58951.07
503.43	58190.40
503.60	57593.56
503.78	57050.56
503.95	57422.70
504.13	58674.89
504.30	59503.44
504.48	59290.45
504.65	59049.38
504.83	59002.56
505.01	59573.66
505.18	59835.80
505.36	60535.62
505.53	60411.57
505.71	60535.62
505.88	60755.63
506.06	60130.70
506.23	60018.36
506.41	59533.87
506.58	59814.73
506.76	59695.36
506.93	59732.81
507.11	59313.86
507.28	59538.55
507.46	59147.68
507.63	58824.68
507.81	58382.32
507.98	58595.31
508.16	59201.51
508.33	59779.62
508.50	60273.48
508.68	60397.52
508.85	60760.31
509.03	60921.80
509.20	60844.57
509.38	60128.36
509.55	59519.82
509.73	59370.03
509.90	59915.37
510.08	60114.32
510.25	60149.43
510.42	59964.52
510.60	59788.98
510.77	60119.00
510.95	60479.44
511.12	60594.13
511.30	61116.07
511.47	61249.48
511.64	61221.39
511.82	60900.74
511.99	60198.58
512.17	59742.17
512.34	59423.86
512.51	59571.32
512.69	59498.76
512.86	59884.95
513.04	60252.41
513.21	60313.26
513.38	60116.66
513.56	59437.90
513.73	58834.05
513.90	59028.31
514.08	59082.14
514.25	59358.33
514.43	59678.98
514.60	59927.08
514.77	59669.62
514.95	59903.67
515.12	59636.85
515.29	60013.68
515.47	60467.74
515.64	60636.26
515.81	60406.89
515.99	59657.91
516.16	58342.53
516.33	56575.43
516.51	55035.36
516.68	54326.17
516.85	53773.81
517.03	54234.89
517.20	56692.46
517.37	58951.07
517.54	60032.40
517.72	59480.03
517.89	57359.51
518.06	55035.36
518.24	54972.16
518.41	57268.23
518.58	58614.04
518.75	58801.28
518.93	59192.15
519.10	58677.23
519.27	59407.48
519.45	59311.52
519.62	60336.67
519.79	60521.57
519.96	60289.86
520.14	59744.51
520.31	59351.30
520.48	59025.97
520.65	59367.69
520.83	60378.80
521.00	60629.24
521.17	60336.67
521.34	59873.24
521.52	60423.27
521.69	60849.25
521.86	60996.70
522.03	60790.73
522.20	59683.66
522.38	58665.53
522.55	58857.45
522.72	59416.84
522.89	59552.59
523.07	59461.31
523.24	59812.39
523.41	60720.52
523.58	61148.84
523.75	61553.75
523.92	61251.82
524.10	61329.06
524.27	61249.48
524.44	60975.64
524.61	60872.65
524.78	60783.71
524.96	60629.24
525.13	60807.12
525.30	60933.51
525.47	61293.95
525.64	61319.70
525.81	60549.66
525.98	59416.84
526.16	57958.69
526.33	57008.43
526.50	56980.34
526.67	56779.06
526.84	57083.33
527.01	58253.59
527.18	58838.73
527.36	59561.95
527.53	60617.53
527.70	60788.39
527.87	60226.66
528.04	59639.19
528.21	60236.03
528.38	60926.49
528.55	61331.40
528.72	61628.65
528.89	61858.02
529.07	61694.18
529.24	61024.79
529.41	60367.10
529.58	59777.28
529.75	60053.47
529.92	60336.67
530.09	60793.07
530.26	61303.31
530.43	61443.74
530.60	61410.98
530.77	61572.47
530.94	61839.29
531.11	61233.10
531.28	60973.30
531.46	60743.92
531.63	60816.48
531.80	60818.82
531.97	60514.55
532.14	59709.41
532.31	58981.50
532.48	58232.53
532.65	58309.77
532.82	59063.42
532.99	60011.34
533.16	60247.73
533.33	61006.06
533.50	60825.84
533.67	60170.49
533.84	59587.70
534.01	59891.97
534.18	60231.35
534.35	60460.72
534.52	60100.28
534.69	60484.12
534.86	60856.27
535.03	60931.17
535.20	61371.19
535.37	61787.80
535.54	61787.80
535.71	61490.55
535.88	61118.41
536.05	60451.36
536.22	59950.48
536.38	59770.26
536.55	59426.20
536.72	59185.13
536.89	58955.75
537.06	59723.45
537.23	60601.15
537.40	60657.32
537.57	60903.08
537.74	60458.38
537.91	60378.80
538.08	60219.64
538.25	60339.01
538.42	60678.39
538.59	60474.76
538.75	59910.69
538.92	59508.12
539.09	59299.81
539.26	59442.59
539.43	59428.54
539.60	59234.28
539.77	59379.39
539.94	59330.24
540.11	58616.38
540.28	58054.65
540.44	58075.71
540.61	58429.13
540.78	58702.98
540.95	59100.87
541.12	59496.42
541.29	59601.74
541.46	59997.29
541.62	59983.25
541.79	59838.14
541.96	59189.81
542.13	59267.05
542.30	59412.16
542.47	59655.57
542.63	59526.84
542.80	59117.25
542.97	59262.36
543.14	59231.94
543.31	59381.73
543.48	59697.70
543.64	60610.51
543.81	60790.73
543.98	60484.12
544.15	60121.34
544.32	59283.43
544.48	59559.61
544.65	59854.52
544.82	60411.57
544.99	59898.99
545.16	59346.62
545.32	59276.41
545.49	59807.71
545.66	60608.17
545.83	60081.55
546.00	59620.47
546.16	59484.72
546.33	59274.07
546.50	59344.28
546.67	59948.14
546.83	59576.00
547.00	59627.49
547.17	58904.26
547.34	58555.52
547.50	58099.12
547.67	58808.30
547.84	58862.13
548.00	59105.55
548.17	59533.87
548.34	59487.06
548.51	59533.87
548.67	59636.85
548.84	59693.02
549.01	59426.20
549.18	59377.05
549.34	59433.22
549.51	59391.09
549.68	59283.43
549.84	59224.92
550.01	59000.22
550.18	58960.44
550.34	58920.65
550.51	59047.04
550.68	59332.58
550.84	58688.93
551.01	58651.48
551.18	58834.05
551.34	58953.41
551.51	59257.68
551.68	59585.36
551.84	59215.55
552.01	59428.54
552.18	59365.35
552.34	58653.82
552.51	58293.38
552.68	58007.84
552.84	58607.01
553.01	58922.99
553.18	58756.81
553.34	58843.41
553.51	58887.88
553.67	59105.55
553.84	59332.58
554.01	59227.26
554.17	58852.77
554.34	59072.78
554.51	59245.98
554.67	59700.04
554.84	59274.07
555.00	59147.68
555.17	58745.11
555.33	58791.92
555.50	58684.25
555.67	58787.24
555.83	58614.04
556.00	58389.34
556.16	58281.68
556.33	57858.04
556.50	57883.79
556.66	57666.12
556.83	57698.89
556.99	57563.14
557.16	57876.77
557.32	57932.94
557.49	58511.05
557.65	58141.25
557.82	58136.57
557.98	58162.31
558.15	57691.86
558.32	56903.10
558.48	56048.81
558.65	56463.08
558.81	56767.35
558.98	56755.65
559.14	57092.69
559.31	57209.71
559.47	57102.05
559.64	56767.35
559.80	56446.70
559.97	56835.23
560.13	56945.23
560.30	57939.96
560.46	58595.31
560.63	58602.33
560.79	58592.97
560.96	58155.29
561.12	57059.92
561.29	56355.42
561.45	56442.02
561.61	56959.28
561.78	57106.73
561.94	57240.14
562.11	57052.90
562.27	56933.53
562.44	57443.77
562.60	57422.70
562.77	57757.40
562.93	57495.26
563.10	57616.97
563.26	57193.33
563.42	57041.20
563.59	56877.36
563.75	57041.20
563.92	57059.92
564.08	56949.92
564.24	57240.14
564.41	57125.46
564.57	57193.33
564.74	56931.19
564.90	56853.95
565.07	56591.81
565.23	56327.33
565.39	55985.61
565.56	55475.38
565.72	55454.31
565.88	55765.60
566.05	55798.37
566.21	56149.45
566.38	56336.69
566.54	56266.48
566.70	56512.23
566.87	56657.35
567.03	56919.49
567.19	57125.46
567.36	56612.88
567.52	56753.31
567.68	56514.58
567.85	55634.53
568.01	55828.80
568.17	55114.94
568.34	55253.03
568.50	55138.34
568.66	55346.65
568.83	55751.56
568.99	55531.55
569.15	56079.24
569.32	55903.70
569.48	55636.87
569.64	55608.79
569.81	55086.85
569.97	55051.74
570.13	55199.19
570.30	54766.20
570.46	54087.44
570.62	53560.82
570.78	53579.54
570.95	53766.79
571.11	54227.87
571.27	54438.52
571.43	54803.64
571.60	55056.42
571.76	55297.50
571.92	55561.98
572.09	55709.43
572.25	55721.13
572.41	55636.87
572.57	55475.38
572.74	55407.50
572.90	55021.31
573.06	55131.32
573.22	55220.26
573.38	55363.03
573.55	55143.02
573.71	55374.73
573.87	55243.66
574.03	55084.51
574.20	55084.51
574.36	54681.94
574.52	54419.80
574.68	54300.43
574.84	54127.23
575.01	53595.93
575.17	53595.93
575.33	53787.85
575.49	54160.00
575.65	54391.71
575.82	54230.21
575.98	53853.39
576.14	54195.10
576.30	54375.33
576.46	54567.25
576.62	54412.77
576.79	54251.28
576.95	53984.46
577.11	53928.28
577.27	53829.98
577.43	53815.94
577.59	53883.81
577.75	53261.23
577.92	52699.50
578.08	52460.77
578.24	52631.63
578.40	53013.13
578.56	53251.87
578.72	53275.27
578.88	53382.94
579.04	53532.73
579.21	53549.12
579.37	53848.71
579.53	53914.24
579.69	53502.31
579.85	53743.38
580.01	53656.78
580.17	53385.28
580.33	53097.39
580.49	52942.92
580.65	53532.73
580.82	53808.92
580.98	53687.21
581.14	53270.59
581.30	53659.12
581.46	53420.39
581.62	53663.80
581.78	53705.93
581.94	53759.76
582.10	53668.48
582.26	53628.69
582.42	53855.73
582.58	53471.88
582.74	53776.15
582.90	53680.19
583.06	53696.57
583.22	53570.18
583.38	53570.18
583.54	53118.46
583.70	53478.90
583.86	53198.04
584.02	53258.89
584.18	53364.21
584.34	53333.79
584.50	53258.89
584.66	52863.34
584.82	52243.10
584.98	52758.02
585.14	52559.07
585.30	51620.52
