SpectraSuite Data File
++++++++++++++++++++++++++++++++++++
Date: Mon Oct 07 14:53:25 GMT-05:00 2013
User: price-jones
Dark Spectrum Present: No
Reference Spectrum Present: No
Number of Sampled Component Spectra: 1
Spectrometers: USB2+H05261
Integration Time (usec): 100000 (USB2+H05261)
Spectra Averaged: 1 (USB2+H05261)
Boxcar Smoothing: 0 (USB2+H05261)
Correct for Electrical Dark: No (USB2+H05261)
Strobe/Lamp Enabled: No (USB2+H05261)
Correct for Detector Non-linearity: No (USB2+H05261)
Correct for Stray Light: No (USB2+H05261)
Number of Pixels in Processed Spectrum: 2048
>>>>>Begin Processed Spectral Data<<<<<
365.73	0.00
365.92	0.00
366.12	0.00
366.32	0.00
366.52	0.00
366.72	0.00
366.91	0.00
367.11	0.00
367.31	0.00
367.51	0.00
367.70	0.00
367.90	0.00
368.10	0.00
368.30	0.00
368.49	0.00
368.69	0.00
368.89	0.00
369.09	0.00
369.28	0.00
369.48	0.00
369.68	0.00
369.87	0.00
370.07	0.00
370.27	0.00
370.47	449.38
370.66	2729.06
370.86	3103.55
371.06	3574.00
371.25	3566.98
371.45	3290.79
371.65	2930.35
371.84	2775.88
372.04	2909.29
372.24	3323.56
372.44	3368.03
372.63	3316.54
372.83	3112.91
373.03	2656.51
373.22	2483.31
373.42	2583.95
373.62	2923.33
373.81	3206.53
374.01	3208.87
374.21	2951.42
374.40	2789.92
374.60	2855.45
374.79	3129.30
374.99	3693.37
375.19	4037.42
375.38	4058.49
375.58	3796.35
375.78	3777.62
375.97	3796.35
376.17	3934.44
376.37	3960.19
376.56	3934.44
376.76	4491.49
376.95	4575.75
377.15	4910.44
377.35	5078.96
377.54	5284.93
377.74	5460.47
377.93	5418.34
378.13	5221.74
378.33	5167.90
378.52	4650.64
378.72	4503.19
378.91	4381.48
379.11	4374.46
379.31	3988.27
379.50	4112.32
379.70	4458.72
379.89	4844.91
380.09	5118.75
380.28	5221.74
380.48	5345.78
380.68	5153.86
380.87	5177.26
381.07	4781.71
381.26	4308.93
381.46	4203.60
381.65	4098.28
381.85	3988.27
382.04	3679.32
382.24	3459.31
382.43	3307.18
382.63	3183.13
382.83	3199.51
383.02	3105.89
383.22	3304.84
383.41	3155.04
383.61	3435.91
383.80	4002.32
384.00	4557.02
384.19	5116.41
384.39	5205.35
384.58	5296.63
384.78	5064.92
384.97	5095.35
385.17	4919.81
385.36	4699.80
385.56	4451.70
385.75	4444.68
385.95	5015.77
386.14	5453.45
386.34	5355.15
386.53	5163.22
386.72	4887.04
386.92	4880.02
387.11	5188.97
387.31	5535.37
387.50	5233.44
387.70	4999.38
387.89	5121.09
388.09	5160.88
388.28	5076.62
388.48	5369.19
388.67	5659.42
388.86	6190.72
389.06	6654.14
389.25	7087.14
389.45	7077.78
389.64	7098.84
389.84	7019.27
390.03	6836.70
390.22	7059.06
390.42	7023.95
390.61	7485.03
390.81	8060.80
391.00	8390.82
391.19	8346.35
391.39	7859.52
391.58	7468.65
391.78	6991.18
391.97	6939.69
392.16	6284.34
392.36	5832.62
392.55	4547.66
392.75	3712.09
392.94	2979.50
393.13	2979.50
393.33	3506.12
393.52	4528.94
393.71	5696.86
393.91	6258.59
394.10	6710.32
394.29	7346.94
394.49	7929.74
394.68	8571.04
394.88	8629.56
395.07	8982.98
395.26	8975.95
395.46	8753.60
395.65	8100.59
395.84	7049.69
396.04	6031.56
396.23	4880.02
396.42	4028.06
396.62	3911.04
396.81	4545.32
397.00	5853.68
397.19	7246.30
397.39	8566.36
397.58	9722.59
397.77	10310.06
397.97	10745.40
398.16	11063.71
398.35	11316.49
398.55	11489.69
398.74	11990.56
398.93	12226.96
399.12	12035.03
399.32	11723.74
399.51	11892.26
399.70	12681.02
399.90	12624.85
400.09	12332.28
400.28	12547.61
400.47	12671.66
400.67	13172.54
400.86	13444.04
401.05	13905.12
401.24	13703.84
401.44	13933.21
401.63	13771.71
401.82	13881.72
402.01	13736.60
402.21	14143.86
402.40	13921.51
402.59	13827.88
402.78	12882.31
402.97	12671.66
403.17	13121.04
403.36	14012.79
403.55	14548.77
403.74	14487.92
403.93	13930.87
404.13	13088.28
404.32	12676.34
404.51	13219.35
404.70	14338.12
404.89	14539.41
405.09	14153.22
405.28	13743.63
405.47	13738.94
405.66	13701.50
405.85	13043.81
406.05	13205.30
406.24	13085.94
406.43	13853.63
406.62	14328.76
406.81	14518.34
407.00	13778.73
407.20	13687.45
407.39	13572.77
407.58	13874.70
407.77	14602.60
407.96	15124.54
408.15	15295.40
408.34	15424.13
408.54	16156.72
408.73	16168.42
408.92	15899.26
409.11	15367.96
409.30	14736.01
409.49	14057.26
409.68	12915.08
409.87	12690.38
410.07	13635.96
410.26	14424.72
410.45	15613.71
410.64	15658.18
410.83	16535.88
411.02	16882.28
411.21	16994.63
411.40	16933.78
411.59	17125.70
411.78	16975.91
411.98	16903.35
412.17	17378.48
412.36	16980.59
412.55	17020.38
412.74	16479.71
412.93	16245.66
413.12	16266.72
413.31	17984.68
413.50	17982.34
413.69	18305.33
413.88	17701.47
414.07	16877.60
414.26	17497.84
414.45	17933.18
414.64	17991.70
414.83	18005.74
415.02	18017.44
415.22	17167.83
415.41	18054.89
415.60	18518.32
415.79	19601.99
415.98	19763.48
416.17	20114.56
416.36	19215.80
416.55	19058.98
416.74	18710.24
416.93	17937.87
417.12	18047.87
417.31	18202.35
417.50	18560.45
417.69	18904.51
417.88	18890.46
418.07	18740.67
418.26	18616.62
418.45	18534.70
418.64	19377.30
418.83	20283.08
419.02	19826.68
419.21	19707.31
419.39	18602.58
419.58	17537.63
419.77	17556.36
419.96	18487.89
420.15	19721.35
420.34	20556.93
420.53	20957.16
420.72	21298.88
420.91	21151.42
421.10	20570.97
421.29	20805.02
421.48	20039.67
421.67	21118.65
421.86	20100.52
422.05	19077.71
422.24	16879.94
422.43	16791.00
422.61	18899.83
422.80	20095.84
422.99	19997.54
423.18	19545.81
423.37	19063.66
423.56	19063.66
423.75	19646.46
423.94	19964.77
424.13	18946.64
424.32	18881.10
424.50	19133.88
424.69	18881.10
424.88	19061.32
425.07	18684.50
425.26	18794.50
425.45	18637.69
425.64	18218.73
425.83	18300.65
426.01	19405.38
426.20	19819.66
426.39	19398.36
426.58	18244.48
426.77	17085.91
426.96	16273.74
427.15	16863.56
427.33	18457.46
427.52	19044.94
427.71	19108.13
427.90	18831.95
428.09	18974.72
428.28	18324.05
428.46	17666.36
428.65	17226.34
428.84	17970.63
429.03	18445.76
429.22	17387.84
429.40	16573.33
429.59	14911.55
429.78	13177.22
429.97	13263.82
430.16	13195.94
430.34	13422.97
430.53	13312.97
430.72	13715.54
430.91	15147.95
431.10	17729.56
431.28	20664.59
431.47	22412.97
431.66	22640.00
431.85	20746.51
432.03	18916.21
432.22	18298.31
432.41	18927.91
432.60	21235.68
432.79	21830.18
432.97	22487.87
433.16	21776.34
433.35	19826.68
433.54	17942.55
433.72	16840.15
433.91	17593.81
434.10	19838.38
434.28	21186.53
434.47	22195.30
434.66	21568.04
434.85	21493.14
435.03	20924.39
435.22	21425.26
435.41	22867.03
435.59	23190.03
435.78	23365.57
435.97	23924.96
436.16	24060.71
436.34	23536.43
436.53	23117.47
436.72	23257.90
436.90	22321.69
437.09	21949.54
437.28	21326.96
437.46	22139.13
437.65	22031.46
437.84	20594.37
438.02	18810.89
438.21	18649.39
438.40	20147.33
438.58	21701.45
438.77	22005.72
438.96	22438.72
439.14	23019.17
439.33	23723.67
439.52	24086.45
439.70	23461.53
439.89	23164.28
440.08	22338.07
440.26	22600.21
440.45	22923.21
440.63	24907.98
440.82	26050.16
441.01	25839.51
441.19	25593.76
441.38	25788.02
441.57	26885.73
441.75	27250.86
441.94	27292.99
442.12	26991.06
442.31	27824.29
442.50	27117.45
442.68	27325.75
442.87	26934.88
443.05	26260.81
443.24	26682.11
443.43	27517.68
443.61	27908.55
443.80	28496.02
443.98	26948.93
444.17	26534.65
444.35	27999.83
444.54	28858.81
444.73	28177.71
444.91	27433.42
445.10	25942.50
445.28	25282.47
445.47	24540.52
445.65	24828.40
445.84	25436.94
446.02	26642.32
446.21	26738.28
446.39	26897.44
446.58	27562.15
446.77	27630.02
446.95	27864.08
447.14	28982.85
447.32	29259.04
447.51	28886.89
447.69	26948.93
447.88	27047.23
448.06	27695.56
448.25	28491.34
448.43	28187.07
448.62	27487.25
448.80	27770.46
448.99	28112.17
449.17	28095.79
449.36	27742.37
449.54	29652.25
449.73	29589.05
449.91	29965.88
450.10	30562.72
450.28	30998.06
450.46	30747.62
450.65	30771.02
450.83	30796.77
451.02	29893.32
451.20	29977.58
451.39	29511.81
451.57	29762.25
451.76	29633.52
451.94	29333.93
452.13	29013.28
452.31	27393.63
452.49	26651.68
452.68	26749.98
452.86	27037.87
453.05	27330.44
453.23	27763.43
453.42	28510.07
453.60	29053.07
453.78	29366.70
453.97	29336.27
454.15	29252.02
454.34	28687.95
454.52	28926.68
454.70	28135.58
454.89	28758.16
455.07	28694.97
455.26	29228.61
455.44	30050.14
455.62	30696.13
455.81	30810.81
455.99	30405.90
456.17	30363.77
456.36	30277.17
456.54	30986.35
456.73	31178.28
456.91	31861.71
457.09	31864.05
457.28	32273.65
457.46	31199.34
457.64	30897.41
457.83	29996.31
458.01	29156.05
458.19	30080.56
458.38	30291.21
458.56	31206.36
458.74	31419.35
458.93	30721.87
459.11	30565.06
459.29	30469.09
459.48	30450.37
459.66	30298.23
459.84	30955.93
460.03	31166.57
460.21	30658.68
460.39	31775.11
460.57	32149.60
460.76	31714.26
460.94	32055.98
461.12	31503.61
461.31	32037.25
461.49	31796.18
461.67	31798.52
461.85	32870.48
462.04	32826.01
462.22	33055.39
462.40	32879.85
462.59	32261.94
462.77	32503.02
462.95	32886.87
463.13	32114.49
463.32	32423.44
463.50	31608.93
463.68	32020.87
463.86	31969.38
464.05	31398.29
464.23	30696.13
464.41	31075.29
464.59	30146.10
464.78	31957.67
464.96	31765.75
465.14	31019.12
465.32	32208.11
465.50	32535.79
465.69	33347.95
465.87	31945.97
466.05	31276.58
466.23	29970.56
466.41	29605.44
466.60	30136.74
466.78	30192.91
466.96	30707.83
467.14	31236.79
467.32	32016.19
467.51	31786.82
467.69	30199.93
467.87	30869.33
468.05	31332.75
468.23	31484.89
468.41	31569.15
468.60	31543.40
468.78	31779.79
468.96	31613.62
469.14	32283.01
469.32	32505.36
469.50	31421.69
469.69	31164.23
469.87	30703.15
470.05	30246.74
470.23	30499.52
470.41	30361.43
470.59	31356.16
470.77	31098.70
470.95	31695.53
471.14	32507.70
471.32	32383.65
471.50	34110.97
471.68	34478.43
471.86	34263.10
472.04	34686.74
472.22	34649.29
472.40	33167.73
472.58	33036.66
472.77	32369.61
472.95	33151.35
473.13	33888.62
473.31	32772.18
473.49	33457.96
473.67	33710.74
473.85	34412.90
474.03	34920.79
474.21	34946.54
474.39	35019.10
474.57	35367.84
474.75	35377.20
474.93	35220.38
475.12	34270.12
475.30	34838.87
475.48	34614.18
475.66	35271.87
475.84	34239.70
476.02	34682.06
476.20	33991.60
476.38	34543.97
476.56	35618.27
476.74	36219.79
476.92	36360.22
477.10	36517.04
477.28	38024.34
477.46	37949.45
477.64	37904.98
477.82	38188.18
478.00	38635.22
478.18	37366.65
478.36	37380.70
478.54	37558.58
478.72	37996.26
478.90	38735.87
479.08	39840.60
479.26	40271.26
479.44	40381.26
479.62	39847.62
479.80	40423.39
479.98	40411.69
480.16	40575.53
480.34	39702.51
480.52	40374.24
480.70	40561.48
480.88	41095.13
481.06	41483.66
481.24	41567.91
481.41	42424.55
481.59	43592.48
481.77	43103.31
481.95	42377.74
482.13	42319.23
482.31	42169.43
482.49	43271.82
482.67	43028.41
482.85	42906.70
483.03	43866.32
483.21	44009.09
483.39	44072.29
483.57	43367.79
483.74	43100.97
483.92	43421.62
484.10	43173.52
484.28	44189.31
484.46	44865.73
484.64	45235.53
484.82	44444.43
485.00	43761.00
485.18	43019.05
485.35	41715.37
485.53	38820.13
485.71	35304.64
485.89	34740.57
486.07	36847.05
486.25	39920.18
486.43	42066.45
486.61	42960.53
486.78	42787.33
486.96	42895.00
487.14	44697.21
487.32	45481.29
487.50	46569.64
487.68	47903.74
487.85	47980.98
488.03	48133.12
488.21	47414.57
488.39	46642.20
488.57	46195.15
488.75	45799.60
488.92	46958.17
489.10	49462.54
489.28	50714.73
489.46	51531.57
489.64	51611.15
489.81	51730.52
489.99	50997.93
490.17	51346.67
490.35	51639.24
490.53	51033.04
490.70	50571.96
490.88	50492.38
491.06	51805.42
491.24	51381.78
491.41	50688.98
491.59	48636.33
491.77	48009.07
491.95	49282.32
492.13	50424.50
492.30	51480.08
492.48	52734.61
492.66	53385.28
492.84	53404.00
493.01	52837.59
493.19	52446.72
493.37	52081.60
493.54	51931.81
493.72	52334.38
493.90	53675.51
494.08	54007.86
494.25	54511.08
494.43	54642.15
494.61	55086.85
494.79	55283.45
494.96	54925.35
495.14	54616.40
495.32	53467.20
495.49	52659.71
495.67	53890.83
495.85	54887.90
496.02	55496.44
496.20	55573.68
496.38	54911.31
496.55	54880.88
496.73	55501.12
496.91	55391.12
497.09	56184.56
497.26	56182.22
497.44	55632.19
497.62	55290.48
497.79	54401.07
497.97	52968.66
498.14	53296.34
498.32	54391.71
498.50	55217.92
498.67	55779.65
498.85	55955.19
499.03	55971.57
499.20	56142.43
499.38	56296.91
499.56	55770.28
499.73	55674.32
499.91	55248.35
500.08	54508.74
500.26	54007.86
500.44	54387.03
500.61	55011.95
500.79	55070.46
500.97	54649.17
501.14	54466.61
501.32	54405.75
501.49	54080.42
501.67	54497.03
501.84	54876.20
502.02	55222.60
502.20	55664.96
502.37	55648.58
502.55	55608.79
502.72	56350.74
502.90	56807.14
503.07	56498.19
503.25	55877.95
503.43	54997.91
503.60	54623.42
503.78	53907.22
503.95	54202.13
504.13	55772.63
504.30	56488.83
504.48	56240.73
504.65	56126.05
504.83	56032.42
505.01	56849.27
505.18	57073.96
505.36	57565.48
505.53	57719.95
505.71	57865.06
505.88	58010.18
506.06	57511.64
506.23	57090.35
506.41	56608.20
506.58	56947.57
506.76	56776.72
506.93	56699.48
507.11	56605.86
507.28	56919.49
507.46	56324.99
507.63	55636.87
507.81	55669.64
507.98	55653.26
508.16	56640.96
508.33	56968.64
508.50	57553.77
508.68	57631.01
508.85	58220.83
509.03	57972.73
509.20	57932.94
509.38	57106.73
509.55	56261.80
509.73	56310.95
509.90	56975.66
510.08	57080.98
510.25	57263.55
510.42	57031.83
510.60	56786.08
510.77	57249.50
510.95	57752.72
511.12	58124.86
511.30	58197.42
511.47	58464.24
511.64	58314.45
511.82	57914.22
511.99	57305.68
512.17	56760.33
512.34	56430.32
512.51	56807.14
512.69	56647.99
512.86	57209.71
513.04	57284.61
513.21	57251.84
513.38	56935.87
513.56	56479.47
513.73	55896.67
513.90	56385.85
514.08	56205.62
514.25	56491.17
514.43	56669.05
514.60	56903.10
514.77	57331.42
514.95	57155.88
515.12	56875.02
515.29	57146.52
515.47	57696.55
515.64	57738.68
515.81	57513.98
515.99	56999.07
516.16	55341.97
516.33	53303.36
516.51	51686.05
516.68	50820.05
516.85	50351.94
517.03	50412.80
517.20	53628.69
517.37	56149.45
517.54	57144.18
517.72	56587.13
517.89	54038.29
518.06	51622.86
518.24	51826.48
518.41	54279.36
518.58	55718.79
518.75	55873.27
518.93	56004.34
519.10	55910.72
519.27	56303.93
519.45	56467.76
519.62	57380.57
519.79	57801.87
519.96	57301.00
520.14	57099.71
520.31	55854.54
520.48	56109.66
520.65	56364.78
520.83	57425.04
521.00	57949.32
521.17	57289.29
521.34	57148.86
521.52	57284.61
521.69	58101.46
521.86	58258.27
522.03	57956.35
522.20	56872.68
522.38	55742.20
522.55	55896.67
522.72	56566.07
522.89	56549.68
523.07	56657.35
523.24	57069.28
523.41	57696.55
523.58	58274.66
523.75	58749.79
523.92	58464.24
524.10	58429.13
524.27	58607.01
524.44	58347.21
524.61	58014.86
524.78	57956.35
524.96	57687.18
525.13	57764.42
525.30	58064.01
525.47	58625.74
525.64	58433.81
525.81	57689.52
525.98	56285.20
526.16	54752.15
526.33	54230.21
526.50	54000.84
526.67	53626.35
526.84	54185.74
527.01	55131.32
527.18	56109.66
527.36	56924.17
527.53	57881.45
527.70	58042.95
527.87	57413.34
528.04	57013.11
528.21	57776.12
528.38	57925.92
528.55	58745.11
528.72	58969.80
528.89	59159.38
529.07	58922.99
529.24	58131.89
529.41	57492.92
529.58	56755.65
529.75	57212.06
529.92	57684.84
530.09	57949.32
530.26	58255.93
530.43	58691.27
530.60	58726.38
530.77	58969.80
530.94	59014.27
531.11	58595.31
531.28	58267.64
531.46	57954.00
531.63	58089.76
531.80	57986.77
531.97	57530.37
532.14	56900.76
532.31	55707.09
532.48	55182.81
532.65	55103.23
532.82	55931.78
532.99	57275.25
533.16	57666.12
533.33	58185.72
533.50	57794.85
533.67	57200.35
533.84	56884.38
534.01	57073.96
534.18	57275.25
534.35	57415.68
534.52	57209.71
534.69	57659.10
534.86	57715.27
535.03	58106.14
535.20	58557.86
535.37	59117.25
535.54	58841.07
535.71	58468.92
535.88	58482.97
536.05	57703.57
536.22	57394.62
536.38	57080.98
536.55	56699.48
536.72	55725.81
536.89	55840.50
537.06	56790.76
537.23	57808.89
537.40	57818.25
537.57	57570.16
537.74	57570.16
537.91	57743.36
538.08	57593.56
538.25	57530.37
538.42	57790.17
538.59	57542.07
538.75	56842.25
538.92	56750.97
539.09	56552.02
539.26	56573.09
539.43	56123.71
539.60	56048.81
539.77	56603.52
539.94	56381.16
540.11	55571.34
540.28	55128.98
540.44	55079.83
540.61	55461.33
540.78	55561.98
540.95	55913.06
541.12	56610.54
541.29	56697.14
541.46	57066.94
541.62	56853.95
541.79	56790.76
541.96	56212.65
542.13	56364.78
542.30	56463.08
542.47	56849.27
542.63	56549.68
542.80	56383.51
542.97	56779.06
543.14	56177.54
543.31	56135.41
543.48	56790.76
543.64	57602.92
543.81	57881.45
543.98	57670.80
544.15	57017.79
544.32	56294.56
544.48	56446.70
544.65	56978.00
544.82	57375.89
544.99	57024.81
545.16	56755.65
545.32	56442.02
545.49	57315.04
545.66	57752.72
545.83	57240.14
546.00	56816.50
546.16	56395.21
546.33	56765.01
546.50	56760.33
546.67	57347.81
546.83	56685.43
547.00	56362.44
547.17	55966.89
547.34	55257.71
547.50	55217.92
547.67	55746.88
547.84	55889.65
548.00	56355.42
548.17	56933.53
548.34	56521.60
548.51	56552.02
548.67	56877.36
548.84	56411.59
549.01	56638.62
549.18	56409.25
549.34	56521.60
549.51	56652.67
549.68	56268.82
549.84	56177.54
550.01	56060.51
550.18	55959.87
550.34	56088.60
550.51	56282.86
550.68	56182.22
550.84	55536.23
551.01	55861.57
551.18	55760.92
551.34	55835.82
551.51	56385.85
551.68	56369.46
551.84	56772.03
552.01	56399.89
552.18	56189.24
552.34	55320.90
552.51	55079.83
552.68	54862.16
552.84	55732.84
553.01	55772.63
553.18	55655.60
553.34	55945.83
553.51	55798.37
553.67	56177.54
553.84	56390.53
554.01	56156.47
554.17	56044.13
554.34	56032.42
554.51	56257.12
554.67	56879.70
554.84	56280.52
555.00	55938.80
555.17	55650.92
555.33	55737.52
555.50	55903.70
555.67	55566.66
555.83	55636.87
556.00	55222.60
556.16	55199.19
556.33	54707.68
556.50	54691.30
556.66	54798.96
556.83	54443.20
556.99	54604.70
557.16	54703.00
557.32	54969.82
557.49	55241.32
557.65	54995.57
557.82	55180.47
557.98	55236.64
558.15	54616.40
558.32	53558.48
558.48	52769.72
558.65	53052.92
558.81	53368.90
558.98	53687.21
559.14	53825.30
559.31	53890.83
559.47	53982.12
559.64	53612.31
559.80	53326.77
559.97	53364.21
560.13	53881.47
560.30	54864.50
560.46	55269.41
560.63	55414.52
560.79	55484.74
560.96	54997.91
561.12	53680.19
561.29	53214.42
561.45	53015.47
561.61	53712.95
561.78	54136.59
561.94	54143.61
562.11	53897.86
562.27	53413.37
562.44	53932.96
562.60	54440.86
562.77	54754.49
562.93	54499.37
563.10	54511.08
563.26	53567.84
563.42	53806.58
563.59	53776.15
563.75	53499.97
563.92	53698.91
564.08	53462.52
564.24	53986.80
564.41	54099.14
564.57	53741.04
564.74	53860.41
564.90	53624.01
565.07	53286.98
565.23	53045.90
565.39	52467.79
565.56	52182.24
565.72	51941.17
565.88	52355.44
566.05	52622.26
566.21	52942.92
566.38	52992.07
566.54	53090.37
566.70	53406.34
566.87	53661.46
567.03	53401.66
567.19	53764.45
567.36	53759.76
567.52	53251.87
567.68	53003.77
567.85	52360.12
568.01	52231.40
568.17	51657.96
568.34	51770.31
568.50	51428.59
568.66	51508.17
568.83	52041.81
568.99	52161.18
569.15	52875.04
569.32	52212.67
569.48	52090.96
569.64	51594.77
569.81	51676.69
569.97	51533.92
570.13	51341.99
570.30	50777.92
570.46	50438.54
570.62	49909.58
570.78	49787.88
570.95	50365.99
571.11	51037.72
571.27	51079.85
571.43	51185.18
571.60	51618.17
571.76	52154.16
571.92	52144.80
572.09	52484.17
572.25	52107.35
572.41	52140.11
572.57	52222.03
572.74	51938.83
572.90	51484.76
573.06	51657.96
573.22	51674.35
573.38	51870.95
573.55	51728.18
573.71	51774.99
573.87	51676.69
574.03	51430.93
574.20	51290.50
574.36	50721.75
574.52	51063.47
574.68	50775.58
574.84	50258.32
575.01	49525.74
575.17	49848.73
575.33	49979.80
575.49	50508.76
575.65	50735.79
575.82	50611.74
575.98	49944.69
576.14	50459.61
576.30	50656.21
576.46	50770.90
576.62	50492.38
576.79	50766.22
576.95	50295.77
577.11	49918.95
577.27	50529.83
577.43	50188.11
577.59	49708.30
577.75	49148.91
577.92	48694.85
578.08	48404.62
578.24	48261.85
578.40	48900.81
578.56	49088.06
578.72	49272.96
578.88	49478.92
579.04	49368.92
579.21	49514.03
579.37	49841.71
579.53	49804.26
579.69	49785.54
579.85	49963.42
580.01	50197.47
580.17	49326.79
580.33	49158.27
580.49	49382.96
580.65	49715.32
580.82	49855.75
580.98	49748.09
581.14	49689.57
581.30	49528.08
581.46	49673.19
581.62	50244.28
581.78	49813.62
581.94	50218.53
582.10	50351.94
582.26	50124.91
582.42	50113.21
582.58	49961.08
582.74	49954.05
582.90	49958.73
583.06	49705.96
583.22	49621.70
583.38	49577.23
583.54	49610.00
583.70	49682.55
583.86	49558.50
584.02	49528.08
584.18	49743.41
584.34	49553.82
584.50	49521.05
584.66	48947.62
584.82	48509.94
584.98	48839.96
585.14	47915.45
585.30	47655.65
