SpectraSuite Data File
++++++++++++++++++++++++++++++++++++
Date: Mon Oct 07 14:53:16 GMT-05:00 2013
User: price-jones
Dark Spectrum Present: No
Reference Spectrum Present: No
Number of Sampled Component Spectra: 1
Spectrometers: USB2+H05261
Integration Time (usec): 100000 (USB2+H05261)
Spectra Averaged: 1 (USB2+H05261)
Boxcar Smoothing: 0 (USB2+H05261)
Correct for Electrical Dark: No (USB2+H05261)
Strobe/Lamp Enabled: No (USB2+H05261)
Correct for Detector Non-linearity: No (USB2+H05261)
Correct for Stray Light: No (USB2+H05261)
Number of Pixels in Processed Spectrum: 2048
>>>>>Begin Processed Spectral Data<<<<<
365.73	0.00
365.92	0.00
366.12	0.00
366.32	0.00
366.52	0.00
366.72	0.00
366.91	0.00
367.11	0.00
367.31	0.00
367.51	0.00
367.70	0.00
367.90	0.00
368.10	0.00
368.30	0.00
368.49	0.00
368.69	0.00
368.89	0.00
369.09	0.00
369.28	0.00
369.48	0.00
369.68	0.00
369.87	0.00
370.07	0.00
370.27	0.00
370.47	730.25
370.66	3255.69
370.86	3847.84
371.06	4222.33
371.25	4072.53
371.45	3676.98
371.65	3353.99
371.84	3190.15
372.04	3251.00
372.24	3812.73
372.44	3878.27
372.63	3817.41
372.83	3555.27
373.03	3129.30
373.22	2984.18
373.42	3103.55
373.62	3529.53
373.81	3789.33
374.01	3786.99
374.21	3473.36
374.40	3138.66
374.60	3272.07
374.79	3721.45
374.99	4510.21
375.19	4809.80
375.38	4655.33
375.58	4432.97
375.78	4299.56
375.97	4402.55
376.17	4390.84
376.37	4739.58
376.56	4748.95
376.76	4887.04
376.95	5172.58
377.15	5666.44
377.35	5818.57
377.54	6202.42
377.74	6265.61
377.93	6237.53
378.13	6008.16
378.33	5715.59
378.52	5256.84
378.72	4973.64
378.91	4884.70
379.11	4964.28
379.31	4718.52
379.50	4748.95
379.70	5146.84
379.89	5640.69
380.09	5996.45
380.28	6136.88
380.48	5980.07
380.68	5895.81
380.87	5907.51
381.07	5315.36
381.26	5048.54
381.46	4692.77
381.65	4519.57
381.85	4489.15
382.04	4091.26
382.24	3974.23
382.43	3824.44
382.63	3613.79
382.83	3655.92
383.02	3784.65
383.22	3552.93
383.41	3641.87
383.61	3967.21
383.80	4781.71
384.00	5282.59
384.19	5858.36
384.39	6209.44
384.58	6127.52
384.78	5961.34
384.97	5806.87
385.17	5544.73
385.36	5338.76
385.56	5001.72
385.75	5317.70
385.95	5731.97
386.14	6258.59
386.34	6260.93
386.53	5994.11
386.72	5626.65
386.92	5760.06
387.11	6012.84
387.31	6071.35
387.50	6099.44
387.70	5909.85
387.89	6054.97
388.09	5973.05
388.28	6050.28
388.48	5853.68
388.67	6619.04
388.86	7229.91
389.06	7709.72
389.25	8016.33
389.45	8168.47
389.64	8140.38
389.84	8152.09
390.03	7962.50
390.22	7871.22
390.42	8182.51
390.61	8645.94
390.81	9296.61
391.00	9312.99
391.19	9404.27
391.39	8990.00
391.58	8425.93
391.78	8023.36
391.97	7845.48
392.16	7360.98
392.36	6628.40
392.55	5165.56
392.75	4184.88
392.94	3435.91
393.13	3433.57
393.33	4105.30
393.52	5336.42
393.71	6452.86
393.91	7117.57
394.10	7808.03
394.29	8524.23
394.49	9214.69
394.68	9825.57
394.88	9919.19
395.07	10380.28
395.26	10019.83
395.46	9989.41
395.65	9160.86
395.84	8262.09
396.04	6764.15
396.23	5551.75
396.42	4739.58
396.62	4514.89
396.81	5205.35
397.00	6661.16
397.19	8645.94
397.39	10099.41
397.58	11356.28
397.77	11922.69
397.97	12446.97
398.16	12582.72
398.35	12975.93
398.55	13586.81
398.74	13804.48
398.93	14377.91
399.12	14204.71
399.32	13303.60
399.51	13799.80
399.70	14649.41
399.90	14558.13
400.09	14583.88
400.28	14621.33
400.47	14417.70
400.67	15349.23
400.86	15772.87
401.05	15468.60
401.24	15889.90
401.44	16177.78
401.63	16032.67
401.82	16297.15
402.01	16116.93
402.21	16341.62
402.40	16601.42
402.59	15756.49
402.78	15201.78
402.97	14766.44
403.17	15487.32
403.36	16177.78
403.55	16664.61
403.74	17055.48
403.93	16081.82
404.13	15119.86
404.32	14813.25
404.51	15487.32
404.70	16985.27
404.89	16938.46
405.09	16573.33
405.28	15896.92
405.47	16039.69
405.66	16016.29
405.85	15358.60
406.05	15171.35
406.24	15477.96
406.43	15999.90
406.62	16449.28
406.81	16732.49
407.00	16077.14
407.20	15700.31
407.39	15805.64
407.58	16479.71
407.77	17202.94
407.96	17692.11
408.15	18176.60
408.34	17935.53
408.54	18965.36
408.73	18829.61
408.92	18726.63
409.11	18141.49
409.30	16973.56
409.49	15791.59
409.68	15349.23
409.87	14803.89
410.07	15676.91
410.26	16802.71
410.45	17900.42
410.64	18508.96
410.83	18934.93
411.02	19459.21
411.21	20381.38
411.40	19983.49
411.59	20079.46
411.78	20060.73
411.98	19550.49
412.17	20238.61
412.36	19632.41
412.55	19609.01
412.74	19367.93
412.93	18565.13
413.12	19089.41
413.31	20702.04
413.50	21235.68
413.69	21685.06
413.88	20428.20
414.07	19922.64
414.26	20222.23
414.45	21111.63
414.64	21273.13
414.83	20819.07
415.02	20805.02
415.22	20788.64
415.41	21216.96
415.60	21734.21
415.79	22773.41
415.98	23438.12
416.17	23309.40
416.36	22728.94
416.55	22506.59
416.74	21326.96
416.93	20575.65
417.12	21149.08
417.31	21308.24
417.50	21635.91
417.69	22176.58
417.88	22099.34
418.07	21954.22
418.26	21834.86
418.45	21666.34
418.64	22579.15
418.83	23431.10
419.02	23606.64
419.21	22955.97
419.39	21818.47
419.58	21027.37
419.77	20840.13
419.96	21989.33
420.15	23241.52
420.34	24013.90
420.53	24732.44
420.72	25001.60
420.91	24900.96
421.10	24577.97
421.29	24713.72
421.48	23807.93
421.67	24453.92
421.86	24049.00
422.05	22368.50
422.24	20093.50
422.43	20091.16
422.61	22284.24
422.80	23562.17
422.99	24161.35
423.18	23007.47
423.37	22508.93
423.56	22431.69
423.75	22813.20
423.94	23517.70
424.13	22277.22
424.32	22656.39
424.50	22288.92
424.69	22174.24
424.88	22417.65
425.07	22333.39
425.26	21968.27
425.45	21919.12
425.64	21720.17
425.83	21462.71
426.01	22904.48
426.20	23557.49
426.39	23161.94
426.58	21558.67
426.77	20013.92
426.96	19585.60
427.15	20144.99
427.33	21607.83
427.52	22377.86
427.71	23103.43
427.90	22171.89
428.09	22314.67
428.28	21830.18
428.46	21104.61
428.65	20673.95
428.84	21350.37
429.03	21593.78
429.22	20348.62
429.40	19489.64
429.59	17579.76
429.78	15372.64
429.97	15529.45
430.16	15779.89
430.34	15927.35
430.53	15758.83
430.72	16250.34
430.91	17905.10
431.10	21235.68
431.28	24746.48
431.47	26836.58
431.66	27033.19
431.85	24830.74
432.03	22691.49
432.22	21774.00
432.41	23002.78
432.60	24999.26
432.79	26225.70
432.97	26614.23
433.16	25879.30
433.35	24027.94
433.54	21453.35
433.72	19653.48
433.91	20933.75
434.10	23274.29
434.28	24915.00
434.47	26286.56
434.66	25771.64
434.85	25095.22
435.03	24952.45
435.22	25750.57
435.41	27199.37
435.59	27447.46
435.78	27587.89
435.97	28414.10
436.16	28657.52
436.34	28032.60
436.53	27393.63
436.72	27751.73
436.90	26157.83
437.09	26045.48
437.28	25385.45
437.46	26260.81
437.65	26389.54
437.84	24676.27
438.02	23068.32
438.21	22647.02
438.40	24013.90
438.58	25781.00
438.77	26569.76
438.96	26855.31
439.14	27971.74
439.33	28489.00
439.52	28968.81
439.70	28411.76
439.89	27765.78
440.08	26991.06
440.26	27145.53
440.45	27821.95
440.63	29525.86
440.82	31157.21
441.01	30773.36
441.19	30478.46
441.38	30834.22
441.57	32493.66
441.75	32500.68
441.94	32556.85
442.12	32500.68
442.31	33062.41
442.50	33191.14
442.68	32666.86
442.87	32027.89
443.05	31325.73
443.24	32020.87
443.43	32718.35
443.61	33329.23
443.80	33811.38
443.98	32027.89
444.17	32044.27
444.35	34024.37
444.54	34511.20
444.73	34380.13
444.91	32980.49
445.10	31274.24
445.28	30033.75
445.47	29914.39
445.65	29645.23
445.84	30948.90
446.02	31597.23
446.21	32130.87
446.39	32189.39
446.58	32877.51
446.77	33125.60
446.95	33504.77
447.14	34522.90
447.32	35276.55
447.51	34246.72
447.69	32954.74
447.88	32748.78
448.06	32643.45
448.25	33635.84
448.43	33858.19
448.62	33275.40
448.80	32769.84
448.99	33483.70
449.17	33347.95
449.36	33495.41
449.54	34691.42
449.73	35484.86
449.91	36149.57
450.10	36765.14
450.28	37303.46
450.46	37282.39
450.65	37165.37
450.83	36781.52
451.02	36149.57
451.20	35967.01
451.39	35655.72
451.57	35669.76
451.76	35922.54
451.94	35269.53
452.13	34773.34
452.31	33027.30
452.49	31658.09
452.68	32046.62
452.86	32210.45
453.05	32952.40
453.23	33495.41
453.42	34384.81
453.60	35398.26
453.78	35578.48
453.97	35505.93
454.15	35220.38
454.34	34813.13
454.52	35042.50
454.70	34150.76
454.89	34368.43
455.07	34920.79
455.26	35232.08
455.44	36287.67
455.62	37343.25
455.81	37242.60
455.99	36762.79
456.17	36400.01
456.36	36535.76
456.54	38115.62
456.73	37656.88
456.91	38040.73
457.09	38216.27
457.28	39173.55
457.46	37457.93
457.64	37677.94
457.83	36158.94
458.01	35754.02
458.19	36421.08
458.38	37062.38
458.56	37736.46
458.74	37586.66
458.93	37109.19
459.11	37167.71
459.29	36741.73
459.48	36987.49
459.66	36648.11
459.84	37188.77
460.03	37874.55
460.21	37174.73
460.39	38714.80
460.57	38909.07
460.76	38993.32
460.94	39210.99
461.12	38445.64
461.31	38471.39
461.49	38504.15
461.67	38309.89
461.85	39875.71
462.04	39288.23
462.22	40149.55
462.40	39697.83
462.59	39290.57
462.77	39524.63
462.95	39674.42
463.13	38993.32
463.32	38876.30
463.50	38871.62
463.68	38913.75
463.86	38876.30
464.05	38532.24
464.23	37067.06
464.41	37336.23
464.59	36362.56
464.78	38632.88
464.96	38309.89
465.14	37701.35
465.32	38841.19
465.50	40041.88
465.69	40322.75
465.87	39318.66
466.05	38258.40
466.23	36645.77
466.41	35700.19
466.60	37294.10
466.78	36938.33
466.96	37949.45
467.14	38209.25
467.32	38841.19
467.51	38557.99
467.69	37177.07
467.87	37659.22
468.05	38312.23
468.23	38424.57
468.41	38436.28
468.60	38684.37
468.78	38930.13
468.96	38117.96
469.14	39384.19
469.32	38955.88
469.50	37677.94
469.69	38045.41
469.87	37441.55
470.05	37148.98
470.23	37809.01
470.41	37736.46
470.59	38265.42
470.77	38447.98
470.95	38988.64
471.14	39611.23
471.32	39966.99
471.50	41125.55
471.68	41591.32
471.86	41656.85
472.04	41909.63
472.22	41855.80
472.40	39915.50
472.58	39819.53
472.77	39648.68
472.95	40449.14
473.13	41469.61
473.31	40341.47
473.49	40713.62
473.67	41020.23
473.85	41741.11
474.03	42412.85
474.21	42794.36
474.39	43122.03
474.57	42972.24
474.75	43112.67
474.93	42761.59
475.12	41933.04
475.30	41855.80
475.48	42351.99
475.66	42642.22
475.84	42340.29
476.02	42047.72
476.20	41558.55
476.38	42487.74
476.56	43746.95
476.74	44025.48
476.92	44172.93
477.10	44526.35
477.28	45888.54
477.46	45977.48
477.64	46061.74
477.82	46026.63
478.00	46705.39
478.18	45975.14
478.36	46124.94
478.54	45549.17
478.72	45785.56
478.90	47068.17
479.08	48275.89
479.26	48507.60
479.44	48303.98
479.62	48453.77
479.80	48191.63
479.98	48264.19
480.16	48687.82
480.34	47924.81
480.52	48502.92
480.70	49146.57
480.88	49134.87
481.06	49806.60
481.24	50281.73
481.41	51044.74
481.59	51519.87
481.77	51215.60
481.95	50349.60
482.13	50120.23
482.31	50309.82
482.49	51215.60
482.67	50894.95
482.85	51171.13
483.03	51360.72
483.21	52023.09
483.39	51875.63
483.57	51463.70
483.74	51072.83
483.92	51168.79
484.10	51583.07
484.28	52418.64
484.46	52437.36
484.64	52851.64
484.82	52395.23
485.00	52011.38
485.18	51033.04
485.35	50124.91
485.53	46735.82
485.71	43222.67
485.89	42735.84
486.07	45549.17
486.25	48285.25
486.43	50459.61
486.61	51206.24
486.78	50653.87
486.96	51388.80
487.14	52739.29
487.32	53209.74
487.50	54337.88
487.68	54815.35
487.85	55182.81
488.03	55075.15
488.21	55077.49
488.39	54148.29
488.57	53815.94
488.75	53439.11
488.92	54244.26
489.10	56179.88
489.28	57066.94
489.46	57832.30
489.64	57614.63
489.81	57907.19
489.99	57359.51
490.17	57783.15
490.35	57766.76
490.53	57200.35
490.70	57020.13
490.88	56989.70
491.06	57904.85
491.24	57860.38
491.41	56683.09
491.59	55473.04
491.77	54969.82
491.95	55889.65
492.13	56732.25
492.30	57937.62
492.48	58859.79
492.66	59157.04
492.84	59166.40
493.01	58930.01
493.19	58340.19
493.37	58326.15
493.54	58021.88
493.72	58363.60
493.90	59363.01
494.08	60030.06
494.25	60317.95
494.43	60336.67
494.61	60919.46
494.79	60711.16
494.96	60601.15
495.14	60280.50
495.32	59437.90
495.49	58623.40
495.67	60055.81
495.85	60783.71
496.02	61099.68
496.20	61087.98
496.38	60734.56
496.55	60608.17
496.73	60912.44
496.91	61118.41
497.09	61762.06
497.26	61876.74
497.44	61413.32
497.62	60893.72
497.79	60266.45
497.97	59199.17
498.14	59241.30
498.32	60383.48
498.50	61113.73
498.67	61532.68
498.85	61490.55
499.03	61471.83
499.20	61900.15
499.38	61860.36
499.56	61635.67
499.73	61233.10
499.91	60872.65
500.08	60582.43
500.26	59985.59
500.44	60257.09
500.61	60874.99
500.79	60734.56
500.97	60350.71
501.14	60339.01
501.32	60044.10
501.49	60121.34
501.67	60402.21
501.84	60835.20
502.02	61064.58
502.20	61310.33
502.37	61506.94
502.55	61418.00
502.72	62082.71
502.90	62307.40
503.07	62005.47
503.25	61841.63
503.43	60879.67
503.60	60458.38
503.78	60062.83
503.95	60477.10
504.13	61570.13
504.30	62272.29
504.48	62031.22
504.65	61729.29
504.83	61773.76
505.01	62396.34
505.18	62480.60
505.36	63271.70
505.53	63267.02
505.71	63386.39
505.88	63524.48
506.06	62962.75
506.23	62602.31
506.41	62403.36
506.58	62628.05
506.76	62244.21
506.93	62597.63
507.11	62227.82
507.28	62295.70
507.46	61942.28
507.63	61432.04
507.81	61310.33
507.98	61750.35
508.16	62302.72
508.33	62651.46
508.50	63098.50
508.68	63171.06
508.85	63793.64
509.03	63627.46
509.20	63337.24
509.38	62941.69
509.55	62300.38
509.73	62351.87
509.90	62763.81
510.08	63194.46
510.25	62894.88
510.42	62775.51
510.60	62529.75
510.77	62812.96
510.95	63491.71
511.12	63597.04
511.30	63784.28
511.47	63983.22
511.64	63943.44
511.82	63657.89
511.99	62979.14
512.17	62705.29
512.34	62342.51
512.51	62637.42
512.69	62578.90
512.86	62660.82
513.04	63061.05
513.21	63051.69
513.38	62810.62
513.56	62185.69
513.73	61815.89
513.90	62024.20
514.08	61829.93
514.25	62377.62
514.43	62562.52
514.60	62670.18
514.77	62770.83
514.95	62819.98
515.12	63016.58
515.29	63063.39
515.47	63353.62
515.64	63597.04
515.81	63320.85
515.99	62555.50
516.16	61364.17
516.33	59337.26
516.51	58230.19
516.68	57719.95
516.85	57301.00
517.03	57647.39
517.20	59955.16
517.37	62012.49
517.54	62836.36
517.72	62307.40
517.89	60357.74
518.06	58092.10
518.24	58588.29
518.41	60561.36
518.58	61666.09
518.75	61750.35
518.93	62042.92
519.10	61986.75
519.27	62234.84
519.45	62468.90
519.62	63039.99
519.79	63423.84
519.96	63260.00
520.14	62831.68
520.31	61972.70
520.48	62237.19
520.65	62382.30
520.83	63245.96
521.00	63543.20
521.17	63325.53
521.34	62925.30
521.52	63372.34
521.69	63582.99
521.86	63938.75
522.03	63905.99
522.20	62714.65
522.38	61860.36
522.55	61780.78
522.72	62433.79
522.89	62588.27
523.07	62686.57
523.24	63112.55
523.41	63800.66
523.58	63959.82
523.75	64439.63
523.92	64226.64
524.10	64355.37
524.27	64472.40
524.44	64076.85
524.61	63913.01
524.78	63817.05
524.96	63625.12
525.13	63718.74
525.30	63697.68
525.47	64369.41
525.64	64296.86
525.81	63582.99
525.98	62199.74
526.16	61123.09
526.33	60458.38
526.50	60163.47
526.67	59901.33
526.84	60477.10
527.01	61226.07
527.18	62204.42
527.36	62885.51
527.53	63812.37
527.70	63746.83
527.87	63231.91
528.04	63016.58
528.21	63327.87
528.38	64072.17
528.55	64528.57
528.72	64594.10
528.89	64793.05
529.07	64685.39
529.24	63870.88
529.41	63388.73
529.58	62958.07
529.75	62990.84
529.92	63629.80
530.09	63786.62
530.26	64317.92
530.43	64626.87
530.60	64486.44
530.77	64690.07
530.94	64746.24
531.11	64467.72
531.28	64095.57
531.46	63901.31
531.63	64104.93
531.80	63934.07
531.97	63465.97
532.14	62686.57
532.31	61965.68
532.48	61572.47
532.65	61478.85
532.82	62328.47
532.99	63281.06
533.16	63547.89
533.33	64055.78
533.50	63845.13
533.67	63257.66
533.84	62845.72
534.01	63114.89
534.18	63421.50
534.35	63503.42
534.52	63178.08
534.69	63676.61
534.86	63824.07
535.03	64128.34
535.20	64654.96
535.37	64863.27
535.54	64903.06
535.71	64530.91
535.88	64355.37
536.05	63543.20
536.22	63260.00
536.38	63063.39
536.55	62848.06
536.72	62199.74
536.89	62262.93
537.06	62911.26
537.23	63561.93
537.40	63791.30
537.57	63898.97
537.74	63737.47
537.91	63484.69
538.08	63559.59
538.25	63657.89
538.42	63894.28
538.59	63674.27
538.75	62899.56
538.92	62770.83
539.09	62841.04
539.26	62674.87
539.43	62522.73
539.60	62529.75
539.77	62569.54
539.94	62443.15
540.11	61862.70
540.28	61549.07
540.44	61537.36
540.61	61689.50
540.78	61883.76
540.95	62129.52
541.12	62585.92
541.29	62836.36
541.46	63093.82
541.62	63091.48
541.79	63084.46
541.96	62518.05
542.13	62370.60
542.30	63014.24
542.47	63119.57
542.63	62857.43
542.80	62436.13
542.97	62602.31
543.14	62621.03
543.31	62614.01
543.48	62986.16
543.64	63877.90
543.81	64114.29
543.98	63707.04
544.15	63133.61
544.32	62740.40
544.48	62770.83
544.65	63304.47
544.82	63470.65
544.99	63061.05
545.16	62995.52
545.32	62649.12
545.49	63292.77
545.66	63793.64
545.83	63323.19
546.00	62848.06
546.16	62827.00
546.33	62843.38
546.50	62958.07
546.67	63512.78
546.83	62754.44
547.00	62709.97
547.17	62391.66
547.34	61834.61
547.50	61883.76
547.67	62143.56
547.84	62178.67
548.00	62527.41
548.17	63119.57
548.34	62836.36
548.51	62944.03
548.67	62848.06
548.84	62960.41
549.01	62862.11
549.18	62805.94
549.34	62803.59
549.51	62660.82
549.68	62639.76
549.84	62518.05
550.01	62368.26
550.18	62354.21
550.34	62452.51
550.51	62445.49
550.68	62606.99
550.84	61982.07
551.01	62202.08
551.18	62262.93
551.34	62405.70
551.51	62560.18
551.68	62995.52
551.84	62967.43
552.01	62756.78
552.18	62592.95
552.34	61813.55
552.51	61626.31
552.68	61682.48
552.84	62033.56
553.01	62246.55
553.18	61911.85
553.34	62389.32
553.51	62347.19
553.67	62454.86
553.84	62766.15
554.01	62595.29
554.17	62447.83
554.34	62609.33
554.51	62656.14
554.67	63063.39
554.84	62808.28
555.00	62543.80
555.17	62185.69
555.33	62159.95
555.50	62026.54
555.67	62120.16
555.83	62052.28
556.00	61836.95
556.16	61904.83
556.33	61661.41
556.50	61462.47
556.66	61638.01
556.83	61095.00
556.99	61298.63
557.16	61532.68
557.32	61682.48
557.49	62087.39
557.65	61918.87
557.82	61654.39
557.98	61619.28
558.15	61024.79
558.32	60893.72
558.48	59966.87
558.65	60072.19
558.81	60285.18
558.98	60722.86
559.14	60711.16
559.31	60940.53
559.47	60882.02
559.64	60544.98
559.80	60264.11
559.97	60392.84
560.13	60830.52
560.30	61520.98
560.46	62054.62
560.63	62141.22
560.79	62066.33
560.96	61649.71
561.12	60860.95
561.29	60027.72
561.45	60233.69
561.61	60631.58
561.78	60996.70
561.94	60645.62
562.11	60863.29
562.27	60809.46
562.44	60886.70
562.60	61284.59
562.77	61565.45
562.93	61436.72
563.10	61305.65
563.26	60837.54
563.42	60748.60
563.59	60624.56
563.75	60549.66
563.92	60734.56
564.08	60479.44
564.24	60804.78
564.41	60959.25
564.57	60844.57
564.74	60807.12
564.90	60528.59
565.07	60416.25
565.23	60268.79
565.39	59636.85
565.56	59531.53
565.72	59311.52
565.88	59707.07
566.05	59845.16
566.21	59859.20
566.38	60041.76
566.54	60095.60
566.70	60437.31
566.87	60530.93
567.03	60673.71
567.19	60889.04
567.36	60563.70
567.52	60512.21
567.68	60205.60
567.85	59451.95
568.01	59536.21
568.17	59339.60
568.34	59182.79
568.50	59032.99
568.66	59128.95
568.83	59374.71
568.99	59674.30
569.15	59763.24
569.32	59533.87
569.48	59344.28
569.64	59353.65
569.81	59344.28
569.97	58939.37
570.13	58824.68
570.30	58314.45
570.46	58157.63
570.62	57827.62
570.78	57855.70
570.95	57876.77
571.11	58740.42
571.27	58904.26
571.43	58841.07
571.60	59185.13
571.76	59480.03
571.92	59824.09
572.09	59735.15
572.25	59543.23
572.41	59688.34
572.57	59512.80
572.74	59487.06
572.90	59030.65
573.06	59192.15
573.22	59126.61
573.38	59437.90
573.55	59245.98
573.71	59377.05
573.87	59330.24
574.03	59110.23
574.20	58934.69
574.36	58562.54
574.52	58679.57
574.68	58438.50
574.84	58253.59
575.01	58066.35
575.17	57521.01
575.33	58220.83
575.49	58471.26
575.65	58445.52
575.82	58255.93
575.98	57900.17
576.14	58010.18
576.30	58567.23
576.46	58693.61
576.62	58487.65
576.79	58454.88
576.95	58073.37
577.11	58064.01
577.27	58408.07
577.43	58255.93
577.59	57799.53
577.75	57635.69
577.92	57190.99
578.08	56970.98
578.24	56999.07
578.40	57080.98
578.56	57598.24
578.72	57439.09
578.88	57773.78
579.04	57614.63
579.21	58054.65
579.37	57935.28
579.53	57900.17
579.69	57872.09
579.85	57996.13
580.01	57965.71
580.17	57591.22
580.33	57256.53
580.49	57322.06
580.65	57748.04
580.82	58019.54
580.98	57790.17
581.14	57848.68
581.30	57855.70
581.46	57703.57
581.62	57865.06
581.78	57858.04
581.94	58302.74
582.10	58124.86
582.26	57930.60
582.42	57942.30
582.58	58148.27
582.74	57893.15
582.90	58031.24
583.06	57794.85
583.22	57834.64
583.38	57750.38
583.54	57942.30
583.70	57523.35
583.86	57755.06
584.02	57675.48
584.18	57972.73
584.34	57715.27
584.50	57525.69
584.66	57633.35
584.82	57116.09
584.98	57013.11
585.14	56793.10
