SpectraSuite Data File
++++++++++++++++++++++++++++++++++++
Date: Mon Oct 07 14:53:53 GMT-05:00 2013
User: price-jones
Dark Spectrum Present: No
Reference Spectrum Present: No
Number of Sampled Component Spectra: 1
Spectrometers: USB2+H05261
Integration Time (usec): 100000 (USB2+H05261)
Spectra Averaged: 1 (USB2+H05261)
Boxcar Smoothing: 0 (USB2+H05261)
Correct for Electrical Dark: No (USB2+H05261)
Strobe/Lamp Enabled: No (USB2+H05261)
Correct for Detector Non-linearity: No (USB2+H05261)
Correct for Stray Light: No (USB2+H05261)
Number of Pixels in Processed Spectrum: 2048
>>>>>Begin Processed Spectral Data<<<<<
365.73	0.00
365.92	0.00
366.12	0.00
366.32	0.00
366.52	0.00
366.72	0.00
366.91	0.00
367.11	0.00
367.31	0.00
367.51	0.00
367.70	0.00
367.90	0.00
368.10	0.00
368.30	0.00
368.49	0.00
368.69	0.00
368.89	0.00
369.09	0.00
369.28	0.00
369.48	0.00
369.68	0.00
369.87	0.00
370.07	0.00
370.27	0.00
370.47	442.36
370.66	2745.45
370.86	3234.62
371.06	3653.58
371.25	3646.55
371.45	3265.05
371.65	2874.18
371.84	2691.62
372.04	2839.07
372.24	3145.68
372.44	3318.88
372.63	3262.71
372.83	3112.91
373.03	2747.79
373.22	2506.71
373.42	2616.72
373.62	3098.87
373.81	3309.52
374.01	3258.03
374.21	2925.67
374.40	2717.36
374.60	3052.06
374.79	3201.85
374.99	3889.97
375.19	4081.89
375.38	4051.47
375.58	3801.03
375.78	3794.01
375.97	3882.95
376.17	3894.65
376.37	3999.98
376.56	4203.60
376.76	4346.37
376.95	4528.94
377.15	4957.25
377.35	5151.52
377.54	5392.59
377.74	5490.90
377.93	5495.58
378.13	5308.34
378.33	4933.85
378.52	4847.25
378.72	4463.40
378.91	4348.72
379.11	4252.75
379.31	4039.76
379.50	4035.08
379.70	4315.95
379.89	4873.00
380.09	5291.95
380.28	5247.48
380.48	5341.10
380.68	5118.75
380.87	5062.58
381.07	4739.58
381.26	4369.78
381.46	4184.88
381.65	4051.47
381.85	3836.14
382.04	3625.49
382.24	3433.57
382.43	3353.99
382.63	3180.79
382.83	3145.68
383.02	3365.69
383.22	3183.13
383.41	3234.62
383.61	3487.40
383.80	4028.06
384.00	4386.16
384.19	4990.02
384.39	5322.38
384.58	5156.20
384.78	5118.75
384.97	5076.62
385.17	4947.89
385.36	4741.93
385.56	4486.81
385.75	4608.51
385.95	4959.60
386.14	5462.81
386.34	5378.55
386.53	5144.50
386.72	4814.48
386.92	4765.33
387.11	5320.04
387.31	5521.32
387.50	5310.68
387.70	5160.88
387.89	5142.16
388.09	5167.90
388.28	5366.85
388.48	5282.59
388.67	5598.56
388.86	6162.63
389.06	6621.38
389.25	7105.87
389.45	7178.42
389.64	7166.72
389.84	6974.80
390.03	6937.35
390.22	6829.68
390.42	7047.35
390.61	7475.67
390.81	8194.22
391.00	8241.03
391.19	8182.51
391.39	7983.57
391.58	7513.12
391.78	6977.14
391.97	6752.45
392.16	6317.11
392.36	5839.64
392.55	4704.48
392.75	3770.60
392.94	2963.12
393.13	2974.82
393.33	3496.76
393.52	4512.55
393.71	5570.48
393.91	6071.35
394.10	6850.75
394.29	7618.44
394.49	7817.39
394.68	8608.49
394.88	8535.93
395.07	8973.61
395.26	8830.84
395.46	8800.41
395.65	8079.53
395.84	7115.23
396.04	6099.44
396.23	4877.68
396.42	4028.06
396.62	3833.80
396.81	4447.02
397.00	5781.12
397.19	7300.13
397.39	8482.10
397.58	9764.72
397.77	10127.50
397.97	10609.65
398.16	10754.76
398.35	11267.34
398.55	11562.25
398.74	11896.94
398.93	12039.72
399.12	12126.32
399.32	11548.20
399.51	11868.86
399.70	12674.00
399.90	12580.38
400.09	12798.05
400.28	12222.28
400.47	12564.00
400.67	13301.26
400.86	13668.73
401.05	13343.39
401.24	13563.40
401.44	13923.85
401.63	13785.76
401.82	13886.40
402.01	13792.78
402.21	13942.57
402.40	14036.19
402.59	13640.64
402.78	13078.91
402.97	12645.91
403.17	13137.43
403.36	13970.66
403.55	14682.18
403.74	14576.86
403.93	13891.08
404.13	13081.25
404.32	12645.91
404.51	13107.00
404.70	14239.82
404.89	14122.79
405.09	14136.84
405.28	13673.41
405.47	13724.90
405.66	13671.07
405.85	13266.16
406.05	12894.01
406.24	13217.01
406.43	13673.41
406.62	14195.35
406.81	13975.34
407.00	13605.53
407.20	13228.71
407.39	13561.06
407.58	14127.47
407.77	14476.21
407.96	14991.13
408.15	15206.46
408.34	15370.30
408.54	16243.32
408.73	16311.19
408.92	16027.99
409.11	15585.63
409.30	14817.93
409.49	14010.45
409.68	12966.57
409.87	12573.36
410.07	13324.67
410.26	14499.62
410.45	15372.64
410.64	15679.25
410.83	16051.39
411.02	16491.41
411.21	17106.98
411.40	16816.75
411.59	17139.74
411.78	16964.20
411.98	16732.49
412.17	17090.59
412.36	16493.76
412.55	16861.22
412.74	16554.61
412.93	15983.52
413.12	16299.49
413.31	17855.95
413.50	18043.19
413.69	18272.56
413.88	17301.24
414.07	16816.75
414.26	17088.25
414.45	17977.65
414.64	17631.26
414.83	17806.80
415.02	17488.48
415.22	17542.32
415.41	17916.80
415.60	18581.51
415.79	19236.86
415.98	19665.18
416.17	19550.49
416.36	19260.27
416.55	19178.35
416.74	17940.21
416.93	17769.35
417.12	17474.44
417.31	18019.78
417.50	18228.09
417.69	18897.49
417.88	18864.72
418.07	18249.16
418.26	18270.22
418.45	18499.59
418.64	18876.42
418.83	19676.88
419.02	19723.69
419.21	19438.15
419.39	18345.12
419.58	17661.68
419.77	17921.48
419.96	18118.09
420.15	19555.18
420.34	20137.97
420.53	20751.19
420.72	21207.59
420.91	20776.94
421.10	20432.88
421.29	20563.95
421.48	19850.08
421.67	20781.62
421.86	20252.66
422.05	18836.63
422.24	17085.91
422.43	16580.36
422.61	18272.56
422.80	19864.13
422.99	20091.16
423.18	19363.25
423.37	18670.45
423.56	18707.90
423.75	19119.84
423.94	19803.27
424.13	18719.60
424.32	18754.71
424.50	18487.89
424.69	18534.70
424.88	19080.05
425.07	18492.57
425.26	18574.49
425.45	18600.24
425.64	17816.16
425.83	17834.88
426.01	19323.46
426.20	19463.90
426.39	19403.04
426.58	18104.04
426.77	16751.21
426.96	16107.57
427.15	16638.87
427.33	18338.10
427.52	18822.59
427.71	18874.08
427.90	18806.20
428.09	18885.78
428.28	18040.85
428.46	17525.93
428.65	17249.75
428.84	17790.41
429.03	18087.66
429.22	16851.86
429.40	16004.58
429.59	14534.73
429.78	12952.52
429.97	13041.46
430.16	13123.38
430.34	12898.69
430.53	13078.91
430.72	13540.00
430.91	14705.59
431.10	17298.90
431.28	20432.88
431.47	21858.26
431.66	22548.72
431.85	20191.80
432.03	18782.80
432.22	18064.25
432.41	18824.93
432.60	20788.64
432.79	21600.80
432.97	22225.73
433.16	21532.93
433.35	19646.46
433.54	17748.28
433.72	16732.49
433.91	17252.09
434.10	19194.73
434.28	20620.12
434.47	21570.38
434.66	21149.08
434.85	20798.00
435.03	20730.12
435.22	21303.56
435.41	22555.74
435.59	22703.20
435.78	22850.65
435.97	23470.89
436.16	23690.90
436.34	23096.41
436.53	22675.11
436.72	22747.67
436.90	21298.88
437.09	21619.53
437.28	20744.17
437.46	21841.88
437.65	21757.62
437.84	20517.14
438.02	19005.15
438.21	18494.91
438.40	19873.49
438.58	20992.26
438.77	21738.90
438.96	22068.91
439.14	23014.49
439.33	23204.07
439.52	23651.11
439.70	23374.93
439.89	22773.41
440.08	22354.46
440.26	22171.89
440.45	22960.66
440.63	23983.47
440.82	25401.83
441.01	25331.62
441.19	25240.34
441.38	25284.81
441.57	26831.90
441.75	26663.38
441.94	27080.00
442.12	26508.91
442.31	26827.22
442.50	26829.56
442.68	26492.52
442.87	26288.90
443.05	26122.72
443.24	26684.45
443.43	26913.82
443.61	27487.25
443.80	27903.87
443.98	26295.92
444.17	26005.69
444.35	27751.73
444.54	28041.96
444.73	27552.79
444.91	26827.22
445.10	25818.45
445.28	24617.75
445.47	23950.70
445.65	24648.18
445.84	25266.08
446.02	26209.32
446.21	26319.32
446.39	26544.02
446.58	26834.24
446.77	27288.31
446.95	27278.94
447.14	28109.83
447.32	28690.29
447.51	27821.95
447.69	27225.11
447.88	26632.96
448.06	26859.99
448.25	27639.39
448.43	27484.91
448.62	27234.47
448.80	26911.48
448.99	27091.70
449.17	27344.48
449.36	27662.79
449.54	28636.45
449.73	29074.13
449.91	29582.03
450.10	30333.34
450.28	30525.27
450.46	30333.34
450.65	30064.18
450.83	29996.31
451.02	29628.84
451.20	28863.49
451.39	29497.77
451.57	29097.54
451.76	28755.82
451.94	28943.06
452.13	28217.50
452.31	27000.42
452.49	25771.64
452.68	26059.52
452.86	26036.12
453.05	26668.06
453.23	27370.22
453.42	27793.86
453.60	28570.92
453.78	28634.11
453.97	28730.08
454.15	28444.53
454.34	27793.86
454.52	28030.26
454.70	27669.81
454.89	28081.75
455.07	27896.85
455.26	28573.26
455.44	29418.19
455.62	29734.17
455.81	29928.43
455.99	29998.65
456.17	29397.13
456.36	29371.38
456.54	30071.20
456.73	30192.91
456.91	31023.80
457.09	30979.33
457.28	31412.33
457.46	30136.74
457.64	29909.71
457.83	29418.19
458.01	28510.07
458.19	29373.72
458.38	29748.21
458.56	30209.29
458.74	29919.07
458.93	29460.32
459.11	29666.29
459.29	29312.87
459.48	29766.93
459.66	29200.52
459.84	30113.33
460.03	30600.16
460.21	30396.54
460.39	31119.76
460.57	31042.53
460.76	31550.42
460.94	31690.85
461.12	30712.51
461.31	31541.06
461.49	31232.11
461.67	30859.96
461.85	31957.67
462.04	31772.77
462.22	32341.52
462.40	32173.00
462.59	31641.70
462.77	31995.12
462.95	31459.14
463.13	31384.24
463.32	31227.43
463.50	30859.96
463.68	30792.09
463.86	30920.82
464.05	30555.69
464.23	29963.54
464.41	29680.33
464.59	29324.57
464.78	30960.61
464.96	30759.32
465.14	30263.13
465.32	31229.77
465.50	32016.19
465.69	32130.87
465.87	31267.22
466.05	30433.99
466.23	29200.52
466.41	28353.25
466.60	29488.41
466.78	28917.32
466.96	29846.51
467.14	30331.00
467.32	30749.96
467.51	30691.44
467.69	29120.95
467.87	30223.34
468.05	30490.16
468.23	30609.53
468.41	30485.48
468.60	30871.67
468.78	31236.79
468.96	30595.48
469.14	31189.98
469.32	31562.12
469.50	30204.61
469.69	30267.81
469.87	29652.25
470.05	30036.09
470.23	29474.37
470.41	30113.33
470.59	30696.13
470.77	30609.53
470.95	30918.48
471.14	31536.38
471.32	31358.50
471.50	32863.46
471.68	33457.96
471.86	33481.36
472.04	34181.18
472.22	33329.23
472.40	32247.90
472.58	31917.89
472.77	31140.83
472.95	31803.20
473.13	32917.29
473.31	31880.44
473.49	32119.17
473.67	32858.78
473.85	32741.75
474.03	33881.60
474.21	33804.36
474.39	34394.17
474.57	34436.30
474.75	34235.02
474.93	34082.88
475.12	32924.32
475.30	33809.04
475.48	33399.44
475.66	33738.82
475.84	33659.24
476.02	33462.64
476.20	32582.60
476.38	33432.21
476.56	34738.23
476.74	35108.04
476.92	35442.73
477.10	35562.10
477.28	36786.20
477.46	36451.50
477.64	37038.98
477.82	36837.69
478.00	37350.27
478.18	36617.68
478.36	36685.56
478.54	36519.38
478.72	36797.90
478.90	37368.99
479.08	38895.02
479.26	39105.67
479.44	39056.52
479.62	38387.13
479.80	38721.82
479.98	39173.55
480.16	39105.67
480.34	38824.81
480.52	39248.44
480.70	39398.24
480.88	39590.16
481.06	40196.36
481.24	40552.12
481.41	41167.68
481.59	42040.70
481.77	41551.53
481.95	40821.28
482.13	40889.16
482.31	41111.51
482.49	41532.81
482.67	40973.42
482.85	41591.32
483.03	42403.49
483.21	43030.75
483.39	42831.80
483.57	42131.98
483.74	41364.29
483.92	41989.21
484.10	41759.84
484.28	43683.76
484.46	43426.30
484.64	43796.10
484.82	42756.91
485.00	42604.77
485.18	41968.15
485.35	40409.35
485.53	37429.85
485.71	34501.84
485.89	33535.20
486.07	35658.06
486.25	38471.39
486.43	40591.91
486.61	41680.26
486.78	41474.29
486.96	41710.69
487.14	43594.82
487.32	44163.57
487.50	45546.82
487.68	46117.92
487.85	46693.69
488.03	46827.10
488.21	46506.44
488.39	45937.69
488.57	44999.14
488.75	43959.94
488.92	45860.46
489.10	48189.29
489.28	49759.79
489.46	50375.35
489.64	50181.09
489.81	50305.13
489.99	49605.31
490.17	49914.26
490.35	50291.09
490.53	49813.62
490.70	49567.87
490.88	49233.17
491.06	50258.32
491.24	50244.28
491.41	49057.63
491.59	47180.52
491.77	46174.09
491.95	47775.02
492.13	49132.53
492.30	50527.48
492.48	51615.83
492.66	51852.23
492.84	52079.26
493.01	51728.18
493.19	50974.53
493.37	50656.21
493.54	50637.49
493.72	51030.70
493.90	52264.16
494.08	52933.56
494.25	53275.27
494.43	53481.24
494.61	53663.80
494.79	54000.84
494.96	53556.14
495.14	53183.99
495.32	52184.58
495.49	50904.31
495.67	52956.96
495.85	53853.39
496.02	54312.13
496.20	54237.23
496.38	53684.87
496.55	53876.79
496.73	54319.15
496.91	54216.17
497.09	54986.21
497.26	55271.75
497.44	54372.99
497.62	54232.55
497.79	53073.99
497.97	51987.98
498.14	51660.30
498.32	53329.11
498.50	54377.67
498.67	54642.15
498.85	54642.15
499.03	54611.72
499.20	54862.16
499.38	55065.78
499.56	54834.07
499.73	54553.21
499.91	53797.21
500.08	53450.81
500.26	52341.40
500.44	53169.95
500.61	53872.11
500.79	53698.91
500.97	53165.27
501.14	52912.49
501.32	52889.09
501.49	52800.15
501.67	53230.80
501.84	53619.33
502.02	54059.35
502.20	54377.67
502.37	54534.48
502.55	54501.71
502.72	55016.63
502.90	55714.11
503.07	55227.28
503.25	55009.61
503.43	54031.27
503.60	53298.68
503.78	52547.37
503.95	52809.51
504.13	54574.27
504.30	55620.49
504.48	55175.79
504.65	54904.29
504.83	54600.02
505.01	55423.89
505.18	55868.59
505.36	56390.53
505.53	56442.02
505.71	56870.34
505.88	56725.22
506.06	56104.98
506.23	55847.52
506.41	55517.51
506.58	55824.12
506.76	55569.00
506.93	55641.56
507.11	55313.88
507.28	55653.26
507.46	54824.71
507.63	54333.20
507.81	54220.85
507.98	54513.42
508.16	55168.77
508.33	55859.23
508.50	56130.73
508.68	56519.26
508.85	56561.39
509.03	56839.91
509.20	56849.27
509.38	56182.22
509.55	55056.42
509.73	55131.32
509.90	55887.31
510.08	55957.53
510.25	56109.66
510.42	55753.90
510.60	55536.23
510.77	56104.98
510.95	56741.61
511.12	56580.11
511.30	57123.11
511.47	57212.06
511.64	57237.80
511.82	57130.14
511.99	56240.73
512.17	55590.06
512.34	55334.95
512.51	55402.82
512.69	55618.15
512.86	55700.07
513.04	56182.22
513.21	56182.22
513.38	56032.42
513.56	55234.30
513.73	54497.03
513.90	54670.23
514.08	54815.35
514.25	55400.48
514.43	55437.93
514.60	55576.02
514.77	55732.84
514.95	55821.78
515.12	55903.70
515.29	56350.74
515.47	56437.34
515.64	56980.34
515.81	56282.86
515.99	55674.32
516.16	54251.28
516.33	51625.20
516.51	49834.69
516.68	49310.41
516.85	48699.53
517.03	48954.64
517.20	51934.15
517.37	54555.55
517.54	55873.27
517.72	55253.03
517.89	52671.42
518.06	50122.57
518.24	50153.00
518.41	52664.39
518.58	54251.28
518.75	54543.84
518.93	54782.58
519.10	54447.88
519.27	55023.65
519.45	55112.59
519.62	56065.19
519.79	56477.13
519.96	56200.94
520.14	55760.92
520.31	54848.11
520.48	54571.93
520.65	55136.00
520.83	55873.27
521.00	56596.49
521.17	56189.24
521.34	55744.54
521.52	56060.51
521.69	56629.26
521.86	56886.72
522.03	56687.78
522.20	55477.72
522.38	54426.82
522.55	54504.06
522.72	55002.59
522.89	55058.76
523.07	55447.29
523.24	55891.99
523.41	56736.93
523.58	56846.93
523.75	57462.49
523.92	57528.03
524.10	57375.89
524.27	57188.65
524.44	57010.77
524.61	56879.70
524.78	56540.32
524.96	56310.95
525.13	56186.90
525.30	56612.88
525.47	57305.68
525.64	57251.84
525.81	56339.04
525.98	54981.52
526.16	53361.87
526.33	52355.44
526.50	52158.84
526.67	51559.66
526.84	52671.42
527.01	53516.35
527.18	54548.53
527.36	55489.42
527.53	56119.02
527.70	56463.08
527.87	56154.13
528.04	55559.64
528.21	56128.39
528.38	56624.58
528.55	57521.01
528.72	57373.55
528.89	57848.68
529.07	57403.98
529.24	56952.26
529.41	55971.57
529.58	55482.40
529.75	55632.19
529.92	55955.19
530.09	56549.68
530.26	56996.73
530.43	57450.79
530.60	57474.20
530.77	57558.45
530.94	57523.35
531.11	57265.89
531.28	56769.69
531.46	56631.60
531.63	56622.24
531.80	56638.62
531.97	56261.80
532.14	55608.79
532.31	54307.45
532.48	53820.62
532.65	53514.01
532.82	54693.64
532.99	55931.78
533.16	56062.85
533.33	56816.50
533.50	56584.79
533.67	55941.14
533.84	55421.55
534.01	55721.13
534.18	55648.58
534.35	56097.96
534.52	56067.53
534.69	56240.73
534.86	56458.40
535.03	56638.62
535.20	56928.85
535.37	57401.64
535.54	57666.12
535.71	57373.55
535.88	56942.89
536.05	56156.47
536.22	55922.42
536.38	55845.18
536.55	55119.62
536.72	54335.54
536.89	54284.04
537.06	55290.48
537.23	56292.22
537.40	56395.21
537.57	56435.00
537.74	56207.97
537.91	56006.68
538.08	56259.46
538.25	56023.06
538.42	56346.06
538.59	55971.57
538.75	55302.18
538.92	55332.60
539.09	54960.46
539.26	55037.70
539.43	54377.67
539.60	54761.51
539.77	54960.46
539.94	54733.43
540.11	54167.02
540.28	53296.34
540.44	53638.06
540.61	53736.36
540.78	53925.94
540.95	54618.74
541.12	54923.01
541.29	55114.94
541.46	55622.83
541.62	55676.66
541.79	55248.35
541.96	54607.04
542.13	54567.25
542.30	55018.97
542.47	55269.41
542.63	55030.68
542.80	54679.60
542.97	55063.44
543.14	54766.20
543.31	54784.92
543.48	55356.01
543.64	56189.24
543.81	56416.27
543.98	56217.33
544.15	55585.38
544.32	54836.41
544.48	55100.89
544.65	55337.29
544.82	55793.69
544.99	55512.83
545.16	55054.08
545.32	54972.16
545.49	55664.96
545.66	56243.07
545.83	55906.04
546.00	55475.38
546.16	54878.54
546.33	54841.09
546.50	55065.78
546.67	55461.33
546.83	55040.04
547.00	55166.43
547.17	54358.94
547.34	53785.51
547.50	53535.07
547.67	54110.85
547.84	54190.42
548.00	54607.04
548.17	55341.97
548.34	55147.70
548.51	54967.48
548.67	55103.23
548.84	55267.07
549.01	55035.36
549.18	55028.34
549.34	54801.30
549.51	54913.65
549.68	54815.35
549.84	54653.85
550.01	54541.50
550.18	54005.52
550.34	54237.23
550.51	54529.80
550.68	54801.30
550.84	54181.06
551.01	53961.05
551.18	54190.42
551.34	54309.79
551.51	54880.88
551.68	54955.78
551.84	55065.78
552.01	54808.32
552.18	54763.85
552.34	53844.02
552.51	53329.11
552.68	53282.30
552.84	53790.19
553.01	54183.40
553.18	54047.65
553.34	54075.74
553.51	54272.34
553.67	54569.59
553.84	54499.37
554.01	54431.50
554.17	54199.79
554.34	54506.40
554.51	54244.26
554.67	54780.24
554.84	54637.47
555.00	54415.11
555.17	54101.48
555.33	54075.74
555.50	53956.37
555.67	54204.47
555.83	53635.72
556.00	53701.25
556.16	53563.16
556.33	52795.46
556.50	52734.61
556.66	52844.62
556.83	52341.40
556.99	52701.84
557.16	52800.15
557.32	53415.71
557.49	53312.72
557.65	53286.98
557.82	53563.16
557.98	53127.82
558.15	52561.41
558.32	51866.27
558.48	50876.22
558.65	51323.27
558.81	51583.07
558.98	51817.12
559.14	52172.88
559.31	52411.62
559.47	52062.88
559.64	52055.85
559.80	51505.83
559.97	51330.29
560.13	51812.44
560.30	53071.65
560.46	53579.54
560.63	53654.44
560.79	53832.32
560.96	53289.32
561.12	51856.91
561.29	51126.66
561.45	50965.17
561.61	51847.55
561.78	52381.19
561.94	51828.82
562.11	52076.92
562.27	51915.42
562.44	51789.03
562.60	52545.03
562.77	53038.88
562.93	52640.99
563.10	52526.30
563.26	51938.83
563.42	51599.45
563.59	51573.70
563.75	51484.76
563.92	51917.76
564.08	51718.82
564.24	51962.23
564.41	52088.62
564.57	52037.13
564.74	51765.63
564.90	51611.15
565.07	51302.20
565.23	51105.60
565.39	50560.25
565.56	49904.90
565.72	49677.87
565.88	49989.16
566.05	50539.19
566.21	50581.32
566.38	50759.20
566.54	51033.04
566.70	51267.09
566.87	51746.90
567.03	51466.04
567.19	51676.69
567.36	51470.72
567.52	51138.36
567.68	51234.33
567.85	50237.26
568.01	50080.44
568.17	49333.81
568.34	49605.31
568.50	49556.16
568.66	49598.29
568.83	49923.63
568.99	50007.89
569.15	50199.81
569.32	50042.99
569.48	49951.71
569.64	49944.69
569.81	49359.56
569.97	49153.59
570.13	48907.83
570.30	48505.26
570.46	47997.37
570.62	47475.43
570.78	46894.97
570.95	47622.88
571.11	48687.82
571.27	48582.50
571.43	48933.58
571.60	49315.09
571.76	49521.05
571.92	49595.95
572.09	50071.08
572.25	49862.77
572.41	49853.41
572.57	49822.98
572.74	49783.19
572.90	49240.19
573.06	49125.50
573.22	49434.45
573.38	49282.32
573.55	49242.53
573.71	49404.03
573.87	49471.90
574.03	49317.43
574.20	49076.35
574.36	48626.97
574.52	48912.52
574.68	48034.81
574.84	48243.12
575.01	47299.89
575.17	47056.47
575.33	47498.83
575.49	48273.55
575.65	48388.24
575.82	47732.89
575.98	47597.13
576.14	47943.53
576.30	48142.48
576.46	48423.34
576.62	48208.01
576.79	48011.41
576.95	48032.47
577.11	47529.26
577.27	47959.92
577.43	47522.24
577.59	47505.85
577.75	47044.77
577.92	45998.55
578.08	46120.26
578.24	45689.60
578.40	46150.68
578.56	46754.54
578.72	47023.70
578.88	47187.54
579.04	47217.97
579.21	47089.24
579.37	47086.90
579.53	47189.88
579.69	47285.84
579.85	47566.71
580.01	47381.80
580.17	46684.33
580.33	46632.83
580.49	46541.55
580.65	47000.30
580.82	47054.13
580.98	47360.74
581.14	46916.04
581.30	47220.31
581.46	46904.34
581.62	47641.60
581.78	47313.93
581.94	47267.12
582.10	47334.99
582.26	47400.53
582.42	47466.06
582.58	47540.96
582.74	47597.13
582.90	47810.12
583.06	47533.94
583.22	47395.85
583.38	47103.28
583.54	46862.21
583.70	46707.73
583.86	47107.96
584.02	46827.10
584.18	46796.67
584.34	46412.82
584.50	46375.37
584.66	46019.61
584.82	46178.77
584.98	46321.54
585.14	45319.79
585.30	44687.85
