SpectraSuite Data File
++++++++++++++++++++++++++++++++++++
Date: Mon Oct 07 14:53:39 GMT-05:00 2013
User: price-jones
Dark Spectrum Present: No
Reference Spectrum Present: No
Number of Sampled Component Spectra: 1
Spectrometers: USB2+H05261
Integration Time (usec): 100000 (USB2+H05261)
Spectra Averaged: 1 (USB2+H05261)
Boxcar Smoothing: 0 (USB2+H05261)
Correct for Electrical Dark: No (USB2+H05261)
Strobe/Lamp Enabled: No (USB2+H05261)
Correct for Detector Non-linearity: No (USB2+H05261)
Correct for Stray Light: No (USB2+H05261)
Number of Pixels in Processed Spectrum: 2048
>>>>>Begin Processed Spectral Data<<<<<
365.73	0.00
365.92	0.00
366.12	0.00
366.32	0.00
366.52	0.00
366.72	0.00
366.91	0.00
367.11	0.00
367.31	0.00
367.51	0.00
367.70	0.00
367.90	0.00
368.10	0.00
368.30	0.00
368.49	0.00
368.69	0.00
368.89	0.00
369.09	0.00
369.28	0.00
369.48	0.00
369.68	0.00
369.87	0.00
370.07	0.00
370.27	0.00
370.47	299.59
370.66	1490.92
370.86	1837.32
371.06	2038.61
371.25	2176.70
371.45	1905.20
371.65	1614.97
371.84	1554.12
372.04	1535.39
372.24	1839.66
372.44	1900.52
372.63	1834.98
372.83	1781.15
373.03	1500.28
373.22	1331.76
373.42	1516.67
373.62	1753.06
373.81	1970.73
374.01	1834.98
374.21	1682.85
374.40	1565.82
374.60	1605.61
374.79	1797.53
374.99	2200.10
375.19	2282.02
375.38	2389.69
375.58	2216.49
375.78	2143.93
375.97	2200.10
376.17	2403.73
376.37	2328.83
376.56	2345.22
376.76	2450.54
376.95	2719.70
377.15	2932.69
377.35	2916.31
377.54	2984.18
377.74	3169.09
377.93	3171.43
378.13	3133.98
378.33	2937.37
378.52	2689.28
378.72	2581.61
378.91	2541.82
379.11	2420.11
379.31	2368.62
379.50	2349.90
379.70	2562.89
379.89	2850.77
380.09	2963.12
380.28	3150.36
380.48	3084.83
380.68	2958.44
380.87	3059.08
381.07	2759.49
381.26	2394.37
381.46	2420.11
381.65	2399.05
381.85	2202.44
382.04	2090.10
382.24	1893.49
382.43	1797.53
382.63	1802.21
382.83	1832.64
383.02	1933.28
383.22	1844.34
383.41	1881.79
383.61	1996.48
383.80	2380.32
384.00	2497.35
384.19	2913.97
384.39	3073.12
384.58	3030.99
384.78	3087.17
384.97	2967.80
385.17	2939.71
385.36	2668.21
385.56	2504.37
385.75	2684.59
385.95	2832.05
386.14	3260.37
386.34	3098.87
386.53	3052.06
386.72	2935.03
386.92	2984.18
387.11	2979.50
387.31	3148.02
387.50	3103.55
387.70	2986.52
387.89	3002.91
388.09	3016.95
388.28	2979.50
388.48	3038.02
388.67	3346.97
388.86	3646.55
389.06	4002.32
389.25	4184.88
389.45	4131.05
389.64	4313.61
389.84	4259.78
390.03	4100.62
390.22	3997.64
390.42	4081.89
390.61	4325.31
390.81	4816.82
391.00	4985.34
391.19	4826.18
391.39	4613.20
391.58	4407.23
391.78	4140.41
391.97	4023.38
392.16	3632.51
392.36	3295.47
392.55	2675.23
392.75	2115.84
392.94	1715.61
393.13	1715.61
393.33	2036.27
393.52	2614.38
393.71	3155.04
393.91	3667.62
394.10	4058.49
394.29	4290.20
394.49	4568.73
394.68	5102.37
394.88	5015.77
395.07	5116.41
395.26	5123.43
395.46	5036.83
395.65	4760.65
395.84	4037.42
396.04	3431.23
396.23	2892.90
396.42	2314.79
396.62	2338.20
396.81	2581.61
397.00	3433.57
397.19	4430.63
397.39	5163.22
397.58	5834.96
397.77	6134.54
397.97	6274.98
398.16	6478.60
398.35	6848.41
398.55	6942.03
398.74	7185.44
398.93	7342.26
399.12	7363.33
399.32	7007.56
399.51	7232.26
399.70	7644.19
399.90	7419.50
400.09	7548.23
400.28	7496.74
400.47	7396.09
400.67	7779.94
400.86	7974.21
401.05	7936.76
401.24	8175.49
401.44	8243.37
401.63	8231.66
401.82	8365.07
402.01	8166.13
402.21	8339.33
402.40	8381.46
402.59	8229.32
402.78	7859.52
402.97	7555.25
403.17	8100.59
403.36	8353.37
403.55	8854.25
403.74	8835.52
403.93	8486.78
404.13	7747.17
404.32	7571.63
404.51	8009.31
404.70	8664.66
404.89	8683.39
405.09	8524.23
405.28	8262.09
405.47	8205.92
405.66	8159.11
405.85	8056.12
406.05	7669.94
406.24	7824.41
406.43	8346.35
406.62	8365.07
406.81	8681.05
407.00	8299.54
407.20	8173.15
407.39	8175.49
407.58	8706.79
407.77	8990.00
407.96	9184.26
408.15	9240.44
408.34	9385.55
408.54	9607.90
408.73	9923.87
408.92	9741.31
409.11	9437.04
409.30	9006.38
409.49	8425.93
409.68	7646.53
409.87	7595.04
410.07	8081.87
410.26	8919.78
410.45	9252.14
410.64	9652.37
410.83	9811.53
411.02	10015.15
411.21	10382.62
411.40	10431.77
411.59	10281.97
411.78	10214.10
411.98	10181.33
412.17	10443.47
412.36	9991.75
412.55	10324.10
412.74	10040.90
412.93	9713.22
413.12	9907.49
413.31	10846.04
413.50	10906.90
413.69	11213.51
413.88	10782.85
414.07	10413.04
414.26	10490.28
414.45	10918.60
414.64	10949.03
414.83	10888.17
415.02	10572.20
415.22	10864.77
415.41	10867.11
415.60	11162.01
415.79	11740.13
415.98	11932.05
416.17	11889.92
416.36	11857.15
416.55	11265.00
416.74	11084.78
416.93	10656.46
417.12	10906.90
417.31	10717.31
417.50	11176.06
417.69	11393.73
417.88	11424.15
418.07	11171.38
418.26	11199.46
418.45	11272.02
418.64	11625.44
418.83	12100.57
419.02	11964.82
419.21	11817.36
419.39	11272.02
419.58	10874.13
419.77	10939.66
419.96	11398.41
420.15	11992.90
420.34	12468.03
420.53	12648.26
420.72	13095.30
420.91	12549.95
421.10	12826.14
421.29	12610.81
421.48	12287.81
421.67	12774.64
421.86	12304.20
422.05	11793.96
422.24	10258.57
422.43	10190.69
422.61	11330.53
422.80	12278.45
422.99	12432.93
423.18	11936.73
423.37	11705.02
423.56	11651.19
423.75	11676.93
423.94	12035.03
424.13	11550.54
424.32	11637.14
424.50	11538.84
424.69	11454.58
424.88	11597.35
425.07	11349.26
425.26	11665.23
425.45	11288.40
425.64	11192.44
425.83	11105.84
426.01	11756.51
426.20	12091.21
426.39	11962.48
426.58	11185.42
426.77	10331.12
426.96	9884.08
427.15	10183.67
427.33	11353.94
427.52	11592.67
427.71	11351.60
427.90	11545.86
428.09	11360.96
428.28	11384.37
428.46	10862.43
428.65	10724.33
428.84	10860.09
429.03	10918.60
429.22	10480.92
429.40	9954.30
429.59	8877.65
429.78	7833.77
429.97	8170.81
430.16	7892.29
430.34	8238.69
430.53	8060.80
430.72	8383.80
430.91	9411.29
431.10	10768.80
431.28	12837.84
431.47	13696.82
431.66	13977.68
431.85	12580.38
432.03	11648.85
432.22	11115.20
432.41	11719.06
432.60	12861.24
432.79	13252.11
432.97	13832.57
433.16	13490.85
433.35	12205.89
433.54	11082.44
433.72	10263.25
433.91	10668.16
434.10	11693.32
434.28	12908.05
434.47	13387.86
434.66	13296.58
434.85	12692.73
435.03	13011.04
435.22	13327.01
435.41	14129.81
435.59	14415.36
435.78	14019.81
435.97	14810.91
436.16	14815.59
436.34	14218.75
436.53	14094.71
436.72	14120.45
436.90	13631.28
437.09	13214.66
437.28	13118.70
437.46	13626.60
437.65	13362.12
437.84	12659.96
438.02	11379.68
438.21	11447.56
438.40	12039.72
438.58	13085.94
438.77	13537.66
438.96	13687.45
439.14	14434.08
439.33	14558.13
439.52	14766.44
439.70	14499.62
439.89	14569.83
440.08	13593.83
440.26	13631.28
440.45	14560.47
440.63	15243.91
440.82	16414.18
441.01	15793.94
441.19	15602.01
441.38	15782.23
441.57	16318.22
441.75	16973.56
441.94	17053.14
442.12	16500.78
442.31	17025.06
442.50	16727.81
442.68	16744.19
442.87	16470.35
443.05	16180.12
443.24	16446.94
443.43	16592.06
443.61	17060.16
443.80	17462.74
443.98	16519.50
444.17	16418.86
444.35	17708.49
444.54	17802.11
444.73	17572.74
444.91	16812.07
445.10	16121.61
445.28	15477.96
445.47	15152.63
445.65	15192.42
445.84	15929.69
446.02	16390.77
446.21	16430.56
446.39	16468.01
446.58	16964.20
446.77	17146.76
446.95	17146.76
447.14	17652.32
447.32	18134.47
447.51	17448.69
447.69	16795.68
447.88	16732.49
448.06	17046.12
448.25	17221.66
448.43	17610.19
448.62	17088.25
448.80	17057.82
448.99	16952.50
449.17	17280.18
449.36	17132.72
449.54	17736.58
449.73	18108.72
449.91	18445.76
450.10	19112.81
450.28	19143.24
450.46	19236.86
450.65	19126.86
450.83	18974.72
451.02	18478.53
451.20	18054.89
451.39	18345.12
451.57	18558.11
451.76	18335.76
451.94	18319.37
452.13	17666.36
452.31	17116.34
452.49	16283.11
452.68	16503.12
452.86	16697.38
453.05	16709.08
453.23	17214.64
453.42	17860.63
453.60	18237.45
453.78	18200.01
453.97	17841.90
454.15	18019.78
454.34	17273.15
454.52	17628.92
454.70	17495.50
454.89	17451.03
455.07	17774.03
455.26	18043.19
455.44	18794.50
455.62	19061.32
455.81	19110.47
455.99	18628.32
456.17	18853.02
456.36	18831.95
456.54	19417.08
456.73	19276.65
456.91	19714.33
457.09	19627.73
457.28	20072.43
457.46	19204.10
457.64	18970.04
457.83	18375.55
458.01	18207.03
458.19	18845.99
458.38	18747.69
458.56	19714.33
458.74	19129.20
458.93	19073.03
459.11	18506.62
459.29	18705.56
459.48	18925.57
459.66	18782.80
459.84	18960.68
460.03	19442.83
460.21	19199.41
460.39	20023.28
460.57	19665.18
460.76	19798.59
460.94	20114.56
461.12	19463.90
461.31	19831.36
461.49	19950.73
461.67	19700.29
461.85	20353.30
462.04	19983.49
462.22	20772.25
462.40	20357.98
462.59	20063.07
462.77	20086.48
462.95	20175.42
463.13	19777.53
463.32	19838.38
463.50	19672.20
463.68	19775.19
463.86	19601.99
464.05	19534.11
464.23	19220.48
464.41	19307.08
464.59	18747.69
464.78	19910.94
464.96	19398.36
465.14	19290.70
465.32	19847.74
465.50	20795.66
465.69	20362.66
465.87	20187.12
466.05	19491.98
466.23	18874.08
466.41	18450.44
466.60	18878.76
466.78	18815.57
466.96	19084.73
467.14	19367.93
467.32	19653.48
467.51	20044.35
467.69	18930.25
467.87	19290.70
468.05	19782.21
468.23	19634.75
468.41	19793.91
468.60	19784.55
468.78	19756.46
468.96	19506.02
469.14	20135.63
469.32	19901.58
469.50	19410.06
469.69	19356.23
469.87	19075.37
470.05	18932.59
470.23	19016.85
470.41	19147.92
470.59	19468.58
470.77	19515.39
470.95	20196.48
471.14	20168.40
471.32	20243.29
471.50	21333.98
471.68	21343.35
471.86	21385.47
472.04	21736.56
472.22	21813.79
472.40	20596.71
472.58	20414.15
472.77	19784.55
472.95	20704.38
473.13	21046.10
473.31	20273.72
473.49	20549.90
473.67	20931.41
473.85	21186.53
474.03	21553.99
474.21	21872.31
474.39	22094.66
474.57	22471.48
474.75	22047.85
474.93	22300.62
475.12	21642.93
475.30	21483.78
475.48	21825.50
475.66	21886.35
475.84	21792.73
476.02	21727.19
476.20	20971.20
476.38	21537.61
476.56	22522.98
476.74	22419.99
476.92	22391.91
477.10	22909.16
477.28	23843.04
477.46	23674.52
477.64	24041.98
477.82	23807.93
478.00	24163.69
478.18	24067.73
478.36	23747.08
478.54	23433.44
478.72	23817.29
478.90	24364.98
479.08	25163.10
479.26	25104.59
479.44	25701.42
479.62	25081.18
479.80	25411.20
479.98	25481.41
480.16	25507.16
480.34	25542.27
480.52	25883.98
480.70	25755.26
480.88	25738.87
481.06	26670.40
481.24	26380.18
481.41	27243.84
481.59	27555.13
481.77	27009.78
481.95	26768.71
482.13	26553.38
482.31	26565.08
482.49	27129.15
482.67	26614.23
482.85	27314.05
483.03	27672.15
483.21	28453.89
483.39	27735.35
483.57	27225.11
483.74	27089.36
483.92	27679.18
484.10	27529.38
484.28	28383.68
484.46	28790.93
484.64	28657.52
484.82	28287.71
485.00	27751.73
485.18	27365.54
485.35	26300.60
485.53	24533.50
485.71	22099.34
485.89	22195.30
486.07	23190.03
486.25	25123.31
486.43	26637.64
486.61	27138.51
486.78	26934.88
486.96	27655.77
487.14	28142.60
487.32	29453.30
487.50	29806.72
487.68	30735.92
487.85	30937.20
488.03	31187.64
488.21	31044.87
488.39	30316.96
488.57	29670.97
488.75	29649.91
488.92	30632.93
489.10	32051.30
489.28	33242.63
489.46	34160.12
489.64	34429.28
489.81	34340.34
489.99	33420.51
490.17	33605.41
490.35	34543.97
490.53	33670.95
490.70	33462.64
490.88	33624.14
491.06	34745.25
491.24	34499.50
491.41	33497.75
491.59	31454.46
491.77	31005.08
491.95	31828.95
492.13	32933.68
492.30	33972.88
492.48	35129.10
492.66	36165.96
492.84	35796.15
493.01	35892.12
493.19	34962.92
493.37	34525.24
493.54	34101.61
493.72	34986.33
493.90	36077.02
494.08	36851.73
494.25	37640.50
494.43	38007.96
494.61	38480.75
494.79	38258.40
494.96	38234.99
495.14	37502.40
495.32	36098.08
495.49	35505.93
495.67	36823.65
495.85	38431.60
496.02	38876.30
496.20	39283.55
496.38	38464.36
496.55	38309.89
496.73	38574.37
496.91	38719.48
497.09	39707.19
497.26	39833.58
497.44	39246.10
497.62	38543.94
497.79	37567.94
497.97	35889.77
498.14	36147.23
498.32	37715.39
498.50	38763.95
498.67	39276.53
498.85	39131.42
499.03	39840.60
499.20	40119.12
499.38	39892.09
499.56	39658.04
499.73	39159.50
499.91	38508.83
500.08	38064.13
500.26	36804.92
500.44	37596.03
500.61	37958.81
500.79	38288.82
500.97	38176.48
501.14	37652.20
501.32	37221.54
501.49	37156.00
501.67	38061.79
501.84	38412.87
502.02	38930.13
502.20	39051.84
502.37	39084.61
502.55	39913.16
502.72	40608.29
502.90	40921.93
503.07	40149.55
503.25	39957.63
503.43	38515.86
503.60	37745.82
503.78	37104.51
503.95	37479.00
504.13	39732.93
504.30	40858.73
504.48	40655.11
504.65	39555.05
504.83	39700.17
505.01	40620.00
505.18	41647.49
505.36	42403.49
505.53	42473.70
505.71	42686.69
505.88	42703.07
506.06	41350.24
506.23	41366.63
506.41	40652.76
506.58	41207.47
506.76	40755.75
506.93	41015.55
507.11	40732.34
507.28	40680.85
507.46	39824.22
507.63	39491.86
507.81	38960.56
507.98	39325.68
508.16	40275.94
508.33	41361.95
508.50	41493.02
508.68	41926.02
508.85	42635.20
509.03	42698.39
509.20	42550.94
509.38	41228.54
509.55	40802.56
509.73	40879.80
509.90	41254.28
510.08	41631.11
510.25	41291.73
510.42	41333.86
510.60	41036.61
510.77	42181.13
510.95	42817.76
511.12	42890.32
511.30	42897.34
511.47	43508.22
511.64	43676.74
511.82	42866.91
511.99	41764.52
512.17	40940.65
512.34	40575.53
512.51	40893.84
512.69	40989.80
512.86	41319.82
513.04	41961.12
513.21	41605.36
513.38	41579.62
513.56	40713.62
513.73	39510.58
513.90	40189.34
514.08	39812.51
514.25	40669.15
514.43	41008.53
514.60	40987.46
514.77	41420.46
514.95	41617.07
515.12	41235.56
515.29	41448.55
515.47	42394.12
515.64	42677.33
515.81	42218.58
515.99	41273.01
516.16	39049.50
516.33	36259.58
516.51	34600.14
516.68	33837.12
516.85	33357.32
517.03	33411.15
517.20	36858.76
517.37	39892.09
517.54	41537.49
517.72	40650.42
517.89	36971.10
518.06	34412.90
518.24	34913.77
518.41	37684.97
518.58	39360.79
518.75	39929.54
518.93	40130.83
519.10	39931.88
519.27	40032.52
519.45	40903.20
519.62	41663.88
519.79	42277.10
519.96	42218.58
520.14	41731.75
520.31	39866.34
520.48	40065.29
520.65	40472.54
520.83	42316.89
521.00	42735.84
521.17	42387.10
521.34	41624.09
521.52	41504.72
521.69	43021.39
521.86	43786.74
522.03	42951.17
522.20	41191.09
522.38	39669.74
522.55	39409.94
522.72	40793.20
522.89	41071.72
523.07	41230.88
523.24	41579.62
523.41	42913.72
523.58	43215.65
523.75	44095.69
523.92	44023.14
524.10	43627.59
524.27	43786.74
524.44	43597.16
524.61	43194.59
524.78	42880.95
524.96	42419.87
525.13	42602.43
525.30	43002.66
525.47	44081.65
525.64	44100.37
525.81	42794.36
525.98	40732.34
526.16	38646.93
526.33	37610.07
526.50	37090.47
526.67	36421.08
526.84	37706.03
527.01	39248.44
527.18	40107.42
527.36	41450.89
527.53	42408.17
527.70	42876.27
527.87	42003.25
528.04	41495.36
528.21	42679.67
528.38	42880.95
528.55	44044.20
528.72	44399.96
528.89	44938.29
529.07	44238.47
529.24	43115.01
529.41	42602.43
529.58	41600.68
529.75	41656.85
529.92	42005.59
530.09	42932.45
530.26	43550.35
530.43	44238.47
530.60	44432.73
530.77	44308.68
530.94	44854.03
531.11	43833.55
531.28	43309.27
531.46	42972.24
531.63	43281.19
531.80	43430.98
531.97	42548.60
532.14	41727.07
532.31	40093.38
532.48	39246.10
532.65	39321.00
532.82	40498.29
532.99	42052.41
533.16	42534.56
533.33	43423.96
533.50	43487.15
533.67	41965.81
533.84	41301.09
534.01	41563.23
534.18	42073.47
534.35	42433.91
534.52	42249.01
534.69	42506.47
534.86	43126.71
535.03	43419.28
535.20	43966.96
535.37	45045.95
535.54	44612.95
535.71	44175.27
535.88	43768.02
536.05	42983.94
536.22	42330.93
536.38	41420.46
536.55	41097.47
536.72	40435.10
536.89	40030.18
537.06	41083.42
537.23	42953.51
537.40	42511.15
537.57	42904.36
537.74	42115.60
537.91	42426.89
538.08	42270.08
538.25	42557.96
538.42	43107.99
538.59	42820.10
538.75	41532.81
538.92	41565.57
539.09	41081.08
539.26	40807.24
539.43	40720.64
539.60	40620.00
539.77	41139.60
539.94	41404.08
540.11	39936.56
540.28	39077.58
540.44	39185.25
540.61	39573.78
540.78	39765.70
540.95	40566.16
541.12	41497.70
541.29	41434.50
541.46	42195.18
541.62	42024.32
541.79	41610.04
541.96	40919.59
542.13	40748.73
542.30	41216.83
542.47	41612.38
542.63	41127.89
542.80	40933.63
542.97	40947.67
543.14	41036.61
543.31	40722.98
543.48	41275.35
543.64	42897.34
543.81	43239.06
543.98	43019.05
544.15	41954.10
544.32	41102.15
544.48	41170.02
544.65	42012.62
544.82	42447.96
544.99	41865.16
545.16	41134.92
545.32	41102.15
545.49	42377.74
545.66	43063.52
545.83	42660.94
546.00	41937.72
546.16	41017.89
546.33	41404.08
546.50	41471.95
546.67	41951.76
546.83	41118.53
547.00	41209.81
547.17	40582.55
547.34	39388.88
547.50	39599.52
547.67	40107.42
547.84	40381.26
548.00	40744.05
548.17	41102.15
548.34	41418.12
548.51	41287.05
548.67	41207.47
548.84	41375.99
549.01	41439.18
549.18	41675.58
549.34	41130.23
549.51	40580.21
549.68	40954.69
549.84	40472.54
550.01	40446.80
550.18	40465.52
550.34	40863.41
550.51	40755.75
550.68	40648.08
550.84	40069.97
551.01	40011.46
551.18	40371.90
551.34	40612.98
551.51	41228.54
551.68	41057.68
551.84	41708.35
552.01	40882.14
552.18	40547.44
552.34	39718.89
552.51	39206.31
552.68	39384.19
552.84	39625.27
553.01	40121.46
553.18	39854.64
553.34	40348.50
553.51	40250.19
553.67	40673.83
553.84	41237.90
554.01	40832.99
554.17	40528.72
554.34	40203.38
554.51	41006.19
554.67	41507.06
554.84	40797.88
555.00	40201.04
555.17	40280.62
555.33	40390.62
555.50	40414.03
555.67	40257.21
555.83	39875.71
556.00	39515.26
556.16	39175.89
556.33	38810.76
556.50	38703.10
556.66	38754.59
556.83	38740.55
556.99	38256.06
557.16	38773.31
557.32	39180.57
557.49	39641.65
557.65	39318.66
557.82	39124.40
557.98	38888.00
558.15	38483.09
558.32	37357.29
558.48	36533.42
558.65	36744.07
558.81	37380.70
558.98	37383.04
559.14	37450.91
559.31	38050.09
559.47	37921.36
559.64	37343.25
559.80	37067.06
559.97	36935.99
560.13	37982.21
560.30	39000.35
560.46	39321.00
560.63	39639.31
560.79	39754.00
560.96	39344.41
561.12	37947.11
561.29	36666.83
561.45	36811.95
561.61	37460.27
561.78	38071.15
561.94	38113.28
562.11	37879.23
562.27	37366.65
562.44	37722.41
562.60	38511.17
562.77	38691.40
562.93	38623.52
563.10	38431.60
563.26	37495.38
563.42	38047.75
563.59	37406.44
563.75	37216.86
563.92	37343.25
564.08	37769.22
564.24	37874.55
564.41	38080.52
564.57	38136.69
564.74	37956.47
564.90	37340.91
565.07	36926.63
565.23	36432.78
565.39	36123.83
565.56	36072.34
565.72	35367.84
565.88	35917.86
566.05	35784.45
566.21	36133.19
566.38	36294.69
566.54	36727.69
566.70	37551.56
566.87	37848.80
567.03	37474.32
567.19	37350.27
567.36	36938.33
567.52	37273.03
567.68	36900.89
567.85	35709.55
568.01	35608.91
568.17	35136.12
568.34	35096.33
568.50	35171.23
568.66	35058.88
568.83	35805.52
568.99	35765.73
569.15	36245.54
569.32	36161.28
569.48	35924.88
569.64	35594.87
569.81	35047.18
569.97	35131.44
570.13	34857.60
570.30	34590.78
570.46	34064.16
570.62	33167.73
570.78	32987.51
570.95	33570.30
571.11	34864.62
571.27	34429.28
571.43	35168.89
571.60	35037.82
571.76	35503.59
571.92	35648.70
572.09	36051.27
572.25	35819.56
572.41	35803.17
572.57	35365.49
572.74	36100.42
572.90	34976.97
573.06	35091.65
573.22	35391.24
573.38	35335.07
573.55	35576.14
573.71	35651.04
573.87	35370.18
574.03	35028.46
574.20	34972.28
574.36	34356.72
574.52	34532.26
574.68	34218.63
574.84	34066.50
575.01	33324.55
575.17	33223.90
575.33	33560.94
575.49	34007.98
575.65	34260.76
575.82	33883.94
575.98	33647.54
576.14	33982.24
576.30	34593.12
576.46	34675.04
576.62	34387.15
576.79	34443.32
576.95	34272.46
577.11	33694.35
577.27	33656.90
577.43	34267.78
577.59	33867.55
577.75	33546.90
577.92	32596.64
578.08	32271.31
578.24	32203.43
578.40	32573.24
578.56	32800.27
578.72	32762.82
578.88	33310.50
579.04	33846.49
579.21	33715.42
579.37	33687.33
579.53	33560.94
579.69	33834.78
579.85	33879.25
580.01	33855.85
580.17	33570.30
580.33	33055.39
580.49	33301.14
580.65	32872.82
580.82	33415.83
580.98	33846.49
581.14	33596.05
581.30	33518.81
581.46	33574.98
581.62	33727.12
581.78	33823.08
581.94	33998.62
582.10	33928.41
582.26	34125.01
582.42	34089.90
582.58	33797.34
582.74	33809.04
582.90	34066.50
583.06	33486.04
583.22	33748.18
583.38	33610.09
583.54	33322.21
583.70	33347.95
583.86	33502.43
584.02	33237.95
584.18	33149.01
584.34	33354.97
584.50	33301.14
584.66	32987.51
584.82	32343.86
584.98	32615.37
585.14	32004.49
585.30	31725.96
585.46	31150.19
585.62	31159.55
585.78	31124.44
585.94	31721.28
586.10	32182.37
