SpectraSuite Data File
++++++++++++++++++++++++++++++++++++
Date: Mon Oct 07 14:55:03 GMT-05:00 2013
User: price-jones
Dark Spectrum Present: No
Reference Spectrum Present: No
Number of Sampled Component Spectra: 1
Spectrometers: USB2+H05261
Integration Time (usec): 10000 (USB2+H05261)
Spectra Averaged: 1 (USB2+H05261)
Boxcar Smoothing: 0 (USB2+H05261)
Correct for Electrical Dark: No (USB2+H05261)
Strobe/Lamp Enabled: No (USB2+H05261)
Correct for Detector Non-linearity: No (USB2+H05261)
Correct for Stray Light: No (USB2+H05261)
Number of Pixels in Processed Spectrum: 2048
>>>>>Begin Processed Spectral Data<<<<<
365.73	0.00
365.92	0.00
366.12	0.00
366.32	0.00
366.52	0.00
366.72	0.00
366.91	0.00
367.11	0.00
367.31	0.00
367.51	0.00
367.70	0.00
367.90	0.00
368.10	0.00
368.30	0.00
368.49	0.00
368.69	0.00
368.89	0.00
369.09	0.00
369.28	0.00
369.48	0.00
369.68	0.00
369.87	0.00
370.07	0.00
370.27	0.00
370.47	510.24
370.66	2808.64
370.86	3213.56
371.06	3445.27
371.25	3428.88
371.45	3047.38
371.65	2696.30
371.84	2532.46
372.04	2892.90
372.24	3084.83
372.44	3129.30
372.63	3143.34
372.83	2867.16
373.03	2567.57
373.22	2333.51
373.42	2623.74
373.62	2932.69
373.81	3267.39
374.01	3169.09
374.21	2810.98
374.40	2686.94
374.60	2881.20
374.79	3260.37
374.99	3803.37
375.19	3962.53
375.38	3840.82
375.58	3578.68
375.78	3655.92
375.97	3782.31
376.17	3749.54
376.37	3812.73
376.56	4002.32
376.76	4203.60
376.95	4411.91
377.15	4903.42
377.35	4926.83
377.54	5034.49
377.74	5228.76
377.93	5242.80
378.13	4908.10
378.33	4795.76
378.52	4432.97
378.72	4374.46
378.91	4273.82
379.11	4170.83
379.31	3920.40
379.50	3880.61
379.70	4428.29
379.89	4830.87
380.09	5076.62
380.28	5228.76
380.48	5373.87
380.68	5111.73
380.87	4884.70
381.07	4608.51
381.26	4154.45
381.46	3995.29
381.65	3805.71
381.85	3648.90
382.04	3412.50
382.24	3300.16
382.43	3227.60
382.63	3159.72
382.83	3108.23
383.02	3075.46
383.22	3251.00
383.41	3239.30
383.61	3337.60
383.80	4016.36
384.00	4746.61
384.19	5100.03
384.39	5224.08
384.58	5067.26
384.78	4959.60
384.97	4945.55
385.17	4620.22
385.36	4388.50
385.56	4313.61
385.75	4716.18
385.95	5057.90
386.14	5476.85
386.34	5317.70
386.53	4858.95
386.72	4812.14
386.92	4858.95
387.11	5310.68
387.31	5308.34
387.50	5359.83
387.70	5095.35
387.89	5174.92
388.09	5043.85
388.28	5048.54
388.48	5383.23
388.67	5893.47
388.86	6307.74
389.06	6717.34
389.25	7047.35
389.45	7080.12
389.64	6930.33
389.84	7054.37
390.03	6764.15
390.22	7000.54
390.42	7208.85
390.61	7616.10
390.81	8177.83
391.00	8234.00
391.19	8278.47
391.39	7840.79
391.58	7365.67
391.78	6911.60
391.97	6801.60
392.16	6221.14
392.36	5465.15
392.55	4236.37
392.75	3377.39
392.94	2923.33
393.13	3112.91
393.33	3822.09
393.52	4877.68
393.71	5694.52
393.91	6396.68
394.10	6991.18
394.29	7819.73
394.49	8175.49
394.68	8954.89
394.88	8926.80
395.07	8943.19
395.26	8910.42
395.46	8571.04
395.65	7847.82
395.84	6867.13
396.04	5628.99
396.23	4496.17
396.42	3911.04
396.62	3985.93
396.81	4868.31
397.00	6373.28
397.19	7723.77
397.39	9202.99
397.58	10167.29
397.77	10492.62
397.97	11068.39
398.16	11147.97
398.35	11377.34
398.55	11625.44
398.74	12404.84
398.93	12662.30
399.12	12451.65
399.32	11932.05
399.51	12194.19
399.70	13233.39
399.90	12711.45
400.09	12741.88
400.28	12624.85
400.47	13025.08
400.67	13593.83
400.86	13916.83
401.05	14029.17
401.24	13902.78
401.44	14356.85
401.63	14349.82
401.82	14368.55
402.01	14298.33
402.21	14480.89
402.40	14195.35
402.59	13858.31
402.78	13235.73
402.97	13163.17
403.17	13980.02
403.36	14761.76
403.55	15016.88
403.74	15138.58
403.93	14047.90
404.13	13401.91
404.32	13263.82
404.51	14075.98
404.70	14782.82
404.89	14923.26
405.09	14401.32
405.28	14066.62
405.47	14207.05
405.66	14139.18
405.85	13788.10
406.05	13252.11
406.24	13839.59
406.43	14485.58
406.62	14572.18
406.81	14883.47
407.00	14520.68
407.20	14274.93
407.39	14068.96
407.58	15117.52
407.77	15260.29
407.96	15812.66
408.15	16409.50
408.34	16374.39
408.54	16959.52
408.73	17067.19
408.92	16732.49
409.11	16044.37
409.30	15136.24
409.49	14169.60
409.68	13561.06
409.87	13275.52
410.07	14544.09
410.26	15676.91
410.45	16130.97
410.64	17015.69
410.83	17226.34
411.02	17619.55
411.21	17954.25
411.40	18033.83
411.59	18036.17
411.78	18026.81
411.98	18181.28
412.17	18024.47
412.36	18171.92
412.55	17792.75
412.74	17261.45
412.93	17357.41
413.12	17404.22
413.31	19152.60
413.50	19274.31
413.69	18757.05
413.88	18630.66
414.07	17961.27
414.26	18778.12
414.45	18963.02
414.64	18710.24
414.83	18960.68
415.02	18368.52
415.22	18520.66
415.41	19286.01
415.60	19889.87
415.79	20456.28
415.98	20585.01
416.17	20847.15
416.36	20367.34
416.55	20184.78
416.74	19199.41
416.93	19000.47
417.12	19136.22
417.31	18939.62
417.50	19571.56
417.69	20400.11
417.88	20318.19
418.07	19805.61
418.26	19658.16
418.45	19693.27
418.64	21069.50
418.83	21818.47
419.02	21357.39
419.21	20451.60
419.39	19836.04
419.58	19377.30
419.77	19321.12
419.96	20631.82
420.15	21703.79
420.34	22574.47
420.53	22597.87
420.72	22530.00
420.91	22389.56
421.10	22125.08
421.29	21762.30
421.48	21748.26
421.67	22588.51
421.86	21439.31
422.05	19611.35
422.24	18108.72
422.43	19037.92
422.61	21095.25
422.80	22052.53
422.99	21621.87
423.18	20702.04
423.37	20908.01
423.56	20842.47
423.75	21474.42
423.94	22127.42
424.13	20493.73
424.32	20350.96
424.50	20601.40
424.69	20739.49
424.88	21055.46
425.07	20730.12
425.26	20875.24
425.45	19903.92
425.64	19857.10
425.83	20025.62
426.01	21179.51
426.20	21261.43
426.39	21209.93
426.58	19503.68
426.77	18314.69
426.96	18026.81
427.15	19007.49
427.33	20350.96
427.52	20823.75
427.71	21245.04
427.90	20802.68
428.09	20641.18
428.28	19934.34
428.46	18946.64
428.65	19047.28
428.84	20070.09
429.03	20037.33
429.22	18714.92
429.40	17319.96
429.59	15662.86
429.78	14181.31
429.97	14642.39
430.16	14640.05
430.34	14853.04
430.53	14857.72
430.72	15524.77
430.91	17413.59
431.10	20332.23
431.28	23545.79
431.47	25076.50
431.66	24313.48
431.85	21876.99
432.03	20643.52
432.22	20372.02
432.41	21977.63
432.60	23756.44
432.79	24287.74
432.97	24533.50
433.16	23644.09
433.35	21252.06
433.54	19702.63
433.72	18867.06
433.91	20020.94
434.10	22307.65
434.28	23353.87
434.47	24531.15
434.66	23592.60
434.85	23122.15
435.03	23597.28
435.22	24350.93
435.41	25088.20
435.59	25989.31
435.78	25504.82
435.97	26813.18
436.16	26426.99
436.34	25900.37
436.53	25214.59
436.72	25497.80
436.90	24208.16
437.09	24060.71
437.28	23875.80
437.46	25291.83
437.65	23854.74
437.84	21673.36
438.02	20865.88
438.21	21755.28
438.40	22424.67
438.58	23873.46
438.77	24790.95
438.96	25575.03
439.14	26375.50
439.33	26389.54
439.52	26494.86
439.70	25869.94
439.89	25460.35
440.08	25383.11
440.26	25392.47
440.45	26635.30
440.63	28140.26
440.82	28734.76
441.01	28477.30
441.19	28727.74
441.38	29256.70
441.57	29879.28
441.75	29827.79
441.94	30389.52
442.12	29727.14
442.31	31178.28
442.50	30616.55
442.68	30551.01
442.87	29663.95
443.05	29610.12
443.24	30497.18
443.43	30829.54
443.61	31419.35
443.80	31943.63
443.98	30761.66
444.17	30483.14
444.35	31274.24
444.54	32102.79
444.73	31257.85
444.91	29909.71
445.10	29055.41
445.28	28498.36
445.47	27707.26
445.65	27955.36
445.84	28507.72
446.02	29394.79
446.21	30448.03
446.39	30333.34
446.58	30848.26
446.77	31798.52
446.95	31285.94
447.14	32549.83
447.32	33357.32
447.51	32329.82
447.69	30974.65
447.88	30761.66
448.06	31952.99
448.25	32018.53
448.43	31721.28
448.62	31232.11
448.80	30852.94
448.99	31374.88
449.17	31929.59
449.36	32018.53
449.54	33088.15
449.73	33359.66
449.91	34099.26
450.10	35143.14
450.28	35337.41
450.46	35023.78
450.65	35086.97
450.83	34359.06
451.02	34185.86
451.20	34284.17
451.39	34305.23
451.57	34253.74
451.76	34000.96
451.94	33113.90
452.13	32133.21
452.31	30639.95
452.49	29617.14
452.68	30422.28
452.86	30789.75
453.05	31072.95
453.23	32479.61
453.42	32818.99
453.60	33457.96
453.78	33495.41
453.97	33221.56
454.15	33151.35
454.34	31964.70
454.52	31810.22
454.70	31798.52
454.89	32570.90
455.07	32465.57
455.26	32936.02
455.44	34314.59
455.62	34675.04
455.81	34450.35
455.99	34558.01
456.17	34078.20
456.36	34902.07
456.54	35164.21
456.73	35466.14
456.91	35704.87
457.09	36018.50
457.28	36973.44
457.46	35260.17
457.64	34494.82
457.83	33905.00
458.01	33558.60
458.19	34899.73
458.38	35384.22
458.56	36065.31
458.74	35674.45
458.93	34721.85
459.11	34733.55
459.29	34700.78
459.48	35257.83
459.66	34452.69
459.84	34572.05
460.03	34586.10
460.21	36041.91
460.39	36744.07
460.57	36135.53
460.76	36201.07
460.94	36580.23
461.12	36535.76
461.31	36870.46
461.49	36790.88
461.67	36531.08
461.85	38068.81
462.04	37413.46
462.22	37331.54
462.40	37415.80
462.59	37060.04
462.77	37146.64
462.95	36821.31
463.13	37029.62
463.32	36070.00
463.50	35913.18
463.68	36020.84
463.86	36739.39
464.05	35384.22
464.23	34754.61
464.41	35002.71
464.59	34593.12
464.78	36165.96
464.96	35051.86
465.14	35021.44
465.32	36889.18
465.50	37914.34
465.69	38515.86
465.87	37010.89
466.05	35997.44
466.23	34497.16
466.41	33795.00
466.60	35119.74
466.78	34660.99
466.96	34775.68
467.14	36264.26
467.32	35875.73
467.51	36243.20
467.69	34789.72
467.87	35718.92
468.05	36341.50
468.23	36662.15
468.41	36634.06
468.60	36678.54
468.78	36776.84
468.96	36273.62
469.14	37448.57
469.32	37008.55
469.50	35475.50
469.69	35482.52
469.87	35185.27
470.05	34721.85
470.23	35033.14
470.41	35295.28
470.59	36100.42
470.77	35564.44
470.95	36425.76
471.14	37628.79
471.32	37483.68
471.50	39576.12
471.68	39779.74
471.86	39758.68
472.04	39557.39
472.22	39381.85
472.40	37713.05
472.58	38298.19
472.77	37965.83
472.95	38190.52
473.13	39545.69
473.31	38242.01
473.49	38761.61
473.67	39201.63
473.85	40144.87
474.03	40797.88
474.21	41642.81
474.39	41338.54
474.57	40758.09
474.75	41268.33
474.93	40484.25
475.12	39360.79
475.30	39981.03
475.48	39674.42
475.66	40734.68
475.84	39346.75
476.02	39971.67
476.20	39133.76
476.38	40215.08
476.56	41240.24
476.74	41956.44
476.92	41909.63
477.10	41893.25
477.28	43423.96
477.46	43772.70
477.64	44463.16
477.82	44224.42
478.00	44095.69
478.18	43526.94
478.36	43058.84
478.54	43454.39
478.72	44744.02
478.90	45731.73
479.08	46665.60
479.26	46354.31
479.44	47615.86
479.62	46216.22
479.80	47023.70
479.98	46501.76
480.16	47136.05
480.34	45970.46
480.52	47290.52
480.70	46763.90
480.88	46925.40
481.06	47122.01
481.24	48156.52
481.41	49237.85
481.59	49593.61
481.77	48296.95
481.95	48177.59
482.13	48722.93
482.31	48907.83
482.49	49563.18
482.67	48451.43
482.85	49441.48
483.03	49139.55
483.21	49991.50
483.39	50101.51
483.57	49694.25
483.74	49357.22
483.92	49588.93
484.10	49635.74
484.28	50089.80
484.46	50628.13
484.64	51374.76
484.82	50330.88
485.00	50042.99
485.18	49490.63
485.35	47688.42
485.53	42359.02
485.71	39807.83
485.89	40734.68
486.07	43793.76
486.25	45947.06
486.43	48456.11
486.61	49195.72
486.78	48114.39
486.96	49289.34
487.14	50932.40
487.32	52058.20
487.50	52102.67
487.68	53602.95
487.85	53848.71
488.03	53296.34
488.21	52687.80
488.39	52753.33
488.57	51075.17
488.75	51402.85
488.92	52968.66
489.10	54674.91
489.28	55128.98
489.46	56472.45
489.64	55936.46
489.81	56252.44
489.99	56023.06
490.17	55899.01
490.35	56432.66
490.53	56025.40
490.70	55966.89
490.88	55564.32
491.06	56680.75
491.24	56942.89
491.41	55882.63
491.59	54445.54
491.77	53759.76
491.95	54925.35
492.13	56264.14
492.30	56687.78
492.48	57663.78
492.66	57853.36
492.84	57322.06
493.01	57010.77
493.19	56882.04
493.37	56435.00
493.54	56622.24
493.72	57790.17
493.90	58358.92
494.08	58705.32
494.25	59047.04
494.43	59487.06
494.61	59702.38
494.79	59386.41
494.96	59639.19
495.14	59290.45
495.32	57736.34
495.49	58298.06
495.67	59306.83
495.85	59732.81
496.02	60416.25
496.20	59629.83
496.38	59250.66
496.55	59309.18
496.73	59898.99
496.91	60535.62
497.09	60360.08
497.26	61141.81
497.44	60053.47
497.62	59454.29
497.79	58974.48
497.97	57907.19
498.14	58623.40
498.32	59531.53
498.50	59868.56
498.67	59849.84
498.85	59730.47
499.03	60158.79
499.20	60463.06
499.38	59938.78
499.56	59458.97
499.73	59363.01
499.91	59463.65
500.08	58454.88
500.26	58405.73
500.44	58976.82
500.61	59676.64
500.79	59430.88
500.97	59210.87
501.14	58588.29
501.32	58054.65
501.49	58389.34
501.67	59065.76
501.84	59175.76
502.02	59561.95
502.20	60060.49
502.37	59997.29
502.55	60355.39
502.72	61305.65
502.90	61408.64
503.07	60872.65
503.25	60317.95
503.43	59367.69
503.60	59021.29
503.78	58904.26
503.95	59529.19
504.13	60479.44
504.30	61034.15
504.48	60254.75
504.65	60411.57
504.83	60715.84
505.01	61403.95
505.18	61649.71
505.36	62089.73
505.53	62012.49
505.71	61673.12
505.88	62328.47
506.06	61825.25
506.23	61649.71
506.41	61212.03
506.58	61197.99
506.76	60982.66
506.93	60678.39
507.11	60793.07
507.28	60889.04
507.46	59992.61
507.63	60268.79
507.81	60163.47
507.98	60432.63
508.16	61275.22
508.33	61422.68
508.50	61436.72
508.68	62216.12
508.85	62365.91
509.03	62480.60
509.20	61949.30
509.38	61513.96
509.55	61544.39
509.73	61581.84
509.90	61535.02
510.08	61544.39
510.25	61268.20
510.42	61092.66
510.60	61361.82
510.77	61825.25
510.95	61836.95
511.12	62436.13
511.30	63079.78
511.47	63222.55
511.64	62918.28
511.82	62798.91
511.99	61750.35
512.17	61759.72
512.34	61045.85
512.51	61719.93
512.69	61902.49
512.86	61205.01
513.04	61598.22
513.21	61193.31
513.38	60870.31
513.56	60128.36
513.73	60011.34
513.90	61242.46
514.08	60711.16
514.25	60970.96
514.43	61462.47
514.60	61247.14
514.77	61684.82
514.95	61893.13
515.12	61712.91
515.29	62021.86
515.47	62246.55
515.64	62499.33
515.81	62166.97
515.99	61282.25
516.16	59241.30
516.33	57361.85
516.51	57450.79
516.68	56018.38
516.85	54864.50
517.03	56715.86
517.20	59075.12
517.37	60947.55
517.54	61535.02
517.72	60591.79
517.89	57918.90
518.06	56629.26
518.24	57230.78
518.41	59313.86
518.58	60863.29
518.75	60449.02
518.93	60460.72
519.10	60205.60
519.27	61155.86
519.45	61380.55
519.62	62159.95
519.79	62454.86
519.96	61684.82
520.14	61488.21
520.31	60561.36
520.48	60383.48
520.65	61373.53
520.83	62419.75
521.00	61953.98
521.17	61502.26
521.34	61759.72
521.52	62014.83
521.69	62464.22
521.86	63035.31
522.03	62445.49
522.20	60884.36
522.38	60465.40
522.55	60542.64
522.72	60968.61
522.89	60694.77
523.07	61673.12
523.24	62169.31
523.41	62695.93
523.58	62761.47
523.75	62794.23
523.92	63086.80
524.10	62745.08
524.27	62429.11
524.44	62176.33
524.61	61518.64
524.78	62131.86
524.96	61942.28
525.13	62232.50
525.30	62735.72
525.47	63154.68
525.64	62969.77
525.81	62080.37
525.98	60589.45
526.16	59311.52
526.33	59348.96
526.50	58780.21
526.67	59147.68
526.84	59519.82
527.01	60654.98
527.18	60626.90
527.36	61366.51
527.53	62202.08
527.70	61918.87
527.87	60701.79
528.04	61380.55
528.21	61968.02
528.38	62330.81
528.55	63243.62
528.72	63260.00
528.89	62679.55
529.07	62892.54
529.24	61609.92
529.41	61621.62
529.58	61862.70
529.75	62424.43
529.92	62646.78
530.09	62726.36
530.26	63238.93
530.43	63568.95
530.60	63016.58
530.77	63384.05
530.94	63442.56
531.11	62691.25
531.28	62548.48
531.46	62595.29
531.63	62695.93
531.80	62473.58
531.97	62169.31
532.14	61806.53
532.31	60392.84
532.48	59805.37
532.65	60449.02
532.82	60961.59
532.99	62738.06
533.16	62698.27
533.33	62588.27
533.50	62878.49
533.67	62042.92
533.84	61937.60
534.01	62291.02
534.18	62157.61
534.35	61787.80
534.52	61354.80
534.69	62056.96
534.86	62501.67
535.03	62953.39
535.20	62887.85
535.37	63615.76
535.54	63753.85
535.71	62995.52
535.88	63250.64
536.05	62010.15
536.22	61471.83
536.38	61539.71
536.55	61300.97
536.72	60807.12
536.89	61413.32
537.06	61549.07
537.23	61956.32
537.40	61366.51
537.57	61474.17
537.74	61841.63
537.91	62103.77
538.08	61932.92
538.25	62403.36
538.42	62929.98
538.59	62513.37
538.75	61659.07
538.92	60846.91
539.09	61249.48
539.26	61256.50
539.43	61123.09
539.60	60640.94
539.77	61450.77
539.94	61085.64
540.11	60577.75
540.28	60006.65
540.44	60039.42
540.61	60065.17
540.78	60734.56
540.95	60975.64
541.12	61200.33
541.29	61446.08
541.46	61457.79
541.62	61946.96
541.79	61216.71
541.96	60687.75
542.13	61095.00
542.30	61242.46
542.47	61069.26
542.63	61394.59
542.80	61123.09
542.97	60643.28
543.14	60853.93
543.31	61064.58
543.48	62005.47
543.64	62143.56
543.81	62679.55
543.98	62532.09
544.15	61399.27
544.32	61792.48
544.48	61359.48
544.65	61226.07
544.82	61645.03
544.99	61113.73
545.16	60608.17
545.32	60853.93
545.49	61584.18
545.66	61797.16
545.83	61418.00
546.00	61509.28
546.16	61139.47
546.33	61003.72
546.50	61062.24
546.67	61740.99
546.83	61340.76
547.00	61748.01
547.17	60093.25
547.34	59590.04
547.50	59767.92
547.67	60362.42
547.84	61043.51
548.00	61462.47
548.17	61403.95
548.34	61565.45
548.51	61516.30
548.67	61188.63
548.84	61069.26
549.01	61511.62
549.18	61113.73
549.34	61179.26
549.51	62000.79
549.68	61787.80
549.84	60907.76
550.01	60121.34
550.18	60268.79
550.34	60725.20
550.51	60867.97
550.68	61176.92
550.84	61347.78
551.01	60526.25
551.18	60502.85
551.34	60552.00
551.51	61577.15
551.68	61497.58
551.84	62300.38
552.01	61317.35
552.18	60666.69
552.34	60109.64
552.51	59756.22
552.68	59686.00
552.84	60226.66
553.01	60240.71
553.18	60243.05
553.34	60327.31
553.51	60860.95
553.67	60977.98
553.84	61183.94
554.01	61497.58
554.17	60654.98
554.34	60711.16
554.51	60711.16
554.67	60177.51
554.84	60434.97
555.00	59945.80
555.17	59898.99
555.33	60086.23
555.50	59824.09
555.67	60411.57
555.83	60608.17
556.00	59866.22
556.16	59849.84
556.33	59678.98
556.50	59868.56
556.66	59784.30
556.83	59241.30
556.99	59089.16
557.16	60069.85
557.32	59386.41
557.49	59786.64
557.65	59854.52
557.82	59906.01
557.98	60189.22
558.15	59306.83
558.32	58808.30
558.48	58260.62
558.65	58255.93
558.81	58452.54
558.98	59332.58
559.14	59192.15
559.31	59093.85
559.47	58784.90
559.64	59143.00
559.80	58101.46
559.97	58871.49
560.13	59529.19
560.30	60470.08
560.46	60781.37
560.63	60823.50
560.79	60739.24
560.96	60062.83
561.12	58969.80
561.29	58969.80
561.45	58827.02
561.61	59962.18
561.78	58710.00
561.94	59304.49
562.11	59016.61
562.27	58398.71
562.44	59505.78
562.60	59840.48
562.77	59847.50
562.93	59330.24
563.10	59353.65
563.26	59402.80
563.42	59517.48
563.59	59253.00
563.75	58995.54
563.92	58618.72
564.08	58740.42
564.24	59559.61
564.41	58763.83
564.57	59913.03
564.74	59526.84
564.90	59171.08
565.07	58433.81
565.23	57682.50
565.39	57380.57
565.56	57731.65
565.72	58152.95
565.88	57373.55
566.05	58986.18
566.21	58698.30
566.38	58429.13
566.54	59178.10
566.70	59786.64
566.87	59213.21
567.03	59068.10
567.19	59856.86
567.36	59903.67
567.52	58623.40
567.68	58092.10
567.85	57839.32
568.01	58216.14
568.17	57972.73
568.34	58099.12
568.50	57422.70
568.66	57516.32
568.83	57530.37
568.99	57209.71
569.15	57549.09
569.32	57113.75
569.48	57546.75
569.64	57623.99
569.81	57230.78
569.97	57169.93
570.13	56420.95
570.30	55744.54
570.46	55611.13
570.62	55143.02
570.78	55576.02
570.95	56205.62
571.11	56846.93
571.27	56170.52
571.43	57041.20
571.60	56631.60
571.76	57176.95
571.92	57766.76
572.09	57963.37
572.25	57439.09
572.41	57425.04
572.57	57490.58
572.74	57694.21
572.90	58426.79
573.06	58277.00
573.22	58356.58
573.38	58061.67
573.55	58986.18
573.71	57705.91
573.87	57338.44
574.03	57703.57
574.20	57066.94
574.36	56610.54
574.52	56582.45
574.68	56545.00
574.84	56121.37
575.01	55936.46
575.17	55505.80
575.33	56413.93
575.49	56343.72
575.65	55435.59
575.82	55709.43
575.98	56119.02
576.14	57006.09
576.30	57579.52
576.46	56212.65
576.62	56423.29
576.79	56406.91
576.95	56559.05
577.11	56708.84
577.27	56549.68
577.43	56467.76
577.59	56296.91
577.75	55730.50
577.92	55395.80
578.08	55739.86
578.24	55826.46
578.40	55700.07
578.56	54913.65
578.72	55377.08
578.88	55159.41
579.04	55735.18
579.21	55594.74
579.37	55657.94
579.53	55861.57
579.69	55477.72
579.85	55044.72
580.01	55391.12
580.17	55033.02
580.33	55622.83
580.49	56039.45
580.65	55320.90
580.82	55639.22
580.98	56027.74
581.14	55552.62
581.30	55664.96
581.46	55044.72
581.62	55543.25
581.78	56086.26
581.94	56423.29
582.10	56055.83
582.26	56236.05
582.42	55891.99
582.58	55810.07
582.74	55599.43
582.90	55557.30
583.06	56498.19
583.22	55920.08
583.38	55889.65
583.54	56161.15
583.70	56259.46
583.86	56257.12
584.02	55143.02
584.18	55159.41
584.34	55030.68
584.50	54553.21
584.66	54883.22
584.82	54901.95
584.98	55000.25
585.14	54127.23
585.30	54508.74
