SpectraSuite Data File
++++++++++++++++++++++++++++++++++++
Date: Mon Oct 07 14:53:26 GMT-05:00 2013
User: price-jones
Dark Spectrum Present: No
Reference Spectrum Present: No
Number of Sampled Component Spectra: 1
Spectrometers: USB2+H05261
Integration Time (usec): 100000 (USB2+H05261)
Spectra Averaged: 1 (USB2+H05261)
Boxcar Smoothing: 0 (USB2+H05261)
Correct for Electrical Dark: No (USB2+H05261)
Strobe/Lamp Enabled: No (USB2+H05261)
Correct for Detector Non-linearity: No (USB2+H05261)
Correct for Stray Light: No (USB2+H05261)
Number of Pixels in Processed Spectrum: 2048
>>>>>Begin Processed Spectral Data<<<<<
365.73	0.00
365.92	0.00
366.12	0.00
366.32	0.00
366.52	0.00
366.72	0.00
366.91	0.00
367.11	0.00
367.31	0.00
367.51	0.00
367.70	0.00
367.90	0.00
368.10	0.00
368.30	0.00
368.49	0.00
368.69	0.00
368.89	0.00
369.09	0.00
369.28	0.00
369.48	0.00
369.68	0.00
369.87	0.00
370.07	0.00
370.27	0.00
370.47	634.29
370.66	3068.44
370.86	3679.32
371.06	3899.33
371.25	4044.45
371.45	3791.67
371.65	3155.04
371.84	2977.16
372.04	3194.83
372.24	3655.92
372.44	3604.42
372.63	3742.52
372.83	3466.33
373.03	3073.12
373.22	2684.59
373.42	2953.76
373.62	3452.29
373.81	3630.17
374.01	3672.30
374.21	3349.31
374.40	3035.67
374.60	3295.47
374.79	3592.72
374.99	4229.35
375.19	4451.70
375.38	4514.89
375.58	4337.01
375.78	4292.54
375.97	4285.52
376.17	4475.10
376.37	4409.57
376.56	4648.30
376.76	4802.78
376.95	5181.95
377.15	5451.11
377.35	5776.44
377.54	5954.32
377.74	6118.16
377.93	6104.12
378.13	5867.72
378.33	5586.86
378.52	5121.09
378.72	4994.70
378.91	4868.31
379.11	4894.06
379.31	4699.80
379.50	4554.68
379.70	5008.75
379.89	5526.00
380.09	5797.51
380.28	5956.66
380.48	5905.17
380.68	5907.51
380.87	5771.76
381.07	5462.81
381.26	4875.34
381.46	4615.54
381.65	4308.93
381.85	4353.40
382.04	4102.96
382.24	3812.73
382.43	3564.64
382.63	3691.02
382.83	3698.05
383.02	3494.42
383.22	3559.95
383.41	3438.25
383.61	3744.86
383.80	4402.55
384.00	4858.95
384.19	5460.47
384.39	5811.55
384.58	5963.68
384.78	5797.51
384.97	5696.86
385.17	5416.00
385.36	5212.37
385.56	4945.55
385.75	4985.34
385.95	5640.69
386.14	6087.73
386.34	6080.71
386.53	5849.00
386.72	5500.26
386.92	5612.60
387.11	5671.12
387.31	6122.84
387.50	6118.16
387.70	5664.10
387.89	5748.36
388.09	5724.95
388.28	5926.24
388.48	5912.19
388.67	6420.09
388.86	6853.09
389.06	7185.44
389.25	7812.71
389.45	7819.73
389.64	7894.63
389.84	7667.60
390.03	7789.30
390.22	7756.54
390.42	7854.84
390.61	8423.59
390.81	8929.14
391.00	9076.60
391.19	9221.71
391.39	8741.90
391.58	8297.20
391.78	7754.19
391.97	7723.77
392.16	7194.81
392.36	6338.17
392.55	5163.22
392.75	4074.87
392.94	3433.57
393.13	3363.35
393.33	3943.80
393.52	5097.69
393.71	6122.84
393.91	6857.77
394.10	7534.18
394.29	8079.53
394.49	9043.83
394.68	9235.75
394.88	9570.45
395.07	9914.51
395.26	9781.10
395.46	9511.94
395.65	8856.59
395.84	7868.88
396.04	6820.32
396.23	5376.21
396.42	4519.57
396.62	4362.76
396.81	5128.11
397.00	6492.65
397.19	8322.94
397.39	9511.94
397.58	10848.38
397.77	11386.71
397.97	12105.25
398.16	12175.47
398.35	12716.13
398.55	12833.16
398.74	13289.56
398.93	13710.86
399.12	13626.60
399.32	12922.10
399.51	13294.24
399.70	14066.62
399.90	14090.02
400.09	14197.69
400.28	13991.72
400.47	13916.83
400.67	14691.54
400.86	15318.81
401.05	15213.48
401.24	15061.35
401.44	15304.76
401.63	15473.28
401.82	15737.76
402.01	15201.78
402.21	15503.71
402.40	15730.74
402.59	15264.97
402.78	14867.08
402.97	14167.26
403.17	14750.06
403.36	15506.05
403.55	16287.79
403.74	16526.52
403.93	15723.72
404.13	14558.13
404.32	14352.16
404.51	14941.98
404.70	16163.74
404.89	16231.62
405.09	15878.19
405.28	15407.75
405.47	15279.02
405.66	15248.59
405.85	14745.38
406.05	14516.00
406.24	14651.75
406.43	15524.77
406.62	15946.07
406.81	16065.44
407.00	15426.47
407.20	14986.45
407.39	15321.15
407.58	15850.11
407.77	16386.09
407.96	17114.00
408.15	17268.47
408.34	17509.55
408.54	18244.48
408.73	18164.90
408.92	17832.54
409.11	17376.14
409.30	16428.22
409.49	15459.24
409.68	14637.71
409.87	14214.07
410.07	14977.09
410.26	16379.07
410.45	17231.02
410.64	17551.68
410.83	18230.43
411.02	18724.29
411.21	19391.34
411.40	19112.81
411.59	19009.83
411.78	19089.41
411.98	18647.05
412.17	18941.96
412.36	18651.73
412.55	18803.86
412.74	18562.79
412.93	18148.51
413.12	18635.35
413.31	19737.74
413.50	20081.80
413.69	20315.85
413.88	19782.21
414.07	19264.95
414.26	19381.98
414.45	19932.00
414.64	20177.76
414.83	20266.70
415.02	19903.92
415.22	19784.55
415.41	20255.00
415.60	20496.07
415.79	21561.02
415.98	21926.14
416.17	22139.13
416.36	21350.37
416.55	21111.63
416.74	20460.96
416.93	19723.69
417.12	19882.85
417.31	20304.15
417.50	20695.02
417.69	21385.47
417.88	21266.11
418.07	20982.90
418.26	20767.57
418.45	20645.87
418.64	21633.57
418.83	22473.82
419.02	22026.78
419.21	22148.49
419.39	20795.66
419.58	20051.37
419.77	20020.94
419.96	20910.35
420.15	22073.59
420.34	22396.59
420.53	23587.92
420.72	23805.59
420.91	23910.91
421.10	23623.03
421.29	22981.72
421.48	22614.26
421.67	23653.45
421.86	22572.13
422.05	21745.92
422.24	18916.21
422.43	19033.24
422.61	20840.13
422.80	22883.42
422.99	23033.21
423.18	21823.16
423.37	21685.06
423.56	21350.37
423.75	21649.96
423.94	22129.77
424.13	21034.39
424.32	21341.00
424.50	21436.97
424.69	21231.00
424.88	21221.64
425.07	21198.23
425.26	21188.87
425.45	21013.33
425.64	20451.60
425.83	20423.51
426.01	21579.74
426.20	22094.66
426.39	22094.66
426.58	20622.46
426.77	19126.86
426.96	18410.65
427.15	19089.41
427.33	20475.01
427.52	21341.00
427.71	21448.67
427.90	21078.86
428.09	20812.04
428.28	20432.88
428.46	19791.57
428.65	19557.52
428.84	20013.92
429.03	20255.00
429.22	19377.30
429.40	18298.31
429.59	16636.53
429.78	14623.67
429.97	14775.80
430.16	14705.59
430.34	14939.64
430.53	14803.89
430.72	15225.18
430.91	17036.76
431.10	19917.96
431.28	23314.08
431.47	25221.61
431.66	25301.19
431.85	23482.59
432.03	21507.18
432.22	20334.57
432.41	21055.46
432.60	23683.88
432.79	24790.95
432.97	25010.96
433.16	24627.12
433.35	22471.48
433.54	20095.84
433.72	19164.31
433.91	19681.56
434.10	21991.67
434.28	23700.26
434.47	24657.54
434.66	24224.54
434.85	23651.11
435.03	23798.57
435.22	24107.52
435.41	25811.43
435.59	25507.16
435.78	25991.65
435.97	26419.97
436.16	26958.29
436.34	26494.86
436.53	25940.16
436.72	25853.56
436.90	24273.70
437.09	24430.51
437.28	23976.45
437.46	24842.45
437.65	24711.38
437.84	23335.14
438.02	21163.12
438.21	21022.69
438.40	22309.99
438.58	24482.00
438.77	24931.39
438.96	25135.01
439.14	25935.48
439.33	26759.34
439.52	27122.13
439.70	26347.41
439.89	25893.35
440.08	25270.76
440.26	25287.15
440.45	26410.60
440.63	27517.68
440.82	29188.82
441.01	28566.24
441.19	28657.52
441.38	28739.44
441.57	30352.07
441.75	30520.59
441.94	30473.78
442.12	30232.70
442.31	30639.95
442.50	30855.28
442.68	30733.57
442.87	30251.42
443.05	29570.33
443.24	29862.90
443.43	30857.62
443.61	31622.98
443.80	31782.13
443.98	29483.73
444.17	29909.71
444.35	31803.20
444.54	32416.42
444.73	31400.63
444.91	30871.67
445.10	29399.47
445.28	28187.07
445.47	27578.53
445.65	28161.33
445.84	28421.13
446.02	29333.93
446.21	30274.83
446.39	30190.57
446.58	30719.53
446.77	31232.11
446.95	31351.48
447.14	32224.50
447.32	32835.38
447.51	31428.71
447.69	30991.03
447.88	30483.14
448.06	30478.46
448.25	31583.19
448.43	31875.76
448.62	31271.90
448.80	30731.23
448.99	31307.01
449.17	31304.67
449.36	31316.37
449.54	32769.84
449.73	32954.74
449.91	33549.24
450.10	34494.82
450.28	35040.16
450.46	34113.31
450.65	34593.12
450.83	33883.94
451.02	33532.86
451.20	33673.29
451.39	33738.82
451.57	32882.19
451.76	33308.16
451.94	32821.33
452.13	32290.03
452.31	31182.96
452.49	29509.47
452.68	29977.58
452.86	30167.16
453.05	30534.63
453.23	31372.54
453.42	31831.29
453.60	32952.40
453.78	32968.79
453.97	32919.63
454.15	32725.37
454.34	32051.30
454.52	32423.44
454.70	31557.44
454.89	31466.16
455.07	32613.02
455.26	32793.25
455.44	33802.02
455.62	34274.80
455.81	34714.83
455.99	34366.09
456.17	33612.43
456.36	34174.16
456.54	35206.34
456.73	34574.39
456.91	35622.95
457.09	35512.95
457.28	36290.01
457.46	34675.04
457.64	34618.86
457.83	33589.03
458.01	32811.97
458.19	33874.57
458.38	34164.80
458.56	34981.65
458.74	34651.63
458.93	34162.46
459.11	33989.26
459.29	33699.03
459.48	34127.35
459.66	34071.18
459.84	34679.72
460.03	34934.84
460.21	34508.86
460.39	35627.63
460.57	35339.75
460.76	35814.88
460.94	35854.67
461.12	35679.13
461.31	35543.38
461.49	35660.40
461.67	35674.45
461.85	36886.84
462.04	36517.04
462.22	36793.22
462.40	36690.24
462.59	36458.52
462.77	36364.90
462.95	36856.42
463.13	35927.22
463.32	35754.02
463.50	35817.22
463.68	35229.74
463.86	35639.34
464.05	35325.71
464.23	34199.91
464.41	34653.97
464.59	33663.93
464.78	35211.02
464.96	35526.99
465.14	34745.25
465.32	35739.98
465.50	36877.48
465.69	37116.22
465.87	36182.34
466.05	35405.28
466.23	33614.77
466.41	32884.53
466.60	33785.63
466.78	34146.08
466.96	34831.85
467.14	35166.55
467.32	35278.89
467.51	35669.76
467.69	33954.15
467.87	34604.82
468.05	35208.68
468.23	35257.83
468.41	35548.06
468.60	35449.75
468.78	36051.27
468.96	35363.15
469.14	36156.60
469.32	36652.79
469.50	34829.51
469.69	35047.18
469.87	34174.16
470.05	34017.35
470.23	34356.72
470.41	34232.68
470.59	34983.99
470.77	34934.84
470.95	35690.83
471.14	35999.78
471.32	36037.23
471.50	38043.07
471.68	38192.86
471.86	38770.97
472.04	38838.85
472.22	38443.30
472.40	36615.34
472.58	36842.37
472.77	36552.15
472.95	36669.17
473.13	37696.67
473.31	36961.74
473.49	37212.18
473.67	38429.26
473.85	38293.50
474.03	39220.36
474.21	38752.25
474.39	39721.23
474.57	39566.76
474.75	39660.38
474.93	39367.81
475.12	38368.40
475.30	38733.53
475.48	38983.96
475.66	39388.88
475.84	39346.75
476.02	38335.63
476.20	37998.60
476.38	38698.42
476.56	39779.74
476.74	40222.11
476.92	40306.37
477.10	41280.03
477.28	42527.53
477.46	42494.77
477.64	42866.91
477.82	42721.80
478.00	42642.22
478.18	42557.96
478.36	42380.08
478.54	42061.77
478.72	43005.00
478.90	43489.49
479.08	44783.81
479.26	45373.63
479.44	44601.25
479.62	44425.71
479.80	44776.79
479.98	44818.92
480.16	45326.81
480.34	44285.28
480.52	45415.76
480.70	45404.05
480.88	45069.36
481.06	46302.82
481.24	46391.76
481.41	47468.40
481.59	47868.64
481.77	47388.83
481.95	47009.66
482.13	47365.42
482.31	47065.83
482.49	47854.59
482.67	47599.47
482.85	47840.55
483.03	48474.84
483.21	48495.90
483.39	48718.25
483.57	47966.94
483.74	47796.08
483.92	47973.96
484.10	47770.33
484.28	49179.34
484.46	49640.42
484.64	49649.78
484.82	49074.01
485.00	48383.55
485.18	47714.16
485.35	46461.97
485.53	43285.87
485.71	39894.43
485.89	39267.17
486.07	40961.72
486.25	44224.42
486.43	47136.05
486.61	47353.72
486.78	47161.79
486.96	47728.20
487.14	49249.55
487.32	50148.32
487.50	51037.72
487.68	51880.31
487.85	52172.88
488.03	52030.11
488.21	52193.95
488.39	51100.92
488.57	50272.37
488.75	50312.16
488.92	51639.24
489.10	53345.49
489.28	54639.81
489.46	55243.66
489.64	54857.48
489.81	55220.26
489.99	54857.48
490.17	54927.69
490.35	55178.13
490.53	54703.00
490.70	54265.32
490.88	54536.82
491.06	55206.22
491.24	55112.59
491.41	54319.15
491.59	52521.62
491.77	51976.28
491.95	52982.71
492.13	54288.73
492.30	55213.24
492.48	56088.60
492.66	56575.43
492.84	56523.94
493.01	56271.16
493.19	55667.30
493.37	55372.39
493.54	55241.32
493.72	55814.76
493.90	56757.99
494.08	57331.42
494.25	57687.18
494.43	57844.00
494.61	58279.34
494.79	58267.64
494.96	58003.16
495.14	57415.68
495.32	56760.33
495.49	56095.62
495.67	57174.61
495.85	58258.27
496.02	58712.34
496.20	58527.44
496.38	58021.88
496.55	58021.88
496.73	58478.28
496.91	58592.97
497.09	59161.72
497.26	59236.62
497.44	58759.15
497.62	58220.83
497.79	57588.88
497.97	56388.19
498.14	56624.58
498.32	57588.88
498.50	58541.48
498.67	58958.09
498.85	58822.34
499.03	58913.62
499.20	59236.62
499.38	59323.22
499.56	59065.76
499.73	58611.70
499.91	58190.40
500.08	57717.61
500.26	57284.61
500.44	57626.33
500.61	58073.37
500.79	57949.32
500.97	57743.36
501.14	57544.41
501.32	57315.04
501.49	57436.75
501.67	57544.41
501.84	58309.77
502.02	58255.93
502.20	58782.55
502.37	59004.91
502.55	59171.08
502.72	59456.63
502.90	59842.82
503.07	59400.46
503.25	59381.73
503.43	58445.52
503.60	57975.07
503.78	57261.21
503.95	57478.88
504.13	58922.99
504.30	59781.96
504.48	59688.34
504.65	59103.21
504.83	59269.39
505.01	59791.33
505.18	60168.15
505.36	60732.22
505.53	60584.77
505.71	61097.34
505.88	61120.75
506.06	60212.62
506.23	59938.78
506.41	59662.60
506.58	59835.80
506.76	60018.36
506.93	59854.52
507.11	59735.15
507.28	59903.67
507.46	59526.84
507.63	58852.77
507.81	58417.43
507.98	58894.90
508.16	59625.15
508.33	60018.36
508.50	60320.29
508.68	60317.95
508.85	61045.85
509.03	60882.02
509.20	60858.61
509.38	60339.01
509.55	59559.61
509.73	59592.38
509.90	59994.95
510.08	60411.57
510.25	60175.17
510.42	60088.57
510.60	59962.18
510.77	60238.37
510.95	60690.09
511.12	61045.85
511.30	61160.54
511.47	61410.98
511.64	61303.31
511.82	61066.92
511.99	60184.54
512.17	60025.38
512.34	59498.76
512.51	59786.64
512.69	59955.16
512.86	60048.78
513.04	60341.35
513.21	60547.32
513.38	60095.60
513.56	59639.19
513.73	59107.89
513.90	59449.61
514.08	59330.24
514.25	59657.91
514.43	59788.98
514.60	59805.37
514.77	60048.78
514.95	60135.38
515.12	60011.34
515.29	60196.24
515.47	60477.10
515.64	60790.73
515.81	60451.36
515.99	59831.11
516.16	58595.31
516.33	56636.28
516.51	55255.37
516.68	54473.63
516.85	54010.20
517.03	54443.20
517.20	57022.47
517.37	59348.96
517.54	60168.15
517.72	59774.94
517.89	57263.55
518.06	55189.83
518.24	55508.14
518.41	57530.37
518.58	58618.72
518.75	59072.78
518.93	59210.87
519.10	59042.35
519.27	59337.26
519.45	59578.34
519.62	60306.24
519.79	60795.42
519.96	60610.51
520.14	60032.40
520.31	59161.72
520.48	59236.62
520.65	59590.04
520.83	60594.13
521.00	60884.36
521.17	60390.50
521.34	60179.85
521.52	60528.59
521.69	60985.00
521.86	61324.38
522.03	61076.28
522.20	60088.57
522.38	58894.90
522.55	59058.74
522.72	59849.84
522.89	59585.36
523.07	59711.75
523.24	60268.79
523.41	60870.31
523.58	61235.44
523.75	61656.73
523.92	61654.39
524.10	61525.66
524.27	61427.36
524.44	61109.05
524.61	60924.14
524.78	60837.54
524.96	60924.14
525.13	60722.86
525.30	61183.94
525.47	61623.96
525.64	61347.78
525.81	60741.58
525.98	59571.32
526.16	58148.27
526.33	57385.25
526.50	57146.52
526.67	56750.97
526.84	57427.38
527.01	58223.17
527.18	59018.95
527.36	60013.68
527.53	60846.91
527.70	61092.66
527.87	60427.95
528.04	59880.27
528.21	60292.20
528.38	61200.33
528.55	61638.01
528.72	61888.45
528.89	61890.79
529.07	61698.86
529.24	61336.08
529.41	60575.40
529.58	59990.27
529.75	60224.32
529.92	60505.19
530.09	60772.01
530.26	61532.68
530.43	61743.33
530.60	61736.31
530.77	61855.68
530.94	62028.88
531.11	61513.96
531.28	61090.32
531.46	61034.15
531.63	61106.71
531.80	61228.41
531.97	60561.36
532.14	60107.30
532.31	59168.74
532.48	58309.77
532.65	58401.05
532.82	59236.62
532.99	60360.08
533.16	60512.21
533.33	60767.33
533.50	60949.89
533.67	60395.18
533.84	59924.74
534.01	60126.02
534.18	60198.58
534.35	60603.49
534.52	60264.11
534.69	60608.17
534.86	60928.83
535.03	61263.52
535.20	61492.89
535.37	61867.38
535.54	61942.28
535.71	61577.15
535.88	61251.82
536.05	60727.54
536.22	60395.18
536.38	59884.95
536.55	59763.24
536.72	59231.94
536.89	59299.81
537.06	59957.50
537.23	60673.71
537.40	60818.82
537.57	61087.98
537.74	60701.79
537.91	60659.66
538.08	60713.50
538.25	60610.51
538.42	60772.01
538.59	60633.92
538.75	59880.27
538.92	59810.05
539.09	59578.34
539.26	59643.87
539.43	59363.01
539.60	59489.40
539.77	59608.76
539.94	59529.19
540.11	58651.48
540.28	58333.17
540.44	58408.07
540.61	58534.46
540.78	58684.25
540.95	59372.37
541.12	59540.89
541.29	60027.72
541.46	60128.36
541.62	60165.81
541.79	60074.53
541.96	59428.54
542.13	59407.48
542.30	59695.36
542.47	59941.12
542.63	59774.94
542.80	59473.01
542.97	59552.59
543.14	59391.09
543.31	59487.06
543.48	60004.31
543.64	60720.52
543.81	60830.52
543.98	60818.82
544.15	60226.66
544.32	59461.31
544.48	59608.76
544.65	59980.91
544.82	60612.85
544.99	60119.00
545.16	59826.43
545.32	59573.66
545.49	60296.88
545.66	60528.59
545.83	60278.16
546.00	60011.34
546.16	59707.07
546.33	59774.94
546.50	59683.66
546.67	60093.25
546.83	59737.49
547.00	59749.20
547.17	59196.83
547.34	58747.45
547.50	58583.61
547.67	59051.72
547.84	59253.00
548.00	59456.63
548.17	59849.84
548.34	59882.61
548.51	59608.76
548.67	59889.63
548.84	59882.61
549.01	59629.83
549.18	59655.57
549.34	59728.13
549.51	59723.45
549.68	59728.13
549.84	59395.77
550.01	59363.01
550.18	59068.10
550.34	59367.69
550.51	59248.32
550.68	59388.75
550.84	58838.73
551.01	59107.89
551.18	59009.59
551.34	59262.36
551.51	59421.52
551.68	59847.50
551.84	59707.07
552.01	59599.40
552.18	59414.50
552.34	58672.55
552.51	58375.30
552.68	58199.76
552.84	58972.14
553.01	59028.31
553.18	58812.98
553.34	59011.93
553.51	59185.13
553.67	59388.75
553.84	59426.20
554.01	59517.48
554.17	59096.19
554.34	59274.07
554.51	59355.99
554.67	59709.41
554.84	59458.97
555.00	59241.30
555.17	59124.27
555.33	59021.29
555.50	58838.73
555.67	58946.39
555.83	58745.11
556.00	58677.23
556.16	58473.60
556.33	58213.80
556.50	58075.71
556.66	58155.29
556.83	57893.15
556.99	58089.76
557.16	57949.32
557.32	58351.90
557.49	58328.49
557.65	58300.40
557.82	58436.16
557.98	58302.74
558.15	57829.96
558.32	57340.78
558.48	56355.42
558.65	56636.28
558.81	56963.96
558.98	57509.30
559.14	57354.83
559.31	57537.39
559.47	57338.44
559.64	57001.41
559.80	56783.74
559.97	56879.70
560.13	57462.49
560.30	58277.00
560.46	58618.72
560.63	58599.99
560.79	58927.67
560.96	58597.65
561.12	57448.45
561.29	56662.03
561.45	56575.43
561.61	57324.40
561.78	57563.14
561.94	57336.10
562.11	57375.89
562.27	57272.91
562.44	57609.95
562.60	57907.19
562.77	58082.73
562.93	57982.09
563.10	57834.64
563.26	57120.77
563.42	57396.96
563.59	57062.26
563.75	57155.88
563.92	57080.98
564.08	57090.35
564.24	57396.96
564.41	57551.43
564.57	57394.62
564.74	57176.95
564.90	57158.22
565.07	56884.38
565.23	56631.60
565.39	55962.21
565.56	55758.58
565.72	55714.11
565.88	55955.19
566.05	56081.58
566.21	56348.40
566.38	56512.23
566.54	56720.54
566.70	56931.19
566.87	57059.92
567.03	57059.92
567.19	57361.85
567.36	57013.11
567.52	56746.29
567.68	56765.01
567.85	56046.47
568.01	55351.33
568.17	55402.82
568.34	55547.93
568.50	55290.48
568.66	55360.69
568.83	55854.54
568.99	56006.68
569.15	56076.90
569.32	55889.65
569.48	55835.82
569.64	55751.56
569.81	55461.33
569.97	54951.10
570.13	55210.90
570.30	54845.77
570.46	54553.21
570.62	53930.62
570.78	53771.47
570.95	54206.81
571.11	54665.55
571.27	55173.45
571.43	54972.16
571.60	55351.33
571.76	55477.72
571.92	56004.34
572.09	55913.06
572.25	55814.76
572.41	56074.55
572.57	55910.72
572.74	55796.03
572.90	55468.36
573.06	55297.50
573.22	55290.48
573.38	55398.14
573.55	55323.24
573.71	55629.85
573.87	55182.81
574.03	55121.96
574.20	55164.09
574.36	54880.88
574.52	54911.31
574.68	54593.00
574.84	54445.54
575.01	53935.30
575.17	53879.13
575.33	54141.27
575.49	54160.00
575.65	54588.31
575.82	54258.30
575.98	53872.11
576.14	54204.47
576.30	54433.84
576.46	54740.45
576.62	54801.30
576.79	54550.87
576.95	54021.90
577.11	54188.08
577.27	54309.79
577.43	54347.24
577.59	54026.59
577.75	53523.37
577.92	53134.84
578.08	52580.13
578.24	52683.12
578.40	53024.84
578.56	53333.79
578.72	53769.13
578.88	53525.71
579.04	53727.00
579.21	53719.98
579.37	53846.36
579.53	54007.86
579.69	53949.35
579.85	54321.49
580.01	54143.61
580.17	53471.88
580.33	53340.81
580.49	53738.70
580.65	53958.71
580.82	53731.68
580.98	54087.44
581.14	54010.20
581.30	53741.04
581.46	53722.32
581.62	53996.16
581.78	53839.34
581.94	54377.67
582.10	53961.05
582.26	53916.58
582.42	54279.36
582.58	54110.85
582.74	54019.56
582.90	54225.53
583.06	54244.26
583.22	53979.78
583.38	53886.15
583.54	53579.54
583.70	53741.04
583.86	53450.81
584.02	53549.12
584.18	53638.06
584.34	53680.19
584.50	53778.49
584.66	53476.56
584.82	53057.60
584.98	53134.84
585.14	52692.48
585.30	51997.34
