SpectraSuite Data File
++++++++++++++++++++++++++++++++++++
Date: Mon Oct 07 14:53:32 GMT-05:00 2013
User: price-jones
Dark Spectrum Present: No
Reference Spectrum Present: No
Number of Sampled Component Spectra: 1
Spectrometers: USB2+H05261
Integration Time (usec): 100000 (USB2+H05261)
Spectra Averaged: 1 (USB2+H05261)
Boxcar Smoothing: 0 (USB2+H05261)
Correct for Electrical Dark: No (USB2+H05261)
Strobe/Lamp Enabled: No (USB2+H05261)
Correct for Detector Non-linearity: No (USB2+H05261)
Correct for Stray Light: No (USB2+H05261)
Number of Pixels in Processed Spectrum: 2048
>>>>>Begin Processed Spectral Data<<<<<
365.73	0.00
365.92	0.00
366.12	0.00
366.32	0.00
366.52	0.00
366.72	0.00
366.91	0.00
367.11	0.00
367.31	0.00
367.51	0.00
367.70	0.00
367.90	0.00
368.10	0.00
368.30	0.00
368.49	0.00
368.69	0.00
368.89	0.00
369.09	0.00
369.28	0.00
369.48	0.00
369.68	0.00
369.87	0.00
370.07	0.00
370.27	0.00
370.47	624.92
370.66	3194.83
370.86	4142.75
371.06	4418.93
371.25	4351.06
371.45	4016.36
371.65	3620.81
371.84	3412.50
372.04	3459.31
372.24	3904.01
372.44	3983.59
372.63	4007.00
372.83	3796.35
373.03	3246.32
373.22	3002.91
373.42	3105.89
373.62	3716.77
373.81	4025.72
374.01	3976.57
374.21	3651.24
374.40	3304.84
374.60	3574.00
374.79	3960.19
374.99	4545.32
375.19	4894.06
375.38	5050.88
375.58	4732.56
375.78	4557.02
375.97	4645.96
376.17	4809.80
376.37	4903.42
376.56	5100.03
376.76	5184.29
376.95	5554.09
377.15	5966.03
377.35	6221.14
377.54	6303.06
377.74	6572.22
377.93	6572.22
378.13	6523.07
378.33	6394.34
378.52	5654.73
378.72	5455.79
378.91	5516.64
379.11	5064.92
379.31	4905.76
379.50	4905.76
379.70	5425.36
379.89	6214.12
380.09	6249.23
380.28	6361.58
380.48	6544.14
380.68	6354.55
380.87	6310.08
381.07	5930.92
381.26	5310.68
381.46	5013.43
381.65	4865.97
381.85	4753.63
382.04	4351.06
382.24	4313.61
382.43	3971.89
382.63	3894.65
382.83	3922.74
383.02	4016.36
383.22	4018.70
383.41	3845.50
383.61	4264.46
383.80	4898.74
384.00	5511.96
384.19	6099.44
384.39	6384.98
384.58	6537.12
384.78	6387.32
384.97	6314.77
385.17	5912.19
385.36	5715.59
385.56	5467.49
385.75	5619.63
385.95	6052.63
386.14	6700.95
386.34	6607.33
386.53	6429.45
386.72	5834.96
386.92	6061.99
387.11	6249.23
387.31	6633.08
387.50	6656.48
387.70	6356.90
387.89	6242.21
388.09	6242.21
388.28	6368.60
388.48	6464.56
388.67	6991.18
388.86	7508.44
389.06	8058.46
389.25	8762.97
389.45	8674.03
389.64	8437.63
389.84	8451.67
390.03	8482.10
390.22	8344.01
390.42	8500.83
390.61	9219.37
390.81	9809.19
391.00	10019.83
391.19	10047.92
391.39	9790.46
391.58	9034.47
391.78	8416.57
391.97	8219.96
392.16	7838.45
392.36	7030.97
392.55	5731.97
392.75	4575.75
392.94	3672.30
393.13	3625.49
393.33	4290.20
393.52	5556.43
393.71	6836.70
393.91	7623.12
394.10	8177.83
394.29	9085.96
394.49	9699.18
394.68	10373.25
394.88	10569.86
395.07	10944.34
395.26	10890.51
395.46	10354.53
395.65	9753.01
395.84	8559.34
396.04	7463.97
396.23	6031.56
396.42	4978.32
396.62	4678.73
396.81	5451.11
397.00	7148.00
397.19	8966.59
397.39	10626.03
397.58	12009.29
397.77	12650.60
397.97	13263.82
398.16	13099.98
398.35	13802.14
398.55	14328.76
398.74	14448.13
398.93	14941.98
399.12	14913.89
399.32	14314.72
399.51	14614.30
399.70	15494.35
399.90	14918.57
400.09	15637.12
400.28	15360.94
400.47	15382.00
400.67	16119.27
400.86	16617.80
401.05	16526.52
401.24	16622.48
401.44	16905.69
401.63	17055.48
401.82	17041.44
402.01	16905.69
402.21	17057.82
402.40	17355.07
402.59	16795.68
402.78	16140.33
402.97	15477.96
403.17	16123.95
403.36	17303.58
403.55	17823.18
403.74	17916.80
403.93	17406.56
404.13	16077.14
404.32	15733.08
404.51	16030.33
404.70	17565.72
404.89	17673.39
405.09	17226.34
405.28	16709.08
405.47	16875.26
405.66	16889.31
405.85	16313.53
406.05	15910.96
406.24	16292.47
406.43	17029.74
406.62	17224.00
406.81	17675.73
407.00	16851.86
407.20	16524.18
407.39	16884.62
407.58	17563.38
407.77	18008.08
407.96	18654.07
408.15	19030.90
408.34	19000.47
408.54	19847.74
408.73	20049.03
408.92	19742.42
409.11	18857.70
409.30	17823.18
409.49	16730.15
409.68	16093.52
409.87	15332.85
410.07	16482.05
410.26	17867.65
410.45	18867.06
410.64	19508.37
410.83	19995.20
411.02	20416.49
411.21	21296.53
411.40	21039.08
411.59	20884.60
411.78	20950.14
411.98	20812.04
412.17	20900.98
412.36	20245.63
412.55	20489.05
412.74	20245.63
412.93	19967.11
413.12	19541.13
413.31	21596.12
413.50	22314.67
413.69	22520.63
413.88	21310.58
414.07	20833.11
414.26	21252.06
414.45	22001.04
414.64	21612.51
414.83	22066.57
415.02	21525.91
415.22	21579.74
415.41	22267.86
415.60	22747.67
415.79	23814.95
415.98	24297.10
416.17	24510.09
416.36	23559.83
416.55	23227.48
416.74	22595.53
416.93	22127.42
417.12	21752.94
417.31	22045.51
417.50	22349.78
417.69	23288.33
417.88	23145.56
418.07	23037.89
418.26	22466.80
418.45	22742.99
418.64	23632.39
418.83	24414.13
419.02	24264.33
419.21	23854.74
419.39	22642.34
419.58	21998.70
419.77	21888.69
419.96	22810.86
420.15	24051.34
420.34	24615.41
420.53	25783.34
420.72	26125.06
420.91	26089.95
421.10	25757.60
421.29	25319.92
421.48	24231.57
421.67	26029.10
421.86	24797.98
422.05	23281.31
422.24	21118.65
422.43	20821.41
422.61	22759.37
422.80	24702.01
422.99	24655.20
423.18	23744.73
423.37	23562.17
423.56	23660.48
423.75	23985.81
423.94	24343.91
424.13	22972.36
424.32	23421.74
424.50	23346.84
424.69	22955.97
424.88	23168.96
425.07	23241.52
425.26	23096.41
425.45	22813.20
425.64	22405.95
425.83	21956.57
426.01	23506.00
426.20	24259.65
426.39	24374.34
426.58	22499.57
426.77	20868.22
426.96	19995.20
427.15	20952.48
427.33	22415.31
427.52	23133.86
427.71	23498.98
427.90	22925.55
428.09	22930.23
428.28	22401.27
428.46	21907.41
428.65	21104.61
428.84	22036.14
429.03	22160.19
429.22	20961.84
429.40	20018.60
429.59	18370.86
429.78	15880.53
429.97	16027.99
430.16	16435.24
430.34	16100.55
430.53	16189.49
430.72	16613.12
430.91	18656.41
431.10	21933.16
431.28	25607.80
431.47	27447.46
431.66	27777.48
431.85	25607.80
432.03	23166.62
432.22	22459.78
432.41	23550.47
432.60	25809.09
432.79	26803.82
432.97	27651.09
433.16	27274.26
433.35	25060.12
433.54	22129.77
433.72	20753.53
433.91	21572.72
434.10	23515.36
434.28	25558.65
434.47	26890.41
434.66	26321.66
434.85	25942.50
435.03	25537.59
435.22	26211.66
435.41	28079.41
435.59	28053.66
435.78	28573.26
435.97	29465.00
436.16	28926.68
436.34	28975.83
436.53	28189.41
436.72	28474.96
436.90	26621.25
437.09	26394.22
437.28	26024.42
437.46	27243.84
437.65	27124.47
437.84	25596.10
438.02	23257.90
438.21	23028.53
438.40	24013.90
438.58	26366.13
438.77	27068.30
438.96	27335.12
439.14	28484.32
439.33	29249.67
439.52	29593.73
439.70	28996.90
439.89	28154.30
440.08	27218.09
440.26	27463.85
440.45	28297.08
440.63	30129.72
440.82	31861.71
441.01	31417.01
441.19	31365.52
441.38	31592.55
441.57	33144.33
441.75	33474.34
441.94	33530.51
442.12	32863.46
442.31	33556.26
442.50	34033.73
442.68	33305.82
442.87	32959.42
443.05	32580.26
443.24	32858.78
443.43	33476.68
443.61	34108.63
443.80	34801.43
443.98	32435.14
444.17	32308.76
444.35	34646.95
444.54	35072.93
444.73	34529.92
444.91	33315.19
445.10	31999.80
445.28	30965.29
445.47	30150.78
445.65	30515.90
445.84	31395.95
446.02	32393.01
446.21	32809.63
446.39	32762.82
446.58	33214.54
446.77	34157.78
446.95	34602.48
447.14	35180.59
447.32	35587.85
447.51	34508.86
447.69	33518.81
447.88	32982.83
448.06	33312.84
448.25	33958.83
448.43	34396.51
448.62	33586.69
448.80	33640.52
448.99	34019.69
449.17	34560.35
449.36	34258.42
449.54	35709.55
449.73	36201.07
449.91	36418.74
450.10	37521.13
450.28	37823.06
450.46	37277.71
450.65	37839.44
450.83	37263.67
451.02	36952.38
451.20	36620.02
451.39	36769.82
451.57	35931.90
451.76	36194.04
451.94	36187.02
452.13	35428.69
452.31	33722.44
452.49	32435.14
452.68	32313.44
452.86	32989.85
453.05	33151.35
453.23	34115.65
453.42	34951.22
453.60	35955.31
453.78	36116.81
453.97	35857.01
454.15	35917.86
454.34	34618.86
454.52	35447.41
454.70	34518.22
454.89	34930.16
455.07	35171.23
455.26	35480.18
455.44	36566.19
455.62	37244.94
455.81	37890.93
455.99	37270.69
456.17	36900.89
456.36	37027.28
456.54	38141.37
456.73	37785.61
456.91	38878.64
457.09	38476.07
457.28	39262.49
457.46	37589.00
457.64	37738.80
457.83	36435.12
458.01	35777.43
458.19	36982.80
458.38	37102.17
458.56	37699.01
458.74	38127.33
458.93	37251.97
459.11	37467.30
459.29	37038.98
459.48	37057.70
459.66	36730.03
459.84	37556.24
460.03	38101.58
460.21	37876.89
460.39	38639.90
460.57	38754.59
460.76	39250.78
460.94	39379.51
461.12	38672.67
461.31	39168.87
461.49	39000.35
461.67	38782.68
461.85	39590.16
462.04	39784.43
462.22	40608.29
462.40	40058.27
462.59	39117.37
462.77	39428.66
462.95	39618.25
463.13	39243.76
463.32	38920.77
463.50	38522.88
463.68	38565.01
463.86	38866.94
464.05	38108.60
464.23	37336.23
464.41	37090.47
464.59	36701.94
464.78	38646.93
464.96	38270.10
465.14	38178.82
465.32	39012.05
465.50	39721.23
465.69	40540.42
465.87	39690.80
466.05	38265.42
466.23	36467.89
466.41	35927.22
466.60	36809.61
466.78	36905.57
466.96	37305.80
467.14	38223.29
467.32	38644.59
467.51	38501.81
467.69	37001.53
467.87	37965.83
468.05	38466.70
468.23	38532.24
468.41	38759.27
468.60	38904.38
468.78	38883.32
468.96	38295.85
469.14	39489.52
469.32	39655.70
469.50	37804.33
469.69	37883.91
469.87	37581.98
470.05	37504.74
470.23	37331.54
470.41	37296.44
470.59	37844.12
470.77	38150.73
470.95	38885.66
471.14	39086.95
471.32	39356.11
471.50	41713.03
471.68	41670.90
471.86	42139.00
472.04	42300.50
472.22	42333.27
472.40	40484.25
472.58	39920.18
472.77	39674.42
472.95	40395.31
473.13	41284.71
473.31	40477.22
473.49	40779.15
473.67	41205.13
473.85	41729.41
474.03	42562.64
474.21	42410.51
474.39	43292.89
474.57	42897.34
474.75	42892.66
474.93	43140.75
475.12	41493.02
475.30	42047.72
475.48	41769.20
475.66	42855.21
475.84	42223.26
476.02	41574.94
476.20	41474.29
476.38	41921.34
476.56	42993.30
476.74	43992.71
476.92	43875.68
477.10	44212.72
477.28	45385.33
477.46	45928.33
477.64	46717.09
477.82	46340.27
478.00	46593.04
478.18	46122.60
478.36	45769.18
478.54	45750.45
478.72	45446.18
478.90	46719.43
479.08	48034.81
479.26	48364.83
479.44	48053.54
479.62	47988.00
479.80	48519.31
479.98	48058.22
480.16	48699.53
480.34	48170.57
480.52	48570.80
480.70	48652.72
480.88	48589.52
481.06	49499.99
481.24	49504.67
481.41	50508.76
481.59	51173.47
481.77	50831.75
481.95	50150.66
482.13	50078.10
482.31	49961.08
482.49	50710.05
482.67	50581.32
482.85	50653.87
483.03	51278.80
483.21	51559.66
483.39	51812.44
483.57	50635.15
483.74	50553.23
483.92	51129.00
484.10	51089.21
484.28	52177.56
484.46	52200.97
484.64	52465.45
484.82	52114.37
485.00	51433.27
485.18	51147.73
485.35	49790.22
485.53	46808.37
485.71	42955.85
485.89	42347.31
486.07	44472.52
486.25	47615.86
486.43	50092.15
486.61	50740.47
486.78	50480.67
486.96	50948.78
487.14	52186.92
487.32	52987.39
487.50	53614.65
487.68	54253.62
487.85	54934.71
488.03	54787.26
488.21	54787.26
488.39	53921.26
488.57	53532.73
488.75	53265.91
488.92	53951.69
489.10	55767.94
489.28	56896.08
489.46	57275.25
489.64	57251.84
489.81	57525.69
489.99	56996.73
490.17	57352.49
490.35	57420.36
490.53	57230.78
490.70	56727.56
490.88	56622.24
491.06	57595.90
491.24	57518.67
491.41	56896.08
491.59	55473.04
491.77	54621.08
491.95	55377.08
492.13	56465.42
492.30	57450.79
492.48	58492.33
492.66	58752.13
492.84	58827.02
493.01	58372.96
493.19	58078.05
493.37	57708.25
493.54	57570.16
493.72	58106.14
493.90	58892.56
494.08	59742.17
494.25	60053.47
494.43	60114.32
494.61	60353.05
494.79	60355.39
494.96	60210.28
495.14	59788.98
495.32	58995.54
495.49	58258.27
495.67	59269.39
495.85	60624.56
496.02	60718.18
496.20	60643.28
496.38	60189.22
496.55	60086.23
496.73	60636.26
496.91	60671.37
497.09	61017.77
497.26	61485.87
497.44	60985.00
497.62	60420.93
497.79	59824.09
497.97	58614.04
498.14	58714.68
498.32	59880.27
498.50	60383.48
498.67	61109.05
498.85	60898.40
499.03	61106.71
499.20	61481.19
499.38	61277.57
499.56	61216.71
499.73	60786.05
499.91	60317.95
500.08	60133.04
500.26	59412.16
500.44	59704.73
500.61	60364.76
500.79	60313.26
500.97	59896.65
501.14	59608.76
501.32	59559.61
501.49	59646.21
501.67	59774.94
501.84	60207.94
502.02	60582.43
502.20	60832.86
502.37	60905.42
502.55	60985.00
502.72	61565.45
502.90	61949.30
503.07	61724.61
503.25	61310.33
503.43	60584.77
503.60	59814.73
503.78	59255.34
503.95	59765.58
504.13	61027.13
504.30	61621.62
504.48	61666.09
504.65	61169.90
504.83	61251.82
505.01	61738.65
505.18	62166.97
505.36	62679.55
505.53	62609.33
505.71	62866.79
505.88	63089.14
506.06	62386.98
506.23	62080.37
506.41	61825.25
506.58	61998.45
506.76	61921.21
506.93	61883.76
507.11	61717.59
507.28	61843.98
507.46	61581.84
507.63	60928.83
507.81	60669.03
507.98	60903.08
508.16	61403.95
508.33	61965.68
508.50	62279.31
508.68	62611.67
508.85	63035.31
509.03	63065.73
509.20	62974.45
509.38	62365.91
509.55	61607.58
509.73	61621.62
509.90	62063.99
510.08	62386.98
510.25	62295.70
510.42	62073.35
510.60	62173.99
510.77	62159.95
510.95	62752.10
511.12	62773.17
511.30	63278.72
511.47	63351.28
511.64	63283.40
511.82	63117.23
511.99	62436.13
512.17	61874.40
512.34	61553.75
512.51	61883.76
512.69	61928.23
512.86	62005.47
513.04	62457.20
513.21	62396.34
513.38	62080.37
513.56	61757.38
513.73	60970.96
513.90	61219.05
514.08	61453.11
514.25	61532.68
514.43	61939.94
514.60	61879.08
514.77	61937.60
514.95	62138.88
515.12	61961.00
515.29	62181.01
515.47	62592.95
515.64	62908.92
515.81	62574.22
515.99	61984.41
516.16	60942.87
516.33	58834.05
516.51	57485.90
516.68	56860.97
516.85	56343.72
517.03	56704.16
517.20	59044.69
517.37	61205.01
517.54	62195.06
517.72	61743.33
517.89	59613.44
518.06	57485.90
518.24	57743.36
518.41	59592.38
518.58	60886.70
518.75	61151.18
518.93	61034.15
519.10	61158.20
519.27	61427.36
519.45	61743.33
519.62	62321.44
519.79	62597.63
519.96	62602.31
520.14	62349.53
520.31	61375.87
520.48	61160.54
520.65	61642.69
520.83	62354.21
521.00	62986.16
521.17	62625.71
521.34	62372.94
521.52	62396.34
521.69	62941.69
521.86	63456.60
522.03	62850.41
522.20	62012.49
522.38	60975.64
522.55	61045.85
522.72	61436.72
522.89	61748.01
523.07	61949.30
523.24	62195.06
523.41	62958.07
523.58	63245.96
523.75	63538.52
523.92	63517.46
524.10	63447.24
524.27	63313.83
524.44	63126.59
524.61	63047.01
524.78	62986.16
524.96	62920.62
525.13	62836.36
525.30	63086.80
525.47	63582.99
525.64	63304.47
525.81	62691.25
525.98	61406.30
526.16	60191.56
526.33	59723.45
526.50	59255.34
526.67	59054.06
526.84	59487.06
527.01	60420.93
527.18	61146.50
527.36	62014.83
527.53	62794.23
527.70	62920.62
527.87	62621.03
528.04	62143.56
528.21	62424.43
528.38	63164.04
528.55	63515.12
528.72	63838.11
528.89	64018.33
529.07	63695.34
529.24	63096.16
529.41	62475.92
529.58	61984.41
529.75	62127.18
529.92	62363.57
530.09	62824.66
530.26	63395.75
530.43	63611.08
530.60	63458.94
530.77	63838.11
530.94	63915.35
531.11	63489.37
531.28	63039.99
531.46	62972.11
531.63	63140.63
531.80	63016.58
531.97	62663.16
532.14	62092.07
532.31	61197.99
532.48	60449.02
532.65	60568.38
532.82	61235.44
532.99	62358.89
533.16	62733.38
533.33	63142.97
533.50	62920.62
533.67	62258.25
533.84	61930.58
534.01	62148.24
534.18	62429.11
534.35	62506.35
534.52	62354.21
534.69	62614.01
534.86	62951.05
535.03	63131.27
535.20	63585.33
535.37	63915.35
535.54	63840.45
535.71	63482.35
535.88	63161.70
536.05	62850.41
536.22	62309.74
536.38	62040.58
536.55	61656.73
536.72	61176.92
536.89	61158.20
537.06	61928.23
537.23	62599.97
537.40	62906.58
537.57	62841.04
537.74	62726.36
537.91	62707.63
538.08	62522.73
538.25	62511.03
538.42	62784.87
538.59	62763.81
538.75	61942.28
538.92	61811.21
539.09	61853.34
539.26	61446.08
539.43	61197.99
539.60	61455.45
539.77	61579.49
539.94	61361.82
540.11	60860.95
540.28	60273.48
540.44	60411.57
540.61	60580.09
540.78	60729.88
540.95	61195.65
541.12	61645.03
541.29	61724.61
541.46	62220.80
541.62	62227.82
541.79	62040.58
541.96	61588.86
542.13	61581.84
542.30	61619.28
542.47	61879.08
542.63	61640.35
542.80	61485.87
542.97	61469.49
543.14	61399.27
543.31	61380.55
543.48	62047.60
543.64	62731.04
543.81	62990.84
543.98	62623.37
544.15	62181.01
544.32	61598.22
544.48	61752.69
544.65	62026.54
544.82	62532.09
544.99	61834.61
545.16	61797.16
545.32	61432.04
545.49	62241.87
545.66	62773.17
545.83	62335.49
546.00	61965.68
546.16	61565.45
546.33	61829.93
546.50	61743.33
546.67	62113.14
546.83	61619.28
547.00	61839.29
547.17	61169.90
547.34	60584.77
547.50	60512.21
547.67	61066.92
547.84	61029.47
548.00	61373.53
548.17	61827.59
548.34	61673.12
548.51	61542.05
548.67	61593.54
548.84	61911.85
549.01	61717.59
549.18	61743.33
549.34	61626.31
549.51	61483.53
549.68	61666.09
549.84	61235.44
550.01	61228.41
550.18	61038.83
550.34	61254.16
550.51	61069.26
550.68	61420.34
550.84	60910.10
551.01	61006.06
551.18	61179.26
551.34	61347.78
551.51	61595.88
551.68	61719.93
551.84	61829.93
552.01	61612.26
552.18	61694.18
552.34	60622.22
552.51	60603.49
552.68	60568.38
552.84	60882.02
553.01	61144.16
553.18	60860.95
553.34	61059.90
553.51	61401.61
553.67	61453.11
553.84	61638.01
554.01	61214.37
554.17	61050.53
554.34	61434.38
554.51	61420.34
554.67	61687.16
554.84	61366.51
555.00	61261.18
555.17	60910.10
555.33	60970.96
555.50	61020.11
555.67	60809.46
555.83	60800.10
556.00	60722.86
556.16	60584.77
556.33	60182.19
556.50	59997.29
556.66	60067.51
556.83	59861.54
556.99	59978.57
557.16	60189.22
557.32	60451.36
557.49	60568.38
557.65	60664.35
557.82	60519.23
557.98	60252.41
558.15	59987.93
558.32	59213.21
558.48	58482.97
558.65	58803.62
558.81	58941.71
558.98	59227.26
559.14	59407.48
559.31	59508.12
559.47	59547.91
559.64	59278.75
559.80	59267.05
559.97	59035.33
560.13	59414.50
560.30	60097.94
560.46	60706.47
560.63	60732.22
560.79	60725.20
560.96	60404.55
561.12	59653.23
561.29	58791.92
561.45	58770.85
561.61	59299.81
561.78	59704.73
561.94	59292.79
562.11	59400.46
562.27	59288.11
562.44	59653.23
562.60	59943.46
562.77	59985.59
562.93	59964.52
563.10	59854.52
563.26	59365.35
563.42	59285.77
563.59	59049.38
563.75	59037.67
563.92	59405.14
564.08	59398.12
564.24	59547.91
564.41	59498.76
564.57	59267.05
564.74	59313.86
564.90	59313.86
565.07	58904.26
565.23	58777.87
565.39	58199.76
565.56	58089.76
565.72	57848.68
565.88	58019.54
566.05	58269.98
566.21	58492.33
566.38	58539.14
566.54	58487.65
566.70	59049.38
566.87	59182.79
567.03	59168.74
567.19	59487.06
567.36	59150.02
567.52	59086.82
567.68	58827.02
567.85	57968.05
568.01	58000.82
568.17	57799.53
568.34	57719.95
568.50	57495.26
568.66	57925.92
568.83	58113.16
568.99	58038.26
569.15	58258.27
569.32	58101.46
569.48	57832.30
569.64	57593.56
569.81	57539.73
569.97	57340.78
570.13	57347.81
570.30	57219.08
570.46	56860.97
570.62	55913.06
570.78	55969.23
570.95	56420.95
571.11	57181.63
571.27	57127.80
571.43	57216.74
571.60	57748.04
571.76	57801.87
571.92	57867.40
572.09	58064.01
572.25	58031.24
572.41	57975.07
572.57	57928.26
572.74	57818.25
572.90	57382.91
573.06	57542.07
573.22	57614.63
573.38	57696.55
573.55	57705.91
573.71	57757.40
573.87	57614.63
574.03	57427.38
574.20	57429.72
574.36	57308.02
574.52	56919.49
574.68	57015.45
574.84	56563.73
575.01	56086.26
575.17	56067.53
575.33	56364.78
575.49	56577.77
575.65	56725.22
575.82	56835.23
575.98	56245.41
576.14	56350.74
576.30	57015.45
576.46	56795.44
576.62	56921.83
576.79	56879.70
576.95	56322.65
577.11	56507.55
577.27	56706.50
577.43	56589.47
577.59	56285.20
577.75	56273.50
577.92	55480.06
578.08	55166.43
578.24	55412.18
578.40	55437.93
578.56	55819.44
578.72	55671.98
578.88	56224.35
579.04	55990.30
579.21	56044.13
579.37	56360.10
579.53	56395.21
579.69	56226.69
579.85	56505.21
580.01	56189.24
580.17	55875.61
580.33	55910.72
580.49	55789.01
580.65	56250.09
580.82	56315.63
580.98	56151.79
581.14	56226.69
581.30	56149.45
581.46	56161.15
581.62	56023.06
581.78	56149.45
581.94	56477.13
582.10	56252.44
582.26	56310.95
582.42	56236.05
582.58	56453.72
582.74	56088.60
582.90	56451.38
583.06	56406.91
583.22	56093.28
583.38	56072.21
583.54	56004.34
583.70	55863.91
583.86	55973.91
584.02	55987.95
584.18	56025.40
584.34	55828.80
584.50	55728.16
584.66	55683.69
584.82	55196.85
584.98	55456.65
585.14	54864.50
