SpectraSuite Data File
++++++++++++++++++++++++++++++++++++
Date: Mon Oct 07 14:54:00 GMT-05:00 2013
User: price-jones
Dark Spectrum Present: No
Reference Spectrum Present: No
Number of Sampled Component Spectra: 1
Spectrometers: USB2+H05261
Integration Time (usec): 100000 (USB2+H05261)
Spectra Averaged: 1 (USB2+H05261)
Boxcar Smoothing: 0 (USB2+H05261)
Correct for Electrical Dark: No (USB2+H05261)
Strobe/Lamp Enabled: No (USB2+H05261)
Correct for Detector Non-linearity: No (USB2+H05261)
Correct for Stray Light: No (USB2+H05261)
Number of Pixels in Processed Spectrum: 2048
>>>>>Begin Processed Spectral Data<<<<<
365.73	0.00
365.92	0.00
366.12	0.00
366.32	0.00
366.52	0.00
366.72	0.00
366.91	0.00
367.11	0.00
367.31	0.00
367.51	0.00
367.70	0.00
367.90	0.00
368.10	0.00
368.30	0.00
368.49	0.00
368.69	0.00
368.89	0.00
369.09	0.00
369.28	0.00
369.48	0.00
369.68	0.00
369.87	0.00
370.07	0.00
370.27	0.00
370.47	774.72
370.66	3393.78
370.86	3934.44
371.06	4491.49
371.25	4447.02
371.45	3934.44
371.65	3639.53
371.84	3314.20
372.04	3471.01
372.24	3997.64
372.44	4023.38
372.63	4051.47
372.83	3859.54
373.03	3323.56
373.22	3131.64
373.42	3258.03
373.62	3794.01
373.81	4023.38
374.01	3915.72
374.21	3513.14
374.40	3260.37
374.60	3548.25
374.79	3960.19
374.99	4575.75
375.19	4992.36
375.38	5093.01
375.58	4681.07
375.78	4477.44
375.97	4606.17
376.17	4990.02
376.37	4894.06
376.56	4994.70
376.76	5270.89
376.95	5678.14
377.15	5935.60
377.35	6324.13
377.54	6368.60
377.74	6588.61
377.93	6586.27
378.13	6483.28
378.33	6246.89
378.52	5586.86
378.72	5439.40
378.91	5521.32
379.11	5076.62
379.31	5078.96
379.50	4959.60
379.70	5364.51
379.89	6019.86
380.09	6183.70
380.28	6626.06
380.48	6431.79
380.68	6445.84
380.87	6246.89
381.07	5694.52
381.26	5308.34
381.46	4891.72
381.65	4805.12
381.85	4739.58
382.04	4409.57
382.24	4145.09
382.43	3978.91
382.63	3833.80
382.83	3920.40
383.02	3960.19
383.22	3960.19
383.41	4004.66
383.61	4304.25
383.80	4863.63
384.00	5504.94
384.19	6150.93
384.39	6586.27
384.58	6506.69
384.78	6260.93
384.97	6328.81
385.17	5940.28
385.36	5650.05
385.56	5537.71
385.75	5600.90
385.95	6076.03
386.14	6637.76
386.34	6649.46
386.53	6342.85
386.72	5989.43
386.92	6143.91
387.11	6326.47
387.31	6579.25
387.50	6459.88
387.70	6181.35
387.89	6171.99
388.09	6307.74
388.28	6108.80
388.48	6310.08
388.67	6937.35
388.86	7531.84
389.06	8175.49
389.25	8365.07
389.45	8407.20
389.64	8418.91
389.84	8386.14
390.03	8432.95
390.22	8386.14
390.42	8699.77
390.61	9060.21
390.81	9722.59
391.00	9865.36
391.19	9790.46
391.39	9650.03
391.58	8943.19
391.78	8503.17
391.97	8243.37
392.16	7609.08
392.36	7009.90
392.55	5584.52
392.75	4423.61
392.94	3646.55
393.13	3506.12
393.33	4180.20
393.52	5420.68
393.71	6686.91
393.91	7506.10
394.10	8086.55
394.29	8772.33
394.49	9708.54
394.68	10462.19
394.88	10443.47
395.07	10829.66
395.26	10635.39
395.46	10265.59
395.65	9675.77
395.84	8599.13
396.04	7396.09
396.23	5764.74
396.42	4870.65
396.62	4599.15
396.81	5481.53
397.00	7007.56
397.19	8891.70
397.39	10359.21
397.58	11695.66
397.77	12327.60
397.97	13071.89
398.16	12908.05
398.35	13371.48
398.55	13844.27
398.74	14401.32
398.93	15091.77
399.12	14410.68
399.32	14043.21
399.51	14228.12
399.70	15555.20
399.90	15199.44
400.09	15133.90
400.28	14934.96
400.47	15073.05
400.67	15967.13
400.86	16376.73
401.05	16105.23
401.24	16273.74
401.44	16650.57
401.63	16791.00
401.82	16627.17
402.01	16652.91
402.21	16692.70
402.40	16971.22
402.59	16535.88
402.78	15632.44
402.97	15281.36
403.17	15688.61
403.36	16793.34
403.55	17628.92
403.74	17717.86
403.93	16760.58
404.13	15592.65
404.32	15267.31
404.51	15873.51
404.70	17261.45
404.89	17455.72
405.09	16891.65
405.28	16423.54
405.47	16517.16
405.66	16397.79
405.85	15971.82
406.05	15602.01
406.24	15704.99
406.43	16362.69
406.62	17200.60
406.81	17219.32
407.00	16648.23
407.20	16093.52
407.39	16276.09
407.58	17221.66
407.77	17530.61
407.96	18539.38
408.15	18373.21
408.34	18410.65
408.54	19323.46
408.73	19431.13
408.92	19096.43
409.11	18810.89
409.30	17575.08
409.49	16657.59
409.68	15543.50
409.87	15281.36
410.07	16063.10
410.26	17130.38
410.45	18436.40
410.64	18595.56
410.83	19309.42
411.02	19733.06
411.21	20727.78
411.40	20231.59
411.59	20386.07
411.78	20353.30
411.98	19924.98
412.17	20545.22
412.36	20098.18
412.55	20030.30
412.74	19611.35
412.93	18991.11
413.12	19648.80
413.31	21223.98
413.50	21046.10
413.69	22033.80
413.88	20978.22
414.07	20245.63
414.26	20704.38
414.45	21373.77
414.64	21619.53
414.83	21776.34
415.02	20798.00
415.22	21036.74
415.41	21362.07
415.60	22520.63
415.79	23026.19
415.98	23522.38
416.17	23669.84
416.36	23297.69
416.55	22522.98
416.74	22078.27
416.93	21048.44
417.12	20807.36
417.31	21427.60
417.50	21678.04
417.69	22782.77
417.88	22071.25
418.07	22391.91
418.26	21919.12
418.45	22169.55
418.64	22635.32
418.83	23611.32
419.02	23393.65
419.21	23482.59
419.39	22246.79
419.58	20957.16
419.77	21439.31
419.96	22054.87
420.15	23325.78
420.34	24177.73
420.53	24847.13
420.72	25287.15
420.91	24950.11
421.10	24397.74
421.29	24528.81
421.48	23381.95
421.67	24711.38
421.86	24383.70
422.05	22649.36
422.24	20444.58
422.43	19786.89
422.61	22237.43
422.80	23866.44
422.99	23953.04
423.18	22799.16
423.37	22558.08
423.56	22796.82
423.75	23101.09
423.94	23695.58
424.13	22183.60
424.32	22794.48
424.50	22368.50
424.69	22075.93
424.88	22565.10
425.07	22153.17
425.26	22188.28
425.45	21736.56
425.64	21635.91
425.83	21303.56
426.01	23101.09
426.20	23213.43
426.39	23480.25
426.58	21394.84
426.77	20105.20
426.96	19304.74
427.15	19618.37
427.33	21429.94
427.52	22342.75
427.71	22541.70
427.90	22211.68
428.09	22015.08
428.28	21628.89
428.46	20886.94
428.65	20467.98
428.84	20807.36
429.03	21537.61
429.22	20339.26
429.40	19190.05
429.59	17547.00
429.78	15452.22
429.97	15506.05
430.16	15784.57
430.34	15960.11
430.53	15594.99
430.72	16056.08
430.91	17802.11
431.10	20929.07
431.28	24435.19
431.47	26574.44
431.66	26857.65
431.85	24746.48
432.03	22309.99
432.22	21481.44
432.41	22291.26
432.60	24919.68
432.79	25156.08
432.97	26214.00
433.16	25607.80
433.35	23440.47
433.54	21226.32
433.72	19798.59
433.91	20538.20
434.10	22881.08
434.28	24755.85
434.47	25694.40
434.66	25436.94
434.85	24732.44
435.03	24549.88
435.22	25352.68
435.41	26551.04
435.59	26728.92
435.78	27124.47
435.97	27693.22
436.16	28112.17
436.34	27960.04
436.53	27023.83
436.72	27131.49
436.90	25472.05
437.09	25355.02
437.28	25123.31
437.46	26373.16
437.65	26066.55
437.84	24030.28
438.02	22328.71
438.21	21729.53
438.40	23094.07
438.58	25156.08
438.77	25879.30
438.96	26087.61
439.14	27503.64
439.33	28091.11
439.52	28386.02
439.70	27714.28
439.89	27168.94
440.08	26647.00
440.26	26001.01
440.45	27243.84
440.63	28788.59
440.82	30333.34
441.01	30087.59
441.19	29495.43
441.38	30206.95
441.57	31431.05
441.75	31789.16
441.94	31789.16
442.12	31435.74
442.31	32004.49
442.50	31704.90
442.68	31885.12
442.87	31566.81
443.05	30761.66
443.24	30958.27
443.43	31854.69
443.61	32870.48
443.80	32760.48
443.98	30948.90
444.17	31138.49
444.35	32776.86
444.54	33692.01
444.73	32929.00
444.91	31606.59
445.10	30574.42
445.28	29118.60
445.47	28566.24
445.65	29097.54
445.84	29525.86
446.02	30422.28
446.21	31082.31
446.39	31115.08
446.58	31651.06
446.77	31971.72
446.95	32107.47
447.14	32950.06
447.32	33404.13
447.51	33436.89
447.69	32102.79
447.88	31611.28
448.06	32126.19
448.25	32388.33
448.43	32938.36
448.62	32074.70
448.80	32451.53
448.99	31763.41
449.17	32863.46
449.36	32477.27
449.54	33617.11
449.73	34419.92
449.91	34457.37
450.10	35550.40
450.28	36198.73
450.46	35917.86
450.65	35697.85
450.83	35526.99
451.02	34815.47
451.20	34485.45
451.39	34689.08
451.57	34452.69
451.76	34139.05
451.94	34368.43
452.13	33104.54
452.31	31894.48
452.49	30513.56
452.68	31021.46
452.86	30785.07
453.05	31105.72
453.23	32467.91
453.42	32943.04
453.60	33956.49
453.78	34356.72
453.97	33684.99
454.15	33315.19
454.34	32793.25
454.52	33259.01
454.70	32467.91
454.89	33123.26
455.07	33186.46
455.26	33619.46
455.44	34679.72
455.62	35194.64
455.81	35920.20
455.99	35627.63
456.17	34927.81
456.36	35126.76
456.54	35658.06
456.73	36219.79
456.91	36851.73
457.09	36505.34
457.28	37448.57
457.46	35838.28
457.64	35353.79
457.83	34125.01
458.01	34005.64
458.19	34440.98
458.38	34946.54
458.56	35880.41
458.74	36046.59
458.93	35211.02
459.11	34993.35
459.29	34862.28
459.48	35086.97
459.66	35122.08
459.84	35442.73
460.03	35536.35
460.21	35805.52
460.39	36392.99
460.57	36498.31
460.76	36985.15
460.94	36622.36
461.12	36491.29
461.31	36664.49
461.49	36198.73
461.67	36545.12
461.85	37909.66
462.04	37273.03
462.22	37626.45
462.40	37801.99
462.59	37249.63
462.77	37060.04
462.95	37390.06
463.13	36816.63
463.32	36683.22
463.50	36577.89
463.68	36573.21
463.86	36641.09
464.05	35739.98
464.23	35388.90
464.41	35236.77
464.59	34326.30
464.78	36388.31
464.96	35772.75
465.14	35557.42
465.32	36524.06
465.50	37429.85
465.69	37722.41
465.87	36924.29
466.05	36243.20
466.23	34876.32
466.41	33694.35
466.60	34932.50
466.78	34696.10
466.96	35299.96
467.14	35765.73
467.32	36435.12
467.51	36247.88
467.69	34878.66
467.87	35454.44
468.05	36112.13
468.23	35971.69
468.41	35833.60
468.60	36613.00
468.78	36573.21
468.96	36133.19
469.14	36545.12
469.32	36957.06
469.50	35145.48
469.69	35725.94
469.87	35019.10
470.05	34979.31
470.23	35079.95
470.41	34941.86
470.59	35271.87
470.77	35445.07
470.95	36381.29
471.14	36954.72
471.32	36402.35
471.50	38630.54
471.68	38792.04
471.86	39035.45
472.04	39377.17
472.22	39323.34
472.40	37141.96
472.58	37448.57
472.77	36933.65
472.95	37659.22
473.13	38415.21
473.31	37801.99
473.49	37766.88
473.67	38541.60
473.85	38731.18
474.03	39423.98
474.21	39622.93
474.39	40390.62
474.57	40292.32
474.75	40318.07
474.93	39686.12
475.12	39379.51
475.30	38834.17
475.48	39068.22
475.66	39845.28
475.84	39938.90
476.02	39229.72
476.20	38398.83
476.38	39468.45
476.56	40547.44
476.74	40526.38
476.92	41116.19
477.10	41729.41
477.28	42506.47
477.46	42836.48
477.64	42932.45
477.82	43428.64
478.00	43225.01
478.18	42658.60
478.36	42473.70
478.54	42876.27
478.72	43023.73
478.90	43920.15
479.08	44847.00
479.26	45668.53
479.44	45549.17
479.62	45404.05
479.80	44985.10
479.98	45296.39
480.16	46066.42
480.34	44765.09
480.52	45851.09
480.70	45581.93
480.88	45734.07
481.06	46965.19
481.24	46548.57
481.41	47622.88
481.59	48519.31
481.77	47838.21
481.95	47782.04
482.13	46988.60
482.31	47440.32
482.49	48423.34
482.67	47491.81
482.85	48100.35
483.03	48804.85
483.21	49223.81
483.39	49090.40
483.57	48353.13
483.74	48016.09
483.92	48381.21
484.10	48481.86
484.28	49382.96
484.46	49738.72
484.64	50244.28
484.82	49078.69
485.00	48650.38
485.18	47978.64
485.35	46857.52
485.53	43798.44
485.71	40032.52
485.89	39484.84
486.07	41188.75
486.25	44701.89
486.43	47351.38
486.61	47922.47
486.78	47597.13
486.96	48280.57
487.14	49317.43
487.32	50295.77
487.50	50993.25
487.68	52009.04
487.85	52762.70
488.03	52636.31
488.21	52210.33
488.39	51440.29
488.57	50951.12
488.75	50223.22
488.92	51475.40
489.10	53427.41
489.28	54731.09
489.46	55309.20
489.64	55210.90
489.81	55334.95
489.99	54824.71
490.17	54920.67
490.35	55480.06
490.53	54789.60
490.70	54454.90
490.88	54372.99
491.06	55327.92
491.24	55433.25
491.41	54417.46
491.59	53099.73
491.77	52360.12
491.95	52877.38
492.13	54291.07
492.30	55238.98
492.48	56144.77
492.66	56802.46
492.84	56512.23
493.01	56371.80
493.19	55941.14
493.37	55550.27
493.54	55311.54
493.72	55915.40
493.90	56877.36
494.08	57338.44
494.25	58073.37
494.43	57928.26
494.61	58426.79
494.79	58396.37
494.96	58152.95
495.14	57659.10
495.32	56662.03
495.49	56210.31
495.67	57130.14
495.85	58443.18
496.02	58691.27
496.20	58658.51
496.38	58082.73
496.55	57984.43
496.73	58599.99
496.91	58499.35
497.09	59281.09
497.26	59299.81
497.44	58735.74
497.62	58342.53
497.79	57453.13
497.97	56451.38
498.14	56470.11
498.32	57450.79
498.50	58475.94
498.67	59051.72
498.85	58841.07
499.03	58937.03
499.20	59248.32
499.38	59236.62
499.56	59047.04
499.73	58520.41
499.91	58122.52
500.08	57909.53
500.26	56900.76
500.44	57614.63
500.61	58251.25
500.79	58419.77
500.97	57717.61
501.14	57357.17
501.32	57528.03
501.49	57453.13
501.67	57834.64
501.84	58204.44
502.02	58316.79
502.20	58674.89
502.37	58719.36
502.55	58962.78
502.72	59238.96
502.90	59796.01
503.07	59540.89
503.25	59086.82
503.43	58326.15
503.60	57801.87
503.78	57017.79
503.95	57396.96
504.13	58712.34
504.30	59564.29
504.48	59473.01
504.65	59173.42
504.83	59098.53
505.01	59662.60
505.18	59788.98
505.36	60676.05
505.53	60507.53
505.71	60837.54
505.88	60886.70
506.06	60046.44
506.23	59980.91
506.41	59444.93
506.58	59784.30
506.76	59877.93
506.93	59819.41
507.11	59241.30
507.28	59554.93
507.46	59150.02
507.63	58649.14
507.81	58504.03
507.98	58707.66
508.16	59358.33
508.33	59873.24
508.50	60114.32
508.68	60357.74
508.85	60795.42
509.03	60903.08
509.20	60687.75
509.38	59985.59
509.55	59222.58
509.73	59231.94
509.90	59889.63
510.08	60184.54
510.25	60135.38
510.42	59835.80
510.60	59948.14
510.77	60081.55
510.95	60643.28
511.12	60701.79
511.30	61127.77
511.47	61183.94
511.64	61071.60
511.82	60938.19
511.99	60081.55
512.17	59723.45
512.34	59505.78
512.51	59391.09
512.69	59742.17
512.86	59519.82
513.04	60123.68
513.21	60212.62
513.38	59803.03
513.56	59494.08
513.73	58728.72
513.90	59009.59
514.08	58869.15
514.25	59283.43
514.43	59515.14
514.60	59550.25
514.77	59793.67
514.95	59770.26
515.12	59632.17
515.29	59805.37
515.47	60355.39
515.64	60673.71
515.81	60193.90
515.99	59796.01
516.16	58450.20
516.33	56186.90
516.51	54845.77
516.68	53860.41
516.85	53567.84
517.03	54113.19
517.20	56647.99
517.37	58859.79
517.54	59772.60
517.72	59449.61
517.89	57205.03
518.06	54990.89
518.24	55042.38
518.41	57230.78
518.58	58389.34
518.75	58618.72
518.93	58794.26
519.10	58749.79
519.27	59086.82
519.45	59440.24
519.62	59999.63
519.79	60275.82
519.96	60034.74
520.14	59835.80
520.31	58908.94
520.48	58972.14
520.65	59487.06
520.83	60268.79
521.00	60444.33
521.17	60282.84
521.34	59854.52
521.52	59847.50
521.69	60294.54
521.86	61036.49
522.03	60757.97
522.20	59590.04
522.38	58302.74
522.55	58543.82
522.72	58934.69
522.89	59274.07
523.07	59189.81
523.24	59742.17
523.41	60612.85
523.58	60860.95
523.75	61055.21
523.92	61132.45
524.10	61202.67
524.27	61050.53
524.44	60774.35
524.61	60521.57
524.78	60615.19
524.96	60420.93
525.13	60406.89
525.30	60446.68
525.47	61083.30
525.64	60963.93
525.81	60392.84
525.98	58955.75
526.16	57726.97
526.33	56795.44
526.50	56687.78
526.67	56392.87
526.84	56872.68
527.01	57733.99
527.18	58798.94
527.36	59625.15
527.53	60296.88
527.70	60577.75
527.87	59891.97
528.04	59491.74
528.21	60041.76
528.38	60837.54
528.55	61202.67
528.72	61462.47
528.89	61705.88
529.07	61319.70
529.24	60598.81
529.41	59987.93
529.58	59625.15
529.75	59594.72
529.92	60203.26
530.09	60584.77
530.26	60912.44
530.43	61097.34
530.60	61003.72
530.77	61354.80
530.94	61324.38
531.11	61080.96
531.28	60573.06
531.46	60355.39
531.63	60905.42
531.80	60640.94
531.97	59980.91
532.14	59421.52
532.31	58548.50
532.48	57834.64
532.65	58087.42
532.82	58674.89
532.99	59732.81
533.16	60001.97
533.33	60463.06
533.50	60505.19
533.67	59620.47
533.84	59313.86
534.01	59634.51
534.18	59568.97
534.35	59924.74
534.52	59749.20
534.69	59931.76
534.86	60294.54
535.03	60493.49
535.20	60977.98
535.37	61385.23
535.54	61408.64
535.71	60985.00
535.88	60835.20
536.05	60240.71
536.22	59671.96
536.38	59519.82
536.55	58995.54
536.72	58581.27
536.89	58220.83
537.06	59391.09
537.23	59997.29
537.40	60233.69
537.57	60250.07
537.74	60067.51
537.91	59980.91
538.08	59728.13
538.25	59943.46
538.42	60189.22
538.59	59980.91
538.75	59465.99
538.92	59103.21
539.09	58990.86
539.26	58899.58
539.43	58955.75
539.60	58607.01
539.77	59203.85
539.94	58756.81
540.11	57982.09
540.28	57656.76
540.44	57813.57
540.61	57855.70
540.78	58096.78
540.95	58567.23
541.12	58880.86
541.29	59049.38
541.46	59402.80
541.62	59381.73
541.79	59250.66
541.96	58766.17
542.13	58773.19
542.30	59047.04
542.47	59011.93
542.63	58829.37
542.80	58562.54
542.97	58834.05
543.14	58801.28
543.31	58585.95
543.48	59229.60
543.64	60016.02
543.81	60179.85
543.98	59997.29
544.15	59400.46
544.32	58728.72
544.48	58953.41
544.65	59311.52
544.82	59671.96
544.99	59236.62
545.16	58817.66
545.32	58663.19
545.49	59716.43
545.66	59917.71
545.83	59671.96
546.00	59138.32
546.16	58911.28
546.33	58908.94
546.50	58944.05
546.67	59529.19
546.83	59091.51
547.00	59215.55
547.17	58255.93
547.34	57907.19
547.50	57684.84
547.67	58213.80
547.84	58351.90
548.00	58770.85
548.17	59047.04
548.34	58887.88
548.51	58995.54
548.67	58801.28
548.84	59138.32
549.01	58979.16
549.18	58920.65
549.34	58899.58
549.51	58967.46
549.68	58920.65
549.84	58520.41
550.01	58457.22
550.18	58323.81
550.34	58522.76
550.51	58564.88
550.68	58588.29
550.84	58120.18
551.01	58225.51
551.18	58078.05
551.34	58277.00
551.51	58784.90
551.68	58904.26
551.84	58899.58
552.01	58576.59
552.18	58628.08
552.34	57806.55
552.51	57411.00
552.68	57312.70
552.84	57729.31
553.01	57972.73
553.18	58061.67
553.34	58099.12
553.51	58328.49
553.67	58459.56
553.84	58592.97
554.01	58494.67
554.17	58349.56
554.34	58342.53
554.51	58504.03
554.67	58754.47
554.84	58405.73
555.00	58354.24
555.17	58185.72
555.33	57982.09
555.50	58082.73
555.67	58099.12
555.83	57766.76
556.00	57572.50
556.16	57542.07
556.33	57181.63
556.50	56891.40
556.66	57195.67
556.83	56739.27
556.99	56963.96
557.16	56821.19
557.32	57378.23
557.49	57567.82
557.65	57340.78
557.82	57471.85
557.98	57471.85
558.15	56872.68
558.32	55948.17
558.48	55377.08
558.65	55473.04
558.81	55917.74
558.98	55994.98
559.14	56100.30
559.31	56409.25
559.47	56512.23
559.64	56189.24
559.80	55704.75
559.97	55737.52
560.13	56238.39
560.30	57263.55
560.46	57525.69
560.63	57712.93
560.79	57982.09
560.96	57443.77
561.12	56470.11
561.29	55372.39
561.45	55690.71
561.61	56023.06
561.78	56395.21
561.94	56182.22
562.11	56119.02
562.27	56109.66
562.44	56395.21
562.60	56760.33
562.77	56935.87
562.93	56868.00
563.10	56872.68
563.26	56243.07
563.42	56348.40
563.59	55861.57
563.75	55772.63
563.92	56013.70
564.08	56060.51
564.24	56303.93
564.41	56357.76
564.57	56341.38
564.74	55971.57
564.90	56193.92
565.07	56051.15
565.23	55412.18
565.39	54759.17
565.56	54618.74
565.72	54351.92
565.88	54927.69
566.05	54740.45
566.21	55110.25
566.38	55033.02
566.54	55332.60
566.70	55435.59
566.87	55901.36
567.03	55992.64
567.19	56207.97
567.36	55985.61
567.52	55657.94
567.68	55571.34
567.85	54663.21
568.01	54745.13
568.17	54443.20
568.34	54438.52
568.50	53822.96
568.66	54134.25
568.83	54424.48
568.99	54492.35
569.15	54827.05
569.32	54625.76
569.48	54562.57
569.64	54576.61
569.81	53977.43
569.97	53968.07
570.13	53806.58
570.30	53535.07
570.46	52917.17
570.62	52559.07
570.78	52463.11
570.95	52835.25
571.11	53567.84
571.27	53663.80
571.43	53895.52
571.60	54164.68
571.76	54440.86
571.92	54328.52
572.09	54677.25
572.25	54665.55
572.41	54391.71
572.57	54417.46
572.74	54541.50
572.90	53914.24
573.06	54150.63
573.22	53937.65
573.38	53804.24
573.55	54230.21
573.71	53982.12
573.87	54358.94
574.03	53928.28
574.20	53652.10
574.36	53347.83
574.52	53581.88
574.68	53226.12
574.84	52765.04
575.01	52605.88
575.17	52062.88
575.33	52336.72
575.49	52980.37
575.65	53076.33
575.82	52917.17
575.98	52411.62
576.14	52512.26
576.30	53214.42
576.46	53179.31
576.62	53137.18
576.79	53116.12
576.95	52743.97
577.11	52694.82
577.27	52772.06
577.43	52980.37
577.59	52355.44
577.75	52032.45
577.92	51395.82
578.08	51143.05
578.24	51337.31
578.40	51351.35
578.56	51922.44
578.72	51973.94
578.88	51901.38
579.04	52193.95
579.21	52184.58
579.37	52500.56
579.53	52193.95
579.69	52179.90
579.85	52479.49
580.01	52491.19
580.17	52023.09
580.33	51571.36
580.49	51852.23
580.65	52294.59
580.82	52320.34
580.98	52303.95
581.14	52172.88
581.30	52376.51
581.46	52144.80
581.62	52381.19
581.78	52416.30
581.94	52502.90
582.10	52207.99
582.26	52509.92
582.42	52285.23
582.58	52346.08
582.74	52275.87
582.90	52484.17
583.06	52470.13
583.22	52212.67
583.38	52079.26
583.54	52023.09
583.70	51814.78
583.86	52144.80
584.02	51730.52
584.18	52016.07
584.34	51859.25
584.50	51643.92
584.66	51709.46
584.82	51353.69
584.98	51047.08
585.14	50925.38
