SpectraSuite Data File
++++++++++++++++++++++++++++++++++++
Date: Mon Oct 07 14:53:20 GMT-05:00 2013
User: price-jones
Dark Spectrum Present: No
Reference Spectrum Present: No
Number of Sampled Component Spectra: 1
Spectrometers: USB2+H05261
Integration Time (usec): 100000 (USB2+H05261)
Spectra Averaged: 1 (USB2+H05261)
Boxcar Smoothing: 0 (USB2+H05261)
Correct for Electrical Dark: No (USB2+H05261)
Strobe/Lamp Enabled: No (USB2+H05261)
Correct for Detector Non-linearity: No (USB2+H05261)
Correct for Stray Light: No (USB2+H05261)
Number of Pixels in Processed Spectrum: 2048
>>>>>Begin Processed Spectral Data<<<<<
365.73	0.00
365.92	0.00
366.12	0.00
366.32	0.00
366.52	0.00
366.72	0.00
366.91	0.00
367.11	0.00
367.31	0.00
367.51	0.00
367.70	0.00
367.90	0.00
368.10	0.00
368.30	0.00
368.49	0.00
368.69	0.00
368.89	0.00
369.09	0.00
369.28	0.00
369.48	0.00
369.68	0.00
369.87	0.00
370.07	0.00
370.27	0.00
370.47	550.03
370.66	2881.20
370.86	3337.60
371.06	3744.86
371.25	3688.68
371.45	3438.25
371.65	3045.04
371.84	2738.43
372.04	2822.69
372.24	3267.39
372.44	3588.04
372.63	3494.42
372.83	3117.59
373.03	2862.48
373.22	2654.17
373.42	2747.79
373.62	3143.34
373.81	3363.35
374.01	3328.24
374.21	3126.96
374.40	2848.43
374.60	2857.79
374.79	3283.77
374.99	4021.04
375.19	4266.80
375.38	4163.81
375.58	3983.59
375.78	3950.82
375.97	3932.10
376.17	4091.26
376.37	4046.79
376.56	4271.48
376.76	4535.96
376.95	4669.37
377.15	5018.11
377.35	5233.44
377.54	5446.43
377.74	5624.31
377.93	5743.67
378.13	5226.42
378.33	5172.58
378.52	4830.87
378.72	4550.00
378.91	4505.53
379.11	4383.82
379.31	4203.60
379.50	4117.00
379.70	4695.11
379.89	5116.41
380.09	5397.28
380.28	5544.73
380.48	5509.62
380.68	5455.79
380.87	5231.10
381.07	4896.40
381.26	4564.04
381.46	4131.05
381.65	4081.89
381.85	4086.58
382.04	3768.26
382.24	3637.19
382.43	3452.29
382.63	3290.79
382.83	3372.71
383.02	3424.20
383.22	3304.84
383.41	3297.81
383.61	3513.14
383.80	4088.92
384.00	4683.41
384.19	5275.57
384.39	5518.98
384.58	5504.94
384.78	5394.93
384.97	5163.22
385.17	5100.03
385.36	4643.62
385.56	4526.60
385.75	4777.03
385.95	5041.51
386.14	5743.67
386.34	5673.46
386.53	5362.17
386.72	4990.02
386.92	5144.50
387.11	5394.93
387.31	5633.67
387.50	5488.56
387.70	5394.93
387.89	5392.59
388.09	5327.06
388.28	5315.36
388.48	5231.10
388.67	5881.77
388.86	6424.77
389.06	6888.20
389.25	7183.10
389.45	7449.93
389.64	7117.57
389.84	7173.74
390.03	7265.02
390.22	7075.44
390.42	7272.04
390.61	7581.00
390.81	8187.19
391.00	8454.02
391.19	8500.83
391.39	7990.59
391.58	7562.27
391.78	7185.44
391.97	6967.77
392.16	6389.66
392.36	5991.77
392.55	4823.84
392.75	3674.64
392.94	3222.92
393.13	3028.65
393.33	3684.00
393.52	4699.80
393.71	5636.01
393.91	6502.01
394.10	6855.43
394.29	7662.91
394.49	8285.50
394.68	8847.22
394.88	8713.81
395.07	9217.03
395.26	9095.32
395.46	8947.87
395.65	8470.40
395.84	7358.64
396.04	6104.12
396.23	4945.55
396.42	4145.09
396.62	4032.74
396.81	4856.61
397.00	5893.47
397.19	7489.71
397.39	9071.92
397.58	10113.45
397.77	10602.63
397.97	11243.93
398.16	11129.25
398.35	11513.10
398.55	11950.78
398.74	12461.01
398.93	12809.75
399.12	12896.35
399.32	12072.48
399.51	12173.13
399.70	13153.81
399.90	12926.78
400.09	13029.76
400.28	12915.08
400.47	12856.56
400.67	13422.97
400.86	14047.90
401.05	14064.28
401.24	13860.65
401.44	14307.69
401.63	14305.35
401.82	14246.84
402.01	14277.27
402.21	14532.39
402.40	14637.71
402.59	14314.72
402.78	13593.83
402.97	13081.25
403.17	13453.40
403.36	14665.80
403.55	15063.69
403.74	15365.62
403.93	14478.55
404.13	13432.33
404.32	12957.21
404.51	13879.38
404.70	14869.42
404.89	14995.81
405.09	14869.42
405.28	14235.14
405.47	14380.25
405.66	14377.91
405.85	13790.44
406.05	13191.26
406.24	13521.27
406.43	14150.88
406.62	14427.06
406.81	14829.63
407.00	14223.44
407.20	14246.84
407.39	14218.75
407.58	14633.03
407.77	15094.11
407.96	15967.13
408.15	15831.38
408.34	16231.62
408.54	16863.56
408.73	16475.03
408.92	16678.66
409.11	16130.97
409.30	15440.51
409.49	14553.45
409.68	13516.59
409.87	13338.71
410.07	13874.70
410.26	15047.30
410.45	15971.82
410.64	16425.88
410.83	16856.54
411.02	17268.47
411.21	17884.03
411.40	17848.93
411.59	17860.63
411.78	17628.92
411.98	17315.28
412.17	17554.02
412.36	17198.26
412.55	17123.36
412.74	17106.98
412.93	16493.76
413.12	16631.85
413.31	18499.59
413.50	18448.10
413.69	18831.95
413.88	18324.05
414.07	17436.99
414.26	18075.96
414.45	18473.85
414.64	18633.00
414.83	19096.43
415.02	18274.90
415.22	18314.69
415.41	18740.67
415.60	19297.72
415.79	20208.19
415.98	20245.63
416.17	20355.64
416.36	20030.30
416.55	19899.23
416.74	19185.37
416.93	18621.30
417.12	18492.57
417.31	18827.27
417.50	19288.35
417.69	19620.71
417.88	19733.06
418.07	19543.47
418.26	19176.01
418.45	19253.25
418.64	19901.58
418.83	20582.67
419.02	20514.80
419.21	20081.80
419.39	19372.61
419.58	18462.15
419.77	18693.86
419.96	19398.36
420.15	20109.88
420.34	20889.28
420.53	21947.20
420.72	22061.89
420.91	21788.05
421.10	21886.35
421.29	21736.56
421.48	20734.81
421.67	21879.33
421.86	21132.70
422.05	19749.44
422.24	17671.04
422.43	17401.88
422.61	19293.04
422.80	20987.58
422.99	21165.46
423.18	20177.76
423.37	19840.72
423.56	20065.41
423.75	20292.44
423.94	20613.10
424.13	19433.47
424.32	19857.10
424.50	19847.74
424.69	19735.40
424.88	19538.79
425.07	19641.78
425.26	19405.38
425.45	19260.27
425.64	18930.25
425.83	19124.52
426.01	19953.07
426.20	20449.26
426.39	20425.86
426.58	19084.73
426.77	17383.16
426.96	16783.98
427.15	17631.26
427.33	18972.38
427.52	19587.94
427.71	19910.94
427.90	19674.54
428.09	19255.59
428.28	19484.96
428.46	18401.29
428.65	18260.86
428.84	18719.60
429.03	18747.69
429.22	17692.11
429.40	16996.97
429.59	15499.03
429.78	13823.20
429.97	13790.44
430.16	13902.78
430.34	13858.31
430.53	14029.17
430.72	14267.91
430.91	15719.04
431.10	18572.15
431.28	21460.37
431.47	23363.23
431.66	23608.98
431.85	21729.53
432.03	19548.15
432.22	18796.84
432.41	19873.49
432.60	22115.72
432.79	22607.23
432.97	23578.56
433.16	22848.31
433.35	20634.16
433.54	18307.67
433.72	17495.50
433.91	18052.55
434.10	20320.53
434.28	21785.71
434.47	22565.10
434.66	22602.55
434.85	21682.72
435.03	21979.97
435.22	22459.78
435.41	23761.12
435.59	23779.84
435.78	24409.45
435.97	24650.52
436.16	24713.72
436.34	24608.39
436.53	24058.37
436.72	23985.81
436.90	22717.24
437.09	22785.12
437.28	22061.89
437.46	23061.30
437.65	22504.25
437.84	21598.46
438.02	19833.70
438.21	19845.40
438.40	20585.01
438.58	22431.69
438.77	22661.07
438.96	23417.06
439.14	24184.76
439.33	24589.67
439.52	25139.69
439.70	24603.71
439.89	23899.21
440.08	23365.57
440.26	23536.43
440.45	24266.67
440.63	25603.12
440.82	27019.14
441.01	26815.52
441.19	26551.04
441.38	26885.73
441.57	27503.64
441.75	28233.88
441.94	28582.62
442.12	28247.93
442.31	28854.12
442.50	28486.66
442.68	28205.80
442.87	28114.52
443.05	27562.15
443.24	27534.06
443.43	28615.39
443.61	29219.25
443.80	29638.20
443.98	28018.55
444.17	27473.21
444.35	29294.14
444.54	29902.68
444.73	29333.93
444.91	28002.17
445.10	27419.38
445.28	25893.35
445.47	25685.04
445.65	25762.28
445.84	26377.84
446.02	27379.59
446.21	28065.36
446.39	28002.17
446.58	28044.30
446.77	28732.42
446.95	29137.33
447.14	29949.50
447.32	30050.14
447.51	29783.32
447.69	28400.06
447.88	27943.66
448.06	28404.74
448.25	29252.02
448.43	29516.50
448.62	28797.95
448.80	28891.57
448.99	28879.87
449.17	29287.12
449.36	29207.55
449.54	30359.09
449.73	30668.04
449.91	31171.25
450.10	31957.67
450.28	32224.50
450.46	32137.90
450.65	32173.00
450.83	31995.12
451.02	31187.64
451.20	30916.14
451.39	31484.89
451.57	30974.65
451.76	31201.68
451.94	30930.18
452.13	30036.09
452.31	29263.72
452.49	27342.14
452.68	27974.08
452.86	27725.99
453.05	28065.36
453.23	29064.77
453.42	29954.18
453.60	30455.05
453.78	30852.94
453.97	30228.02
454.15	30380.15
454.34	29792.68
454.52	29771.61
454.70	29287.12
454.89	29935.45
455.07	29621.82
455.26	30389.52
455.44	31447.44
455.62	31758.73
455.81	32292.37
455.99	31704.90
456.17	31199.34
456.36	31482.55
456.54	32851.76
456.73	32198.75
456.91	32711.33
457.09	33074.11
457.28	34155.44
457.46	32243.22
457.64	32259.60
457.83	31204.02
458.01	30328.66
458.19	31365.52
458.38	31962.36
458.56	32545.15
458.74	31847.67
458.93	31988.10
459.11	31901.50
459.29	31489.57
459.48	31494.25
459.66	31850.01
459.84	31962.36
460.03	32072.36
460.21	32524.08
460.39	33060.07
460.57	33001.55
460.76	33736.48
460.94	33563.28
461.12	33092.83
461.31	33141.99
461.49	33191.14
461.67	33291.78
461.85	34614.18
462.04	34440.98
462.22	34873.98
462.40	34115.65
462.59	33860.53
462.77	34127.35
462.95	33993.94
463.13	33305.82
463.32	33270.72
463.50	33132.62
463.68	33493.07
463.86	33200.50
464.05	32589.62
464.23	32065.34
464.41	31962.36
464.59	31433.39
464.78	32992.19
464.96	33146.67
465.14	32247.90
465.32	33701.37
465.50	34080.54
465.69	34738.23
465.87	33792.65
466.05	32945.38
466.23	31339.77
466.41	30691.44
466.60	31637.02
466.78	31789.16
466.96	32163.64
467.14	32769.84
467.32	33008.58
467.51	33212.20
467.69	32041.93
467.87	32329.82
468.05	32638.77
468.23	33060.07
468.41	33310.50
468.60	33244.97
468.78	32994.53
468.96	32856.44
469.14	33684.99
469.32	33553.92
469.50	32519.40
469.69	32634.09
469.87	32149.60
470.05	31945.97
470.23	32046.62
470.41	32217.47
470.59	32659.84
470.77	32814.31
470.95	33177.09
471.14	33727.12
471.32	33532.86
471.50	35194.64
471.68	35854.67
471.86	36037.23
472.04	36264.26
472.22	36418.74
472.40	33972.88
472.58	34506.52
472.77	33530.51
472.95	34576.73
473.13	35510.61
473.31	34155.44
473.49	34593.12
473.67	35655.72
473.85	35204.00
474.03	36800.24
474.21	36690.24
474.39	37336.23
474.57	36818.97
474.75	37296.44
474.93	36732.37
475.12	35770.41
475.30	35821.90
475.48	35964.67
475.66	36631.72
475.84	36013.82
476.02	35917.86
476.20	35171.23
476.38	35882.75
476.56	37324.52
476.74	37773.91
476.92	37893.27
477.10	38136.69
477.28	39620.59
477.46	39917.84
477.64	39814.85
477.82	40081.67
478.00	40479.57
478.18	39201.63
478.36	39196.95
478.54	39676.76
478.72	39676.76
478.90	40582.55
479.08	41799.63
479.26	42153.05
479.44	42288.80
479.62	41612.38
479.80	41897.93
479.98	42024.32
480.16	42382.42
480.34	41659.20
480.52	42319.23
480.70	42473.70
480.88	42602.43
481.06	43063.52
481.24	43264.80
481.41	44355.49
481.59	45198.09
481.77	44839.98
481.95	44584.86
482.13	43931.86
482.31	43981.01
482.49	44720.62
482.67	44669.12
482.85	44561.46
483.03	45462.57
483.21	45904.93
483.39	45790.24
483.57	44905.52
483.74	45287.03
483.92	44966.37
484.10	45099.78
484.28	46146.00
484.46	46791.99
484.64	46791.99
484.82	46293.46
485.00	45553.85
485.18	44861.05
485.35	43119.69
485.53	40751.07
485.71	37261.33
485.89	36591.94
486.07	38375.42
486.25	41785.58
486.43	44165.91
486.61	44458.48
486.78	44105.06
486.96	44610.61
487.14	46014.93
487.32	47311.59
487.50	48652.72
487.68	49422.75
487.85	50145.98
488.03	49694.25
488.21	49525.74
488.39	48397.60
488.57	47763.31
488.75	47533.94
488.92	48472.49
489.10	50944.10
489.28	52360.12
489.46	53123.14
489.64	53169.95
489.81	52851.64
489.99	52554.39
490.17	52573.11
490.35	53141.86
490.53	52334.38
490.70	52212.67
490.88	51913.08
491.06	53450.81
491.24	52879.72
491.41	51983.30
491.59	50239.60
491.77	49944.69
491.95	50724.09
492.13	51709.46
492.30	53118.46
492.48	54042.97
492.66	54452.56
492.84	54625.76
493.01	54122.55
493.19	53408.68
493.37	53425.07
493.54	52821.21
493.72	53471.88
493.90	54848.11
494.08	55550.27
494.25	55821.78
494.43	56058.17
494.61	56268.82
494.79	56449.04
494.96	56224.35
495.14	55739.86
495.32	54717.04
495.49	53930.62
495.67	54962.80
495.85	56460.74
496.02	56713.52
496.20	56460.74
496.38	55983.27
496.55	56205.62
496.73	56552.02
496.91	56666.71
497.09	57123.11
497.26	57544.41
497.44	56835.23
497.62	56547.34
497.79	55758.58
497.97	54471.29
498.14	54700.66
498.32	55597.09
498.50	56690.12
498.67	57073.96
498.85	56921.83
499.03	57076.30
499.20	57190.99
499.38	57450.79
499.56	57083.33
499.73	56626.92
499.91	56303.93
500.08	56011.36
500.26	54967.48
500.44	55674.32
500.61	56023.06
500.79	56425.64
500.97	55854.54
501.14	55529.21
501.32	55451.97
501.49	55561.98
501.67	55583.04
501.84	56165.84
502.02	56514.58
502.20	56877.36
502.37	56947.57
502.55	56999.07
502.72	57628.67
502.90	57893.15
503.07	57677.82
503.25	57511.64
503.43	56439.68
503.60	55634.53
503.78	55000.25
503.95	55657.94
504.13	56863.32
504.30	57743.36
504.48	57602.92
504.65	57097.37
504.83	57132.48
505.01	57773.78
505.18	58394.03
505.36	58745.11
505.53	58794.26
505.71	59100.87
505.88	59051.72
506.06	58656.17
506.23	58307.43
506.41	57750.38
506.58	58101.46
506.76	58017.20
506.93	58045.29
507.11	57602.92
507.28	58134.23
507.46	57333.76
507.63	56736.93
507.81	56762.67
507.98	56650.33
508.16	57808.89
508.33	58251.25
508.50	58543.82
508.68	58714.68
508.85	59201.51
509.03	59175.76
509.20	59091.51
509.38	58277.00
509.55	57748.04
509.73	57673.14
509.90	58206.78
510.08	58433.81
510.25	58431.47
510.42	58073.37
510.60	58258.27
510.77	58536.80
510.95	59131.29
511.12	59203.85
511.30	59477.69
511.47	59681.32
511.64	59501.10
511.82	59274.07
511.99	58562.54
512.17	58080.39
512.34	57717.61
512.51	57785.49
512.69	58129.54
512.86	58085.07
513.04	58635.10
513.21	58478.28
513.38	58284.02
513.56	57776.12
513.73	57109.07
513.90	57265.89
514.08	57366.53
514.25	57733.99
514.43	57839.32
514.60	58174.02
514.77	58218.49
514.95	58262.96
515.12	58213.80
515.29	58436.16
515.47	58857.45
515.64	58782.55
515.81	58658.51
515.99	58059.33
516.16	56790.76
516.33	54415.11
516.51	53132.50
516.68	52215.01
516.85	51632.22
517.03	52186.92
517.20	54937.05
517.37	57387.60
517.54	58213.80
517.72	57684.84
517.89	55447.29
518.06	53139.52
518.24	53336.13
518.41	55779.65
518.58	56776.72
518.75	57059.92
518.93	57258.87
519.10	57069.28
519.27	57488.24
519.45	57979.75
519.62	58599.99
519.79	58731.06
519.96	58684.25
520.14	58234.87
520.31	57263.55
520.48	57563.14
520.65	57923.58
520.83	58649.14
521.00	59016.61
521.17	58391.68
521.34	58387.00
521.52	58707.66
521.69	59114.91
521.86	59725.79
522.03	59213.21
522.20	58007.84
522.38	56860.97
522.55	57125.46
522.72	57729.31
522.89	57663.78
523.07	57996.13
523.24	58307.43
523.41	59084.48
523.58	59409.82
523.75	59915.37
523.92	59615.79
524.10	59564.29
524.27	59711.75
524.44	59358.33
524.61	59262.36
524.78	59068.10
524.96	59089.16
525.13	59056.40
525.30	59290.45
525.47	59620.47
525.64	59590.04
525.81	58862.13
525.98	57450.79
526.16	56343.72
526.33	55587.72
526.50	55121.96
526.67	54649.17
526.84	55620.49
527.01	56633.94
527.18	57242.48
527.36	58225.51
527.53	59180.45
527.70	59206.19
527.87	58873.84
528.04	58101.46
528.21	58614.04
528.38	59341.94
528.55	59810.05
528.72	60158.79
528.89	60137.72
529.07	59997.29
529.24	59269.39
529.41	58644.46
529.58	58251.25
529.75	58267.64
529.92	58798.94
530.09	59112.57
530.26	59639.19
530.43	59917.71
530.60	59978.57
530.77	60186.88
530.94	60327.31
531.11	59655.57
531.28	59313.86
531.46	59178.10
531.63	59360.67
531.80	59114.91
531.97	58712.34
532.14	58064.01
532.31	57165.24
532.48	56446.70
532.65	56402.23
532.82	57200.35
532.99	58459.56
533.16	58614.04
533.33	59447.27
533.50	59274.07
533.67	58417.43
533.84	57968.05
534.01	58277.00
534.18	58639.78
534.35	58410.41
534.52	58464.24
534.69	58937.03
534.86	59231.94
535.03	59398.12
535.20	59636.85
535.37	60142.41
535.54	60301.56
535.71	59898.99
535.88	59522.16
536.05	58885.54
536.22	58452.54
536.38	58134.23
536.55	57848.68
536.72	57183.97
536.89	57293.97
537.06	58190.40
537.23	58829.37
537.40	59093.85
537.57	58951.07
537.74	58873.84
537.91	58801.28
538.08	58869.15
538.25	58820.00
538.42	59028.31
538.59	58621.06
538.75	58042.95
538.92	57975.07
539.09	57951.66
539.26	57523.35
539.43	57506.96
539.60	57282.27
539.77	57738.68
539.94	57855.70
540.11	56750.97
540.28	56224.35
540.44	56371.80
540.61	56610.54
540.78	57104.39
540.95	57439.09
541.12	57663.78
541.29	57902.51
541.46	58202.10
541.62	58361.26
541.79	58389.34
541.96	57441.43
542.13	57432.07
542.30	57890.81
542.47	58056.99
542.63	57773.78
542.80	57593.56
542.97	57860.38
543.14	57399.30
543.31	57804.21
543.48	58204.44
543.64	58958.09
543.81	59341.94
543.98	58953.41
544.15	58089.76
544.32	57691.86
544.48	57771.44
544.65	58274.66
544.82	58585.95
544.99	58326.15
545.16	57647.39
545.32	57773.78
545.49	58450.20
545.66	58728.72
545.83	58422.11
546.00	58178.70
546.16	57743.36
546.33	58019.54
546.50	57689.52
546.67	58394.03
546.83	57937.62
547.00	57844.00
547.17	57064.60
547.34	56673.73
547.50	56561.39
547.67	56968.64
547.84	57017.79
548.00	57492.92
548.17	58150.61
548.34	57860.38
548.51	57790.17
548.67	57755.06
548.84	57939.96
549.01	57893.15
549.18	57729.31
549.34	57673.14
549.51	57755.06
549.68	57469.51
549.84	57499.94
550.01	57513.98
550.18	57268.23
550.34	57312.70
550.51	57333.76
550.68	57619.31
550.84	56933.53
551.01	57001.41
551.18	57073.96
551.34	57125.46
551.51	57570.16
551.68	57853.36
551.84	57874.43
552.01	57766.76
552.18	57748.04
552.34	56982.68
552.51	56402.23
552.68	56282.86
552.84	56938.21
553.01	57172.27
553.18	57202.69
553.34	57322.06
553.51	57263.55
553.67	57570.16
553.84	57609.95
554.01	57443.77
554.17	57460.15
554.34	57291.63
554.51	57425.04
554.67	57918.90
554.84	57778.46
555.00	57256.53
555.17	56900.76
555.33	57113.75
555.50	57284.61
555.67	56900.76
555.83	56865.66
556.00	56533.30
556.16	56697.14
556.33	56207.97
556.50	56231.37
556.66	56303.93
556.83	55831.14
556.99	56137.75
557.16	56217.33
557.32	56432.66
557.49	56774.37
557.65	56491.17
557.82	56371.80
557.98	56378.82
558.15	55828.80
558.32	55082.17
558.48	54445.54
558.65	54351.92
558.81	54749.81
558.98	55035.36
559.14	55552.62
559.31	55278.77
559.47	55054.08
559.64	55203.88
559.80	54775.56
559.97	54813.01
560.13	55505.80
560.30	55929.44
560.46	56619.90
560.63	56736.93
560.79	56987.36
560.96	56233.71
561.12	55271.75
561.29	54490.01
561.45	54557.89
561.61	55152.38
561.78	55632.19
561.94	55608.79
562.11	55341.97
562.27	55318.56
562.44	55461.33
562.60	55868.59
562.77	56100.30
562.93	56053.49
563.10	55964.55
563.26	55187.49
563.42	55075.15
563.59	55175.79
563.75	55182.81
563.92	55332.60
564.08	55224.94
564.24	55515.17
564.41	55517.51
564.57	55227.28
564.74	55208.56
564.90	55070.46
565.07	54557.89
565.23	54478.31
565.39	54035.95
565.56	54010.20
565.72	53579.54
565.88	53827.64
566.05	53970.41
566.21	54340.22
566.38	54761.51
566.54	54473.63
566.70	54742.79
566.87	55033.02
567.03	55463.67
567.19	55323.24
567.36	55103.23
567.52	54915.99
567.68	54651.51
567.85	54019.56
568.01	53621.67
568.17	53263.57
568.34	53193.36
568.50	53048.24
568.66	53277.61
568.83	53722.32
568.99	53954.03
569.15	54143.61
569.32	53932.96
569.48	53900.20
569.64	53429.75
569.81	53148.88
569.97	53062.29
570.13	52961.64
570.30	52563.75
570.46	52399.91
570.62	51615.83
570.78	51463.70
570.95	51554.98
571.11	52346.08
571.27	52823.55
571.43	52999.09
571.60	53399.32
571.76	53574.86
571.92	53600.61
572.09	53909.56
572.25	53818.28
572.41	53663.80
572.57	53411.02
572.74	53762.11
572.90	53104.41
573.06	53254.21
573.22	53078.67
573.38	53368.90
573.55	53296.34
573.71	53160.59
573.87	53207.40
574.03	52720.57
574.20	52851.64
574.36	52729.93
574.52	52591.84
574.68	52500.56
574.84	52083.94
575.01	51295.18
575.17	51365.40
575.33	51639.24
575.49	51756.27
575.65	52488.85
575.82	52144.80
575.98	51594.77
576.14	52156.50
576.30	52081.60
576.46	52320.34
576.62	52474.81
576.79	52217.35
576.95	51950.53
577.11	51798.40
577.27	52034.79
577.43	51751.59
577.59	51400.50
577.75	51222.62
577.92	50745.15
578.08	50293.43
578.24	50300.45
578.40	50265.34
578.56	50686.64
578.72	51213.26
578.88	51231.99
579.04	51449.66
579.21	51552.64
579.37	51529.23
579.53	51650.94
579.69	51475.40
579.85	51873.29
580.01	51632.22
580.17	51271.78
580.33	50969.85
580.49	51166.45
580.65	51449.66
580.82	51800.74
580.98	51690.73
581.14	51412.21
581.30	51426.25
581.46	51224.96
581.62	51686.05
581.78	51636.90
581.94	51910.74
582.10	52025.43
582.26	51540.94
582.42	51653.28
582.58	51742.22
582.74	51688.39
582.90	52018.41
583.06	51454.34
583.22	51702.43
583.38	51477.74
583.54	51606.47
583.70	51290.50
583.86	50981.55
584.02	51040.06
584.18	51014.32
584.34	51264.75
584.50	50951.12
584.66	50880.91
584.82	50724.09
584.98	50534.51
585.14	50178.75
585.30	49230.83
