SpectraSuite Data File
++++++++++++++++++++++++++++++++++++
Date: Mon Oct 07 14:54:59 GMT-05:00 2013
User: price-jones
Dark Spectrum Present: No
Reference Spectrum Present: No
Number of Sampled Component Spectra: 1
Spectrometers: USB2+H05261
Integration Time (usec): 10000 (USB2+H05261)
Spectra Averaged: 1 (USB2+H05261)
Boxcar Smoothing: 0 (USB2+H05261)
Correct for Electrical Dark: No (USB2+H05261)
Strobe/Lamp Enabled: No (USB2+H05261)
Correct for Detector Non-linearity: No (USB2+H05261)
Correct for Stray Light: No (USB2+H05261)
Number of Pixels in Processed Spectrum: 2048
>>>>>Begin Processed Spectral Data<<<<<
365.73	0.00
365.92	0.00
366.12	0.00
366.32	0.00
366.52	0.00
366.72	0.00
366.91	0.00
367.11	0.00
367.31	0.00
367.51	0.00
367.70	0.00
367.90	0.00
368.10	0.00
368.30	0.00
368.49	0.00
368.69	0.00
368.89	0.00
369.09	0.00
369.28	0.00
369.48	0.00
369.68	0.00
369.87	0.00
370.07	0.00
370.27	0.00
370.47	147.45
370.66	1303.68
370.86	1640.72
371.06	1757.74
371.25	1715.61
371.45	1572.84
371.65	1306.02
371.84	1324.74
372.04	1500.28
372.24	1668.80
372.44	1610.29
372.63	1710.93
372.83	1465.18
373.03	1324.74
373.22	1177.29
373.42	1336.45
373.62	1544.75
373.81	1650.08
374.01	1582.20
374.21	1392.62
374.40	1397.30
374.60	1427.73
374.79	1727.32
374.99	1886.47
375.19	1996.48
375.38	1970.73
375.58	1914.56
375.78	1884.13
375.97	1881.79
376.17	1994.14
376.37	2019.88
376.56	2054.99
376.76	2071.37
376.95	2354.58
377.15	2452.88
377.35	2502.03
377.54	2747.79
377.74	2825.03
377.93	2775.88
378.13	2609.70
378.33	2396.71
378.52	2312.45
378.72	2239.89
378.91	2249.25
379.11	2003.50
379.31	1984.77
379.50	2289.04
379.70	2298.41
379.89	2511.39
380.09	2586.29
380.28	2675.23
380.48	2555.86
380.68	2546.50
380.87	2485.65
381.07	2223.51
381.26	2129.89
381.46	2026.90
381.65	2012.86
381.85	1900.52
382.04	1797.53
382.24	1617.31
382.43	1572.84
382.63	1596.25
382.83	1465.18
383.02	1556.46
383.22	1626.67
383.41	1577.52
383.61	1846.68
383.80	2029.24
384.00	2317.13
384.19	2530.12
384.39	2729.06
384.58	2593.31
384.78	2677.57
384.97	2539.48
385.17	2441.18
385.36	2307.77
385.56	2267.98
385.75	2506.71
385.95	2576.93
386.14	2761.83
386.34	2689.28
386.53	2546.50
386.72	2389.69
386.92	2626.08
387.11	2696.30
387.31	2703.32
387.50	2729.06
387.70	2644.81
387.89	2565.23
388.09	2635.44
388.28	2628.42
388.48	2747.79
388.67	3101.21
388.86	3276.75
389.06	3356.33
389.25	3691.02
389.45	3688.68
389.64	3449.95
389.84	3585.70
390.03	3569.32
390.22	3468.67
390.42	3922.74
390.61	3995.29
390.81	4126.36
391.00	4257.43
391.19	4187.22
391.39	4065.51
391.58	3861.88
391.78	3618.47
391.97	3433.57
392.16	3103.55
392.36	2754.81
392.55	2157.97
392.75	1682.85
392.94	1378.58
393.13	1528.37
393.33	1919.24
393.52	2443.52
393.71	3023.97
393.91	3215.90
394.10	3665.28
394.29	4063.17
394.49	4248.07
394.68	4477.44
394.88	4662.35
395.07	4681.07
395.26	4688.09
395.46	4313.61
395.65	3974.23
395.84	3520.17
396.04	2745.45
396.23	2340.54
396.42	1844.34
396.62	2015.20
396.81	2464.58
397.00	3295.47
397.19	4060.83
397.39	4751.29
397.58	5270.89
397.77	5317.70
397.97	5699.20
398.16	5778.78
398.35	5970.71
398.55	6263.27
398.74	6506.69
398.93	6363.92
399.12	6387.32
399.32	6162.63
399.51	6399.02
399.70	6675.21
399.90	6715.00
400.09	6649.46
400.28	6548.82
400.47	6832.02
400.67	7042.67
400.86	7248.64
401.05	7447.58
401.24	7126.93
401.44	7382.05
401.63	7272.04
401.82	7304.81
402.01	7258.00
402.21	7384.39
402.40	7440.56
402.59	7136.29
402.78	6792.23
402.97	6810.96
403.17	7000.54
403.36	7454.61
403.55	7698.02
403.74	7679.30
403.93	7269.70
404.13	6682.23
404.32	6998.20
404.51	7253.32
404.70	7709.72
404.89	7520.14
405.09	7368.01
405.28	7192.47
405.47	7279.07
405.66	7157.36
405.85	6888.20
406.05	6832.02
406.24	7187.79
406.43	7365.67
406.62	7625.47
406.81	7620.78
407.00	7208.85
407.20	6995.86
407.39	7180.76
407.58	7845.48
407.77	7906.33
407.96	8273.79
408.15	8297.20
408.34	8432.95
408.54	8739.56
408.73	8636.58
408.92	8659.98
409.11	8442.31
409.30	7793.98
409.49	7447.58
409.68	6977.14
409.87	7056.72
410.07	7473.33
410.26	8042.08
410.45	8100.59
410.64	8634.24
410.83	8814.46
411.02	9034.47
411.21	9266.18
411.40	9048.51
411.59	9226.39
411.78	9231.07
411.98	9085.96
412.17	9268.52
412.36	9224.05
412.55	9069.58
412.74	9006.38
412.93	8638.92
413.12	8950.21
413.31	9769.40
413.50	9788.12
413.69	9755.35
413.88	9371.50
414.07	9275.54
414.26	9591.52
414.45	9619.60
414.64	9542.36
414.83	9631.30
415.02	9617.26
415.22	9586.83
415.41	9792.80
415.60	10139.20
415.79	10635.39
415.98	10689.23
416.17	10677.52
416.36	10190.69
416.55	10164.95
416.74	9767.06
416.93	9551.73
417.12	9561.09
417.31	9591.52
417.50	10019.83
417.69	10366.23
417.88	10115.80
418.07	10186.01
418.26	10129.84
418.45	10305.38
418.64	10654.12
418.83	10691.57
419.02	10560.50
419.21	10768.80
419.39	10076.01
419.58	9631.30
419.77	9935.57
419.96	10501.98
420.15	10827.32
420.34	10850.72
420.53	11276.70
420.72	11325.85
420.91	11096.48
421.10	11129.25
421.29	11314.15
421.48	10974.77
421.67	11176.06
421.86	10787.53
422.05	9905.15
422.24	8987.66
422.43	9619.60
422.61	10422.41
422.80	11274.36
422.99	10850.72
423.18	10497.30
423.37	10228.14
423.56	10649.44
423.75	10752.42
423.94	11005.20
424.13	10314.74
424.32	10157.92
424.50	10307.72
424.69	10387.30
424.88	10167.29
425.07	10424.75
425.26	10083.03
425.45	10022.17
425.64	9870.04
425.83	10036.22
426.01	10513.69
426.20	10661.14
426.39	10780.51
426.58	9823.23
426.77	9036.81
426.96	8929.14
427.15	9303.63
427.33	10153.24
427.52	10267.93
427.71	10520.71
427.90	10242.18
428.09	10033.88
428.28	9994.09
428.46	9511.94
428.65	9666.41
428.84	9678.12
429.03	9783.44
429.22	9238.09
429.40	8795.73
429.59	8088.89
429.78	7117.57
429.97	7330.56
430.16	7180.76
430.34	7316.51
430.53	7229.91
430.72	7845.48
430.91	8732.54
431.10	10319.42
431.28	11719.06
431.47	12512.50
431.66	12297.17
431.85	11033.29
432.03	10115.80
432.22	10153.24
432.41	10820.30
432.60	11985.88
432.79	12313.56
432.97	12428.24
433.16	11833.75
433.35	10506.66
433.54	9549.39
433.72	9217.03
433.91	9832.59
434.10	11087.12
434.28	11660.55
434.47	12058.44
434.66	11735.45
434.85	11871.20
435.03	11730.76
435.22	12037.38
435.41	12351.01
435.59	12746.56
435.78	12519.53
435.97	13057.85
436.16	13078.91
436.34	12688.04
436.53	12535.91
436.72	12978.27
436.90	11936.73
437.09	12100.57
437.28	11824.39
437.46	12210.57
437.65	12028.01
437.84	11089.46
438.02	10441.13
438.21	10661.14
438.40	10871.79
438.58	12173.13
438.77	12372.07
438.96	12428.24
439.14	13006.36
439.33	13177.22
439.52	13018.06
439.70	12830.82
439.89	12400.16
440.08	12329.94
440.26	12231.64
440.45	13228.71
440.63	13928.53
440.82	14370.89
441.01	14324.08
441.19	14122.79
441.38	14726.65
441.57	14871.76
441.75	14843.68
441.94	15037.94
442.12	15105.82
442.31	15126.88
442.50	15459.24
442.68	14719.63
442.87	14867.08
443.05	14700.90
443.24	15009.86
443.43	15477.96
443.61	15559.88
443.80	15318.81
443.98	14506.64
444.17	14707.93
444.35	15641.80
444.54	15917.98
444.73	15702.65
444.91	14616.65
445.10	14436.42
445.28	13500.21
445.47	13668.73
445.65	13687.45
445.84	14429.40
446.02	14778.14
446.21	15267.31
446.39	14745.38
446.58	14911.55
446.77	15405.41
446.95	15269.66
447.14	16093.52
447.32	16081.82
447.51	15473.28
447.69	15192.42
447.88	14951.34
448.06	15300.08
448.25	15719.04
448.43	15517.75
448.62	15459.24
448.80	15681.59
448.99	15536.48
449.17	15934.37
449.36	15763.51
449.54	16219.91
449.73	16510.14
449.91	16631.85
450.10	17200.60
450.28	17504.87
450.46	17453.37
450.65	17371.46
450.83	17319.96
451.02	16725.47
451.20	16556.95
451.39	16854.20
451.57	16718.45
451.76	16486.73
451.94	16081.82
452.13	16020.97
452.31	14995.81
452.49	14307.69
452.68	15009.86
452.86	14808.57
453.05	14958.36
453.23	16070.12
453.42	15761.17
453.60	16194.17
453.78	16240.98
453.97	15983.52
454.15	16100.55
454.34	15494.35
454.52	15754.15
454.70	15543.50
454.89	15660.52
455.07	15578.61
455.26	15985.86
455.44	16678.66
455.62	17057.82
455.81	16985.27
455.99	17053.14
456.17	16898.67
456.36	17130.38
456.54	17483.80
456.73	17455.72
456.91	17617.21
457.09	17921.48
457.28	18094.68
457.46	17378.48
457.64	16924.41
457.83	16685.68
458.01	16521.84
458.19	16652.91
458.38	17060.16
458.56	17504.87
458.74	17301.24
458.93	16957.18
459.11	16905.69
459.29	16620.14
459.48	16798.02
459.66	16835.47
459.84	17310.60
460.03	17401.88
460.21	17715.51
460.39	18228.09
460.57	17673.39
460.76	17781.05
460.94	17855.95
461.12	17549.34
461.31	17561.04
461.49	17860.63
461.67	17921.48
461.85	18380.23
462.04	18380.23
462.22	18380.23
462.40	18455.12
462.59	18647.05
462.77	18015.10
462.95	18181.28
463.13	17738.92
463.32	17610.19
463.50	17703.81
463.68	17563.38
463.86	17722.54
464.05	17366.78
464.23	17167.83
464.41	17224.00
464.59	16910.37
464.78	17792.75
464.96	17874.67
465.14	17591.47
465.32	18092.34
465.50	18349.80
465.69	18700.88
465.87	18298.31
466.05	17446.35
466.23	16493.76
466.41	16638.87
466.60	17095.27
466.78	17027.40
466.96	17675.73
467.14	17383.16
467.32	17558.70
467.51	17591.47
467.69	16884.62
467.87	17345.71
468.05	17860.63
468.23	17872.33
468.41	17771.69
468.60	17764.67
468.78	17727.22
468.96	17383.16
469.14	17951.91
469.32	18185.96
469.50	17116.34
469.69	17228.68
469.87	16889.31
470.05	17252.09
470.23	17191.23
470.41	17383.16
470.59	17214.64
470.77	17551.68
470.95	18305.33
471.14	18195.32
471.32	18335.76
471.50	19002.81
471.68	19325.80
471.86	19208.78
472.04	19157.28
472.22	19173.67
472.40	18537.04
472.58	17954.25
472.77	18272.56
472.95	18523.00
473.13	19176.01
473.31	18712.58
473.49	18504.28
473.67	18845.99
473.85	19124.52
474.03	19939.02
474.21	19711.99
474.39	20032.65
474.57	20170.74
474.75	19924.98
474.93	19693.27
475.12	19398.36
475.30	19339.85
475.48	19140.90
475.66	19445.17
475.84	19248.57
476.02	19384.32
476.20	18689.18
476.38	19372.61
476.56	20287.76
476.74	20299.47
476.92	20217.55
477.10	20299.47
477.28	21458.03
477.46	20975.88
477.64	20940.77
477.82	21441.65
478.00	22017.42
478.18	21163.12
478.36	21006.31
478.54	21198.23
478.72	21324.62
478.90	22511.27
479.08	22881.08
479.26	22808.52
479.44	22803.84
479.62	22541.70
479.80	22396.59
479.98	22963.00
480.16	23344.50
480.34	22309.99
480.52	23133.86
480.70	23578.56
480.88	23028.53
481.06	23683.88
481.24	23498.98
481.41	23833.68
481.59	24706.70
481.77	24446.90
481.95	24283.06
482.13	24374.34
482.31	24400.08
482.49	25006.28
482.67	24940.75
482.85	24805.00
483.03	25483.75
483.21	26050.16
483.39	25268.42
483.57	24741.80
483.74	24449.24
483.92	24774.57
484.10	25013.31
484.28	25469.71
484.46	25689.72
484.64	25355.02
484.82	25179.48
485.00	24854.15
485.18	24231.57
485.35	23152.58
485.53	21137.38
485.71	19627.73
485.89	19543.47
486.07	21153.76
486.25	22745.33
486.43	23707.29
486.61	24151.99
486.78	24587.33
486.96	24973.52
487.14	26141.44
487.32	25504.82
487.50	26925.52
487.68	27281.28
487.85	28205.80
488.03	28142.60
488.21	27784.50
488.39	26616.57
488.57	26192.94
488.75	26637.64
488.92	27843.01
489.10	29577.35
489.28	29832.47
489.46	30480.80
489.64	30134.40
489.81	30705.49
489.99	30588.46
490.17	30984.01
490.35	30920.82
490.53	29942.47
490.70	29811.40
490.88	29516.50
491.06	30885.71
491.24	30410.58
491.41	29060.09
491.59	27791.52
491.77	27342.14
491.95	28978.17
492.13	30162.48
492.30	30981.67
492.48	32191.73
492.66	32608.34
492.84	31611.28
493.01	31969.38
493.19	31239.13
493.37	31501.27
493.54	31683.83
493.72	33034.32
493.90	32734.73
494.08	33193.48
494.25	33706.05
494.43	33811.38
494.61	34373.11
494.79	34380.13
494.96	34089.90
495.14	33041.34
495.32	32428.12
495.49	32418.76
495.67	33406.47
495.85	35239.11
496.02	35487.20
496.20	34607.16
496.38	34078.20
496.55	34422.26
496.73	34670.36
496.91	35089.31
497.09	36095.74
497.26	35887.43
497.44	34637.59
497.62	34377.79
497.79	33811.38
497.97	32465.57
498.14	32961.76
498.32	34609.50
498.50	35353.79
498.67	35086.97
498.85	35927.22
499.03	35964.67
499.20	36378.95
499.38	36449.16
499.56	35988.08
499.73	35119.74
499.91	33886.28
500.08	33495.41
500.26	32673.88
500.44	33127.94
500.61	34440.98
500.79	34583.76
500.97	33050.70
501.14	33301.14
501.32	33078.79
501.49	34139.05
501.67	34096.92
501.84	33893.30
502.02	34457.37
502.20	34855.26
502.37	35316.34
502.55	35157.19
502.72	35538.69
502.90	36311.07
503.07	35934.24
503.25	34660.99
503.43	33748.18
503.60	33467.32
503.78	32893.89
503.95	34057.14
504.13	35648.70
504.30	36844.71
504.48	35838.28
504.65	35555.08
504.83	35534.01
505.01	36067.66
505.18	36144.89
505.36	37027.28
505.53	37853.48
505.71	38576.71
505.88	38597.77
506.06	37233.24
506.23	37916.68
506.41	36865.78
506.58	37071.75
506.76	36463.21
506.93	36540.44
507.11	35620.61
507.28	35763.39
507.46	35831.26
507.63	35281.24
507.81	34719.51
507.98	34588.44
508.16	36158.94
508.33	37516.45
508.50	37680.28
508.68	37621.77
508.85	38553.30
509.03	37846.46
509.20	37577.30
509.38	35871.05
509.55	36053.61
509.73	36928.97
509.90	36507.68
510.08	36189.36
510.25	36112.13
510.42	36027.87
510.60	37219.20
510.77	37846.46
510.95	38888.00
511.12	37886.25
511.30	39218.02
511.47	38249.03
511.64	38270.10
511.82	37521.13
511.99	36570.87
512.17	36877.48
512.34	36112.13
512.51	36676.19
512.69	35920.20
512.86	36154.26
513.04	37329.20
513.21	37319.84
513.38	35936.59
513.56	34728.87
513.73	34340.34
513.90	35222.72
514.08	34904.41
514.25	35775.09
514.43	35915.52
514.60	36093.40
514.77	35990.42
514.95	37635.81
515.12	36706.62
515.29	36290.01
515.47	37031.96
515.64	37855.82
515.81	37467.30
515.99	36093.40
516.16	33584.35
516.33	31063.59
516.51	30937.20
516.68	29408.83
516.85	28950.09
517.03	30127.38
517.20	33134.96
517.37	36503.00
517.54	36353.20
517.72	34740.57
517.89	32147.26
518.06	31456.80
518.24	31842.99
518.41	33184.12
518.58	35297.62
518.75	35974.03
518.93	35091.65
519.10	35735.30
519.27	35754.02
519.45	36613.00
519.62	36982.80
519.79	36648.11
519.96	37139.62
520.14	36392.99
520.31	34986.33
520.48	35314.00
520.65	36137.87
520.83	37584.32
521.00	37888.59
521.17	36704.28
521.34	37724.75
521.52	36769.82
521.69	37235.58
521.86	37542.19
522.03	37443.89
522.20	35833.60
522.38	35077.61
522.55	35566.78
522.72	35833.60
522.89	35721.26
523.07	35880.41
523.24	36442.14
523.41	37876.89
523.58	37874.55
523.75	38134.35
523.92	38581.39
524.10	38675.01
524.27	38672.67
524.44	38363.72
524.61	37785.61
524.78	37254.31
524.96	36627.04
525.13	36531.08
525.30	37766.88
525.47	38321.59
525.64	38663.31
525.81	36605.98
525.98	34593.12
526.16	34387.15
526.33	32121.51
526.50	31725.96
526.67	31604.25
526.84	32774.52
527.01	34377.79
527.18	35274.21
527.36	36868.12
527.53	36732.37
527.70	36474.91
527.87	35906.16
528.04	37015.57
528.21	37144.30
528.38	38660.97
528.55	39328.02
528.72	40032.52
528.89	39770.38
529.07	38761.61
529.24	36863.44
529.41	36582.57
529.58	36526.40
529.75	37024.93
529.92	38387.13
530.09	38328.61
530.26	38630.54
530.43	39290.57
530.60	38792.04
530.77	38836.51
530.94	38906.73
531.11	37460.27
531.28	37137.28
531.46	37247.29
531.63	36456.18
531.80	37048.34
531.97	35508.27
532.14	35026.12
532.31	33324.55
532.48	34660.99
532.65	34590.78
532.82	34763.98
532.99	37518.79
533.16	37502.40
533.33	37181.75
533.50	35644.02
533.67	36196.38
533.84	36727.69
534.01	36613.00
534.18	36645.77
534.35	37280.05
534.52	35927.22
534.69	37596.03
534.86	38117.96
535.03	37106.85
535.20	38122.65
535.37	38794.38
535.54	39077.58
535.71	38707.78
535.88	37844.12
536.05	36643.43
536.22	36790.88
536.38	36229.15
536.55	34843.56
536.72	34752.27
536.89	34696.10
537.06	35756.36
537.23	37514.11
537.40	37509.43
537.57	37968.17
537.74	37446.23
537.91	37333.89
538.08	36250.22
538.25	35590.19
538.42	37415.80
538.59	37165.37
538.75	35529.33
538.92	35309.32
539.09	35868.71
539.26	35747.00
539.43	35328.05
539.60	35377.20
539.77	36503.00
539.94	35496.56
540.11	33460.30
540.28	33727.12
540.44	33642.86
540.61	34855.26
540.78	35964.67
540.95	36423.42
541.12	36367.24
541.29	35803.17
541.46	36542.78
541.62	36811.95
541.79	37591.34
541.96	36339.16
542.13	34913.77
542.30	34686.74
542.47	35101.01
542.63	34773.34
542.80	35040.16
542.97	35615.93
543.14	34579.07
543.31	35283.58
543.48	35889.77
543.64	36505.34
543.81	37315.16
543.98	36781.52
544.15	35606.57
544.32	34862.28
544.48	35915.52
544.65	36685.56
544.82	37050.68
544.99	35742.32
545.16	35346.77
545.32	35491.88
545.49	37317.50
545.66	35978.72
545.83	35398.26
546.00	35079.95
546.16	35728.28
546.33	35634.66
546.50	34932.50
546.67	36697.26
546.83	35484.86
547.00	35136.12
547.17	34841.21
547.34	33593.71
547.50	34232.68
547.67	35005.05
547.84	35239.11
548.00	35379.54
548.17	36093.40
548.34	35695.51
548.51	35428.69
548.67	36362.56
548.84	36315.75
549.01	36725.35
549.18	35871.05
549.34	35302.30
549.51	35569.12
549.68	35931.90
549.84	35381.88
550.01	34569.71
550.18	35150.17
550.34	34866.96
550.51	34742.91
550.68	35117.40
550.84	35049.52
551.01	34520.56
551.18	34958.24
551.34	35377.20
551.51	34658.65
551.68	35393.58
551.84	35892.12
552.01	35512.95
552.18	35009.73
552.34	34909.09
552.51	34342.68
552.68	34995.69
552.84	35555.08
553.01	34855.26
553.18	34176.50
553.34	34593.12
553.51	35119.74
553.67	35229.74
553.84	34604.82
554.01	34824.83
554.17	34745.25
554.34	35353.79
554.51	34424.60
554.67	34431.62
554.84	35019.10
555.00	34941.86
555.17	34876.32
555.33	33897.98
555.50	34885.68
555.67	33830.10
555.83	33085.81
556.00	32292.37
556.16	33226.24
556.33	33041.34
556.50	34024.37
556.66	33757.55
556.83	33965.85
556.99	33186.46
557.16	33137.30
557.32	33722.44
557.49	34354.38
557.65	34230.33
557.82	34291.19
557.98	33970.54
558.15	33605.41
558.32	33184.12
558.48	31821.92
558.65	31765.75
558.81	31246.15
558.98	31405.31
559.14	32872.82
559.31	33373.70
559.47	32144.92
559.64	31166.57
559.80	30363.77
559.97	31548.08
560.13	32987.51
560.30	33333.91
560.46	34199.91
560.63	34693.76
560.79	35477.84
560.96	33146.67
561.12	31903.84
561.29	31632.34
561.45	30703.15
561.61	31445.10
561.78	31599.57
561.94	32046.62
562.11	32350.88
562.27	33092.83
562.44	33111.56
562.60	33284.76
562.77	33378.38
562.93	32870.48
563.10	32308.76
563.26	32243.22
563.42	32624.73
563.59	31414.67
563.75	31679.15
563.92	32140.24
564.08	32624.73
564.24	31814.90
564.41	31283.60
564.57	32713.67
564.74	32224.50
564.90	31482.55
565.07	31555.10
565.23	30600.16
565.39	30338.02
565.56	30520.59
565.72	30022.05
565.88	29879.28
566.05	31021.46
566.21	31519.99
566.38	30452.71
566.54	31543.40
566.70	31264.88
566.87	32460.89
567.03	31419.35
567.19	31098.70
567.36	31721.28
567.52	31208.70
567.68	31639.36
567.85	30356.75
568.01	29170.10
568.17	30012.69
568.34	31267.22
568.50	30593.14
568.66	31412.33
568.83	31117.42
568.99	30696.13
569.15	30820.17
569.32	31475.52
569.48	30792.09
569.64	29621.82
569.81	30705.49
569.97	30101.63
570.13	30560.37
570.30	30267.81
570.46	29539.90
570.62	28851.78
570.78	28807.31
570.95	29970.56
571.11	30490.16
571.27	30576.76
571.43	30078.22
571.60	30148.44
571.76	30686.76
571.92	30808.47
572.09	30110.99
572.25	30948.90
572.41	31777.45
572.57	32116.83
572.74	31793.84
572.90	30710.17
573.06	30515.90
573.22	29715.44
573.38	29369.04
573.55	29729.48
573.71	29090.52
573.87	29441.60
574.03	29869.92
574.20	30122.69
574.36	30426.96
574.52	31105.72
574.68	29343.30
574.84	28655.18
575.01	28704.33
575.17	28531.13
575.33	29104.56
575.49	28484.32
575.65	29659.27
575.82	29125.63
575.98	28723.05
576.14	28790.93
576.30	28697.31
576.46	28570.92
576.62	29764.59
576.79	29862.90
576.95	28978.17
577.11	28004.51
577.27	28919.66
577.43	29244.99
577.59	28648.16
577.75	28826.04
577.92	27634.71
578.08	27353.84
578.24	28100.47
578.40	27964.72
578.56	28346.23
578.72	28563.90
578.88	28409.42
579.04	28627.09
579.21	28247.93
579.37	28268.99
579.53	29500.11
579.69	29905.02
579.85	28816.68
580.01	28290.06
580.17	28030.26
580.33	28318.14
580.49	28540.49
580.65	27426.40
580.82	28088.77
580.98	28388.36
581.14	29160.73
581.30	28006.85
581.46	28624.75
581.62	28343.89
581.78	28142.60
581.94	28512.41
582.10	28926.68
582.26	28636.45
582.42	28840.08
582.58	28472.62
582.74	28594.32
582.90	28847.10
583.06	28627.09
583.22	28584.96
583.38	28407.08
583.54	28362.61
583.70	28676.24
583.86	28460.91
584.02	28954.77
584.18	28503.04
584.34	28844.76
584.50	28336.87
584.66	28453.89
584.82	27660.45
584.98	27784.50
585.14	27520.02
585.30	27463.85
585.46	26867.01
585.62	26902.12
585.78	27185.32
585.94	27473.21
586.10	26232.72
586.26	26918.50
586.42	27410.01
