SpectraSuite Data File
++++++++++++++++++++++++++++++++++++
Date: Mon Oct 07 14:53:10 GMT-05:00 2013
User: price-jones
Dark Spectrum Present: No
Reference Spectrum Present: No
Number of Sampled Component Spectra: 1
Spectrometers: USB2+H05261
Integration Time (usec): 100000 (USB2+H05261)
Spectra Averaged: 1 (USB2+H05261)
Boxcar Smoothing: 0 (USB2+H05261)
Correct for Electrical Dark: No (USB2+H05261)
Strobe/Lamp Enabled: No (USB2+H05261)
Correct for Detector Non-linearity: No (USB2+H05261)
Correct for Stray Light: No (USB2+H05261)
Number of Pixels in Processed Spectrum: 2048
>>>>>Begin Processed Spectral Data<<<<<
365.73	0.00
365.92	0.00
366.12	0.00
366.32	0.00
366.52	0.00
366.72	0.00
366.91	0.00
367.11	0.00
367.31	0.00
367.51	0.00
367.70	0.00
367.90	0.00
368.10	0.00
368.30	0.00
368.49	0.00
368.69	0.00
368.89	0.00
369.09	0.00
369.28	0.00
369.48	0.00
369.68	0.00
369.87	0.00
370.07	0.00
370.27	0.00
370.47	795.78
370.66	3459.31
370.86	4138.07
371.06	4498.51
371.25	4517.23
371.45	4121.68
371.65	3681.66
371.84	3370.37
372.04	3691.02
372.24	3962.53
372.44	4184.88
372.63	4124.02
372.83	3866.56
373.03	3307.18
373.22	3094.19
373.42	3229.94
373.62	3684.00
373.81	4039.76
374.01	4044.45
374.21	3599.74
374.40	3379.73
374.60	3541.23
374.79	4109.98
374.99	4734.90
375.19	5055.56
375.38	5046.20
375.58	4781.71
375.78	4711.50
375.97	4894.06
376.17	5036.83
376.37	4936.19
376.56	5195.99
376.76	5483.88
376.95	5771.76
377.15	6134.54
377.35	6338.17
377.54	6359.24
377.74	6675.21
377.93	6764.15
378.13	6574.56
378.33	6087.73
378.52	5692.18
378.72	5479.19
378.91	5315.36
379.11	5163.22
379.31	5074.28
379.50	5118.75
379.70	5399.62
379.89	6097.10
380.09	6298.38
380.28	6862.45
380.48	6628.40
380.68	6551.16
380.87	6317.11
381.07	5699.20
381.26	5195.99
381.46	5057.90
381.65	5001.72
381.85	4725.54
382.04	4535.96
382.24	4095.94
382.43	4053.81
382.63	4039.76
382.83	3918.06
383.02	3985.93
383.22	3939.12
383.41	4124.02
383.61	4283.18
383.80	5142.16
384.00	5603.24
384.19	6118.16
384.39	6392.00
384.58	6502.01
384.78	6272.64
384.97	6230.51
385.17	5893.47
385.36	5734.31
385.56	5533.03
385.75	5731.97
385.95	6296.04
386.14	6707.98
386.34	6745.42
386.53	6310.08
386.72	5930.92
386.92	6260.93
387.11	6422.43
387.31	6642.44
387.50	6520.73
387.70	6260.93
387.89	6396.68
388.09	6368.60
388.28	6370.94
388.48	6590.95
388.67	7122.25
388.86	7513.12
389.06	8163.79
389.25	8587.43
389.45	8711.47
389.64	8828.50
389.84	8262.09
390.03	8475.08
390.22	8585.08
390.42	8744.24
390.61	9338.74
390.81	9914.51
391.00	10174.31
391.19	10033.88
391.39	9554.07
391.58	9001.70
391.78	8468.06
391.97	8091.23
392.16	7555.25
392.36	6897.56
392.55	5577.50
392.75	4524.26
392.94	3669.96
393.13	3700.39
393.33	4510.21
393.52	5572.82
393.71	6773.51
393.91	7583.34
394.10	8222.30
394.29	9146.81
394.49	9804.50
394.68	10478.58
394.88	10457.51
395.07	10902.22
395.26	10600.29
395.46	10305.38
395.65	9961.32
395.84	8465.72
396.04	7225.23
396.23	5905.17
396.42	4903.42
396.62	4835.55
396.81	5479.19
397.00	7103.53
397.19	8973.61
397.39	10700.93
397.58	11873.54
397.77	12629.53
397.97	13090.62
398.16	13390.20
398.35	13841.93
398.55	13940.23
398.74	14712.61
398.93	15077.73
399.12	14899.85
399.32	14164.92
399.51	14682.18
399.70	15557.54
399.90	15295.40
400.09	15384.34
400.28	15655.84
400.47	15489.67
400.67	16280.77
400.86	16652.91
401.05	16613.12
401.24	16807.39
401.44	16617.80
401.63	17062.51
401.82	16982.93
402.01	16926.75
402.21	16905.69
402.40	17179.53
402.59	16608.44
402.78	15880.53
402.97	15342.21
403.17	16161.40
403.36	17383.16
403.55	17708.49
403.74	17982.34
403.93	17132.72
404.13	15836.06
404.32	15492.01
404.51	16229.27
404.70	17528.27
404.89	17413.59
405.09	17123.36
405.28	16805.05
405.47	16908.03
405.66	16556.95
405.85	16212.89
406.05	15798.62
406.24	16074.80
406.43	16760.58
406.62	17610.19
406.81	17605.51
407.00	17114.00
407.20	16318.22
407.39	16390.77
407.58	17511.89
407.77	18171.92
407.96	18562.79
408.15	18721.95
408.34	19056.64
408.54	19910.94
408.73	19976.47
408.92	19360.91
409.11	18515.98
409.30	17923.82
409.49	16858.88
409.68	15861.81
409.87	15676.91
410.07	16463.33
410.26	17673.39
410.45	19030.90
410.64	19281.33
410.83	19845.40
411.02	20290.10
411.21	21263.77
411.40	20730.12
411.59	20788.64
411.78	20594.37
411.98	20411.81
412.17	21245.04
412.36	20472.67
412.55	20491.39
412.74	19920.30
412.93	19782.21
413.12	20137.97
413.31	21682.72
413.50	22169.55
413.69	21855.92
413.88	21422.92
414.07	20702.04
414.26	21003.97
414.45	22080.61
414.64	22127.42
414.83	22429.35
415.02	21799.75
415.22	21710.81
415.41	22338.07
415.60	23056.62
415.79	23484.94
415.98	24180.07
416.17	24175.39
416.36	23377.27
416.55	23400.68
416.74	22497.23
416.93	21664.00
417.12	21743.58
417.31	21926.14
417.50	22441.06
417.69	23098.75
417.88	23147.90
418.07	22628.30
418.26	22530.00
418.45	22654.05
418.64	23473.23
418.83	24659.88
419.02	23889.85
419.21	23749.42
419.39	22750.01
419.58	21724.85
419.77	22043.17
419.96	22691.49
420.15	24058.37
420.34	24678.61
420.53	25699.08
420.72	25832.49
420.91	25872.28
421.10	25579.71
421.29	25275.45
421.48	24568.60
421.67	25560.99
421.86	24985.22
422.05	23239.18
422.24	20959.50
422.43	20673.95
422.61	23119.81
422.80	24769.89
422.99	24577.97
423.18	23646.43
423.37	23363.23
423.56	23264.92
423.75	24002.19
423.94	24390.72
424.13	22937.25
424.32	23328.12
424.50	23555.15
424.69	23475.57
424.88	23257.90
425.07	23040.23
425.26	22986.40
425.45	22958.31
425.64	22169.55
425.83	22824.90
426.01	23985.81
426.20	24315.83
426.39	24023.26
426.58	22410.63
426.77	20636.50
426.96	19927.32
427.15	20690.34
427.33	22604.89
427.52	23225.14
427.71	23571.54
427.90	23030.87
428.09	23028.53
428.28	22649.36
428.46	21785.71
428.65	21537.61
428.84	22134.45
429.03	22431.69
429.22	21186.53
429.40	19880.51
429.59	17963.61
429.78	16056.08
429.97	16229.27
430.16	16304.17
430.34	16453.97
430.53	16030.33
430.72	16650.57
430.91	18586.19
431.10	22064.23
431.28	25671.00
431.47	27810.25
431.66	28130.90
431.85	25043.73
432.03	23321.10
432.22	22537.02
432.41	23337.48
432.60	25958.88
432.79	26934.88
432.97	27477.89
433.16	27037.87
433.35	24713.72
433.54	22080.61
433.72	20753.53
433.91	21844.22
434.10	24034.96
434.28	25827.81
434.47	27239.15
434.66	26232.72
434.85	25862.92
435.03	26103.99
435.22	26401.24
435.41	27936.63
435.59	28383.68
435.78	28577.94
435.97	29106.90
436.16	29261.38
436.34	28781.57
436.53	28126.22
436.72	28180.05
436.90	26979.36
437.09	27129.15
437.28	26565.08
437.46	27419.38
437.65	27211.07
437.84	25095.22
438.02	23285.99
438.21	23594.94
438.40	24519.45
438.58	26354.43
438.77	27309.37
438.96	27351.50
439.14	28748.80
439.33	29202.86
439.52	29497.77
439.70	29476.71
439.89	28486.66
440.08	27599.60
440.26	27646.41
440.45	28432.83
440.63	30595.48
440.82	32292.37
441.01	32027.89
441.19	31049.55
441.38	31941.29
441.57	32746.44
441.75	33401.79
441.94	33663.93
442.12	33570.30
442.31	34007.98
442.50	33832.44
442.68	33411.15
442.87	32620.05
443.05	32711.33
443.24	33092.83
443.43	33963.51
443.61	34391.83
443.80	34609.50
443.98	32748.78
444.17	33006.23
444.35	34309.91
444.54	35484.86
444.73	34766.32
444.91	33645.20
445.10	32439.82
445.28	30838.90
445.47	30529.95
445.65	30588.46
445.84	31311.69
446.02	32552.17
446.21	32978.15
446.39	33481.36
446.58	33294.12
446.77	34338.00
446.95	34199.91
447.14	35079.95
447.32	35859.35
447.51	35093.99
447.69	33600.73
447.88	33553.92
448.06	33467.32
448.25	34824.83
448.43	34965.26
448.62	33834.78
448.80	34038.41
448.99	34188.21
449.17	34412.90
449.36	34625.89
449.54	35578.48
449.73	36140.21
449.91	37111.53
450.10	37717.73
450.28	38040.73
450.46	38054.77
450.65	38265.42
450.83	37429.85
451.02	36779.18
451.20	36690.24
451.39	36755.77
451.57	36531.08
451.76	36966.42
451.94	36180.00
452.13	35508.27
452.31	33631.16
452.49	32631.75
452.68	32849.42
452.86	32723.03
453.05	33490.73
453.23	34682.06
453.42	35353.79
453.60	36341.50
453.78	36273.62
453.97	35988.08
454.15	36416.40
454.34	35470.82
454.52	35517.63
454.70	34705.46
454.89	34899.73
455.07	35742.32
455.26	36009.14
455.44	37015.57
455.62	38038.39
455.81	38017.32
455.99	37801.99
456.17	36807.26
456.36	37193.45
456.54	38447.98
456.73	38206.90
456.91	39278.87
457.09	38998.01
457.28	39786.77
457.46	38239.67
457.64	38293.50
457.83	36973.44
458.01	36306.39
458.19	37027.28
458.38	37053.02
458.56	38625.86
458.74	38349.68
458.93	38244.35
459.11	37413.46
459.29	37769.22
459.48	38012.64
459.66	37184.09
459.84	37635.81
460.03	38323.93
460.21	38506.49
460.39	39285.89
460.57	39267.17
460.76	39875.71
460.94	39739.96
461.12	39332.70
461.31	39704.85
461.49	39086.95
461.67	39379.51
461.85	40320.41
462.04	39976.35
462.22	41017.89
462.40	40411.69
462.59	40151.89
462.77	40395.31
462.95	40189.34
463.13	39992.73
463.32	39201.63
463.50	39100.99
463.68	39159.50
463.86	39344.41
464.05	38862.26
464.23	38141.37
464.41	38043.07
464.59	37546.87
464.78	39658.04
464.96	39103.33
465.14	38541.60
465.32	39714.21
465.50	40620.00
465.69	40863.41
465.87	39714.21
466.05	38630.54
466.23	37090.47
466.41	36479.59
466.60	37570.28
466.78	37724.75
466.96	38274.78
467.14	38770.97
467.32	39292.91
467.51	39522.29
467.69	37415.80
467.87	38190.52
468.05	39086.95
468.23	39276.53
468.41	39351.43
468.60	39079.92
468.78	39543.35
468.96	39035.45
469.14	39576.12
469.32	40067.63
469.50	38279.46
469.69	38302.87
469.87	37984.55
470.05	37832.42
470.23	38096.90
470.41	38071.15
470.59	38955.88
470.77	38775.66
470.95	39702.51
471.14	40311.05
471.32	40257.21
471.50	42363.70
471.68	42263.05
471.86	42927.77
472.04	42600.09
472.22	42855.21
472.40	40847.03
472.58	40641.06
472.77	40439.78
472.95	41188.75
473.13	42103.90
473.31	40900.86
473.49	40821.28
473.67	41979.85
473.85	42206.88
474.03	43356.08
474.21	43227.35
474.39	44004.41
474.57	44095.69
474.75	43817.17
474.93	43325.66
475.12	42550.94
475.30	42670.31
475.48	42974.58
475.66	43271.82
475.84	42836.48
476.02	42548.60
476.20	42153.05
476.38	42841.17
476.56	43789.08
476.74	44081.65
476.92	44472.52
477.10	45151.27
477.28	46447.93
477.46	46665.60
477.64	47028.38
477.82	46948.81
478.00	47096.26
478.18	46728.80
478.36	46782.63
478.54	46356.65
478.72	46972.21
478.90	47906.08
479.08	48655.06
479.26	49066.99
479.44	49202.74
479.62	48594.20
479.80	48711.23
479.98	49184.02
480.16	49265.94
480.34	48942.94
480.52	49453.18
480.70	49455.52
480.88	49581.91
481.06	50054.70
481.24	50597.70
481.41	51133.68
481.59	51950.53
481.77	51386.46
481.95	50930.06
482.13	50693.66
482.31	50944.10
482.49	51655.62
482.67	51433.27
482.85	51599.45
483.03	52126.07
483.21	52313.31
483.39	52210.33
483.57	51763.29
483.74	51554.98
483.92	51903.72
484.10	52004.36
484.28	52769.72
484.46	53048.24
484.64	53553.80
484.82	52530.98
485.00	52264.16
485.18	51325.61
485.35	50365.99
485.53	47344.36
485.71	43746.95
485.89	43941.22
486.07	45270.64
486.25	49034.22
486.43	51033.04
486.61	51409.87
486.78	50948.78
486.96	51690.73
487.14	53097.39
487.32	53221.44
487.50	54316.81
487.68	55147.70
487.85	55384.10
488.03	55522.19
488.21	55208.56
488.39	54548.53
488.57	53872.11
488.75	53862.75
488.92	54883.22
489.10	56477.13
489.28	57371.21
489.46	58080.39
489.64	57574.84
489.81	58085.07
489.99	57663.78
490.17	57839.32
490.35	58230.19
490.53	57495.26
490.70	57429.72
490.88	57366.53
491.06	58281.68
491.24	58143.59
491.41	57165.24
491.59	56032.42
491.77	55580.70
491.95	56332.01
492.13	57263.55
492.30	58300.40
492.48	59028.31
492.66	59648.55
492.84	59538.55
493.01	59222.58
493.19	58642.12
493.37	58543.82
493.54	58197.42
493.72	58787.24
493.90	59767.92
494.08	60355.39
494.25	60577.75
494.43	60701.79
494.61	60959.25
494.79	61226.07
494.96	60996.70
495.14	60275.82
495.32	59568.97
495.49	59150.02
495.67	60109.64
495.85	61310.33
496.02	61289.27
496.20	61289.27
496.38	60921.80
496.55	60860.95
496.73	61368.85
496.91	61516.30
497.09	61804.19
497.26	62068.67
497.44	61525.66
497.62	61102.03
497.79	60339.01
497.97	59339.60
498.14	59718.77
498.32	60561.36
498.50	61263.52
498.67	61848.66
498.85	61544.39
499.03	61792.48
499.20	62085.05
499.38	62042.92
499.56	61989.09
499.73	61382.89
499.91	60966.27
500.08	60605.83
500.26	60090.91
500.44	60383.48
500.61	61193.31
500.79	60882.02
500.97	60540.30
501.14	60383.48
501.32	60252.41
501.49	60331.99
501.67	60706.47
501.84	61041.17
502.02	61347.78
502.20	61701.20
502.37	61492.89
502.55	61661.41
502.72	62138.88
502.90	62646.78
503.07	62291.02
503.25	61895.47
503.43	61139.47
503.60	60481.78
503.78	59999.63
503.95	60549.66
504.13	61914.19
504.30	62541.45
504.48	62181.01
504.65	62068.67
504.83	62120.16
505.01	62546.14
505.18	62850.41
505.36	63489.37
505.53	63362.98
505.71	63662.57
505.88	63667.25
506.06	63171.06
506.23	62738.06
506.41	62492.30
506.58	62576.56
506.76	62782.53
506.93	62623.37
507.11	62272.29
507.28	62705.29
507.46	62092.07
507.63	61696.52
507.81	61506.94
507.98	61858.02
508.16	62508.69
508.33	62564.86
508.50	63276.38
508.68	63224.89
508.85	63931.73
509.03	63840.45
509.20	63524.48
509.38	62913.60
509.55	62386.98
509.73	62525.07
509.90	62990.84
510.08	63302.13
510.25	62852.75
510.42	62941.69
510.60	62876.15
510.77	63351.28
510.95	63746.83
511.12	63824.07
511.30	63877.90
511.47	63927.05
511.64	64144.72
511.82	63730.45
511.99	63252.98
512.17	62742.74
512.34	62487.62
512.51	62691.25
512.69	62745.08
512.86	62976.79
513.04	63133.61
513.21	63149.99
513.38	62794.23
513.56	62372.94
513.73	61799.50
513.90	62152.93
514.08	62117.82
514.25	62382.30
514.43	62822.32
514.60	62653.80
514.77	63018.92
514.95	63234.25
515.12	62810.62
515.29	63210.85
515.47	63599.38
515.64	63744.49
515.81	63505.76
515.99	62709.97
516.16	61401.61
516.33	59725.79
516.51	58394.03
516.68	57886.13
516.85	57303.34
517.03	58000.82
517.20	60004.31
517.37	62368.26
517.54	62927.64
517.72	62464.22
517.89	60271.14
518.06	58412.75
518.24	58852.77
518.41	60764.99
518.58	61858.02
518.75	62003.13
518.93	62045.26
519.10	61890.79
519.27	62412.73
519.45	62674.87
519.62	63222.55
519.79	63494.05
519.96	63437.88
520.14	62986.16
520.31	62120.16
520.48	62162.29
520.65	62700.61
520.83	63533.84
521.00	63845.13
521.17	63346.60
521.34	63105.52
521.52	63384.05
521.69	63934.07
521.86	64128.34
522.03	63866.20
522.20	62665.50
522.38	61923.55
522.55	61970.36
522.72	62445.49
522.89	62709.97
523.07	62876.15
523.24	63070.42
523.41	63859.18
523.58	64163.45
523.75	64500.48
523.92	64357.71
524.10	64439.63
524.27	64378.78
524.44	64170.47
524.61	63973.86
524.78	63887.26
524.96	63763.21
525.13	63824.07
525.30	64058.12
525.47	64434.95
525.64	64313.24
525.81	63765.56
525.98	62375.28
526.16	61172.24
526.33	60493.49
526.50	60317.95
526.67	60086.23
526.84	60636.26
527.01	61560.77
527.18	62281.66
527.36	62932.32
527.53	63627.46
527.70	63835.77
527.87	63430.86
528.04	63014.24
528.21	63693.00
528.38	64184.51
528.55	64673.68
528.72	64757.94
528.89	65029.44
529.07	64781.35
529.24	64048.76
529.41	63597.04
529.58	63103.18
529.75	63227.23
529.92	63693.00
530.09	64025.35
530.26	64308.56
530.43	64580.06
530.60	64659.64
530.77	64846.88
530.94	64816.46
531.11	64559.00
531.28	64193.87
531.46	64032.38
531.63	64397.50
531.80	64023.01
531.97	63536.18
532.14	63044.67
532.31	62059.30
532.48	61485.87
532.65	61523.32
532.82	62501.67
532.99	63353.62
533.16	63601.72
533.33	64346.01
533.50	64067.48
533.67	63283.40
533.84	63058.71
534.01	63309.15
534.18	63400.43
534.35	63582.99
534.52	63393.41
534.69	63821.73
534.86	63884.92
535.03	64095.57
535.20	64629.21
535.37	64825.82
535.54	64898.37
535.71	64549.63
535.88	64324.94
536.05	63636.83
536.22	63360.64
536.38	63056.37
536.55	62614.01
536.72	62291.02
536.89	62272.29
537.06	63032.97
537.23	63910.67
537.40	63880.24
537.57	63990.25
537.74	63730.45
537.91	63641.51
538.08	63494.05
538.25	63721.08
538.42	63889.60
538.59	63597.04
538.75	63149.99
538.92	62869.13
539.09	62873.81
539.26	62599.97
539.43	62377.62
539.60	62759.12
539.77	62777.85
539.94	62501.67
540.11	61860.36
540.28	61511.62
540.44	61687.16
540.61	62059.30
540.78	62026.54
540.95	62422.09
541.12	62817.64
541.29	62843.38
541.46	63248.30
541.62	63274.04
541.79	63199.15
541.96	62532.09
542.13	62695.93
542.30	62946.37
542.47	62993.18
542.63	62848.06
542.80	62588.27
542.97	62728.70
543.14	62515.71
543.31	62688.91
543.48	63152.33
543.64	63887.26
543.81	64100.25
543.98	63826.41
544.15	63311.49
544.32	62850.41
544.48	62941.69
544.65	63189.78
544.82	63606.40
544.99	63157.02
545.16	62843.38
545.32	62880.83
545.49	63669.59
545.66	63833.43
545.83	63245.96
546.00	62974.45
546.16	62693.59
546.33	62986.16
546.50	62859.77
546.67	63419.16
546.83	62990.84
547.00	62988.50
547.17	62323.78
547.34	61951.64
547.50	61984.41
547.67	62344.85
547.84	62408.04
548.00	62644.44
548.17	63215.53
548.34	62848.06
548.51	62850.41
548.67	62920.62
548.84	63180.42
549.01	62852.75
549.18	62780.19
549.34	62906.58
549.51	62981.48
549.68	62705.29
549.84	62501.67
550.01	62555.50
550.18	62230.16
550.34	62506.35
550.51	62475.92
550.68	62681.89
550.84	62014.83
551.01	62293.36
551.18	62101.43
551.34	62443.15
551.51	62536.77
551.68	63103.18
551.84	62995.52
552.01	62702.95
552.18	62859.77
552.34	61949.30
552.51	61776.10
552.68	61736.31
552.84	61996.11
553.01	62438.47
553.18	62019.52
553.34	62199.74
553.51	62504.01
553.67	62574.22
553.84	62681.89
554.01	62560.18
554.17	62504.01
554.34	62485.28
554.51	62695.93
554.67	62873.81
554.84	62862.11
555.00	62475.92
555.17	62284.00
555.33	62042.92
555.50	62398.68
555.67	62166.97
555.83	62220.80
556.00	61888.45
556.16	61860.36
556.33	61474.17
556.50	61455.45
556.66	61495.24
556.83	61378.21
556.99	61315.01
557.16	61490.55
557.32	61701.20
557.49	62007.81
557.65	62019.52
557.82	61642.69
557.98	61839.29
558.15	61209.69
558.32	60544.98
558.48	59894.31
558.65	60175.17
558.81	60439.65
558.98	60821.16
559.14	60835.20
559.31	60963.93
559.47	61024.79
559.64	60537.96
559.80	60331.99
559.97	60472.42
560.13	60858.61
560.30	61506.94
560.46	61942.28
560.63	62176.33
560.79	62223.14
560.96	61778.44
561.12	60893.72
561.29	60126.02
561.45	60142.41
561.61	60783.71
561.78	61155.86
561.94	60767.33
562.11	60772.01
562.27	60772.01
562.44	60942.87
562.60	61450.77
562.77	61567.79
562.93	61520.98
563.10	61378.21
563.26	60809.46
563.42	60938.19
563.59	60732.22
563.75	60898.40
563.92	60999.04
564.08	60676.05
564.24	61123.09
564.41	60992.02
564.57	60931.17
564.74	60760.31
564.90	60420.93
565.07	60523.91
565.23	60243.05
565.39	59791.33
565.56	59501.10
565.72	59224.92
565.88	59728.13
566.05	59746.86
566.21	59826.43
566.38	60163.47
566.54	60299.22
566.70	60582.43
566.87	60718.18
567.03	60615.19
567.19	61001.38
567.36	60453.70
567.52	60369.44
567.68	60245.39
567.85	59683.66
568.01	59400.46
568.17	59025.97
568.34	59096.19
568.50	59145.34
568.66	59185.13
568.83	59533.87
568.99	59505.78
569.15	59840.48
569.32	59824.09
569.48	59487.06
569.64	59480.03
569.81	58951.07
569.97	58993.20
570.13	59091.51
570.30	58452.54
570.46	58181.04
570.62	57640.37
570.78	57935.28
570.95	58117.84
571.11	58436.16
571.27	58780.21
571.43	59065.76
571.60	59154.70
571.76	59428.54
571.92	59381.73
572.09	59725.79
572.25	59576.00
572.41	59784.30
572.57	59489.40
572.74	59245.98
572.90	59068.10
573.06	58922.99
573.22	59178.10
573.38	59182.79
573.55	59051.72
573.71	59016.61
573.87	59262.36
574.03	59040.01
574.20	59140.66
574.36	58735.74
574.52	58812.98
574.68	58658.51
574.84	58279.34
575.01	57808.89
575.17	58012.52
575.33	58056.99
575.49	58246.57
575.65	58548.50
575.82	58192.74
575.98	58188.06
576.14	58171.67
576.30	58492.33
576.46	58752.13
576.62	58482.97
576.79	58588.29
576.95	58436.16
577.11	58085.07
577.27	58356.58
577.43	58284.02
577.59	57799.53
577.75	57411.00
577.92	57076.30
578.08	56889.06
578.24	56999.07
578.40	57207.37
578.56	57378.23
578.72	57364.19
578.88	57441.43
579.04	57773.78
579.21	57813.57
579.37	57979.75
579.53	58061.67
579.69	57820.59
579.85	57996.13
580.01	57972.73
580.17	57537.39
580.33	57186.31
580.49	57495.26
580.65	57836.98
580.82	57996.13
580.98	57956.35
581.14	57822.93
581.30	57766.76
581.46	57881.45
581.62	57998.48
581.78	58024.22
581.94	58129.54
582.10	57855.70
582.26	58230.19
582.42	58197.42
582.58	58040.60
582.74	57946.98
582.90	58391.68
583.06	57827.62
583.22	57797.19
583.38	57827.62
583.54	57848.68
583.70	57743.36
583.86	57834.64
584.02	57689.52
584.18	57844.00
584.34	57595.90
584.50	57490.58
584.66	57380.57
584.82	57052.90
584.98	57357.17
585.14	56839.91
