SpectraSuite Data File
++++++++++++++++++++++++++++++++++++
Date: Mon Oct 07 14:52:59 GMT-05:00 2013
User: price-jones
Dark Spectrum Present: No
Reference Spectrum Present: No
Number of Sampled Component Spectra: 1
Spectrometers: USB2+H05261
Integration Time (usec): 100000 (USB2+H05261)
Spectra Averaged: 1 (USB2+H05261)
Boxcar Smoothing: 0 (USB2+H05261)
Correct for Electrical Dark: No (USB2+H05261)
Strobe/Lamp Enabled: No (USB2+H05261)
Correct for Detector Non-linearity: No (USB2+H05261)
Correct for Stray Light: No (USB2+H05261)
Number of Pixels in Processed Spectrum: 2048
>>>>>Begin Processed Spectral Data<<<<<
365.73	0.00
365.92	0.00
366.12	0.00
366.32	0.00
366.52	0.00
366.72	0.00
366.91	0.00
367.11	0.00
367.31	0.00
367.51	0.00
367.70	0.00
367.90	0.00
368.10	0.00
368.30	0.00
368.49	0.00
368.69	0.00
368.89	0.00
369.09	0.00
369.28	0.00
369.48	0.00
369.68	0.00
369.87	0.00
370.07	0.00
370.27	0.00
370.47	547.69
370.66	2864.82
370.86	3407.82
371.06	3719.11
371.25	3637.19
371.45	3251.00
371.65	3091.85
371.84	2862.48
372.04	2885.88
372.24	3286.11
372.44	3449.95
372.63	3351.65
372.83	3180.79
373.03	2651.83
373.22	2422.45
373.42	2752.47
373.62	3176.11
373.81	3426.54
374.01	3426.54
374.21	3117.59
374.40	2902.26
374.60	2935.03
374.79	3337.60
374.99	3831.46
375.19	4175.52
375.38	4198.92
375.58	3913.38
375.78	3789.33
375.97	3831.46
376.17	4112.32
376.37	4058.49
376.56	4030.40
376.76	4388.50
376.95	4671.71
377.15	4997.04
377.35	5083.64
377.54	5420.68
377.74	5526.00
377.93	5418.34
378.13	5371.53
378.33	5221.74
378.52	4662.35
378.72	4566.39
378.91	4400.21
379.11	4341.69
379.31	4257.43
379.50	4245.73
379.70	4512.55
379.89	5111.73
380.09	5219.39
380.28	5549.41
380.48	5427.70
380.68	5385.57
380.87	5128.11
381.07	4912.78
381.26	4472.76
381.46	4128.70
381.65	4105.30
381.85	3812.73
382.04	3801.03
382.24	3566.98
382.43	3492.08
382.63	3197.17
382.83	3157.38
383.02	3314.20
383.22	3297.81
383.41	3325.90
383.61	3520.17
383.80	4023.38
384.00	4631.92
384.19	5186.63
384.39	5500.26
384.58	5423.02
384.78	5336.42
384.97	5289.61
385.17	4999.38
385.36	4880.02
385.56	4461.06
385.75	4720.86
385.95	5235.78
386.14	5605.58
386.34	5430.04
386.53	5387.91
386.72	4919.81
386.92	4952.57
387.11	5420.68
387.31	5636.01
387.50	5549.41
387.70	5317.70
387.89	5057.90
388.09	5315.36
388.28	5280.25
388.48	5371.53
388.67	5771.76
388.86	6544.14
389.06	6712.66
389.25	7133.95
389.45	7269.70
389.64	7241.62
389.84	7211.19
390.03	7059.06
390.22	6876.49
390.42	7379.71
390.61	7880.58
390.81	8147.40
391.00	8446.99
391.19	8421.25
391.39	7957.82
391.58	7616.10
391.78	7199.49
391.97	7014.59
392.16	6408.39
392.36	5877.09
392.55	4545.32
392.75	3852.52
392.94	3007.59
393.13	3054.40
393.33	3721.45
393.52	4690.43
393.71	5818.57
393.91	6450.52
394.10	6897.56
394.29	7669.94
394.49	8234.00
394.68	8627.21
394.88	8877.65
395.07	9142.13
395.26	9013.40
395.46	8636.58
395.65	8084.21
395.84	7274.38
396.04	6162.63
396.23	4947.89
396.42	3983.59
396.62	3953.16
396.81	4718.52
397.00	5937.94
397.19	7400.77
397.39	8968.93
397.58	10099.41
397.77	10284.31
397.97	11023.92
398.16	11101.16
398.35	11583.31
398.55	11920.35
398.74	12505.48
398.93	12865.92
399.12	12243.34
399.32	11995.25
399.51	12283.13
399.70	13151.47
399.90	12662.30
400.09	12849.54
400.28	12975.93
400.47	12894.01
400.67	13434.68
400.86	13774.05
401.05	13774.05
401.24	13858.31
401.44	14342.80
401.63	14244.50
401.82	14232.80
402.01	14431.74
402.21	14473.87
402.40	14441.11
402.59	14087.68
402.78	13270.84
402.97	13217.01
403.17	13579.79
403.36	14125.13
403.55	14909.21
403.74	15176.03
403.93	14368.55
404.13	13303.60
404.32	13095.30
404.51	13635.96
404.70	14867.08
404.89	14572.18
405.09	14733.67
405.28	14244.50
405.47	13846.61
405.66	13994.06
405.85	13675.75
406.05	13422.97
406.24	13579.79
406.43	14249.18
406.62	14413.02
406.81	14728.99
407.00	14389.61
407.20	13905.12
407.39	13888.74
407.58	14637.71
407.77	15222.84
407.96	15728.40
408.15	15962.45
408.34	16018.63
408.54	16760.58
408.73	16938.46
408.92	16559.29
409.11	15957.77
409.30	15145.61
409.49	14090.02
409.68	13240.41
409.87	13011.04
410.07	13905.12
410.26	14991.13
410.45	16002.24
410.64	16355.66
410.83	16788.66
411.02	16973.56
411.21	17572.74
411.40	17455.72
411.59	17413.59
411.78	17537.63
411.98	17495.50
412.17	17778.71
412.36	17207.62
412.55	17331.67
412.74	17294.22
412.93	16718.45
413.12	17006.33
413.31	18302.99
413.50	18370.86
413.69	18698.54
413.88	18246.82
414.07	17757.64
414.26	17827.86
414.45	18068.94
414.64	18429.38
414.83	18420.02
415.02	18134.47
415.22	18218.73
415.41	18541.72
415.60	19236.86
415.79	19768.16
415.98	20187.12
416.17	20154.35
416.36	20093.50
416.55	19435.81
416.74	18948.98
416.93	18394.27
417.12	18324.05
417.31	18696.20
417.50	18911.53
417.69	19503.68
417.88	19524.75
418.07	19248.57
418.26	18838.97
418.45	19424.11
418.64	19847.74
418.83	20533.52
419.02	20350.96
419.21	20149.67
419.39	19559.86
419.58	18295.97
419.77	18490.23
419.96	19136.22
420.15	20276.06
420.34	20940.77
420.53	21774.00
420.72	22080.61
420.91	21771.66
421.10	21591.44
421.29	21362.07
421.48	20505.43
421.67	21729.53
421.86	21015.67
422.05	19555.18
422.24	17710.83
422.43	17493.16
422.61	19288.35
422.80	20835.45
422.99	20971.20
423.18	20002.22
423.37	19625.39
423.56	19817.32
423.75	20266.70
423.94	20327.55
424.13	19396.02
424.32	19648.80
424.50	19597.31
424.69	19578.58
424.88	19756.46
425.07	19550.49
425.26	19784.55
425.45	19456.87
425.64	18738.33
425.83	19152.60
426.01	20273.72
426.20	20156.69
426.39	20245.63
426.58	18740.67
426.77	17664.02
426.96	16744.19
427.15	17444.01
427.33	18721.95
427.52	19309.42
427.71	19768.16
427.90	19452.19
428.09	19346.87
428.28	18759.39
428.46	18382.57
428.65	18197.67
428.84	18462.15
429.03	18920.89
429.22	17633.60
429.40	16814.41
429.59	15117.52
429.78	13380.84
429.97	13586.81
430.16	13802.14
430.34	13816.18
430.53	13547.02
430.72	14059.60
430.91	15747.12
431.10	18604.92
431.28	21940.18
431.47	23370.25
431.66	23866.44
431.85	21294.19
432.03	19700.29
432.22	18965.36
432.41	20056.05
432.60	22216.36
432.79	22522.98
432.97	23360.89
433.16	22869.37
433.35	20926.73
433.54	18864.72
433.72	17612.53
433.91	18057.23
434.10	20402.45
434.28	21893.37
434.47	22553.40
434.66	22202.32
434.85	21970.61
435.03	21872.31
435.22	22469.14
435.41	23915.59
435.59	23751.76
435.78	24390.72
435.97	24650.52
436.16	25174.80
436.34	24346.25
436.53	24002.19
436.72	24100.50
436.90	22469.14
437.09	22773.41
437.28	22012.74
437.46	23082.36
437.65	23105.77
437.84	21289.51
438.02	19854.76
438.21	19894.55
438.40	20725.44
438.58	22649.36
438.77	22733.62
438.96	22972.36
439.14	24287.74
439.33	24573.28
439.52	25338.64
439.70	24805.00
439.89	24105.18
440.08	23562.17
440.26	23372.59
440.45	24252.63
440.63	25984.63
440.82	26714.87
441.01	26771.05
441.19	26476.14
441.38	27182.98
441.57	28084.09
441.75	27915.57
441.94	28379.00
442.12	28074.73
442.31	28800.29
442.50	28861.15
442.68	28591.98
442.87	27864.08
443.05	27290.65
443.24	27962.38
443.43	28709.01
443.61	29146.69
443.80	29270.74
443.98	27646.41
444.17	27917.91
444.35	29617.14
444.54	29549.26
444.73	29532.88
444.91	28306.44
445.10	26988.72
445.28	26246.77
445.47	25993.99
445.65	25905.05
445.84	26782.75
446.02	27737.69
446.21	28320.48
446.39	28053.66
446.58	28240.90
446.77	28704.33
446.95	28940.72
447.14	30064.18
447.32	30504.20
447.51	29919.07
447.69	28615.39
447.88	28526.45
448.06	28919.66
448.25	29640.54
448.43	29738.85
448.62	28973.49
448.80	28706.67
448.99	28718.37
449.17	29310.53
449.36	29027.32
449.54	30609.53
449.73	31094.02
449.91	31314.03
450.10	31899.16
450.28	32533.45
450.46	32191.73
450.65	32170.66
450.83	32250.24
451.02	31433.39
451.20	31517.65
451.39	31115.08
451.57	31115.08
451.76	31323.39
451.94	30906.77
452.13	30232.70
452.31	28856.46
452.49	27828.97
452.68	28020.89
452.86	27901.53
453.05	28102.81
453.23	29172.44
453.42	29839.49
453.60	30176.53
453.78	30979.33
453.97	30349.73
454.15	30642.29
454.34	30092.27
454.52	30340.36
454.70	29317.55
454.89	30047.80
455.07	30244.40
455.26	30628.25
455.44	31618.30
455.62	32112.15
455.81	32304.07
455.99	31978.74
456.17	31800.86
456.36	31690.85
456.54	32751.12
456.73	32517.06
456.91	33031.98
457.09	33886.28
457.28	33600.73
457.46	32402.38
457.64	32467.91
457.83	31735.32
458.01	30759.32
458.19	31770.43
458.38	31967.04
458.56	33167.73
458.74	32329.82
458.93	31826.60
459.11	31653.40
459.29	31842.99
459.48	31796.18
459.66	31676.81
459.84	31964.70
460.03	32737.07
460.21	32093.43
460.39	33525.83
460.57	33692.01
460.76	33549.24
460.94	34213.95
461.12	33158.37
461.31	33675.63
461.49	33523.49
461.67	33586.69
461.85	34298.21
462.04	34249.06
462.22	34981.65
462.40	34354.38
462.59	34007.98
462.77	34122.67
462.95	34078.20
463.13	34242.04
463.32	33586.69
463.50	33427.53
463.68	33619.46
463.86	33841.81
464.05	32907.93
464.23	32154.28
464.41	32369.61
464.59	31732.98
464.78	33352.63
464.96	33134.96
465.14	32486.64
465.32	33041.34
465.50	34752.27
465.69	34836.53
465.87	33813.72
466.05	33195.82
466.23	31641.70
466.41	31239.13
466.60	32135.56
466.78	32079.38
466.96	32273.65
467.14	32655.15
467.32	33565.62
467.51	33448.60
467.69	31807.88
467.87	32503.02
468.05	33427.53
468.23	33095.18
468.41	33106.88
468.60	33577.33
468.78	33928.41
468.96	33303.48
469.14	33968.19
469.32	33893.30
469.50	32613.02
469.69	33027.30
469.87	32706.65
470.05	32208.11
470.23	32376.63
470.41	32119.17
470.59	33172.41
470.77	32943.04
470.95	33364.34
471.14	34213.95
471.32	34080.54
471.50	36034.89
471.68	36282.98
471.86	36273.62
472.04	36816.63
472.22	36156.60
472.40	34632.91
472.58	34745.25
472.77	34370.77
472.95	35058.88
473.13	35840.62
473.31	35028.46
473.49	34864.62
473.67	35871.05
473.85	35927.22
474.03	37088.13
474.21	36795.56
474.39	37212.18
474.57	37577.30
474.75	37188.77
474.93	37125.58
475.12	36666.83
475.30	36383.63
475.48	37024.93
475.66	37055.36
475.84	36421.08
476.02	36093.40
476.20	35583.16
476.38	36765.14
476.56	38073.49
476.74	38345.00
476.92	37930.72
477.10	38885.66
477.28	39805.49
477.46	39906.13
477.64	40484.25
477.82	40671.49
478.00	40725.32
478.18	39658.04
478.36	39800.81
478.54	39529.31
478.72	40053.59
478.90	41141.94
479.08	42403.49
479.26	42698.39
479.44	42515.83
479.62	42478.38
479.80	42000.91
479.98	42710.10
480.16	42581.37
480.34	42162.41
480.52	42686.69
480.70	42784.99
480.88	43393.53
481.06	44278.25
481.24	44580.18
481.41	44847.00
481.59	45911.95
481.77	45235.53
481.95	44875.09
482.13	44559.12
482.31	44392.94
482.49	45352.56
482.67	44790.83
482.85	45673.21
483.03	46162.39
483.21	46417.50
483.39	46522.83
483.57	45652.15
483.74	45326.81
483.92	45677.90
484.10	45963.44
484.28	46969.87
484.46	47320.95
484.64	47728.20
484.82	46358.99
485.00	46164.73
485.18	45464.91
485.35	44224.42
485.53	41294.07
485.71	37759.86
485.89	37043.66
486.07	39328.02
486.25	42504.13
486.43	44893.82
486.61	45474.27
486.78	45207.45
486.96	45385.33
487.14	46986.25
487.32	47882.68
487.50	49366.58
487.68	50263.00
487.85	49940.01
488.03	50576.64
488.21	49972.78
488.39	49216.78
488.57	48495.90
488.75	48519.31
488.92	49565.52
489.10	51557.32
489.28	52912.49
489.46	53642.74
489.64	53361.87
489.81	53715.29
489.99	53193.36
490.17	53394.64
490.35	53614.65
490.53	53095.05
490.70	52736.95
490.88	53001.43
491.06	53813.60
491.24	53551.46
491.41	52327.36
491.59	50883.25
491.77	50134.28
491.95	51334.97
492.13	52591.84
492.30	53787.85
492.48	54681.94
492.66	55213.24
492.84	54944.08
493.01	54719.38
493.19	54075.74
493.37	53984.46
493.54	53631.04
493.72	54433.84
493.90	55526.87
494.08	56214.99
494.25	56371.80
494.43	56388.19
494.61	56652.67
494.79	56772.03
494.96	56542.66
495.14	55870.93
495.32	54913.65
495.49	54604.70
495.67	55786.67
495.85	56945.23
496.02	57352.49
496.20	57190.99
496.38	56678.41
496.55	56409.25
496.73	57303.34
496.91	57202.69
497.09	57932.94
497.26	57834.64
497.44	57656.76
497.62	56676.07
497.79	56144.77
497.97	54925.35
498.14	55171.11
498.32	56339.04
498.50	57183.97
498.67	57921.24
498.85	57544.41
499.03	57633.35
499.20	57736.34
499.38	57998.48
499.56	57738.68
499.73	57293.97
499.91	56779.06
500.08	56509.89
500.26	55693.05
500.44	56477.13
500.61	57031.83
500.79	56704.16
500.97	56442.02
501.14	56261.80
501.32	56039.45
501.49	56303.93
501.67	56540.32
501.84	56793.10
502.02	57174.61
502.20	57572.50
502.37	57544.41
502.55	57635.69
502.72	58223.17
502.90	58604.67
503.07	58206.78
503.25	58031.24
503.43	57153.54
503.60	56315.63
503.78	55807.73
503.95	56512.23
504.13	57586.54
504.30	58651.48
504.48	58026.56
504.65	58056.99
504.83	58096.78
505.01	58625.74
505.18	58951.07
505.36	59564.29
505.53	59557.27
505.71	59744.51
505.88	59793.67
506.06	59100.87
506.23	58801.28
506.41	58384.66
506.58	58894.90
506.76	58457.22
506.93	58843.41
507.11	58553.18
507.28	58632.76
507.46	57815.91
507.63	57464.83
507.81	57521.01
507.98	57513.98
508.16	58199.76
508.33	58974.48
508.50	59250.66
508.68	59393.43
508.85	59814.73
509.03	59859.20
509.20	59709.41
509.38	58883.20
509.55	58267.64
509.73	58454.88
509.90	58883.20
510.08	59187.47
510.25	59004.91
510.42	58911.28
510.60	58735.74
510.77	59203.85
510.95	59566.63
511.12	59842.82
511.30	60140.07
511.47	60111.98
511.64	60130.70
511.82	59758.56
511.99	59157.04
512.17	58546.16
512.34	58358.92
512.51	58695.95
512.69	58922.99
512.86	58899.58
513.04	59330.24
513.21	59367.69
513.38	58609.35
513.56	58431.47
513.73	57719.95
513.90	58216.14
514.08	58197.42
514.25	58546.16
514.43	58738.08
514.60	58761.49
514.77	58857.45
514.95	58831.71
515.12	58990.86
515.29	59028.31
515.47	59461.31
515.64	59760.90
515.81	59292.79
515.99	58688.93
516.16	57366.53
516.33	55248.35
516.51	53916.58
516.68	52963.98
516.85	52481.83
517.03	53298.68
517.20	55910.72
517.37	58265.30
517.54	59124.27
517.72	58206.78
517.89	55798.37
518.06	54157.66
518.24	54550.87
518.41	56404.57
518.58	57535.05
518.75	57675.48
518.93	58078.05
519.10	57797.19
519.27	58379.98
519.45	58480.63
519.62	59414.50
519.79	59660.26
519.96	59334.92
520.14	58773.19
520.31	58066.35
520.48	58171.67
520.65	58855.11
520.83	59510.46
521.00	59779.62
521.17	59526.84
521.34	59194.49
521.52	59260.02
521.69	59859.20
521.86	60341.35
522.03	59955.16
522.20	58672.55
522.38	57965.71
522.55	58059.33
522.72	58473.60
522.89	58653.82
523.07	58796.60
523.24	59093.85
523.41	59891.97
523.58	60261.77
523.75	60521.57
523.92	60528.59
524.10	60376.46
524.27	60383.48
524.44	59966.87
524.61	60083.89
524.78	59906.01
524.96	59884.95
525.13	59852.18
525.30	60128.36
525.47	60603.49
525.64	60294.54
525.81	59779.62
525.98	58335.51
526.16	57020.13
526.33	56306.27
526.50	56175.20
526.67	55943.48
526.84	56282.86
527.01	57427.38
527.18	58117.84
527.36	58791.92
527.53	59875.58
527.70	59903.67
527.87	59337.26
528.04	59037.67
528.21	59620.47
528.38	60137.72
528.55	60697.11
528.72	60734.56
528.89	61059.90
529.07	60713.50
529.24	60051.12
529.41	59583.02
529.58	58960.44
529.75	59332.58
529.92	59540.89
530.09	59800.69
530.26	60388.16
530.43	60608.17
530.60	60598.81
530.77	60790.73
530.94	60830.52
531.11	60554.34
531.28	60163.47
531.46	59817.07
531.63	60301.56
531.80	60030.06
531.97	59393.43
532.14	58927.67
532.31	57869.75
532.48	57226.10
532.65	57490.58
532.82	58279.34
532.99	59187.47
533.16	59608.76
533.33	60182.19
533.50	59721.11
533.67	59372.37
533.84	59070.44
534.01	59379.39
534.18	59138.32
534.35	59524.50
534.52	59243.64
534.69	59693.02
534.86	59978.57
535.03	60250.07
535.20	60582.43
535.37	61031.81
535.54	61020.11
535.71	60617.53
535.88	60217.30
536.05	59552.59
536.22	59267.05
536.38	59253.00
536.55	58618.72
536.72	58169.33
536.89	58169.33
537.06	58894.90
537.23	59786.64
537.40	59973.89
537.57	59973.89
537.74	59767.92
537.91	59814.73
538.08	59819.41
538.25	59796.01
538.42	59840.48
538.59	59662.60
538.75	58852.77
538.92	58845.75
539.09	58756.81
539.26	58637.44
539.43	58499.35
539.60	58534.46
539.77	58548.50
539.94	58590.63
540.11	57694.21
540.28	57598.24
540.44	57427.38
540.61	57567.82
540.78	57766.76
540.95	58443.18
541.12	58646.80
541.29	58906.60
541.46	59213.21
541.62	59245.98
541.79	59302.15
541.96	58438.50
542.13	58581.27
542.30	58843.41
542.47	58979.16
542.63	58836.39
542.80	58541.48
542.97	58738.08
543.14	58541.48
543.31	58482.97
543.48	59135.98
543.64	59805.37
543.81	60001.97
543.98	59971.55
544.15	58948.73
544.32	58777.87
544.48	58810.64
544.65	59337.26
544.82	59533.87
544.99	59257.68
545.16	59051.72
545.32	58841.07
545.49	59355.99
545.66	59826.43
545.83	59370.03
546.00	59004.91
546.16	58899.58
546.33	58747.45
546.50	58693.61
546.67	59374.71
546.83	58864.47
547.00	58794.26
547.17	58033.58
547.34	57797.19
547.50	57598.24
547.67	58344.87
547.84	58164.65
548.00	58642.12
548.17	58993.20
548.34	58848.09
548.51	58735.74
548.67	58763.83
548.84	59021.29
549.01	58962.78
549.18	58773.19
549.34	58560.20
549.51	58789.58
549.68	58646.80
549.84	58382.32
550.01	58265.30
550.18	58260.62
550.34	58396.37
550.51	58562.54
550.68	58656.17
550.84	57895.49
551.01	58131.89
551.18	57958.69
551.34	58450.20
551.51	58597.65
551.68	58946.39
551.84	58981.50
552.01	58693.61
552.18	58461.90
552.34	57698.89
552.51	57668.46
552.68	57539.73
552.84	57972.73
553.01	58213.80
553.18	58014.86
553.34	58127.20
553.51	58309.77
553.67	58712.34
553.84	58686.59
554.01	58471.26
554.17	58394.03
554.34	58412.75
554.51	58621.06
554.67	58988.52
554.84	58679.57
555.00	58248.91
555.17	58148.27
555.33	57921.24
555.50	58136.57
555.67	58033.58
555.83	58419.77
556.00	57745.70
556.16	57762.08
556.33	57455.47
556.50	57219.08
556.66	57361.85
556.83	57130.14
556.99	57183.97
557.16	57326.74
557.32	57387.60
557.49	57766.76
557.65	57703.57
557.82	57581.86
557.98	57375.89
558.15	56849.27
558.32	56198.60
558.48	55529.21
558.65	55688.37
558.81	56076.90
558.98	56294.56
559.14	56617.56
559.31	56823.53
559.47	56481.81
559.64	56392.87
559.80	56154.13
559.97	56243.07
560.13	56652.67
560.30	57151.20
560.46	57675.48
560.63	57909.53
560.79	58309.77
560.96	57549.09
561.12	56388.19
561.29	55906.04
561.45	55906.04
561.61	56264.14
561.78	57017.79
561.94	56704.16
562.11	56449.04
562.27	56514.58
562.44	56781.40
562.60	57085.67
562.77	57235.46
562.93	57104.39
563.10	56865.66
563.26	56657.35
563.42	56577.77
563.59	56362.44
563.75	56313.29
563.92	56512.23
564.08	56381.16
564.24	56729.90
564.41	56753.31
564.57	56676.07
564.74	56439.68
564.90	56549.68
565.07	56119.02
565.23	55987.95
565.39	55269.41
565.56	55042.38
565.72	54951.10
565.88	55220.26
566.05	55313.88
566.21	55641.56
566.38	55695.39
566.54	55847.52
566.70	56009.02
566.87	56442.02
567.03	56299.25
567.19	56580.11
567.36	56165.84
567.52	56168.18
567.68	55908.38
567.85	55552.62
568.01	54787.26
568.17	54302.77
568.34	54597.68
568.50	54520.44
568.66	54674.91
568.83	55161.75
568.99	55161.75
569.15	55128.98
569.32	55510.49
569.48	55257.71
569.64	54623.42
569.81	54466.61
569.97	54445.54
570.13	54415.11
570.30	53895.52
570.46	53502.31
570.62	52996.75
570.78	53167.61
570.95	53460.18
571.11	54005.52
571.27	54260.64
571.43	54438.52
571.60	54766.20
571.76	54981.52
571.92	55253.03
572.09	55180.47
572.25	55112.59
572.41	54965.14
572.57	55065.78
572.74	55047.06
572.90	54623.42
573.06	54670.23
573.22	54822.37
573.38	54878.54
573.55	54649.17
573.71	55182.81
573.87	54770.88
574.03	54789.60
574.20	54475.97
574.36	54167.02
574.52	54003.18
574.68	53825.30
574.84	53450.81
575.01	53226.12
575.17	53109.10
575.33	53558.48
575.49	53886.15
575.65	53729.34
575.82	53708.27
575.98	53305.70
576.14	53904.88
576.30	53984.46
576.46	53780.83
576.62	53944.67
576.79	53839.34
576.95	53591.25
577.11	53413.37
577.27	53516.35
577.43	53673.16
577.59	53158.25
577.75	52612.90
577.92	52123.73
578.08	51672.01
578.24	51763.29
578.40	52545.03
578.56	52615.24
578.72	52425.66
578.88	53064.63
579.04	52837.59
579.21	53205.06
579.37	52996.75
579.53	53282.30
579.69	53340.81
579.85	53326.77
580.01	53160.59
580.17	52659.71
580.33	52678.44
580.49	52673.76
580.65	52865.68
580.82	53284.64
580.98	53083.35
581.14	53102.07
581.30	53279.96
581.46	52989.73
581.62	53340.81
581.78	53193.36
581.94	53818.28
582.10	53485.92
582.26	53553.80
582.42	53439.11
582.58	53415.71
582.74	53282.30
582.90	53418.05
583.06	53439.11
583.22	53399.32
583.38	53085.69
583.54	52982.71
583.70	53146.54
583.86	52877.38
584.02	53127.82
584.18	53179.31
584.34	52952.28
584.50	53116.12
584.66	52479.49
584.82	52465.45
584.98	52177.56
585.14	52140.11
585.30	51072.83
