SpectraSuite Data File
++++++++++++++++++++++++++++++++++++
Date: Mon Oct 07 14:54:59 GMT-05:00 2013
User: price-jones
Dark Spectrum Present: No
Reference Spectrum Present: No
Number of Sampled Component Spectra: 1
Spectrometers: USB2+H05261
Integration Time (usec): 10000 (USB2+H05261)
Spectra Averaged: 1 (USB2+H05261)
Boxcar Smoothing: 0 (USB2+H05261)
Correct for Electrical Dark: No (USB2+H05261)
Strobe/Lamp Enabled: No (USB2+H05261)
Correct for Detector Non-linearity: No (USB2+H05261)
Correct for Stray Light: No (USB2+H05261)
Number of Pixels in Processed Spectrum: 2048
>>>>>Begin Processed Spectral Data<<<<<
365.73	0.00
365.92	0.00
366.12	0.00
366.32	0.00
366.52	0.00
366.72	0.00
366.91	0.00
367.11	0.00
367.31	0.00
367.51	0.00
367.70	0.00
367.90	0.00
368.10	0.00
368.30	0.00
368.49	0.00
368.69	0.00
368.89	0.00
369.09	0.00
369.28	0.00
369.48	0.00
369.68	0.00
369.87	0.00
370.07	0.00
370.27	0.00
370.47	175.54
370.66	1366.87
370.86	1624.33
371.06	1755.40
371.25	1675.82
371.45	1612.63
371.65	1411.34
371.84	1439.43
372.04	1380.92
372.24	1629.01
372.44	1675.82
372.63	1614.97
372.83	1516.67
373.03	1336.45
373.22	1181.97
373.42	1313.04
373.62	1668.80
373.81	1682.85
374.01	1596.25
374.21	1352.83
374.40	1355.17
374.60	1493.26
374.79	1706.25
374.99	1966.05
375.19	2076.06
375.38	2043.29
375.58	1909.88
375.78	1865.41
375.97	1895.83
376.17	2012.86
376.37	2031.58
376.56	2080.74
376.76	2235.21
376.95	2420.11
377.15	2490.33
377.35	2787.58
377.54	2691.62
377.74	2712.68
377.93	2747.79
378.13	2605.02
378.33	2504.37
378.52	2263.30
378.72	2324.15
378.91	2207.13
379.11	2026.90
379.31	2099.46
379.50	2120.53
379.70	2286.70
379.89	2637.78
380.09	2600.34
380.28	2693.96
380.48	2745.45
380.68	2698.64
380.87	2548.84
381.07	2296.07
381.26	2115.84
381.46	2064.35
381.65	1961.37
381.85	1834.98
382.04	1811.57
382.24	1661.78
382.43	1563.48
382.63	1582.20
382.83	1514.33
383.02	1596.25
383.22	1645.40
383.41	1582.20
383.61	1813.92
383.80	2057.33
384.00	2490.33
384.19	2703.32
384.39	2689.28
384.58	2691.62
384.78	2600.34
384.97	2654.17
385.17	2434.16
385.36	2373.30
385.56	2263.30
385.75	2389.69
385.95	2696.30
386.14	2906.95
386.34	2668.21
386.53	2588.63
386.72	2602.68
386.92	2616.72
387.11	2731.41
387.31	2785.24
387.50	2708.00
387.70	2719.70
387.89	2752.47
388.09	2731.41
388.28	2724.38
388.48	2696.30
388.67	3014.61
388.86	3274.41
389.06	3489.74
389.25	3688.68
389.45	3653.58
389.64	3637.19
389.84	3653.58
390.03	3548.25
390.22	3803.37
390.42	3770.60
390.61	3936.78
390.81	4283.18
391.00	4458.72
391.19	4044.45
391.39	4201.26
391.58	3758.90
391.78	3707.41
391.97	3508.46
392.16	3164.40
392.36	2761.83
392.55	2314.79
392.75	1724.97
392.94	1556.46
393.13	1542.41
393.33	1987.11
393.52	2586.29
393.71	3021.63
393.91	3309.52
394.10	3691.02
394.29	4011.68
394.49	4311.27
394.68	4695.11
394.88	4685.75
395.07	4664.69
395.26	4683.41
395.46	4332.33
395.65	3974.23
395.84	3492.08
396.04	2825.03
396.23	2331.17
396.42	1966.05
396.62	2211.81
396.81	2576.93
397.00	3255.69
397.19	4133.39
397.39	4905.76
397.58	5245.14
397.77	5589.20
397.97	5851.34
398.16	5841.98
398.35	5933.26
398.55	6200.08
398.74	6457.54
398.93	6478.60
399.12	6326.47
399.32	6307.74
399.51	6450.52
399.70	6895.22
399.90	6502.01
400.09	6593.29
400.28	6590.95
400.47	6780.53
400.67	7075.44
400.86	7241.62
401.05	7386.73
401.24	7243.96
401.44	7482.69
401.63	7417.16
401.82	7389.07
402.01	7386.73
402.21	7599.72
402.40	7597.38
402.59	7124.59
402.78	6942.03
402.97	6789.89
403.17	7183.10
403.36	7667.60
403.55	7808.03
403.74	7939.10
403.93	7288.43
404.13	6869.47
404.32	7243.96
404.51	7480.35
404.70	7810.37
404.89	7854.84
405.09	7513.12
405.28	7356.30
405.47	7529.50
405.66	7386.73
405.85	7042.67
406.05	7190.13
406.24	7194.81
406.43	7590.36
406.62	7908.67
406.81	7852.50
407.00	7328.22
407.20	7180.76
407.39	7330.56
407.58	7702.70
407.77	8049.10
407.96	8372.10
408.15	8318.26
408.34	8526.57
408.54	8847.22
408.73	8575.72
408.92	8840.20
409.11	8484.44
409.30	8088.89
409.49	7538.87
409.68	7103.53
409.87	7066.08
410.07	7571.63
410.26	7934.42
410.45	8336.99
410.64	8531.25
410.83	8936.17
411.02	9121.07
411.21	9376.19
411.40	9083.62
411.59	9343.42
411.78	9284.91
411.98	8971.27
412.17	9261.50
412.36	9280.22
412.55	9282.56
412.74	9076.60
412.93	8830.84
413.12	8973.61
413.31	9912.17
413.50	9935.57
413.69	9685.14
413.88	9362.14
414.07	9401.93
414.26	9699.18
414.45	9825.57
414.64	9664.07
414.83	9947.28
415.02	9533.00
415.22	9486.19
415.41	9942.60
415.60	10260.91
415.79	10609.65
415.98	10857.75
416.17	10911.58
416.36	10509.01
416.55	10228.14
416.74	9755.35
416.93	9741.31
417.12	9872.38
417.31	9818.55
417.50	9921.53
417.69	10555.82
417.88	10408.36
418.07	10263.25
418.26	10059.62
418.45	10494.96
418.64	10621.35
418.83	11152.65
419.02	10672.84
419.21	10719.65
419.39	10143.88
419.58	9776.42
419.77	9987.07
419.96	10485.60
420.15	10977.11
420.34	11405.43
420.53	11360.96
420.72	11634.80
420.91	11557.57
421.10	11117.54
421.29	11407.77
421.48	11105.84
421.67	11311.81
421.86	10862.43
422.05	10183.67
422.24	9177.24
422.43	9659.39
422.61	10841.36
422.80	11220.53
422.99	10724.33
423.18	10717.31
423.37	10516.03
423.56	10527.73
423.75	10883.49
423.94	10883.49
424.13	10300.70
424.32	10251.55
424.50	10424.75
424.69	10403.68
424.88	10579.22
425.07	10244.52
425.26	10333.47
425.45	10232.82
425.64	10033.88
425.83	10338.15
426.01	10672.84
426.20	10984.13
426.39	10972.43
426.58	9895.78
426.77	9364.48
426.96	9104.68
427.15	9661.73
427.33	10377.94
427.52	10574.54
427.71	10490.28
427.90	10539.43
428.09	10083.03
428.28	10033.88
428.46	9816.21
428.65	9783.44
428.84	9914.51
429.03	10071.33
429.22	9525.98
429.40	8699.77
429.59	8114.64
429.78	7328.22
429.97	7447.58
430.16	7611.42
430.34	7286.09
430.53	7492.05
430.72	7740.15
430.91	8767.65
431.10	10333.47
431.28	12128.66
431.47	12798.05
431.66	12505.48
431.85	11243.93
432.03	10342.83
432.22	10532.41
432.41	11073.07
432.60	11871.20
432.79	12374.41
432.97	12404.84
433.16	12266.75
433.35	10909.24
433.54	9715.56
433.72	9535.34
433.91	10099.41
434.10	10949.03
434.28	11679.27
434.47	12360.37
434.66	11742.47
434.85	11864.18
435.03	11882.90
435.22	12077.16
435.41	12533.57
435.59	12856.56
435.78	12774.64
435.97	13146.79
436.16	13263.82
436.34	13006.36
436.53	13060.19
436.72	13289.56
436.90	12264.41
437.09	12067.80
437.28	12250.36
437.46	12439.95
437.65	12135.68
437.84	11147.97
438.02	10675.18
438.21	11068.39
438.40	11089.46
438.58	12409.52
438.77	12367.39
438.96	12650.60
439.14	13212.32
439.33	13364.46
439.52	13373.82
439.70	13146.79
439.89	12540.59
440.08	12585.06
440.26	12465.69
440.45	13301.26
440.63	13832.57
440.82	14349.82
441.01	14335.78
441.19	14270.25
441.38	14611.96
441.57	14640.05
441.75	14885.81
441.94	15323.49
442.12	15496.69
442.31	15335.19
442.50	15751.81
442.68	15147.95
442.87	14977.09
443.05	14839.00
443.24	15243.91
443.43	15466.26
443.61	15456.90
443.80	15431.15
443.98	14993.47
444.17	15185.40
444.35	15520.09
444.54	16067.78
444.73	15824.36
444.91	14970.07
445.10	14565.15
445.28	13965.98
445.47	13685.11
445.65	13717.88
445.84	14618.99
446.02	14902.19
446.21	15171.35
446.39	15314.13
446.58	15068.37
446.77	15667.55
446.95	15566.90
447.14	16425.88
447.32	16191.83
447.51	16081.82
447.69	15482.64
447.88	15492.01
448.06	16046.71
448.25	15906.28
448.43	15964.79
448.62	15807.98
448.80	15765.85
448.99	15454.56
449.17	15878.19
449.36	16058.42
449.54	16671.64
449.73	16943.14
449.91	16891.65
450.10	17479.12
450.28	17628.92
450.46	17359.75
450.65	17635.94
450.83	17305.92
451.02	17015.69
451.20	16807.39
451.39	17111.66
451.57	17036.76
451.76	16842.50
451.94	16519.50
452.13	16327.58
452.31	15279.02
452.49	14801.55
452.68	15110.50
452.86	14927.94
453.05	15337.53
453.23	16145.02
453.42	16727.81
453.60	16196.51
453.78	16697.38
453.97	16416.52
454.15	16374.39
454.34	15908.62
454.52	16011.60
454.70	15798.62
454.89	16077.14
455.07	16130.97
455.26	16414.18
455.44	17149.11
455.62	17399.54
455.81	17270.81
455.99	17123.36
456.17	17076.55
456.36	17404.22
456.54	18045.53
456.73	17334.01
456.91	17923.82
457.09	18026.81
457.28	18424.70
457.46	17572.74
457.64	17291.88
457.83	17191.23
458.01	16697.38
458.19	17219.32
458.38	17467.42
458.56	17965.95
458.74	17418.27
458.93	17242.73
459.11	17280.18
459.29	16910.37
459.48	17350.39
459.66	17001.65
459.84	17345.71
460.03	17572.74
460.21	17867.65
460.39	18333.42
460.57	18207.03
460.76	18160.22
460.94	18317.03
461.12	17844.24
461.31	17989.36
461.49	18008.08
461.67	18001.06
461.85	18635.35
462.04	18899.83
462.22	18618.96
462.40	18703.22
462.59	18853.02
462.77	18579.17
462.95	18471.51
463.13	17965.95
463.32	18181.28
463.50	18050.21
463.68	17987.02
463.86	18314.69
464.05	17851.27
464.23	17521.25
464.41	17528.27
464.59	17015.69
464.78	18157.88
464.96	18235.11
465.14	18047.87
465.32	18125.11
465.50	18658.75
465.69	19066.00
465.87	18537.04
466.05	17666.36
466.23	16994.63
466.41	16858.88
466.60	17633.60
466.78	17338.69
466.96	17902.76
467.14	17818.50
467.32	17888.71
467.51	18195.32
467.69	16978.25
467.87	17591.47
468.05	18211.71
468.23	17907.44
468.41	18136.81
468.60	18003.40
468.78	18537.04
468.96	18001.06
469.14	18136.81
469.32	18408.31
469.50	17404.22
469.69	17378.48
469.87	17074.21
470.05	17568.06
470.23	17518.91
470.41	17514.23
470.59	17591.47
470.77	17734.24
470.95	18232.77
471.14	18567.47
471.32	18370.86
471.50	19246.23
471.68	19314.10
471.86	19967.11
472.04	19747.10
472.22	19405.38
472.40	18633.00
472.58	18373.21
472.77	18422.36
472.95	18649.39
473.13	19480.28
473.31	18890.46
473.49	18885.78
473.67	19122.18
473.85	19330.48
474.03	20264.36
474.21	20144.99
474.39	20325.21
474.57	20292.44
474.75	20540.54
474.93	20051.37
475.12	19587.94
475.30	19704.97
475.48	19609.01
475.66	19475.60
475.84	20011.58
476.02	19253.25
476.20	19028.56
476.38	20180.10
476.56	20212.87
476.74	20737.15
476.92	20840.13
477.10	20538.20
477.28	21961.25
477.46	21462.71
477.64	21579.74
477.82	21724.85
478.00	22024.44
478.18	21392.50
478.36	21221.64
478.54	21951.88
478.72	21954.22
478.90	22986.40
479.08	23374.93
479.26	23201.73
479.44	23185.35
479.62	22869.37
479.80	22888.10
479.98	23419.40
480.16	23239.18
480.34	22665.75
480.52	23143.22
480.70	24032.62
480.88	23580.90
481.06	23981.13
481.24	23594.94
481.41	24470.30
481.59	25144.38
481.77	24795.64
481.95	24819.04
482.13	24725.42
482.31	25053.09
482.49	25696.74
482.67	25235.66
482.85	25256.72
483.03	26122.72
483.21	26073.57
483.39	25979.95
483.57	25095.22
483.74	24702.01
483.92	25172.46
484.10	25589.08
484.28	25820.79
484.46	26169.53
484.64	25771.64
484.82	25537.59
485.00	25427.58
485.18	24690.31
485.35	23513.02
485.53	21090.57
485.71	19693.27
485.89	20418.83
486.07	21249.72
486.25	23023.85
486.43	24613.07
486.61	24496.05
486.78	25303.53
486.96	25563.33
487.14	26733.60
487.32	26377.84
487.50	27264.90
487.68	27475.55
487.85	28676.24
488.03	28856.46
488.21	28339.21
488.39	26885.73
488.57	26728.92
488.75	26876.37
488.92	28622.41
489.10	29912.05
489.28	30569.74
489.46	31569.15
489.64	30890.39
489.81	31241.47
489.99	30806.13
490.17	31098.70
490.35	31274.24
490.53	30356.75
490.70	30157.80
490.88	29888.64
491.06	31227.43
491.24	31292.96
491.41	29486.07
491.59	28432.83
491.77	28168.35
491.95	29766.93
492.13	30328.66
492.30	31740.00
492.48	32842.40
492.66	32720.69
492.84	32304.07
493.01	32271.31
493.19	32048.96
493.37	32074.70
493.54	32133.21
493.72	33394.76
493.90	33237.95
494.08	33399.44
494.25	34932.50
494.43	34625.89
494.61	34611.84
494.79	34675.04
494.96	34672.70
495.14	33237.95
495.32	32844.74
495.49	33020.28
495.67	34099.26
495.85	36016.16
496.02	35669.76
496.20	35707.21
496.38	35030.80
496.55	35138.46
496.73	35615.93
496.91	35302.30
497.09	36472.57
497.26	36687.90
497.44	35779.77
497.62	34792.06
497.79	34506.52
497.97	33544.56
498.14	33951.81
498.32	35475.50
498.50	35978.72
498.67	35786.79
498.85	36730.03
499.03	36746.41
499.20	37074.09
499.38	36947.70
499.56	36900.89
499.73	35969.35
499.91	34773.34
500.08	34052.45
500.26	33385.40
500.44	34405.88
500.61	35381.88
500.79	35075.27
500.97	33600.73
501.14	33902.66
501.32	33883.94
501.49	34211.61
501.67	34817.81
501.84	34693.76
502.02	35466.14
502.20	35922.54
502.37	36266.60
502.55	35651.04
502.72	35899.14
502.90	37343.25
503.07	36023.19
503.25	35646.36
503.43	34359.06
503.60	34305.23
503.78	33432.21
503.95	34611.84
504.13	36568.53
504.30	37455.59
504.48	36556.83
504.65	35845.30
504.83	36367.24
505.01	36982.80
505.18	36837.69
505.36	37104.51
505.53	38199.88
505.71	38696.08
505.88	39276.53
506.06	38447.98
506.23	38101.58
506.41	37691.99
506.58	37661.56
506.76	36858.76
506.93	37219.20
507.11	36638.75
507.28	36938.33
507.46	36257.24
507.63	35875.73
507.81	34806.11
507.98	36032.55
508.16	37120.90
508.33	37909.66
508.50	38490.11
508.68	38485.43
508.85	39625.27
509.03	39065.88
509.20	38026.68
509.38	36182.34
509.55	36748.75
509.73	37422.83
509.90	37219.20
510.08	37024.93
510.25	37589.00
510.42	36655.13
510.60	37792.63
510.77	38415.21
510.95	39955.29
511.12	38962.90
511.30	40519.35
511.47	39416.96
511.64	39175.89
511.82	38415.21
511.99	37221.54
512.17	37350.27
512.34	37134.94
512.51	37642.84
512.69	36315.75
512.86	37069.40
513.04	38234.99
513.21	37961.15
513.38	36900.89
513.56	34799.08
513.73	35171.23
513.90	35936.59
514.08	35601.89
514.25	37118.56
514.43	37106.85
514.60	36488.95
514.77	36896.20
514.95	38040.73
515.12	37258.99
515.29	36914.93
515.47	37593.68
515.64	38478.41
515.81	38099.24
515.99	37008.55
516.16	34335.66
516.33	32154.28
516.51	31260.20
516.68	29701.40
516.85	29841.83
517.03	30881.03
517.20	34581.42
517.37	36830.67
517.54	36666.83
517.72	35470.82
517.89	32313.44
518.06	31583.19
518.24	32751.12
518.41	33933.09
518.58	35927.22
518.75	36243.20
518.93	35775.09
519.10	36046.59
519.27	36510.02
519.45	37413.46
519.62	37263.67
519.79	37830.08
519.96	38148.39
520.14	37113.87
520.31	35770.41
520.48	36037.23
520.65	36840.03
520.83	38382.45
521.00	38204.56
521.17	37383.04
521.34	37556.24
521.52	37745.82
521.69	37991.58
521.86	38171.80
522.03	37631.13
522.20	36603.64
522.38	35981.06
522.55	36687.90
522.72	36266.60
522.89	36325.11
523.07	36905.57
523.24	36919.61
523.41	38368.40
523.58	38852.89
523.75	38150.73
523.92	39545.69
524.10	39000.35
524.27	38873.96
524.44	39058.86
524.61	38670.33
524.78	37689.65
524.96	37216.86
525.13	37434.53
525.30	38213.93
525.47	38998.01
525.64	39428.66
525.81	37249.63
525.98	35271.87
526.16	34712.49
526.33	33064.75
526.50	32086.40
526.67	32163.64
526.84	33502.43
527.01	35112.72
527.18	36027.87
527.36	37368.99
527.53	37411.12
527.70	37614.75
527.87	36821.31
528.04	37668.58
528.21	37366.65
528.38	39016.73
528.55	40364.88
528.72	40727.66
528.89	40730.00
529.07	39908.47
529.24	37677.94
529.41	37125.58
529.58	37483.68
529.75	37724.75
529.92	39044.82
530.09	38995.67
530.26	39278.87
530.43	39864.00
530.60	39290.57
530.77	39423.98
530.94	39512.92
531.11	38227.97
531.28	38017.32
531.46	37893.27
531.63	37640.50
531.80	37694.33
531.97	36584.91
532.14	35229.74
532.31	34242.04
532.48	35206.34
532.65	35089.31
532.82	35627.63
532.99	37855.82
533.16	38447.98
533.33	37801.99
533.50	36273.62
533.67	37127.92
533.84	37254.31
534.01	37263.67
534.18	37074.09
534.35	38089.88
534.52	36678.54
534.69	38169.46
534.86	38258.40
535.03	37436.87
535.20	38827.15
535.37	39852.30
535.54	39697.83
535.71	39234.40
535.88	38139.03
536.05	37469.64
536.22	37226.22
536.38	36498.31
536.55	35372.52
536.72	35768.07
536.89	35861.69
537.06	36652.79
537.23	38927.79
537.40	38155.41
537.57	38127.33
537.74	37586.66
537.91	38092.22
538.08	37067.06
538.25	37102.17
538.42	37612.41
538.59	37198.13
538.75	36409.37
538.92	36467.89
539.09	36828.33
539.26	36790.88
539.43	36062.97
539.60	35906.16
539.77	37235.58
539.94	35583.16
540.11	34752.27
540.28	34387.15
540.44	34305.23
540.61	35339.75
540.78	36400.01
540.95	37490.70
541.12	36463.21
541.29	36804.92
541.46	36744.07
541.62	37263.67
541.79	37710.71
541.96	37123.24
542.13	35648.70
542.30	35409.96
542.47	36079.36
542.63	35861.69
542.80	35555.08
542.97	36603.64
543.14	35864.03
543.31	36339.16
543.48	36762.79
543.64	37195.79
543.81	37893.27
543.98	37727.10
544.15	36149.57
544.32	35765.73
544.48	36774.50
544.65	37085.79
544.82	37869.87
544.99	35931.90
545.16	35882.75
545.32	36334.48
545.49	37773.91
545.66	37001.53
545.83	36093.40
546.00	36247.88
546.16	36163.62
546.33	35992.76
546.50	35386.56
546.67	37123.24
546.83	35548.06
547.00	35922.54
547.17	35489.54
547.34	34600.14
547.50	35566.78
547.67	36385.97
547.84	35756.36
548.00	36671.51
548.17	36149.57
548.34	35470.82
548.51	36077.02
548.67	36519.38
548.84	36643.43
549.01	37305.80
549.18	36430.44
549.34	36479.59
549.51	35981.06
549.68	37331.54
549.84	35922.54
550.01	35590.19
550.18	36418.74
550.34	35269.53
550.51	35494.22
550.68	35709.55
550.84	35679.13
551.01	35288.26
551.18	35683.81
551.34	36402.35
551.51	34976.97
551.68	36510.02
551.84	36847.05
552.01	36517.04
552.18	35882.75
552.34	35716.58
552.51	35281.24
552.68	35613.59
552.84	36240.86
553.01	35388.90
553.18	35035.48
553.34	35297.62
553.51	36334.48
553.67	35648.70
553.84	35103.35
554.01	35353.79
554.17	35754.02
554.34	36222.13
554.51	35133.78
554.67	35314.00
554.84	36065.31
555.00	35599.55
555.17	35377.20
555.33	35344.43
555.50	35828.92
555.67	34913.77
555.83	34052.45
556.00	32896.23
556.16	34085.22
556.33	33432.21
556.50	34476.09
556.66	34426.94
556.83	34691.42
556.99	34089.90
557.16	33996.28
557.32	34560.35
557.49	35211.02
557.65	35009.73
557.82	35208.68
557.98	34157.78
558.15	34253.74
558.32	33619.46
558.48	32388.33
558.65	32273.65
558.81	31463.82
558.98	31945.97
559.14	33659.24
559.31	34448.00
559.47	32547.49
559.64	31915.54
559.80	31395.95
559.97	32451.53
560.13	33071.77
560.30	34190.55
560.46	34927.81
560.63	35704.87
560.79	35950.63
560.96	33776.27
561.12	32613.02
561.29	32130.87
561.45	31721.28
561.61	32346.20
561.78	32194.07
561.94	32882.19
562.11	33015.60
562.27	33617.11
562.44	33790.31
562.60	34508.86
562.77	34216.29
562.93	33809.04
563.10	32580.26
563.26	33450.94
563.42	32865.80
563.59	32240.88
563.75	31800.86
563.92	32645.79
564.08	33216.88
564.24	32561.53
564.41	32065.34
564.57	33621.80
564.74	32795.59
564.90	32126.19
565.07	31611.28
565.23	30862.30
565.39	31400.63
565.56	31480.21
565.72	30532.29
565.88	30651.66
566.05	30923.16
566.21	32353.23
566.38	30768.68
566.54	32060.66
566.70	31974.06
566.87	32772.18
567.03	32285.35
567.19	32177.68
567.36	32081.72
567.52	31665.11
567.68	32158.96
567.85	30881.03
568.01	29621.82
568.17	30515.90
568.34	31393.61
568.50	31405.31
568.66	32336.84
568.83	32156.62
568.99	31218.07
569.15	31983.42
569.32	32194.07
569.48	31323.39
569.64	30445.69
569.81	31103.38
569.97	30864.64
570.13	30946.56
570.30	30422.28
570.46	29912.05
570.62	29509.47
570.78	29317.55
570.95	30359.09
571.11	30799.11
571.27	31168.91
571.43	31138.49
571.60	30820.17
571.76	31115.08
571.92	30895.07
572.09	30497.18
572.25	31564.46
572.41	32725.37
572.57	32816.65
572.74	32542.81
572.90	31370.20
573.06	31367.86
573.22	30246.74
573.38	29813.74
573.55	30057.16
573.71	29652.25
573.87	29820.77
574.03	30745.28
574.20	30480.80
574.36	30782.73
574.52	31456.80
574.68	30113.33
574.84	29216.91
575.01	28870.51
575.17	29142.01
575.33	29553.94
575.49	29352.66
575.65	29893.32
575.82	29610.12
575.98	29226.27
576.14	29146.69
576.30	29013.28
576.46	29029.66
576.62	30073.54
576.79	30094.61
576.95	29846.51
577.11	28119.20
577.27	29631.18
577.43	29649.91
577.59	29443.94
577.75	29315.21
577.92	28568.58
578.08	27742.37
578.24	28835.40
578.40	28276.01
578.56	28512.41
578.72	29188.82
578.88	28699.65
579.04	29254.36
579.21	29090.52
579.37	29228.61
579.53	30005.67
579.69	30281.85
579.85	29530.54
580.01	28666.88
580.17	28634.11
580.33	28879.87
580.49	28959.45
580.65	28381.34
580.82	28491.34
580.98	28786.25
581.14	29607.78
581.30	28456.23
581.46	28692.63
581.62	28687.95
581.78	29160.73
581.94	29158.39
582.10	29516.50
582.26	29057.75
582.42	29593.73
582.58	29376.06
582.74	29546.92
582.90	29670.97
583.06	29703.74
583.22	28964.13
583.38	29390.11
583.54	28868.17
583.70	29289.46
583.86	28996.90
584.02	29186.48
584.18	29366.70
584.34	29333.93
584.50	29223.93
584.66	28671.56
584.82	28393.04
584.98	28446.87
585.14	27964.72
585.30	28063.02
585.46	27707.26
585.62	27281.28
585.78	27892.16
585.94	28091.11
586.10	27147.87
586.26	27400.65
586.42	28168.35
