SpectraSuite Data File
++++++++++++++++++++++++++++++++++++
Date: Mon Oct 07 14:53:48 GMT-05:00 2013
User: price-jones
Dark Spectrum Present: No
Reference Spectrum Present: No
Number of Sampled Component Spectra: 1
Spectrometers: USB2+H05261
Integration Time (usec): 100000 (USB2+H05261)
Spectra Averaged: 1 (USB2+H05261)
Boxcar Smoothing: 0 (USB2+H05261)
Correct for Electrical Dark: No (USB2+H05261)
Strobe/Lamp Enabled: No (USB2+H05261)
Correct for Detector Non-linearity: No (USB2+H05261)
Correct for Stray Light: No (USB2+H05261)
Number of Pixels in Processed Spectrum: 2048
>>>>>Begin Processed Spectral Data<<<<<
365.73	0.00
365.92	0.00
366.12	0.00
366.32	0.00
366.52	0.00
366.72	0.00
366.91	0.00
367.11	0.00
367.31	0.00
367.51	0.00
367.70	0.00
367.90	0.00
368.10	0.00
368.30	0.00
368.49	0.00
368.69	0.00
368.89	0.00
369.09	0.00
369.28	0.00
369.48	0.00
369.68	0.00
369.87	0.00
370.07	0.00
370.27	0.00
370.47	505.56
370.66	2897.58
370.86	3471.01
371.06	3674.64
371.25	3817.41
371.45	3363.35
371.65	2909.29
371.84	2796.94
372.04	2946.73
372.24	3309.52
372.44	3440.59
372.63	3386.76
372.83	3279.09
373.03	2801.62
373.22	2712.68
373.42	2806.30
373.62	3166.74
373.81	3449.95
374.01	3510.80
374.21	3208.87
374.40	2803.96
374.60	3005.25
374.79	3286.11
374.99	3964.87
375.19	4264.46
375.38	4355.74
375.58	3964.87
375.78	3962.53
375.97	3969.55
376.17	4215.30
376.37	4280.84
376.56	4360.42
376.76	4634.26
376.95	4802.78
377.15	5217.05
377.35	5497.92
377.54	5682.82
377.74	5624.31
377.93	5650.05
378.13	5481.53
378.33	5184.29
378.52	4926.83
378.72	4599.15
378.91	4727.88
379.11	4526.60
379.31	4292.54
379.50	4353.40
379.70	4727.88
379.89	5100.03
380.09	5502.60
380.28	5631.33
380.48	5570.48
380.68	5554.09
380.87	5317.70
381.07	5139.82
381.26	4561.70
381.46	4168.49
381.65	4306.59
381.85	4163.81
382.04	3878.27
382.24	3623.15
382.43	3541.23
382.63	3452.29
382.83	3351.65
383.02	3358.67
383.22	3487.40
383.41	3225.26
383.61	3585.70
383.80	4140.41
384.00	4685.75
384.19	5249.82
384.39	5476.85
384.58	5584.52
384.78	5607.92
384.97	5411.32
385.17	5158.54
385.36	4854.27
385.56	4615.54
385.75	4809.80
385.95	5289.61
386.14	5856.02
386.34	5778.78
386.53	5699.20
386.72	5266.21
386.92	5188.97
387.11	5371.53
387.31	5760.06
387.50	5741.33
387.70	5605.58
387.89	5352.81
388.09	5254.50
388.28	5556.43
388.48	5633.67
388.67	5949.64
388.86	6562.86
389.06	7056.72
389.25	7234.60
389.45	7400.77
389.64	7339.92
389.84	7339.92
390.03	7183.10
390.22	7152.68
390.42	7473.33
390.61	7960.16
390.81	8512.53
391.00	8573.38
391.19	8613.17
391.39	8334.65
391.58	7880.58
391.78	7358.64
391.97	7117.57
392.16	6663.51
392.36	6059.65
392.55	4983.00
392.75	3913.38
392.94	3162.06
393.13	3173.77
393.33	3658.26
393.52	4774.69
393.71	5916.87
393.91	6572.22
394.10	6974.80
394.29	7854.84
394.49	8414.23
394.68	9118.73
394.88	8887.01
395.07	9383.21
395.26	9345.76
395.46	9219.37
395.65	8456.36
395.84	7599.72
396.04	6434.13
396.23	5217.05
396.42	4383.82
396.62	4175.52
396.81	4643.62
397.00	6127.52
397.19	7686.32
397.39	9046.17
397.58	10368.57
397.77	10967.75
397.97	11318.83
398.16	11391.39
398.35	11882.90
398.55	12329.94
398.74	12493.78
398.93	12901.03
399.12	12760.60
399.32	12039.72
399.51	12683.36
399.70	13245.09
399.90	13284.88
400.09	13287.22
400.28	13235.73
400.47	13128.06
400.67	14120.45
400.86	14104.07
401.05	14090.02
401.24	14277.27
401.44	14682.18
401.63	14801.55
401.82	14527.71
402.01	14834.32
402.21	14778.14
402.40	14768.78
402.59	14277.27
402.78	13809.16
402.97	13399.57
403.17	13862.99
403.36	14633.03
403.55	15276.68
403.74	15714.36
403.93	14817.93
404.13	13848.95
404.32	13212.32
404.51	14132.15
404.70	15241.57
404.89	15386.68
405.09	14675.16
405.28	14335.78
405.47	14600.26
405.66	14698.56
405.85	14064.28
406.05	13586.81
406.24	13757.67
406.43	14464.51
406.62	15070.71
406.81	15026.24
407.00	14445.79
407.20	14216.41
407.39	14274.93
407.58	15103.48
407.77	15620.74
407.96	16112.25
408.15	16365.03
408.34	16091.18
408.54	17249.75
408.73	17399.54
408.92	16901.01
409.11	16325.24
409.30	15370.30
409.49	14775.80
409.68	14047.90
409.87	13298.92
410.07	14132.15
410.26	15468.60
410.45	16468.01
410.64	16849.52
410.83	17149.11
411.02	17900.42
411.21	18197.67
411.40	17942.55
411.59	18043.19
411.78	17827.86
411.98	17839.56
412.17	18162.56
412.36	17743.60
412.55	17827.86
412.74	17490.82
412.93	17069.53
413.12	17158.47
413.31	18759.39
413.50	19019.19
413.69	19257.93
413.88	18497.25
414.07	17785.73
414.26	18211.71
414.45	18892.80
414.64	19073.03
414.83	19232.18
415.02	18506.62
415.22	18565.13
415.41	19328.14
415.60	19541.13
415.79	20669.27
415.98	20821.41
416.17	21446.33
416.36	20400.11
416.55	20163.72
416.74	19353.89
416.93	18757.05
417.12	18698.54
417.31	19178.35
417.50	19372.61
417.69	20140.31
417.88	20053.71
418.07	19447.51
418.26	19288.35
418.45	19936.68
418.64	20613.10
418.83	20912.69
419.02	21092.91
419.21	20669.27
419.39	19611.35
419.58	18892.80
419.77	18888.12
419.96	19669.86
420.15	20449.26
420.34	21245.04
420.53	21764.64
420.72	22312.33
420.91	22300.62
421.10	21837.20
421.29	21947.20
421.48	20716.08
421.67	21942.52
421.86	21500.16
422.05	20222.23
422.24	18047.87
422.43	17652.32
422.61	19393.68
422.80	21425.26
422.99	21348.03
423.18	20762.89
423.37	20053.71
423.56	20077.12
423.75	20563.95
423.94	20762.89
424.13	19880.51
424.32	19896.89
424.50	20058.39
424.69	19857.10
424.88	19557.52
425.07	19751.78
425.26	19695.61
425.45	19700.29
425.64	19192.39
425.83	19220.48
426.01	20346.28
426.20	20915.03
426.39	20922.05
426.58	19403.04
426.77	18059.57
426.96	17348.05
427.15	17537.63
427.33	19180.69
427.52	20086.48
427.71	20208.19
427.90	19716.67
428.09	19964.77
428.28	19276.65
428.46	18693.86
428.65	18464.49
428.84	18878.76
429.03	19236.86
429.22	18319.37
429.40	17390.18
429.59	15782.23
429.78	14005.77
429.97	13895.76
430.16	13785.76
430.34	14204.71
430.53	13907.46
430.72	14530.05
430.91	15807.98
431.10	18530.02
431.28	21977.63
431.47	24034.96
431.66	24100.50
431.85	22094.66
432.03	19906.26
432.22	18995.79
432.41	20063.07
432.60	22108.70
432.79	23166.62
432.97	23683.88
433.16	22902.14
433.35	21001.63
433.54	19037.92
433.72	17785.73
433.91	18221.07
434.10	20655.23
434.28	22001.04
434.47	23096.41
434.66	22855.33
434.85	22218.71
435.03	21951.88
435.22	23026.19
435.41	24362.64
435.59	24142.63
435.78	24659.88
435.97	25029.69
436.16	25350.34
436.34	24971.18
436.53	24460.94
436.72	24191.78
436.90	23005.13
437.09	22958.31
437.28	22801.50
437.46	23527.06
437.65	23527.06
437.84	21750.60
438.02	19852.42
438.21	19807.95
438.40	20973.54
438.58	22567.45
438.77	23098.75
438.96	23564.51
439.14	24458.60
439.33	25104.59
439.52	25717.81
439.70	25366.73
439.89	24641.16
440.08	23370.25
440.26	23697.92
440.45	24355.61
440.63	26204.64
440.82	27402.99
441.01	26962.97
441.19	26604.87
441.38	27225.11
441.57	28194.09
441.75	28517.09
441.94	28711.35
442.12	28559.22
442.31	28882.21
442.50	28772.21
442.68	28758.16
442.87	28421.13
443.05	27775.14
443.24	28283.03
443.43	28900.94
443.61	29563.31
443.80	29846.51
443.98	28327.50
444.17	27852.38
444.35	29825.45
444.54	30426.96
444.73	30120.35
444.91	28624.75
445.10	27786.84
445.28	26609.55
445.47	25916.75
445.65	26008.03
445.84	26691.47
446.02	27819.61
446.21	28329.84
446.39	28493.68
446.58	28573.26
446.77	29106.90
446.95	29413.51
447.14	29916.73
447.32	30806.13
447.51	30129.72
447.69	28783.91
447.88	28449.21
448.06	28842.42
448.25	29514.16
448.43	29205.20
448.62	29120.95
448.80	28975.83
448.99	29109.24
449.17	29715.44
449.36	29497.77
449.54	30492.50
449.73	31468.50
449.91	31318.71
450.10	32362.59
450.28	32879.85
450.46	32376.63
450.65	32657.49
450.83	32376.63
451.02	31777.45
451.20	31604.25
451.39	31466.16
451.57	30850.60
451.76	31220.41
451.94	31037.84
452.13	30359.09
452.31	29303.51
452.49	27646.41
452.68	28140.26
452.86	28102.81
453.05	28596.67
453.23	29301.17
453.42	30288.87
453.60	30663.36
453.78	31016.78
453.97	30806.13
454.15	31044.87
454.34	30352.07
454.52	30251.42
454.70	30015.03
454.89	29834.81
455.07	30183.55
455.26	30389.52
455.44	31852.35
455.62	32456.21
455.81	32479.61
455.99	32285.35
456.17	31732.98
456.36	31847.67
456.54	32889.21
456.73	32526.42
456.91	33095.18
457.09	33453.28
457.28	33907.34
457.46	32905.59
457.64	32718.35
457.83	31555.10
458.01	30810.81
458.19	31519.99
458.38	31950.65
458.56	32624.73
458.74	32767.50
458.93	32100.45
459.11	32137.90
459.29	31901.50
459.48	31826.60
459.66	31732.98
459.84	32856.44
460.03	32481.95
460.21	32856.44
460.39	33209.86
460.57	33483.70
460.76	33462.64
460.94	33762.23
461.12	33544.56
461.31	33715.42
461.49	33247.31
461.67	33198.16
461.85	34305.23
462.04	34132.03
462.22	34422.26
462.40	34550.99
462.59	34314.59
462.77	34445.66
462.95	34085.22
463.13	34136.71
463.32	33600.73
463.50	33441.57
463.68	33322.21
463.86	33226.24
464.05	32882.19
464.23	32304.07
464.41	32048.96
464.59	31508.29
464.78	33464.98
464.96	33383.06
465.14	32950.06
465.32	33228.59
465.50	34433.96
465.69	34927.81
465.87	34155.44
466.05	33450.94
466.23	31620.64
466.41	30808.47
466.60	31824.26
466.78	31625.32
466.96	32430.46
467.14	32727.71
467.32	33780.95
467.51	33523.49
467.69	32053.64
467.87	32582.60
468.05	33191.14
468.23	33153.69
468.41	33226.24
468.60	33244.97
468.78	33432.21
468.96	32936.02
469.14	33663.93
469.32	34066.50
469.50	32598.98
469.69	32744.09
469.87	32327.48
470.05	31681.49
470.23	32425.78
470.41	32425.78
470.59	32842.40
470.77	32877.51
470.95	33259.01
471.14	33635.84
471.32	33984.58
471.50	35693.17
471.68	36041.91
471.86	36374.27
472.04	36048.93
472.22	36673.85
472.40	34651.63
472.58	34506.52
472.77	33951.81
472.95	34607.16
473.13	35868.71
473.31	34639.93
473.49	34782.70
473.67	35821.90
473.85	35929.56
474.03	36545.12
474.21	36945.36
474.39	37408.78
474.57	37380.70
474.75	37244.94
474.93	36896.20
475.12	36395.33
475.30	35768.07
475.48	36613.00
475.66	36938.33
475.84	36172.98
476.02	36528.74
476.20	35981.06
476.38	36645.77
476.56	37544.53
476.74	37972.85
476.92	38216.27
477.10	39070.56
477.28	39557.39
477.46	39929.54
477.64	40301.68
477.82	39981.03
478.00	40421.05
478.18	39723.57
478.36	39651.02
478.54	39693.15
478.72	39908.47
478.90	40882.14
479.08	41748.14
479.26	42574.34
479.44	42218.58
479.62	42279.44
479.80	41790.27
479.98	42188.16
480.16	42447.96
480.34	41722.39
480.52	42309.86
480.70	42284.12
480.88	42965.21
481.06	43402.89
481.24	43636.95
481.41	44521.67
481.59	45666.19
481.77	45280.00
481.95	44186.97
482.13	44186.97
482.31	44535.71
482.49	45015.52
482.67	44619.97
482.85	45244.90
483.03	45511.72
483.21	46270.05
483.39	46108.55
483.57	45317.45
483.74	44715.93
483.92	45003.82
484.10	45354.90
484.28	46501.76
484.46	46724.11
484.64	47161.79
484.82	46167.07
485.00	46045.36
485.18	45179.36
485.35	43501.20
485.53	40760.43
485.71	37284.73
485.89	36650.45
486.07	38171.80
486.25	41893.25
486.43	43856.96
486.61	44718.28
486.78	44133.14
486.96	44739.34
487.14	46581.34
487.32	47463.72
487.50	48460.79
487.68	49446.16
487.85	49940.01
488.03	49804.26
488.21	49741.06
488.39	48601.22
488.57	48184.61
488.75	47391.17
488.92	49057.63
489.10	51028.36
489.28	52322.68
489.46	53008.45
489.64	52713.55
489.81	53263.57
489.99	52633.97
490.17	52545.03
490.35	53338.47
490.53	52959.30
490.70	52385.87
490.88	52072.24
491.06	53165.27
491.24	52961.64
491.41	52563.75
491.59	50265.34
491.77	49759.79
491.95	50436.20
492.13	52179.90
492.30	53235.48
492.48	54138.93
492.66	54679.60
492.84	54447.88
493.01	54607.04
493.19	53825.30
493.37	53305.70
493.54	53361.87
493.72	53858.07
493.90	54939.39
494.08	55491.76
494.25	55952.85
494.43	55838.16
494.61	56402.23
494.79	56324.99
494.96	56205.62
495.14	55770.28
495.32	54588.31
495.49	54230.21
495.67	55018.97
495.85	56212.65
496.02	56793.10
496.20	56788.42
496.38	56149.45
496.55	56144.77
496.73	56519.26
496.91	56853.95
497.09	57563.14
497.26	57476.54
497.44	56980.34
497.62	56561.39
497.79	55583.04
497.97	54319.15
498.14	54436.18
498.32	55760.92
498.50	56615.22
498.67	57343.12
498.85	57027.15
499.03	57219.08
499.20	57364.19
499.38	57286.95
499.56	57418.02
499.73	56818.84
499.91	56479.47
500.08	55929.44
500.26	55203.88
500.44	55742.20
500.61	56640.96
500.79	56519.26
500.97	55716.45
501.14	55814.76
501.32	55576.02
501.49	55578.36
501.67	55686.03
501.84	56261.80
502.02	56605.86
502.20	56996.73
502.37	57029.49
502.55	56999.07
502.72	57670.80
502.90	58220.83
503.07	57694.21
503.25	57411.00
503.43	56500.53
503.60	55936.46
503.78	55042.38
503.95	55686.03
504.13	57202.69
504.30	57956.35
504.48	57565.48
504.65	57506.96
504.83	57378.23
505.01	57963.37
505.18	58042.95
505.36	58967.46
505.53	59044.69
505.71	58974.48
505.88	59061.08
506.06	58618.72
506.23	58218.49
506.41	57853.36
506.58	58047.63
506.76	58054.65
506.93	58138.91
507.11	57652.08
507.28	57991.45
507.46	57574.84
507.63	56868.00
507.81	56619.90
507.98	56865.66
508.16	57441.43
508.33	58241.89
508.50	58438.50
508.68	58871.49
508.85	59325.56
509.03	59337.26
509.20	59079.80
509.38	58527.44
509.55	57586.54
509.73	57542.07
509.90	58300.40
510.08	58749.79
510.25	58733.40
510.42	58312.11
510.60	58110.82
510.77	58616.38
510.95	59025.97
511.12	59054.06
511.30	59451.95
511.47	59714.09
511.64	59552.59
511.82	59435.56
511.99	58431.47
512.17	58099.12
512.34	57778.46
512.51	58199.76
512.69	58047.63
512.86	58197.42
513.04	58562.54
513.21	58623.40
513.38	58443.18
513.56	57621.65
513.73	57066.94
513.90	57354.83
514.08	57214.40
514.25	57757.40
514.43	58035.92
514.60	57998.48
514.77	58061.67
514.95	58286.36
515.12	57996.13
515.29	58447.86
515.47	58728.72
515.64	59164.06
515.81	58787.24
515.99	58066.35
516.16	56919.49
516.33	54548.53
516.51	53050.58
516.68	52182.24
516.85	51782.01
517.03	52378.85
517.20	54911.31
517.37	57277.59
517.54	58295.72
517.72	58066.35
517.89	55482.40
518.06	53059.94
518.24	53350.17
518.41	55372.39
518.58	56994.39
518.75	57223.76
518.93	57043.54
519.10	57148.86
519.27	57616.97
519.45	57897.83
519.62	58637.44
519.79	58897.24
519.96	58529.78
520.14	58047.63
520.31	57401.64
520.48	57073.96
520.65	57663.78
520.83	58450.20
521.00	59007.25
521.17	58536.80
521.34	58260.62
521.52	58557.86
521.69	59021.29
521.86	59543.23
522.03	59133.63
522.20	57949.32
522.38	57022.47
522.55	56900.76
522.72	57406.32
522.89	58061.67
523.07	58064.01
523.24	58410.41
523.41	59016.61
523.58	59229.60
523.75	59814.73
523.92	59749.20
524.10	59615.79
524.27	59702.38
524.44	59358.33
524.61	59187.47
524.78	59103.21
524.96	58918.31
525.13	58969.80
525.30	59365.35
525.47	59971.55
525.64	59512.80
525.81	58930.01
525.98	57499.94
526.16	56257.12
526.33	55426.23
526.50	55262.39
526.67	54768.54
526.84	55484.74
527.01	56460.74
527.18	56999.07
527.36	57780.81
527.53	58878.52
527.70	59213.21
527.87	58712.34
528.04	58199.76
528.21	58583.61
528.38	59175.76
528.55	59964.52
528.72	59896.65
528.89	60299.22
529.07	59901.33
529.24	59414.50
529.41	58595.31
529.58	58213.80
529.75	58365.94
529.92	58539.14
530.09	59150.02
530.26	59540.89
530.43	59772.60
530.60	59765.58
530.77	59884.95
530.94	60273.48
531.11	59709.41
531.28	59386.41
531.46	59231.94
531.63	59370.03
531.80	59185.13
531.97	58904.26
532.14	58101.46
532.31	57102.05
532.48	56257.12
532.65	56537.98
532.82	57361.85
532.99	58461.90
533.16	58864.47
533.33	59372.37
533.50	58908.94
533.67	58548.50
533.84	58064.01
534.01	58262.96
534.18	58382.32
534.35	58717.02
534.52	58536.80
534.69	58784.90
534.86	59089.16
535.03	59302.15
535.20	59686.00
535.37	60037.08
535.54	60083.89
535.71	59760.90
535.88	59470.67
536.05	58810.64
536.22	58480.63
536.38	58078.05
536.55	57867.40
536.72	57270.57
536.89	57038.86
537.06	58169.33
537.23	58520.41
537.40	58871.49
537.57	58904.26
537.74	58759.15
537.91	58742.77
538.08	58724.04
538.25	58721.70
538.42	58937.03
538.59	58824.68
538.75	57879.11
538.92	57879.11
539.09	57733.99
539.26	57581.86
539.43	57516.32
539.60	57422.70
539.77	57804.21
539.94	57799.53
540.11	56704.16
540.28	56385.85
540.44	56268.82
540.61	56479.47
540.78	56860.97
540.95	57272.91
541.12	57694.21
541.29	57963.37
541.46	58073.37
541.62	58368.28
541.79	58106.14
541.96	57291.63
542.13	57352.49
542.30	57862.72
542.47	57944.64
542.63	57797.19
542.80	57490.58
542.97	57586.54
543.14	57457.81
543.31	57474.20
543.48	58087.42
543.64	58698.30
543.81	59124.27
543.98	58768.51
544.15	58223.17
544.32	57525.69
544.48	57757.40
544.65	58099.12
544.82	58555.52
544.99	58061.67
545.16	57719.95
545.32	57460.15
545.49	58452.54
545.66	58843.41
545.83	58328.49
546.00	58017.20
546.16	57717.61
546.33	57778.46
546.50	57900.17
546.67	58026.56
546.83	57741.02
547.00	57780.81
547.17	57223.76
547.34	56736.93
547.50	56376.48
547.67	56966.30
547.84	57027.15
548.00	57485.90
548.17	57902.51
548.34	57659.10
548.51	57661.44
548.67	57844.00
548.84	57935.28
549.01	57748.04
549.18	57682.50
549.34	57698.89
549.51	57670.80
549.68	57499.94
549.84	57205.03
550.01	57364.19
550.18	57106.73
550.34	57263.55
550.51	57677.82
550.68	57322.06
550.84	57118.43
551.01	56832.89
551.18	56910.13
551.34	57261.21
551.51	57521.01
551.68	57726.97
551.84	57790.17
552.01	57633.35
552.18	57418.02
552.34	56846.93
552.51	56303.93
552.68	56196.26
552.84	56814.16
553.01	56900.76
553.18	56779.06
553.34	57006.09
553.51	57144.18
553.67	57394.62
553.84	57399.30
554.01	57532.71
554.17	57102.05
554.34	57202.69
554.51	57214.40
554.67	57506.96
554.84	57539.73
555.00	57153.54
555.17	57076.30
555.33	57111.41
555.50	56842.25
555.67	56952.26
555.83	56856.29
556.00	56608.20
556.16	56404.57
556.33	55957.53
556.50	55714.11
556.66	55952.85
556.83	55695.39
556.99	55917.74
557.16	56055.83
557.32	56245.41
557.49	56530.96
557.65	56280.52
557.82	56549.68
557.98	56100.30
558.15	55735.18
558.32	54791.94
558.48	54145.95
558.65	54541.50
558.81	54562.57
558.98	55171.11
559.14	55189.83
559.31	55290.48
559.47	55325.58
559.64	54824.71
559.80	54635.13
559.97	54525.12
560.13	55203.88
560.30	56009.02
560.46	56371.80
560.63	56360.10
560.79	56987.36
560.96	56329.67
561.12	55150.04
561.29	54328.52
561.45	54447.88
561.61	54890.24
561.78	55075.15
561.94	55091.53
562.11	55257.71
562.27	54972.16
562.44	55377.08
562.60	55557.30
562.77	55842.84
562.93	55756.24
563.10	55667.30
563.26	55187.49
563.42	54967.48
563.59	54667.89
563.75	55089.19
563.92	54939.39
564.08	54628.10
564.24	54934.71
564.41	55002.59
564.57	54897.27
564.74	54997.91
564.90	54923.01
565.07	54372.99
565.23	54351.92
565.39	53893.18
565.56	53158.25
565.72	53411.02
565.88	53743.38
566.05	53743.38
566.21	53616.99
566.38	53928.28
566.54	54185.74
566.70	54541.50
566.87	54974.50
567.03	55208.56
567.19	55025.99
567.36	54911.31
567.52	54651.51
567.68	54583.63
567.85	53647.42
568.01	53455.50
568.17	53146.54
568.34	53027.18
568.50	52954.62
568.66	53263.57
568.83	53345.49
568.99	53389.96
569.15	53659.12
569.32	53698.91
569.48	53469.54
569.64	53132.50
569.81	53127.82
569.97	53162.93
570.13	52587.16
570.30	52491.19
570.46	51683.71
570.62	51433.27
570.78	51072.83
570.95	51550.30
571.11	52252.46
571.27	52542.69
571.43	52608.22
571.60	52971.00
571.76	53132.50
571.92	53553.80
572.09	53645.08
572.25	53558.48
572.41	53661.46
572.57	53242.51
572.74	53301.02
572.90	52898.45
573.06	52851.64
573.22	53172.29
573.38	53188.67
573.55	52898.45
573.71	53277.61
573.87	52931.22
574.03	52973.34
574.20	52750.99
574.36	52271.18
574.52	52072.24
574.68	51742.22
574.84	51817.12
575.01	51306.88
575.17	50887.93
575.33	51482.42
575.49	51828.82
575.65	51931.81
575.82	51728.18
575.98	51721.16
576.14	51995.00
576.30	52156.50
576.46	51992.66
576.62	52081.60
576.79	52032.45
576.95	51562.00
577.11	51253.05
577.27	51559.66
577.43	51484.76
577.59	51395.82
577.75	50965.17
577.92	50272.37
578.08	50244.28
578.24	50045.33
578.40	50609.40
578.56	50756.86
578.72	50756.86
578.88	50979.21
579.04	51096.24
579.21	51208.58
579.37	51407.53
579.53	51459.02
579.69	51246.03
579.85	51625.20
580.01	51395.82
580.17	50962.82
580.33	50801.33
580.49	51084.53
580.65	51147.73
580.82	51648.60
580.98	51054.11
581.14	51196.88
581.30	51414.55
581.46	50738.13
581.62	51274.12
581.78	51241.35
581.94	51538.60
582.10	51337.31
582.26	51650.94
582.42	51377.10
582.58	51246.03
582.74	51398.16
582.90	51260.07
583.06	51416.89
583.22	51466.04
583.38	51154.75
583.54	50946.44
583.70	50937.08
583.86	50990.91
584.02	50997.93
584.18	50913.67
584.34	50887.93
584.50	50691.32
584.66	50688.98
584.82	50099.17
584.98	50241.94
585.14	49549.14
585.30	49085.72
