SpectraSuite Data File
++++++++++++++++++++++++++++++++++++
Date: Mon Oct 07 14:53:09 GMT-05:00 2013
User: price-jones
Dark Spectrum Present: No
Reference Spectrum Present: No
Number of Sampled Component Spectra: 1
Spectrometers: USB2+H05261
Integration Time (usec): 100000 (USB2+H05261)
Spectra Averaged: 1 (USB2+H05261)
Boxcar Smoothing: 0 (USB2+H05261)
Correct for Electrical Dark: No (USB2+H05261)
Strobe/Lamp Enabled: No (USB2+H05261)
Correct for Detector Non-linearity: No (USB2+H05261)
Correct for Stray Light: No (USB2+H05261)
Number of Pixels in Processed Spectrum: 2048
>>>>>Begin Processed Spectral Data<<<<<
365.73	0.00
365.92	0.00
366.12	0.00
366.32	0.00
366.52	0.00
366.72	0.00
366.91	0.00
367.11	0.00
367.31	0.00
367.51	0.00
367.70	0.00
367.90	0.00
368.10	0.00
368.30	0.00
368.49	0.00
368.69	0.00
368.89	0.00
369.09	0.00
369.28	0.00
369.48	0.00
369.68	0.00
369.87	0.00
370.07	0.00
370.27	0.00
370.47	816.85
370.66	3906.35
370.86	4393.19
371.06	5011.09
371.25	4847.25
371.45	4444.68
371.65	3971.89
371.84	3728.47
372.04	3992.95
372.24	4458.72
372.44	4561.70
372.63	4582.77
372.83	4208.28
373.03	3719.11
373.22	3435.91
373.42	3611.45
373.62	4196.58
373.81	4418.93
374.01	4344.03
374.21	4072.53
374.40	3733.15
374.60	3974.23
374.79	4428.29
374.99	5114.07
375.19	5495.58
375.38	5589.20
375.58	5282.59
375.78	5102.37
375.97	5132.79
376.17	5364.51
376.37	5327.06
376.56	5572.82
376.76	5776.44
376.95	6090.07
377.15	6553.50
377.35	6993.52
377.54	7140.97
377.74	7358.64
377.93	7281.41
378.13	7232.26
378.33	6836.70
378.52	6190.72
378.72	6129.86
378.91	5942.62
379.11	5760.06
379.31	5495.58
379.50	5345.78
379.70	6047.94
379.89	6600.31
380.09	6984.16
380.28	7112.89
380.48	7239.28
380.68	6850.75
380.87	6799.26
381.07	6307.74
381.26	5806.87
381.46	5507.28
381.65	5336.42
381.85	5167.90
382.04	5013.43
382.24	4681.07
382.43	4362.76
382.63	4329.99
382.83	4255.09
383.02	4409.57
383.22	4416.59
383.41	4435.32
383.61	4723.20
383.80	5427.70
384.00	6150.93
384.19	6920.96
384.39	7103.53
384.58	7056.72
384.78	6974.80
384.97	7164.38
385.17	6436.47
385.36	5982.41
385.56	5893.47
385.75	6146.25
385.95	6799.26
386.14	7337.58
386.34	7243.96
386.53	6925.65
386.72	6665.85
386.92	6593.29
387.11	6918.62
387.31	7307.15
387.50	7103.53
387.70	6860.11
387.89	6867.13
388.09	6927.99
388.28	7042.67
388.48	7148.00
388.67	7627.81
388.86	8351.03
389.06	8875.31
389.25	9275.54
389.45	9301.29
389.64	9507.26
389.84	9270.86
390.03	9151.49
390.22	9064.89
390.42	9565.77
390.61	10263.25
390.81	10651.78
391.00	10972.43
391.19	10909.24
391.39	10473.90
391.58	9572.79
391.78	9364.48
391.97	8711.47
392.16	8444.65
392.36	7262.68
392.55	6141.57
392.75	4873.00
392.94	4023.38
393.13	4100.62
393.33	4669.37
393.52	6001.13
393.71	7335.24
393.91	8287.84
394.10	8809.78
394.29	9956.64
394.49	10764.12
394.68	11267.34
394.88	11482.67
395.07	12060.78
395.26	11555.22
395.46	11222.87
395.65	10602.63
395.84	9298.95
396.04	7803.35
396.23	6410.73
396.42	5195.99
396.62	5090.67
396.81	6218.80
397.00	7929.74
397.19	9619.60
397.39	11566.93
397.58	12868.27
397.77	13699.16
397.97	14267.91
398.16	14663.46
398.35	15056.67
398.55	15555.20
398.74	16210.55
398.93	16362.69
399.12	16042.03
399.32	15482.64
399.51	15683.93
399.70	16783.98
399.90	16713.77
400.09	16596.74
400.28	16652.91
400.47	16886.97
400.67	17514.23
400.86	18026.81
401.05	17965.95
401.24	18036.17
401.44	18628.32
401.63	18471.51
401.82	18457.46
402.01	18345.12
402.21	18363.84
402.40	18738.33
402.59	18195.32
402.78	17411.25
402.97	16802.71
403.17	17659.34
403.36	18712.58
403.55	19304.74
403.74	19726.04
403.93	18757.05
404.13	17322.30
404.32	16812.07
404.51	17818.50
404.70	18822.59
404.89	19112.81
405.09	18937.27
405.28	18230.43
405.47	18073.62
405.66	18155.54
405.85	17830.20
406.05	17266.13
406.24	17460.40
406.43	18104.04
406.62	18822.59
406.81	19332.82
407.00	18064.25
407.20	17888.71
407.39	18075.96
407.58	18810.89
407.77	19660.50
407.96	20187.12
408.15	20615.44
408.34	20472.67
408.54	21539.95
408.73	21722.51
408.92	20975.88
409.11	20879.92
409.30	19775.19
409.49	18333.42
409.68	17287.20
409.87	16783.98
410.07	18125.11
410.26	19468.58
410.45	20573.31
410.64	21029.71
410.83	21525.91
411.02	22225.73
411.21	22597.87
411.40	22815.54
411.59	22658.73
411.78	22410.63
411.98	22588.51
412.17	23028.53
412.36	22017.42
412.55	22396.59
412.74	21799.75
412.93	21507.18
413.12	22024.44
413.31	23632.39
413.50	23939.00
413.69	24287.74
413.88	23154.92
414.07	22867.03
414.26	23140.88
414.45	23428.76
414.64	23917.93
414.83	23791.55
415.02	23494.30
415.22	23271.95
415.41	24215.18
415.60	24856.49
415.79	25678.02
415.98	25989.31
416.17	26230.38
416.36	25596.10
416.55	25308.21
416.74	24720.74
416.93	23620.69
417.12	23899.21
417.31	23967.09
417.50	24334.55
417.69	24884.58
417.88	25378.43
418.07	24812.02
418.26	24648.18
418.45	24751.17
418.64	25458.01
418.83	26618.91
419.02	26195.28
419.21	25844.20
419.39	25022.67
419.58	23541.11
419.77	23782.18
419.96	24748.82
420.15	26221.02
420.34	27129.15
420.53	27754.07
420.72	28208.14
420.91	28016.21
421.10	27578.53
421.29	27356.18
421.48	26349.75
421.67	27852.38
421.86	27344.48
422.05	25095.22
422.24	22520.63
422.43	22565.10
422.61	25453.33
422.80	26941.91
422.99	26960.63
423.18	26064.21
423.37	25455.67
423.56	25685.04
423.75	25816.11
423.94	26639.98
424.13	25135.01
424.32	25455.67
424.50	25481.41
424.69	25186.50
424.88	25256.72
425.07	25153.74
425.26	25151.40
425.45	24568.60
425.64	24166.03
425.83	24287.74
426.01	25717.81
426.20	26480.82
426.39	26120.38
426.58	24107.52
426.77	22260.84
426.96	21626.55
427.15	22558.08
427.33	24526.47
427.52	25469.71
427.71	25528.22
427.90	25046.07
428.09	25001.60
428.28	24058.37
428.46	23491.96
428.65	22904.48
428.84	23522.38
429.03	24189.44
429.22	22967.68
429.40	21352.71
429.59	19822.00
429.78	17518.91
429.97	17664.02
430.16	18008.08
430.34	17958.93
430.53	17797.43
430.72	18274.90
430.91	20362.66
431.10	23515.36
431.28	27985.79
431.47	30246.74
431.66	30394.20
431.85	27213.41
432.03	25369.07
432.22	24187.10
432.41	25600.78
432.60	27969.40
432.79	29394.79
432.97	29699.06
433.16	28833.06
433.35	26658.70
433.54	23786.86
433.72	22590.85
433.91	23520.04
434.10	26249.11
434.28	27892.16
434.47	29408.83
434.66	28762.84
434.85	28002.17
435.03	28147.28
435.22	28837.74
435.41	30726.55
435.59	30595.48
435.78	30728.89
435.97	31819.58
436.16	31716.60
436.34	31278.92
436.53	30684.42
436.72	30752.30
436.90	28945.41
437.09	29029.66
437.28	28596.67
437.46	29865.24
437.65	29553.94
437.84	27122.13
438.02	25472.05
438.21	25238.00
438.40	26782.75
438.58	28650.50
438.77	29259.04
438.96	29827.79
439.14	31218.07
439.33	31711.92
439.52	32531.11
439.70	31585.53
439.89	30801.45
440.08	30057.16
440.26	30338.02
440.45	31220.41
440.63	33043.68
440.82	34522.90
441.01	34373.11
441.19	33914.36
441.38	34426.94
441.57	35683.81
441.75	35887.43
441.94	36095.74
442.12	35894.46
442.31	36449.16
442.50	36608.32
442.68	36416.40
442.87	35908.50
443.05	34904.41
443.24	35864.03
443.43	36830.67
443.61	37160.69
443.80	37713.05
443.98	35489.54
444.17	35777.43
444.35	37570.28
444.54	37968.17
444.73	37523.47
444.91	36589.59
445.10	34663.33
445.28	33233.27
445.47	33296.46
445.65	33193.48
445.84	34029.05
446.02	35592.53
446.21	35758.70
446.39	35800.83
446.58	36168.30
446.77	37123.24
446.95	37106.85
447.14	38347.34
447.32	38766.29
447.51	37839.44
447.69	36470.23
447.88	35952.97
448.06	36596.62
448.25	37186.43
448.43	38129.67
448.62	37273.03
448.80	36517.04
448.99	36774.50
449.17	37621.77
449.36	37415.80
449.54	39056.52
449.73	39241.42
449.91	39800.81
450.10	41109.17
450.28	40924.27
450.46	40999.16
450.65	40865.75
450.83	40854.05
451.02	39697.83
451.20	39723.57
451.39	39871.03
451.57	39339.72
451.76	39732.93
451.94	39082.27
452.13	38546.28
452.31	37198.13
452.49	35126.76
452.68	35889.77
452.86	35768.07
453.05	36500.65
453.23	37387.72
453.42	38195.20
453.60	38848.21
453.78	39414.62
453.97	38831.83
454.15	38948.85
454.34	38014.98
454.52	38321.59
454.70	37579.64
454.89	38160.09
455.07	38443.30
455.26	38511.17
455.44	40294.66
455.62	41069.38
455.81	41106.83
455.99	40680.85
456.17	40292.32
456.36	40402.33
456.54	41722.39
456.73	41691.96
456.91	42047.72
457.09	42064.11
457.28	43203.95
457.46	41340.88
457.64	40744.05
457.83	39957.63
458.01	39086.95
458.19	40472.54
458.38	40390.62
458.56	41752.82
458.74	41497.70
458.93	40884.48
459.11	40868.09
459.29	40678.51
459.48	40769.79
459.66	40275.94
459.84	41071.72
460.03	41443.87
460.21	40994.48
460.39	42684.35
460.57	42047.72
460.76	42763.93
460.94	43035.43
461.12	42574.34
461.31	42462.00
461.49	42506.47
461.67	42637.54
461.85	43545.67
462.04	43337.36
462.22	43861.64
462.40	43533.96
462.59	43110.33
462.77	43372.47
462.95	43824.19
463.13	43049.47
463.32	42452.64
463.50	42232.63
463.68	42263.05
463.86	42342.63
464.05	41591.32
464.23	41633.45
464.41	40769.79
464.59	40142.53
464.78	42525.19
464.96	42326.25
465.14	41787.92
465.32	42426.89
465.50	43271.82
465.69	43941.22
465.87	43129.05
466.05	42419.87
466.23	40238.49
466.41	39372.49
466.60	40809.58
466.78	40739.36
466.96	41469.61
467.14	41897.93
467.32	42621.16
467.51	42480.72
467.69	40971.08
467.87	41755.16
468.05	42504.13
468.23	42174.11
468.41	42101.56
468.60	42202.20
468.78	42494.77
468.96	42110.92
469.14	42960.53
469.32	43250.76
469.50	41322.16
469.69	41596.00
469.87	41043.63
470.05	41050.66
470.23	41326.84
470.41	41277.69
470.59	41811.33
470.77	42101.56
470.95	42721.80
471.14	43377.15
471.32	43152.46
471.50	45682.58
471.68	45633.42
471.86	45631.08
472.04	46038.34
472.22	45902.59
472.40	44184.63
472.58	43892.07
472.77	43136.07
472.95	44451.45
473.13	45408.73
473.31	44369.54
473.49	44388.26
473.67	45331.50
473.85	45490.65
474.03	46513.47
474.21	46483.04
474.39	47084.56
474.57	47489.47
474.75	47110.30
474.93	46665.60
475.12	45450.86
475.30	45738.75
475.48	45986.85
475.66	46464.32
475.84	46150.68
476.02	45965.78
476.20	45099.78
476.38	46326.22
476.56	47311.59
476.74	47915.45
476.92	48121.41
477.10	48566.12
477.28	49359.56
477.46	49717.66
477.64	50134.28
477.82	49916.61
478.00	50038.31
478.18	49359.56
478.36	49350.20
478.54	49600.63
478.72	49684.89
478.90	50667.92
479.08	51578.39
479.26	51959.89
479.44	51573.70
479.62	51552.64
479.80	51601.79
479.98	51763.29
480.16	52123.73
480.34	51496.47
480.52	51934.15
480.70	52128.41
480.88	52413.96
481.06	52949.94
481.24	53160.59
481.41	53757.42
481.59	54267.66
481.77	53764.45
481.95	53808.92
482.13	53375.92
482.31	53450.81
482.49	54148.29
482.67	53975.09
482.85	54319.15
483.03	54550.87
483.21	54925.35
483.39	54738.11
483.57	54071.06
483.74	54150.63
483.92	54314.47
484.10	54272.34
484.28	55159.41
484.46	55461.33
484.64	55657.94
484.82	54995.57
485.00	54571.93
485.18	53996.16
485.35	53038.88
485.53	50305.13
485.71	47124.35
485.89	46579.00
486.07	48533.35
486.25	51718.82
486.43	53066.97
486.61	54225.53
486.78	53799.55
486.96	54335.54
487.14	55325.58
487.32	55901.36
487.50	56760.33
487.68	57172.27
487.85	57439.09
488.03	57701.23
488.21	57237.80
488.39	56863.32
488.57	56453.72
488.75	56044.13
488.92	57020.13
489.10	58520.41
489.28	59554.93
489.46	60079.21
489.64	60076.87
489.81	60107.30
489.99	60016.02
490.17	59882.61
490.35	60381.14
490.53	59980.91
490.70	59405.14
490.88	59468.33
491.06	60299.22
491.24	60065.17
491.41	59288.11
491.59	58148.27
491.77	57558.45
491.95	58539.14
492.13	59346.62
492.30	60346.03
492.48	60968.61
492.66	61368.85
492.84	61296.29
493.01	61228.41
493.19	60720.52
493.37	60439.65
493.54	60189.22
493.72	60734.56
493.90	61553.75
494.08	62122.50
494.25	62651.46
494.43	62459.54
494.61	63032.97
494.79	63154.68
494.96	62845.72
495.14	62333.15
495.32	61558.43
495.49	61123.09
495.67	62005.47
495.85	63000.20
496.02	63395.75
496.20	63267.02
496.38	62745.08
496.55	62836.36
496.73	63166.38
496.91	63285.75
497.09	63838.11
497.26	63788.96
497.44	63327.87
497.62	62997.86
497.79	62344.85
497.97	61432.04
498.14	61565.45
498.32	62375.28
498.50	63248.30
498.67	63880.24
498.85	63480.01
499.03	63870.88
499.20	64044.08
499.38	64032.38
499.56	63774.92
499.73	63370.00
499.91	62852.75
500.08	62784.87
500.26	62026.54
500.44	62550.82
500.61	62990.84
500.79	62883.17
500.97	62576.56
501.14	62415.07
501.32	62307.40
501.49	62302.72
501.67	62719.34
501.84	62995.52
502.02	63264.68
502.20	63613.42
502.37	63650.87
502.55	63608.74
502.72	64306.22
502.90	64420.90
503.07	64170.47
503.25	63821.73
503.43	63110.20
503.60	62496.98
503.78	61991.43
503.95	62260.59
504.13	63744.49
504.30	64346.01
504.48	64102.59
504.65	63913.01
504.83	63962.16
505.01	64479.42
505.18	64741.56
505.36	65151.15
505.53	65345.42
505.71	65422.65
505.88	65520.96
506.06	65078.60
506.23	64769.64
506.41	64509.85
506.58	64619.85
506.76	64512.19
506.93	64507.50
507.11	64360.05
507.28	64563.68
507.46	64205.58
507.63	63615.76
507.81	63594.70
507.98	63597.04
508.16	64233.66
508.33	64612.83
508.50	64984.97
508.68	65275.20
508.85	65535.00
509.03	65535.00
509.20	65509.25
509.38	64832.84
509.55	64133.02
509.73	64596.45
509.90	64935.82
510.08	65127.75
510.25	65090.30
510.42	64907.74
510.60	64750.92
510.77	65160.51
510.95	65336.05
511.12	65460.10
511.30	65535.00
511.47	65535.00
511.64	65535.00
511.82	65535.00
511.99	64989.66
512.17	64690.07
512.34	64322.60
512.51	64458.35
512.69	64886.67
512.86	64879.65
513.04	65090.30
513.21	65132.43
513.38	64622.19
513.56	64266.43
513.73	63955.14
513.90	64135.36
514.08	64210.26
514.25	64334.31
514.43	64507.50
514.60	64629.21
514.77	64727.52
514.95	64788.37
515.12	64753.26
515.29	65083.28
515.47	65314.99
515.64	65535.00
515.81	65251.80
515.99	64687.73
516.16	63351.28
516.33	61446.08
516.51	60418.59
516.68	59688.34
516.85	59166.40
517.03	59913.03
517.20	62122.50
517.37	64123.66
517.54	64886.67
517.72	64453.67
517.89	62274.63
518.06	60060.49
518.24	61048.19
518.41	62775.51
518.58	63529.16
518.75	63803.00
518.93	63929.39
519.10	63807.68
519.27	64348.35
519.45	64470.06
519.62	65186.26
519.79	65340.74
519.96	65296.27
520.14	64865.61
520.31	64287.49
520.48	64083.87
520.65	64535.59
520.83	65368.82
521.00	65535.00
521.17	65413.29
521.34	64910.08
521.52	65387.55
521.69	65535.00
521.86	65535.00
522.03	65535.00
522.20	64615.17
522.38	63817.05
522.55	64053.44
522.72	64390.48
522.89	64381.12
523.07	64853.90
523.24	64898.37
523.41	65535.00
523.58	65535.00
523.75	65535.00
523.92	65535.00
524.10	65535.00
524.27	65535.00
524.44	65535.00
524.61	65535.00
524.78	65535.00
524.96	65535.00
525.13	65535.00
525.30	65535.00
525.47	65535.00
525.64	65535.00
525.81	65535.00
525.98	64397.50
526.16	63203.83
526.33	62518.05
526.50	62363.57
526.67	61956.32
526.84	62707.63
527.01	63372.34
527.18	64069.82
527.36	64893.69
527.53	65535.00
527.70	65535.00
527.87	65228.39
528.04	64954.55
528.21	65490.53
528.38	65535.00
528.55	65535.00
528.72	65535.00
528.89	65535.00
529.07	65535.00
529.24	65535.00
529.41	65535.00
529.58	64802.41
529.75	65055.19
529.92	65289.24
530.09	65535.00
530.26	65535.00
530.43	65535.00
530.60	65535.00
530.77	65535.00
530.94	65535.00
531.11	65535.00
531.28	65535.00
531.46	65535.00
531.63	65535.00
531.80	65535.00
531.97	65467.12
532.14	64800.07
532.31	64020.67
532.48	63484.69
532.65	63508.10
532.82	64303.88
532.99	65160.51
533.16	65373.50
533.33	65535.00
533.50	65535.00
533.67	65158.17
533.84	64886.67
534.01	65006.04
534.18	65364.14
534.35	65333.71
534.52	65279.88
534.69	65525.64
534.86	65535.00
535.03	65535.00
535.20	65535.00
535.37	65535.00
535.54	65535.00
535.71	65535.00
535.88	65535.00
536.05	65535.00
536.22	65408.61
536.38	65034.13
536.55	64540.27
536.72	64097.91
536.89	64104.93
537.06	65148.81
537.23	65535.00
537.40	65535.00
537.57	65535.00
537.74	65523.30
537.91	65485.85
538.08	65441.38
538.25	65518.62
538.42	65535.00
538.59	65399.25
538.75	65111.36
538.92	64748.58
539.09	64715.81
539.26	64551.98
539.43	64467.72
539.60	64448.99
539.77	64795.39
539.94	64502.82
540.11	63882.58
540.28	63494.05
540.44	63543.20
540.61	63852.15
540.78	64067.48
540.95	64357.71
541.12	64624.53
541.29	64935.82
541.46	65226.05
541.62	65111.36
541.79	65048.17
541.96	64463.03
542.13	64477.08
542.30	64952.21
542.47	64762.62
542.63	64760.28
542.80	64535.59
542.97	64584.74
543.14	64530.91
543.31	64533.25
543.48	65106.68
543.64	65535.00
543.81	65535.00
543.98	65535.00
544.15	65134.77
544.32	64722.83
544.48	64762.62
544.65	65214.35
544.82	65450.74
544.99	65137.11
545.16	64818.80
545.32	64764.96
545.49	65343.08
545.66	65535.00
545.83	65176.90
546.00	64811.77
546.16	64636.23
546.33	64856.24
546.50	64764.96
546.67	65179.24
546.83	64760.28
547.00	64863.27
547.17	64292.18
547.34	63622.78
547.50	63795.98
547.67	64221.96
547.84	64058.12
548.00	64624.53
548.17	65036.47
548.34	64793.05
548.51	64942.84
548.67	64912.42
548.84	64910.08
549.01	64837.52
549.18	64718.15
549.34	64388.14
549.51	64863.27
549.68	64699.43
549.84	64472.40
550.01	64406.86
550.18	64205.58
550.34	64427.93
550.51	64491.12
550.68	64495.80
550.84	64161.11
551.01	64191.53
551.18	64175.15
551.34	64133.02
551.51	64470.06
551.68	64903.06
551.84	64837.52
552.01	64690.07
552.18	64434.95
552.34	63767.90
552.51	63536.18
552.68	63498.73
552.84	63927.05
553.01	63966.84
553.18	64233.66
553.34	64161.11
553.51	64390.48
553.67	64516.87
553.84	64715.81
554.01	64350.69
554.17	64484.10
554.34	64338.99
554.51	64470.06
554.67	64942.84
554.84	64446.65
555.00	64306.22
555.17	64151.74
555.33	64163.45
555.50	64130.68
555.67	64102.59
555.83	63880.24
556.00	63821.73
556.16	63653.21
556.33	63367.66
556.50	63316.17
556.66	63365.32
556.83	63164.04
556.99	63288.09
557.16	63318.51
557.32	63721.08
557.49	63763.21
557.65	63693.00
557.82	63697.68
557.98	63655.55
558.15	63105.52
558.32	62522.73
558.48	61851.00
558.65	62251.23
558.81	62389.32
558.98	62649.12
559.14	62866.79
559.31	62897.22
559.47	62995.52
559.64	62635.08
559.80	62368.26
559.97	62258.25
560.13	62719.34
560.30	63346.60
560.46	63845.13
560.63	63859.18
560.79	63994.93
560.96	63550.23
561.12	62824.66
561.29	62134.20
561.45	62363.57
561.61	62567.20
561.78	62990.84
561.94	62791.89
562.11	62679.55
562.27	62649.12
562.44	62951.05
562.60	63257.66
562.77	63531.50
562.93	63231.91
563.10	63395.75
563.26	62752.10
563.42	62740.40
563.59	62721.68
563.75	62667.84
563.92	62658.48
564.08	62578.90
564.24	62953.39
564.41	62831.68
564.57	62681.89
564.74	62592.95
564.90	62588.27
565.07	62401.02
565.23	62085.05
565.39	61586.52
565.56	61516.30
565.72	61403.95
565.88	61633.33
566.05	61766.74
566.21	61834.61
566.38	62040.58
566.54	61968.02
566.70	62419.75
566.87	62681.89
567.03	62639.76
567.19	62695.93
567.36	62403.36
567.52	62401.02
567.68	62047.60
567.85	61677.80
568.01	61520.98
568.17	61080.96
568.34	61106.71
568.50	61069.26
568.66	61085.64
568.83	61530.34
568.99	61418.00
569.15	61680.14
569.32	61755.03
569.48	61588.86
569.64	61237.78
569.81	61099.68
569.97	61174.58
570.13	61207.35
570.30	60587.11
570.46	60264.11
570.62	59793.67
570.78	59798.35
570.95	60172.83
571.11	60619.88
571.27	60575.40
571.43	60985.00
571.60	61317.35
571.76	61347.78
571.92	61556.09
572.09	61780.78
572.25	61630.99
572.41	61684.82
572.57	61511.62
572.74	61389.91
572.90	61066.92
573.06	61066.92
573.22	61343.10
573.38	61300.97
573.55	61141.81
573.71	61148.84
573.87	61169.90
574.03	60931.17
574.20	61095.00
574.36	61003.72
574.52	60947.55
574.68	60767.33
574.84	60252.41
575.01	59826.43
575.17	59812.39
575.33	59924.74
575.49	60243.05
575.65	60671.37
575.82	60144.75
575.98	60095.60
576.14	60427.95
576.30	60570.72
576.46	60608.17
576.62	60456.04
576.79	60378.80
576.95	60266.45
577.11	60243.05
577.27	60179.85
577.43	60329.65
577.59	59943.46
577.75	59538.55
577.92	59208.53
578.08	59014.27
578.24	59234.28
578.40	59386.41
578.56	59594.72
578.72	59428.54
578.88	59873.24
579.04	59868.56
579.21	59810.05
579.37	59863.88
579.53	60062.83
579.69	59891.97
579.85	60114.32
580.01	59903.67
580.17	59531.53
580.33	59449.61
580.49	59522.16
580.65	60016.02
580.82	59924.74
580.98	59770.26
581.14	59751.54
581.30	60044.10
581.46	59784.30
581.62	60088.57
581.78	59913.03
581.94	59906.01
582.10	60083.89
582.26	60236.03
582.42	60130.70
582.58	60205.60
582.74	60147.09
582.90	60123.68
583.06	60095.60
583.22	59868.56
583.38	59856.86
583.54	59927.08
583.70	59859.20
583.86	59835.80
584.02	59653.23
584.18	59826.43
584.34	59753.88
584.50	59428.54
584.66	59676.64
584.82	59217.89
584.98	59072.78
585.14	58965.12
