SpectraSuite Data File
++++++++++++++++++++++++++++++++++++
Date: Mon Oct 07 14:53:02 GMT-05:00 2013
User: price-jones
Dark Spectrum Present: No
Reference Spectrum Present: No
Number of Sampled Component Spectra: 1
Spectrometers: USB2+H05261
Integration Time (usec): 100000 (USB2+H05261)
Spectra Averaged: 1 (USB2+H05261)
Boxcar Smoothing: 0 (USB2+H05261)
Correct for Electrical Dark: No (USB2+H05261)
Strobe/Lamp Enabled: No (USB2+H05261)
Correct for Detector Non-linearity: No (USB2+H05261)
Correct for Stray Light: No (USB2+H05261)
Number of Pixels in Processed Spectrum: 2048
>>>>>Begin Processed Spectral Data<<<<<
365.73	0.00
365.92	0.00
366.12	0.00
366.32	0.00
366.52	0.00
366.72	0.00
366.91	0.00
367.11	0.00
367.31	0.00
367.51	0.00
367.70	0.00
367.90	0.00
368.10	0.00
368.30	0.00
368.49	0.00
368.69	0.00
368.89	0.00
369.09	0.00
369.28	0.00
369.48	0.00
369.68	0.00
369.87	0.00
370.07	0.00
370.27	0.00
370.47	524.28
370.66	2850.77
370.86	3171.43
371.06	3459.31
371.25	3604.42
371.45	3157.38
371.65	2761.83
371.84	2609.70
372.04	2876.52
372.24	3091.85
372.44	3225.26
372.63	3091.85
372.83	2963.12
373.03	2626.08
373.22	2499.69
373.42	2642.46
373.62	2930.35
373.81	3005.25
374.01	3201.85
374.21	2923.33
374.40	2747.79
374.60	2745.45
374.79	3190.15
374.99	3660.60
375.19	3927.42
375.38	3978.91
375.58	3684.00
375.78	3602.08
375.97	3651.24
376.17	3911.04
376.37	3777.62
376.56	3887.63
376.76	4308.93
376.95	4437.66
377.15	4695.11
377.35	5027.47
377.54	5207.69
377.74	5270.89
377.93	5320.04
378.13	5219.39
378.33	4844.91
378.52	4360.42
378.72	4358.08
378.91	4198.92
379.11	4135.73
379.31	4016.36
379.50	3859.54
379.70	4411.91
379.89	4716.18
380.09	5015.77
380.28	5210.03
380.48	5165.56
380.68	5011.09
380.87	4875.34
381.07	4507.87
381.26	4287.86
381.46	3934.44
381.65	3861.88
381.85	3779.97
382.04	3506.12
382.24	3419.52
382.43	3091.85
382.63	3080.14
382.83	3185.47
383.02	2986.52
383.22	3162.06
383.41	3141.00
383.61	3365.69
383.80	4063.17
384.00	4510.21
384.19	5069.60
384.39	4966.62
384.58	5130.45
384.78	4975.98
384.97	4875.34
385.17	4470.42
385.36	4496.17
385.56	4266.80
385.75	4503.19
385.95	4985.34
386.14	5181.95
386.34	5210.03
386.53	5083.64
386.72	4550.00
386.92	4844.91
387.11	5219.39
387.31	5231.10
387.50	5231.10
387.70	4915.12
387.89	4826.18
388.09	5022.79
388.28	4954.91
388.48	5015.77
388.67	5530.69
388.86	6094.76
389.06	6457.54
389.25	6724.36
389.45	6736.06
389.64	6745.42
389.84	6562.86
390.03	6555.84
390.22	6551.16
390.42	6850.75
390.61	7412.48
390.81	7852.50
391.00	7868.88
391.19	7669.94
391.39	7609.08
391.58	7045.01
391.78	6787.55
391.97	6553.50
392.16	5989.43
392.36	5448.77
392.55	4447.02
392.75	3478.04
392.94	2942.05
393.13	3056.74
393.33	3447.61
393.52	4273.82
393.71	5380.89
393.91	5895.81
394.10	6499.67
394.29	7150.34
394.49	7501.42
394.68	8262.09
394.88	8365.07
395.07	8573.38
395.26	8456.36
395.46	8273.79
395.65	7793.98
395.84	6808.62
396.04	5626.65
396.23	4610.86
396.42	3871.25
396.62	3740.18
396.81	4365.10
397.00	5596.22
397.19	7283.75
397.39	8404.86
397.58	9490.87
397.77	9942.60
397.97	10445.81
398.16	10551.14
398.35	10787.53
398.55	11272.02
398.74	11625.44
398.93	12079.50
399.12	11573.95
399.32	11269.68
399.51	11829.07
399.70	12217.60
399.90	11967.16
400.09	12191.85
400.28	12025.67
400.47	12051.42
400.67	13001.68
400.86	12936.14
401.05	13060.19
401.24	13242.75
401.44	13144.45
401.63	13584.47
401.82	13385.52
402.01	13493.19
402.21	13568.09
402.40	13685.11
402.59	13231.05
402.78	12421.22
402.97	12388.46
403.17	12865.92
403.36	13432.33
403.55	13870.01
403.74	13961.30
403.93	13303.60
404.13	12547.61
404.32	11932.05
404.51	12823.80
404.70	13909.80
404.89	13980.02
405.09	13476.80
405.28	13245.09
405.47	13289.56
405.66	13107.00
405.85	12793.37
406.05	12538.25
406.24	12641.23
406.43	13167.85
406.62	13745.97
406.81	13806.82
407.00	13406.59
407.20	13102.32
407.39	13221.69
407.58	13521.27
407.77	14354.51
407.96	14750.06
408.15	14883.47
408.34	14885.81
408.54	15936.71
408.73	15829.04
408.92	15637.12
409.11	15117.52
409.30	14190.67
409.49	13418.29
409.68	12554.63
409.87	12156.74
410.07	12999.34
410.26	13806.82
410.45	14696.22
410.64	15492.01
410.83	16046.71
411.02	16081.82
411.21	16697.38
411.40	16514.82
411.59	16446.94
411.78	16201.19
411.98	16180.12
412.17	16400.13
412.36	16016.29
412.55	16393.11
412.74	15885.22
412.93	15410.09
413.12	15777.55
413.31	17376.14
413.50	17177.19
413.69	17369.12
413.88	16861.22
414.07	16355.66
414.26	16741.85
414.45	17341.03
414.64	17184.21
414.83	17392.52
415.02	17209.96
415.22	17130.38
415.41	17486.14
415.60	18312.35
415.79	18789.82
415.98	19220.48
416.17	19466.24
416.36	18445.76
416.55	18394.27
416.74	17759.98
416.93	17106.98
417.12	17397.20
417.31	17535.29
417.50	17914.46
417.69	18335.76
417.88	18197.67
418.07	17926.16
418.26	17635.94
418.45	18148.51
418.64	18607.26
418.83	19206.44
419.02	18853.02
419.21	18691.52
419.39	18129.79
419.58	17444.01
419.77	17202.94
419.96	17940.21
420.15	18899.83
420.34	19494.32
420.53	19999.88
420.72	20463.30
420.91	20343.94
421.10	20030.30
421.29	19803.27
421.48	19307.08
421.67	20313.51
421.86	19463.90
422.05	18090.00
422.24	16498.44
422.43	16285.45
422.61	18087.66
422.80	19653.48
422.99	19571.56
423.18	19183.03
423.37	18602.58
423.56	18377.89
423.75	18995.79
423.94	19126.86
424.13	18082.98
424.32	18104.04
424.50	18216.39
424.69	18277.24
424.88	18258.52
425.07	18228.09
425.26	18471.51
425.45	17837.22
425.64	17577.42
425.83	17694.45
426.01	18600.24
426.20	19344.53
426.39	18801.52
426.58	17385.50
426.77	16194.17
426.96	15716.70
427.15	16465.67
427.33	17958.93
427.52	18139.15
427.71	18405.97
427.90	18317.03
428.09	18239.79
428.28	17570.40
428.46	17207.62
428.65	16954.84
428.84	17380.82
429.03	17392.52
429.22	16472.69
429.40	15690.95
429.59	14288.97
429.78	12662.30
429.97	12896.35
430.16	12865.92
430.34	12868.27
430.53	12964.23
430.72	13172.54
430.91	14654.09
431.10	17338.69
431.28	20327.55
431.47	21998.70
431.66	21886.35
431.85	19873.49
432.03	18457.46
432.22	17820.84
432.41	18214.05
432.60	20664.59
432.79	21479.10
432.97	22092.32
433.16	21106.95
433.35	19066.00
433.54	17289.54
433.72	16423.54
433.91	16828.45
434.10	19218.14
434.28	20570.97
434.47	21453.35
434.66	20856.51
434.85	20470.33
435.03	20573.31
435.22	21130.36
435.41	22258.49
435.59	22195.30
435.78	22265.52
435.97	23098.75
436.16	23461.53
436.34	22817.88
436.53	21958.91
436.72	22349.78
436.90	21186.53
437.09	21156.10
437.28	20900.98
437.46	21844.22
437.65	21511.86
437.84	20060.73
438.02	18457.46
438.21	18593.22
438.40	19286.01
438.58	21109.29
438.77	21345.69
438.96	21504.84
439.14	22817.88
439.33	23075.34
439.52	23634.73
439.70	22862.35
439.89	22293.60
440.08	21734.21
440.26	21495.48
440.45	22616.60
440.63	24484.34
440.82	25474.39
441.01	24833.08
441.19	24753.51
441.38	25050.75
441.57	26029.10
441.75	26155.49
441.94	26260.81
442.12	26302.94
442.31	26710.19
442.50	26567.42
442.68	26305.28
442.87	26218.68
443.05	25818.45
443.24	26068.89
443.43	26677.43
443.61	27297.67
443.80	27711.94
443.98	26192.94
444.17	25886.32
444.35	27564.49
444.54	27730.67
444.73	27599.60
444.91	26354.43
445.10	25619.50
445.28	24414.13
445.47	24013.90
445.65	24112.20
445.84	24943.09
446.02	25647.59
446.21	26384.86
446.39	26136.76
446.58	26235.06
446.77	26792.11
446.95	27154.90
447.14	28056.00
447.32	28772.21
447.51	28002.17
447.69	26703.17
447.88	26366.13
448.06	27075.32
448.25	27438.10
448.43	27819.61
448.62	26984.04
448.80	26869.35
448.99	26984.04
449.17	27414.69
449.36	27426.40
449.54	28320.48
449.73	28421.13
449.91	29202.86
450.10	29898.00
450.28	29916.73
450.46	29907.37
450.65	29951.84
450.83	29797.36
451.02	28975.83
451.20	28959.45
451.39	29003.92
451.57	28912.64
451.76	29013.28
451.94	28788.59
452.13	28224.52
452.31	26696.15
452.49	25642.91
452.68	26356.77
452.86	26256.13
453.05	26307.62
453.23	27337.46
453.42	28161.33
453.60	28208.14
453.78	28620.07
453.97	28559.22
454.15	28723.05
454.34	27812.59
454.52	28402.40
454.70	27487.25
454.89	27716.62
455.07	27892.16
455.26	28451.55
455.44	29528.20
455.62	29996.31
455.81	30260.79
455.99	29603.10
456.17	29596.07
456.36	29675.65
456.54	30455.05
456.73	30401.22
456.91	31044.87
457.09	31157.21
457.28	31735.32
457.46	30202.27
457.64	30146.10
457.83	29015.62
458.01	28774.55
458.19	29228.61
458.38	29397.13
458.56	30230.36
458.74	30560.37
458.93	29909.71
459.11	29909.71
459.29	29408.83
459.48	29893.32
459.66	29668.63
459.84	30110.99
460.03	30286.53
460.21	30230.36
460.39	31019.12
460.57	31316.37
460.76	31342.11
460.94	31346.79
461.12	30810.81
461.31	31527.02
461.49	30941.88
461.67	31337.43
461.85	31960.02
462.04	32105.13
462.22	32439.82
462.40	32109.81
462.59	32236.20
462.77	31903.84
462.95	31957.67
463.13	31742.35
463.32	31171.25
463.50	31225.09
463.68	31033.16
463.86	31061.25
464.05	30759.32
464.23	29963.54
464.41	30061.84
464.59	29841.83
464.78	31292.96
464.96	30719.53
465.14	30572.08
465.32	31597.23
465.50	32046.62
465.69	32746.44
465.87	31342.11
466.05	30761.66
466.23	29214.57
466.41	28790.93
466.60	29853.53
466.78	29809.06
466.96	30216.32
467.14	30696.13
467.32	31498.93
467.51	31349.14
467.69	30047.80
467.87	30525.27
468.05	31220.41
468.23	31140.83
468.41	30738.26
468.60	31218.07
468.78	31735.32
468.96	30567.40
469.14	31281.26
469.32	31700.22
469.50	30614.21
469.69	30429.30
469.87	30029.07
470.05	30008.01
470.23	29771.61
470.41	30031.41
470.59	30497.18
470.77	30361.43
470.95	31316.37
471.14	31938.95
471.32	31845.33
471.50	33137.30
471.68	33450.94
471.86	34162.46
472.04	33947.13
472.22	33673.29
472.40	32006.83
472.58	32126.19
472.77	31857.03
472.95	32393.01
473.13	33387.74
473.31	32355.57
473.49	32826.01
473.67	33216.88
473.85	34000.96
474.03	34029.05
474.21	34309.91
474.39	34686.74
474.57	35129.10
474.75	34794.40
474.93	34450.35
475.12	33865.21
475.30	33867.55
475.48	34534.60
475.66	34773.34
475.84	34323.96
476.02	33720.10
476.20	33268.37
476.38	34132.03
476.56	35377.20
476.74	35562.10
476.92	35583.16
477.10	36154.26
477.28	37600.71
477.46	36919.61
477.64	37654.54
477.82	37858.17
478.00	37357.29
478.18	37340.91
478.36	37326.86
478.54	36851.73
478.72	37305.80
478.90	38253.72
479.08	39133.76
479.26	40098.06
479.44	39735.27
479.62	39718.89
479.80	39660.38
479.98	39906.13
480.16	40514.67
480.34	39566.76
480.52	40044.23
480.70	39665.06
480.88	40112.10
481.06	41226.20
481.24	41450.89
481.41	42377.74
481.59	42944.15
481.77	41977.51
481.95	41523.44
482.13	41694.30
482.31	41703.67
482.49	42462.00
482.67	42113.26
482.85	42635.20
483.03	43007.34
483.21	43503.54
483.39	43901.43
483.57	42714.78
483.74	42424.55
483.92	42808.40
484.10	42754.57
484.28	43725.89
484.46	44404.64
484.64	44634.02
484.82	43763.34
485.00	43328.00
485.18	42602.43
485.35	41144.28
485.53	37752.84
485.71	34888.03
485.89	34543.97
486.07	36631.72
486.25	39782.09
486.43	41684.94
486.61	42373.06
486.78	42246.67
486.96	42302.84
487.14	44371.88
487.32	45006.16
487.50	45972.80
487.68	47353.72
487.85	47622.88
488.03	47819.49
488.21	47126.69
488.39	46358.99
488.57	45453.20
488.75	45219.15
488.92	46581.34
489.10	48968.69
489.28	50653.87
489.46	51327.95
489.64	50859.84
489.81	51196.88
489.99	50920.70
490.17	51009.64
490.35	51229.65
490.53	50518.12
490.70	50328.54
490.88	50387.05
491.06	51386.46
491.24	51143.05
491.41	50174.06
491.59	48126.10
491.77	47498.83
491.95	48854.00
492.13	50246.62
492.30	51430.93
492.48	52481.83
492.66	53069.31
492.84	52715.89
493.01	52472.47
493.19	51842.87
493.37	51634.56
493.54	51470.72
493.72	52355.44
493.90	53130.16
494.08	54064.03
494.25	54115.53
494.43	54471.29
494.61	54925.35
494.79	54981.52
494.96	54614.06
495.14	53832.32
495.32	52802.49
495.49	52430.34
495.67	53593.59
495.85	54974.50
496.02	55428.57
496.20	55203.88
496.38	54703.00
496.55	54494.69
496.73	55133.66
496.91	55035.36
497.09	55622.83
497.26	55983.27
497.44	55529.21
497.62	54672.57
497.79	54033.61
497.97	52715.89
498.14	53083.35
498.32	54422.14
498.50	55063.44
498.67	55781.99
498.85	55655.60
499.03	55789.01
499.20	55927.10
499.38	55746.88
499.56	55716.45
499.73	55484.74
499.91	54848.11
500.08	54206.81
500.26	53881.47
500.44	54152.97
500.61	54628.10
500.79	54740.45
500.97	54220.85
501.14	54307.45
501.32	53996.16
501.49	53851.05
501.67	54192.76
501.84	54747.47
502.02	55332.60
502.20	55669.64
502.37	55597.09
502.55	55700.07
502.72	56095.62
502.90	56603.52
503.07	56067.53
503.25	55852.20
503.43	54995.57
503.60	54148.29
503.78	53595.93
503.95	54447.88
504.13	55608.79
504.30	56245.41
504.48	56002.00
504.65	55695.39
504.83	55936.46
505.01	56657.35
505.18	56982.68
505.36	57516.32
505.53	57460.15
505.71	57670.80
505.88	57558.45
506.06	57109.07
506.23	56851.61
506.41	56650.33
506.58	56797.78
506.76	56640.96
506.93	56631.60
507.11	56493.51
507.28	56947.57
507.46	56130.73
507.63	55512.83
507.81	55341.97
507.98	55702.41
508.16	56327.33
508.33	56741.61
508.50	57385.25
508.68	57364.19
508.85	57904.85
509.03	57916.56
509.20	57556.11
509.38	56844.59
509.55	56317.97
509.73	56378.82
509.90	56914.81
510.08	57303.34
510.25	57289.29
510.42	56727.56
510.60	56842.25
510.77	57181.63
510.95	57872.09
511.12	57778.46
511.30	58101.46
511.47	58206.78
511.64	58419.77
511.82	57900.17
511.99	57080.98
512.17	56664.37
512.34	56289.88
512.51	56559.05
512.69	56669.05
512.86	56914.81
513.04	57373.55
513.21	57317.38
513.38	56844.59
513.56	56353.08
513.73	55599.43
513.90	56083.92
514.08	56313.29
514.25	56357.76
514.43	56708.84
514.60	56868.00
514.77	56844.59
514.95	56879.70
515.12	56856.29
515.29	57333.76
515.47	57783.15
515.64	57748.04
515.81	57436.75
515.99	56947.57
516.16	55276.43
516.33	52704.18
516.51	51487.10
516.68	50576.64
516.85	50035.97
517.03	50923.04
517.20	53539.75
517.37	56109.66
517.54	57020.13
517.72	56416.27
517.89	53893.18
518.06	51629.88
518.24	52442.04
518.41	54372.99
518.58	55487.08
518.75	55681.34
518.93	55779.65
519.10	55730.50
519.27	56334.35
519.45	56591.81
519.62	57380.57
519.79	57551.43
519.96	57394.62
520.14	56856.29
520.31	56254.78
520.48	56161.15
520.65	56605.86
520.83	57469.51
521.00	57680.16
521.17	57389.94
521.34	57125.46
521.52	57425.04
521.69	58024.22
521.86	58461.90
522.03	57956.35
522.20	56863.32
522.38	55847.52
522.55	55660.28
522.72	56477.13
522.89	56580.11
523.07	56800.12
523.24	57059.92
523.41	58071.03
523.58	58241.89
523.75	58539.14
523.92	58548.50
524.10	58277.00
524.27	58464.24
524.44	57949.32
524.61	58061.67
524.78	58052.31
524.96	57724.63
525.13	57939.96
525.30	58082.73
525.47	58546.16
525.64	58459.56
525.81	57659.10
525.98	56271.16
526.16	54983.86
526.33	54181.06
526.50	54000.84
526.67	53485.92
526.84	54333.20
527.01	55040.04
527.18	56039.45
527.36	57066.94
527.53	57801.87
527.70	57979.75
527.87	57336.10
528.04	56956.94
528.21	57584.20
528.38	58244.23
528.55	58670.21
528.72	58988.52
528.89	59288.11
529.07	58911.28
529.24	58124.86
529.41	57495.26
529.58	56886.72
529.75	57275.25
529.92	57565.48
530.09	57841.66
530.26	58464.24
530.43	58672.55
530.60	58824.68
530.77	59025.97
530.94	58990.86
531.11	58534.46
531.28	58042.95
531.46	58078.05
531.63	58021.88
531.80	58059.33
531.97	57766.76
532.14	56767.35
532.31	55779.65
532.48	55077.49
532.65	55522.19
532.82	56292.22
532.99	57254.18
533.16	57628.67
533.33	57972.73
533.50	58131.89
533.67	57436.75
533.84	56966.30
534.01	57258.87
534.18	57045.88
534.35	57511.64
534.52	57474.20
534.69	57640.37
534.86	57874.43
535.03	58197.42
535.20	58534.46
535.37	59011.93
535.54	59131.29
535.71	58644.46
535.88	58372.96
536.05	57642.71
536.22	57373.55
536.38	57139.50
536.55	56519.26
536.72	55941.14
536.89	55901.36
537.06	57010.77
537.23	57911.88
537.40	58017.20
537.57	58033.58
537.74	57722.29
537.91	57769.10
538.08	57771.44
538.25	57790.17
538.42	57895.49
538.59	57778.46
538.75	57036.51
538.92	56779.06
539.09	56732.25
539.26	56643.30
539.43	56631.60
539.60	56573.09
539.77	56816.50
539.94	56647.99
540.11	55676.66
540.28	55351.33
540.44	55435.59
540.61	55650.92
540.78	56058.17
540.95	56343.72
541.12	56655.01
541.29	57064.60
541.46	57123.11
541.62	57317.38
541.79	57111.41
541.96	56439.68
542.13	56470.11
542.30	56893.74
542.47	56989.70
542.63	56678.41
542.80	56484.15
542.97	56685.43
543.14	56566.07
543.31	56622.24
543.48	57265.89
543.64	57893.15
543.81	58045.29
543.98	57928.26
544.15	57146.52
544.32	56713.52
544.48	56816.50
544.65	57214.40
544.82	57457.81
544.99	57123.11
545.16	56727.56
545.32	56757.99
545.49	57481.22
545.66	57696.55
545.83	57282.27
546.00	57190.99
546.16	56797.78
546.33	56757.99
546.50	57078.64
546.67	57350.15
546.83	56924.17
547.00	56781.40
547.17	56217.33
547.34	55753.90
547.50	55569.00
547.67	55903.70
547.84	56222.01
548.00	56601.18
548.17	57169.93
548.34	56912.47
548.51	56720.54
548.67	56687.78
548.84	57144.18
549.01	56942.89
549.18	56891.40
549.34	56718.20
549.51	56933.53
549.68	56701.82
549.84	56458.40
550.01	56371.80
550.18	56226.69
550.34	56437.34
550.51	56353.08
550.68	56411.59
550.84	55807.73
551.01	56053.49
551.18	56172.86
551.34	56322.65
551.51	56828.21
551.68	56935.87
551.84	56910.13
552.01	56722.88
552.18	56502.87
552.34	56088.60
552.51	55559.64
552.68	55339.63
552.84	55807.73
553.01	56158.81
553.18	55924.76
553.34	56184.56
553.51	56238.39
553.67	56598.83
553.84	56685.43
554.01	56610.54
554.17	56418.61
554.34	56376.48
554.51	56680.75
554.67	56802.46
554.84	56711.18
555.00	56353.08
555.17	56151.79
555.33	56002.00
555.50	56119.02
555.67	56156.47
555.83	55929.44
556.00	55508.14
556.16	55578.36
556.33	55234.30
556.50	55033.02
556.66	55220.26
556.83	54866.84
556.99	55110.25
557.16	54981.52
557.32	55395.80
557.49	55564.32
557.65	55632.19
557.82	55297.50
557.98	55323.24
558.15	54490.01
558.32	53928.28
558.48	52980.37
558.65	53272.93
558.81	53710.61
558.98	54192.76
559.14	54227.87
559.31	54431.50
559.47	54452.56
559.64	53982.12
559.80	53712.95
559.97	54085.10
560.13	54520.44
560.30	55313.88
560.46	55826.46
560.63	56135.41
560.79	55725.81
560.96	55772.63
561.12	54457.24
561.29	53537.41
561.45	53689.55
561.61	54309.79
561.78	54588.31
561.94	54354.26
562.11	54281.70
562.27	54164.68
562.44	54794.28
562.60	54820.03
562.77	54990.89
562.93	54656.19
563.10	54714.70
563.26	54380.01
563.42	54326.17
563.59	54405.75
563.75	54160.00
563.92	54450.22
564.08	54145.95
564.24	54515.76
564.41	54377.67
564.57	54485.33
564.74	54199.79
564.90	54108.50
565.07	54026.59
565.23	53715.29
565.39	52856.32
565.56	52573.11
565.72	52498.22
565.88	53095.05
566.05	52978.03
566.21	53104.41
566.38	53499.97
566.54	53453.15
566.70	53626.35
566.87	53996.16
567.03	54251.28
567.19	54550.87
567.36	54075.74
567.52	53956.37
567.68	53460.18
567.85	53237.83
568.01	52694.82
568.17	52240.76
568.34	52385.87
568.50	52105.01
568.66	52367.15
568.83	52652.69
568.99	52832.91
569.15	53345.49
569.32	53116.12
569.48	52617.58
569.64	52465.45
569.81	51964.57
569.97	52158.84
570.13	52006.70
570.30	51384.12
570.46	51365.40
570.62	50810.69
570.78	50174.06
570.95	50604.72
571.11	51686.05
571.27	51693.07
571.43	52079.26
571.60	52222.03
571.76	52355.44
571.92	52987.39
572.09	53024.84
572.25	53055.26
572.41	53066.97
572.57	52772.06
572.74	52484.17
572.90	52289.91
573.06	52198.63
573.22	52266.50
573.38	52435.02
573.55	52207.99
573.71	52317.99
573.87	52371.83
574.03	52238.42
574.20	51971.60
574.36	51686.05
574.52	51578.39
574.68	51157.09
574.84	50714.73
575.01	50422.16
575.17	50529.83
575.33	50930.06
575.49	51068.15
575.65	51021.34
575.82	51217.94
575.98	50602.38
576.14	50958.14
576.30	51267.09
576.46	51377.10
576.62	51522.21
576.79	51669.67
576.95	51129.00
577.11	50897.29
577.27	50986.23
577.43	50979.21
577.59	50731.11
577.75	50024.27
577.92	49621.70
578.08	49406.37
578.24	48961.67
578.40	49841.71
578.56	49715.32
578.72	50195.13
578.88	50431.52
579.04	50497.06
579.21	50714.73
579.37	50513.44
579.53	50637.49
579.69	50344.92
579.85	50937.08
580.01	50667.92
580.17	49815.96
580.33	50230.24
580.49	50527.48
580.65	50569.61
580.82	51028.36
580.98	50586.00
581.14	50330.88
581.30	50904.31
581.46	50284.07
581.62	50665.58
581.78	50990.91
581.94	51096.24
582.10	51143.05
582.26	50817.71
582.42	51033.04
582.58	50939.42
582.74	50869.20
582.90	50822.39
583.06	50735.79
583.22	50726.43
583.38	50501.74
583.54	50419.82
583.70	50417.48
583.86	50756.86
584.02	50220.87
584.18	50272.37
584.34	50518.12
584.50	50356.63
584.66	50117.89
584.82	49841.71
584.98	49535.10
585.14	49242.53
585.30	48083.97
