SpectraSuite Data File
++++++++++++++++++++++++++++++++++++
Date: Mon Oct 07 14:52:58 GMT-05:00 2013
User: price-jones
Dark Spectrum Present: No
Reference Spectrum Present: No
Number of Sampled Component Spectra: 1
Spectrometers: USB2+H05261
Integration Time (usec): 100000 (USB2+H05261)
Spectra Averaged: 1 (USB2+H05261)
Boxcar Smoothing: 0 (USB2+H05261)
Correct for Electrical Dark: No (USB2+H05261)
Strobe/Lamp Enabled: No (USB2+H05261)
Correct for Detector Non-linearity: No (USB2+H05261)
Correct for Stray Light: No (USB2+H05261)
Number of Pixels in Processed Spectrum: 2048
>>>>>Begin Processed Spectral Data<<<<<
365.73	0.00
365.92	0.00
366.12	0.00
366.32	0.00
366.52	0.00
366.72	0.00
366.91	0.00
367.11	0.00
367.31	0.00
367.51	0.00
367.70	0.00
367.90	0.00
368.10	0.00
368.30	0.00
368.49	0.00
368.69	0.00
368.89	0.00
369.09	0.00
369.28	0.00
369.48	0.00
369.68	0.00
369.87	0.00
370.07	0.00
370.27	0.00
370.47	559.39
370.66	2827.37
370.86	3255.69
371.06	3627.83
371.25	3592.72
371.45	3398.46
371.65	2897.58
371.84	2780.56
372.04	2876.52
372.24	3384.41
372.44	3368.03
372.63	3384.41
372.83	3171.43
373.03	2780.56
373.22	2588.63
373.42	2677.57
373.62	3129.30
373.81	3236.96
374.01	3328.24
374.21	2848.43
374.40	2846.09
374.60	2857.79
374.79	3335.26
374.99	3854.86
375.19	3955.51
375.38	4173.18
375.58	3906.35
375.78	3824.44
375.97	3880.61
376.17	4028.06
376.37	4198.92
376.56	4365.10
376.76	4489.15
376.95	4669.37
377.15	4959.60
377.35	5221.74
377.54	5298.97
377.74	5366.85
377.93	5659.42
378.13	5184.29
378.33	5053.22
378.52	4599.15
378.72	4634.26
378.91	4482.13
379.11	4514.89
379.31	4053.81
379.50	4173.18
379.70	4344.03
379.89	4938.53
380.09	5259.18
380.28	5467.49
380.48	5352.81
380.68	5245.14
380.87	5160.88
381.07	4741.93
381.26	4432.97
381.46	4191.90
381.65	3957.85
381.85	3904.01
382.04	3758.90
382.24	3517.83
382.43	3351.65
382.63	3164.40
382.83	3276.75
383.02	3307.18
383.22	3201.85
383.41	3316.54
383.61	3559.95
383.80	4128.70
384.00	4620.22
384.19	5188.97
384.39	5310.68
384.58	5320.04
384.78	5355.15
384.97	5252.16
385.17	4877.68
385.36	4617.88
385.56	4526.60
385.75	4643.62
385.95	5177.26
386.14	5516.64
386.34	5657.07
386.53	5207.69
386.72	4854.27
386.92	5170.24
387.11	5179.61
387.31	5504.94
387.50	5383.23
387.70	5254.50
387.89	5231.10
388.09	5352.81
388.28	5327.06
388.48	5362.17
388.67	5834.96
388.86	6179.01
389.06	6848.41
389.25	7143.32
389.45	7258.00
389.64	7192.47
389.84	6991.18
390.03	6715.00
390.22	7122.25
390.42	7152.68
390.61	7777.60
390.81	8231.66
391.00	8346.35
391.19	8121.66
391.39	8100.59
391.58	7655.89
391.78	7075.44
391.97	6827.34
392.16	6375.62
392.36	5743.67
392.55	4568.73
392.75	3770.60
392.94	3028.65
393.13	2967.80
393.33	3571.66
393.52	4615.54
393.71	5511.96
393.91	6092.41
394.10	6717.34
394.29	7618.44
394.49	8023.36
394.68	8992.34
394.88	8985.32
395.07	8985.32
395.26	9036.81
395.46	8603.81
395.65	8126.34
395.84	7323.54
396.04	6071.35
396.23	4990.02
396.42	4182.54
396.62	3913.38
396.81	4711.50
397.00	6054.97
397.19	7485.03
397.39	8713.81
397.58	9813.87
397.77	10565.18
397.97	10974.77
398.16	10867.11
398.35	11475.65
398.55	11763.53
398.74	12248.02
398.93	12585.06
399.12	12313.56
399.32	11868.86
399.51	12248.02
399.70	12683.36
399.90	12666.98
400.09	12542.93
400.28	12540.59
400.47	12849.54
400.67	13259.13
400.86	13621.92
401.05	13881.72
401.24	13668.73
401.44	14064.28
401.63	14012.79
401.82	14164.92
402.01	13991.72
402.21	14314.72
402.40	14225.78
402.59	13877.04
402.78	12954.87
402.97	12985.29
403.17	13577.45
403.36	14265.57
403.55	14824.95
403.74	14951.34
403.93	14108.75
404.13	13074.23
404.32	12917.42
404.51	13528.30
404.70	14581.54
404.89	14600.26
405.09	14427.06
405.28	14090.02
405.47	14052.58
405.66	13963.64
405.85	13600.85
406.05	13186.58
406.24	13245.09
406.43	13804.48
406.62	14668.14
406.81	14464.51
407.00	13935.55
407.20	13460.42
407.39	13806.82
407.58	14293.65
407.77	15089.43
407.96	15447.54
408.15	15864.15
408.34	15807.98
408.54	16252.68
408.73	16613.12
408.92	16444.60
409.11	15793.94
409.30	15080.07
409.49	14047.90
409.68	13163.17
409.87	12947.84
410.07	13806.82
410.26	14824.95
410.45	15426.47
410.64	16116.93
410.83	16540.57
411.02	17043.78
411.21	17479.12
411.40	17177.19
411.59	17245.07
411.78	17493.16
411.98	17003.99
412.17	17460.40
412.36	16996.97
412.55	17245.07
412.74	16697.38
412.93	16240.98
413.12	16718.45
413.31	18162.56
413.50	18389.59
413.69	18544.06
413.88	17898.08
414.07	17453.37
414.26	17869.99
414.45	17972.97
414.64	18436.40
414.83	18281.92
415.02	17877.01
415.22	17970.63
415.41	18464.49
415.60	19248.57
415.79	19702.63
415.98	20077.12
416.17	20418.83
416.36	19735.40
416.55	19264.95
416.74	19129.20
416.93	18043.19
417.12	18295.97
417.31	18464.49
417.50	18824.93
417.69	19576.24
417.88	19342.19
418.07	19255.59
418.26	18747.69
418.45	18794.50
418.64	19714.33
418.83	20297.13
419.02	20273.72
419.21	19864.13
419.39	19136.22
419.58	18249.16
419.77	18272.56
419.96	18902.17
420.15	20107.54
420.34	20692.68
420.53	21593.78
420.72	21766.98
420.91	21561.02
421.10	21546.97
421.29	21088.23
421.48	20592.03
421.67	21687.40
421.86	20849.49
422.05	19414.74
422.24	17319.96
422.43	17514.23
422.61	19227.50
422.80	20823.75
422.99	20891.62
423.18	20318.19
423.37	19742.42
423.56	19625.39
423.75	19864.13
423.94	20365.00
424.13	19337.51
424.32	19548.15
424.50	19679.22
424.69	18932.59
424.88	19243.88
425.07	19342.19
425.26	19264.95
425.45	19028.56
425.64	18836.63
425.83	18743.01
426.01	20072.43
426.20	20435.22
426.39	20159.03
426.58	18515.98
426.77	17277.83
426.96	16652.91
427.15	17315.28
427.33	18930.25
427.52	19515.39
427.71	19459.21
427.90	19386.66
428.09	18885.78
428.28	18782.80
428.46	18176.60
428.65	17832.54
428.84	18338.10
429.03	18857.70
429.22	17539.97
429.40	16828.45
429.59	15283.70
429.78	13528.30
429.97	13453.40
430.16	13708.52
430.34	13877.04
430.53	13565.74
430.72	14052.58
430.91	15646.48
431.10	18508.96
431.28	21427.60
431.47	23283.65
431.66	23405.36
431.85	21174.83
432.03	19620.71
432.22	19014.51
432.41	19740.08
432.60	21923.80
432.79	22377.86
432.97	23073.00
433.16	22499.57
433.35	20648.21
433.54	18394.27
433.72	17420.61
433.91	18057.23
434.10	20137.97
434.28	21659.32
434.47	22635.32
434.66	22335.73
434.85	21652.30
435.03	21795.07
435.22	22167.21
435.41	23524.72
435.59	23529.41
435.78	23943.68
435.97	24559.24
436.16	24823.72
436.34	24397.74
436.53	23545.79
436.72	23447.49
436.90	22401.27
437.09	22305.31
437.28	22202.32
437.46	23026.19
437.65	22890.44
437.84	21046.10
438.02	19637.09
438.21	19669.86
438.40	20711.40
438.58	22537.02
438.77	22707.88
438.96	22937.25
439.14	23971.77
439.33	24592.01
439.52	24720.74
439.70	24531.15
439.89	23726.01
440.08	23131.51
440.26	23293.01
440.45	24418.81
440.63	25902.71
440.82	26771.05
441.01	26574.44
441.19	25984.63
441.38	26841.26
441.57	27775.14
441.75	27962.38
441.94	28261.97
442.12	28156.64
442.31	28496.02
442.50	28194.09
442.68	28126.22
442.87	27847.69
443.05	27484.91
443.24	27740.03
443.43	28659.86
443.61	28568.58
443.80	29130.31
443.98	27730.67
444.17	27309.37
444.35	28795.61
444.54	29591.39
444.73	29406.49
444.91	27531.72
445.10	26789.77
445.28	26316.98
445.47	25432.26
445.65	25818.45
445.84	26412.95
446.02	27461.51
446.21	28105.15
446.39	27733.01
446.58	28271.33
446.77	29008.60
446.95	29069.45
447.14	29872.26
447.32	30347.39
447.51	29731.83
447.69	28580.28
447.88	28109.83
448.06	28486.66
448.25	29237.97
448.43	29350.32
448.62	29032.00
448.80	28671.56
448.99	28781.57
449.17	29120.95
449.36	29001.58
449.54	30405.90
449.73	30738.26
449.91	31101.04
450.10	31889.80
450.28	32535.79
450.46	32034.91
450.65	32074.70
450.83	31831.29
451.02	31084.65
451.20	31129.12
451.39	31056.57
451.57	30497.18
451.76	31150.19
451.94	30473.78
452.13	30228.02
452.31	28690.29
452.49	27082.34
452.68	27758.75
452.86	27819.61
453.05	28203.46
453.23	29312.87
453.42	29593.73
453.60	30293.55
453.78	30581.44
453.97	30284.19
454.15	30293.55
454.34	29640.54
454.52	29902.68
454.70	29507.13
454.89	29823.11
455.07	29724.80
455.26	30078.22
455.44	31405.31
455.62	31695.53
455.81	32376.63
455.99	31882.78
456.17	31175.94
456.36	31618.30
456.54	32093.43
456.73	32304.07
456.91	33193.48
457.09	33141.99
457.28	33598.39
457.46	32488.98
457.64	32072.36
457.83	31337.43
458.01	30450.37
458.19	31646.38
458.38	31510.63
458.56	32407.06
458.74	32205.77
458.93	31735.32
459.11	31782.13
459.29	31592.55
459.48	31775.11
459.66	31339.77
459.84	31913.20
460.03	32053.64
460.21	32690.26
460.39	33149.01
460.57	33408.81
460.76	33392.42
460.94	33933.09
461.12	33097.52
461.31	33039.00
461.49	33193.48
461.67	33120.92
461.85	34321.62
462.04	34015.01
462.22	34817.81
462.40	34663.33
462.59	34003.30
462.77	33926.07
462.95	34178.84
463.13	33790.31
463.32	33123.26
463.50	33024.96
463.68	32898.57
463.86	33301.14
464.05	32790.91
464.23	31887.46
464.41	31952.99
464.59	31559.78
464.78	33443.91
464.96	32854.10
465.14	32566.21
465.32	33064.75
465.50	34443.32
465.69	34270.12
465.87	33727.12
466.05	32896.23
466.23	31667.45
466.41	30892.73
466.60	31842.99
466.78	31927.25
466.96	32465.57
467.14	32879.85
467.32	33174.75
467.51	33132.62
467.69	31978.74
467.87	32444.51
468.05	32594.30
468.23	32924.32
468.41	33310.50
468.60	33074.11
468.78	33441.57
468.96	32924.32
469.14	33830.10
469.32	33720.10
469.50	32596.64
469.69	32416.42
469.87	31770.43
470.05	32048.96
470.23	32275.99
470.41	32533.45
470.59	32624.73
470.77	32671.54
470.95	33617.11
471.14	33933.09
471.32	33699.03
471.50	35646.36
471.68	35793.81
471.86	36271.28
472.04	36641.09
472.22	36107.44
472.40	34911.43
472.58	34305.23
472.77	33556.26
472.95	34724.19
473.13	35566.78
473.31	34370.77
473.49	35143.14
473.67	35147.82
473.85	35929.56
474.03	37244.94
474.21	36629.38
474.39	36961.74
474.57	37345.59
474.75	37186.43
474.93	37015.57
475.12	36140.21
475.30	36400.01
475.48	36360.22
475.66	37347.93
475.84	36297.03
476.02	36109.78
476.20	35796.15
476.38	36631.72
476.56	37759.86
476.74	37525.81
476.92	38047.75
477.10	38602.46
477.28	39529.31
477.46	39580.80
477.64	40011.46
477.82	40411.69
478.00	40755.75
478.18	39945.92
478.36	39356.11
478.54	39618.25
478.72	40055.93
478.90	40495.95
479.08	42029.00
479.26	42485.40
479.44	42054.75
479.62	42518.17
479.80	41989.21
479.98	42391.78
480.16	42705.41
480.34	42141.35
480.52	42375.40
480.70	42656.26
480.88	42831.80
481.06	43723.55
481.24	44212.72
481.41	45052.97
481.59	45670.87
481.77	44952.33
481.95	44519.33
482.13	44727.64
482.31	44369.54
482.49	45027.23
482.67	44830.62
482.85	45385.33
483.03	45408.73
483.21	46459.63
483.39	46155.36
483.57	45364.26
483.74	45385.33
483.92	45298.73
484.10	45654.49
484.28	46447.93
484.46	47229.67
484.64	47271.80
484.82	46422.19
485.00	46223.24
485.18	44985.10
485.35	43435.66
485.53	40481.91
485.71	37034.30
485.89	36687.90
486.07	38857.57
486.25	42234.97
486.43	44449.11
486.61	45439.16
486.78	44926.58
486.96	45408.73
487.14	46653.90
487.32	47714.16
487.50	48540.37
487.68	49970.44
487.85	49998.52
488.03	49954.05
488.21	49794.90
488.39	49123.16
488.57	48205.67
488.75	47894.38
488.92	49530.42
489.10	51562.00
489.28	52898.45
489.46	53684.87
489.64	53137.18
489.81	53340.81
489.99	52975.69
490.17	53151.23
490.35	53535.07
490.53	52589.50
490.70	52533.32
490.88	52296.93
491.06	53343.15
491.24	53481.24
491.41	52142.45
491.59	50782.60
491.77	50190.45
491.95	51100.92
492.13	52378.85
492.30	53979.78
492.48	54349.58
492.66	54838.75
492.84	54808.32
493.01	54616.40
493.19	53947.01
493.37	53691.89
493.54	53485.92
493.72	54272.34
493.90	55260.05
494.08	55920.08
494.25	56257.12
494.43	56472.45
494.61	56453.72
494.79	56839.91
494.96	56315.63
495.14	55774.97
495.32	55157.06
495.49	54532.14
495.67	55622.83
495.85	56594.15
496.02	56975.66
496.20	57038.86
496.38	56439.68
496.55	56472.45
496.73	56910.13
496.91	57205.03
497.09	57654.42
497.26	57797.19
497.44	57104.39
497.62	56692.46
497.79	56037.11
497.97	54937.05
498.14	55199.19
498.32	55962.21
498.50	57092.69
498.67	57560.79
498.85	57628.67
499.03	57595.90
499.20	57652.08
499.38	57483.56
499.56	57504.62
499.73	57090.35
499.91	56741.61
500.08	56266.48
500.26	55746.88
500.44	56364.78
500.61	56542.66
500.79	56554.36
500.97	56203.28
501.14	56009.02
501.32	56044.13
501.49	56163.50
501.67	56247.75
501.84	56963.96
502.02	56875.02
502.20	57467.17
502.37	57301.00
502.55	57502.28
502.72	57970.39
502.90	58473.60
503.07	58103.80
503.25	58073.37
503.43	56896.08
503.60	56112.00
503.78	55580.70
503.95	56151.79
504.13	57425.04
504.30	58284.02
504.48	57996.13
504.65	57815.91
504.83	57799.53
505.01	58277.00
505.18	58677.23
505.36	59217.89
505.53	59089.16
505.71	59370.03
505.88	59683.66
506.06	58852.77
506.23	58784.90
506.41	58192.74
506.58	58534.46
506.76	58553.18
506.93	58223.17
507.11	58176.36
507.28	58473.60
507.46	58085.07
507.63	57558.45
507.81	57155.88
507.98	57572.50
508.16	58300.40
508.33	58658.51
508.50	59018.95
508.68	59210.87
508.85	59601.74
509.03	59646.21
509.20	59559.61
509.38	58698.30
509.55	58103.80
509.73	58401.05
509.90	58459.56
510.08	59002.56
510.25	58988.52
510.42	58787.24
510.60	58677.23
510.77	58965.12
510.95	59473.01
511.12	59503.44
511.30	59952.82
511.47	60097.94
511.64	60060.49
511.82	59798.35
511.99	58908.94
512.17	58782.55
512.34	58188.06
512.51	58525.10
512.69	58389.34
512.86	58740.42
513.04	59107.89
513.21	59133.63
513.38	58770.85
513.56	58417.43
513.73	57834.64
513.90	57925.92
514.08	57944.64
514.25	58255.93
514.43	58646.80
514.60	58536.80
514.77	58688.93
514.95	58810.64
515.12	58721.70
515.29	58997.88
515.47	59245.98
515.64	59604.08
515.81	59119.59
515.99	58525.10
516.16	57179.29
516.33	54761.51
516.51	53638.06
516.68	52776.74
516.85	52245.44
517.03	52917.17
517.20	55611.13
517.37	57982.09
517.54	58719.36
517.72	58075.71
517.89	55458.99
518.06	53560.82
518.24	54501.71
518.41	56224.35
518.58	57429.72
518.75	57509.30
518.93	57818.25
519.10	57851.02
519.27	58166.99
519.45	58365.94
519.62	59243.64
519.79	59550.25
519.96	59288.11
520.14	58848.09
520.31	57954.00
520.48	57937.62
520.65	58475.94
520.83	59388.75
521.00	59681.32
521.17	59105.55
521.34	58862.13
521.52	59201.51
521.69	59798.35
521.86	60011.34
522.03	59697.70
522.20	58452.54
522.38	57696.55
522.55	57752.72
522.72	58363.60
522.89	58347.21
523.07	58695.95
523.24	59093.85
523.41	59686.00
523.58	59913.03
523.75	60444.33
523.92	60245.39
524.10	60229.01
524.27	60114.32
524.44	60168.15
524.61	59866.22
524.78	59758.56
524.96	59613.44
525.13	59887.29
525.30	59948.14
525.47	60296.88
525.64	60261.77
525.81	59316.20
525.98	58012.52
526.16	56959.28
526.33	56306.27
526.50	56104.98
526.67	55601.77
526.84	56292.22
527.01	57020.13
527.18	57846.34
527.36	58817.66
527.53	59433.22
527.70	59810.05
527.87	59274.07
528.04	58787.24
528.21	59372.37
528.38	60032.40
528.55	60519.23
528.72	60818.82
528.89	60846.91
529.07	60582.43
529.24	59835.80
529.41	59461.31
529.58	58768.51
529.75	59217.89
529.92	59477.69
530.09	59810.05
530.26	59950.48
530.43	60622.22
530.60	60615.19
530.77	60837.54
530.94	60746.26
531.11	60329.65
531.28	59889.63
531.46	59772.60
531.63	59842.82
531.80	60004.31
531.97	59550.25
532.14	58738.08
532.31	57717.61
532.48	57303.34
532.65	57315.04
532.82	58127.20
532.99	59161.72
533.16	59510.46
533.33	60027.72
533.50	59772.60
533.67	58993.20
533.84	58885.54
534.01	59126.61
534.18	59063.42
534.35	59306.83
534.52	58932.35
534.69	59377.05
534.86	59723.45
535.03	60055.81
535.20	60514.55
535.37	60832.86
535.54	60608.17
535.71	60294.54
535.88	60046.44
536.05	59412.16
536.22	59334.92
536.38	58820.00
536.55	58520.41
536.72	57787.83
536.89	58138.91
537.06	58775.53
537.23	59571.32
537.40	59742.17
537.57	59686.00
537.74	59592.38
537.91	59550.25
538.08	59590.04
538.25	59489.40
538.42	59590.04
538.59	59421.52
538.75	58812.98
538.92	58794.26
539.09	58642.12
539.26	58401.05
539.43	58370.62
539.60	58274.66
539.77	58440.84
539.94	58375.30
540.11	57595.90
540.28	57230.78
540.44	57265.89
540.61	57649.74
540.78	57631.01
540.95	58138.91
541.12	58557.86
541.29	58681.91
541.46	59173.42
541.62	58946.39
541.79	58934.69
541.96	58288.70
542.13	58370.62
542.30	58616.38
542.47	58726.38
542.63	58543.82
542.80	58330.83
542.97	58560.20
543.14	58410.41
543.31	57989.11
543.48	58866.81
543.64	59561.95
543.81	59845.16
543.98	59667.28
544.15	59072.78
544.32	58649.14
544.48	58794.26
544.65	58979.16
544.82	59409.82
544.99	59192.15
545.16	58745.11
545.32	58635.10
545.49	59192.15
545.66	59568.97
545.83	59040.01
546.00	58712.34
546.16	58361.26
546.33	58731.06
546.50	58550.84
546.67	58995.54
546.83	58742.77
547.00	58766.17
547.17	58143.59
547.34	57652.08
547.50	57553.77
547.67	57944.64
547.84	58033.58
548.00	58578.93
548.17	58908.94
548.34	58681.91
548.51	58588.29
548.67	58707.66
548.84	58761.49
549.01	58459.56
549.18	58731.06
549.34	58361.26
549.51	58681.91
549.68	58508.71
549.84	58216.14
550.01	58129.54
550.18	58108.48
550.34	58267.64
550.51	58475.94
550.68	58251.25
550.84	57780.81
551.01	57902.51
551.18	58080.39
551.34	58047.63
551.51	58370.62
551.68	58812.98
551.84	58808.30
552.01	58534.46
552.18	58330.83
552.34	57602.92
552.51	57333.76
552.68	57146.52
552.84	57663.78
553.01	58052.31
553.18	57918.90
553.34	57841.66
553.51	57996.13
553.67	58211.46
553.84	58527.44
554.01	58372.96
554.17	58403.39
554.34	58237.21
554.51	58398.71
554.67	58719.36
554.84	58567.23
555.00	58258.27
555.17	57867.40
555.33	58003.16
555.50	57991.45
555.67	57844.00
555.83	57883.79
556.00	57392.28
556.16	57726.97
556.33	57165.24
556.50	56968.64
556.66	57429.72
556.83	56783.74
556.99	57059.92
557.16	57048.22
557.32	57483.56
557.49	57427.38
557.65	57418.02
557.82	57382.91
557.98	57214.40
558.15	56711.18
558.32	56095.62
558.48	55519.85
558.65	55601.77
558.81	55653.26
558.98	56168.18
559.14	56329.67
559.31	56287.54
559.47	56278.18
559.64	56189.24
559.80	55767.94
559.97	55997.32
560.13	56137.75
560.30	57202.69
560.46	57773.78
560.63	57918.90
560.79	57902.51
560.96	57429.72
561.12	56432.66
561.29	55646.24
561.45	55704.75
561.61	56257.12
561.78	57020.13
561.94	56200.94
562.11	56449.04
562.27	56465.42
562.44	56662.03
562.60	56877.36
562.77	56917.15
562.93	56757.99
563.10	56755.65
563.26	56308.61
563.42	56257.12
563.59	55941.14
563.75	56226.69
563.92	56350.74
564.08	56594.15
564.24	56427.98
564.41	56460.74
564.57	56303.93
564.74	55941.14
564.90	56055.83
565.07	55943.48
565.23	55597.09
565.39	54960.46
565.56	54698.32
565.72	54611.72
565.88	55098.55
566.05	55171.11
566.21	55234.30
566.38	55374.73
566.54	55739.86
566.70	55985.61
566.87	56072.21
567.03	56310.95
567.19	56495.85
567.36	56011.36
567.52	55985.61
567.68	55714.11
567.85	55248.35
568.01	54714.70
568.17	54431.50
568.34	54401.07
568.50	54564.91
568.66	54342.56
568.83	54953.44
568.99	54628.10
569.15	54974.50
569.32	54850.45
569.48	54894.92
569.64	54808.32
569.81	54398.73
569.97	54321.49
570.13	54440.86
570.30	53661.46
570.46	53340.81
570.62	52989.73
570.78	52743.97
570.95	52985.05
571.11	53876.79
571.27	53951.69
571.43	54150.63
571.60	54417.46
571.76	54782.58
571.92	54965.14
572.09	54934.71
572.25	54958.12
572.41	55049.40
572.57	54763.85
572.74	54747.47
572.90	54494.69
573.06	54401.07
573.22	54508.74
573.38	54543.84
573.55	54354.26
573.71	54595.34
573.87	54499.37
574.03	54185.74
574.20	54408.09
574.36	54031.27
574.52	53961.05
574.68	53794.87
574.84	53024.84
575.01	52921.85
575.17	52973.34
575.33	53240.17
575.49	53319.74
575.65	53366.55
575.82	53240.17
575.98	52945.26
576.14	53249.53
576.30	53350.17
576.46	53624.01
576.62	53530.39
576.79	53752.74
576.95	53132.50
577.11	53258.89
577.27	53333.79
577.43	53425.07
577.59	52769.72
577.75	52303.95
577.92	52086.28
578.08	51786.69
578.24	51779.67
578.40	52105.01
578.56	52491.19
578.72	52488.85
578.88	52388.21
579.04	52580.13
579.21	52772.06
579.37	52610.56
579.53	52886.74
579.69	53169.95
579.85	53446.13
580.01	52659.71
580.17	52636.31
580.33	52247.78
580.49	52453.75
580.65	52650.35
580.82	53195.70
580.98	52875.04
581.14	52931.22
581.30	52767.38
581.46	52676.10
581.62	52945.26
581.78	53001.43
581.94	53050.58
582.10	53296.34
582.26	52989.73
582.42	53139.52
582.58	53214.42
582.74	53071.65
582.90	53279.96
583.06	52931.22
583.22	52823.55
583.38	52767.38
583.54	52643.33
583.70	52538.01
583.86	53085.69
584.02	52720.57
584.18	52577.79
584.34	52465.45
584.50	52645.67
584.66	52418.64
584.82	51969.26
584.98	51913.08
585.14	51318.59
585.30	50773.24
