SpectraSuite Data File
++++++++++++++++++++++++++++++++++++
Date: Mon Oct 07 14:53:47 GMT-05:00 2013
User: price-jones
Dark Spectrum Present: No
Reference Spectrum Present: No
Number of Sampled Component Spectra: 1
Spectrometers: USB2+H05261
Integration Time (usec): 100000 (USB2+H05261)
Spectra Averaged: 1 (USB2+H05261)
Boxcar Smoothing: 0 (USB2+H05261)
Correct for Electrical Dark: No (USB2+H05261)
Strobe/Lamp Enabled: No (USB2+H05261)
Correct for Detector Non-linearity: No (USB2+H05261)
Correct for Stray Light: No (USB2+H05261)
Number of Pixels in Processed Spectrum: 2048
>>>>>Begin Processed Spectral Data<<<<<
365.73	0.00
365.92	0.00
366.12	0.00
366.32	0.00
366.52	0.00
366.72	0.00
366.91	0.00
367.11	0.00
367.31	0.00
367.51	0.00
367.70	0.00
367.90	0.00
368.10	0.00
368.30	0.00
368.49	0.00
368.69	0.00
368.89	0.00
369.09	0.00
369.28	0.00
369.48	0.00
369.68	0.00
369.87	0.00
370.07	0.00
370.27	0.00
370.47	667.05
370.66	3201.85
370.86	3784.65
371.06	4131.05
371.25	4250.41
371.45	3817.41
371.65	3346.97
371.84	3201.85
372.04	3365.69
372.24	3604.42
372.44	3922.74
372.63	3836.14
372.83	3653.58
373.03	3148.02
373.22	2876.52
373.42	3089.51
373.62	3527.19
373.81	3904.01
374.01	3829.12
374.21	3398.46
374.40	3248.66
374.60	3377.39
374.79	3721.45
374.99	4376.80
375.19	4849.59
375.38	4819.16
375.58	4454.04
375.78	4358.08
375.97	4423.61
376.17	4606.17
376.37	4617.88
376.56	4734.90
376.76	4898.74
376.95	5275.57
377.15	5593.88
377.35	5916.87
377.54	6017.52
377.74	6307.74
377.93	6296.04
378.13	6120.50
378.33	5823.25
378.52	5399.62
378.72	5240.46
378.91	5125.77
379.11	4884.70
379.31	4819.16
379.50	4809.80
379.70	5172.58
379.89	5584.52
380.09	5942.62
380.28	6134.54
380.48	6270.30
380.68	6146.25
380.87	6022.20
381.07	5448.77
381.26	5041.51
381.46	4891.72
381.65	4578.09
381.85	4585.11
382.04	4337.01
382.24	3955.51
382.43	3796.35
382.63	3843.16
382.83	3887.63
383.02	3805.71
383.22	3634.85
383.41	3747.20
383.61	4119.34
383.80	4498.51
384.00	5214.71
384.19	5856.02
384.39	6001.13
384.58	6015.18
384.78	6031.56
384.97	5926.24
385.17	5509.62
385.36	5217.05
385.56	5158.54
385.75	5238.12
385.95	5596.22
386.14	6354.55
386.34	6277.32
386.53	5916.87
386.72	5839.64
386.92	5820.91
387.11	6111.14
387.31	6422.43
387.50	6291.36
387.70	6083.05
387.89	5998.79
388.09	5919.21
388.28	6164.97
388.48	6211.78
388.67	6602.65
388.86	7236.94
389.06	7798.66
389.25	8372.10
389.45	8222.30
389.64	8250.39
389.84	8208.26
390.03	8049.10
390.22	8070.17
390.42	8067.83
390.61	8851.91
390.81	9474.49
391.00	9736.63
391.19	9308.31
391.39	9078.94
391.58	8814.46
391.78	8112.30
391.97	7922.71
392.16	7637.17
392.36	6761.81
392.55	5488.56
392.75	4470.42
392.94	3372.71
393.13	3435.91
393.33	3925.08
393.52	5193.65
393.71	6621.38
393.91	7255.66
394.10	7925.05
394.29	8678.71
394.49	9186.60
394.68	10064.30
394.88	10078.35
395.07	10511.35
395.26	10223.46
395.46	9989.41
395.65	9521.30
395.84	8299.54
396.04	7089.48
396.23	5708.57
396.42	4793.42
396.62	4585.11
396.81	5343.44
397.00	6707.98
397.19	8437.63
397.39	9891.10
397.58	11384.37
397.77	12077.16
397.97	12744.22
398.16	12351.01
398.35	13102.32
398.55	13610.22
398.74	13617.24
398.93	14148.54
399.12	14097.05
399.32	13425.31
399.51	14090.02
399.70	14803.89
399.90	14600.26
400.09	14532.39
400.28	14497.28
400.47	14630.69
400.67	15318.81
400.86	15894.58
401.05	15676.91
401.24	15515.41
401.44	16137.99
401.63	16035.01
401.82	16341.62
402.01	16362.69
402.21	16390.77
402.40	16720.79
402.59	16065.44
402.78	15091.77
402.97	14703.25
403.17	15609.03
403.36	16493.76
403.55	16774.62
403.74	17420.61
403.93	16257.36
404.13	15136.24
404.32	15138.58
404.51	15351.57
404.70	16844.84
404.89	17039.10
405.09	16526.52
405.28	16109.91
405.47	15843.09
405.66	15983.52
405.85	15618.39
406.05	15321.15
406.24	15346.89
406.43	15871.17
406.62	16765.26
406.81	16915.05
407.00	16156.72
407.20	15674.57
407.39	15999.90
407.58	16425.88
407.77	17214.64
407.96	17551.68
408.15	17928.50
408.34	17937.87
408.54	18705.56
408.73	19157.28
408.92	18581.51
409.11	18319.37
409.30	17207.62
409.49	15999.90
409.68	15197.10
409.87	14548.77
410.07	15737.76
410.26	16809.73
410.45	17947.23
410.64	18707.90
410.83	18988.77
411.02	19419.42
411.21	20299.47
411.40	20060.73
411.59	20294.79
411.78	19953.07
411.98	19466.24
412.17	19683.91
412.36	19445.17
412.55	19606.67
412.74	19480.28
412.93	18726.63
413.12	18803.86
413.31	20893.96
413.50	20732.47
413.69	21493.14
413.88	20304.15
414.07	19857.10
414.26	20252.66
414.45	21144.40
414.64	21163.12
414.83	21158.44
415.02	20631.82
415.22	20643.52
415.41	21116.31
415.60	21862.94
415.79	22625.96
415.98	22979.38
416.17	23145.56
416.36	22719.58
416.55	22040.82
416.74	21167.80
416.93	20575.65
417.12	20730.12
417.31	20615.44
417.50	21570.38
417.69	22356.80
417.88	22094.66
418.07	21928.48
418.26	21811.45
418.45	21708.47
418.64	22862.35
418.83	23276.63
419.02	23103.43
419.21	22632.98
419.39	21647.61
419.58	20765.23
419.77	20453.94
419.96	21884.01
420.15	23129.17
420.34	23587.92
420.53	24493.71
420.72	24709.04
420.91	24802.66
421.10	24437.53
421.29	24486.68
421.48	23133.86
421.67	24552.22
421.86	23943.68
422.05	22548.72
422.24	20116.90
422.43	19777.53
422.61	21591.44
422.80	23667.50
422.99	23548.13
423.18	23143.22
423.37	22075.93
423.56	22288.92
423.75	22668.09
423.94	23126.83
424.13	21846.56
424.32	21947.20
424.50	22363.82
424.69	22111.04
424.88	22272.54
425.07	21888.69
425.26	21778.68
425.45	21764.64
425.64	21729.53
425.83	21062.48
426.01	22546.38
426.20	23126.83
426.39	23110.45
426.58	21366.75
426.77	19789.23
426.96	18920.89
427.15	19569.22
427.33	21120.99
427.52	22525.32
427.71	22438.72
427.90	22242.11
428.09	21790.39
428.28	21582.08
428.46	20650.55
428.65	20573.31
428.84	21071.84
429.03	21406.54
429.22	20203.50
429.40	19501.34
429.59	17282.52
429.78	15370.30
429.97	15154.97
430.16	15620.74
430.34	15826.70
430.53	15506.05
430.72	15990.54
430.91	17394.86
431.10	20643.52
431.28	24105.18
431.47	26150.81
431.66	26696.15
431.85	24535.84
432.03	22483.19
432.22	21542.29
432.41	22033.80
432.60	24311.14
432.79	25631.21
432.97	26455.08
433.16	25818.45
433.35	23407.70
433.54	21240.36
433.72	19922.64
433.91	20231.59
434.10	22955.97
434.28	24432.85
434.47	25783.34
434.66	25252.04
434.85	24657.54
435.03	24514.77
435.22	25153.74
435.41	26728.92
435.59	26710.19
435.78	26757.00
435.97	27707.26
436.16	28266.65
436.34	27756.41
436.53	26850.63
436.72	27077.66
436.90	25806.75
437.09	25521.20
437.28	24807.34
437.46	26092.29
437.65	25879.30
437.84	24079.43
438.02	22104.02
438.21	22260.84
438.40	23349.18
438.58	25214.59
438.77	26087.61
438.96	26064.21
439.14	27077.66
439.33	27786.84
439.52	28547.51
439.70	27779.82
439.89	27115.11
440.08	26384.86
440.26	26335.71
440.45	26932.54
440.63	28741.78
440.82	30745.28
441.01	30174.19
441.19	29858.21
441.38	30204.61
441.57	31967.04
441.75	31950.65
441.94	31606.59
442.12	31512.97
442.31	32236.20
442.50	32631.75
442.68	31608.93
442.87	31445.10
443.05	30899.75
443.24	31536.38
443.43	31838.31
443.61	32737.07
443.80	33020.28
443.98	31131.47
444.17	31091.68
444.35	32947.72
444.54	33558.60
444.73	33207.52
444.91	31751.71
445.10	30829.54
445.28	29694.38
445.47	28868.17
445.65	28950.09
445.84	29865.24
446.02	31239.13
446.21	31421.69
446.39	31428.71
446.58	32091.09
446.77	32381.31
446.95	32055.98
447.14	33233.27
447.32	33958.83
447.51	33420.51
447.69	32510.04
447.88	31323.39
448.06	32074.70
448.25	32821.33
448.43	33345.61
448.62	32348.54
448.80	32112.15
448.99	32524.08
449.17	32783.88
449.36	32748.78
449.54	33926.07
449.73	34668.02
449.91	35044.84
450.10	36062.97
450.28	35892.12
450.46	36278.30
450.65	36271.28
450.83	35522.31
451.02	34890.37
451.20	34972.28
451.39	34946.54
451.57	34700.78
451.76	34951.22
451.94	34316.93
452.13	33958.83
452.31	32423.44
452.49	30733.57
452.68	31143.17
452.86	31199.34
453.05	31655.75
453.23	32465.57
453.42	33188.80
453.60	34171.82
453.78	34864.62
453.97	34457.37
454.15	34576.73
454.34	33043.68
454.52	33888.62
454.70	32783.88
454.89	33237.95
455.07	33549.24
455.26	34209.27
455.44	35248.47
455.62	35688.49
455.81	36058.29
455.99	35805.52
456.17	35164.21
456.36	35676.79
456.54	36575.55
456.73	36582.57
456.91	36863.44
457.09	36978.12
457.28	37628.79
457.46	36346.18
457.64	36095.74
457.83	35115.06
458.01	34419.92
458.19	35489.54
458.38	35302.30
458.56	36432.78
458.74	36360.22
458.93	35559.76
459.11	35517.63
459.29	35480.18
459.48	35772.75
459.66	35285.92
459.84	35761.05
460.03	36107.44
460.21	36142.55
460.39	36975.78
460.57	37221.54
460.76	37219.20
460.94	37556.24
461.12	37170.05
461.31	37017.91
461.49	37043.66
461.67	36851.73
461.85	38342.66
462.04	37827.74
462.22	38478.41
462.40	37865.19
462.59	37600.71
462.77	38326.27
462.95	38319.25
463.13	37242.60
463.32	37436.87
463.50	37001.53
463.68	36914.93
463.86	37439.21
464.05	36432.78
464.23	36158.94
464.41	36027.87
464.59	34927.81
464.78	36947.70
464.96	36512.36
465.14	35974.03
465.32	37237.92
465.50	38333.29
465.69	38429.26
465.87	37794.97
466.05	36999.19
466.23	34955.90
466.41	34171.82
466.60	35189.95
466.78	35208.68
466.96	36208.09
467.14	36334.48
467.32	37137.28
467.51	36980.46
467.69	35627.63
467.87	35962.33
468.05	37017.91
468.23	36486.61
468.41	36966.42
468.60	37022.59
468.78	37298.78
468.96	36617.68
469.14	37357.29
469.32	37610.07
469.50	36236.17
469.69	36837.69
469.87	35599.55
470.05	35714.23
470.23	36250.22
470.41	35679.13
470.59	36135.53
470.77	36638.75
470.95	37078.77
471.14	37778.59
471.32	37177.07
471.50	39957.63
471.68	39700.17
471.86	39873.37
472.04	39868.69
472.22	40240.83
472.40	38293.50
472.58	38218.61
472.77	37642.84
472.95	38609.48
473.13	39510.58
473.31	38600.12
473.49	38520.54
473.67	39646.33
473.85	39679.10
474.03	40676.17
474.21	40285.30
474.39	40942.99
474.57	41497.70
474.75	41336.20
474.93	40781.49
475.12	40156.57
475.30	40086.36
475.48	40252.53
475.66	40961.72
475.84	40421.05
476.02	40156.57
476.20	39566.76
476.38	40245.51
476.56	41226.20
476.74	42206.88
476.92	42277.10
477.10	43112.67
477.28	43662.69
477.46	43988.03
477.64	44311.02
477.82	44877.43
478.00	44474.86
478.18	44233.78
478.36	44079.31
478.54	43842.92
478.72	44395.28
478.90	45111.49
479.08	46272.39
479.26	46602.41
479.44	46527.51
479.62	46103.87
479.80	45897.91
479.98	46721.77
480.16	47065.83
480.34	45720.02
480.52	47119.66
480.70	46869.23
480.88	47227.33
481.06	47744.59
481.24	47927.15
481.41	48896.13
481.59	49729.36
481.77	48832.94
481.95	48568.46
482.13	48699.53
482.31	48612.93
482.49	49261.26
482.67	48648.03
482.85	49331.47
483.03	50068.74
483.21	50628.13
483.39	50054.70
483.57	49469.56
483.74	48985.07
483.92	49624.04
484.10	49504.67
484.28	50630.47
484.46	50705.37
484.64	50911.33
484.82	50263.00
485.00	49963.42
485.18	49490.63
485.35	47838.21
485.53	45240.21
485.71	41490.68
485.89	40533.40
486.07	42183.48
486.25	46071.10
486.43	48484.20
486.61	49134.87
486.78	48849.32
486.96	48954.64
487.14	50965.17
487.32	51299.86
487.50	52133.09
487.68	53162.93
487.85	53904.88
488.03	53546.78
488.21	53071.65
488.39	52533.32
488.57	51859.25
488.75	51667.33
488.92	52313.31
489.10	54466.61
489.28	55894.33
489.46	56339.04
489.64	56107.32
489.81	56329.67
489.99	55913.06
490.17	55671.98
490.35	56282.86
490.53	55906.04
490.70	55524.53
490.88	55444.95
491.06	56200.94
491.24	56285.20
491.41	55489.42
491.59	53979.78
491.77	52992.07
491.95	54344.90
492.13	55173.45
492.30	56371.80
492.48	57043.54
492.66	57460.15
492.84	57666.12
493.01	57434.41
493.19	56587.13
493.37	56559.05
493.54	56369.46
493.72	56956.94
493.90	57792.51
494.08	58375.30
494.25	58628.08
494.43	58850.43
494.61	59267.05
494.79	59245.98
494.96	59248.32
495.14	58398.71
495.32	57705.91
495.49	57301.00
495.67	57841.66
495.85	59093.85
496.02	59716.43
496.20	59597.06
496.38	59241.30
496.55	59032.99
496.73	59430.88
496.91	59522.16
497.09	60203.26
497.26	60317.95
497.44	59833.46
497.62	59178.10
497.79	58677.23
497.97	57609.95
498.14	57614.63
498.32	58520.41
498.50	59592.38
498.67	60116.66
498.85	59898.99
499.03	60182.19
499.20	60044.10
499.38	60175.17
499.56	60037.08
499.73	59800.69
499.91	59442.59
500.08	58983.84
500.26	58122.52
500.44	58426.79
500.61	59222.58
500.79	59229.60
500.97	58794.26
501.14	58660.85
501.32	58150.61
501.49	58621.06
501.67	58595.31
501.84	59178.10
502.02	59295.13
502.20	59744.51
502.37	59803.03
502.55	59674.30
502.72	60219.64
502.90	60781.37
503.07	60584.77
503.25	60104.96
503.43	59267.05
503.60	58845.75
503.78	58122.52
503.95	58733.40
504.13	60030.06
504.30	60615.19
504.48	60444.33
504.65	60175.17
504.83	60142.41
505.01	60589.45
505.18	61073.94
505.36	61670.78
505.53	61525.66
505.71	61698.86
505.88	62035.90
506.06	61148.84
506.23	60935.85
506.41	60652.64
506.58	60907.76
506.76	60963.93
506.93	60830.52
507.11	60720.52
507.28	60631.58
507.46	60294.54
507.63	59676.64
507.81	59625.15
507.98	59793.67
508.16	60329.65
508.33	60893.72
508.50	61172.24
508.68	61492.89
508.85	61865.04
509.03	61958.66
509.20	61822.91
509.38	61272.88
509.55	60395.18
509.73	60559.02
509.90	61013.08
510.08	61392.25
510.25	61258.84
510.42	61013.08
510.60	60701.79
510.77	61036.49
510.95	61642.69
511.12	61895.47
511.30	61942.28
511.47	62454.86
511.64	62525.07
511.82	61953.98
511.99	61221.39
512.17	61006.06
512.34	60561.36
512.51	60767.33
512.69	60938.19
512.86	60970.96
513.04	61319.70
513.21	61448.42
513.38	60987.34
513.56	60601.15
513.73	59987.93
513.90	60182.19
514.08	60327.31
514.25	60563.70
514.43	60837.54
514.60	60722.86
514.77	61092.66
514.95	60933.51
515.12	61062.24
515.29	61219.05
515.47	61396.93
515.64	61895.47
515.81	61333.74
515.99	60942.87
516.16	59636.85
516.33	57757.40
516.51	56086.26
516.68	55473.04
516.85	55238.98
517.03	55473.04
517.20	57881.45
517.37	60030.06
517.54	61109.05
517.72	60671.37
517.89	58529.78
518.06	56203.28
518.24	56605.86
518.41	58408.07
518.58	59751.54
518.75	59922.40
518.93	60207.94
519.10	59894.31
519.27	60381.14
519.45	60612.85
519.62	61202.67
519.79	61682.48
519.96	61446.08
520.14	60992.02
520.31	60289.86
520.48	60271.14
520.65	60533.28
520.83	61380.55
521.00	61607.58
521.17	61319.70
521.34	61055.21
521.52	61357.14
521.69	61797.16
521.86	62082.71
522.03	61911.85
522.20	60832.86
522.38	60037.08
522.55	59852.18
522.72	60350.71
522.89	60624.56
523.07	60835.20
523.24	61064.58
523.41	61663.75
523.58	61843.98
523.75	62527.41
523.92	62260.59
524.10	62321.44
524.27	62471.24
524.44	62291.02
524.61	62099.09
524.78	61846.32
524.96	61677.80
525.13	61666.09
525.30	61970.36
525.47	62405.70
525.64	62293.36
525.81	61806.53
525.98	60488.80
526.16	58995.54
526.33	58401.05
526.50	58316.79
526.67	57698.89
526.84	58307.43
527.01	59358.33
527.18	59966.87
527.36	60725.20
527.53	61401.61
527.70	61876.74
527.87	61506.94
528.04	60977.98
528.21	61289.27
528.38	61958.66
528.55	62644.44
528.72	62731.04
528.89	62838.70
529.07	62824.66
529.24	62124.84
529.41	61518.64
529.58	60907.76
529.75	61006.06
529.92	61483.53
530.09	61649.71
530.26	62199.74
530.43	62452.51
530.60	62529.75
530.77	62735.72
530.94	63002.54
531.11	62438.47
531.28	62047.60
531.46	62033.56
531.63	61989.09
531.80	61804.19
531.97	61490.55
532.14	60907.76
532.31	60023.04
532.48	59295.13
532.65	59157.04
532.82	60186.88
532.99	61137.13
533.16	61467.15
533.33	62063.99
533.50	61827.59
533.67	61176.92
533.84	60856.27
534.01	61020.11
534.18	61104.37
534.35	61525.66
534.52	61307.99
534.69	61460.13
534.86	61729.29
535.03	62089.73
535.20	62571.88
535.37	62864.45
535.54	62752.10
535.71	62543.80
535.88	62042.92
536.05	61359.48
536.22	61223.73
536.38	60973.30
536.55	60493.49
536.72	60219.64
536.89	59800.69
537.06	60690.09
537.23	61715.25
537.40	61560.77
537.57	61843.98
537.74	61567.79
537.91	61647.37
538.08	61399.27
538.25	61420.34
538.42	61719.93
538.59	61537.36
538.75	60860.95
538.92	60743.92
539.09	60596.47
539.26	60360.08
539.43	60231.35
539.60	60406.89
539.77	60474.76
539.94	60390.50
540.11	59669.62
540.28	59229.60
540.44	59072.78
540.61	59400.46
540.78	59751.54
540.95	60130.70
541.12	60643.28
541.29	60711.16
541.46	60882.02
541.62	60924.14
541.79	60844.57
541.96	60453.70
542.13	60236.03
542.30	60610.51
542.47	60821.16
542.63	60512.21
542.80	60392.84
542.97	60484.12
543.14	60200.92
543.31	60432.63
543.48	60966.27
543.64	61553.75
543.81	61738.65
543.98	61483.53
544.15	60980.32
544.32	60432.63
544.48	60526.25
544.65	60870.31
544.82	61277.57
544.99	61069.26
545.16	60598.81
545.32	60306.24
545.49	61120.75
545.66	61621.62
545.83	61247.14
546.00	60760.31
546.16	60369.44
546.33	60556.68
546.50	60615.19
546.67	60942.87
546.83	60570.72
547.00	60825.84
547.17	59950.48
547.34	59580.68
547.50	59332.58
547.67	59788.98
547.84	59882.61
548.00	60205.60
548.17	60769.67
548.34	60605.83
548.51	60540.30
548.67	60519.23
548.84	60580.09
549.01	60640.94
549.18	60570.72
549.34	60477.10
549.51	60411.57
549.68	60371.78
549.84	60243.05
550.01	60058.15
550.18	59964.52
550.34	60023.04
550.51	60104.96
550.68	60348.37
550.84	59842.82
551.01	59767.92
551.18	59870.90
551.34	60027.72
551.51	60343.69
551.68	60711.16
551.84	60715.84
552.01	60544.98
552.18	60441.99
552.34	59592.38
552.51	59454.29
552.68	59164.06
552.84	59676.64
553.01	60111.98
553.18	59852.18
553.34	59903.67
553.51	59770.26
553.67	60341.35
553.84	60275.82
554.01	60289.86
554.17	60114.32
554.34	60023.04
554.51	60170.49
554.67	60427.95
554.84	60460.72
555.00	60100.28
555.17	59889.63
555.33	59934.10
555.50	59718.77
555.67	59718.77
555.83	59903.67
556.00	59344.28
556.16	59494.08
556.33	59061.08
556.50	58997.88
556.66	58883.20
556.83	58974.48
556.99	58702.98
557.16	58908.94
557.32	59035.33
557.49	59515.14
557.65	59468.33
557.82	59203.85
557.98	59150.02
558.15	58707.66
558.32	57991.45
558.48	57312.70
558.65	57368.87
558.81	57663.78
558.98	58232.53
559.14	58321.47
559.31	58124.86
559.47	58391.68
559.64	57996.13
559.80	57738.68
559.97	57860.38
560.13	58059.33
560.30	58962.78
560.46	59538.55
560.63	59693.02
560.79	59653.23
560.96	59288.11
561.12	58157.63
561.29	57689.52
561.45	57593.56
561.61	57979.75
561.78	58464.24
561.94	58539.14
562.11	58054.65
562.27	57937.62
562.44	58190.40
562.60	58733.40
562.77	58953.41
562.93	58749.79
563.10	58759.15
563.26	57916.56
563.42	58274.66
563.59	57867.40
563.75	58005.50
563.92	58094.44
564.08	57883.79
564.24	58183.38
564.41	58403.39
564.57	57853.36
564.74	58010.18
564.90	57918.90
565.07	57848.68
565.23	57347.81
565.39	56961.62
565.56	56774.37
565.72	56413.93
565.88	56996.73
566.05	57034.17
566.21	57350.15
566.38	57113.75
566.54	57375.89
566.70	57818.25
566.87	58164.65
567.03	57991.45
567.19	58267.64
567.36	57977.41
567.52	57984.43
567.68	57586.54
567.85	57139.50
568.01	56802.46
568.17	56142.43
568.34	56493.51
568.50	56264.14
568.66	56430.32
568.83	56912.47
568.99	56652.67
569.15	57172.27
569.32	56769.69
569.48	56692.46
569.64	56449.04
569.81	56116.68
569.97	56126.05
570.13	56357.76
570.30	55618.15
570.46	55636.87
570.62	54934.71
570.78	54845.77
570.95	55107.91
571.11	55721.13
571.27	55976.25
571.43	56147.11
571.60	56343.72
571.76	56329.67
571.92	56598.83
572.09	56832.89
572.25	56839.91
572.41	56774.37
572.57	56619.90
572.74	56863.32
572.90	56231.37
573.06	56320.31
573.22	56282.86
573.38	56402.23
573.55	56287.54
573.71	56568.41
573.87	56526.28
574.03	55948.17
574.20	56362.44
574.36	55786.67
574.52	55833.48
574.68	55643.90
574.84	55480.06
575.01	54927.69
575.17	54887.90
575.33	54899.61
575.49	55323.24
575.65	55297.50
575.82	55257.71
575.98	55004.93
576.14	55325.58
576.30	55463.67
576.46	55557.30
576.62	55744.54
576.79	55433.25
576.95	55147.70
577.11	55091.53
577.27	55126.64
577.43	55166.43
577.59	54901.95
577.75	54494.69
577.92	54124.89
578.08	53844.02
578.24	53928.28
578.40	54274.68
578.56	54553.21
578.72	54454.90
578.88	54618.74
579.04	54831.73
579.21	54848.11
579.37	54454.90
579.53	54843.43
579.69	54972.16
579.85	55079.83
580.01	55014.29
580.17	54590.66
580.33	54295.75
580.49	54677.25
580.65	54681.94
580.82	54871.52
580.98	54710.02
581.14	54429.16
581.30	55044.72
581.46	54499.37
581.62	54747.47
581.78	54752.15
581.94	55100.89
582.10	55035.36
582.26	54930.03
582.42	55107.91
582.58	55058.76
582.74	54866.84
582.90	54880.88
583.06	55049.40
583.22	54677.25
583.38	54836.41
583.54	54698.32
583.70	54838.75
583.86	54796.62
584.02	54522.78
584.18	54539.16
584.34	54602.36
584.50	54274.68
584.66	54298.09
584.82	53979.78
584.98	53991.48
585.14	53544.44
