SpectraSuite Data File
++++++++++++++++++++++++++++++++++++
Date: Mon Oct 07 14:53:21 GMT-05:00 2013
User: price-jones
Dark Spectrum Present: No
Reference Spectrum Present: No
Number of Sampled Component Spectra: 1
Spectrometers: USB2+H05261
Integration Time (usec): 100000 (USB2+H05261)
Spectra Averaged: 1 (USB2+H05261)
Boxcar Smoothing: 0 (USB2+H05261)
Correct for Electrical Dark: No (USB2+H05261)
Strobe/Lamp Enabled: No (USB2+H05261)
Correct for Detector Non-linearity: No (USB2+H05261)
Correct for Stray Light: No (USB2+H05261)
Number of Pixels in Processed Spectrum: 2048
>>>>>Begin Processed Spectral Data<<<<<
365.73	0.00
365.92	0.00
366.12	0.00
366.32	0.00
366.52	0.00
366.72	0.00
366.91	0.00
367.11	0.00
367.31	0.00
367.51	0.00
367.70	0.00
367.90	0.00
368.10	0.00
368.30	0.00
368.49	0.00
368.69	0.00
368.89	0.00
369.09	0.00
369.28	0.00
369.48	0.00
369.68	0.00
369.87	0.00
370.07	0.00
370.27	0.00
370.47	507.90
370.66	2920.99
370.86	3435.91
371.06	3585.70
371.25	3688.68
371.45	3328.24
371.65	3075.46
371.84	2881.20
372.04	2998.23
372.24	3356.33
372.44	3480.38
372.63	3370.37
372.83	3194.83
373.03	2757.15
373.22	2448.20
373.42	2813.32
373.62	3148.02
373.81	3346.97
374.01	3232.28
374.21	2979.50
374.40	2869.50
374.60	2850.77
374.79	3449.95
374.99	3918.06
375.19	4154.45
375.38	4210.62
375.58	4030.40
375.78	3913.38
375.97	3904.01
376.17	4009.34
376.37	4154.45
376.56	4222.33
376.76	4507.87
376.95	4645.96
377.15	4997.04
377.35	5240.46
377.54	5488.56
377.74	5586.86
377.93	5530.69
378.13	5458.13
378.33	5263.86
378.52	4791.08
378.72	4580.43
378.91	4655.33
379.11	4402.55
379.31	4250.41
379.50	4205.94
379.70	4573.41
379.89	4936.19
380.09	5308.34
380.28	5549.41
380.48	5444.09
380.68	5357.49
380.87	5174.92
381.07	4744.27
381.26	4575.75
381.46	4117.00
381.65	4098.28
381.85	4121.68
382.04	3843.16
382.24	3482.72
382.43	3318.88
382.63	3241.64
382.83	3361.01
383.02	3335.26
383.22	3314.20
383.41	3353.99
383.61	3559.95
383.80	3932.10
384.00	4552.34
384.19	5114.07
384.39	5511.96
384.58	5378.55
384.78	5228.76
384.97	5219.39
385.17	4943.21
385.36	4657.67
385.56	4400.21
385.75	4652.98
385.95	5174.92
386.14	5678.14
386.34	5554.09
386.53	5390.25
386.72	5181.95
386.92	5181.95
387.11	5294.29
387.31	5511.96
387.50	5462.81
387.70	5357.49
387.89	5327.06
388.09	5242.80
388.28	5406.64
388.48	5528.35
388.67	5856.02
388.86	6516.05
389.06	6871.81
389.25	7192.47
389.45	7218.21
389.64	7115.23
389.84	7169.06
390.03	7007.56
390.22	7250.98
390.42	7295.45
390.61	7833.77
390.81	8332.31
391.00	8383.80
391.19	8486.78
391.39	8196.56
391.58	7630.15
391.78	7227.57
391.97	6986.50
392.16	6399.02
392.36	5973.05
392.55	4725.54
392.75	3829.12
392.94	3056.74
393.13	3038.02
393.33	3545.91
393.52	4676.39
393.71	5654.73
393.91	6424.77
394.10	6881.18
394.29	7665.25
394.49	8198.90
394.68	9060.21
394.88	8812.12
395.07	9369.16
395.26	8940.85
395.46	8861.27
395.65	8320.60
395.84	7346.94
396.04	6073.69
396.23	5032.15
396.42	4126.36
396.62	4135.73
396.81	4599.15
397.00	5895.81
397.19	7597.38
397.39	8823.82
397.58	10054.94
397.77	10626.03
397.97	10942.00
398.16	11115.20
398.35	11257.98
398.55	11658.21
398.74	12421.22
398.93	12996.99
399.12	12552.29
399.32	11913.33
399.51	12477.40
399.70	13198.28
399.90	12863.58
400.09	13041.46
400.28	12681.02
400.47	12980.61
400.67	13687.45
400.86	14225.78
401.05	13701.50
401.24	13956.61
401.44	14211.73
401.63	14132.15
401.82	14298.33
402.01	14450.47
402.21	14375.57
402.40	14853.04
402.59	14190.67
402.78	13579.79
402.97	13135.09
403.17	13626.60
403.36	14501.96
403.55	14803.89
403.74	15335.19
403.93	14532.39
404.13	13392.55
404.32	13158.49
404.51	13668.73
404.70	14644.73
404.89	14885.81
405.09	14370.89
405.28	14148.54
405.47	14099.39
405.66	14160.24
405.85	13685.11
406.05	13319.99
406.24	13612.56
406.43	14368.55
406.62	14930.28
406.81	15009.86
407.00	14462.17
407.20	13888.74
407.39	14115.77
407.58	14616.65
407.77	15253.27
407.96	15840.75
408.15	15960.11
408.34	16042.03
408.54	16460.99
408.73	16833.13
408.92	16582.70
409.11	16065.44
409.30	15489.67
409.49	14635.37
409.68	13373.82
409.87	13022.74
410.07	14120.45
410.26	14972.41
410.45	16098.20
410.64	16421.20
410.83	16968.88
411.02	17252.09
411.21	17912.12
411.40	17687.43
411.59	18017.44
411.78	17521.25
411.98	17242.73
412.17	17706.15
412.36	17224.00
412.55	17186.55
412.74	17104.64
412.93	16482.05
413.12	16950.16
413.31	18331.08
413.50	18445.76
413.69	18810.89
413.88	18305.33
414.07	17579.76
414.26	17996.38
414.45	18352.14
414.64	18810.89
414.83	18693.86
415.02	18150.85
415.22	18328.74
415.41	18906.85
415.60	19325.80
415.79	20229.25
415.98	20325.21
416.17	20400.11
416.36	19758.80
416.55	19728.38
416.74	19033.24
416.93	18251.50
417.12	18389.59
417.31	18471.51
417.50	19115.16
417.69	19536.45
417.88	19704.97
418.07	19260.27
418.26	18993.45
418.45	19297.72
418.64	20180.10
418.83	20898.64
419.02	20294.79
419.21	20243.29
419.39	19564.54
419.58	18270.22
419.77	18572.15
419.96	19391.34
420.15	20336.91
420.34	21179.51
420.53	21762.30
420.72	21853.58
420.91	21736.56
421.10	21331.64
421.29	21591.44
421.48	20599.05
421.67	21525.91
421.86	20982.90
422.05	19775.19
422.24	17738.92
422.43	17324.65
422.61	19325.80
422.80	20807.36
422.99	21034.39
423.18	20114.56
423.37	19529.43
423.56	19915.62
423.75	20137.97
423.94	20690.34
424.13	19475.60
424.32	19569.22
424.50	19515.39
424.69	19435.81
424.88	19805.61
425.07	19421.77
425.26	19520.07
425.45	18843.65
425.64	19000.47
425.83	18745.35
426.01	20123.93
426.20	20449.26
426.39	20379.04
426.58	18794.50
426.77	17418.27
426.96	16929.09
427.15	17528.27
427.33	19171.33
427.52	19796.25
427.71	19749.44
427.90	19695.61
428.09	19229.84
428.28	18925.57
428.46	18005.74
428.65	18017.44
428.84	18614.28
429.03	19037.92
429.22	18104.04
429.40	16994.63
429.59	15367.96
429.78	13364.46
429.97	13626.60
430.16	13895.76
430.34	13872.36
430.53	13664.05
430.72	14083.00
430.91	15438.17
431.10	18375.55
431.28	21867.63
431.47	23555.15
431.66	23613.66
431.85	21673.36
432.03	19836.04
432.22	18948.98
432.41	19550.49
432.60	22019.76
432.79	22614.26
432.97	23157.26
433.16	22623.62
433.35	20711.40
433.54	18785.14
433.72	17944.89
433.91	18302.99
434.10	20240.95
434.28	21797.41
434.47	22618.94
434.66	22759.37
434.85	22134.45
435.03	21692.08
435.22	22314.67
435.41	23374.93
435.59	23466.21
435.78	23941.34
435.97	24507.75
436.16	24915.00
436.34	24381.36
436.53	23931.98
436.72	23915.59
436.90	22370.84
437.09	22649.36
437.28	22242.11
437.46	23065.98
437.65	22815.54
437.84	21518.89
438.02	19620.71
438.21	19522.41
438.40	20386.07
438.58	22434.03
438.77	23101.09
438.96	23311.74
439.14	23910.91
439.33	24755.85
439.52	25179.48
439.70	24372.00
439.89	23730.69
440.08	23075.34
440.26	23403.02
440.45	24072.41
440.63	25614.82
440.82	27098.72
441.01	26757.00
441.19	26532.31
441.38	26822.54
441.57	27903.87
441.75	27681.52
441.94	27950.68
442.12	28048.98
442.31	28641.14
442.50	28313.46
442.68	28334.53
442.87	27995.15
443.05	27571.51
443.24	28264.31
443.43	28416.44
443.61	28924.34
443.80	29219.25
443.98	27620.66
444.17	27337.46
444.35	29537.56
444.54	29362.02
444.73	29156.05
444.91	28414.10
445.10	27110.43
445.28	25797.38
445.47	25352.68
445.65	25727.17
445.84	26412.95
446.02	27337.46
446.21	27723.65
446.39	27840.67
446.58	28456.23
446.77	28694.97
446.95	28601.35
447.14	29577.35
447.32	30052.48
447.51	29600.76
447.69	28627.09
447.88	27812.59
448.06	28517.09
448.25	29212.23
448.43	29673.31
448.62	28467.94
448.80	28816.68
448.99	28793.27
449.17	28879.87
449.36	28985.19
449.54	30078.22
449.73	30588.46
449.91	30948.90
450.10	31873.42
450.28	32086.40
450.46	32105.13
450.65	32147.26
450.83	31859.37
451.02	31014.44
451.20	30974.65
451.39	31082.31
451.57	30717.19
451.76	31070.61
451.94	30485.48
452.13	30209.29
452.31	28931.36
452.49	27300.01
452.68	27789.18
452.86	27229.79
453.05	28538.15
453.23	29174.78
453.42	29612.46
453.60	30375.47
453.78	30646.97
453.97	30368.45
454.15	30211.64
454.34	29792.68
454.52	29570.33
454.70	29090.52
454.89	29685.01
455.07	29898.00
455.26	30160.14
455.44	31447.44
455.62	31672.13
455.81	31828.95
455.99	31819.58
456.17	31220.41
456.36	31426.37
456.54	32364.93
456.73	32053.64
456.91	32596.64
457.09	33116.24
457.28	33446.26
457.46	32067.68
457.64	32107.47
457.83	31302.32
458.01	30396.54
458.19	31424.03
458.38	31484.89
458.56	33039.00
458.74	32385.99
458.93	32147.26
459.11	31548.08
459.29	31269.56
459.48	31512.97
459.66	31082.31
459.84	31824.26
460.03	32261.94
460.21	31908.52
460.39	33132.62
460.57	33319.87
460.76	33425.19
460.94	33579.67
461.12	32964.10
461.31	33202.84
461.49	33064.75
461.67	33249.65
461.85	34218.63
462.04	33937.77
462.22	34700.78
462.40	34227.99
462.59	33577.33
462.77	33928.41
462.95	33605.41
463.13	33184.12
463.32	33074.11
463.50	32863.46
463.68	33345.61
463.86	33270.72
464.05	32112.15
464.23	31704.90
464.41	32006.83
464.59	31351.48
464.78	32765.16
464.96	32301.73
465.14	32556.85
465.32	33249.65
465.50	33729.46
465.69	34572.05
465.87	33593.71
466.05	32690.26
466.23	31173.60
466.41	30607.19
466.60	31185.30
466.78	31632.34
466.96	31903.84
467.14	32762.82
467.32	33024.96
467.51	33053.05
467.69	31672.13
467.87	32395.35
468.05	32720.69
468.23	33170.07
468.41	32943.04
468.60	32666.86
468.78	33464.98
468.96	32818.99
469.14	33289.44
469.32	33219.22
469.50	32275.99
469.69	32421.10
469.87	32123.85
470.05	31796.18
470.23	31887.46
470.41	32378.97
470.59	32554.51
470.77	32694.94
470.95	32734.73
471.14	33579.67
471.32	33577.33
471.50	35250.81
471.68	35676.79
471.86	35868.71
472.04	36247.88
472.22	36395.33
472.40	34249.06
472.58	33954.15
472.77	33825.42
472.95	34925.47
473.13	35152.51
473.31	34220.97
473.49	34611.84
473.67	34836.53
473.85	35283.58
474.03	36002.12
474.21	36493.63
474.39	36704.28
474.57	36957.06
474.75	37104.51
474.93	36940.68
475.12	35938.93
475.30	35707.21
475.48	35959.99
475.66	36737.05
475.84	36098.08
476.02	35351.45
476.20	34937.18
476.38	35859.35
476.56	36982.80
476.74	37486.02
476.92	37706.03
477.10	38410.53
477.28	39157.16
477.46	38911.41
477.64	39456.75
477.82	39583.14
478.00	39531.65
478.18	39290.57
478.36	39400.58
478.54	38995.67
478.72	39501.22
478.90	40601.27
479.08	41720.05
479.26	42099.22
479.44	41813.67
479.62	41593.66
479.80	41507.06
479.98	41696.64
480.16	42155.39
480.34	41530.47
480.52	42000.91
480.70	42864.57
480.88	42518.17
481.06	43250.76
481.24	43629.93
481.41	44121.44
481.59	44900.84
481.77	44587.21
481.95	44154.21
482.13	44161.23
482.31	44222.08
482.49	44774.45
482.67	44643.38
482.85	44725.30
483.03	45460.23
483.21	45659.17
483.39	45792.58
483.57	45099.78
483.74	44727.64
483.92	45177.02
484.10	44790.83
484.28	46330.90
484.46	46494.74
484.64	47054.13
484.82	45490.65
485.00	44938.29
485.18	44378.90
485.35	43634.61
485.53	40299.34
485.71	36367.24
485.89	36275.96
486.07	37900.29
486.25	41610.04
486.43	43508.22
486.61	44662.10
486.78	44631.68
486.96	44435.07
487.14	46157.70
487.32	46894.97
487.50	48196.31
487.68	49134.87
487.85	49495.31
488.03	49366.58
488.21	49109.12
488.39	48591.86
488.57	47948.21
488.75	47229.67
488.92	48528.67
489.10	50756.86
489.28	52004.36
489.46	52954.62
489.64	52830.57
489.81	52797.80
489.99	52484.17
490.17	52580.13
490.35	52893.77
490.53	52329.70
490.70	52044.15
490.88	51952.87
491.06	53029.52
491.24	53095.05
491.41	51620.52
491.59	50038.31
491.77	49523.40
491.95	50478.33
492.13	51814.78
492.30	52985.05
492.48	53965.73
492.66	54581.29
492.84	54082.76
493.01	54059.35
493.19	53579.54
493.37	53462.52
493.54	52868.02
493.72	53647.42
493.90	54569.59
494.08	55372.39
494.25	55625.17
494.43	55763.26
494.61	56067.53
494.79	56500.53
494.96	56004.34
495.14	55281.11
495.32	54569.59
495.49	53951.69
495.67	55131.32
495.85	56334.35
496.02	56601.18
496.20	56456.06
496.38	56102.64
496.55	55936.46
496.73	56360.10
496.91	56636.28
497.09	57078.64
497.26	57310.36
497.44	56844.59
497.62	56142.43
497.79	55648.58
497.97	54155.32
498.14	54541.50
498.32	55714.11
498.50	56369.46
498.67	57106.73
498.85	56783.74
499.03	57151.20
499.20	57127.80
499.38	57448.45
499.56	56975.66
499.73	56561.39
499.91	56519.26
500.08	55990.30
500.26	55278.77
500.44	55370.05
500.61	56395.21
500.79	56027.74
500.97	55599.43
501.14	55363.03
501.32	55629.85
501.49	55608.79
501.67	55657.94
501.84	56273.50
502.02	56268.82
502.20	56671.39
502.37	56896.08
502.55	56935.87
502.72	57701.23
502.90	58159.97
503.07	57614.63
503.25	57118.43
503.43	56500.53
503.60	55728.16
503.78	54981.52
503.95	55405.16
504.13	56898.42
504.30	57726.97
504.48	57392.28
504.65	57134.82
504.83	57183.97
505.01	57694.21
505.18	58312.11
505.36	58719.36
505.53	58665.53
505.71	58934.69
505.88	59185.13
506.06	58424.45
506.23	58213.80
506.41	57813.57
506.58	57874.43
506.76	58038.26
506.93	57963.37
507.11	57689.52
507.28	57956.35
507.46	57418.02
507.63	56846.93
507.81	56746.29
507.98	56769.69
508.16	57319.72
508.33	57935.28
508.50	58426.79
508.68	58710.00
508.85	59075.12
509.03	59143.00
509.20	58878.52
509.38	58054.65
509.55	57570.16
509.73	57715.27
509.90	58199.76
510.08	58471.26
510.25	58251.25
510.42	58108.48
510.60	57755.06
510.77	58159.97
510.95	58841.07
511.12	58951.07
511.30	59002.56
511.47	59587.70
511.64	59538.55
511.82	59339.60
511.99	58354.24
512.17	58143.59
512.34	57785.49
512.51	57865.06
512.69	58019.54
512.86	58120.18
513.04	58763.83
513.21	58475.94
513.38	58220.83
513.56	57736.34
513.73	57102.05
513.90	57315.04
514.08	57284.61
514.25	57462.49
514.43	57935.28
514.60	57942.30
514.77	58141.25
514.95	58225.51
515.12	58010.18
515.29	58349.56
515.47	58628.08
515.64	58876.18
515.81	58625.74
515.99	57741.02
516.16	56715.86
516.33	54471.29
516.51	52898.45
516.68	51927.13
516.85	51590.09
517.03	52287.57
517.20	55098.55
517.37	57233.12
517.54	58213.80
517.72	57521.01
517.89	55196.85
518.06	52809.51
518.24	53439.11
518.41	55400.48
518.58	56701.82
518.75	57041.20
518.93	57059.92
519.10	57015.45
519.27	57682.50
519.45	57614.63
519.62	58686.59
519.79	58726.38
519.96	58609.35
520.14	58237.21
520.31	57130.14
520.48	57312.70
520.65	57701.23
520.83	58431.47
521.00	59065.76
521.17	58473.60
521.34	58239.55
521.52	58539.14
521.69	59025.97
521.86	59505.78
522.03	58953.41
522.20	57930.60
522.38	56729.90
522.55	57052.90
522.72	57607.61
522.89	57813.57
523.07	57958.69
523.24	58202.10
523.41	59255.34
523.58	59407.48
523.75	59793.67
523.92	59524.50
524.10	59573.66
524.27	59545.57
524.44	59391.09
524.61	59126.61
524.78	59018.95
524.96	59040.01
525.13	58843.41
525.30	59112.57
525.47	59505.78
525.64	59723.45
525.81	58831.71
525.98	57443.77
526.16	56130.73
526.33	55419.20
526.50	55201.53
526.67	54590.66
526.84	55356.01
527.01	56416.27
527.18	57064.60
527.36	58000.82
527.53	58937.03
527.70	58965.12
527.87	58511.05
528.04	58052.31
528.21	58897.24
528.38	59341.94
528.55	59718.77
528.72	60027.72
528.89	60151.77
529.07	59852.18
529.24	59229.60
529.41	58590.63
529.58	58012.52
529.75	58059.33
529.92	58672.55
530.09	59121.93
530.26	59629.83
530.43	59831.11
530.60	59784.30
530.77	60100.28
530.94	60097.94
531.11	59594.72
531.28	59290.45
531.46	59061.08
531.63	59260.02
531.80	59138.32
531.97	58801.28
532.14	58052.31
532.31	57045.88
532.48	56275.84
532.65	56545.00
532.82	57190.99
532.99	58253.59
533.16	58539.14
533.33	59295.13
533.50	59147.68
533.67	58443.18
533.84	58071.03
534.01	58239.55
534.18	58436.16
534.35	58745.11
534.52	58342.53
534.69	58581.27
534.86	58974.48
535.03	59121.93
535.20	59664.94
535.37	59950.48
535.54	60069.85
535.71	59725.79
535.88	59465.99
536.05	58663.19
536.22	58232.53
536.38	57972.73
536.55	57811.23
536.72	57038.86
536.89	57237.80
537.06	57939.96
537.23	58930.01
537.40	59107.89
537.57	59187.47
537.74	58852.77
537.91	58742.77
538.08	58592.97
538.25	58670.21
538.42	59011.93
538.59	58796.60
538.75	58010.18
538.92	57595.90
539.09	57614.63
539.26	57581.86
539.43	57413.34
539.60	57352.49
539.77	57532.71
539.94	57340.78
540.11	57071.62
540.28	56355.42
540.44	56406.91
540.61	56465.42
540.78	56657.35
540.95	57326.74
541.12	57659.10
541.29	57930.60
541.46	58157.63
541.62	58124.86
541.79	57972.73
541.96	57403.98
542.13	57364.19
542.30	58010.18
542.47	57846.34
542.63	57841.66
542.80	57481.22
542.97	57640.37
543.14	57659.10
543.31	57495.26
543.48	57998.48
543.64	58763.83
543.81	59091.51
543.98	58855.11
544.15	58232.53
544.32	57350.15
544.48	57764.42
544.65	58195.08
544.82	58464.24
544.99	58429.13
545.16	57822.93
545.32	57551.43
545.49	58337.85
545.66	58738.08
545.83	58269.98
546.00	57986.77
546.16	57689.52
546.33	57771.44
546.50	57815.91
546.67	58157.63
546.83	57715.27
547.00	57717.61
547.17	57361.85
547.34	56474.79
547.50	56633.94
547.67	57244.82
547.84	57188.65
548.00	57476.54
548.17	58103.80
548.34	57689.52
548.51	57820.59
548.67	57841.66
548.84	57766.76
549.01	57652.08
549.18	57729.31
549.34	57951.66
549.51	57680.16
549.68	57663.78
549.84	57036.51
550.01	57198.01
550.18	57071.62
550.34	57296.31
550.51	57354.83
550.68	57258.87
550.84	56809.48
551.01	57139.50
551.18	57020.13
551.34	57284.61
551.51	57443.77
551.68	57829.96
551.84	57680.16
552.01	57602.92
552.18	57675.48
552.34	56699.48
552.51	56540.32
552.68	56327.33
552.84	56863.32
553.01	56872.68
553.18	57052.90
553.34	57104.39
553.51	57368.87
553.67	57338.44
553.84	57382.91
554.01	57336.10
554.17	57317.38
554.34	57694.21
554.51	57506.96
554.67	57923.58
554.84	57595.90
555.00	56989.70
555.17	57050.56
555.33	56811.82
555.50	56999.07
555.67	57013.11
555.83	56643.30
556.00	56521.60
556.16	56594.15
556.33	56210.31
556.50	56030.08
556.66	55889.65
556.83	55833.48
556.99	55756.24
557.16	56191.58
557.32	56301.59
557.49	56605.86
557.65	56435.00
557.82	56388.19
557.98	56395.21
558.15	55922.42
558.32	55210.90
558.48	54377.67
558.65	54401.07
558.81	54728.75
558.98	55014.29
559.14	55323.24
559.31	55348.99
559.47	55311.54
559.64	55082.17
559.80	54562.57
559.97	54955.78
560.13	55285.79
560.30	55983.27
560.46	56640.96
560.63	56790.76
560.79	56680.75
560.96	56341.38
561.12	55281.11
561.29	54377.67
561.45	54401.07
561.61	55208.56
561.78	55615.81
561.94	55489.42
562.11	55166.43
562.27	55199.19
562.44	55447.29
562.60	55660.28
562.77	56067.53
562.93	55632.19
563.10	55585.38
563.26	55061.10
563.42	55241.32
563.59	55168.77
563.75	55128.98
563.92	55346.65
564.08	55131.32
564.24	55133.66
564.41	55269.41
564.57	55241.32
564.74	55231.96
564.90	55143.02
565.07	54808.32
565.23	54443.20
565.39	53965.73
565.56	53701.25
565.72	53282.30
565.88	53907.22
566.05	54064.03
566.21	54045.31
566.38	54410.43
566.54	54450.22
566.70	54871.52
566.87	54906.63
567.03	54993.23
567.19	55079.83
567.36	55044.72
567.52	54784.92
567.68	54604.70
567.85	53895.52
568.01	53441.45
568.17	53291.66
568.34	53214.42
568.50	53113.78
568.66	53059.94
568.83	53645.08
568.99	53729.34
569.15	53944.67
569.32	53858.07
569.48	53549.12
569.64	53389.96
569.81	52917.17
569.97	53141.86
570.13	52598.86
570.30	52184.58
570.46	51894.36
570.62	51334.97
570.78	51026.02
570.95	51779.67
571.11	52535.66
571.27	52350.76
571.43	52954.62
571.60	53176.97
571.76	53064.63
571.92	53432.09
572.09	53879.13
572.25	53783.17
572.41	53689.55
572.57	53565.50
572.74	53563.16
572.90	53062.29
573.06	52783.76
573.22	53212.08
573.38	53092.71
573.55	53052.92
573.71	53317.40
573.87	53340.81
574.03	52767.38
574.20	52842.27
574.36	52612.90
574.52	52748.65
574.68	51957.55
574.84	51863.93
575.01	51091.55
575.17	51236.67
575.33	51519.87
575.49	51800.74
575.65	52039.47
575.82	51840.53
575.98	51454.34
576.14	51772.65
576.30	52280.55
576.46	52339.06
576.62	51955.21
576.79	52257.14
576.95	51889.68
577.11	51798.40
577.27	51700.09
577.43	51824.14
577.59	51414.55
577.75	50976.87
577.92	50066.40
578.08	50225.56
578.24	50361.31
578.40	50464.29
578.56	50920.70
578.72	50880.91
578.88	51145.39
579.04	51222.62
579.21	51440.29
579.37	51363.06
579.53	51772.65
579.69	51772.65
579.85	51468.38
580.01	51367.74
580.17	50960.48
580.33	50941.76
580.49	50562.59
580.65	51370.08
580.82	51510.51
580.98	51735.20
581.14	51089.21
581.30	51606.47
581.46	51269.43
581.62	51636.90
581.78	51620.52
581.94	51915.42
582.10	51576.04
582.26	51660.30
582.42	51625.20
582.58	51831.16
582.74	51360.72
582.90	51716.48
583.06	51407.53
583.22	51515.19
583.38	51545.62
583.54	51255.39
583.70	51194.54
583.86	51126.66
584.02	50864.52
584.18	51253.05
584.34	50824.73
584.50	50918.35
584.66	50663.24
584.82	50440.89
584.98	50485.36
585.14	50000.86
585.30	49015.50
