SpectraSuite Data File
++++++++++++++++++++++++++++++++++++
Date: Mon Oct 07 14:52:55 GMT-05:00 2013
User: price-jones
Dark Spectrum Present: No
Reference Spectrum Present: No
Number of Sampled Component Spectra: 1
Spectrometers: USB2+H05261
Integration Time (usec): 100000 (USB2+H05261)
Spectra Averaged: 1 (USB2+H05261)
Boxcar Smoothing: 0 (USB2+H05261)
Correct for Electrical Dark: No (USB2+H05261)
Strobe/Lamp Enabled: No (USB2+H05261)
Correct for Detector Non-linearity: No (USB2+H05261)
Correct for Stray Light: No (USB2+H05261)
Number of Pixels in Processed Spectrum: 2048
>>>>>Begin Processed Spectral Data<<<<<
365.73	0.00
365.92	0.00
366.12	0.00
366.32	0.00
366.52	0.00
366.72	0.00
366.91	0.00
367.11	0.00
367.31	0.00
367.51	0.00
367.70	0.00
367.90	0.00
368.10	0.00
368.30	0.00
368.49	0.00
368.69	0.00
368.89	0.00
369.09	0.00
369.28	0.00
369.48	0.00
369.68	0.00
369.87	0.00
370.07	0.00
370.27	0.00
370.47	456.40
370.66	2537.14
370.86	3073.12
371.06	3335.26
371.25	3208.87
371.45	2918.65
371.65	2832.05
371.84	2450.54
372.04	2686.94
372.24	2965.46
372.44	3141.00
372.63	3089.51
372.83	2803.96
373.03	2403.73
373.22	2267.98
373.42	2410.75
373.62	2754.81
373.81	3082.49
374.01	2979.50
374.21	2586.29
374.40	2537.14
374.60	2686.94
374.79	3021.63
374.99	3386.76
375.19	3838.48
375.38	3772.94
375.58	3414.84
375.78	3478.04
375.97	3487.40
376.17	3686.34
376.37	3730.81
376.56	3726.13
376.76	4018.70
376.95	4117.00
377.15	4393.19
377.35	4699.80
377.54	4821.50
377.74	4961.94
377.93	5020.45
378.13	4861.29
378.33	4554.68
378.52	4217.65
378.72	4138.07
378.91	3967.21
379.11	3751.88
379.31	3611.45
379.50	3796.35
379.70	4166.15
379.89	4390.84
380.09	4636.60
380.28	4882.36
380.48	4882.36
380.68	4755.97
380.87	4699.80
381.07	4344.03
381.26	4086.58
381.46	3756.56
381.65	3588.04
381.85	3473.36
382.04	3389.10
382.24	3047.38
382.43	2864.82
382.63	2885.88
382.83	2799.28
383.02	3077.80
383.22	2958.44
383.41	3059.08
383.61	3190.15
383.80	3590.38
384.00	4056.15
384.19	4479.79
384.39	4933.85
384.58	4774.69
384.78	4681.07
384.97	4727.88
385.17	4411.91
385.36	4114.66
385.56	3943.80
385.75	4049.13
385.95	4547.66
386.14	5097.69
386.34	4980.66
386.53	4765.33
386.72	4550.00
386.92	4493.83
387.11	4713.84
387.31	4926.83
387.50	4854.27
387.70	4734.90
387.89	4620.22
388.09	4690.43
388.28	4744.27
388.48	4788.74
388.67	4933.85
388.86	5612.60
389.06	6108.80
389.25	6384.98
389.45	6469.24
389.64	6464.56
389.84	6356.90
390.03	6300.72
390.22	6153.27
390.42	6504.35
390.61	6918.62
390.81	7447.58
391.00	7419.50
391.19	7253.32
391.39	7201.83
391.58	6787.55
391.78	6377.96
391.97	6197.74
392.16	5526.00
392.36	5062.58
392.55	4259.78
392.75	3262.71
392.94	2736.09
393.13	2862.48
393.33	3372.71
393.52	4252.75
393.71	5156.20
393.91	5802.19
394.10	6282.00
394.29	6761.81
394.49	7405.46
394.68	7894.63
394.88	7946.12
395.07	8248.05
395.26	8124.00
395.46	7850.16
395.65	7405.46
395.84	6410.73
396.04	5303.65
396.23	4510.21
396.42	3660.60
396.62	3552.93
396.81	4299.56
397.00	5575.16
397.19	6810.96
397.39	8098.25
397.58	9092.98
397.77	9664.07
397.97	9827.91
398.16	10059.62
398.35	10448.15
398.55	10443.47
398.74	10995.84
398.93	11185.42
399.12	10904.56
399.32	10623.69
399.51	10932.64
399.70	11929.71
399.90	11470.97
400.09	11485.01
400.28	11571.61
400.47	11424.15
400.67	12187.17
400.86	12276.11
401.05	12507.82
401.24	12566.34
401.44	12695.07
401.63	12545.27
401.82	13102.32
402.01	12882.31
402.21	12905.71
402.40	12725.49
402.59	12732.51
402.78	12028.01
402.97	11639.48
403.17	11992.90
403.36	13004.02
403.55	13303.60
403.74	13645.32
403.93	12798.05
404.13	11936.73
404.32	11803.32
404.51	12166.10
404.70	13132.75
404.89	13142.11
405.09	12917.42
405.28	12769.96
405.47	12692.73
405.66	12671.66
405.85	12217.60
406.05	11976.52
406.24	12381.43
406.43	12650.60
406.62	13268.50
406.81	13128.06
407.00	12561.66
407.20	12425.90
407.39	12411.86
407.58	13158.49
407.77	13614.90
407.96	14244.50
408.15	14204.71
408.34	14567.49
408.54	15016.88
408.73	14787.50
408.92	14618.99
409.11	14380.25
409.30	13549.36
409.49	12807.41
409.68	11779.92
409.87	11723.74
410.07	12622.51
410.26	13259.13
410.45	14122.79
410.64	14850.70
410.83	14876.44
411.02	15330.51
411.21	15953.09
411.40	15882.88
411.59	15845.43
411.78	15763.51
411.98	15576.27
412.17	16002.24
412.36	15541.16
412.55	15538.82
412.74	15412.43
412.93	15098.80
413.12	15124.54
413.31	16428.22
413.50	16585.04
413.69	17025.06
413.88	16278.43
414.07	15658.18
414.26	16126.29
414.45	16631.85
414.64	16912.71
414.83	16716.11
415.02	16353.32
415.22	16439.92
415.41	16910.37
415.60	17575.08
415.79	18141.49
415.98	18455.12
416.17	18478.53
416.36	17977.65
416.55	17834.88
416.74	17125.70
416.93	16336.94
417.12	16664.61
417.31	16613.12
417.50	17013.35
417.69	17895.74
417.88	17565.72
418.07	17247.41
418.26	16889.31
418.45	17535.29
418.64	18284.26
418.83	18469.17
419.02	18295.97
419.21	18228.09
419.39	17296.56
419.58	16748.87
419.77	16798.02
419.96	17603.17
420.15	18263.20
420.34	18724.29
420.53	19473.26
420.72	20226.91
420.91	19440.49
421.10	19583.26
421.29	19140.90
421.48	18420.02
421.67	19475.60
421.86	18888.12
422.05	17547.00
422.24	15873.51
422.43	16189.49
422.61	17436.99
422.80	18895.14
422.99	18537.04
423.18	18317.03
423.37	17900.42
423.56	17802.11
423.75	18272.56
423.94	18672.79
424.13	17561.04
424.32	17612.53
424.50	17802.11
424.69	17818.50
424.88	17586.79
425.07	17319.96
425.26	17649.98
425.45	17259.11
425.64	16877.60
425.83	17053.14
426.01	18377.89
426.20	18455.12
426.39	18352.14
426.58	16922.07
426.77	15880.53
426.96	15269.66
427.15	16039.69
427.33	17359.75
427.52	17767.01
427.71	17944.89
427.90	17621.89
428.09	17500.19
428.28	17071.87
428.46	16369.71
428.65	16439.92
428.84	16531.20
429.03	17034.42
429.22	15744.78
429.40	15190.08
429.59	13912.14
429.78	12250.36
429.97	12320.58
430.16	12491.44
430.34	12500.80
430.53	12297.17
430.72	13006.36
430.91	14228.12
431.10	16854.20
431.28	19515.39
431.47	21240.36
431.66	21490.80
431.85	19363.25
432.03	17830.20
432.22	17256.77
432.41	18047.87
432.60	19798.59
432.79	20521.82
432.97	21268.45
433.16	20844.81
433.35	18476.19
433.54	16901.01
433.72	15943.73
433.91	16636.53
434.10	18663.43
434.28	19552.84
434.47	20685.65
434.66	20245.63
434.85	19775.19
435.03	20081.80
435.22	20563.95
435.41	21862.94
435.59	21876.99
435.78	21865.28
435.97	22396.59
436.16	22661.07
436.34	21664.00
436.53	21795.07
436.72	21689.74
436.90	20706.72
437.09	20819.07
437.28	20320.53
437.46	21036.74
437.65	20629.48
437.84	19241.54
438.02	17767.01
438.21	17935.53
438.40	18630.66
438.58	20533.52
438.77	20650.55
438.96	20758.21
439.14	22045.51
439.33	22443.40
439.52	22911.50
439.70	22239.77
439.89	21664.00
440.08	21177.17
440.26	21579.74
440.45	22017.42
440.63	23552.81
440.82	24458.60
441.01	24121.56
441.19	24063.05
441.38	24219.86
441.57	25106.93
441.75	25989.31
441.94	25582.06
442.12	25813.77
442.31	25944.84
442.50	26118.04
442.68	25678.02
442.87	25579.71
443.05	25053.09
443.24	25427.58
443.43	26078.25
443.61	26609.55
443.80	26782.75
443.98	25490.77
444.17	25439.28
444.35	27054.25
444.54	26859.99
444.73	27016.80
444.91	25682.70
445.10	24641.16
445.28	23819.63
445.47	23470.89
445.65	23866.44
445.84	24341.57
446.02	25553.97
446.21	25488.43
446.39	25252.04
446.58	26190.59
446.77	26544.02
446.95	26553.38
447.14	27243.84
447.32	27494.27
447.51	27075.32
447.69	26171.87
447.88	25926.11
448.06	25893.35
448.25	27218.09
448.43	26862.33
448.62	26363.79
448.80	26298.26
448.99	26426.99
449.17	26476.14
449.36	26347.41
449.54	27501.29
449.73	28102.81
449.91	28587.30
450.10	29273.08
450.28	29682.67
450.46	29790.34
450.65	29280.10
450.83	29130.31
451.02	28474.96
451.20	28638.80
451.39	28788.59
451.57	28297.08
451.76	28533.47
451.94	28261.97
452.13	27599.60
452.31	26415.29
452.49	25125.65
452.68	25460.35
452.86	25345.66
453.05	25912.07
453.23	26644.66
453.42	27386.61
453.60	27946.00
453.78	28056.00
453.97	27999.83
454.15	27999.83
454.34	27175.96
454.52	27309.37
454.70	27044.89
454.89	27835.99
455.07	27318.73
455.26	27833.65
455.44	28690.29
455.62	29446.28
455.81	29226.27
455.99	29319.89
456.17	28912.64
456.36	29118.60
456.54	29869.92
456.73	29677.99
456.91	30129.72
457.09	30499.52
457.28	30911.46
457.46	29940.13
457.64	29759.91
457.83	28802.63
458.01	28027.92
458.19	29160.73
458.38	29242.65
458.56	30373.13
458.74	29731.83
458.93	29509.47
459.11	29216.91
459.29	28996.90
459.48	29156.05
459.66	29237.97
459.84	29448.62
460.03	29881.62
460.21	29551.60
460.39	30890.39
460.57	30761.66
460.76	30918.48
460.94	31302.32
461.12	30118.01
461.31	30696.13
461.49	30670.38
461.67	30780.39
461.85	31587.87
462.04	30930.18
462.22	31615.96
462.40	31852.35
462.59	31370.20
462.77	31295.30
462.95	31344.45
463.13	30829.54
463.32	30712.51
463.50	30745.28
463.68	30588.46
463.86	30511.22
464.05	30459.73
464.23	29050.73
464.41	29558.63
464.59	29181.80
464.78	30433.99
464.96	30501.86
465.14	29820.77
465.32	31028.48
465.50	31370.20
465.69	31957.67
465.87	31033.16
466.05	30183.55
466.23	29127.97
466.41	28432.83
466.60	29069.45
466.78	29111.58
466.96	29443.94
467.14	30146.10
467.32	30518.25
467.51	30520.59
467.69	29043.71
467.87	29893.32
468.05	30555.69
468.23	30288.87
468.41	30387.18
468.60	30822.51
468.78	30377.81
468.96	30785.07
469.14	31056.57
469.32	30485.48
469.50	29495.43
469.69	30103.97
469.87	29769.27
470.05	29436.92
470.23	29495.43
470.41	29687.36
470.59	29839.49
470.77	30183.55
470.95	30932.52
471.14	31271.90
471.32	31215.72
471.50	32957.08
471.68	33125.60
471.86	32933.68
472.04	33324.55
472.22	33605.41
472.40	31646.38
472.58	31695.53
472.77	31419.35
472.95	32198.75
473.13	32697.28
473.31	31920.23
473.49	31985.76
473.67	32294.71
473.85	32900.91
474.03	33881.60
474.21	33493.07
474.39	34190.55
474.57	34405.88
474.75	34473.75
474.93	33923.72
475.12	33453.28
475.30	33294.12
475.48	33488.38
475.66	33897.98
475.84	33308.16
476.02	33287.10
476.20	32493.66
476.38	33860.53
476.56	34707.80
476.74	34967.60
476.92	35285.92
477.10	35688.49
477.28	36896.20
477.46	36451.50
477.64	37177.07
477.82	37205.16
478.00	37352.61
478.18	36641.09
478.36	36479.59
478.54	36535.76
478.72	37015.57
478.90	37928.38
479.08	39065.88
479.26	39636.97
479.44	39164.18
479.62	38845.87
479.80	39037.80
479.98	39084.61
480.16	39793.79
480.34	38841.19
480.52	39531.65
480.70	39571.44
480.88	40411.69
481.06	40631.70
481.24	40664.47
481.41	42082.83
481.59	41914.31
481.77	41755.16
481.95	41427.48
482.13	41160.66
482.31	40996.82
482.49	42157.73
482.67	41986.87
482.85	42195.18
483.03	43026.07
483.21	43278.85
483.39	43213.31
483.57	41778.56
483.74	42024.32
483.92	42646.90
484.10	42462.00
484.28	43629.93
484.46	43653.33
484.64	44140.16
484.82	43072.88
485.00	42787.33
485.18	41787.92
485.35	40610.64
485.53	37249.63
485.71	34382.47
485.89	34396.51
486.07	35917.86
486.25	39199.29
486.43	41155.98
486.61	41904.95
486.78	42012.62
486.96	42073.47
487.14	43480.13
487.32	44652.74
487.50	45839.39
487.68	46349.63
487.85	46990.94
488.03	46941.78
488.21	46199.83
488.39	45647.47
488.57	44954.67
488.75	44629.34
488.92	45965.78
489.10	48729.95
489.28	49965.76
489.46	50681.96
489.64	50354.29
489.81	50827.07
489.99	50213.85
490.17	50401.10
490.35	51004.95
490.53	50344.92
490.70	50089.80
490.88	49698.94
491.06	50941.76
491.24	50824.73
491.41	49492.97
491.59	48119.07
491.77	46775.61
491.95	48746.34
492.13	49689.57
492.30	51178.15
492.48	52009.04
492.66	52217.35
492.84	52325.02
493.01	52566.09
493.19	51283.48
493.37	51236.67
493.54	50913.67
493.72	51697.75
493.90	52769.72
494.08	53703.59
494.25	53914.24
494.43	54003.18
494.61	54525.12
494.79	54356.60
494.96	54237.23
495.14	53872.11
495.32	52818.87
495.49	51964.57
495.67	53097.39
495.85	54576.61
496.02	55304.52
496.20	54958.12
496.38	54188.08
496.55	54272.34
496.73	54777.90
496.91	54864.50
497.09	55529.21
497.26	55496.44
497.44	55025.99
497.62	54490.01
497.79	53357.19
497.97	52479.49
498.14	52776.74
498.32	53645.08
498.50	54651.51
498.67	55388.78
498.85	55264.73
499.03	55433.25
499.20	55721.13
499.38	55667.30
499.56	55320.90
499.73	55058.76
499.91	54382.35
500.08	53937.65
500.26	53071.65
500.44	53937.65
500.61	54518.10
500.79	54265.32
500.97	53867.43
501.14	53813.60
501.32	53439.11
501.49	53858.07
501.67	53996.16
501.84	54574.27
502.02	54611.72
502.20	54960.46
502.37	55044.72
502.55	55414.52
502.72	55957.53
502.90	56137.75
503.07	55852.20
503.25	55650.92
503.43	54567.25
503.60	53923.60
503.78	53336.13
503.95	53895.52
504.13	55150.04
504.30	56025.40
504.48	55983.27
504.65	55480.06
504.83	55662.62
505.01	56107.32
505.18	56413.93
505.36	57265.89
505.53	57312.70
505.71	57301.00
505.88	57523.35
506.06	56816.50
506.23	56385.85
506.41	56135.41
506.58	56463.08
506.76	56376.48
506.93	56484.15
507.11	55920.08
507.28	56336.69
507.46	55737.52
507.63	55093.87
507.81	55145.36
507.98	55388.78
508.16	56009.02
508.33	56486.49
508.50	57113.75
508.68	57008.43
508.85	57628.67
509.03	57511.64
509.20	57422.70
509.38	56823.53
509.55	55966.89
509.73	56137.75
509.90	56528.62
510.08	56750.97
510.25	56591.81
510.42	56556.70
510.60	56526.28
510.77	56970.98
510.95	57670.80
511.12	57516.32
511.30	57986.77
511.47	58181.04
511.64	57937.62
511.82	57647.39
511.99	56872.68
512.17	56488.83
512.34	56219.67
512.51	56446.70
512.69	56561.39
512.86	56509.89
513.04	57155.88
513.21	57015.45
513.38	56678.41
513.56	55929.44
513.73	55636.87
513.90	55877.95
514.08	55877.95
514.25	56273.50
514.43	56409.25
514.60	56521.60
514.77	56673.73
514.95	56699.48
515.12	56535.64
515.29	57200.35
515.47	57158.22
515.64	57804.21
515.81	56992.04
515.99	56605.86
516.16	55103.23
516.33	52727.59
516.51	51449.66
516.68	49752.77
516.85	49614.68
517.03	50534.51
517.20	53593.59
517.37	55931.78
517.54	56772.03
517.72	55980.93
517.89	53511.67
518.06	51248.37
518.24	51868.61
518.41	53764.45
518.58	55311.54
518.75	55543.25
518.93	55648.58
519.10	55547.93
519.27	56037.11
519.45	56416.27
519.62	56987.36
519.79	57474.20
519.96	56926.51
520.14	56575.43
520.31	55686.03
520.48	55882.63
520.65	56231.37
520.83	57233.12
521.00	57544.41
521.17	56999.07
521.34	56622.24
521.52	57078.64
521.69	57605.26
521.86	58038.26
522.03	57808.89
522.20	56413.93
522.38	55625.17
522.55	55592.40
522.72	56388.19
522.89	56343.72
523.07	56406.91
523.24	56868.00
523.41	57656.76
523.58	58157.63
523.75	58482.97
523.92	58302.74
524.10	58120.18
524.27	58370.62
524.44	57895.49
524.61	57888.47
524.78	57476.54
524.96	57726.97
525.13	57338.44
525.30	57733.99
525.47	58188.06
525.64	58003.16
525.81	57483.56
525.98	55973.91
526.16	54541.50
526.33	54040.63
526.50	53549.12
526.67	53380.60
526.84	54064.03
527.01	54918.33
527.18	55739.86
527.36	56662.03
527.53	57549.09
527.70	57638.03
527.87	57083.33
528.04	56935.87
528.21	57303.34
528.38	58145.93
528.55	58497.01
528.72	58768.51
528.89	59063.42
529.07	58454.88
529.24	57996.13
529.41	57242.48
529.58	56757.99
529.75	56933.53
529.92	57368.87
530.09	57759.74
530.26	58213.80
530.43	58489.99
530.60	58269.98
530.77	58581.27
530.94	58761.49
531.11	58466.58
531.28	57909.53
531.46	57755.06
531.63	58113.16
531.80	57689.52
531.97	57387.60
532.14	56598.83
532.31	55393.46
532.48	55009.61
532.65	55028.34
532.82	56240.73
532.99	57125.46
533.16	57371.21
533.33	57942.30
533.50	57684.84
533.67	57064.60
533.84	56643.30
534.01	56994.39
534.18	57319.72
534.35	57254.18
534.52	57230.78
534.69	57469.51
534.86	57755.06
535.03	57979.75
535.20	58508.71
535.37	58965.12
535.54	58932.35
535.71	58464.24
535.88	58103.80
536.05	57584.20
536.22	57195.67
536.38	56708.84
536.55	56357.76
536.72	55870.93
536.89	56147.11
537.06	56678.41
537.23	57638.03
537.40	57638.03
537.57	57764.42
537.74	57469.51
537.91	57366.53
538.08	57614.63
538.25	57474.20
538.42	57741.02
538.59	57207.37
538.75	56612.88
538.92	56563.73
539.09	56446.70
539.26	55976.25
539.43	56076.90
539.60	56399.89
539.77	56100.30
539.94	56257.12
540.11	55325.58
540.28	55025.99
540.44	55154.72
540.61	55412.18
540.78	55746.88
540.95	55917.74
541.12	56404.57
541.29	56769.69
541.46	56774.37
541.62	56879.70
541.79	56636.28
541.96	56257.12
542.13	56299.25
542.30	56397.55
542.47	56793.10
542.63	56189.24
542.80	56245.41
542.97	56488.83
543.14	56301.59
543.31	56423.29
543.48	56765.01
543.64	57492.92
543.81	57825.28
543.98	57722.29
544.15	56844.59
544.32	56706.50
544.48	56753.31
544.65	56860.97
544.82	57268.23
544.99	57059.92
545.16	56739.27
545.32	56273.50
545.49	57474.20
545.66	57602.92
545.83	57148.86
546.00	56933.53
546.16	56449.04
546.33	56526.28
546.50	56573.09
546.67	56956.94
546.83	56439.68
547.00	56484.15
547.17	55679.00
547.34	55419.20
547.50	55419.20
547.67	56013.70
547.84	55810.07
548.00	56296.91
548.17	56870.34
548.34	56748.63
548.51	56647.99
548.67	56767.35
548.84	56739.27
549.01	56575.43
549.18	56718.20
549.34	56273.50
549.51	56322.65
549.68	56427.98
549.84	56023.06
550.01	55901.36
550.18	56016.04
550.34	55896.67
550.51	56214.99
550.68	56254.78
550.84	55370.05
551.01	55580.70
551.18	55920.08
551.34	55994.98
551.51	56271.16
551.68	56456.06
551.84	56594.15
552.01	56444.36
552.18	56154.13
552.34	55430.91
552.51	55393.46
552.68	54988.55
552.84	55470.70
553.01	55891.99
553.18	55772.63
553.34	55994.98
553.51	56051.15
553.67	56423.29
553.84	56292.22
554.01	55978.59
554.17	56079.24
554.34	56240.73
554.51	56135.41
554.67	56722.88
554.84	56530.96
555.00	55863.91
555.17	55765.60
555.33	55838.16
555.50	55774.97
555.67	55765.60
555.83	55519.85
556.00	55009.61
556.16	55381.76
556.33	55021.31
556.50	54747.47
556.66	54787.26
556.83	54651.51
556.99	54719.38
557.16	55023.65
557.32	54974.50
557.49	55320.90
557.65	55107.91
557.82	55313.88
557.98	54864.50
558.15	54342.56
558.32	53551.46
558.48	52587.16
558.65	53282.30
558.81	53745.72
558.98	53811.26
559.14	54094.46
559.31	53900.20
559.47	54010.20
559.64	53841.68
559.80	53352.51
559.97	53516.35
560.13	54057.01
560.30	54890.24
560.46	55217.92
560.63	55196.85
560.79	55632.19
560.96	55117.28
561.12	53947.01
561.29	53212.08
561.45	53233.14
561.61	53731.68
561.78	54461.93
561.94	53790.19
562.11	54000.84
562.27	54080.42
562.44	54227.87
562.60	54450.22
562.77	54749.81
562.93	54798.96
563.10	54525.12
563.26	53944.67
563.42	54195.10
563.59	53762.11
563.75	53792.53
563.92	53677.85
564.08	53869.77
564.24	54099.14
564.41	53991.48
564.57	53996.16
564.74	53827.64
564.90	53832.32
565.07	53455.50
565.23	53155.91
565.39	52552.05
565.56	52411.62
565.72	52247.78
565.88	52589.50
566.05	52587.16
566.21	52856.32
566.38	52987.39
566.54	52849.30
566.70	53567.84
566.87	53565.50
567.03	53778.49
567.19	53982.12
567.36	53883.81
567.52	53722.32
567.68	52985.05
567.85	52371.83
568.01	52266.50
568.17	51569.02
568.34	51725.84
568.50	51927.13
568.66	51978.62
568.83	52140.11
568.99	52182.24
569.15	52662.05
569.32	52783.76
569.48	52432.68
569.64	52383.53
569.81	52004.36
569.97	51966.91
570.13	51723.50
570.30	51054.11
570.46	50679.62
570.62	49797.24
570.78	49827.66
570.95	50071.08
571.11	51007.29
571.27	51459.02
571.43	51730.52
571.60	51639.24
571.76	52442.04
571.92	52594.18
572.09	52648.01
572.25	52690.14
572.41	52425.66
572.57	52247.78
572.74	52392.89
572.90	51887.34
573.06	51723.50
573.22	51784.35
573.38	51922.44
573.55	51739.88
573.71	51950.53
573.87	51828.82
574.03	51426.25
574.20	51414.55
574.36	51114.96
574.52	50946.44
574.68	50766.22
574.84	50527.48
575.01	50021.93
575.17	50031.29
575.33	50363.65
575.49	50745.15
575.65	50927.72
575.82	50508.76
575.98	50312.16
576.14	50436.20
576.30	50773.24
576.46	50960.48
576.62	51121.98
576.79	50908.99
576.95	50560.25
577.11	50721.75
577.27	50459.61
577.43	50639.83
577.59	50064.06
577.75	49787.88
577.92	49151.25
578.08	48800.17
578.24	48786.13
578.40	49078.69
578.56	49401.69
578.72	49537.44
578.88	49858.09
579.04	49794.90
579.21	50117.89
579.37	50131.93
579.53	50373.01
579.69	50368.33
579.85	50234.92
580.01	50003.20
580.17	49329.13
580.33	49408.71
580.49	49605.31
580.65	50054.70
580.82	50267.69
580.98	50171.72
581.14	49930.65
581.30	50394.07
581.46	49947.03
581.62	50078.10
581.78	50038.31
581.94	50534.51
582.10	50199.81
582.26	50883.25
582.42	50314.50
582.58	50717.07
582.74	50717.07
582.90	50630.47
583.06	50232.58
583.22	50124.91
583.38	49801.92
583.54	49846.39
583.70	49586.59
583.86	50157.68
584.02	49661.49
584.18	49979.80
584.34	49954.05
584.50	49982.14
584.66	49591.27
584.82	49401.69
584.98	49214.44
585.14	48788.47
585.30	48016.09
