SpectraSuite Data File
++++++++++++++++++++++++++++++++++++
Date: Mon Oct 07 14:53:49 GMT-05:00 2013
User: price-jones
Dark Spectrum Present: No
Reference Spectrum Present: No
Number of Sampled Component Spectra: 1
Spectrometers: USB2+H05261
Integration Time (usec): 100000 (USB2+H05261)
Spectra Averaged: 1 (USB2+H05261)
Boxcar Smoothing: 0 (USB2+H05261)
Correct for Electrical Dark: No (USB2+H05261)
Strobe/Lamp Enabled: No (USB2+H05261)
Correct for Detector Non-linearity: No (USB2+H05261)
Correct for Stray Light: No (USB2+H05261)
Number of Pixels in Processed Spectrum: 2048
>>>>>Begin Processed Spectral Data<<<<<
365.73	0.00
365.92	0.00
366.12	0.00
366.32	0.00
366.52	0.00
366.72	0.00
366.91	0.00
367.11	0.00
367.31	0.00
367.51	0.00
367.70	0.00
367.90	0.00
368.10	0.00
368.30	0.00
368.49	0.00
368.69	0.00
368.89	0.00
369.09	0.00
369.28	0.00
369.48	0.00
369.68	0.00
369.87	0.00
370.07	0.00
370.27	0.00
370.47	585.13
370.66	2757.15
370.86	3281.43
371.06	3728.47
371.25	3723.79
371.45	3311.86
371.65	2953.76
371.84	2637.78
372.04	2892.90
372.24	3197.17
372.44	3396.12
372.63	3358.67
372.83	3141.00
373.03	2722.04
373.22	2647.15
373.42	2588.63
373.62	3066.10
373.81	3407.82
374.01	3414.84
374.21	3056.74
374.40	2710.34
374.60	2855.45
374.79	3297.81
374.99	3763.58
375.19	4156.79
375.38	4093.60
375.58	3932.10
375.78	3962.53
375.97	3861.88
376.17	4121.68
376.37	4067.85
376.56	4212.96
376.76	4271.48
376.95	4603.83
377.15	4896.40
377.35	5142.16
377.54	5408.98
377.74	5451.11
377.93	5614.95
378.13	5298.97
378.33	5385.57
378.52	4791.08
378.72	4526.60
378.91	4472.76
379.11	4292.54
379.31	4191.90
379.50	4156.79
379.70	4533.62
379.89	4924.49
380.09	5219.39
380.28	5408.98
380.48	5397.28
380.68	5364.51
380.87	5263.86
381.07	4870.65
381.26	4475.10
381.46	4194.24
381.65	4030.40
381.85	3824.44
382.04	3669.96
382.24	3421.86
382.43	3288.45
382.63	3335.26
382.83	3260.37
383.02	3279.09
383.22	3342.28
383.41	3339.94
383.61	3583.36
383.80	4056.15
384.00	4617.88
384.19	5104.71
384.39	5483.88
384.58	5425.36
384.78	5231.10
384.97	5270.89
385.17	5100.03
385.36	4748.95
385.56	4545.32
385.75	4795.76
385.95	5097.69
386.14	5668.78
386.34	5626.65
386.53	5242.80
386.72	5041.51
386.92	5013.43
387.11	5373.87
387.31	5682.82
387.50	5458.13
387.70	5289.61
387.89	5313.02
388.09	5273.23
388.28	5305.99
388.48	5561.11
388.67	5830.27
388.86	6197.74
389.06	6745.42
389.25	7002.88
389.45	7335.24
389.64	7260.34
389.84	7454.61
390.03	7131.61
390.22	7063.74
390.42	7152.68
390.61	7798.66
390.81	8070.17
391.00	8578.06
391.19	8212.94
391.39	7992.93
391.58	7660.57
391.78	7171.40
391.97	6726.70
392.16	6277.32
392.36	5987.09
392.55	4772.35
392.75	3911.04
392.94	3047.38
393.13	3000.57
393.33	3466.33
393.52	4542.98
393.71	5556.43
393.91	6387.32
394.10	6953.73
394.29	7555.25
394.49	7943.78
394.68	8823.82
394.88	8788.71
395.07	9074.26
395.26	8828.50
395.46	8734.88
395.65	8205.92
395.84	7365.67
396.04	6047.94
396.23	4851.93
396.42	4067.85
396.62	3990.61
396.81	4486.81
397.00	5996.45
397.19	7398.43
397.39	8662.32
397.58	9856.00
397.77	10558.16
397.97	10925.62
398.16	11026.26
398.35	11452.24
398.55	11796.30
398.74	12353.35
398.93	12461.01
399.12	12109.93
399.32	11859.49
399.51	12044.40
399.70	12971.25
399.90	12685.70
400.09	13006.36
400.28	12601.44
400.47	12800.39
400.67	13406.59
400.86	13977.68
401.05	13748.31
401.24	13982.36
401.44	13942.57
401.63	13935.55
401.82	13881.72
402.01	14260.88
402.21	14277.27
402.40	14169.60
402.59	13942.57
402.78	13420.63
402.97	12800.39
403.17	13612.56
403.36	14270.25
403.55	14869.42
403.74	15122.20
403.93	14417.70
404.13	13474.46
404.32	13088.28
404.51	13509.57
404.70	14565.15
404.89	14466.85
405.09	14235.14
405.28	13991.72
405.47	13870.01
405.66	14003.43
405.85	13626.60
406.05	13284.88
406.24	13165.51
406.43	13682.77
406.62	14377.91
406.81	14831.97
407.00	14204.71
407.20	13837.25
407.39	14064.28
407.58	14647.07
407.77	14979.43
407.96	15433.49
408.15	15749.46
408.34	15775.21
408.54	16393.11
408.73	16751.21
408.92	16301.83
409.11	15936.71
409.30	15054.33
409.49	14253.86
409.68	13544.68
409.87	12924.44
410.07	13764.69
410.26	14904.53
410.45	15697.97
410.64	15864.15
410.83	16547.59
411.02	16926.75
411.21	17827.86
411.40	17518.91
411.59	17544.66
411.78	17373.80
411.98	16943.14
412.17	17404.22
412.36	17193.58
412.55	16985.27
412.74	16964.20
412.93	16489.07
413.12	16346.30
413.31	18235.11
413.50	18321.71
413.69	19002.81
413.88	18230.43
414.07	17575.08
414.26	17577.42
414.45	18106.38
414.64	18352.14
414.83	18597.90
415.02	17912.12
415.22	18008.08
415.41	18686.84
415.60	18881.10
415.79	19580.92
415.98	20030.30
416.17	19974.13
416.36	19885.19
416.55	19454.53
416.74	18960.68
416.93	17951.91
417.12	18293.63
417.31	18459.81
417.50	18565.13
417.69	19344.53
417.88	19403.04
418.07	19101.11
418.26	18651.73
418.45	18918.55
418.64	19695.61
418.83	20435.22
419.02	20074.77
419.21	19889.87
419.39	19199.41
419.58	18284.26
419.77	17996.38
419.96	19381.98
420.15	19969.45
420.34	20585.01
420.53	21303.56
420.72	21839.54
420.91	21568.04
421.10	21242.70
421.29	21303.56
421.48	20521.82
421.67	21315.26
421.86	20772.25
422.05	19686.25
422.24	17373.80
422.43	17006.33
422.61	18803.86
422.80	20386.07
422.99	20779.28
423.18	20081.80
423.37	19658.16
423.56	19613.69
423.75	19929.66
423.94	20102.86
424.13	19014.51
424.32	19288.35
424.50	19349.21
424.69	19171.33
424.88	19208.78
425.07	18981.74
425.26	19187.71
425.45	19049.62
425.64	18155.54
425.83	18532.36
426.01	19716.67
426.20	20297.13
426.39	20255.00
426.58	18546.40
426.77	17083.57
426.96	16489.07
427.15	17394.86
427.33	18838.97
427.52	19620.71
427.71	19686.25
427.90	19377.30
428.09	18759.39
428.28	18644.71
428.46	18106.38
428.65	17600.83
428.84	18073.62
429.03	18579.17
429.22	17350.39
429.40	16655.25
429.59	15056.67
429.78	13453.40
429.97	12996.99
430.16	13561.06
430.34	13954.27
430.53	13586.81
430.72	13872.36
430.91	15440.51
431.10	17757.64
431.28	21233.34
431.47	22745.33
431.66	23304.71
431.85	21170.15
432.03	19452.19
432.22	18443.42
432.41	19428.79
432.60	21448.67
432.79	22321.69
432.97	22799.16
433.16	22525.32
433.35	20381.38
433.54	18279.58
433.72	17350.39
433.91	17539.97
434.10	19843.06
434.28	21097.59
434.47	22239.77
434.66	21827.84
434.85	21514.20
435.03	21326.96
435.22	21947.20
435.41	23349.18
435.59	23271.95
435.78	23477.91
435.97	23957.72
436.16	24418.81
436.34	23854.74
436.53	23428.76
436.72	23557.49
436.90	22122.74
437.09	22099.34
437.28	21876.99
437.46	22689.15
437.65	22473.82
437.84	21149.08
438.02	19248.57
438.21	19267.29
438.40	20088.82
438.58	21900.39
438.77	22911.50
438.96	22679.79
439.14	23927.30
439.33	24247.95
439.52	24556.90
439.70	23981.13
439.89	23477.91
440.08	22801.50
440.26	22649.36
440.45	23503.66
440.63	24938.41
440.82	26511.25
441.01	26024.42
441.19	26010.37
441.38	26424.65
441.57	27501.29
441.75	27814.93
441.94	27763.43
442.12	27496.61
442.31	28290.06
442.50	28158.99
442.68	27742.37
442.87	27206.39
443.05	26888.07
443.24	27278.94
443.43	28030.26
443.61	28278.35
443.80	28954.77
443.98	27007.44
444.17	27190.00
444.35	28886.89
444.54	29369.04
444.73	29078.82
444.91	27716.62
445.10	26445.71
445.28	25563.33
445.47	24809.68
445.65	25188.85
445.84	25818.45
446.02	27023.83
446.21	27056.59
446.39	27197.02
446.58	27613.64
446.77	28243.24
446.95	28336.87
447.14	29001.58
447.32	29692.04
447.51	28788.59
447.69	28009.19
447.88	27262.56
448.06	27894.50
448.25	28900.94
448.43	28907.96
448.62	27929.61
448.80	27875.78
448.99	28531.13
449.17	28334.53
449.36	28379.00
449.54	29656.93
449.73	29736.51
449.91	30433.99
450.10	31220.41
450.28	31522.34
450.46	31655.75
450.65	31578.51
450.83	31026.14
451.02	30684.42
451.20	30052.48
451.39	30455.05
451.57	30244.40
451.76	30326.32
451.94	29717.78
452.13	29523.52
452.31	27995.15
452.49	26857.65
452.68	27388.95
452.86	27040.21
453.05	27735.35
453.23	27800.88
453.42	28643.48
453.60	29876.94
453.78	29923.75
453.97	29673.31
454.15	29970.56
454.34	29106.90
454.52	28903.28
454.70	28683.27
454.89	28828.38
455.07	29167.76
455.26	29567.99
455.44	31051.89
455.62	30866.98
455.81	31557.44
455.99	31087.00
456.17	30478.46
456.36	30799.11
456.54	31838.31
456.73	31599.57
456.91	32114.49
457.09	32393.01
457.28	32760.48
457.46	31772.77
457.64	31234.45
457.83	30394.20
458.01	29783.32
458.19	30071.20
458.38	30841.24
458.56	31824.26
458.74	31510.63
458.93	31000.40
459.11	31208.70
459.29	30377.81
459.48	31152.53
459.66	30600.16
459.84	30969.97
460.03	31641.70
460.21	31246.15
460.39	31974.06
460.57	32044.27
460.76	32943.04
460.94	32772.18
461.12	32109.81
461.31	32659.84
461.49	32158.96
461.67	32451.53
461.85	33216.88
462.04	33132.62
462.22	33050.70
462.40	32931.34
462.59	33209.86
462.77	32994.53
462.95	32943.04
463.13	32643.45
463.32	32301.73
463.50	32041.93
463.68	32320.46
463.86	32566.21
464.05	31840.65
464.23	31276.58
464.41	30930.18
464.59	29935.45
464.78	31978.74
464.96	32210.45
465.14	31061.25
465.32	32610.68
465.50	33125.60
465.69	33249.65
465.87	32830.69
466.05	32203.43
466.23	30661.02
466.41	30155.46
466.60	30497.18
466.78	30579.10
466.96	31173.60
467.14	31854.69
467.32	32582.60
467.51	32245.56
467.69	31075.29
467.87	31725.96
468.05	31915.54
468.23	31922.57
468.41	32142.58
468.60	31971.72
468.78	32706.65
468.96	31967.04
469.14	32540.47
469.32	32634.09
469.50	31477.86
469.69	31756.39
469.87	31269.56
470.05	30646.97
470.23	31180.62
470.41	31225.09
470.59	31562.12
470.77	31831.29
470.95	32381.31
471.14	33081.13
471.32	33092.83
471.50	34295.87
471.68	34370.77
471.86	34780.36
472.04	35079.95
472.22	34714.83
472.40	33420.51
472.58	33034.32
472.77	32950.06
472.95	33376.04
473.13	34309.91
473.31	33315.19
473.49	33633.50
473.67	34340.34
473.85	34562.69
474.03	35353.79
474.21	35154.85
474.39	35835.94
474.57	35828.92
474.75	35594.87
474.93	35618.27
475.12	35171.23
475.30	34742.91
475.48	34932.50
475.66	35541.03
475.84	35302.30
476.02	34342.68
476.20	34382.47
476.38	34696.10
476.56	36238.51
476.74	36655.13
476.92	36554.49
477.10	36840.03
477.28	38410.53
477.46	37926.04
477.64	38485.43
477.82	38806.08
478.00	38906.73
478.18	38029.02
478.36	38213.93
478.54	37839.44
478.72	38277.12
478.90	39222.70
479.08	40397.65
479.26	40580.21
479.44	41088.10
479.62	40243.17
479.80	40591.91
479.98	40275.94
480.16	40964.06
480.34	40533.40
480.52	40835.33
480.70	41193.43
480.88	41287.05
481.06	41949.42
481.24	42164.75
481.41	43159.48
481.59	43859.30
481.77	43599.50
481.95	43311.61
482.13	42646.90
482.31	42759.25
482.49	43510.56
482.67	43318.64
482.85	43358.42
483.03	43971.64
483.21	44533.37
483.39	44540.39
483.57	43906.11
483.74	43718.87
483.92	43487.15
484.10	43772.70
484.28	45118.51
484.46	45408.73
484.64	46188.13
484.82	44830.62
485.00	44322.72
485.18	43405.23
485.35	42457.32
485.53	39115.03
485.71	35711.89
485.89	35515.29
486.07	37156.00
486.25	40266.58
486.43	42492.43
486.61	43210.97
486.78	43459.07
486.96	43178.20
487.14	45193.40
487.32	45890.88
487.50	47178.18
487.68	48055.88
487.85	48563.78
488.03	48708.89
488.21	48200.99
488.39	47009.66
488.57	46773.27
488.75	46141.32
488.92	47480.11
489.10	49907.24
489.28	51119.64
489.46	51641.58
489.64	51557.32
489.81	51786.69
489.99	51592.43
490.17	51524.55
490.35	51969.26
490.53	51664.99
490.70	51084.53
490.88	50761.54
491.06	51906.06
491.24	52186.92
491.41	50864.52
491.59	48938.26
491.77	48093.33
491.95	49378.28
492.13	50829.41
492.30	51812.44
492.48	52760.36
492.66	53455.50
492.84	53497.62
493.01	53331.45
493.19	52397.57
493.37	52009.04
493.54	51861.59
493.72	52566.09
493.90	53682.53
494.08	54438.52
494.25	54588.31
494.43	54976.84
494.61	55473.04
494.79	55657.94
494.96	55330.26
495.14	54768.54
495.32	53591.25
495.49	52807.17
495.67	54218.51
495.85	55447.29
496.02	55686.03
496.20	55704.75
496.38	55154.72
496.55	54841.09
496.73	55604.11
496.91	55519.85
497.09	56420.95
497.26	56381.16
497.44	55955.19
497.62	55206.22
497.79	54780.24
497.97	53551.46
498.14	53085.69
498.32	54326.17
498.50	55599.43
498.67	56250.09
498.85	56214.99
499.03	56123.71
499.20	56453.72
499.38	56362.44
499.56	56310.95
499.73	55812.41
499.91	55283.45
500.08	55030.68
500.26	54394.05
500.44	54499.37
500.61	55531.55
500.79	55117.28
500.97	54770.88
501.14	54401.07
501.32	54349.58
501.49	54515.76
501.67	54761.51
501.84	55217.92
502.02	55510.49
502.20	55796.03
502.37	55887.31
502.55	55835.82
502.72	56577.77
502.90	56982.68
503.07	56774.37
503.25	56376.48
503.43	55475.38
503.60	54831.73
503.78	54057.01
503.95	54738.11
504.13	56107.32
504.30	56767.35
504.48	56521.60
504.65	56273.50
504.83	56268.82
505.01	56970.98
505.18	57104.39
505.36	58005.50
505.53	57965.71
505.71	58178.70
505.88	58092.10
506.06	57645.05
506.23	57322.06
506.41	56725.22
506.58	57092.69
506.76	57139.50
506.93	56985.02
507.11	56807.14
507.28	56910.13
507.46	56540.32
507.63	55697.73
507.81	55627.51
507.98	55917.74
508.16	56690.12
508.33	57165.24
508.50	57366.53
508.68	57984.43
508.85	58284.02
509.03	58089.76
509.20	58232.53
509.38	57513.98
509.55	56622.24
509.73	56720.54
509.90	57144.18
510.08	57352.49
510.25	57549.09
510.42	57291.63
510.60	57045.88
510.77	57401.64
510.95	57930.60
511.12	58225.51
511.30	58464.24
511.47	58672.55
511.64	58450.20
511.82	58241.89
511.99	57567.82
512.17	57008.43
512.34	56690.12
512.51	57050.56
512.69	57045.88
512.86	57296.31
513.04	57546.75
513.21	57406.32
513.38	57235.46
513.56	56846.93
513.73	56189.24
513.90	56425.64
514.08	56547.34
514.25	56631.60
514.43	56804.80
514.60	57186.31
514.77	57188.65
514.95	57256.53
515.12	57237.80
515.29	57443.77
515.47	57937.62
515.64	58129.54
515.81	57649.74
515.99	57118.43
516.16	55597.09
516.33	53343.15
516.51	51929.47
516.68	50864.52
516.85	50457.27
517.03	51026.02
517.20	53717.64
517.37	56069.87
517.54	57354.83
517.72	56858.63
517.89	54504.06
518.06	51622.86
518.24	51786.69
518.41	54232.55
518.58	55824.12
518.75	56072.21
518.93	56193.92
519.10	55936.46
519.27	56624.58
519.45	56699.48
519.62	57567.82
519.79	57783.15
519.96	57467.17
520.14	57221.42
520.31	56296.91
520.48	56231.37
520.65	56671.39
520.83	57516.32
521.00	57930.60
521.17	57546.75
521.34	57139.50
521.52	57684.84
521.69	57886.13
521.86	58560.20
522.03	57986.77
522.20	57029.49
522.38	55870.93
522.55	56002.00
522.72	56446.70
522.89	56699.48
523.07	57097.37
523.24	57359.51
523.41	58080.39
523.58	58555.52
523.75	58913.62
523.92	58649.14
524.10	58796.60
524.27	58513.39
524.44	58293.38
524.61	58152.95
524.78	57886.13
524.96	57872.09
525.13	57951.66
525.30	58305.09
525.47	58656.17
525.64	58478.28
525.81	57733.99
525.98	56655.01
526.16	54965.14
526.33	54223.19
526.50	54237.23
526.67	53221.44
526.84	54248.94
527.01	55643.90
527.18	55957.53
527.36	56994.39
527.53	57916.56
527.70	58197.42
527.87	57771.44
528.04	56994.39
528.21	57668.46
528.38	58230.19
528.55	58822.34
528.72	59117.25
528.89	59325.56
529.07	58993.20
529.24	58370.62
529.41	57581.86
529.58	57125.46
529.75	57146.52
529.92	57403.98
530.09	57958.69
530.26	58511.05
530.43	58887.88
530.60	58702.98
530.77	58878.52
530.94	59269.39
531.11	58614.04
531.28	58375.30
531.46	57923.58
531.63	58108.48
531.80	58164.65
531.97	57577.18
532.14	56919.49
532.31	55929.44
532.48	55154.72
532.65	55496.44
532.82	56435.00
532.99	57511.64
533.16	57829.96
533.33	58328.49
533.50	57984.43
533.67	57347.81
533.84	56905.44
534.01	57350.15
534.18	57481.22
534.35	57607.61
534.52	57528.03
534.69	57897.83
534.86	57804.21
535.03	58232.53
535.20	58387.00
535.37	58976.82
535.54	59253.00
535.71	59011.93
535.88	58454.88
536.05	57710.59
536.22	57319.72
536.38	57132.48
536.55	56573.09
536.72	55894.33
536.89	55952.85
537.06	56879.70
537.23	57509.30
537.40	57925.92
537.57	57890.81
537.74	57703.57
537.91	57609.95
538.08	57687.18
538.25	57698.89
538.42	57944.64
538.59	57961.03
538.75	56942.89
538.92	56779.06
539.09	56622.24
539.26	56306.27
539.43	56327.33
539.60	56081.58
539.77	56502.87
539.94	56308.61
540.11	55856.88
540.28	55320.90
540.44	55229.62
540.61	55615.81
540.78	55667.30
540.95	56165.84
541.12	56680.75
541.29	56781.40
541.46	57080.98
541.62	57420.36
541.79	56996.73
541.96	56348.40
542.13	56371.80
542.30	56795.44
542.47	56875.02
542.63	56566.07
542.80	56411.59
542.97	56732.25
543.14	56378.82
543.31	56439.68
543.48	56982.68
543.64	57640.37
543.81	58038.26
543.98	57916.56
544.15	57183.97
544.32	56420.95
544.48	56568.41
544.65	57102.05
544.82	57450.79
544.99	57162.90
545.16	56776.72
545.32	56425.64
545.49	57490.58
545.66	57806.55
545.83	57429.72
546.00	56783.74
546.16	56516.92
546.33	56554.36
546.50	56715.86
546.67	57174.61
546.83	56505.21
547.00	56793.10
547.17	56006.68
547.34	55636.87
547.50	55065.78
547.67	56062.85
547.84	56032.42
548.00	56467.76
548.17	56966.30
548.34	56633.94
548.51	56619.90
548.67	56535.64
548.84	56769.69
549.01	56570.75
549.18	56694.80
549.34	56530.96
549.51	56601.18
549.68	56463.08
549.84	56254.78
550.01	55941.14
550.18	55763.26
550.34	56212.65
550.51	56299.25
550.68	56250.09
550.84	55725.81
551.01	55817.10
551.18	55985.61
551.34	56011.36
551.51	56392.87
551.68	56537.98
551.84	56755.65
552.01	56507.55
552.18	56329.67
552.34	55522.19
552.51	55075.15
552.68	54997.91
552.84	55625.17
553.01	55866.25
553.18	55894.33
553.34	55814.76
553.51	55903.70
553.67	56212.65
553.84	56498.19
554.01	56154.13
554.17	56086.26
554.34	56055.83
554.51	56278.18
554.67	56657.35
554.84	56292.22
555.00	55889.65
555.17	55798.37
555.33	55774.97
555.50	55590.06
555.67	56086.26
555.83	55650.92
556.00	55519.85
556.16	55154.72
556.33	54731.09
556.50	54852.80
556.66	54688.96
556.83	54333.20
556.99	54667.89
557.16	54728.75
557.32	55189.83
557.49	55370.05
557.65	55262.39
557.82	55281.11
557.98	54953.44
558.15	54335.54
558.32	53865.09
558.48	53057.60
558.65	52919.51
558.81	53202.72
558.98	53773.81
559.14	53975.09
559.31	53961.05
559.47	54143.61
559.64	53790.19
559.80	53298.68
559.97	53308.04
560.13	53734.02
560.30	54752.15
560.46	55344.31
560.63	55508.14
560.79	55356.01
560.96	54756.83
561.12	53876.79
561.29	53282.30
561.45	53270.59
561.61	53588.91
561.78	54237.23
561.94	54024.25
562.11	54052.33
562.27	53935.30
562.44	54227.87
562.60	54419.80
562.77	54571.93
562.93	54295.75
563.10	54124.89
563.26	53729.34
563.42	53855.73
563.59	53509.33
563.75	53715.29
563.92	53834.66
564.08	53560.82
564.24	54045.31
564.41	53825.30
564.57	53963.39
564.74	53572.52
564.90	53499.97
565.07	53291.66
565.23	53265.91
565.39	52444.38
565.56	52299.27
565.72	52102.67
565.88	52603.54
566.05	52315.65
566.21	52863.34
566.38	52753.33
566.54	52992.07
566.70	53483.58
566.87	53638.06
567.03	53598.27
567.19	54075.74
567.36	53354.85
567.52	53434.43
567.68	53097.39
567.85	52367.15
568.01	52039.47
568.17	51508.17
568.34	51592.43
568.50	51608.81
568.66	51477.74
568.83	52072.24
568.99	52240.76
569.15	52596.52
569.32	52381.19
569.48	52280.55
569.64	51606.47
569.81	51538.60
569.97	51782.01
570.13	51295.18
570.30	50894.95
570.46	50447.91
570.62	49918.95
570.78	49560.84
570.95	50073.42
571.11	50946.44
571.27	50782.60
571.43	51201.56
571.60	51639.24
571.76	51868.61
571.92	52121.39
572.09	52196.29
572.25	52126.07
572.41	52165.86
572.57	51880.31
572.74	51826.48
572.90	51334.97
573.06	51271.78
573.22	51840.53
573.38	51662.64
573.55	51540.94
573.71	51700.09
573.87	51562.00
574.03	51430.93
574.20	51166.45
574.36	50972.19
574.52	50834.10
574.68	50782.60
574.84	50321.52
575.01	50012.57
575.17	49624.04
575.33	49944.69
575.49	50398.76
575.65	50326.20
575.82	50237.26
575.98	49881.50
576.14	50155.34
576.30	50927.72
576.46	50742.81
576.62	50855.16
576.79	50600.04
576.95	49984.48
577.11	49914.26
577.27	50244.28
577.43	50394.07
577.59	49776.17
577.75	49364.24
577.92	48633.99
578.08	48376.53
578.24	48538.03
578.40	48900.81
578.56	49544.46
578.72	49315.09
578.88	49242.53
579.04	49839.37
579.21	49752.77
579.37	50064.06
579.53	49783.19
579.69	49867.45
579.85	50190.45
580.01	49628.72
580.17	49263.60
580.33	49371.26
580.49	49509.35
580.65	49588.93
580.82	49825.32
580.98	49607.65
581.14	49631.06
581.30	49874.48
581.46	49315.09
581.62	49804.26
581.78	49750.43
581.94	50000.86
582.10	49460.20
582.26	50082.78
582.42	50031.29
582.58	50059.38
582.74	49806.60
582.90	49853.41
583.06	49851.07
583.22	49488.29
583.38	49553.82
583.54	49705.96
583.70	49610.00
583.86	49336.15
584.02	49591.27
584.18	49450.84
584.34	49289.34
584.50	48989.75
584.66	48673.78
584.82	48774.42
584.98	48561.44
585.14	48130.78
585.30	47248.39
