SpectraSuite Data File
++++++++++++++++++++++++++++++++++++
Date: Mon Oct 07 14:53:21 GMT-05:00 2013
User: price-jones
Dark Spectrum Present: No
Reference Spectrum Present: No
Number of Sampled Component Spectra: 1
Spectrometers: USB2+H05261
Integration Time (usec): 100000 (USB2+H05261)
Spectra Averaged: 1 (USB2+H05261)
Boxcar Smoothing: 0 (USB2+H05261)
Correct for Electrical Dark: No (USB2+H05261)
Strobe/Lamp Enabled: No (USB2+H05261)
Correct for Detector Non-linearity: No (USB2+H05261)
Correct for Stray Light: No (USB2+H05261)
Number of Pixels in Processed Spectrum: 2048
>>>>>Begin Processed Spectral Data<<<<<
365.73	0.00
365.92	0.00
366.12	0.00
366.32	0.00
366.52	0.00
366.72	0.00
366.91	0.00
367.11	0.00
367.31	0.00
367.51	0.00
367.70	0.00
367.90	0.00
368.10	0.00
368.30	0.00
368.49	0.00
368.69	0.00
368.89	0.00
369.09	0.00
369.28	0.00
369.48	0.00
369.68	0.00
369.87	0.00
370.07	0.00
370.27	0.00
370.47	545.34
370.66	2850.77
370.86	3351.65
371.06	3634.85
371.25	3552.93
371.45	3314.20
371.65	2932.69
371.84	2724.38
372.04	2789.92
372.24	3372.71
372.44	3328.24
372.63	3321.22
372.83	3159.72
373.03	2722.04
373.22	2602.68
373.42	2764.17
373.62	3035.67
373.81	3332.92
374.01	3318.88
374.21	2956.10
374.40	2715.02
374.60	2747.79
374.79	3220.58
374.99	3831.46
375.19	4063.17
375.38	4166.15
375.58	3899.33
375.78	3859.54
375.97	3693.37
376.17	4035.08
376.37	4128.70
376.56	4121.68
376.76	4428.29
376.95	4503.19
377.15	4868.31
377.35	5170.24
377.54	5411.32
377.74	5507.28
377.93	5366.85
378.13	5195.99
378.33	4910.44
378.52	4674.05
378.72	4337.01
378.91	4447.02
379.11	4283.18
379.31	4187.22
379.50	4086.58
379.70	4500.85
379.89	4983.00
380.09	5303.65
380.28	5467.49
380.48	5352.81
380.68	5226.42
380.87	5198.33
381.07	4812.14
381.26	4395.53
381.46	4095.94
381.65	3957.85
381.85	3847.84
382.04	3667.62
382.24	3438.25
382.43	3279.09
382.63	3276.75
382.83	3218.24
383.02	3243.98
383.22	3332.92
383.41	3180.79
383.61	3375.05
383.80	4023.38
384.00	4503.19
384.19	5184.29
384.39	5226.42
384.58	5270.89
384.78	5139.82
384.97	5233.44
385.17	5048.54
385.36	4629.58
385.56	4470.42
385.75	4585.11
385.95	4973.64
386.14	5547.07
386.34	5671.12
386.53	5334.08
386.72	4999.38
386.92	4912.78
387.11	5369.19
387.31	5451.11
387.50	5451.11
387.70	5146.84
387.89	5144.50
388.09	5313.02
388.28	5132.79
388.48	5338.76
388.67	5816.23
388.86	6209.44
389.06	6581.59
389.25	7197.15
389.45	7267.36
389.64	6923.30
389.84	6984.16
390.03	6841.39
390.22	6998.20
390.42	7274.38
390.61	7681.64
390.81	8177.83
391.00	8166.13
391.19	8257.41
391.39	8021.02
391.58	7400.77
391.78	7049.69
391.97	6815.64
392.16	6438.81
392.36	5956.66
392.55	4657.67
392.75	3765.92
392.94	3098.87
393.13	2988.86
393.33	3412.50
393.52	4451.70
393.71	5628.99
393.91	6415.41
394.10	6958.41
394.29	7566.95
394.49	7946.12
394.68	8692.75
394.88	8769.99
395.07	8999.36
395.26	8688.07
395.46	8624.87
395.65	8079.53
395.84	7232.26
396.04	6176.67
396.23	5238.12
396.42	4025.72
396.62	3859.54
396.81	4585.11
397.00	5886.45
397.19	7398.43
397.39	8645.94
397.58	9830.25
397.77	10511.35
397.97	10677.52
398.16	11056.69
398.35	11162.01
398.55	11468.62
398.74	11983.54
398.93	12657.62
399.12	12152.06
399.32	11892.26
399.51	12011.63
399.70	12819.11
399.90	12744.22
400.09	12671.66
400.28	12627.19
400.47	12671.66
400.67	13462.76
400.86	13769.37
401.05	13640.64
401.24	13664.05
401.44	13991.72
401.63	14246.84
401.82	14036.19
402.01	14143.86
402.21	14178.97
402.40	14303.01
402.59	13933.21
402.78	13085.94
402.97	12711.45
403.17	13205.30
403.36	14132.15
403.55	14684.52
403.74	14855.38
403.93	14347.48
404.13	13146.79
404.32	12781.67
404.51	13507.23
404.70	14579.20
404.89	14497.28
405.09	14288.97
405.28	13860.65
405.47	13855.97
405.66	13994.06
405.85	13493.19
406.05	13149.13
406.24	13341.05
406.43	13991.72
406.62	14335.78
406.81	14583.88
407.00	14099.39
407.20	13579.79
407.39	13874.70
407.58	14314.72
407.77	14796.87
407.96	15417.11
408.15	15569.24
408.34	15501.37
408.54	16409.50
408.73	16360.34
408.92	16046.71
409.11	15770.53
409.30	14883.47
409.49	14188.33
409.68	13294.24
409.87	12894.01
410.07	13813.84
410.26	14640.05
410.45	15522.43
410.64	15946.07
410.83	16336.94
411.02	16891.65
411.21	17479.12
411.40	17322.30
411.59	17458.06
411.78	17369.12
411.98	17006.33
412.17	17448.69
412.36	17097.61
412.55	17053.14
412.74	16596.74
412.93	16308.85
413.12	16556.95
413.31	17987.02
413.50	18214.05
413.69	18670.45
413.88	17853.61
414.07	17062.51
414.26	17500.19
414.45	17909.78
414.64	18160.22
414.83	18249.16
415.02	17762.33
415.22	17855.95
415.41	18321.71
415.60	18827.27
415.79	19744.76
415.98	19822.00
416.17	20456.28
416.36	19494.32
416.55	19026.21
416.74	18635.35
416.93	18043.19
417.12	18003.40
417.31	18445.76
417.50	18335.76
417.69	19140.90
417.88	19157.28
418.07	18801.52
418.26	18537.04
418.45	18813.23
418.64	19765.82
418.83	20423.51
419.02	20259.68
419.21	19964.77
419.39	19070.68
419.58	18031.49
419.77	18038.51
419.96	18881.10
420.15	20009.24
420.34	20425.86
420.53	21200.57
420.72	21483.78
420.91	21387.82
421.10	21039.08
421.29	20905.66
421.48	20105.20
421.67	21362.07
421.86	20507.77
422.05	19288.35
422.24	17481.46
422.43	17116.34
422.61	18497.25
422.80	20496.07
422.99	20830.77
423.18	19819.66
423.37	19339.85
423.56	19475.60
423.75	19707.31
423.94	20238.61
424.13	19211.12
424.32	19206.44
424.50	19559.86
424.69	19021.53
424.88	19346.87
425.07	18878.76
425.26	19150.26
425.45	18937.27
425.64	18635.35
425.83	18731.31
426.01	19754.12
426.20	20133.29
426.39	19836.04
426.58	18705.56
426.77	17125.70
426.96	16479.71
427.15	16868.24
427.33	18848.33
427.52	19286.01
427.71	19218.14
427.90	19264.95
428.09	19000.47
428.28	18469.17
428.46	18040.85
428.65	17886.37
428.84	18040.85
429.03	18450.44
429.22	17319.96
429.40	16404.81
429.59	14820.27
429.78	13048.49
429.97	13261.48
430.16	13411.27
430.34	13668.73
430.53	13437.02
430.72	13692.13
430.91	15136.24
431.10	18050.21
431.28	21284.83
431.47	22773.41
431.66	22965.34
431.85	20882.26
432.03	19304.74
432.22	18712.58
432.41	19550.49
432.60	21638.25
432.79	22246.79
432.97	22911.50
433.16	22190.62
433.35	20278.40
433.54	18410.65
433.72	17294.22
433.91	17603.17
434.10	19850.08
434.28	21242.70
434.47	22080.61
434.66	22106.36
434.85	21383.13
435.03	21273.13
435.22	21933.16
435.41	23260.24
435.59	23243.86
435.78	23751.76
435.97	24416.47
436.16	24180.07
436.34	23634.73
436.53	23466.21
436.72	23466.21
436.90	22576.81
437.09	22274.88
437.28	21956.57
437.46	22707.88
437.65	22342.75
437.84	20812.04
438.02	18857.70
438.21	18855.36
438.40	20580.33
438.58	22054.87
438.77	22532.34
438.96	22848.31
439.14	23924.96
439.33	24496.05
439.52	24638.82
439.70	24196.46
439.89	23267.27
440.08	22984.06
440.26	22672.77
440.45	23742.39
440.63	25055.43
440.82	26607.21
441.01	25790.36
441.19	25891.01
441.38	26202.30
441.57	27091.70
441.75	27316.39
441.94	27786.84
442.12	27381.93
442.31	27955.36
442.50	27779.82
442.68	27641.73
442.87	26906.80
443.05	26623.59
443.24	27363.20
443.43	27983.44
443.61	28697.31
443.80	28828.38
443.98	27402.99
444.17	27140.85
444.35	28922.00
444.54	29418.19
444.73	28641.14
444.91	27295.33
445.10	26504.23
445.28	25340.98
445.47	25085.86
445.65	25261.40
445.84	26054.84
446.02	26862.33
446.21	27307.03
446.39	27133.83
446.58	27648.75
446.77	27971.74
446.95	27936.63
447.14	29118.60
447.32	29663.95
447.51	29167.76
447.69	27913.23
447.88	27442.78
448.06	28039.62
448.25	28446.87
448.43	28800.29
448.62	28154.30
448.80	27969.40
448.99	28180.05
449.17	28535.81
449.36	28622.41
449.54	29612.46
449.73	30071.20
449.91	30010.35
450.10	31421.69
450.28	31391.26
450.46	31295.30
450.65	31658.09
450.83	31255.51
451.02	30487.82
451.20	30696.13
451.39	30312.28
451.57	30129.72
451.76	30024.39
451.94	30040.78
452.13	29607.78
452.31	28121.54
452.49	26569.76
452.68	27140.85
452.86	27323.41
453.05	27779.82
453.23	28521.77
453.42	29127.97
453.60	29720.12
453.78	30267.81
453.97	29701.40
454.15	30181.21
454.34	28900.94
454.52	28936.04
454.70	28882.21
454.89	29149.03
455.07	29032.00
455.26	29713.10
455.44	30675.06
455.62	31365.52
455.81	31323.39
455.99	31159.55
456.17	30675.06
456.36	30965.29
456.54	32137.90
456.73	31725.96
456.91	32039.59
457.09	32598.98
457.28	32811.97
457.46	31562.12
457.64	31789.16
457.83	30576.76
458.01	29799.70
458.19	30677.40
458.38	31124.44
458.56	31859.37
458.74	31854.69
458.93	31054.23
459.11	31094.02
459.29	30965.29
459.48	30974.65
459.66	30764.00
459.84	31321.05
460.03	31613.62
460.21	31147.85
460.39	32484.30
460.57	32404.72
460.76	32762.82
460.94	32734.73
461.12	32184.71
461.31	32409.40
461.49	32086.40
461.67	31821.92
461.85	33153.69
462.04	33242.63
462.22	33551.58
462.40	33177.09
462.59	32919.63
462.77	33336.25
462.95	33069.43
463.13	32947.72
463.32	32287.69
463.50	32121.51
463.68	32187.05
463.86	32816.65
464.05	32020.87
464.23	31358.50
464.41	31152.53
464.59	30553.35
464.78	32182.37
464.96	32034.91
465.14	31754.05
465.32	32559.19
465.50	33364.34
465.69	33635.84
465.87	32713.67
466.05	31906.18
466.23	30543.99
466.41	29827.79
466.60	30899.75
466.78	30827.20
466.96	31402.97
467.14	32070.02
467.32	32531.11
467.51	32481.95
467.69	31002.74
467.87	31608.93
468.05	32210.45
468.23	31924.91
468.41	32397.70
468.60	32245.56
468.78	32325.14
468.96	31866.39
469.14	32973.47
469.32	33083.47
469.50	31620.64
469.69	32067.68
469.87	31159.55
470.05	30976.99
470.23	31164.23
470.41	31480.21
470.59	32032.57
470.77	31667.45
470.95	32563.87
471.14	32755.80
471.32	32912.61
471.50	34873.98
471.68	34675.04
471.86	35335.07
472.04	35548.06
472.22	34974.63
472.40	33624.14
472.58	33570.30
472.77	33024.96
472.95	33729.46
473.13	34553.33
473.31	33558.60
473.49	33989.26
473.67	34707.80
473.85	34644.61
474.03	35494.22
474.21	35697.85
474.39	35828.92
474.57	35697.85
474.75	36224.47
474.93	36067.66
475.12	35304.64
475.30	35058.88
475.48	35225.06
475.66	35447.41
475.84	35391.24
476.02	35185.27
476.20	34433.96
476.38	35229.74
476.56	36177.66
476.74	36992.17
476.92	36961.74
477.10	37296.44
477.28	38398.83
477.46	38515.86
477.64	38974.60
477.82	38955.88
478.00	39063.54
478.18	38541.60
478.36	38141.37
478.54	37757.52
478.72	38639.90
478.90	39702.51
479.08	40861.07
479.26	41207.47
479.44	40786.18
479.62	40718.30
479.80	41074.06
479.98	41216.83
480.16	41270.67
480.34	41036.61
480.52	41226.20
480.70	41677.92
480.88	41392.37
481.06	42012.62
481.24	42534.56
481.41	43302.25
481.59	44561.46
481.77	43938.88
481.95	43615.88
482.13	43019.05
482.31	43253.10
482.49	43896.75
482.67	43880.36
482.85	43650.99
483.03	44549.76
483.21	45485.97
483.39	44538.05
483.57	43910.79
483.74	43833.55
483.92	44156.55
484.10	44348.47
484.28	45228.51
484.46	46005.57
484.64	46021.95
484.82	45111.49
485.00	44299.32
485.18	43922.49
485.35	42679.67
485.53	38789.70
485.71	35950.63
485.89	34986.33
486.07	37715.39
486.25	40301.68
486.43	42972.24
486.61	43564.39
486.78	43501.20
486.96	43732.91
487.14	45502.35
487.32	46204.52
487.50	47660.33
487.68	48442.07
487.85	49031.88
488.03	48673.78
488.21	48690.16
488.39	47236.69
488.57	46721.77
488.75	46246.65
488.92	47835.87
489.10	50202.15
489.28	51363.06
489.46	52467.79
489.64	51821.80
489.81	52259.48
489.99	51798.40
490.17	51796.06
490.35	52451.41
490.53	51650.94
490.70	51585.41
490.88	51700.09
491.06	52346.08
491.24	52266.50
491.41	51182.84
491.59	49551.48
491.77	48715.91
491.95	49691.91
492.13	50981.55
492.30	52280.55
492.48	53380.60
492.66	53776.15
492.84	53776.15
493.01	53343.15
493.19	52907.81
493.37	52671.42
493.54	52320.34
493.72	53132.50
493.90	54059.35
494.08	54901.95
494.25	55114.94
494.43	55379.42
494.61	55714.11
494.79	55772.63
494.96	55604.11
495.14	54705.34
495.32	53684.87
495.49	53256.55
495.67	54471.29
495.85	55852.20
496.02	56074.55
496.20	56065.19
496.38	55604.11
496.55	55456.65
496.73	55997.32
496.91	56142.43
497.09	56619.90
497.26	56919.49
497.44	56463.08
497.62	55697.73
497.79	54859.82
497.97	53518.69
498.14	53902.54
498.32	55185.15
498.50	55784.33
498.67	56643.30
498.85	56287.54
499.03	56390.53
499.20	56753.31
499.38	56818.84
499.56	56521.60
499.73	56023.06
499.91	55536.23
500.08	55423.89
500.26	54473.63
500.44	54698.32
500.61	55620.49
500.79	55760.92
500.97	55105.57
501.14	54841.09
501.32	54754.49
501.49	54899.61
501.67	54937.05
501.84	55487.08
502.02	55756.24
502.20	56191.58
502.37	56437.34
502.55	56493.51
502.72	57066.94
502.90	57378.23
503.07	57130.14
503.25	56659.69
503.43	55559.64
503.60	55243.66
503.78	54485.33
503.95	54920.67
504.13	56577.77
504.30	57155.88
504.48	57109.07
504.65	56376.48
504.83	56722.88
505.01	57322.06
505.18	57722.29
505.36	58143.59
505.53	58220.83
505.71	58630.42
505.88	58548.50
506.06	57719.95
506.23	57499.94
506.41	57301.00
506.58	57441.43
506.76	57373.55
506.93	57371.21
507.11	57130.14
507.28	57518.67
507.46	56928.85
507.63	56427.98
507.81	56018.38
507.98	56376.48
508.16	57183.97
508.33	57532.71
508.50	57937.62
508.68	58014.86
508.85	58658.51
509.03	58557.86
509.20	58419.77
509.38	57745.70
509.55	57165.24
509.73	57308.02
509.90	57612.29
510.08	58000.82
510.25	57883.79
510.42	57631.01
510.60	57556.11
510.77	57764.42
510.95	58379.98
511.12	58426.79
511.30	58824.68
511.47	59082.14
511.64	59025.97
511.82	58553.18
511.99	57785.49
512.17	57455.47
512.34	57109.07
512.51	57394.62
512.69	57462.49
512.86	57495.26
513.04	58148.27
513.21	57736.34
513.38	57586.54
513.56	57066.94
513.73	56516.92
513.90	56545.00
514.08	56741.61
514.25	57130.14
514.43	57179.29
514.60	57408.66
514.77	57579.52
514.95	57567.82
515.12	57181.63
515.29	58017.20
515.47	58295.72
515.64	58328.49
515.81	58035.92
515.99	57403.98
516.16	56100.30
516.33	53457.84
516.51	52006.70
516.68	51714.14
516.85	51103.26
517.03	51604.13
517.20	54204.47
517.37	56699.48
517.54	57532.71
517.72	57127.80
517.89	54527.46
518.06	52165.86
518.24	52573.11
518.41	54944.08
518.58	55980.93
518.75	56657.35
518.93	56662.03
519.10	56530.96
519.27	56987.36
519.45	57432.07
519.62	57907.19
519.79	58131.89
519.96	58087.42
520.14	57595.90
520.31	56718.20
520.48	56842.25
520.65	57006.09
520.83	58216.14
521.00	58422.11
521.17	58127.20
521.34	57708.25
521.52	57904.85
521.69	58518.07
521.86	58967.46
522.03	58623.40
522.20	57448.45
522.38	56446.70
522.55	56505.21
522.72	57069.28
522.89	56987.36
523.07	57333.76
523.24	57638.03
523.41	58852.77
523.58	58960.44
523.75	59276.41
523.92	59236.62
524.10	59035.33
524.27	59058.74
524.44	58824.68
524.61	58702.98
524.78	58450.20
524.96	58426.79
525.13	58408.07
525.30	58841.07
525.47	59276.41
525.64	59009.59
525.81	58265.30
525.98	56877.36
526.16	55466.02
526.33	54780.24
526.50	54564.91
526.67	54052.33
526.84	55014.29
527.01	55847.52
527.18	56596.49
527.36	57474.20
527.53	58349.56
527.70	58415.09
527.87	58019.54
528.04	57511.64
528.21	58031.24
528.38	58717.02
528.55	59220.23
528.72	59433.22
528.89	59554.93
529.07	59522.16
529.24	58644.46
529.41	58162.31
529.58	57506.96
529.75	57726.97
529.92	58071.03
530.09	58590.63
530.26	58906.60
530.43	59304.49
530.60	59250.66
530.77	59540.89
530.94	59529.19
531.11	59295.13
531.28	58745.11
531.46	58527.44
531.63	58710.00
531.80	58824.68
531.97	58028.90
532.14	57457.81
532.31	56563.73
532.48	55695.39
532.65	55781.99
532.82	56760.33
532.99	57829.96
533.16	58209.12
533.33	58763.83
533.50	58396.37
533.67	57832.30
533.84	57593.56
534.01	57827.62
534.18	57886.13
534.35	57848.68
534.52	57710.59
534.69	58185.72
534.86	58628.08
535.03	58887.88
535.20	59245.98
535.37	59423.86
535.54	59473.01
535.71	59217.89
535.88	59051.72
536.05	58445.52
536.22	58166.99
536.38	57506.96
536.55	56973.32
536.72	56556.70
536.89	56645.65
537.06	57525.69
537.23	58372.96
537.40	58501.69
537.57	58358.92
537.74	58178.70
537.91	58309.77
538.08	58000.82
538.25	58000.82
538.42	58354.24
538.59	58190.40
538.75	57499.94
538.92	57188.65
539.09	57083.33
539.26	57034.17
539.43	56701.82
539.60	56755.65
539.77	57329.08
539.94	56900.76
540.11	56165.84
540.28	55772.63
540.44	55753.90
540.61	56041.79
540.78	56193.92
540.95	56821.19
541.12	56905.44
541.29	57275.25
541.46	57638.03
541.62	57528.03
541.79	57558.45
541.96	56882.04
542.13	57022.47
542.30	57017.79
542.47	57411.00
542.63	57179.29
542.80	56669.05
542.97	56956.94
543.14	57050.56
543.31	56839.91
543.48	57499.94
543.64	58190.40
543.81	58312.11
543.98	58258.27
544.15	57551.43
544.32	57092.69
544.48	57219.08
544.65	57483.56
544.82	57984.43
544.99	57621.65
545.16	57244.82
545.32	57102.05
545.49	57804.21
545.66	58120.18
545.83	57797.19
546.00	57535.05
546.16	57174.61
546.33	57130.14
546.50	57132.48
546.67	57528.03
546.83	57408.66
547.00	57265.89
547.17	56788.42
547.34	56165.84
547.50	55861.57
547.67	56348.40
547.84	56519.26
548.00	56987.36
548.17	57406.32
548.34	57352.49
548.51	57301.00
548.67	57181.63
548.84	57371.21
549.01	57237.80
549.18	57064.60
549.34	57029.49
549.51	57088.01
549.68	56882.04
549.84	57003.75
550.01	56912.47
550.18	56711.18
550.34	56549.68
550.51	56825.87
550.68	57001.41
550.84	56353.08
551.01	56385.85
551.18	56390.53
551.34	56685.43
551.51	57158.22
551.68	57205.03
551.84	57193.33
552.01	56968.64
552.18	56921.83
552.34	56055.83
552.51	55753.90
552.68	55606.45
552.84	56484.15
553.01	56587.13
553.18	56266.48
553.34	56486.49
553.51	56390.53
553.67	56818.84
553.84	56762.67
554.01	56619.90
554.17	56559.05
554.34	56713.52
554.51	56952.26
554.67	57436.75
554.84	57130.14
555.00	56575.43
555.17	56449.04
555.33	56324.99
555.50	56392.87
555.67	56303.93
555.83	56119.02
556.00	55870.93
556.16	56053.49
556.33	55458.99
556.50	55288.13
556.66	55473.04
556.83	55175.79
556.99	55475.38
557.16	55325.58
557.32	55730.50
557.49	55812.41
557.65	55969.23
557.82	55875.61
557.98	55690.71
558.15	55178.13
558.32	54213.83
558.48	53525.71
558.65	53724.66
558.81	54005.52
558.98	54543.84
559.14	54749.81
559.31	54719.38
559.47	54871.52
559.64	54351.92
559.80	54323.83
559.97	54354.26
560.13	54497.03
560.30	55405.16
560.46	55994.98
560.63	56158.81
560.79	56161.15
560.96	55814.76
561.12	54780.24
561.29	53918.92
561.45	53904.88
561.61	54492.35
561.78	54976.84
561.94	54607.04
562.11	54557.89
562.27	54487.67
562.44	54710.02
562.60	55267.07
562.77	55047.06
562.93	55238.98
563.10	55042.38
563.26	54600.02
563.42	54482.99
563.59	54480.65
563.75	54532.14
563.92	54255.96
564.08	54248.94
564.24	54794.28
564.41	54653.85
564.57	54564.91
564.74	54150.63
564.90	54745.13
565.07	53989.14
565.23	53593.59
565.39	53195.70
565.56	52872.70
565.72	52655.03
565.88	53057.60
566.05	52989.73
566.21	53563.16
566.38	53827.64
566.54	53844.02
566.70	53977.43
566.87	54548.53
567.03	54588.31
567.19	54827.05
567.36	54450.22
567.52	54178.72
567.68	53624.01
567.85	53205.06
568.01	52949.94
568.17	52353.10
568.34	52418.64
568.50	52355.44
568.66	52521.62
568.83	52926.53
568.99	53216.76
569.15	53186.33
569.32	53446.13
569.48	52945.26
569.64	52329.70
569.81	52495.88
569.97	52264.16
570.13	52313.31
570.30	51470.72
570.46	51243.69
570.62	50960.48
570.78	50616.43
570.95	51201.56
571.11	51580.73
571.27	52128.41
571.43	52428.00
571.60	52587.16
571.76	52715.89
571.92	52952.28
572.09	53064.63
572.25	53226.12
572.41	52722.91
572.57	52959.30
572.74	52903.13
572.90	52355.44
573.06	52458.43
573.22	52343.74
573.38	52477.15
573.55	52222.03
573.71	52638.65
573.87	52257.14
574.03	52299.27
574.20	52289.91
574.36	51863.93
574.52	51662.64
574.68	51426.25
574.84	51154.75
575.01	50733.45
575.17	50553.23
575.33	51096.24
575.49	51021.34
575.65	51143.05
575.82	50887.93
575.98	50850.48
576.14	51220.28
576.30	51611.15
576.46	51545.62
576.62	51339.65
576.79	51496.47
576.95	50908.99
577.11	51056.45
577.27	50911.33
577.43	51136.02
577.59	50820.05
577.75	50124.91
577.92	49539.78
578.08	49268.28
578.24	49397.01
578.40	50078.10
578.56	50000.86
578.72	50078.10
578.88	50527.48
579.04	50227.90
579.21	50763.88
579.37	50548.55
579.53	50962.82
579.69	50880.91
579.85	50754.52
580.01	50749.84
580.17	50255.98
580.33	49991.50
580.49	50459.61
580.65	50651.53
580.82	50274.71
580.98	50897.29
581.14	50548.55
581.30	50801.33
581.46	50768.56
581.62	50969.85
581.78	50934.74
581.94	51185.18
582.10	50763.88
582.26	51044.74
582.42	50770.90
582.58	50972.19
582.74	50557.91
582.90	50773.24
583.06	50614.08
583.22	50717.07
583.38	50796.65
583.54	50443.23
583.70	50288.75
583.86	50499.40
584.02	50136.62
584.18	50630.47
584.34	50251.30
584.50	50314.50
584.66	50454.93
584.82	49481.27
584.98	49710.64
585.14	49088.06
585.30	48395.26
