SpectraSuite Data File
++++++++++++++++++++++++++++++++++++
Date: Mon Oct 07 14:53:14 GMT-05:00 2013
User: price-jones
Dark Spectrum Present: No
Reference Spectrum Present: No
Number of Sampled Component Spectra: 1
Spectrometers: USB2+H05261
Integration Time (usec): 100000 (USB2+H05261)
Spectra Averaged: 1 (USB2+H05261)
Boxcar Smoothing: 0 (USB2+H05261)
Correct for Electrical Dark: No (USB2+H05261)
Strobe/Lamp Enabled: No (USB2+H05261)
Correct for Detector Non-linearity: No (USB2+H05261)
Correct for Stray Light: No (USB2+H05261)
Number of Pixels in Processed Spectrum: 2048
>>>>>Begin Processed Spectral Data<<<<<
365.73	648.33
365.92	648.33
366.12	648.33
366.32	552.37
366.52	561.73
366.72	645.99
366.91	479.81
367.11	561.73
367.31	582.79
367.51	571.09
367.70	550.03
367.90	610.88
368.10	533.64
368.30	514.92
368.49	463.43
368.69	489.17
368.89	514.92
369.09	543.00
369.28	603.86
369.48	500.87
369.68	589.82
369.87	550.03
370.07	566.41
370.27	601.52
370.47	4702.14
370.66	17025.06
370.86	18986.43
371.06	20505.43
371.25	19751.78
371.45	17989.36
371.65	16329.92
371.84	15859.47
372.04	17352.73
372.24	18405.97
372.44	18824.93
372.63	18499.59
372.83	16922.07
373.03	15222.84
373.22	14885.81
373.42	15686.27
373.62	17977.65
373.81	18813.23
374.01	17947.23
374.21	16570.99
374.40	15728.40
374.60	17233.36
374.79	19014.51
374.99	21853.58
375.19	22054.87
375.38	22417.65
375.58	21380.79
375.78	21081.21
375.97	21659.32
376.17	22125.08
376.37	22560.42
376.56	23154.92
376.76	24318.17
376.95	25720.15
377.15	27412.35
377.35	28460.91
377.54	29603.10
377.74	30026.73
377.93	29493.09
378.13	28442.19
378.33	26682.11
378.52	25371.41
378.72	24687.97
378.91	23981.13
379.11	23365.57
379.31	22852.99
379.50	23501.32
379.70	25214.59
379.89	27587.89
380.09	28814.34
380.28	30000.99
380.48	29242.65
380.68	28940.72
380.87	27955.36
381.07	25333.96
381.26	23667.50
381.46	22515.95
381.65	21991.67
381.85	21483.78
382.04	20311.17
382.24	18785.14
382.43	18576.83
382.63	18012.76
382.83	18317.03
383.02	18331.08
383.22	18295.97
383.41	18796.84
383.61	20116.90
383.80	23063.64
384.00	26071.23
384.19	28929.02
384.39	29474.37
384.58	29170.10
384.78	28264.31
384.97	28109.83
385.17	26623.59
385.36	25104.59
385.56	24769.89
385.75	26324.01
385.95	28655.18
386.14	30162.48
386.34	29708.42
386.53	28168.35
386.72	26712.53
386.92	28086.43
387.11	29336.27
387.31	29682.67
387.50	29165.42
387.70	28467.94
387.89	28517.09
388.09	28594.32
388.28	29006.26
388.48	29418.19
388.67	31730.64
388.86	35388.90
389.06	37083.45
389.25	38513.52
389.45	39030.77
389.64	38457.34
389.84	37483.68
390.03	37553.90
390.22	38188.18
390.42	39702.51
390.61	42160.07
390.81	44301.66
391.00	44584.86
391.19	44208.04
391.39	42293.48
391.58	39716.55
391.78	38232.65
391.97	36706.62
392.16	33479.02
392.36	30110.99
392.55	23892.19
392.75	19693.27
392.94	16945.48
393.13	17738.92
393.33	21692.08
393.52	27332.78
393.71	32065.34
393.91	35569.12
394.10	38234.99
394.29	41914.31
394.49	44594.23
394.68	46555.60
394.88	47019.02
395.07	47969.28
395.26	47618.20
395.46	45813.65
395.65	42927.77
395.84	37160.69
396.04	31297.64
396.23	25329.28
396.42	22054.87
396.62	22951.29
396.81	28154.30
397.00	35105.70
397.19	42579.03
397.39	48528.67
397.58	51751.59
397.77	53305.70
397.97	54548.53
398.16	54576.61
398.35	55725.81
398.55	56294.56
398.74	57258.87
398.93	57572.50
399.12	57272.91
399.32	56568.41
399.51	57396.96
399.70	58967.46
399.90	58122.52
400.09	58075.71
400.28	58190.40
400.47	58419.77
400.67	59620.47
400.86	60093.25
401.05	59987.93
401.24	60018.36
401.44	60467.74
401.63	60612.85
401.82	60889.04
402.01	60884.36
402.21	60856.27
402.40	61137.13
402.59	60179.85
402.78	59311.52
402.97	58997.88
403.17	60402.21
403.36	61471.83
403.55	61832.27
403.74	62220.80
403.93	60336.67
404.13	58918.31
404.32	59245.98
404.51	60795.42
404.70	61691.84
404.89	61853.34
405.09	61359.48
405.28	60779.03
405.47	60622.22
405.66	60425.61
405.85	59587.70
406.05	59288.11
406.24	60069.85
406.43	61015.43
406.62	61673.12
406.81	61717.59
407.00	60970.96
407.20	60329.65
407.39	60741.58
407.58	62159.95
407.77	62564.86
407.96	63131.27
408.15	63641.51
408.34	63866.20
408.54	64697.09
408.73	64463.03
408.92	63798.32
409.11	63451.92
409.30	62473.58
409.49	60776.69
409.68	59238.96
409.87	59192.15
410.07	60933.51
410.26	62705.29
410.45	63639.17
410.64	64446.65
410.83	65055.19
411.02	65535.00
411.21	65535.00
411.40	65535.00
411.59	65535.00
411.78	65535.00
411.98	65535.00
412.17	65535.00
412.36	65535.00
412.55	65497.55
412.74	65223.71
412.93	65087.96
413.12	65525.64
413.31	65535.00
413.50	65535.00
413.69	65535.00
413.88	65535.00
414.07	65535.00
414.26	65535.00
414.45	65535.00
414.64	65535.00
414.83	65535.00
415.02	65535.00
415.22	65535.00
415.41	65535.00
415.60	65535.00
415.79	65535.00
415.98	65535.00
416.17	65535.00
416.36	65535.00
416.55	65535.00
416.74	65535.00
416.93	65535.00
417.12	65535.00
417.31	65535.00
417.50	65535.00
417.69	65535.00
417.88	65535.00
418.07	65535.00
418.26	65535.00
418.45	65535.00
418.64	65535.00
418.83	65535.00
419.02	65535.00
419.21	65535.00
419.39	65535.00
419.58	65535.00
419.77	65535.00
419.96	65535.00
420.15	65535.00
420.34	65535.00
420.53	65535.00
420.72	65535.00
420.91	65535.00
421.10	65535.00
421.29	65535.00
421.48	65535.00
421.67	65535.00
421.86	65535.00
422.05	65535.00
422.24	65535.00
422.43	65535.00
422.61	65535.00
422.80	65535.00
422.99	65535.00
423.18	65535.00
423.37	65535.00
423.56	65535.00
423.75	65535.00
423.94	65535.00
424.13	65535.00
424.32	65535.00
424.50	65535.00
424.69	65535.00
424.88	65535.00
425.07	65535.00
425.26	65535.00
425.45	65535.00
425.64	65535.00
425.83	65535.00
426.01	65535.00
426.20	65535.00
426.39	65535.00
426.58	65535.00
426.77	65535.00
426.96	65535.00
427.15	65535.00
427.33	65535.00
427.52	65535.00
427.71	65535.00
427.90	65535.00
428.09	65535.00
428.28	65535.00
428.46	65535.00
428.65	65535.00
428.84	65535.00
429.03	65535.00
429.22	65535.00
429.40	65535.00
429.59	64095.57
429.78	60781.37
429.97	61296.29
430.16	61371.19
430.34	61361.82
430.53	61846.32
430.72	62759.12
430.91	65535.00
431.10	65535.00
431.28	65535.00
431.47	65535.00
431.66	65535.00
431.85	65535.00
432.03	65535.00
432.22	65535.00
432.41	65535.00
432.60	65535.00
432.79	65535.00
432.97	65535.00
433.16	65535.00
433.35	65535.00
433.54	65535.00
433.72	65535.00
433.91	65535.00
434.10	65535.00
434.28	65535.00
434.47	65535.00
434.66	65535.00
434.85	65535.00
435.03	65535.00
435.22	65535.00
435.41	65535.00
435.59	65535.00
435.78	65535.00
435.97	65535.00
436.16	65535.00
436.34	65535.00
436.53	65535.00
436.72	65535.00
436.90	65535.00
437.09	65535.00
437.28	65535.00
437.46	65535.00
437.65	65535.00
437.84	65535.00
438.02	65535.00
438.21	65535.00
438.40	65535.00
438.58	65535.00
438.77	65535.00
438.96	65535.00
439.14	65535.00
439.33	65535.00
439.52	65535.00
439.70	65535.00
439.89	65535.00
440.08	65535.00
440.26	65535.00
440.45	65535.00
440.63	65535.00
440.82	65535.00
441.01	65535.00
441.19	65535.00
441.38	65535.00
441.57	65535.00
441.75	65535.00
441.94	65535.00
442.12	65535.00
442.31	65535.00
442.50	65535.00
442.68	65535.00
442.87	65535.00
443.05	65535.00
443.24	65535.00
443.43	65535.00
443.61	65535.00
443.80	65535.00
443.98	65535.00
444.17	65535.00
444.35	65535.00
444.54	65535.00
444.73	65535.00
444.91	65535.00
445.10	65535.00
445.28	65535.00
445.47	65535.00
445.65	65535.00
445.84	65535.00
446.02	65535.00
446.21	65535.00
446.39	65535.00
446.58	65535.00
446.77	65535.00
446.95	65535.00
447.14	65535.00
447.32	65535.00
447.51	65535.00
447.69	65535.00
447.88	65535.00
448.06	65535.00
448.25	65535.00
448.43	65535.00
448.62	65535.00
448.80	65535.00
448.99	65535.00
449.17	65535.00
449.36	65535.00
449.54	65535.00
449.73	65535.00
449.91	65535.00
450.10	65535.00
450.28	65535.00
450.46	65535.00
450.65	65535.00
450.83	65535.00
451.02	65535.00
451.20	65535.00
451.39	65535.00
451.57	65535.00
451.76	65535.00
451.94	65535.00
452.13	65535.00
452.31	65535.00
452.49	65535.00
452.68	65535.00
452.86	65535.00
453.05	65535.00
453.23	65535.00
453.42	65535.00
453.60	65535.00
453.78	65535.00
453.97	65535.00
454.15	65535.00
454.34	65535.00
454.52	65535.00
454.70	65535.00
454.89	65535.00
455.07	65535.00
455.26	65535.00
455.44	65535.00
455.62	65535.00
455.81	65535.00
455.99	65535.00
456.17	65535.00
456.36	65535.00
456.54	65535.00
456.73	65535.00
456.91	65535.00
457.09	65535.00
457.28	65535.00
457.46	65535.00
457.64	65535.00
457.83	65535.00
458.01	65535.00
458.19	65535.00
458.38	65535.00
458.56	65535.00
458.74	65535.00
458.93	65535.00
459.11	65535.00
459.29	65535.00
459.48	65535.00
459.66	65535.00
459.84	65535.00
460.03	65535.00
460.21	65535.00
460.39	65535.00
460.57	65535.00
460.76	65535.00
460.94	65535.00
461.12	65535.00
461.31	65535.00
461.49	65535.00
461.67	65535.00
461.85	65535.00
462.04	65535.00
462.22	65535.00
462.40	65535.00
462.59	65535.00
462.77	65535.00
462.95	65535.00
463.13	65535.00
463.32	65535.00
463.50	65535.00
463.68	65535.00
463.86	65535.00
464.05	65535.00
464.23	65535.00
464.41	65535.00
464.59	65535.00
464.78	65535.00
464.96	65535.00
465.14	65535.00
465.32	65535.00
465.50	65535.00
465.69	65535.00
465.87	65535.00
466.05	65535.00
466.23	65535.00
466.41	65535.00
466.60	65535.00
466.78	65535.00
466.96	65535.00
467.14	65535.00
467.32	65535.00
467.51	65535.00
467.69	65535.00
467.87	65535.00
468.05	65535.00
468.23	65535.00
468.41	65535.00
468.60	65535.00
468.78	65535.00
468.96	65535.00
469.14	65535.00
469.32	65535.00
469.50	65535.00
469.69	65535.00
469.87	65535.00
470.05	65535.00
470.23	65535.00
470.41	65535.00
470.59	65535.00
470.77	65535.00
470.95	65535.00
471.14	65535.00
471.32	65535.00
471.50	65535.00
471.68	65535.00
471.86	65535.00
472.04	65535.00
472.22	65535.00
472.40	65535.00
472.58	65535.00
472.77	65535.00
472.95	65535.00
473.13	65535.00
473.31	65535.00
473.49	65535.00
473.67	65535.00
473.85	65535.00
474.03	65535.00
474.21	65535.00
474.39	65535.00
474.57	65535.00
474.75	65535.00
474.93	65535.00
475.12	65535.00
475.30	65535.00
475.48	65535.00
475.66	65535.00
475.84	65535.00
476.02	65535.00
476.20	65535.00
476.38	65535.00
476.56	65535.00
476.74	65535.00
476.92	65535.00
477.10	65535.00
477.28	65535.00
477.46	65535.00
477.64	65535.00
477.82	65535.00
478.00	65535.00
478.18	65535.00
478.36	65535.00
478.54	65535.00
478.72	65535.00
478.90	65535.00
479.08	65535.00
479.26	65535.00
479.44	65535.00
479.62	65535.00
479.80	65535.00
479.98	65535.00
480.16	65535.00
480.34	65535.00
480.52	65535.00
480.70	65535.00
480.88	65535.00
481.06	65535.00
481.24	65535.00
481.41	65535.00
481.59	65535.00
481.77	65535.00
481.95	65535.00
482.13	65535.00
482.31	65535.00
482.49	65535.00
482.67	65535.00
482.85	65535.00
483.03	65535.00
483.21	65535.00
483.39	65535.00
483.57	65535.00
483.74	65535.00
483.92	65535.00
484.10	65535.00
484.28	65535.00
484.46	65535.00
484.64	65535.00
484.82	65535.00
485.00	65535.00
485.18	65535.00
485.35	65535.00
485.53	65535.00
485.71	65535.00
485.89	65535.00
486.07	65535.00
486.25	65535.00
486.43	65535.00
486.61	65535.00
486.78	65535.00
486.96	65535.00
487.14	65535.00
487.32	65535.00
487.50	65535.00
487.68	65535.00
487.85	65535.00
488.03	65535.00
488.21	65535.00
488.39	65535.00
488.57	65535.00
488.75	65535.00
488.92	65535.00
489.10	65535.00
489.28	65535.00
489.46	65535.00
489.64	65535.00
489.81	65535.00
489.99	65535.00
490.17	65535.00
490.35	65535.00
490.53	65535.00
490.70	65535.00
490.88	65535.00
491.06	65535.00
491.24	65535.00
491.41	65535.00
491.59	65535.00
491.77	65535.00
491.95	65535.00
492.13	65535.00
492.30	65535.00
492.48	65535.00
492.66	65535.00
492.84	65535.00
493.01	65535.00
493.19	65535.00
493.37	65535.00
493.54	65535.00
493.72	65535.00
493.90	65535.00
494.08	65535.00
494.25	65535.00
494.43	65535.00
494.61	65535.00
494.79	65535.00
494.96	65535.00
495.14	65535.00
495.32	65535.00
495.49	65535.00
495.67	65535.00
495.85	65535.00
496.02	65535.00
496.20	65535.00
496.38	65535.00
496.55	65535.00
496.73	65535.00
496.91	65535.00
497.09	65535.00
497.26	65535.00
497.44	65535.00
497.62	65535.00
497.79	65535.00
497.97	65535.00
498.14	65535.00
498.32	65535.00
498.50	65535.00
498.67	65535.00
498.85	65535.00
499.03	65535.00
499.20	65535.00
499.38	65535.00
499.56	65535.00
499.73	65535.00
499.91	65535.00
500.08	65535.00
500.26	65535.00
500.44	65535.00
500.61	65535.00
500.79	65535.00
500.97	65535.00
501.14	65535.00
501.32	65535.00
501.49	65535.00
501.67	65535.00
501.84	65535.00
502.02	65535.00
502.20	65535.00
502.37	65535.00
502.55	65535.00
502.72	65535.00
502.90	65535.00
503.07	65535.00
503.25	65535.00
503.43	65535.00
503.60	65535.00
503.78	65535.00
503.95	65535.00
504.13	65535.00
504.30	65535.00
504.48	65535.00
504.65	65535.00
504.83	65535.00
505.01	65535.00
505.18	65535.00
505.36	65535.00
505.53	65535.00
505.71	65535.00
505.88	65535.00
506.06	65535.00
506.23	65535.00
506.41	65535.00
506.58	65535.00
506.76	65535.00
506.93	65535.00
507.11	65535.00
507.28	65535.00
507.46	65535.00
507.63	65535.00
507.81	65535.00
507.98	65535.00
508.16	65535.00
508.33	65535.00
508.50	65535.00
508.68	65535.00
508.85	65535.00
509.03	65535.00
509.20	65535.00
509.38	65535.00
509.55	65535.00
509.73	65535.00
509.90	65535.00
510.08	65535.00
510.25	65535.00
510.42	65535.00
510.60	65535.00
510.77	65535.00
510.95	65535.00
511.12	65535.00
511.30	65535.00
511.47	65535.00
511.64	65535.00
511.82	65535.00
511.99	65535.00
512.17	65535.00
512.34	65535.00
512.51	65535.00
512.69	65535.00
512.86	65535.00
513.04	65535.00
513.21	65535.00
513.38	65535.00
513.56	65535.00
513.73	65535.00
513.90	65535.00
514.08	65535.00
514.25	65535.00
514.43	65535.00
514.60	65535.00
514.77	65535.00
514.95	65535.00
515.12	65535.00
515.29	65535.00
515.47	65535.00
515.64	65535.00
515.81	65535.00
515.99	65535.00
516.16	65535.00
516.33	65535.00
516.51	65535.00
516.68	65535.00
516.85	65535.00
517.03	65535.00
517.20	65535.00
517.37	65535.00
517.54	65535.00
517.72	65535.00
517.89	65535.00
518.06	65535.00
518.24	65535.00
518.41	65535.00
518.58	65535.00
518.75	65535.00
518.93	65535.00
519.10	65535.00
519.27	65535.00
519.45	65535.00
519.62	65535.00
519.79	65535.00
519.96	65535.00
520.14	65535.00
520.31	65535.00
520.48	65535.00
520.65	65535.00
520.83	65535.00
521.00	65535.00
521.17	65535.00
521.34	65535.00
521.52	65535.00
521.69	65535.00
521.86	65535.00
522.03	65535.00
522.20	65535.00
522.38	65535.00
522.55	65535.00
522.72	65535.00
522.89	65535.00
523.07	65535.00
523.24	65535.00
523.41	65535.00
523.58	65535.00
523.75	65535.00
523.92	65535.00
524.10	65535.00
524.27	65535.00
524.44	65535.00
524.61	65535.00
524.78	65535.00
524.96	65535.00
525.13	65535.00
525.30	65535.00
525.47	65535.00
525.64	65535.00
525.81	65535.00
525.98	65535.00
526.16	65535.00
526.33	65535.00
526.50	65535.00
526.67	65535.00
526.84	65535.00
527.01	65535.00
527.18	65535.00
527.36	65535.00
527.53	65535.00
527.70	65535.00
527.87	65535.00
528.04	65535.00
528.21	65535.00
528.38	65535.00
528.55	65535.00
528.72	65535.00
528.89	65535.00
529.07	65535.00
529.24	65535.00
529.41	65535.00
529.58	65535.00
529.75	65535.00
529.92	65535.00
530.09	65535.00
530.26	65535.00
530.43	65535.00
530.60	65535.00
530.77	65535.00
530.94	65535.00
531.11	65535.00
531.28	65535.00
531.46	65535.00
531.63	65535.00
531.80	65535.00
531.97	65535.00
532.14	65535.00
532.31	65535.00
532.48	65535.00
532.65	65535.00
532.82	65535.00
532.99	65535.00
533.16	65535.00
533.33	65535.00
533.50	65535.00
533.67	65535.00
533.84	65535.00
534.01	65535.00
534.18	65535.00
534.35	65535.00
534.52	65535.00
534.69	65535.00
534.86	65535.00
535.03	65535.00
535.20	65535.00
535.37	65535.00
535.54	65535.00
535.71	65535.00
535.88	65535.00
536.05	65535.00
536.22	65535.00
536.38	65535.00
536.55	65535.00
536.72	65535.00
536.89	65535.00
537.06	65535.00
537.23	65535.00
537.40	65535.00
537.57	65535.00
537.74	65535.00
537.91	65535.00
538.08	65535.00
538.25	65535.00
538.42	65535.00
538.59	65535.00
538.75	65535.00
538.92	65535.00
539.09	65535.00
539.26	65535.00
539.43	65535.00
539.60	65535.00
539.77	65535.00
539.94	65535.00
540.11	65535.00
540.28	65535.00
540.44	65535.00
540.61	65535.00
540.78	65535.00
540.95	65535.00
541.12	65535.00
541.29	65535.00
541.46	65535.00
541.62	65535.00
541.79	65535.00
541.96	65535.00
542.13	65535.00
542.30	65535.00
542.47	65535.00
542.63	65535.00
542.80	65535.00
542.97	65535.00
543.14	65535.00
543.31	65535.00
543.48	65535.00
543.64	65535.00
543.81	65535.00
543.98	65535.00
544.15	65535.00
544.32	65535.00
544.48	65535.00
544.65	65535.00
544.82	65535.00
544.99	65535.00
545.16	65535.00
545.32	65535.00
545.49	65535.00
545.66	65535.00
545.83	65535.00
546.00	65535.00
546.16	65535.00
546.33	65535.00
546.50	65535.00
546.67	65535.00
546.83	65535.00
547.00	65535.00
547.17	65535.00
547.34	65535.00
547.50	65535.00
547.67	65535.00
547.84	65535.00
548.00	65535.00
548.17	65535.00
548.34	65535.00
548.51	65535.00
548.67	65535.00
548.84	65535.00
549.01	65535.00
549.18	65535.00
549.34	65535.00
549.51	65535.00
549.68	65535.00
549.84	65535.00
550.01	65535.00
550.18	65535.00
550.34	65535.00
550.51	65535.00
550.68	65535.00
550.84	65535.00
551.01	65535.00
551.18	65535.00
551.34	65535.00
551.51	65535.00
551.68	65535.00
551.84	65535.00
552.01	65535.00
552.18	65535.00
552.34	65535.00
552.51	65535.00
552.68	65535.00
552.84	65535.00
553.01	65535.00
553.18	65535.00
553.34	65535.00
553.51	65535.00
553.67	65535.00
553.84	65535.00
554.01	65535.00
554.17	65535.00
554.34	65535.00
554.51	65535.00
554.67	65535.00
554.84	65535.00
555.00	65535.00
555.17	65535.00
555.33	65535.00
555.50	65535.00
555.67	65535.00
555.83	65535.00
556.00	65535.00
556.16	65535.00
556.33	65535.00
556.50	65535.00
556.66	65535.00
556.83	65535.00
556.99	65535.00
557.16	65535.00
557.32	65535.00
557.49	65535.00
557.65	65535.00
557.82	65535.00
557.98	65535.00
558.15	65535.00
558.32	65535.00
558.48	65535.00
558.65	65535.00
558.81	65535.00
558.98	65535.00
559.14	65535.00
559.31	65535.00
559.47	65535.00
559.64	65535.00
559.80	65535.00
559.97	65535.00
560.13	65535.00
560.30	65535.00
560.46	65535.00
560.63	65535.00
560.79	65535.00
560.96	65535.00
561.12	65535.00
561.29	65535.00
561.45	65535.00
561.61	65535.00
561.78	65535.00
561.94	65535.00
562.11	65535.00
562.27	65535.00
562.44	65535.00
562.60	65535.00
562.77	65535.00
562.93	65535.00
563.10	65535.00
563.26	65535.00
563.42	65535.00
563.59	65535.00
563.75	65535.00
563.92	65535.00
564.08	65535.00
564.24	65535.00
564.41	65535.00
564.57	65535.00
564.74	65535.00
564.90	65535.00
565.07	65535.00
565.23	65535.00
565.39	65535.00
565.56	65535.00
565.72	65535.00
565.88	65535.00
566.05	65535.00
566.21	65535.00
566.38	65535.00
566.54	65535.00
566.70	65535.00
566.87	65535.00
567.03	65535.00
567.19	65535.00
567.36	65535.00
567.52	65535.00
567.68	65535.00
567.85	65535.00
568.01	65535.00
568.17	65535.00
568.34	65535.00
568.50	65535.00
568.66	65535.00
568.83	65535.00
568.99	65535.00
569.15	65535.00
569.32	65535.00
569.48	65535.00
569.64	65535.00
569.81	65535.00
569.97	65535.00
570.13	65535.00
570.30	65535.00
570.46	65535.00
570.62	65535.00
570.78	65535.00
570.95	65535.00
571.11	65535.00
571.27	65535.00
571.43	65535.00
571.60	65535.00
571.76	65535.00
571.92	65535.00
572.09	65535.00
572.25	65535.00
572.41	65535.00
572.57	65535.00
572.74	65535.00
572.90	65535.00
573.06	65535.00
573.22	65535.00
573.38	65535.00
573.55	65535.00
573.71	65535.00
573.87	65535.00
574.03	65535.00
574.20	65535.00
574.36	65535.00
574.52	65535.00
574.68	65535.00
574.84	65535.00
575.01	65535.00
575.17	65535.00
575.33	65535.00
575.49	65535.00
575.65	65535.00
575.82	65535.00
575.98	65535.00
576.14	65535.00
576.30	65535.00
576.46	65535.00
576.62	65535.00
576.79	65535.00
576.95	65535.00
577.11	65535.00
577.27	65535.00
577.43	65535.00
577.59	65535.00
577.75	65535.00
577.92	65535.00
578.08	65535.00
578.24	65535.00
578.40	65535.00
578.56	65535.00
578.72	65535.00
578.88	65535.00
579.04	65535.00
579.21	65535.00
579.37	65535.00
579.53	65535.00
579.69	65535.00
579.85	65535.00
580.01	65535.00
580.17	65535.00
580.33	65535.00
580.49	65535.00
580.65	65535.00
580.82	65535.00
580.98	65535.00
581.14	65535.00
581.30	65535.00
581.46	65535.00
581.62	65535.00
581.78	65535.00
581.94	65535.00
582.10	65535.00
582.26	65535.00
582.42	65535.00
582.58	65535.00
582.74	65535.00
582.90	65535.00
583.06	65535.00
583.22	65535.00
583.38	65535.00
