SpectraSuite Data File
++++++++++++++++++++++++++++++++++++
Date: Mon Oct 07 14:53:15 GMT-05:00 2013
User: price-jones
Dark Spectrum Present: No
Reference Spectrum Present: No
Number of Sampled Component Spectra: 1
Spectrometers: USB2+H05261
Integration Time (usec): 100000 (USB2+H05261)
Spectra Averaged: 1 (USB2+H05261)
Boxcar Smoothing: 0 (USB2+H05261)
Correct for Electrical Dark: No (USB2+H05261)
Strobe/Lamp Enabled: No (USB2+H05261)
Correct for Detector Non-linearity: No (USB2+H05261)
Correct for Stray Light: No (USB2+H05261)
Number of Pixels in Processed Spectrum: 2048
>>>>>Begin Processed Spectral Data<<<<<
365.73	0.00
365.92	0.00
366.12	0.00
366.32	0.00
366.52	0.00
366.72	0.00
366.91	0.00
367.11	0.00
367.31	0.00
367.51	0.00
367.70	0.00
367.90	0.00
368.10	0.00
368.30	0.00
368.49	0.00
368.69	0.00
368.89	0.00
369.09	0.00
369.28	0.00
369.48	0.00
369.68	0.00
369.87	0.00
370.07	0.00
370.27	0.00
370.47	856.64
370.66	4147.43
370.86	4957.25
371.06	5434.72
371.25	5200.67
371.45	4884.70
371.65	4379.14
371.84	4140.41
372.04	4088.92
372.24	4755.97
372.44	4964.28
372.63	4842.57
372.83	4477.44
373.03	3964.87
373.22	3723.79
373.42	3932.10
373.62	4491.49
373.81	4690.43
374.01	4674.05
374.21	4325.31
374.40	4014.02
374.60	4306.59
374.79	4875.34
374.99	5736.65
375.19	5839.64
375.38	5795.17
375.58	5628.99
375.78	5369.19
375.97	5401.96
376.17	5816.23
376.37	5781.12
376.56	5959.00
376.76	6146.25
376.95	6630.74
377.15	6937.35
377.35	7323.54
377.54	7625.47
377.74	7681.64
377.93	7770.58
378.13	7307.15
378.33	7063.74
378.52	6705.63
378.72	6431.79
378.91	6326.47
379.11	6167.31
379.31	5844.32
379.50	5818.57
379.70	6303.06
379.89	7194.81
380.09	7351.62
380.28	7772.92
380.48	7641.85
380.68	7234.60
380.87	7176.08
381.07	6733.72
381.26	6195.40
381.46	5760.06
381.65	5689.84
381.85	5497.92
382.04	5228.76
382.24	4968.96
382.43	4636.60
382.63	4634.26
382.83	4557.02
383.02	4435.32
383.22	4624.90
383.41	4578.09
383.61	4856.61
383.80	5680.48
384.00	6359.24
384.19	7258.00
384.39	7468.65
384.58	7480.35
384.78	7218.21
384.97	7311.83
385.17	6803.94
385.36	6574.56
385.56	6171.99
385.75	6413.07
385.95	7094.16
386.14	7630.15
386.34	7506.10
386.53	7220.55
386.72	6874.15
386.92	6960.75
387.11	7258.00
387.31	7735.47
387.50	7679.30
387.70	7140.97
387.89	7311.83
388.09	7358.64
388.28	7269.70
388.48	7609.08
388.67	8016.33
388.86	8807.44
389.06	9472.15
389.25	9664.07
389.45	9914.51
389.64	9802.16
389.84	9832.59
390.03	9504.92
390.22	9699.18
390.42	9956.64
390.61	10516.03
390.81	11276.70
391.00	11424.15
391.19	11419.47
391.39	10853.06
391.58	10377.94
391.78	9757.69
391.97	9294.27
392.16	8685.73
392.36	7922.71
392.55	6408.39
392.75	5001.72
392.94	4227.01
393.13	4102.96
393.33	5111.73
393.52	6319.45
393.71	7808.03
393.91	8769.99
394.10	9308.31
394.29	10408.36
394.49	11098.82
394.68	12128.66
394.88	11894.60
395.07	12510.16
395.26	12159.08
395.46	11908.65
395.65	11208.83
395.84	9661.73
396.04	8250.39
396.23	6820.32
396.42	5621.97
396.62	5399.62
396.81	6366.26
397.00	8205.92
397.19	10078.35
397.39	12182.49
397.58	13565.74
397.77	14314.72
397.97	14885.81
398.16	14925.60
398.35	15712.02
398.55	16002.24
398.74	16592.06
398.93	16739.51
399.12	16802.71
399.32	16065.44
399.51	16444.60
399.70	18057.23
399.90	17523.59
400.09	17556.36
400.28	17268.47
400.47	17392.52
400.67	18434.06
400.86	18513.64
401.05	18525.34
401.24	18686.84
401.44	19337.51
401.63	19187.71
401.82	19161.97
402.01	19358.57
402.21	19433.47
402.40	19562.20
402.59	18890.46
402.78	18171.92
402.97	17544.66
403.17	18176.60
403.36	19351.55
403.55	20058.39
403.74	20210.53
403.93	19466.24
404.13	17900.42
404.32	17731.90
404.51	18174.26
404.70	19648.80
404.89	20070.09
405.09	19693.27
405.28	19131.54
405.47	18998.13
405.66	18658.75
405.85	18621.30
406.05	17523.59
406.24	18377.89
406.43	18726.63
406.62	19178.35
406.81	19786.89
407.00	18920.89
407.20	18375.55
407.39	18654.07
407.58	19983.49
407.77	20540.54
407.96	20954.82
408.15	21486.12
408.34	21563.36
408.54	22176.58
408.73	22321.69
408.92	21984.65
409.11	21322.28
409.30	20676.29
409.49	18967.70
409.68	17591.47
409.87	17247.41
410.07	18668.11
410.26	19772.85
410.45	21582.08
410.64	21795.07
410.83	22422.33
411.02	23117.47
411.21	23866.44
411.40	23634.73
411.59	23655.79
411.78	23653.45
411.98	23145.56
412.17	23714.31
412.36	23129.17
412.55	23229.82
412.74	22948.95
412.93	21919.12
413.12	22735.96
413.31	24577.97
413.50	24664.57
413.69	25310.55
413.88	24201.14
414.07	23608.98
414.26	24168.37
414.45	24879.89
414.64	24833.08
414.83	24725.42
415.02	24315.83
415.22	24451.58
415.41	24971.18
415.60	25682.70
415.79	26813.18
415.98	27077.66
416.17	27861.74
416.36	26635.30
416.55	26167.19
416.74	25933.14
416.93	24540.52
417.12	24919.68
417.31	24936.07
417.50	25462.69
417.69	26073.57
417.88	26188.25
418.07	25635.89
418.26	25560.99
418.45	25799.73
418.64	26939.57
418.83	27433.42
419.02	27285.97
419.21	26967.65
419.39	25905.05
419.58	24554.56
419.77	24538.18
419.96	25762.28
420.15	27365.54
420.34	28116.86
420.53	29017.96
420.72	29383.09
420.91	28978.17
421.10	29268.40
421.29	28870.51
421.48	27269.58
421.67	29074.13
421.86	27733.01
422.05	26022.08
422.24	23379.61
422.43	23695.58
422.61	26120.38
422.80	28196.43
422.99	28137.92
423.18	27047.23
423.37	26419.97
423.56	26766.37
423.75	26923.18
423.94	27496.61
424.13	26146.12
424.32	26401.24
424.50	26422.31
424.69	25708.44
424.88	26106.34
425.07	26195.28
425.26	26057.18
425.45	25832.49
425.64	25373.75
425.83	25647.59
426.01	26761.69
426.20	27484.91
426.39	26937.23
426.58	25219.27
426.77	23126.83
426.96	22590.85
427.15	23250.88
427.33	25242.68
427.52	26548.70
427.71	26366.13
427.90	25909.73
428.09	26085.27
428.28	25348.00
428.46	24133.26
428.65	24254.97
428.84	24898.62
429.03	25214.59
429.22	23929.64
429.40	22480.85
429.59	20484.37
429.78	17926.16
429.97	18148.51
430.16	18338.10
430.34	18513.64
430.53	18644.71
430.72	19208.78
430.91	21226.32
431.10	24968.84
431.28	28947.75
431.47	31166.57
431.66	31192.32
431.85	28631.77
432.03	26338.05
432.22	25535.24
432.41	26649.34
432.60	29357.34
432.79	30370.79
432.97	30876.35
433.16	30031.41
433.35	27845.35
433.54	25167.78
433.72	23171.30
433.91	24505.41
434.10	27304.69
434.28	29312.87
434.47	30593.14
434.66	29937.79
434.85	29252.02
435.03	29067.11
435.22	29614.80
435.41	31564.46
435.59	31981.08
435.78	32362.59
435.97	33205.18
436.16	33209.86
436.34	32720.69
436.53	31718.94
436.72	32184.71
436.90	30155.46
437.09	30249.08
437.28	29958.86
437.46	30794.43
437.65	30689.10
437.84	28465.60
438.02	26497.20
438.21	26389.54
438.40	27737.69
438.58	29851.19
438.77	30803.79
438.96	30960.61
439.14	32315.78
439.33	33067.09
439.52	33333.91
439.70	32856.44
439.89	32128.53
440.08	31253.17
440.26	31234.45
440.45	32233.86
440.63	34719.51
440.82	36343.84
441.01	35812.54
441.19	35456.78
441.38	35990.42
441.57	37406.44
441.75	37717.73
441.94	37883.91
442.12	37294.10
442.31	38417.55
442.50	37998.60
442.68	37673.26
442.87	37291.76
443.05	36285.33
443.24	37488.36
443.43	38565.01
443.61	38600.12
443.80	39182.91
443.98	36961.74
444.17	37256.65
444.35	38986.30
444.54	39999.76
444.73	39374.83
444.91	37177.07
445.10	36486.61
445.28	35103.35
445.47	34349.70
445.65	34581.42
445.84	35269.53
446.02	36783.86
446.21	37172.39
446.39	37170.05
446.58	37951.79
446.77	38562.67
446.95	38726.50
447.14	39730.59
447.32	40985.12
447.51	39257.81
447.69	37780.93
447.88	37390.06
448.06	38382.45
448.25	38986.30
448.43	39164.18
448.62	38354.36
448.80	38508.83
448.99	38307.55
449.17	38897.36
449.36	38651.61
449.54	40446.80
449.73	41415.78
449.91	41668.56
450.10	42857.55
450.28	42815.42
450.46	42698.39
450.65	42904.36
450.83	42293.48
451.02	41715.37
451.20	41776.22
451.39	41626.43
451.57	40912.56
451.76	41572.60
451.94	41127.89
452.13	40163.59
452.31	38316.91
452.49	37069.40
452.68	37532.83
452.86	37179.41
453.05	37851.14
453.23	38939.49
453.42	39936.56
453.60	40694.89
453.78	41418.12
453.97	40931.29
454.15	40744.05
454.34	39468.45
454.52	40025.50
454.70	39241.42
454.89	39505.90
455.07	39899.11
455.26	40622.34
455.44	41808.99
455.62	42703.07
455.81	42871.59
455.99	42895.00
456.17	41975.17
456.36	42124.96
456.54	43133.73
456.73	42944.15
456.91	43531.62
457.09	44142.50
457.28	44865.73
457.46	43166.50
457.64	42831.80
457.83	42017.30
458.01	40905.54
458.19	42043.04
458.38	42162.41
458.56	43344.38
458.74	43009.68
458.93	42241.99
459.11	42438.59
459.29	42122.62
459.48	41886.23
459.66	42153.05
459.84	42871.59
460.03	43007.34
460.21	43145.44
460.39	43765.68
460.57	43908.45
460.76	44715.93
460.94	45141.91
461.12	44296.98
461.31	44327.41
461.49	43955.26
461.67	44182.29
461.85	45394.69
462.04	44818.92
462.22	45214.47
462.40	45013.18
462.59	45251.92
462.77	45022.54
462.95	45696.62
463.13	44729.98
463.32	44638.70
463.50	43768.02
463.68	43913.13
463.86	44233.78
464.05	43606.52
464.23	42452.64
464.41	42766.27
464.59	42188.16
464.78	43842.92
464.96	43938.88
465.14	43292.89
465.32	44467.84
465.50	45509.38
465.69	45705.98
465.87	44629.34
466.05	43950.58
466.23	42265.39
466.41	41305.77
466.60	42473.70
466.78	42305.18
466.96	43133.73
467.14	43721.21
467.32	44261.87
467.51	44112.08
467.69	42555.62
467.87	43353.74
468.05	43859.30
468.23	44114.42
468.41	43704.82
468.60	44210.38
468.78	44458.48
468.96	44083.99
469.14	44961.69
469.32	44788.49
469.50	43285.87
469.69	43089.26
469.87	42775.63
470.05	42754.57
470.23	42962.87
470.41	43014.37
470.59	43241.40
470.77	43526.94
470.95	44308.68
471.14	44919.56
471.32	45151.27
471.50	46887.95
471.68	47168.82
471.86	47239.03
472.04	47562.03
472.22	47456.70
472.40	45626.40
472.58	45598.32
472.77	44917.22
472.95	45876.84
473.13	46567.30
473.31	45624.06
473.49	46597.73
473.67	46993.28
473.85	47224.99
474.03	48149.50
474.21	48271.21
474.39	48322.70
474.57	48161.20
474.75	48369.51
474.93	48123.75
475.12	46958.17
475.30	47559.69
475.48	47945.87
475.66	48521.65
475.84	47800.76
476.02	47246.05
476.20	46621.13
476.38	47910.77
476.56	48655.06
476.74	49361.90
476.92	49434.45
477.10	50192.79
477.28	51150.07
477.46	51276.46
477.64	51468.38
477.82	51217.94
478.00	51571.36
478.18	51234.33
478.36	50745.15
478.54	51227.31
478.72	51367.74
478.90	52065.22
479.08	53092.71
479.26	53294.00
479.44	53235.48
479.62	53113.78
479.80	52825.89
479.98	53130.16
480.16	53404.00
480.34	53022.50
480.52	53492.94
480.70	53708.27
480.88	53535.07
481.06	54323.83
481.24	54471.29
481.41	55393.46
481.59	55573.68
481.77	55234.30
481.95	54777.90
482.13	54717.04
482.31	54770.88
482.49	55379.42
482.67	55152.38
482.85	55346.65
483.03	55891.99
483.21	56100.30
483.39	55971.57
483.57	55487.08
483.74	55456.65
483.92	55686.03
484.10	55664.96
484.28	56423.29
484.46	56432.66
484.64	56868.00
484.82	56193.92
485.00	56034.77
485.18	55327.92
485.35	54527.46
485.53	51906.06
485.71	48797.83
485.89	48839.96
486.07	50375.35
486.25	53022.50
486.43	54738.11
486.61	55302.18
486.78	55295.16
486.96	55388.78
487.14	56474.79
487.32	56942.89
487.50	57766.76
487.68	58241.89
487.85	58906.60
488.03	58834.05
488.21	58433.81
488.39	57923.58
488.57	57382.91
488.75	57403.98
488.92	58185.72
489.10	59985.59
489.28	60664.35
489.46	61214.37
489.64	61003.72
489.81	61275.22
489.99	60903.08
490.17	60989.68
490.35	61247.14
490.53	60910.10
490.70	60650.30
490.88	60622.22
491.06	61312.67
491.24	61293.95
491.41	60390.50
491.59	59217.89
491.77	58691.27
491.95	59683.66
492.13	60406.89
492.30	61336.08
492.48	62148.24
492.66	62489.96
492.84	62326.13
493.01	62197.40
493.19	61752.69
493.37	61656.73
493.54	61312.67
493.72	61916.53
493.90	62796.57
494.08	63423.84
494.25	63669.59
494.43	63702.36
494.61	63978.54
494.79	64133.02
494.96	63884.92
495.14	63515.12
495.32	62621.03
495.49	62134.20
495.67	63161.70
495.85	64140.04
496.02	64439.63
496.20	64158.76
496.38	63859.18
496.55	63884.92
496.73	64448.99
496.91	64521.55
497.09	64881.99
497.26	65008.38
497.44	64458.35
497.62	64217.28
497.79	63557.25
497.97	62358.89
498.14	62630.40
498.32	63557.25
498.50	64395.16
498.67	64807.09
498.85	64549.63
499.03	64966.25
499.20	65043.49
499.38	65027.10
499.56	64870.29
499.73	64402.18
499.91	64015.99
500.08	63760.87
500.26	63009.56
500.44	63442.56
500.61	64140.04
500.79	64020.67
500.97	63749.17
501.14	63416.82
501.32	63458.94
501.49	63517.46
501.67	63704.70
501.84	64048.76
502.02	64200.89
502.20	64463.03
502.37	64650.28
502.55	64793.05
502.72	65272.86
502.90	65535.00
503.07	65378.18
503.25	65015.40
503.43	64278.13
503.60	63681.30
503.78	63271.70
503.95	63653.21
504.13	64846.88
504.30	65535.00
504.48	65336.05
504.65	65139.45
504.83	65057.53
505.01	65467.12
505.18	65535.00
505.36	65535.00
505.53	65535.00
505.71	65535.00
505.88	65535.00
506.06	65535.00
506.23	65535.00
506.41	65532.66
506.58	65535.00
506.76	65509.25
506.93	65535.00
507.11	65535.00
507.28	65527.98
507.46	65223.71
507.63	64636.23
507.81	64615.17
507.98	64680.70
508.16	65314.99
508.33	65535.00
508.50	65535.00
508.68	65535.00
508.85	65535.00
509.03	65535.00
509.20	65535.00
509.38	65535.00
509.55	65293.92
509.73	65511.59
509.90	65535.00
510.08	65535.00
510.25	65535.00
510.42	65535.00
510.60	65535.00
510.77	65535.00
510.95	65535.00
511.12	65535.00
511.30	65535.00
511.47	65535.00
511.64	65535.00
511.82	65535.00
511.99	65535.00
512.17	65535.00
512.34	65535.00
512.51	65478.83
512.69	65535.00
512.86	65535.00
513.04	65535.00
513.21	65535.00
513.38	65535.00
513.56	65415.63
513.73	64942.84
513.90	64952.21
514.08	65193.28
514.25	65516.28
514.43	65535.00
514.60	65535.00
514.77	65535.00
514.95	65535.00
515.12	65535.00
515.29	65535.00
515.47	65535.00
515.64	65535.00
515.81	65535.00
515.99	65535.00
516.16	64764.96
516.33	62660.82
516.51	61738.65
516.68	60907.76
516.85	60556.68
517.03	61029.47
517.20	63138.29
517.37	65146.47
517.54	65535.00
517.72	65511.59
517.89	63531.50
518.06	61549.07
518.24	61993.77
518.41	63634.48
518.58	64708.79
518.75	65043.49
518.93	65212.01
519.10	64992.00
519.27	65474.15
519.45	65535.00
519.62	65535.00
519.79	65535.00
519.96	65535.00
520.14	65535.00
520.31	65324.35
520.48	65204.98
520.65	65535.00
520.83	65535.00
521.00	65535.00
521.17	65535.00
521.34	65535.00
521.52	65535.00
521.69	65535.00
521.86	65535.00
522.03	65535.00
522.20	65535.00
522.38	65162.85
522.55	65006.04
522.72	65535.00
522.89	65535.00
523.07	65535.00
523.24	65535.00
523.41	65535.00
523.58	65535.00
523.75	65535.00
523.92	65535.00
524.10	65535.00
524.27	65535.00
524.44	65535.00
524.61	65535.00
524.78	65535.00
524.96	65535.00
525.13	65535.00
525.30	65535.00
525.47	65535.00
525.64	65535.00
525.81	65535.00
525.98	65535.00
526.16	64198.55
526.33	63669.59
526.50	63393.41
526.67	63164.04
526.84	63749.17
527.01	64612.83
527.18	65172.22
527.36	65535.00
527.53	65535.00
527.70	65535.00
527.87	65535.00
528.04	65535.00
528.21	65535.00
528.38	65535.00
528.55	65535.00
528.72	65535.00
528.89	65535.00
529.07	65535.00
529.24	65535.00
529.41	65535.00
529.58	65535.00
529.75	65535.00
529.92	65535.00
530.09	65535.00
530.26	65535.00
530.43	65535.00
530.60	65535.00
530.77	65535.00
530.94	65535.00
531.11	65535.00
531.28	65535.00
531.46	65535.00
531.63	65535.00
531.80	65535.00
531.97	65535.00
532.14	65535.00
532.31	65410.95
532.48	64596.45
532.65	64790.71
532.82	65485.85
532.99	65535.00
533.16	65535.00
533.33	65535.00
533.50	65535.00
533.67	65535.00
533.84	65535.00
534.01	65535.00
534.18	65535.00
534.35	65535.00
534.52	65535.00
534.69	65535.00
534.86	65535.00
535.03	65535.00
535.20	65535.00
535.37	65535.00
535.54	65535.00
535.71	65535.00
535.88	65535.00
536.05	65535.00
536.22	65535.00
536.38	65535.00
536.55	65535.00
536.72	65471.81
536.89	65137.11
537.06	65535.00
537.23	65535.00
537.40	65535.00
537.57	65535.00
537.74	65535.00
537.91	65535.00
538.08	65535.00
538.25	65535.00
538.42	65535.00
538.59	65535.00
538.75	65535.00
538.92	65535.00
539.09	65535.00
539.26	65535.00
539.43	65535.00
539.60	65535.00
539.77	65535.00
539.94	65535.00
540.11	65008.38
540.28	64596.45
540.44	64500.48
540.61	64879.65
540.78	64999.02
540.95	65279.88
541.12	65535.00
541.29	65535.00
541.46	65535.00
541.62	65535.00
541.79	65535.00
541.96	65535.00
542.13	65535.00
542.30	65535.00
542.47	65535.00
542.63	65535.00
542.80	65535.00
542.97	65535.00
543.14	65535.00
543.31	65535.00
543.48	65535.00
543.64	65535.00
543.81	65535.00
543.98	65535.00
544.15	65535.00
544.32	65535.00
544.48	65535.00
544.65	65535.00
544.82	65535.00
544.99	65535.00
545.16	65535.00
545.32	65535.00
545.49	65535.00
545.66	65535.00
545.83	65535.00
546.00	65535.00
546.16	65535.00
546.33	65535.00
546.50	65535.00
546.67	65535.00
546.83	65535.00
547.00	65535.00
547.17	65535.00
547.34	65083.28
547.50	64905.40
547.67	65219.03
547.84	65249.45
548.00	65535.00
548.17	65535.00
548.34	65535.00
548.51	65535.00
548.67	65535.00
548.84	65535.00
549.01	65535.00
549.18	65535.00
549.34	65535.00
549.51	65535.00
549.68	65535.00
549.84	65535.00
550.01	65535.00
550.18	65490.53
550.34	65513.94
550.51	65535.00
550.68	65535.00
550.84	65204.98
551.01	65284.56
551.18	65305.63
551.34	65413.29
551.51	65535.00
551.68	65535.00
551.84	65535.00
552.01	65535.00
552.18	65497.55
552.34	65092.64
552.51	64898.37
552.68	64708.79
552.84	65092.64
553.01	65434.36
553.18	65338.40
553.34	65401.59
553.51	65481.17
553.67	65535.00
553.84	65535.00
554.01	65535.00
554.17	65535.00
554.34	65509.25
554.51	65535.00
554.67	65535.00
554.84	65535.00
555.00	65535.00
555.17	65392.23
555.33	65429.68
555.50	65242.43
555.67	65347.76
555.83	65155.83
556.00	65073.91
556.16	64977.95
556.33	64664.32
556.50	64713.47
556.66	64767.30
556.83	64303.88
556.99	64430.27
557.16	64661.98
557.32	64786.03
557.49	65127.75
557.65	64734.54
557.82	65076.26
557.98	64781.35
558.15	64470.06
558.32	63828.75
558.48	63061.05
558.65	63196.80
558.81	63582.99
558.98	63880.24
559.14	63945.78
559.31	63943.44
559.47	64030.04
559.64	63730.45
559.80	63494.05
559.97	63636.83
560.13	63866.20
560.30	64612.83
560.46	65134.77
560.63	65279.88
560.79	65181.58
560.96	64980.29
561.12	63934.07
561.29	63290.43
561.45	63203.83
561.61	63842.79
561.78	64331.96
561.94	64058.12
562.11	63934.07
562.27	63971.52
562.44	64142.38
562.60	64343.67
562.77	64549.63
562.93	64472.40
563.10	64413.88
563.26	63976.20
563.42	63877.90
563.59	63931.73
563.75	63814.71
563.92	63863.86
564.08	63714.06
564.24	64163.45
564.41	64104.93
564.57	64027.70
564.74	63781.94
564.90	63952.80
565.07	63536.18
565.23	63334.90
565.39	62866.79
565.56	62686.57
565.72	62450.17
565.88	62997.86
566.05	62990.84
566.21	63187.44
566.38	63353.62
566.54	63526.82
566.70	63653.21
566.87	63732.79
567.03	63695.34
567.19	63898.97
567.36	63838.11
567.52	63636.83
567.68	63435.54
567.85	62812.96
568.01	62550.82
568.17	62513.37
568.34	62394.00
568.50	62307.40
568.66	62419.75
568.83	62709.97
568.99	62752.10
569.15	63007.22
569.32	62878.49
569.48	62663.16
569.64	62609.33
569.81	62246.55
569.97	62099.09
570.13	62323.78
570.30	61872.06
570.46	61642.69
570.62	61078.62
570.78	60961.59
570.95	61415.66
571.11	61808.87
571.27	62092.07
571.43	62199.74
571.60	62384.64
571.76	62447.83
571.92	62822.32
572.09	62885.51
572.25	62899.56
572.41	62897.22
572.57	62738.06
572.74	62717.00
572.90	62398.68
573.06	62424.43
573.22	62230.16
573.38	62569.54
573.55	62489.96
573.71	62712.31
573.87	62576.56
574.03	62337.83
574.20	62152.93
574.36	61881.42
574.52	62056.96
574.68	61691.84
574.84	61406.30
575.01	61125.43
575.17	61130.11
575.33	61282.25
575.49	61544.39
575.65	61832.27
575.82	61567.79
575.98	61062.24
576.14	61354.80
576.30	61666.09
576.46	61815.89
576.62	61806.53
576.79	61684.82
576.95	61286.93
577.11	61607.58
577.27	61623.96
577.43	61586.52
577.59	61137.13
577.75	60900.74
577.92	60537.96
578.08	60348.37
578.24	60219.64
578.40	60477.10
578.56	60734.56
578.72	60996.70
578.88	60975.64
579.04	61055.21
579.21	61202.67
579.37	61329.06
579.53	61385.23
579.69	61366.51
579.85	61560.77
580.01	61317.35
580.17	60910.10
580.33	60727.54
580.49	60795.42
580.65	61113.73
580.82	61233.10
580.98	61347.78
581.14	61270.54
581.30	61158.20
581.46	61006.06
581.62	61478.85
581.78	61153.52
581.94	61567.79
582.10	61453.11
582.26	61446.08
582.42	61183.94
582.58	61490.55
582.74	61366.51
582.90	61420.34
583.06	61197.99
583.22	61062.24
583.38	61169.90
583.54	61080.96
583.70	61258.84
583.86	61097.34
584.02	60917.12
584.18	61347.78
584.34	60928.83
584.50	60772.01
584.66	60849.25
584.82	60343.69
584.98	60266.45
585.14	60353.05
