SpectraSuite Data File
++++++++++++++++++++++++++++++++++++
Date: Mon Oct 07 14:54:59 GMT-05:00 2013
User: price-jones
Dark Spectrum Present: No
Reference Spectrum Present: No
Number of Sampled Component Spectra: 1
Spectrometers: USB2+H05261
Integration Time (usec): 10000 (USB2+H05261)
Spectra Averaged: 1 (USB2+H05261)
Boxcar Smoothing: 0 (USB2+H05261)
Correct for Electrical Dark: No (USB2+H05261)
Strobe/Lamp Enabled: No (USB2+H05261)
Correct for Detector Non-linearity: No (USB2+H05261)
Correct for Stray Light: No (USB2+H05261)
Number of Pixels in Processed Spectrum: 2048
>>>>>Begin Processed Spectral Data<<<<<
365.73	0.00
365.92	0.00
366.12	0.00
366.32	0.00
366.52	0.00
366.72	0.00
366.91	0.00
367.11	0.00
367.31	0.00
367.51	0.00
367.70	0.00
367.90	0.00
368.10	0.00
368.30	0.00
368.49	0.00
368.69	0.00
368.89	0.00
369.09	0.00
369.28	0.00
369.48	0.00
369.68	0.00
369.87	0.00
370.07	0.00
370.27	0.00
370.47	25.75
370.66	732.59
370.86	774.72
371.06	931.53
371.25	1039.20
371.45	798.12
371.65	753.65
371.84	730.25
372.04	774.72
372.24	910.47
372.44	938.55
372.63	950.26
372.83	772.38
373.03	734.93
373.22	624.92
373.42	763.01
373.62	849.61
373.81	1001.75
374.01	908.13
374.21	866.00
374.40	858.98
374.60	791.10
374.79	947.92
374.99	1181.97
375.19	1174.95
375.38	1263.89
375.58	1029.84
375.78	1071.97
375.97	1067.28
376.17	1086.01
376.37	1135.16
376.56	1191.33
376.76	1334.11
376.95	1249.85
377.15	1549.43
377.35	1516.67
377.54	1516.67
377.74	1614.97
377.93	1610.29
378.13	1549.43
378.33	1409.00
378.52	1364.53
378.72	1280.27
378.91	1252.19
379.11	1249.85
379.31	1067.28
379.50	1165.59
379.70	1179.63
379.89	1427.73
380.09	1490.92
380.28	1535.39
380.48	1523.69
380.68	1502.62
380.87	1502.62
381.07	1284.95
381.26	1186.65
381.46	1125.80
381.65	1121.12
381.85	1053.24
382.04	964.30
382.24	847.27
382.43	826.21
382.63	760.67
382.83	856.64
383.02	821.53
383.22	854.30
383.41	837.91
383.61	922.17
383.80	1172.61
384.00	1277.93
384.19	1509.65
384.39	1493.26
384.58	1437.09
384.78	1472.20
384.97	1434.75
385.17	1327.08
385.36	1299.00
385.56	1348.15
385.75	1287.29
385.95	1420.71
386.14	1561.14
386.34	1488.58
386.53	1425.39
386.72	1394.96
386.92	1460.49
387.11	1596.25
387.31	1547.09
387.50	1474.54
387.70	1359.85
387.89	1420.71
388.09	1516.67
388.28	1481.56
388.48	1561.14
388.67	1750.72
388.86	1804.55
389.06	1994.14
389.25	1966.05
389.45	2097.12
389.64	2080.74
389.84	1933.28
390.03	2005.84
390.22	2104.14
390.42	2120.53
390.61	2296.07
390.81	2305.43
391.00	2317.13
391.19	2385.01
391.39	2216.49
391.58	2087.76
391.78	2026.90
391.97	2031.58
392.16	1736.68
392.36	1507.30
392.55	1062.60
392.75	866.00
392.94	678.76
393.13	842.59
393.33	1020.47
393.52	1282.61
393.71	1607.95
393.91	1844.34
394.10	1867.75
394.29	2249.25
394.49	2466.92
394.68	2546.50
394.88	2485.65
395.07	2562.89
395.26	2597.99
395.46	2429.48
395.65	2157.97
395.84	1942.64
396.04	1488.58
396.23	1177.29
396.42	1013.45
396.62	961.96
396.81	1394.96
397.00	1762.42
397.19	2183.72
397.39	2499.69
397.58	2857.79
397.77	3082.49
397.97	3059.08
398.16	3365.69
398.35	3466.33
398.55	3452.29
398.74	3538.89
398.93	3508.46
399.12	3620.81
399.32	3396.12
399.51	3508.46
399.70	3756.56
399.90	3698.05
400.09	3815.07
400.28	3627.83
400.47	3691.02
400.67	3824.44
400.86	3960.19
401.05	4014.02
401.24	4067.85
401.44	4091.26
401.63	3955.51
401.82	3908.69
402.01	3950.82
402.21	4081.89
402.40	4007.00
402.59	3845.50
402.78	3686.34
402.97	3700.39
403.17	3887.63
403.36	4194.24
403.55	4175.52
403.74	4250.41
403.93	4102.96
404.13	3796.35
404.32	3845.50
404.51	3941.46
404.70	4121.68
404.89	4081.89
405.09	4018.70
405.28	3850.18
405.47	3948.48
405.66	3978.91
405.85	3786.99
406.05	3747.20
406.24	3826.78
406.43	3971.89
406.62	4168.49
406.81	4039.76
407.00	4039.76
407.20	3749.54
407.39	3864.22
407.58	4135.73
407.77	4201.26
407.96	4379.14
408.15	4360.42
408.34	4575.75
408.54	4617.88
408.73	4547.66
408.92	4573.41
409.11	4554.68
409.30	4189.56
409.49	3936.78
409.68	3698.05
409.87	3735.50
410.07	4070.19
410.26	4121.68
410.45	4432.97
410.64	4599.15
410.83	4737.24
411.02	4891.72
411.21	4891.72
411.40	4858.95
411.59	4781.71
411.78	4814.48
411.98	4933.85
412.17	4873.00
412.36	4765.33
412.55	4681.07
412.74	4606.17
412.93	4669.37
413.12	4741.93
413.31	5085.98
413.50	4966.62
413.69	5095.35
413.88	4767.67
414.07	4823.84
414.26	4858.95
414.45	4940.87
414.64	5015.77
414.83	5025.13
415.02	4994.70
415.22	4882.36
415.41	5177.26
415.60	5156.20
415.79	5504.94
415.98	5495.58
416.17	5507.28
416.36	5303.65
416.55	5153.86
416.74	4961.94
416.93	4884.70
417.12	4887.04
417.31	5270.89
417.50	5240.46
417.69	5397.28
417.88	5303.65
418.07	5247.48
418.26	5158.54
418.45	5205.35
418.64	5378.55
418.83	5738.99
419.02	5425.36
419.21	5305.99
419.39	5118.75
419.58	4802.78
419.77	5050.88
419.96	5177.26
420.15	5404.30
420.34	5671.12
420.53	5797.51
420.72	5991.77
420.91	5771.76
421.10	5685.16
421.29	5757.72
421.48	5664.10
421.67	5788.14
421.86	5458.13
422.05	5067.26
422.24	4709.16
422.43	4772.35
422.61	5350.46
422.80	5631.33
422.99	5556.43
423.18	5298.97
423.37	5284.93
423.56	5399.62
423.75	5247.48
423.94	5434.72
424.13	5022.79
424.32	5174.92
424.50	5151.52
424.69	5256.84
424.88	5327.06
425.07	5179.61
425.26	5034.49
425.45	4816.82
425.64	4959.60
425.83	5163.22
426.01	5359.83
426.20	5324.72
426.39	5179.61
426.58	4802.78
426.77	4447.02
426.96	4437.66
427.15	4564.04
427.33	5022.79
427.52	5032.15
427.71	5093.01
427.90	4945.55
428.09	4999.38
428.28	4823.84
428.46	4685.75
428.65	4674.05
428.84	4688.09
429.03	4798.10
429.22	4498.51
429.40	4201.26
429.59	3953.16
429.78	3293.13
429.97	3452.29
430.16	3449.95
430.34	3492.08
430.53	3583.36
430.72	3674.64
430.91	4161.47
431.10	5034.49
431.28	5755.38
431.47	6036.24
431.66	6064.33
431.85	5432.38
432.03	4968.96
432.22	4854.27
432.41	5348.12
432.60	5565.79
432.79	5984.75
432.97	5813.89
433.16	5483.88
433.35	5217.05
433.54	4524.26
433.72	4507.87
433.91	4582.77
434.10	5062.58
434.28	5556.43
434.47	5806.87
434.66	5554.09
434.85	5542.39
435.03	5638.35
435.22	5790.49
435.41	6073.69
435.59	6033.90
435.78	6193.06
435.97	6251.57
436.16	6073.69
436.34	6031.56
436.53	6001.13
436.72	5961.34
436.90	5734.31
437.09	5715.59
437.28	5617.29
437.46	5781.12
437.65	5760.06
437.84	5280.25
438.02	5083.64
438.21	4933.85
438.40	5074.28
438.58	5472.17
438.77	5645.37
438.96	5963.68
439.14	6174.33
439.33	6122.84
439.52	6160.29
439.70	5930.92
439.89	6010.50
440.08	5823.25
440.26	5926.24
440.45	5956.66
440.63	6384.98
440.82	6581.59
441.01	6518.39
441.19	6469.24
441.38	6572.22
441.57	6862.45
441.75	6956.07
441.94	6885.86
442.12	7115.23
442.31	7119.91
442.50	7023.95
442.68	6895.22
442.87	7009.90
443.05	6792.23
443.24	7103.53
443.43	7012.24
443.61	7068.42
443.80	7255.66
443.98	6759.47
444.17	7037.99
444.35	7192.47
444.54	7112.89
444.73	7110.55
444.91	6670.53
445.10	6602.65
445.28	6272.64
445.47	6115.82
445.65	6345.19
445.84	6504.35
446.02	6630.74
446.21	6829.68
446.39	6668.19
446.58	6869.47
446.77	6944.37
446.95	6913.94
447.14	7405.46
447.32	7215.87
447.51	6988.84
447.69	6759.47
447.88	6750.10
448.06	6846.07
448.25	6789.89
448.43	6794.58
448.62	7007.56
448.80	6787.55
448.99	6904.58
449.17	6963.09
449.36	6932.67
449.54	7405.46
449.73	7419.50
449.91	7098.84
450.10	7623.12
450.28	7527.16
450.46	7686.32
450.65	7480.35
450.83	7314.17
451.02	7330.56
451.20	7248.64
451.39	7356.30
451.57	7159.70
451.76	7157.36
451.94	7108.21
452.13	7047.35
452.31	6609.67
452.49	6314.77
452.68	6558.18
452.86	6469.24
453.05	6719.68
453.23	6864.79
453.42	7054.37
453.60	7068.42
453.78	7096.50
453.97	6972.46
454.15	6883.52
454.34	6738.40
454.52	6750.10
454.70	6736.06
454.89	6958.41
455.07	6888.20
455.26	7009.90
455.44	7232.26
455.62	7513.12
455.81	7321.20
455.99	7283.75
456.17	7070.76
456.36	7382.05
456.54	7480.35
456.73	7248.64
456.91	7452.27
457.09	7644.19
457.28	7555.25
457.46	7302.47
457.64	7173.74
457.83	7140.97
458.01	6967.77
458.19	7283.75
458.38	7059.06
458.56	7274.38
458.74	7410.14
458.93	6972.46
459.11	7236.94
459.29	7246.30
459.48	7171.40
459.66	7070.76
459.84	7087.14
460.03	7066.08
460.21	7243.96
460.39	7557.59
460.57	7503.76
460.76	7382.05
460.94	7403.11
461.12	7255.66
461.31	7234.60
461.49	7487.37
461.67	7363.33
461.85	7597.38
462.04	7562.27
462.22	7559.93
462.40	7602.06
462.59	7410.14
462.77	7489.71
462.95	7632.49
463.13	7351.62
463.32	7447.58
463.50	7091.82
463.68	7115.23
463.86	7213.53
464.05	7112.89
464.23	6970.12
464.41	7061.40
464.59	6963.09
464.78	7403.11
464.96	7227.57
465.14	7080.12
465.32	7164.38
465.50	7431.20
465.69	7585.68
465.87	7222.89
466.05	7122.25
466.23	6935.01
466.41	6546.48
466.60	6855.43
466.78	6935.01
466.96	6935.01
467.14	7049.69
467.32	7129.27
467.51	7129.27
467.69	6836.70
467.87	6813.30
468.05	6972.46
468.23	7049.69
468.41	7061.40
468.60	7075.44
468.78	6991.18
468.96	6965.43
469.14	7183.10
469.32	7218.21
469.50	7009.90
469.69	6789.89
469.87	6663.51
470.05	6759.47
470.23	6633.08
470.41	6651.80
470.59	6867.13
470.77	7009.90
470.95	6986.50
471.14	7096.50
471.32	7206.51
471.50	7705.04
471.68	7590.36
471.86	7581.00
472.04	7384.39
472.22	7592.70
472.40	7360.98
472.58	7033.31
472.77	7108.21
472.95	7108.21
473.13	7351.62
473.31	7136.29
473.49	7325.88
473.67	7293.11
473.85	7358.64
474.03	7470.99
474.21	7751.85
474.39	7599.72
474.57	7728.45
474.75	7648.87
474.93	7426.52
475.12	7309.49
475.30	7616.10
475.48	7475.67
475.66	7611.42
475.84	7426.52
476.02	7386.73
476.20	7494.40
476.38	7632.49
476.56	7573.97
476.74	7714.41
476.92	7733.13
477.10	7822.07
477.28	8241.03
477.46	8210.60
477.64	8088.89
477.82	8002.29
478.00	7892.29
478.18	7997.61
478.36	7812.71
478.54	7997.61
478.72	7779.94
478.90	8334.65
479.08	8407.20
479.26	8568.70
479.44	8554.66
479.62	8369.76
479.80	8334.65
479.98	8346.35
480.16	8388.48
480.34	8280.82
480.52	8547.64
480.70	8372.10
480.88	8465.72
481.06	8961.91
481.24	8603.81
481.41	9029.79
481.59	9111.71
481.77	8793.39
481.95	8894.04
482.13	8868.29
482.31	9125.75
482.49	9167.88
482.67	8980.64
482.85	9114.05
483.03	9144.47
483.21	9018.08
483.39	9132.77
483.57	9043.83
483.74	9165.54
483.92	9060.21
484.10	8905.74
484.28	9226.39
484.46	9078.94
484.64	9249.80
484.82	9043.83
485.00	8898.72
485.18	8788.71
485.35	8245.71
485.53	7658.23
485.71	7082.46
485.89	7119.91
486.07	7658.23
486.25	8145.06
486.43	8746.58
486.61	8990.00
486.78	8718.50
486.96	8758.28
487.14	9165.54
487.32	9100.00
487.50	9544.70
487.68	9771.74
487.85	10059.62
488.03	9923.87
488.21	9816.21
488.39	9635.99
488.57	9324.69
488.75	9444.06
488.92	9631.30
489.10	10356.87
489.28	10726.68
489.46	10792.21
489.64	10635.39
489.81	10766.46
489.99	10736.04
490.17	10553.48
490.35	10857.75
490.53	10686.89
490.70	10523.05
490.88	10530.07
491.06	10824.98
491.24	10616.67
491.41	10368.57
491.59	9790.46
491.77	9439.38
491.95	9844.29
492.13	10314.74
492.30	10562.84
492.48	10932.64
492.66	11133.93
492.84	11257.98
493.01	10815.62
493.19	10878.81
493.37	10691.57
493.54	10614.33
493.72	10911.58
493.90	11241.59
494.08	11400.75
494.25	11620.76
494.43	11810.34
494.61	11950.78
494.79	11751.83
494.96	11838.43
495.14	11304.79
495.32	10782.85
495.49	10906.90
495.67	11248.61
495.85	11824.39
496.02	12091.21
496.20	11644.17
496.38	11620.76
496.55	11651.19
496.73	11632.46
496.91	12088.87
497.09	12259.73
497.26	12453.99
497.44	12037.38
497.62	11660.55
497.79	11449.90
497.97	10860.09
498.14	11400.75
498.32	11527.14
498.50	11552.88
498.67	11770.55
498.85	11946.09
499.03	11709.70
499.20	12173.13
499.38	12102.91
499.56	11971.84
499.73	11683.95
499.91	11524.80
500.08	11447.56
500.26	11164.36
500.44	11119.89
500.61	11473.31
500.79	11496.71
500.97	11054.35
501.14	11241.59
501.32	11379.68
501.49	11475.65
501.67	11211.17
501.84	11644.17
502.02	11487.35
502.20	11445.22
502.37	11548.20
502.55	11688.64
502.72	11861.84
502.90	12020.99
503.07	11721.40
503.25	11707.36
503.43	11351.60
503.60	10824.98
503.78	10906.90
503.95	10949.03
504.13	11700.34
504.30	11808.00
504.48	11655.87
504.65	11360.96
504.83	11580.97
505.01	12011.63
505.18	12133.34
505.36	12610.81
505.53	12423.56
505.71	12669.32
505.88	12217.60
506.06	11941.41
506.23	11925.03
506.41	11859.49
506.58	11925.03
506.76	11822.05
506.93	11899.28
507.11	11616.08
507.28	11779.92
507.46	11592.67
507.63	11052.01
507.81	11304.79
507.98	11428.84
508.16	11485.01
508.33	11639.48
508.50	12070.14
508.68	12191.85
508.85	12554.63
509.03	12365.05
509.20	12112.27
509.38	11779.92
509.55	11288.40
509.73	11447.56
509.90	11590.33
510.08	11791.62
510.25	11768.21
510.42	11412.45
510.60	11592.67
510.77	11894.60
510.95	12212.92
511.12	11983.54
511.30	12339.30
511.47	12093.55
511.64	12390.80
511.82	12011.63
511.99	11590.33
512.17	11508.41
512.34	11651.19
512.51	11438.20
512.69	11665.23
512.86	11557.57
513.04	11775.24
513.21	11662.89
513.38	11765.87
513.56	11267.34
513.73	10925.62
513.90	11211.17
514.08	11028.60
514.25	11084.78
514.43	11346.92
514.60	11503.73
514.77	11424.15
514.95	11407.77
515.12	11597.35
515.29	11370.32
515.47	11396.07
515.64	11871.20
515.81	11817.36
515.99	11426.50
516.16	10899.87
516.33	10099.41
516.51	9207.67
516.68	8964.25
516.85	8898.72
517.03	9111.71
517.20	9827.91
517.37	10799.23
517.54	11136.27
517.72	10829.66
517.89	9856.00
518.06	9266.18
518.24	9877.06
518.41	10169.63
518.58	10780.51
518.75	10939.66
518.93	10874.13
519.10	10841.36
519.27	11035.63
519.45	11208.83
519.62	11098.82
519.79	11372.66
519.96	11257.98
520.14	11267.34
520.31	10574.54
520.48	10595.61
520.65	10974.77
520.83	11185.42
521.00	11494.37
521.17	11321.17
521.34	10995.84
521.52	11293.08
521.69	11583.31
521.86	11555.22
522.03	11332.87
522.20	11075.42
522.38	10635.39
522.55	10651.78
522.72	10712.63
522.89	10836.68
523.07	11147.97
523.24	11431.18
523.41	11452.24
523.58	11587.99
523.75	11742.47
523.92	11531.82
524.10	11754.17
524.27	11639.48
524.44	11449.90
524.61	11342.24
524.78	11485.01
524.96	11061.37
525.13	11103.50
525.30	11548.20
525.47	11541.18
525.64	11573.95
525.81	11239.25
525.98	10450.49
526.16	9872.38
526.33	9598.54
526.50	9465.13
526.67	9638.33
526.84	10008.13
527.01	10513.69
527.18	10427.09
527.36	10862.43
527.53	11267.34
527.70	11173.72
527.87	10824.98
528.04	10707.95
528.21	10827.32
528.38	11396.07
528.55	11918.01
528.72	11412.45
528.89	11580.97
529.07	11396.07
529.24	11276.70
529.41	10958.39
529.58	10714.97
529.75	10967.75
529.92	10857.75
530.09	10960.73
530.26	11206.48
530.43	11328.19
530.60	11314.15
530.77	11559.91
530.94	11482.67
531.11	11105.84
531.28	11096.48
531.46	10836.68
531.63	10956.05
531.80	10885.83
531.97	10839.02
532.14	10469.22
532.31	10125.16
532.48	9900.47
532.65	9970.68
532.82	10494.96
532.99	10630.71
533.16	10932.64
533.33	11005.20
533.50	10923.28
533.67	10518.37
533.84	10499.64
534.01	10441.13
534.18	10644.76
534.35	10621.35
534.52	10452.83
534.69	10883.49
534.86	10747.74
535.03	11042.65
535.20	11136.27
535.37	11288.40
535.54	11286.06
535.71	11033.29
535.88	11253.30
536.05	10752.42
536.22	10581.56
536.38	10478.58
536.55	10384.96
536.72	10120.48
536.89	10394.32
537.06	10160.27
537.23	10384.96
537.40	10693.91
537.57	10796.89
537.74	10396.66
537.91	10443.47
538.08	10761.78
538.25	10300.70
538.42	10429.43
538.59	10415.38
538.75	10153.24
538.92	10300.70
539.09	9935.57
539.26	9792.80
539.43	9572.79
539.60	9708.54
539.77	9638.33
539.94	9928.55
540.11	9802.16
540.28	9303.63
540.44	9493.21
540.61	9362.14
540.78	9961.32
540.95	10078.35
541.12	10008.13
541.29	10012.81
541.46	10085.37
541.62	9937.91
541.79	10157.92
541.96	9870.04
542.13	9696.84
542.30	9984.73
542.47	10012.81
542.63	9724.93
542.80	9748.33
542.97	9961.32
543.14	9640.67
543.31	9525.98
543.48	9891.10
543.64	10239.84
543.81	10171.97
543.98	10162.61
544.15	9886.42
544.32	9678.12
544.48	9877.06
544.65	10125.16
544.82	9968.34
544.99	9731.95
545.16	9727.27
545.32	9638.33
545.49	9940.26
545.66	9991.75
545.83	10211.76
546.00	9865.36
546.16	9804.50
546.33	10029.20
546.50	9919.19
546.67	10066.64
546.83	9994.09
547.00	9937.91
547.17	9802.16
547.34	9535.34
547.50	9514.28
547.67	9444.06
547.84	9626.62
548.00	9755.35
548.17	9774.08
548.34	9874.72
548.51	9790.46
548.67	9884.08
548.84	9996.43
549.01	9891.10
549.18	9551.73
549.34	9572.79
549.51	9593.86
549.68	9797.48
549.84	9675.77
550.01	9661.73
550.18	9570.45
550.34	9359.80
550.51	9504.92
550.68	9320.01
550.84	9317.67
551.01	9240.44
551.18	9273.20
551.34	9411.29
551.51	9481.51
551.68	9788.12
551.84	9715.56
552.01	9570.45
552.18	9277.88
552.34	9200.65
552.51	9048.51
552.68	9071.92
552.84	9212.35
553.01	9345.76
553.18	9385.55
553.34	9530.66
553.51	9296.61
553.67	9247.46
553.84	9474.49
554.01	9392.57
554.17	9280.22
554.34	9434.70
554.51	9465.13
554.67	9495.55
554.84	9394.91
555.00	9472.15
555.17	9404.27
555.33	9221.71
555.50	9296.61
555.67	9327.03
555.83	9282.56
556.00	9001.70
556.16	8908.08
556.33	8901.06
556.50	9132.77
556.66	8997.02
556.83	8730.20
556.99	8842.54
557.16	8889.35
557.32	8884.67
557.49	9242.78
557.65	8990.00
557.82	9055.53
557.98	8992.34
558.15	8851.91
558.32	8411.89
558.48	8372.10
558.65	8294.86
558.81	8262.09
558.98	8627.21
559.14	8610.83
559.31	8507.85
559.47	8594.45
559.64	8304.22
559.80	8301.88
559.97	8252.73
560.13	8667.00
560.30	8879.99
560.46	9228.73
560.63	9280.22
560.79	9111.71
560.96	8826.16
561.12	8655.30
561.29	8432.95
561.45	8351.03
561.61	8341.67
561.78	8404.86
561.94	8519.55
562.11	8238.69
562.27	8498.49
562.44	8594.45
562.60	8599.13
562.77	8737.22
562.93	8772.33
563.10	8587.43
563.26	8262.09
563.42	8362.73
563.59	8292.52
563.75	8208.26
563.92	8461.04
564.08	8348.69
564.24	8484.44
564.41	8344.01
564.57	8418.91
564.74	8414.23
564.90	8241.03
565.07	8152.09
565.23	8201.24
565.39	8044.42
565.56	8023.36
565.72	7999.95
565.88	8035.06
566.05	8011.65
566.21	8016.33
566.38	8053.78
566.54	8039.74
566.70	8231.66
566.87	8336.99
567.03	8278.47
567.19	8262.09
567.36	8210.60
567.52	8189.53
567.68	8177.83
567.85	8049.10
568.01	7742.49
568.17	7627.81
568.34	7740.15
568.50	7676.96
568.66	7772.92
568.83	7751.85
568.99	7688.66
569.15	7868.88
569.32	7726.11
569.48	7918.03
569.64	7932.08
569.81	7623.12
569.97	7536.52
570.13	7630.15
570.30	7339.92
570.46	7454.61
570.62	7103.53
570.78	7101.19
570.95	7246.30
571.11	7588.02
571.27	7723.77
571.43	7768.24
571.60	7688.66
571.76	7716.75
571.92	7887.61
572.09	7939.10
572.25	7698.02
572.41	7960.16
572.57	7683.98
572.74	7861.86
572.90	7398.43
573.06	7681.64
573.22	7744.83
573.38	7637.17
573.55	7758.88
573.71	7573.97
573.87	7683.98
574.03	7618.44
574.20	7644.19
574.36	7398.43
574.52	7452.27
574.68	7389.07
574.84	7356.30
575.01	6953.73
575.17	7040.33
575.33	7016.93
575.49	7077.78
575.65	7311.83
575.82	7246.30
575.98	7262.68
576.14	6986.50
576.30	7318.86
576.46	7201.83
576.62	7225.23
576.79	7454.61
576.95	7208.85
577.11	7368.01
577.27	7080.12
577.43	7314.17
577.59	7349.28
577.75	7302.47
577.92	7094.16
578.08	6932.67
578.24	7045.01
578.40	6956.07
578.56	6906.92
578.72	6993.52
578.88	7002.88
579.04	7035.65
579.21	7056.72
579.37	7082.46
579.53	7066.08
579.69	7112.89
579.85	7033.31
580.01	6923.30
580.17	7012.24
580.33	7101.19
580.49	6963.09
580.65	7037.99
580.82	7014.59
580.98	7012.24
581.14	7068.42
581.30	7063.74
581.46	7330.56
581.62	7213.53
581.78	7222.89
581.94	7302.47
582.10	7075.44
582.26	7087.14
582.42	7002.88
582.58	7021.61
582.74	7234.60
582.90	7213.53
583.06	7094.16
583.22	7311.83
583.38	7061.40
583.54	6963.09
583.70	7112.89
583.86	6892.88
584.02	7045.01
584.18	7037.99
584.34	7183.10
584.50	7236.94
584.66	6909.26
584.82	6724.36
584.98	6705.63
585.14	6665.85
585.30	6609.67
585.46	6466.90
585.62	6619.04
585.78	6656.48
585.94	6593.29
586.10	6527.75
586.26	6808.62
586.42	6935.01
586.58	6806.28
586.74	6712.66
586.90	6682.23
587.06	6733.72
587.22	6604.99
587.38	6427.11
587.54	6541.80
587.70	6347.53
587.86	6384.98
588.02	6459.88
588.18	6186.04
588.34	6047.94
588.49	5809.21
588.65	5439.40
588.81	5308.34
588.97	5570.48
589.13	5514.30
589.29	5462.81
589.45	5652.39
589.61	5778.78
589.77	6001.13
589.93	6207.10
590.08	6354.55
590.24	6277.32
590.40	6279.66
590.56	6331.15
590.72	6134.54
590.88	5970.71
591.04	6157.95
591.20	6195.40
591.35	6218.80
591.51	6083.05
591.67	6153.27
591.83	6012.84
591.99	5909.85
592.15	5975.39
592.31	6267.95
592.46	5973.05
592.62	5907.51
592.78	6080.71
592.94	6078.37
593.10	6057.31
593.26	6059.65
593.41	6057.31
593.57	5980.07
593.73	5858.36
593.89	5870.06
