SpectraSuite Data File
++++++++++++++++++++++++++++++++++++
Date: Mon Oct 07 14:53:51 GMT-05:00 2013
User: price-jones
Dark Spectrum Present: No
Reference Spectrum Present: No
Number of Sampled Component Spectra: 1
Spectrometers: USB2+H05261
Integration Time (usec): 100000 (USB2+H05261)
Spectra Averaged: 1 (USB2+H05261)
Boxcar Smoothing: 0 (USB2+H05261)
Correct for Electrical Dark: No (USB2+H05261)
Strobe/Lamp Enabled: No (USB2+H05261)
Correct for Detector Non-linearity: No (USB2+H05261)
Correct for Stray Light: No (USB2+H05261)
Number of Pixels in Processed Spectrum: 2048
>>>>>Begin Processed Spectral Data<<<<<
365.73	0.00
365.92	0.00
366.12	0.00
366.32	0.00
366.52	0.00
366.72	0.00
366.91	0.00
367.11	0.00
367.31	0.00
367.51	0.00
367.70	0.00
367.90	0.00
368.10	0.00
368.30	0.00
368.49	0.00
368.69	0.00
368.89	0.00
369.09	0.00
369.28	0.00
369.48	0.00
369.68	0.00
369.87	0.00
370.07	0.00
370.27	0.00
370.47	578.11
370.66	2848.43
370.86	3506.12
371.06	3925.08
371.25	3859.54
371.45	3473.36
371.65	2995.89
371.84	2832.05
372.04	3103.55
372.24	3386.76
372.44	3669.96
372.63	3389.10
372.83	3267.39
373.03	3091.85
373.22	2796.94
373.42	2710.34
373.62	3330.58
373.81	3557.61
374.01	3510.80
374.21	3155.04
374.40	2839.07
374.60	3016.95
374.79	3588.04
374.99	4063.17
375.19	4362.76
375.38	4353.40
375.58	4149.77
375.78	4021.04
375.97	3978.91
376.17	4269.14
376.37	4135.73
376.56	4374.46
376.76	4725.54
376.95	4898.74
377.15	5231.10
377.35	5500.26
377.54	5619.63
377.74	5886.45
377.93	5806.87
378.13	5659.42
378.33	5509.62
378.52	4844.91
378.72	4737.24
378.91	4683.41
379.11	4535.96
379.31	4329.99
379.50	4409.57
379.70	4755.97
379.89	5418.34
380.09	5322.38
380.28	5717.93
380.48	5795.17
380.68	5600.90
380.87	5497.92
381.07	5156.20
381.26	4606.17
381.46	4337.01
381.65	4175.52
381.85	4149.77
382.04	3880.61
382.24	3604.42
382.43	3550.59
382.63	3405.48
382.83	3482.72
383.02	3466.33
383.22	3531.87
383.41	3513.14
383.61	3798.69
383.80	4161.47
384.00	4765.33
384.19	5305.99
384.39	5661.76
384.58	5617.29
384.78	5411.32
384.97	5479.19
385.17	5210.03
385.36	4877.68
385.56	4737.24
385.75	4957.25
385.95	5394.93
386.14	5832.62
386.34	5626.65
386.53	5579.84
386.72	5254.50
386.92	5121.09
387.11	5472.17
387.31	5774.10
387.50	5762.40
387.70	5530.69
387.89	5565.79
388.09	5626.65
388.28	5469.83
388.48	5657.07
388.67	5956.66
388.86	6726.70
389.06	7070.76
389.25	7494.40
389.45	7379.71
389.64	7407.80
389.84	7309.49
390.03	7272.04
390.22	7243.96
390.42	7494.40
390.61	7960.16
390.81	8521.89
391.00	8788.71
391.19	8533.59
391.39	8402.52
391.58	7749.51
391.78	7304.81
391.97	7192.47
392.16	6567.54
392.36	6113.48
392.55	5006.41
392.75	3801.03
392.94	3201.85
393.13	3129.30
393.33	3688.68
393.52	4706.82
393.71	5785.80
393.91	6635.42
394.10	7115.23
394.29	7962.50
394.49	8444.65
394.68	9212.35
394.88	9062.55
395.07	9490.87
395.26	9226.39
395.46	9191.28
395.65	8573.38
395.84	7557.59
396.04	6272.64
396.23	5177.26
396.42	4411.91
396.62	4168.49
396.81	4746.61
397.00	6155.61
397.19	7772.92
397.39	9455.76
397.58	10214.10
397.77	10832.00
397.97	11508.41
398.16	11370.32
398.35	11925.03
398.55	12262.07
398.74	12912.74
398.93	13193.60
399.12	12631.87
399.32	12285.47
399.51	12765.28
399.70	13415.95
399.90	13163.17
400.09	13336.37
400.28	13137.43
400.47	13441.70
400.67	13919.17
400.86	14415.36
401.05	14057.26
401.24	14532.39
401.44	14640.05
401.63	14661.12
401.82	14733.67
402.01	14939.64
402.21	14906.87
402.40	14792.19
402.59	14743.03
402.78	13884.06
402.97	13289.56
403.17	13785.76
403.36	14672.82
403.55	15463.92
403.74	15686.27
403.93	14787.50
404.13	13912.14
404.32	13434.68
404.51	14050.24
404.70	15154.97
404.89	15370.30
405.09	14920.92
405.28	14679.84
405.47	14686.86
405.66	14789.85
405.85	14167.26
406.05	13750.65
406.24	13895.76
406.43	14656.43
406.62	14934.96
406.81	15140.93
407.00	14675.16
407.20	14148.54
407.39	14623.67
407.58	15110.50
407.77	15700.31
407.96	15960.11
408.15	16135.65
408.34	16315.87
408.54	17200.60
408.73	17195.92
408.92	17069.53
409.11	16271.40
409.30	15508.39
409.49	14600.26
409.68	13596.17
409.87	13364.46
410.07	14087.68
410.26	15398.38
410.45	16196.51
410.64	16538.23
410.83	17245.07
411.02	17301.24
411.21	18235.11
411.40	18073.62
411.59	18097.02
411.78	18108.72
411.98	17556.36
412.17	17872.33
412.36	18061.91
412.55	17713.17
412.74	17525.93
412.93	17029.74
413.12	17427.63
413.31	18745.35
413.50	18808.54
413.69	19194.73
413.88	18403.63
414.07	17916.80
414.26	18345.12
414.45	18892.80
414.64	18841.31
414.83	18946.64
415.02	18436.40
415.22	18391.93
415.41	19103.45
415.60	19854.76
415.79	20212.87
415.98	20809.70
416.17	21149.08
416.36	20404.79
416.55	19824.34
416.74	19611.35
416.93	19028.56
417.12	18740.67
417.31	19168.99
417.50	19564.54
417.69	19915.62
417.88	20051.37
418.07	19864.13
418.26	19536.45
418.45	19276.65
418.64	20196.48
418.83	20968.86
419.02	20835.45
419.21	20528.84
419.39	19499.00
419.58	18618.96
419.77	18960.68
419.96	19482.62
420.15	20893.96
420.34	21076.52
420.53	21832.52
420.72	22714.90
420.91	22218.71
421.10	22146.15
421.29	21792.73
421.48	20774.60
421.67	22031.46
421.86	21652.30
422.05	20121.59
422.24	18118.09
422.43	17717.86
422.61	19473.26
422.80	21078.86
422.99	21263.77
423.18	20465.64
423.37	20313.51
423.56	20215.21
423.75	20404.79
423.94	20545.22
424.13	19915.62
424.32	20009.24
424.50	19585.60
424.69	19623.05
424.88	20084.14
425.07	19826.68
425.26	19939.02
425.45	19440.49
425.64	19379.64
425.83	19503.68
426.01	20255.00
426.20	20692.68
426.39	21071.84
426.58	19222.82
426.77	17820.84
426.96	17212.30
427.15	17830.20
427.33	19091.75
427.52	19730.72
427.71	20154.35
427.90	20037.33
428.09	19800.93
428.28	19115.16
428.46	18747.69
428.65	18263.20
428.84	18628.32
429.03	18916.21
429.22	18104.04
429.40	17034.42
429.59	15749.46
429.78	13652.34
429.97	13558.72
430.16	13834.91
430.34	13970.66
430.53	14204.71
430.72	14370.89
430.91	16123.95
431.10	18614.28
431.28	21937.84
431.47	23452.17
431.66	24044.32
431.85	21507.18
432.03	20067.75
432.22	19035.58
432.41	20011.58
432.60	21909.75
432.79	23044.91
432.97	23613.66
433.16	23023.85
433.35	20926.73
433.54	18824.93
433.72	17998.72
433.91	18427.04
434.10	20332.23
434.28	21582.08
434.47	22974.70
434.66	22546.38
434.85	22192.96
435.03	22019.76
435.22	22740.64
435.41	24297.10
435.59	23777.50
435.78	24573.28
435.97	24907.98
436.16	25046.07
436.34	24833.08
436.53	23990.49
436.72	24313.48
436.90	23108.11
437.09	23054.28
437.28	22164.87
437.46	23260.24
437.65	23096.41
437.84	21504.84
438.02	19962.43
438.21	19283.67
438.40	20650.55
438.58	22829.59
438.77	23220.45
438.96	23496.64
439.14	24332.21
439.33	25130.33
439.52	25436.94
439.70	25132.67
439.89	24121.56
440.08	23667.50
440.26	23587.92
440.45	24243.27
440.63	26108.68
440.82	27213.41
441.01	26707.85
441.19	26623.59
441.38	26848.29
441.57	27882.80
441.75	28662.20
441.94	28720.71
442.12	28290.06
442.31	28713.69
442.50	28828.38
442.68	28673.90
442.87	27892.16
443.05	27503.64
443.24	28041.96
443.43	28718.37
443.61	29261.38
443.80	29411.17
443.98	28229.20
444.17	27955.36
444.35	29626.50
444.54	29867.58
444.73	29596.07
444.91	28512.41
445.10	27108.08
445.28	26050.16
445.47	25724.83
445.65	25539.93
445.84	26785.09
446.02	27314.05
446.21	28058.34
446.39	28268.99
446.58	28236.22
446.77	28865.83
446.95	29027.32
447.14	30157.80
447.32	30410.58
447.51	29469.69
447.69	28657.52
447.88	28421.13
448.06	28861.15
448.25	29542.24
448.43	29780.98
448.62	28821.36
448.80	28615.39
448.99	28767.52
449.17	29312.87
449.36	29209.89
449.54	30625.91
449.73	30937.20
449.91	31456.80
450.10	32336.84
450.28	32540.47
450.46	31995.12
450.65	32290.03
450.83	31791.50
451.02	31147.85
451.20	31072.95
451.39	30937.20
451.57	31131.47
451.76	31005.08
451.94	30567.40
452.13	30188.23
452.31	28648.16
452.49	27386.61
452.68	27934.29
452.86	27915.57
453.05	28601.35
453.23	28947.75
453.42	29888.64
453.60	30272.49
453.78	30639.95
453.97	30511.22
454.15	30558.03
454.34	29706.08
454.52	29998.65
454.70	29207.55
454.89	29802.04
455.07	29802.04
455.26	30300.58
455.44	31194.66
455.62	31962.36
455.81	32032.57
455.99	31885.12
456.17	31241.47
456.36	31316.37
456.54	32437.48
456.73	32423.44
456.91	33008.58
457.09	33088.15
457.28	33893.30
457.46	32648.13
457.64	31990.44
457.83	31152.53
458.01	30396.54
458.19	30930.18
458.38	31234.45
458.56	32526.42
458.74	32374.29
458.93	31875.76
459.11	31515.31
459.29	31550.42
459.48	31899.16
459.66	31489.57
459.84	31662.77
460.03	32212.79
460.21	32725.37
460.39	33088.15
460.57	32931.34
460.76	33441.57
460.94	33731.80
461.12	32652.81
461.31	33097.52
461.49	32823.67
461.67	32929.00
461.85	34092.24
462.04	33970.54
462.22	33963.51
462.40	33923.72
462.59	33827.76
462.77	34366.09
462.95	33958.83
463.13	33282.42
463.32	33532.86
463.50	32879.85
463.68	33109.22
463.86	33170.07
464.05	32833.04
464.23	31779.79
464.41	31988.10
464.59	31608.93
464.78	33092.83
464.96	32521.74
465.14	32215.13
465.32	33165.39
465.50	33907.34
465.69	34494.82
465.87	33729.46
466.05	32659.84
466.23	31440.42
466.41	30307.60
466.60	31487.23
466.78	31288.28
466.96	32020.87
467.14	32486.64
467.32	32755.80
467.51	33172.41
467.69	31468.50
467.87	32369.61
468.05	32601.32
468.23	32575.58
468.41	32744.09
468.60	33254.33
468.78	32971.13
468.96	32594.30
469.14	33738.82
469.32	33684.99
469.50	32140.24
469.69	32088.74
469.87	31665.11
470.05	31679.15
470.23	31653.40
470.41	31976.40
470.59	32339.18
470.77	32580.26
470.95	32751.12
471.14	33373.70
471.32	33457.96
471.50	35180.59
471.68	35309.32
471.86	35669.76
472.04	36093.40
472.22	35866.37
472.40	34059.48
472.58	34129.69
472.77	33280.08
472.95	33844.15
473.13	35180.59
473.31	34178.84
473.49	34206.93
473.67	34658.65
473.85	35271.87
474.03	35868.71
474.21	36404.69
474.39	36732.37
474.57	36800.24
474.75	36582.57
474.93	36268.94
475.12	35225.06
475.30	35222.72
475.48	35707.21
475.66	36608.32
475.84	35875.73
476.02	35351.45
476.20	34932.50
476.38	35922.54
476.56	36772.16
476.74	37434.53
476.92	37385.38
477.10	38122.65
477.28	38965.24
477.46	39147.80
477.64	39667.40
477.82	39749.32
478.00	39723.57
478.18	38593.09
478.36	38700.76
478.54	39384.19
478.72	39255.46
478.90	40376.58
479.08	41137.26
479.26	41991.55
479.44	41460.25
479.62	41427.48
479.80	41151.30
479.98	41698.98
480.16	42176.45
480.34	41270.67
480.52	42038.36
480.70	41986.87
480.88	41567.91
481.06	42932.45
481.24	43171.18
481.41	43992.71
481.59	44882.11
481.77	44725.30
481.95	43255.44
482.13	43243.74
482.31	43746.95
482.49	44402.30
482.67	44175.27
482.85	44612.95
483.03	44964.03
483.21	45638.11
483.39	45261.28
483.57	44947.65
483.74	44362.51
483.92	44598.91
484.10	44416.35
484.28	45998.55
484.46	46328.56
484.64	46583.68
484.82	45645.13
485.00	45338.52
485.18	44680.83
485.35	43145.44
485.53	39777.40
485.71	36245.54
485.89	35777.43
486.07	38167.12
486.25	41450.89
486.43	43096.28
486.61	44051.22
486.78	43992.71
486.96	44053.56
487.14	46017.27
487.32	46740.50
487.50	47473.09
487.68	48786.13
487.85	49366.58
488.03	49385.30
488.21	48570.80
488.39	48296.95
488.57	47395.85
488.75	47026.04
488.92	48238.44
489.10	50578.98
489.28	51655.62
489.46	52432.68
489.64	52149.48
489.81	52296.93
489.99	52170.54
490.17	52009.04
490.35	52708.86
490.53	51922.44
490.70	51550.30
490.88	51767.97
491.06	52542.69
491.24	52353.10
491.41	51648.60
491.59	49832.35
491.77	48877.41
491.95	50059.38
492.13	51459.02
492.30	52725.25
492.48	53602.95
492.66	54040.63
492.84	53982.12
493.01	53820.62
493.19	53392.30
493.37	52706.52
493.54	52523.96
493.72	53237.83
493.90	54052.33
494.08	54962.80
494.25	55159.41
494.43	55512.83
494.61	55805.39
494.79	55807.73
494.96	55835.82
495.14	54969.82
495.32	54120.21
495.49	53485.92
495.67	54497.03
495.85	55964.55
496.02	56226.69
496.20	56144.77
496.38	55845.18
496.55	55693.05
496.73	56051.15
496.91	55901.36
497.09	56884.38
497.26	56650.33
497.44	56364.78
497.62	55854.54
497.79	54817.69
497.97	53815.94
498.14	54087.44
498.32	55089.19
498.50	55847.52
498.67	56486.49
498.85	56512.23
499.03	56655.01
499.20	56884.38
499.38	57006.09
499.56	56636.28
499.73	56165.84
499.91	55793.69
500.08	55461.33
500.26	54789.60
500.44	55049.40
500.61	55758.58
500.79	55592.40
500.97	55220.26
501.14	55154.72
501.32	54653.85
501.49	54967.48
501.67	55150.04
501.84	55732.84
502.02	56200.94
502.20	56409.25
502.37	56528.62
502.55	56367.12
502.72	57006.09
502.90	57495.26
503.07	57059.92
503.25	56629.26
503.43	55955.19
503.60	55311.54
503.78	54548.53
503.95	55238.98
504.13	56463.08
504.30	57270.57
504.48	57003.75
504.65	56853.95
504.83	56608.20
505.01	57413.34
505.18	57616.97
505.36	58190.40
505.53	58305.09
505.71	58541.48
505.88	58663.19
506.06	57846.34
506.23	57448.45
506.41	57090.35
506.58	57577.18
506.76	57492.92
506.93	57485.90
507.11	57207.37
507.28	57387.60
507.46	56804.80
507.63	56067.53
507.81	56079.24
507.98	56250.09
508.16	57097.37
508.33	57441.43
508.50	57968.05
508.68	58377.64
508.85	58614.04
509.03	58637.44
509.20	58473.60
509.38	57806.55
509.55	57013.11
509.73	57027.15
509.90	57829.96
510.08	58103.80
510.25	57841.66
510.42	57780.81
510.60	57408.66
510.77	57944.64
510.95	58356.58
511.12	58401.05
511.30	58934.69
511.47	59407.48
511.64	59063.42
511.82	58717.02
511.99	57792.51
512.17	57387.60
512.34	57308.02
512.51	57429.72
512.69	57446.11
512.86	57502.28
513.04	57949.32
513.21	58211.46
513.38	57652.08
513.56	56987.36
513.73	56425.64
513.90	56722.88
514.08	56903.10
514.25	57153.54
514.43	57205.03
514.60	57315.04
514.77	57556.11
514.95	57642.71
515.12	57556.11
515.29	57808.89
515.47	58295.72
515.64	58356.58
515.81	58054.65
515.99	57691.86
516.16	56163.50
516.33	53895.52
516.51	52027.77
516.68	51428.59
516.85	50663.24
517.03	51309.22
517.20	54143.61
517.37	56357.76
517.54	57829.96
517.72	57036.51
517.89	54927.69
518.06	52245.44
518.24	52640.99
518.41	54876.20
518.58	56158.81
518.75	56266.48
518.93	56610.54
519.10	56652.67
519.27	56903.10
519.45	57127.80
519.62	57769.10
519.79	58330.83
519.96	57879.11
520.14	57563.14
520.31	56828.21
520.48	56509.89
520.65	57020.13
520.83	57897.83
521.00	58515.73
521.17	57958.69
521.34	57792.51
521.52	58068.69
521.69	58436.16
521.86	59117.25
522.03	58464.24
522.20	57502.28
522.38	56320.31
522.55	56095.62
522.72	56947.57
522.89	57076.30
523.07	57549.09
523.24	57556.11
523.41	58548.50
523.58	58784.90
523.75	59093.85
523.92	58838.73
524.10	59002.56
524.27	58915.96
524.44	58691.27
524.61	58466.58
524.78	58408.07
524.96	58326.15
525.13	58511.05
525.30	58443.18
525.47	59077.46
525.64	58831.71
525.81	58000.82
525.98	56907.79
526.16	55451.97
526.33	54618.74
526.50	54368.30
526.67	53895.52
526.84	54281.70
527.01	55526.87
527.18	56589.47
527.36	57434.41
527.53	58269.98
527.70	58426.79
527.87	57909.53
528.04	57443.77
528.21	57886.13
528.38	58672.55
528.55	59004.91
528.72	59344.28
528.89	59561.95
529.07	59173.42
529.24	58705.32
529.41	57996.13
529.58	57088.01
529.75	57628.67
529.92	58087.42
530.09	58415.09
530.26	58829.37
530.43	59121.93
530.60	58997.88
530.77	59348.96
530.94	59365.35
531.11	59049.38
531.28	58536.80
531.46	58361.26
531.63	58532.12
531.80	58473.60
531.97	58080.39
532.14	57429.72
532.31	56053.49
532.48	55566.66
532.65	55440.27
532.82	56612.88
532.99	57539.73
533.16	57829.96
533.33	58525.10
533.50	58398.71
533.67	57731.65
533.84	57139.50
534.01	57652.08
534.18	57535.05
534.35	57808.89
534.52	57696.55
534.69	57970.39
534.86	58375.30
535.03	58429.13
535.20	58969.80
535.37	59379.39
535.54	59292.79
535.71	59159.38
535.88	58611.70
536.05	58019.54
536.22	57581.86
536.38	57263.55
536.55	57139.50
536.72	56355.42
536.89	56193.92
537.06	57319.72
537.23	57996.13
537.40	58159.97
537.57	58174.02
537.74	57979.75
537.91	57984.43
538.08	57633.35
538.25	57703.57
538.42	58134.23
538.59	58103.80
538.75	57277.59
538.92	57041.20
539.09	56940.55
539.26	56720.54
539.43	56528.62
539.60	56743.95
539.77	56914.81
539.94	56638.62
540.11	55901.36
540.28	55580.70
540.44	55707.09
540.61	55770.28
540.78	56032.42
540.95	56449.04
541.12	56783.74
541.29	57085.67
541.46	57380.57
541.62	57558.45
541.79	57291.63
541.96	56699.48
542.13	56900.76
542.30	56912.47
542.47	57013.11
542.63	57034.17
542.80	56683.09
542.97	56725.22
543.14	56795.44
543.31	56722.88
543.48	57209.71
543.64	57855.70
543.81	58391.68
543.98	57890.81
544.15	57396.96
544.32	56830.55
544.48	56942.89
544.65	57347.81
544.82	57724.63
544.99	57504.62
545.16	56875.02
545.32	56809.48
545.49	57666.12
545.66	57762.08
545.83	57411.00
546.00	57411.00
546.16	56872.68
546.33	57045.88
546.50	57097.37
546.67	57263.55
546.83	56715.86
547.00	56999.07
547.17	56109.66
547.34	55798.37
547.50	55763.26
547.67	56266.48
547.84	56121.37
548.00	56605.86
548.17	57066.94
548.34	57006.09
548.51	56659.69
548.67	56959.28
548.84	57078.64
549.01	56879.70
549.18	56741.61
549.34	56853.95
549.51	56774.37
549.68	56715.86
549.84	56528.62
550.01	56257.12
550.18	56385.85
550.34	56406.91
550.51	56577.77
550.68	56537.98
550.84	56090.94
551.01	56055.83
551.18	55917.74
551.34	56327.33
551.51	56626.92
551.68	56891.40
551.84	56963.96
552.01	56657.35
552.18	56582.45
552.34	55746.88
552.51	55299.84
552.68	54969.82
552.84	55941.14
553.01	56130.73
553.18	55657.94
553.34	56154.13
553.51	56245.41
553.67	56617.56
553.84	56643.30
554.01	56435.00
554.17	56205.62
554.34	56273.50
554.51	56357.76
554.67	56900.76
554.84	56598.83
555.00	55957.53
555.17	56018.38
555.33	56170.52
555.50	55870.93
555.67	56121.37
555.83	55655.60
556.00	55440.27
556.16	55622.83
556.33	55047.06
556.50	55182.81
556.66	55136.00
556.83	54515.76
556.99	54965.14
557.16	54915.99
557.32	55348.99
557.49	55594.74
557.65	55458.99
557.82	55587.72
557.98	55393.46
558.15	54653.85
558.32	54143.61
558.48	53151.23
558.65	53345.49
558.81	53743.38
558.98	54012.54
559.14	54115.53
559.31	54380.01
559.47	54333.20
559.64	53970.41
559.80	53336.13
559.97	53621.67
560.13	54117.87
560.30	55007.27
560.46	55480.06
560.63	55796.03
560.79	55810.07
560.96	55243.66
561.12	54253.62
561.29	53336.13
561.45	53270.59
561.61	53925.94
561.78	54314.47
561.94	54286.39
562.11	54122.55
562.27	53949.35
562.44	54424.48
562.60	54632.78
562.77	55065.78
562.93	54625.76
563.10	54663.21
563.26	54136.59
563.42	54176.38
563.59	53631.04
563.75	53808.92
563.92	54000.84
564.08	53804.24
564.24	54237.23
564.41	54049.99
564.57	54323.83
564.74	53881.47
564.90	53722.32
565.07	53588.91
565.23	53230.80
565.39	52706.52
565.56	52430.34
565.72	52055.85
565.88	52671.42
566.05	52891.43
566.21	53066.97
566.38	53347.83
566.54	53294.00
566.70	54012.54
566.87	53841.68
567.03	54003.18
567.19	54085.10
567.36	53661.46
567.52	53446.13
567.68	53324.43
567.85	52626.95
568.01	52397.57
568.17	51789.03
568.34	51800.74
568.50	51955.21
568.66	52154.16
568.83	52280.55
568.99	52591.84
569.15	52837.59
569.32	52505.24
569.48	52322.68
569.64	52027.77
569.81	51899.04
569.97	51758.61
570.13	51611.15
570.30	51145.39
570.46	50471.31
570.62	49895.54
570.78	49764.47
570.95	50014.91
571.11	51070.49
571.27	51121.98
571.43	51386.46
571.60	51826.48
571.76	52039.47
571.92	52568.43
572.09	52678.44
572.25	52437.36
572.41	52231.40
572.57	52219.69
572.74	52273.52
572.90	52079.26
573.06	51910.74
573.22	51962.23
573.38	51749.24
573.55	52065.22
573.71	52065.22
573.87	51856.91
574.03	51491.79
574.20	51407.53
574.36	51578.39
574.52	51002.61
574.68	50908.99
574.84	50658.56
575.01	50026.61
575.17	49708.30
575.33	49785.54
575.49	50803.67
575.65	50815.37
575.82	50361.31
575.98	50138.96
576.14	50532.17
576.30	50777.92
576.46	51028.36
576.62	50693.66
576.79	50569.61
576.95	50272.37
577.11	50274.71
577.27	50419.82
577.43	50265.34
577.59	50155.34
577.75	49944.69
577.92	49041.24
578.08	48718.25
578.24	48846.98
578.40	49074.01
578.56	49305.73
578.72	49556.16
578.88	49745.75
579.04	50000.86
579.21	50010.23
579.37	50244.28
579.53	49991.50
579.69	49930.65
579.85	50279.39
580.01	49762.13
580.17	49155.93
580.33	49202.74
580.49	48907.83
580.65	49794.90
580.82	50120.23
580.98	50241.94
581.14	49874.48
581.30	49858.09
581.46	49956.39
581.62	50080.44
581.78	50054.70
581.94	50361.31
582.10	50094.49
582.26	50085.12
582.42	50031.29
582.58	49799.58
582.74	50129.59
582.90	49968.10
583.06	49890.86
583.22	50127.25
583.38	49481.27
583.54	49698.94
583.70	49315.09
583.86	49612.34
584.02	49724.68
584.18	49839.37
584.34	49244.87
584.50	49591.27
584.66	49095.08
584.82	48692.50
584.98	48699.53
585.14	48259.51
585.30	47641.60
