SpectraSuite Data File
++++++++++++++++++++++++++++++++++++
Date: Mon Oct 07 14:53:35 GMT-05:00 2013
User: price-jones
Dark Spectrum Present: No
Reference Spectrum Present: No
Number of Sampled Component Spectra: 1
Spectrometers: USB2+H05261
Integration Time (usec): 100000 (USB2+H05261)
Spectra Averaged: 1 (USB2+H05261)
Boxcar Smoothing: 0 (USB2+H05261)
Correct for Electrical Dark: No (USB2+H05261)
Strobe/Lamp Enabled: No (USB2+H05261)
Correct for Detector Non-linearity: No (USB2+H05261)
Correct for Stray Light: No (USB2+H05261)
Number of Pixels in Processed Spectrum: 2048
>>>>>Begin Processed Spectral Data<<<<<
365.73	0.00
365.92	0.00
366.12	0.00
366.32	0.00
366.52	0.00
366.72	0.00
366.91	0.00
367.11	0.00
367.31	0.00
367.51	0.00
367.70	0.00
367.90	0.00
368.10	0.00
368.30	0.00
368.49	0.00
368.69	0.00
368.89	0.00
369.09	0.00
369.28	0.00
369.48	0.00
369.68	0.00
369.87	0.00
370.07	0.00
370.27	0.00
370.47	697.48
370.66	3309.52
370.86	3978.91
371.06	4308.93
371.25	4372.12
371.45	4046.79
371.65	3559.95
371.84	3330.58
372.04	3475.70
372.24	3946.14
372.44	4067.85
372.63	4044.45
372.83	3840.82
373.03	3384.41
373.22	3187.81
373.42	3190.15
373.62	3674.64
373.81	4016.36
374.01	4028.06
374.21	3716.77
374.40	3398.46
374.60	3438.25
374.79	4079.55
374.99	4681.07
375.19	4978.32
375.38	4915.12
375.58	4727.88
375.78	4594.47
375.97	4573.41
376.17	4786.40
376.37	4830.87
376.56	5081.30
376.76	5224.08
376.95	5652.39
377.15	5947.30
377.35	6190.72
377.54	6513.71
377.74	6780.53
377.93	6551.16
378.13	6459.88
378.33	6094.76
378.52	5682.82
378.72	5568.13
378.91	5523.66
379.11	5207.69
379.31	5048.54
379.50	5015.77
379.70	5483.88
379.89	5912.19
380.09	6338.17
380.28	6480.94
380.48	6476.26
380.68	6162.63
380.87	6235.19
381.07	5977.73
381.26	5490.90
381.46	5029.81
381.65	4887.04
381.85	4620.22
382.04	4592.13
382.24	4128.70
382.43	4070.19
382.63	4007.00
382.83	3943.80
383.02	3920.40
383.22	3927.42
383.41	3997.64
383.61	4189.56
383.80	4762.99
384.00	5277.91
384.19	6106.46
384.39	6450.52
384.58	6558.18
384.78	6427.11
384.97	6303.06
385.17	5991.77
385.36	5645.37
385.56	5628.99
385.75	5764.74
385.95	6148.59
386.14	6630.74
386.34	6778.19
386.53	6576.91
386.72	6099.44
386.92	6167.31
387.11	6431.79
387.31	6787.55
387.50	6373.28
387.70	6300.72
387.89	6382.64
388.09	6356.90
388.28	6335.83
388.48	6455.20
388.67	6916.28
388.86	7793.98
389.06	8184.85
389.25	8641.26
389.45	8596.79
389.64	8751.26
389.84	8505.51
390.03	8386.14
390.22	8283.16
390.42	8720.84
390.61	9324.69
390.81	9944.94
391.00	10221.12
391.19	10059.62
391.39	9867.70
391.58	9270.86
391.78	8463.38
391.97	8175.49
392.16	7812.71
392.36	7098.84
392.55	5774.10
392.75	4610.86
392.94	3730.81
393.13	3595.06
393.33	4248.07
393.52	5654.73
393.71	6822.66
393.91	7686.32
394.10	8234.00
394.29	9177.24
394.49	10064.30
394.68	10679.86
394.88	10684.55
395.07	11035.63
395.26	10998.18
395.46	10738.38
395.65	9832.59
395.84	8814.46
396.04	7375.03
396.23	5998.79
396.42	5025.13
396.62	4741.93
396.81	5446.43
397.00	7162.04
397.19	9137.45
397.39	10649.44
397.58	11953.12
397.77	12915.08
397.97	13078.91
398.16	13493.19
398.35	14064.28
398.55	14335.78
398.74	14764.10
398.93	15267.31
399.12	14862.40
399.32	14108.75
399.51	14871.76
399.70	15866.49
399.90	15393.70
400.09	15372.64
400.28	15328.17
400.47	15594.99
400.67	16453.97
400.86	16713.77
401.05	16369.71
401.24	16947.82
401.44	16877.60
401.63	17069.53
401.82	16982.93
402.01	17025.06
402.21	17144.42
402.40	17284.86
402.59	17109.32
402.78	16407.16
402.97	15817.34
403.17	16358.00
403.36	17027.40
403.55	17774.03
403.74	18244.48
403.93	17427.63
404.13	16236.30
404.32	15620.74
404.51	16269.06
404.70	17493.16
404.89	17652.32
405.09	17331.67
405.28	17151.45
405.47	16980.59
405.66	17146.76
405.85	16507.80
406.05	16084.16
406.24	16266.72
406.43	16975.91
406.62	17642.96
406.81	17958.93
407.00	17081.23
407.20	16664.61
407.39	16849.52
407.58	17809.14
407.77	18487.89
407.96	18661.09
408.15	18902.17
408.34	19227.50
408.54	20072.43
408.73	20236.27
408.92	20037.33
409.11	19403.04
409.30	18464.49
409.49	17177.19
409.68	16086.50
409.87	15695.63
410.07	16446.94
410.26	18129.79
410.45	19044.94
410.64	19499.00
410.83	19885.19
411.02	20580.33
411.21	21242.70
411.40	21348.03
411.59	21179.51
411.78	21193.55
411.98	20489.05
412.17	21303.56
412.36	20704.38
412.55	21092.91
412.74	20152.01
412.93	19899.23
413.12	20285.42
413.31	22141.47
413.50	21984.65
413.69	22827.24
413.88	21774.00
414.07	21015.67
414.26	21163.12
414.45	22155.51
414.64	22312.33
414.83	22405.95
415.02	21926.14
415.22	21937.84
415.41	22647.02
415.60	22998.10
415.79	23922.62
415.98	24453.92
416.17	24751.17
416.36	23873.46
416.55	23981.13
416.74	22726.60
416.93	21996.35
417.12	22108.70
417.31	22190.62
417.50	22852.99
417.69	23475.57
417.88	23634.73
418.07	23332.80
418.26	22724.26
418.45	23161.94
418.64	23693.24
418.83	24950.11
419.02	24421.15
419.21	24418.81
419.39	22984.06
419.58	22162.53
419.77	22162.53
419.96	23271.95
420.15	24643.50
420.34	24971.18
420.53	25855.90
420.72	26143.78
420.91	26335.71
421.10	25745.89
421.29	25830.15
421.48	24680.95
421.67	25879.30
421.86	25348.00
422.05	23974.11
422.24	21076.52
422.43	20613.10
422.61	23040.23
422.80	24968.84
422.99	25116.29
423.18	24484.34
423.37	23653.45
423.56	23555.15
423.75	24149.65
423.94	24624.78
424.13	23517.70
424.32	23592.60
424.50	23922.62
424.69	23370.25
424.88	23576.22
425.07	23166.62
425.26	23494.30
425.45	23049.60
425.64	22464.46
425.83	22862.35
426.01	24070.07
426.20	24556.90
426.39	24512.43
426.58	22855.33
426.77	21151.42
426.96	20346.28
427.15	21399.52
427.33	22506.59
427.52	23768.14
427.71	23536.43
427.90	23501.32
428.09	23653.45
428.28	23033.21
428.46	22146.15
428.65	21802.09
428.84	22326.37
429.03	22700.86
429.22	21418.24
429.40	20449.26
429.59	18548.75
429.78	16404.81
429.97	16201.19
430.16	16484.39
430.34	16734.83
430.53	16500.78
430.72	16776.96
430.91	19096.43
431.10	21991.67
431.28	26012.71
431.47	28137.92
431.66	28334.53
431.85	25965.90
432.03	23906.23
432.22	22602.55
432.41	23688.56
432.60	26183.57
432.79	27250.86
432.97	28187.07
433.16	27180.64
433.35	24968.84
433.54	22363.82
433.72	21188.87
433.91	21532.93
434.10	24142.63
434.28	25766.96
434.47	27601.94
434.66	26972.33
434.85	26457.42
435.03	25886.32
435.22	26527.63
435.41	28477.30
435.59	28411.76
435.78	28769.86
435.97	29525.86
436.16	30176.53
436.34	29298.83
436.53	28678.58
436.72	28994.56
436.90	27318.73
437.09	27103.40
437.28	26698.49
437.46	27950.68
437.65	27384.27
437.84	25942.50
438.02	23704.95
438.21	23330.46
438.40	24907.98
438.58	26895.10
438.77	27681.52
438.96	27800.88
439.14	28767.52
439.33	30010.35
439.52	29839.49
439.70	29584.37
439.89	28727.74
440.08	27974.08
440.26	27845.35
440.45	28673.90
440.63	30951.24
440.82	32510.04
441.01	31917.89
441.19	31475.52
441.38	32400.04
441.57	33560.94
441.75	33511.79
441.94	34071.18
442.12	33453.28
442.31	33806.70
442.50	34527.58
442.68	33521.15
442.87	33352.63
443.05	32797.93
443.24	33429.87
443.43	34239.70
443.61	34455.03
443.80	35454.44
443.98	33397.10
444.17	32971.13
444.35	35101.01
444.54	35754.02
444.73	35227.40
444.91	33862.87
445.10	32697.28
445.28	31264.88
445.47	30747.62
445.65	30958.27
445.84	31758.73
446.02	32959.42
446.21	33394.76
446.39	33443.91
446.58	34036.07
446.77	34457.37
446.95	34670.36
447.14	36034.89
447.32	35725.94
447.51	35515.29
447.69	34398.85
447.88	33603.07
448.06	33692.01
448.25	34691.42
448.43	35711.89
448.62	34623.54
448.80	33991.60
448.99	34401.19
449.17	34848.24
449.36	34972.28
449.54	35945.95
449.73	37167.71
449.91	37659.22
450.10	38288.82
450.28	38511.17
450.46	38225.63
450.65	38260.74
450.83	37963.49
451.02	37469.64
451.20	37242.60
451.39	37200.47
451.57	36872.80
451.76	37177.07
451.94	36598.96
452.13	36060.63
452.31	34698.44
452.49	32737.07
452.68	33111.56
452.86	33422.85
453.05	33560.94
453.23	34848.24
453.42	35159.53
453.60	36491.29
453.78	36903.23
453.97	36605.98
454.15	36416.40
454.34	35707.21
454.52	35908.50
454.70	34958.24
454.89	35416.99
455.07	35529.33
455.26	36479.59
455.44	37521.13
455.62	38167.12
455.81	38033.71
455.99	38382.45
456.17	37486.02
456.36	37357.29
456.54	39143.12
456.73	38323.93
456.91	39407.60
457.09	39103.33
457.28	40093.38
457.46	38419.89
457.64	38438.62
457.83	37223.88
458.01	36210.43
458.19	37647.52
458.38	37486.02
458.56	38841.19
458.74	38651.61
458.93	37886.25
459.11	37846.46
459.29	37949.45
459.48	38206.90
459.66	38059.45
459.84	38206.90
460.03	38693.74
460.21	38323.93
460.39	39613.57
460.57	39412.28
460.76	40512.33
460.94	39810.17
461.12	39180.57
461.31	39599.52
461.49	39379.51
461.67	39739.96
461.85	40905.54
462.04	40531.06
462.22	41146.62
462.40	40879.80
462.59	40369.56
462.77	40809.58
462.95	40524.04
463.13	40018.48
463.32	39702.51
463.50	39496.54
463.68	39573.78
463.86	39325.68
464.05	39335.04
464.23	38616.50
464.41	38347.34
464.59	37635.81
464.78	39344.41
464.96	39110.35
465.14	38850.55
465.32	39782.09
465.50	40634.04
465.69	40865.75
465.87	39725.91
466.05	38852.89
466.23	37691.99
466.41	36814.29
466.60	37902.64
466.78	37839.44
466.96	38520.54
467.14	38726.50
467.32	39379.51
467.51	39761.02
467.69	37942.42
467.87	38642.24
468.05	38998.01
468.23	39337.38
468.41	39531.65
468.60	39484.84
468.78	40025.50
468.96	39030.77
469.14	39669.74
469.32	40346.15
469.50	38614.16
469.69	39068.22
469.87	38178.82
470.05	38127.33
470.23	38433.94
470.41	38565.01
470.59	38796.72
470.77	38696.08
470.95	39709.53
471.14	40631.70
471.32	40179.98
471.50	42476.04
471.68	42539.24
471.86	42923.08
472.04	42880.95
472.22	43302.25
472.40	40842.35
472.58	41123.21
472.77	40254.87
472.95	41312.80
473.13	41888.57
473.31	40868.09
473.49	41406.42
473.67	41991.55
473.85	42103.90
474.03	43557.37
474.21	43758.66
474.39	44018.46
474.57	43730.57
474.75	44334.43
474.93	43665.03
475.12	42780.31
475.30	42436.25
475.48	43213.31
475.66	43983.35
475.84	42806.06
476.02	42745.20
476.20	41996.23
476.38	43124.37
476.56	43849.94
476.74	44872.75
476.92	44685.51
477.10	46012.59
477.28	46658.58
477.46	46824.76
477.64	46808.37
477.82	47313.93
478.00	47201.58
478.18	46518.15
478.36	46522.83
478.54	46396.44
478.72	46962.85
478.90	48198.65
479.08	48828.26
479.26	49535.10
479.44	49251.89
479.62	49134.87
479.80	48633.99
479.98	49134.87
480.16	49404.03
480.34	49013.16
480.52	49207.42
480.70	49563.18
480.88	49682.55
481.06	50246.62
481.24	50333.22
481.41	51400.50
481.59	52023.09
481.77	51494.13
481.95	51487.10
482.13	51040.06
482.31	51063.47
482.49	51372.42
482.67	51084.53
482.85	51636.90
483.03	52030.11
483.21	52783.76
483.39	52626.95
483.57	52090.96
483.74	51583.07
483.92	51482.42
484.10	52060.54
484.28	52678.44
484.46	53052.92
484.64	53380.60
484.82	52514.60
485.00	52268.84
485.18	51559.66
485.35	50649.19
485.53	47672.03
485.71	44109.74
485.89	43711.84
486.07	45097.44
486.25	48299.30
486.43	50688.98
486.61	51255.39
486.78	51407.53
486.96	51552.64
487.14	53134.84
487.32	53729.34
487.50	54333.20
487.68	55058.76
487.85	55604.11
488.03	55458.99
488.21	55374.73
488.39	54410.43
488.57	54005.52
488.75	54078.08
488.92	54719.38
489.10	56568.41
489.28	57408.66
489.46	58176.36
489.64	57853.36
489.81	58181.04
489.99	57998.48
490.17	57656.76
490.35	58064.01
490.53	57640.37
490.70	57471.85
490.88	57258.87
491.06	58211.46
491.24	58244.23
491.41	57247.16
491.59	56048.81
491.77	55348.99
491.95	56324.99
492.13	57293.97
492.30	58267.64
492.48	59047.04
492.66	59421.52
492.84	59430.88
493.01	59365.35
493.19	58852.77
493.37	58408.07
493.54	58127.20
493.72	58876.18
493.90	59465.99
494.08	60353.05
494.25	60537.96
494.43	60608.17
494.61	60994.36
494.79	60980.32
494.96	60863.29
495.14	60390.50
495.32	59519.82
495.49	58843.41
495.67	59948.14
495.85	61179.26
496.02	61375.87
496.20	61258.84
496.38	61106.71
496.55	60842.23
496.73	61312.67
496.91	61483.53
497.09	61904.83
497.26	61942.28
497.44	61453.11
497.62	61066.92
497.79	60500.51
497.97	59330.24
498.14	59484.72
498.32	60404.55
498.50	61090.32
498.67	61811.21
498.85	61535.02
499.03	61764.40
499.20	62026.54
499.38	61986.75
499.56	61764.40
499.73	61338.42
499.91	61029.47
500.08	60797.76
500.26	60065.17
500.44	60481.78
500.61	60975.64
500.79	60956.91
500.97	60603.49
501.14	60285.18
501.32	60406.89
501.49	60406.89
501.67	60434.97
501.84	61001.38
502.02	61275.22
502.20	61481.19
502.37	61626.31
502.55	61598.22
502.72	62115.48
502.90	62562.52
503.07	62230.16
503.25	62052.28
503.43	61263.52
503.60	60718.18
503.78	60018.36
503.95	60481.78
504.13	61661.41
504.30	62424.43
504.48	62389.32
504.65	61972.70
504.83	61883.76
505.01	62499.33
505.18	62653.80
505.36	63318.51
505.53	63498.73
505.71	63421.50
505.88	63730.45
506.06	63009.56
506.23	62878.49
506.41	62466.56
506.58	62728.70
506.76	62691.25
506.93	62518.05
507.11	62300.38
507.28	62529.75
507.46	62010.15
507.63	61504.60
507.81	61485.87
507.98	61815.89
508.16	62246.55
508.33	62665.50
508.50	63161.70
508.68	63222.55
508.85	63641.51
509.03	63737.47
509.20	63561.93
509.38	62944.03
509.55	62351.87
509.73	62293.36
509.90	62808.28
510.08	63079.78
510.25	62925.30
510.42	62709.97
510.60	62731.04
510.77	62712.31
510.95	63444.90
511.12	63650.87
511.30	63910.67
511.47	64006.63
511.64	63999.61
511.82	63774.92
511.99	63103.18
512.17	62698.27
512.34	62405.70
512.51	62372.94
512.69	62604.65
512.86	62663.16
513.04	63030.63
513.21	63091.48
513.38	62773.17
513.56	62319.10
513.73	61928.23
513.90	61799.50
514.08	61968.02
514.25	62326.13
514.43	62475.92
514.60	62525.07
514.77	62911.26
514.95	62951.05
515.12	62693.59
515.29	63058.71
515.47	63362.98
515.64	63568.95
515.81	63210.85
515.99	62707.63
516.16	61467.15
516.33	59419.18
516.51	58265.30
516.68	57521.01
516.85	57181.63
517.03	57413.34
517.20	59737.49
517.37	61883.76
517.54	63009.56
517.72	62440.81
517.89	60331.99
518.06	58164.65
518.24	58466.58
518.41	60374.12
518.58	61509.28
518.75	61876.74
518.93	61991.43
519.10	61848.66
519.27	62188.03
519.45	62340.17
519.62	63070.42
519.79	63407.45
519.96	63227.23
520.14	62819.98
520.31	61965.68
520.48	62003.13
520.65	62410.38
520.83	63035.31
521.00	63512.78
521.17	63068.08
521.34	62894.88
521.52	62955.73
521.69	63664.91
521.86	63868.54
522.03	63795.98
522.20	62738.06
522.38	61607.58
522.55	61586.52
522.72	62382.30
522.89	62459.54
523.07	62499.33
523.24	62951.05
523.41	63491.71
523.58	63749.17
523.75	64451.33
523.92	64228.98
524.10	64257.07
524.27	64111.95
524.44	63831.09
524.61	63714.06
524.78	63690.66
524.96	63618.10
525.13	63590.01
525.30	63854.50
525.47	64186.85
525.64	64055.78
525.81	63428.52
525.98	62225.48
526.16	60931.17
526.33	60299.22
526.50	60114.32
526.67	59770.26
526.84	60282.84
527.01	61167.56
527.18	61752.69
527.36	62480.60
527.53	63480.01
527.70	63681.30
527.87	63166.38
528.04	62836.36
528.21	63189.78
528.38	63917.69
528.55	64296.86
528.72	64549.63
528.89	64757.94
529.07	64573.04
529.24	63910.67
529.41	63304.47
529.58	62653.80
529.75	62887.85
529.92	63128.93
530.09	63812.37
530.26	63994.93
530.43	64184.51
530.60	64179.83
530.77	64687.73
530.94	64837.52
531.11	64238.34
531.28	64008.97
531.46	63777.26
531.63	63922.37
531.80	63786.62
531.97	63025.95
532.14	62742.74
532.31	61750.35
532.48	61300.97
532.65	61212.03
532.82	62136.54
532.99	63004.88
533.16	63379.37
533.33	63807.68
533.50	63763.21
533.67	63117.23
533.84	62606.99
534.01	62939.35
534.18	63128.93
534.35	63285.75
534.52	63042.33
534.69	63433.20
534.86	63648.53
535.03	63875.56
535.20	64292.18
535.37	64481.76
535.54	64626.87
535.71	64254.73
535.88	64170.47
536.05	63498.73
536.22	63058.71
536.38	62908.92
536.55	62489.96
536.72	61808.87
536.89	61783.12
537.06	62543.80
537.23	63409.79
537.40	63512.78
537.57	63592.36
537.74	63362.98
537.91	63370.00
538.08	63295.11
538.25	63381.71
538.42	63494.05
538.59	63278.72
538.75	62667.84
538.92	62583.58
539.09	62569.54
539.26	62206.76
539.43	62190.37
539.60	62286.34
539.77	62464.22
539.94	62330.81
540.11	61670.78
540.28	61160.54
540.44	61265.86
540.61	61535.02
540.78	61673.12
540.95	62040.58
541.12	62459.54
541.29	62571.88
541.46	62784.87
541.62	63082.12
541.79	62803.59
541.96	62232.50
542.13	62124.84
542.30	62492.30
542.47	62759.12
542.63	62457.20
542.80	62258.25
542.97	62405.70
543.14	62356.55
543.31	62312.08
543.48	62702.95
543.64	63494.05
543.81	63847.47
543.98	63449.58
544.15	62993.18
544.32	62361.23
544.48	62443.15
544.65	62777.85
544.82	62911.26
544.99	62915.94
545.16	62712.31
545.32	62354.21
545.49	63084.46
545.66	63297.45
545.83	62979.14
546.00	62768.49
546.16	62494.64
546.33	62457.20
546.50	62496.98
546.67	62997.86
546.83	62333.15
547.00	62471.24
547.17	61907.17
547.34	61380.55
547.50	61364.17
547.67	61738.65
547.84	61881.42
548.00	62335.49
548.17	62585.92
548.34	62590.61
548.51	62511.03
548.67	62412.73
548.84	62606.99
549.01	62560.18
549.18	62656.14
549.34	62349.53
549.51	62272.29
549.68	62410.38
549.84	62286.34
550.01	62143.56
550.18	61827.59
550.34	61916.53
550.51	62122.50
550.68	62246.55
550.84	61780.78
551.01	61764.40
551.18	61591.20
551.34	61937.60
551.51	62300.38
551.68	62618.69
551.84	62585.92
552.01	62323.78
552.18	62419.75
552.34	61755.03
552.51	61366.51
552.68	61001.38
552.84	61546.73
553.01	61879.08
553.18	61722.27
553.34	61705.88
553.51	62021.86
553.67	62162.29
553.84	62258.25
554.01	62220.80
554.17	62108.46
554.34	62166.97
554.51	62131.86
554.67	62599.97
554.84	62253.57
555.00	62007.81
555.17	61755.03
555.33	61942.28
555.50	61719.93
555.67	61858.02
555.83	61743.33
556.00	61406.30
556.16	61520.98
556.33	61118.41
556.50	60741.58
556.66	60959.25
556.83	60472.42
556.99	61015.43
557.16	60949.89
557.32	61329.06
557.49	61476.51
557.65	61408.64
557.82	61497.58
557.98	61181.60
558.15	60779.03
558.32	59938.78
558.48	59201.51
558.65	59461.31
558.81	59950.48
558.98	60081.55
559.14	60392.84
559.31	60341.35
559.47	60575.40
559.64	59976.23
559.80	59760.90
559.97	59517.48
560.13	60107.30
560.30	60935.85
560.46	61394.59
560.63	61523.32
560.79	61834.61
560.96	61399.27
561.12	60289.86
561.29	59646.21
561.45	59678.98
561.61	60123.68
561.78	60446.68
561.94	60423.27
562.11	60172.83
562.27	60191.56
562.44	60275.82
562.60	60591.79
562.77	60863.29
562.93	60764.99
563.10	60659.66
563.26	59952.82
563.42	60463.06
563.59	60065.17
563.75	60119.00
563.92	60273.48
564.08	59859.20
564.24	60191.56
564.41	60561.36
564.57	60329.65
564.74	60009.00
564.90	60158.79
565.07	60006.65
565.23	59412.16
565.39	59161.72
565.56	58887.88
565.72	58529.78
565.88	59082.14
566.05	59119.59
566.21	59269.39
566.38	59592.38
566.54	59728.13
566.70	59938.78
566.87	59868.56
567.03	59980.91
567.19	60264.11
567.36	59936.44
567.52	60039.42
567.68	59625.15
567.85	59187.47
568.01	58742.77
568.17	58569.57
568.34	58464.24
568.50	58511.05
568.66	58471.26
568.83	59040.01
568.99	58845.75
569.15	58918.31
569.32	59334.92
569.48	58871.49
569.64	58688.93
569.81	58518.07
569.97	58445.52
570.13	58326.15
570.30	58141.25
570.46	57766.76
570.62	57031.83
570.78	57013.11
570.95	57235.46
571.11	57900.17
571.27	57965.71
571.43	58307.43
571.60	58295.72
571.76	58585.95
571.92	58838.73
572.09	59147.68
572.25	59025.97
572.41	58878.52
572.57	58738.08
572.74	59000.22
572.90	58475.94
573.06	58553.18
573.22	58798.94
573.38	58452.54
573.55	58382.32
573.71	58628.08
573.87	58677.23
574.03	58227.85
574.20	58326.15
574.36	58007.84
574.52	58085.07
574.68	58014.86
574.84	57549.09
575.01	57151.20
575.17	57031.83
575.33	57291.63
575.49	57591.22
575.65	57558.45
575.82	57581.86
575.98	57284.61
576.14	57502.28
576.30	57748.04
576.46	57911.88
576.62	57752.72
576.79	57666.12
576.95	57315.04
577.11	57563.14
577.27	57378.23
577.43	57366.53
577.59	57272.91
577.75	57052.90
577.92	56214.99
578.08	55978.59
578.24	56072.21
578.40	56500.53
578.56	56999.07
578.72	56505.21
578.88	56868.00
579.04	56945.23
579.21	56905.44
579.37	57275.25
579.53	57378.23
579.69	57315.04
579.85	57471.85
580.01	57544.41
580.17	56706.50
580.33	56718.20
580.49	56776.72
580.65	57088.01
580.82	57155.88
580.98	56989.70
581.14	56924.17
581.30	57240.14
581.46	56905.44
581.62	57251.84
581.78	57165.24
581.94	57279.93
582.10	57277.59
582.26	57411.00
582.42	57293.97
582.58	57359.51
582.74	57317.38
582.90	57265.89
583.06	57373.55
583.22	57080.98
583.38	56949.92
583.54	57022.47
583.70	56760.33
583.86	57017.79
584.02	56982.68
584.18	56800.12
584.34	56846.93
584.50	56846.93
584.66	56608.20
584.82	56140.09
584.98	56442.02
585.14	56076.90
