SpectraSuite Data File
++++++++++++++++++++++++++++++++++++
Date: Mon Oct 07 14:53:35 GMT-05:00 2013
User: price-jones
Dark Spectrum Present: No
Reference Spectrum Present: No
Number of Sampled Component Spectra: 1
Spectrometers: USB2+H05261
Integration Time (usec): 100000 (USB2+H05261)
Spectra Averaged: 1 (USB2+H05261)
Boxcar Smoothing: 0 (USB2+H05261)
Correct for Electrical Dark: No (USB2+H05261)
Strobe/Lamp Enabled: No (USB2+H05261)
Correct for Detector Non-linearity: No (USB2+H05261)
Correct for Stray Light: No (USB2+H05261)
Number of Pixels in Processed Spectrum: 2048
>>>>>Begin Processed Spectral Data<<<<<
365.73	0.00
365.92	0.00
366.12	0.00
366.32	0.00
366.52	0.00
366.72	0.00
366.91	0.00
367.11	0.00
367.31	0.00
367.51	0.00
367.70	0.00
367.90	0.00
368.10	0.00
368.30	0.00
368.49	0.00
368.69	0.00
368.89	0.00
369.09	0.00
369.28	0.00
369.48	0.00
369.68	0.00
369.87	0.00
370.07	0.00
370.27	0.00
370.47	664.71
370.66	3276.75
370.86	3887.63
371.06	4215.30
371.25	4294.88
371.45	3922.74
371.65	3564.64
371.84	3150.36
372.04	3293.13
372.24	3779.97
372.44	4058.49
372.63	3822.09
372.83	3648.90
373.03	3274.41
373.22	3063.76
373.42	3007.59
373.62	3646.55
373.81	3988.27
374.01	3875.93
374.21	3618.47
374.40	3332.92
374.60	3454.63
374.79	3852.52
374.99	4582.77
375.19	4807.46
375.38	4903.42
375.58	4521.92
375.78	4442.34
375.97	4603.83
376.17	4770.01
376.37	4676.39
376.56	4903.42
376.76	5224.08
376.95	5247.48
377.15	5802.19
377.35	6050.28
377.54	6160.29
377.74	6509.03
377.93	6560.52
378.13	6310.08
378.33	5959.00
378.52	5743.67
378.72	5378.55
378.91	5224.08
379.11	5025.13
379.31	4882.36
379.50	4992.36
379.70	5207.69
379.89	5872.40
380.09	6057.31
380.28	6317.11
380.48	6384.98
380.68	6282.00
380.87	6108.80
381.07	5603.24
381.26	5310.68
381.46	4903.42
381.65	4762.99
381.85	4695.11
382.04	4435.32
382.24	4156.79
382.43	3920.40
382.63	3702.73
382.83	3791.67
383.02	3882.95
383.22	3838.48
383.41	3901.67
383.61	4159.13
383.80	4683.41
384.00	5296.63
384.19	6036.24
384.39	6251.57
384.58	6080.71
384.78	6015.18
384.97	6146.25
385.17	5767.08
385.36	5518.98
385.56	5341.10
385.75	5406.64
385.95	5989.43
386.14	6455.20
386.34	6593.29
386.53	6399.02
386.72	5905.17
386.92	5968.37
387.11	6361.58
387.31	6333.49
387.50	6335.83
387.70	6122.84
387.89	6066.67
388.09	6253.91
388.28	6155.61
388.48	6176.67
388.67	6715.00
388.86	7255.66
389.06	7840.79
389.25	8409.54
389.45	8709.13
389.64	8386.14
389.84	8301.88
390.03	8161.45
390.22	8215.28
390.42	8358.05
390.61	9137.45
390.81	9696.84
391.00	9844.29
391.19	9809.19
391.39	9423.00
391.58	9034.47
391.78	8344.01
391.97	8009.31
392.16	7695.68
392.36	6963.09
392.55	5483.88
392.75	4468.08
392.94	3517.83
393.13	3611.45
393.33	4023.38
393.52	5373.87
393.71	6504.35
393.91	7503.76
394.10	8035.06
394.29	8889.35
394.49	9413.63
394.68	10281.97
394.88	10258.57
395.07	10644.76
395.26	10651.78
395.46	10195.37
395.65	9788.12
395.84	8594.45
396.04	7185.44
396.23	5893.47
396.42	4987.68
396.62	4451.70
396.81	5495.58
397.00	6719.68
397.19	8830.84
397.39	10394.32
397.58	11702.68
397.77	12320.58
397.97	12814.43
398.16	13069.55
398.35	13687.45
398.55	13909.80
398.74	14178.97
398.93	14682.18
399.12	14530.05
399.32	14057.26
399.51	14209.39
399.70	15068.37
399.90	15248.59
400.09	15103.48
400.28	14878.79
400.47	15197.10
400.67	16011.60
400.86	16341.62
401.05	16365.03
401.24	16374.39
401.44	16585.04
401.63	16608.44
401.82	16648.23
402.01	16781.64
402.21	16901.01
402.40	16989.95
402.59	16470.35
402.78	15976.50
402.97	15122.20
403.17	16020.97
403.36	16723.13
403.55	17474.44
403.74	17708.49
403.93	16919.73
404.13	15613.71
404.32	15611.37
404.51	15786.91
404.70	17317.62
404.89	17181.87
405.09	16917.39
405.28	16531.20
405.47	16741.85
405.66	16596.74
405.85	16137.99
406.05	15714.36
406.24	15548.18
406.43	16535.88
406.62	17158.47
406.81	17027.40
407.00	16699.72
407.20	16191.83
407.39	16531.20
407.58	17284.86
407.77	17755.30
407.96	18520.66
408.15	18691.52
408.34	18806.20
408.54	19445.17
408.73	19714.33
408.92	19297.72
409.11	18998.13
409.30	17991.70
409.49	16793.34
409.68	15742.44
409.87	15346.89
410.07	16219.91
410.26	17528.27
410.45	18410.65
410.64	19019.19
410.83	19403.04
411.02	20294.79
411.21	20893.96
411.40	20475.01
411.59	20779.28
411.78	20776.94
411.98	20292.44
412.17	20823.75
412.36	20414.15
412.55	20194.14
412.74	20292.44
412.93	19426.45
413.12	19637.09
413.31	21638.25
413.50	21656.98
413.69	22132.11
413.88	21069.50
414.07	20442.24
414.26	20982.90
414.45	21376.11
414.64	21893.37
414.83	21764.64
415.02	21085.89
415.22	21425.26
415.41	21996.35
415.60	22780.43
415.79	23543.45
415.98	23637.07
416.17	23838.36
416.36	23337.48
416.55	22691.49
416.74	22256.15
416.93	21656.98
417.12	21312.92
417.31	21853.58
417.50	22305.31
417.69	23428.76
417.88	22895.12
418.07	22817.88
418.26	22562.76
418.45	22731.28
418.64	23428.76
418.83	23950.70
419.02	24063.05
419.21	23742.39
419.39	22895.12
419.58	21774.00
419.77	21628.89
419.96	22682.13
420.15	23864.10
420.34	24379.02
420.53	25249.70
420.72	25961.22
420.91	25773.98
421.10	25483.75
421.29	25198.21
421.48	24261.99
421.67	25406.52
421.86	25006.28
422.05	23213.43
422.24	21102.27
422.43	20269.04
422.61	22728.94
422.80	24662.22
422.99	24168.37
423.18	23520.04
423.37	23229.82
423.56	23152.58
423.75	23850.06
423.94	24056.03
424.13	22934.91
424.32	22860.01
424.50	23171.30
424.69	22946.61
424.88	22782.77
425.07	22834.27
425.26	22530.00
425.45	22471.48
425.64	22038.48
425.83	21975.29
426.01	23524.72
426.20	23852.40
426.39	23960.06
426.58	21970.61
426.77	20657.57
426.96	19721.35
427.15	20381.38
427.33	22094.66
427.52	23218.11
427.71	23117.47
427.90	23197.05
428.09	22888.10
428.28	22146.15
428.46	21326.96
428.65	20872.90
428.84	21771.66
429.03	21954.22
429.22	21036.74
429.40	19943.70
429.59	17860.63
429.78	15878.19
429.97	15896.92
430.16	15903.94
430.34	16102.89
430.53	16233.96
430.72	16603.76
430.91	18211.71
431.10	21383.13
431.28	25710.78
431.47	27332.78
431.66	27370.22
431.85	25226.29
432.03	23349.18
432.22	22178.92
432.41	23204.07
432.60	25404.17
432.79	26221.02
432.97	27035.53
433.16	26485.50
433.35	24336.89
433.54	22017.42
433.72	20673.95
433.91	21242.70
434.10	23681.54
434.28	25294.17
434.47	26579.12
434.66	26349.75
434.85	25598.44
435.03	25495.46
435.22	26398.90
435.41	27733.01
435.59	27887.48
435.78	28362.61
435.97	28865.83
436.16	29252.02
436.34	28680.92
436.53	27716.62
436.72	27873.44
436.90	26249.11
437.09	26637.64
437.28	26265.49
437.46	27072.98
437.65	27108.08
437.84	25071.82
438.02	23087.04
438.21	22897.46
438.40	24339.23
438.58	26171.87
438.77	27089.36
438.96	27087.02
439.14	28194.09
439.33	29233.29
439.52	29425.22
439.70	28570.92
439.89	28023.23
440.08	27276.60
440.26	27410.01
440.45	28144.94
440.63	29944.81
440.82	31847.67
441.01	31309.35
441.19	30838.90
441.38	31321.05
441.57	32402.38
441.75	32519.40
441.94	33656.90
442.12	32540.47
442.31	33514.13
442.50	33720.10
442.68	32865.80
442.87	32446.85
443.05	32165.98
443.24	32552.17
443.43	33521.15
443.61	33881.60
443.80	33970.54
443.98	32748.78
444.17	31999.80
444.35	34305.23
444.54	34876.32
444.73	34728.87
444.91	33069.43
445.10	31615.96
445.28	30527.61
445.47	30260.79
445.65	30160.14
445.84	31255.51
446.02	31824.26
446.21	32718.35
446.39	32542.81
446.58	33090.49
446.77	33443.91
446.95	33734.14
447.14	34822.49
447.32	35318.68
447.51	34361.40
447.69	33670.95
447.88	32896.23
448.06	33556.26
448.25	34162.46
448.43	34403.53
448.62	33659.24
448.80	33261.35
448.99	33881.60
449.17	34033.73
449.36	34099.26
449.54	35225.06
449.73	36170.64
449.91	36442.14
450.10	37589.00
450.28	37666.24
450.46	37301.12
450.65	37792.63
450.83	37266.01
451.02	36610.66
451.20	36528.74
451.39	36383.63
451.57	35957.65
451.76	36275.96
451.94	35662.74
452.13	35016.75
452.31	33874.57
452.49	32107.47
452.68	32395.35
452.86	32449.19
453.05	32800.27
453.23	33790.31
453.42	34796.74
453.60	35707.21
453.78	35608.91
453.97	35545.72
454.15	35557.42
454.34	34974.63
454.52	34976.97
454.70	34300.55
454.89	34700.78
455.07	34316.93
455.26	35103.35
455.44	36802.58
455.62	37191.11
455.81	37340.91
455.99	37301.12
456.17	36825.99
456.36	36945.36
456.54	37469.64
456.73	37858.17
456.91	38939.49
457.09	38665.65
457.28	38752.25
457.46	37785.61
457.64	37408.78
457.83	36254.90
458.01	35484.86
458.19	36467.89
458.38	36636.41
458.56	37820.72
458.74	38143.71
458.93	37289.42
459.11	37099.83
459.29	36999.19
459.48	36935.99
459.66	36847.05
459.84	37125.58
460.03	38071.15
460.21	37682.62
460.39	38473.73
460.57	38464.36
460.76	39381.85
460.94	38754.59
461.12	38871.62
461.31	38440.96
461.49	38391.81
461.67	38391.81
461.85	40175.30
462.04	39328.02
462.22	40034.86
462.40	39487.18
462.59	39358.45
462.77	39250.78
462.95	39686.12
463.13	39283.55
463.32	38780.34
463.50	38733.53
463.68	38199.88
463.86	39236.74
464.05	37881.57
464.23	37296.44
464.41	37495.38
464.59	36411.71
464.78	38382.45
464.96	38518.20
465.14	37912.00
465.32	38555.64
465.50	39613.57
465.69	40041.88
465.87	39068.22
466.05	38586.07
466.23	36680.88
466.41	35477.84
466.60	37158.34
466.78	36760.45
466.96	37839.44
467.14	37965.83
467.32	38618.84
467.51	38667.99
467.69	36783.86
467.87	37560.92
468.05	38700.76
468.23	38061.79
468.41	38239.67
468.60	38312.23
468.78	38731.18
468.96	38162.43
469.14	39194.61
469.32	39068.22
469.50	37853.48
469.69	38237.33
469.87	37317.50
470.05	37366.65
470.23	37439.21
470.41	37296.44
470.59	37675.60
470.77	38061.79
470.95	38878.64
471.14	39182.91
471.32	39409.94
471.50	41429.82
471.68	41441.53
471.86	42117.94
472.04	41823.03
472.22	41956.44
472.40	40210.40
472.58	39920.18
472.77	39306.96
472.95	40659.79
473.13	40947.67
473.31	40470.20
473.49	40264.24
473.67	41125.55
473.85	41432.16
474.03	42197.52
474.21	42436.25
474.39	42354.33
474.57	43421.62
474.75	43056.50
474.93	42663.28
475.12	42085.17
475.30	42064.11
475.48	42059.43
475.66	42876.27
475.84	42209.22
476.02	42532.22
476.20	41277.69
476.38	42508.81
476.56	43337.36
476.74	43356.08
476.92	44170.59
477.10	44800.19
477.28	45591.30
477.46	45893.22
477.64	46419.84
477.82	46078.13
478.00	46527.51
478.18	45748.11
478.36	45287.03
478.54	45727.05
478.72	46117.92
478.90	47140.73
479.08	47779.70
479.26	48364.83
479.44	48158.86
479.62	48140.14
479.80	47847.57
479.98	48163.54
480.16	48713.57
480.34	47983.32
480.52	48467.81
480.70	48378.87
480.88	48610.59
481.06	49579.57
481.24	49670.85
481.41	50501.74
481.59	50791.97
481.77	50899.63
481.95	50396.42
482.13	50110.87
482.31	50223.22
482.49	50766.22
482.67	50646.85
482.85	50951.12
483.03	51512.85
483.21	51805.42
483.39	51608.81
483.57	50834.10
483.74	50712.39
483.92	51035.38
484.10	51283.48
484.28	51709.46
484.46	52231.40
484.64	52781.42
484.82	51840.53
485.00	51470.72
485.18	50946.44
485.35	49537.44
485.53	46962.85
485.71	43026.07
485.89	42728.82
486.07	44046.54
486.25	47917.79
486.43	50000.86
486.61	50822.39
486.78	50756.86
486.96	50696.00
487.14	52210.33
487.32	53097.39
487.50	53741.04
487.68	54532.14
487.85	54710.02
488.03	54894.92
488.21	54581.29
488.39	53895.52
488.57	53600.61
488.75	52776.74
488.92	53886.15
489.10	55835.82
489.28	56947.57
489.46	57535.05
489.64	57532.71
489.81	57528.03
489.99	57080.98
490.17	57209.71
490.35	57544.41
490.53	57167.58
490.70	57052.90
490.88	56645.65
491.06	57572.50
491.24	57457.81
491.41	56765.01
491.59	55229.62
491.77	54611.72
491.95	55531.55
492.13	56549.68
492.30	57600.58
492.48	58253.59
492.66	58731.06
492.84	58712.34
493.01	58403.39
493.19	58192.74
493.37	58056.99
493.54	57689.52
493.72	57958.69
493.90	58934.69
494.08	59594.72
494.25	59922.40
494.43	59877.93
494.61	60395.18
494.79	60598.81
494.96	60310.92
495.14	59690.68
495.32	59023.63
495.49	58279.34
495.67	59496.42
495.85	60554.34
496.02	60877.33
496.20	60807.12
496.38	60231.35
496.55	60126.02
496.73	60718.18
496.91	60772.01
497.09	61289.27
497.26	61200.33
497.44	60919.46
497.62	60624.56
497.79	59657.91
497.97	58623.40
498.14	58688.93
498.32	59688.34
498.50	60711.16
498.67	61111.39
498.85	61139.47
499.03	61439.06
499.20	61518.64
499.38	61336.08
499.56	61291.61
499.73	61034.15
499.91	60566.04
500.08	60140.07
500.26	59386.41
500.44	59824.09
500.61	60563.70
500.79	60273.48
500.97	59945.80
501.14	59688.34
501.32	59861.54
501.49	59718.77
501.67	59882.61
501.84	60479.44
502.02	60619.88
502.20	60912.44
502.37	61062.24
502.55	61022.45
502.72	61481.19
502.90	61982.07
503.07	61673.12
503.25	61373.53
503.43	60725.20
503.60	59957.50
503.78	59409.82
503.95	60023.04
504.13	61010.74
504.30	61813.55
504.48	61591.20
504.65	61219.05
504.83	61235.44
505.01	61848.66
505.18	62223.14
505.36	62688.91
505.53	62812.96
505.71	62965.09
505.88	63061.05
506.06	62543.80
506.23	62272.29
506.41	61797.16
506.58	62134.20
506.76	62129.52
506.93	61984.41
507.11	61677.80
507.28	61961.00
507.46	61528.00
507.63	60912.44
507.81	60858.61
507.98	61162.88
508.16	61722.27
508.33	62199.74
508.50	62351.87
508.68	62588.27
508.85	63264.68
509.03	63037.65
509.20	62990.84
509.38	62412.73
509.55	61642.69
509.73	61619.28
509.90	62195.06
510.08	62480.60
510.25	62302.72
510.42	62195.06
510.60	62103.77
510.77	62436.13
510.95	62901.90
511.12	63072.76
511.30	63299.79
511.47	63297.45
511.64	63358.30
511.82	63112.55
511.99	62403.36
512.17	62021.86
512.34	61813.55
512.51	62094.41
512.69	61888.45
512.86	62195.06
513.04	62504.01
513.21	62438.47
513.38	62157.61
513.56	61797.16
513.73	61167.56
513.90	61518.64
514.08	61654.39
514.25	61811.21
514.43	61869.72
514.60	62012.49
514.77	62089.73
514.95	62232.50
515.12	62195.06
515.29	62403.36
515.47	62932.32
515.64	62913.60
515.81	62522.73
515.99	62106.12
516.16	60914.78
516.33	58731.06
516.51	57518.67
516.68	56872.68
516.85	56655.01
517.03	56877.36
517.20	59224.92
517.37	61134.79
517.54	62269.95
517.72	61939.94
517.89	59807.71
518.06	57649.74
518.24	57883.79
518.41	59786.64
518.58	60795.42
518.75	61190.97
518.93	61497.58
519.10	61169.90
519.27	61769.08
519.45	61888.45
519.62	62351.87
519.79	62899.56
519.96	62621.03
520.14	62370.60
520.31	61432.04
520.48	61436.72
520.65	61567.79
520.83	62630.40
521.00	63030.63
521.17	62663.16
521.34	62291.02
521.52	62501.67
521.69	63147.65
521.86	63543.20
522.03	63264.68
522.20	62092.07
522.38	61097.34
522.55	61137.13
522.72	61600.56
522.89	61902.49
523.07	62127.18
523.24	62281.66
523.41	63189.78
523.58	63241.28
523.75	63753.85
523.92	63449.58
524.10	63573.63
524.27	63482.35
524.44	63554.91
524.61	63220.21
524.78	62852.75
524.96	63039.99
525.13	63075.10
525.30	63351.28
525.47	63739.81
525.64	63405.11
525.81	62913.60
525.98	61755.03
526.16	60193.90
526.33	59803.03
526.50	59458.97
526.67	58927.67
526.84	59688.34
527.01	60711.16
527.18	61436.72
527.36	62199.74
527.53	63007.22
527.70	63051.69
527.87	62546.14
528.04	62230.16
528.21	62504.01
528.38	63152.33
528.55	63597.04
528.72	63915.35
528.89	64118.98
529.07	63945.78
529.24	63327.87
529.41	62707.63
529.58	62255.91
529.75	62241.87
529.92	62674.87
530.09	63018.92
530.26	63370.00
530.43	63828.75
530.60	63793.64
530.77	63917.69
530.94	63957.48
531.11	63697.68
531.28	63306.81
531.46	63051.69
531.63	63238.93
531.80	63168.72
531.97	62857.43
532.14	62124.84
532.31	61195.65
532.48	60631.58
532.65	60832.86
532.82	61469.49
532.99	62592.95
533.16	62759.12
533.33	63185.10
533.50	62939.35
533.67	62646.78
533.84	61932.92
534.01	62230.16
534.18	62508.69
534.35	62859.77
534.52	62557.84
534.69	62677.21
534.86	62986.16
535.03	63257.66
535.20	63632.14
535.37	64062.80
535.54	64137.70
535.71	63732.79
535.88	63482.35
536.05	62822.32
536.22	62658.48
536.38	62197.40
536.55	61736.31
536.72	61352.46
536.89	61387.57
537.06	61893.13
537.23	62766.15
537.40	63051.69
537.57	63014.24
537.74	62838.70
537.91	62812.96
538.08	62827.00
538.25	62859.77
538.42	63035.31
538.59	62822.32
538.75	62136.54
538.92	62010.15
539.09	61853.34
539.26	61675.46
539.43	61638.01
539.60	61621.62
539.77	61710.56
539.94	61836.95
540.11	61099.68
540.28	60542.64
540.44	60596.47
540.61	60849.25
540.78	61045.85
540.95	61432.04
541.12	61776.10
541.29	62049.94
541.46	62230.16
541.62	62471.24
541.79	62384.64
541.96	61724.61
542.13	61537.36
542.30	61930.58
542.47	62255.91
542.63	61839.29
542.80	61708.22
542.97	61792.48
543.14	61722.27
543.31	61661.41
543.48	62117.82
543.64	63004.88
543.81	63189.78
543.98	63140.63
544.15	62578.90
544.32	61820.57
544.48	61946.96
544.65	62230.16
544.82	62614.01
544.99	62354.21
545.16	61858.02
545.32	61605.24
545.49	62321.44
545.66	62843.38
545.83	62265.27
546.00	62127.18
546.16	61738.65
546.33	61944.62
546.50	61860.36
546.67	62368.26
546.83	61956.32
547.00	62014.83
547.17	61427.36
547.34	60935.85
547.50	60818.82
547.67	61265.86
547.84	61429.70
548.00	61673.12
548.17	61972.70
548.34	61813.55
548.51	61939.94
548.67	62028.88
548.84	61939.94
549.01	61937.60
549.18	61942.28
549.34	61743.33
549.51	62019.52
549.68	61799.50
549.84	61303.31
550.01	61460.13
550.18	61415.66
550.34	61406.30
550.51	61600.56
550.68	61703.54
550.84	61249.48
551.01	61434.38
551.18	61300.97
551.34	61537.36
551.51	61499.92
551.68	61965.68
551.84	62199.74
552.01	61818.23
552.18	61729.29
552.34	60996.70
552.51	60795.42
552.68	60617.53
552.84	60980.32
553.01	61127.77
553.18	61104.37
553.34	61123.09
553.51	61450.77
553.67	61612.26
553.84	61712.91
554.01	61619.28
554.17	61261.18
554.34	61418.00
554.51	61478.85
554.67	61956.32
554.84	61642.69
555.00	61399.27
555.17	61132.45
555.33	61162.88
555.50	61219.05
555.67	61104.37
555.83	60905.42
556.00	60715.84
556.16	60910.10
556.33	60245.39
556.50	60261.77
556.66	60439.65
556.83	60128.36
556.99	60273.48
557.16	60224.32
557.32	60626.90
557.49	60783.71
557.65	60800.10
557.82	60697.11
557.98	60596.47
558.15	60397.52
558.32	59386.41
558.48	58759.15
558.65	58862.13
558.81	59398.12
558.98	59407.48
559.14	59884.95
559.31	59765.58
559.47	59758.56
559.64	59344.28
559.80	59040.01
559.97	59330.24
560.13	59594.72
560.30	60313.26
560.46	60966.27
560.63	61200.33
560.79	60938.19
560.96	60598.81
561.12	59849.84
561.29	58864.47
561.45	59011.93
561.61	59440.24
561.78	59831.11
561.94	59828.77
562.11	59763.24
562.27	59437.90
562.44	59908.35
562.60	60149.43
562.77	60434.97
562.93	60128.36
563.10	60018.36
563.26	59512.80
563.42	59660.26
563.59	59444.93
563.75	59414.50
563.92	59456.63
564.08	59463.65
564.24	59709.41
564.41	59772.60
564.57	59746.86
564.74	59753.88
564.90	59330.24
565.07	59458.97
565.23	58901.92
565.39	58422.11
565.56	58251.25
565.72	58028.90
565.88	58534.46
566.05	58379.98
566.21	58798.94
566.38	58983.84
566.54	58988.52
566.70	59433.22
566.87	59386.41
567.03	59529.19
567.19	59826.43
567.36	59330.24
567.52	59121.93
567.68	59131.29
567.85	58532.12
568.01	58031.24
568.17	57820.59
568.34	57815.91
568.50	57759.74
568.66	57860.38
568.83	58225.51
568.99	58120.18
569.15	58436.16
569.32	58370.62
569.48	58319.13
569.64	57946.98
569.81	57794.85
569.97	57954.00
570.13	57668.46
570.30	57396.96
570.46	56956.94
570.62	56605.86
570.78	56371.80
570.95	56786.08
571.11	57198.01
571.27	57382.91
571.43	57705.91
571.60	57970.39
571.76	57769.10
571.92	58258.27
572.09	58478.28
572.25	58377.64
572.41	58333.17
572.57	58227.85
572.74	58314.45
572.90	57726.97
573.06	57827.62
573.22	57888.47
573.38	57757.40
573.55	57954.00
573.71	58038.26
573.87	57930.60
574.03	57818.25
574.20	57893.15
574.36	57565.48
574.52	57160.56
574.68	57148.86
574.84	56610.54
575.01	56732.25
575.17	56378.82
575.33	56383.51
575.49	56966.30
575.65	56868.00
575.82	56891.40
575.98	56734.59
576.14	56842.25
576.30	56966.30
576.46	57254.18
576.62	56893.74
576.79	57188.65
576.95	56732.25
577.11	56687.78
577.27	56753.31
577.43	57071.62
577.59	56486.49
577.75	56259.46
577.92	55547.93
578.08	55627.51
578.24	55545.59
578.40	55828.80
578.56	56037.11
578.72	56198.60
578.88	56362.44
579.04	56390.53
579.21	56378.82
579.37	56322.65
579.53	56566.07
579.69	56619.90
579.85	56676.07
580.01	56437.34
580.17	56257.12
580.33	55648.58
580.49	56360.10
580.65	56339.04
580.82	56638.62
580.98	56507.55
581.14	56647.99
581.30	56362.44
581.46	56271.16
581.62	56687.78
581.78	56547.34
581.94	56722.88
582.10	56685.43
582.26	56680.75
582.42	56685.43
582.58	56727.56
582.74	56711.18
582.90	56821.19
583.06	56961.62
583.22	56498.19
583.38	56306.27
583.54	56374.14
583.70	56250.09
583.86	56470.11
584.02	56041.79
584.18	56385.85
584.34	56287.54
584.50	56144.77
584.66	56076.90
584.82	55728.16
584.98	55655.60
585.14	55281.11
