SpectraSuite Data File
++++++++++++++++++++++++++++++++++++
Date: Mon Oct 07 14:54:55 GMT-05:00 2013
User: price-jones
Dark Spectrum Present: No
Reference Spectrum Present: No
Number of Sampled Component Spectra: 1
Spectrometers: USB2+H05261
Integration Time (usec): 10000 (USB2+H05261)
Spectra Averaged: 1 (USB2+H05261)
Boxcar Smoothing: 0 (USB2+H05261)
Correct for Electrical Dark: No (USB2+H05261)
Strobe/Lamp Enabled: No (USB2+H05261)
Correct for Detector Non-linearity: No (USB2+H05261)
Correct for Stray Light: No (USB2+H05261)
Number of Pixels in Processed Spectrum: 2048
>>>>>Begin Processed Spectral Data<<<<<
365.73	0.00
365.92	0.00
366.12	0.00
366.32	0.00
366.52	0.00
366.72	0.00
366.91	0.00
367.11	0.00
367.31	0.00
367.51	0.00
367.70	0.00
367.90	0.00
368.10	0.00
368.30	0.00
368.49	0.00
368.69	0.00
368.89	0.00
369.09	0.00
369.28	0.00
369.48	0.00
369.68	0.00
369.87	0.00
370.07	0.00
370.27	0.00
370.47	0.00
370.66	0.00
370.86	84.26
371.06	46.81
371.25	9.36
371.45	0.00
371.65	0.00
371.84	51.49
372.04	0.00
372.24	16.38
372.44	11.70
372.63	35.11
372.83	0.00
373.03	0.00
373.22	0.00
373.42	0.00
373.62	46.81
373.81	49.15
374.01	0.00
374.21	0.00
374.40	0.00
374.60	25.75
374.79	56.17
374.99	100.64
375.19	88.94
375.38	98.30
375.58	65.54
375.78	4.68
375.97	88.94
376.17	65.54
376.37	95.96
376.56	110.01
376.76	145.11
376.95	182.56
377.15	145.11
377.35	133.41
377.54	255.12
377.74	198.95
377.93	184.90
378.13	201.29
378.33	217.67
378.52	159.16
378.72	149.79
378.91	112.35
379.11	124.05
379.31	173.20
379.50	140.43
379.70	161.50
379.89	224.69
380.09	117.03
380.28	306.61
380.48	201.29
380.68	189.58
380.87	224.69
381.07	124.05
381.26	79.58
381.46	37.45
381.65	100.64
381.85	117.03
382.04	72.56
382.24	32.77
382.43	39.79
382.63	0.00
382.83	16.38
383.02	60.85
383.22	18.72
383.41	28.09
383.61	56.17
383.80	149.79
384.00	100.64
384.19	201.29
384.39	140.43
384.58	140.43
384.78	112.35
384.97	269.16
385.17	182.56
385.36	187.24
385.56	166.18
385.75	105.32
385.95	100.64
386.14	180.22
386.34	212.99
386.53	142.77
386.72	142.77
386.92	189.58
387.11	313.63
387.31	163.84
387.50	220.01
387.70	170.86
387.89	208.31
388.09	194.26
388.28	203.63
388.48	159.16
388.67	299.59
388.86	348.74
389.06	292.57
389.25	348.74
389.45	372.15
389.64	337.04
389.84	346.40
390.03	308.95
390.22	353.42
390.42	330.02
390.61	442.36
390.81	451.72
391.00	447.04
391.19	505.56
391.39	421.30
391.58	376.83
391.78	330.02
391.97	395.55
392.16	304.27
392.36	231.71
392.55	147.45
392.75	16.38
392.94	0.00
393.13	84.26
393.33	51.49
393.52	107.66
393.71	182.56
393.91	257.46
394.10	313.63
394.29	308.95
394.49	367.46
394.68	486.83
394.88	418.96
395.07	519.60
395.26	482.15
395.46	418.96
395.65	362.78
395.84	337.04
396.04	308.95
396.23	229.37
396.42	56.17
396.62	128.73
396.81	93.62
397.00	220.01
397.19	315.97
397.39	475.13
397.58	552.37
397.77	547.69
397.97	681.10
398.16	559.39
398.35	678.76
398.55	793.44
398.74	765.36
398.93	777.06
399.12	660.03
399.32	772.38
399.51	662.37
399.70	788.76
399.90	681.10
400.09	746.63
400.28	753.65
400.47	730.25
400.67	919.83
400.86	866.00
401.05	866.00
401.24	959.62
401.44	936.21
401.63	861.32
401.82	880.04
402.01	828.55
402.21	866.00
402.40	873.02
402.59	870.68
402.78	786.42
402.97	791.10
403.17	856.64
403.36	924.51
403.55	891.74
403.74	1001.75
403.93	877.70
404.13	702.16
404.32	784.08
404.51	858.98
404.70	873.02
404.89	968.98
405.09	863.66
405.28	826.21
405.47	856.64
405.66	884.72
405.85	908.13
406.05	826.21
406.24	751.31
406.43	812.17
406.62	854.30
406.81	936.21
407.00	884.72
407.20	819.19
407.39	870.68
407.58	833.23
407.77	938.55
407.96	938.55
408.15	929.19
408.34	926.85
408.54	1078.99
408.73	1032.18
408.92	1064.94
409.11	1053.24
409.30	938.55
409.49	896.43
409.68	835.57
409.87	798.12
410.07	898.77
410.26	957.28
410.45	1013.45
410.64	1027.50
410.83	1020.47
411.02	1034.52
411.21	1104.73
411.40	1125.80
411.59	1036.86
411.78	1107.07
411.98	1029.84
412.17	1090.69
412.36	1100.05
412.55	1093.03
412.74	1071.97
412.93	1057.92
413.12	1013.45
413.31	1114.10
413.50	1160.91
413.69	1217.08
413.88	1109.41
414.07	1057.92
414.26	1137.50
414.45	1193.67
414.64	1149.20
414.83	1179.63
415.02	1088.35
415.22	1160.91
415.41	1191.33
415.60	1210.06
415.79	1334.11
415.98	1263.89
416.17	1338.79
416.36	1291.98
416.55	1219.42
416.74	1233.46
416.93	1151.54
417.12	1111.75
417.31	1210.06
417.50	1156.22
417.69	1172.61
417.88	1095.37
418.07	1165.59
418.26	1231.12
418.45	1198.35
418.64	1266.23
418.83	1362.19
419.02	1277.93
419.21	1315.38
419.39	1135.16
419.58	1177.29
419.77	1116.44
419.96	1177.29
420.15	1273.25
420.34	1411.34
420.53	1441.77
420.72	1434.75
420.91	1336.45
421.10	1413.68
421.29	1413.68
421.48	1256.87
421.67	1483.90
421.86	1233.46
422.05	1294.32
422.24	1057.92
422.43	1102.39
422.61	1205.38
422.80	1331.76
422.99	1301.34
423.18	1317.72
423.37	1245.16
423.56	1167.93
423.75	1324.74
423.94	1338.79
424.13	1219.42
424.32	1200.69
424.50	1275.59
424.69	1163.25
424.88	1203.04
425.07	1158.57
425.26	1221.76
425.45	1179.63
425.64	1153.88
425.83	1151.54
426.01	1289.64
426.20	1280.27
426.39	1348.15
426.58	1174.95
426.77	1013.45
426.96	919.83
427.15	1074.31
427.33	1100.05
427.52	1287.29
427.71	1287.29
427.90	1191.33
428.09	1167.93
428.28	1247.51
428.46	1118.78
428.65	1172.61
428.84	1121.12
429.03	1053.24
429.22	1090.69
429.40	1067.28
429.59	835.57
429.78	751.31
429.97	788.76
430.16	812.17
430.34	704.50
430.53	798.12
430.72	809.83
430.91	903.45
431.10	1142.18
431.28	1296.66
431.47	1507.30
431.66	1540.07
431.85	1380.92
432.03	1263.89
432.22	1125.80
432.41	1170.27
432.60	1343.47
432.79	1434.75
432.97	1423.05
433.16	1490.92
433.35	1296.66
433.54	1153.88
433.72	971.32
433.91	1172.61
434.10	1212.40
434.28	1284.95
434.47	1497.94
434.66	1483.90
434.85	1289.64
435.03	1341.13
435.22	1411.34
435.41	1439.43
435.59	1507.30
435.78	1495.60
435.97	1565.82
436.16	1561.14
436.34	1540.07
436.53	1479.22
436.72	1418.36
436.90	1409.00
437.09	1310.70
437.28	1366.87
437.46	1565.82
437.65	1338.79
437.84	1294.32
438.02	1233.46
438.21	1214.74
438.40	1193.67
438.58	1416.02
438.77	1404.32
438.96	1469.86
439.14	1509.65
439.33	1493.26
439.52	1493.26
439.70	1437.09
439.89	1643.06
440.08	1448.79
440.26	1416.02
440.45	1490.92
440.63	1624.33
440.82	1575.18
441.01	1636.03
441.19	1603.27
441.38	1764.76
441.57	1741.36
441.75	1682.85
441.94	1767.10
442.12	1722.63
442.31	1827.96
442.50	1853.70
442.68	1785.83
442.87	1816.26
443.05	1668.80
443.24	1680.50
443.43	1802.21
443.61	1832.64
443.80	1856.04
443.98	1720.29
444.17	1750.72
444.35	1797.53
444.54	2038.61
444.73	1818.60
444.91	1762.42
445.10	1621.99
445.28	1617.31
445.47	1570.50
445.65	1582.20
445.84	1591.56
446.02	1682.85
446.21	1769.44
446.39	1706.25
446.58	1802.21
446.77	1757.74
446.95	1818.60
447.14	1884.13
447.32	1832.64
447.51	1860.73
447.69	1762.42
447.88	1774.13
448.06	1720.29
448.25	1954.35
448.43	1724.97
448.62	1682.85
448.80	1863.07
448.99	1757.74
449.17	1757.74
449.36	1825.62
449.54	1834.98
449.73	2001.16
449.91	1884.13
450.10	1928.60
450.28	2001.16
450.46	2071.37
450.65	2054.99
450.83	2005.84
451.02	1935.62
451.20	1984.77
451.39	1933.28
451.57	1947.33
451.76	1928.60
451.94	1961.37
452.13	1860.73
452.31	1783.49
452.49	1710.93
452.68	1668.80
452.86	1713.27
453.05	1701.57
453.23	1739.02
453.42	1881.79
453.60	1973.07
453.78	1935.62
453.97	1916.90
454.15	1846.68
454.34	1851.36
454.52	1865.41
454.70	1813.92
454.89	1820.94
455.07	1685.19
455.26	1851.36
455.44	2001.16
455.62	1952.01
455.81	1998.82
455.99	1968.39
456.17	1996.48
456.36	2010.52
456.54	1947.33
456.73	1954.35
456.91	1933.28
457.09	1968.39
457.28	2078.40
457.46	2045.63
457.64	1919.24
457.83	1973.07
458.01	1781.15
458.19	1900.52
458.38	1923.92
458.56	2059.67
458.74	2024.56
458.93	1912.22
459.11	1954.35
459.29	1860.73
459.48	1980.09
459.66	1863.07
459.84	1921.58
460.03	2019.88
460.21	1989.46
460.39	2033.93
460.57	2064.35
460.76	2069.03
460.94	2031.58
461.12	2059.67
461.31	2111.16
461.49	1973.07
461.67	2047.97
461.85	2143.93
462.04	2087.76
462.22	2085.42
462.40	2195.42
462.59	2190.74
462.77	2083.08
462.95	2099.46
463.13	2015.20
463.32	2141.59
463.50	1959.03
463.68	1935.62
463.86	2029.24
464.05	1987.11
464.23	1944.99
464.41	1902.86
464.59	2066.69
464.78	1898.17
464.96	2036.27
465.14	1933.28
465.32	2057.33
465.50	2071.37
465.69	2036.27
465.87	2026.90
466.05	2010.52
466.23	1998.82
466.41	1811.57
466.60	1834.98
466.78	1909.88
466.96	1944.99
467.14	1961.37
467.32	2092.44
467.51	1977.75
467.69	1942.64
467.87	1923.92
468.05	1937.96
468.23	2111.16
468.41	2040.95
468.60	2031.58
468.78	2057.33
468.96	2054.99
469.14	1977.75
469.32	2090.10
469.50	1886.47
469.69	1923.92
469.87	1846.68
470.05	1954.35
470.23	1935.62
470.41	1923.92
470.59	1959.03
470.77	2012.86
470.95	2012.86
471.14	1956.69
471.32	2078.40
471.50	2139.25
471.68	2277.34
471.86	2176.70
472.04	2249.25
472.22	2244.57
472.40	2141.59
472.58	2064.35
472.77	2059.67
472.95	2097.12
473.13	2010.52
473.31	2054.99
473.49	2043.29
473.67	2115.84
473.85	2157.97
474.03	2225.85
474.21	2251.60
474.39	2275.00
474.57	2172.02
474.75	2115.84
474.93	2200.10
475.12	2155.63
475.30	2193.08
475.48	2314.79
475.66	2333.51
475.84	2125.21
476.02	2275.00
476.20	2085.42
476.38	2143.93
476.56	2188.40
476.74	2127.55
476.92	2338.20
477.10	2363.94
477.28	2410.75
477.46	2328.83
477.64	2471.61
477.82	2487.99
478.00	2413.09
478.18	2406.07
478.36	2298.41
478.54	2314.79
478.72	2359.26
478.90	2380.32
479.08	2513.74
479.26	2595.65
479.44	2499.69
479.62	2574.59
479.80	2396.71
479.98	2539.48
480.16	2518.42
480.34	2473.95
480.52	2513.74
480.70	2579.27
480.88	2506.71
481.06	2530.12
481.24	2686.94
481.41	2843.75
481.59	2846.09
481.77	2597.99
481.95	2621.40
482.13	2581.61
482.31	2635.44
482.49	2738.43
482.67	2710.34
482.85	2750.13
483.03	2874.18
483.21	3023.97
483.39	2885.88
483.57	2752.47
483.74	2726.72
483.92	2818.00
484.10	2757.15
484.28	2710.34
484.46	2810.98
484.64	3023.97
484.82	2963.12
485.00	2862.48
485.18	2808.64
485.35	2626.08
485.53	2387.35
485.71	2211.81
485.89	2186.06
486.07	2246.91
486.25	2502.03
486.43	2731.41
486.61	2803.96
486.78	2736.09
486.96	2775.88
487.14	2822.69
487.32	2867.16
487.50	3047.38
487.68	3138.66
487.85	3136.32
488.03	3131.64
488.21	2988.86
488.39	2913.97
488.57	2958.44
488.75	2953.76
488.92	3077.80
489.10	3213.56
489.28	3398.46
489.46	3492.08
489.64	3442.93
489.81	3517.83
489.99	3384.41
490.17	3316.54
490.35	3463.99
490.53	3407.82
490.70	3452.29
490.88	3258.03
491.06	3421.86
491.24	3473.36
491.41	3487.40
491.59	3094.19
491.77	3054.40
491.95	3138.66
492.13	3421.86
492.30	3358.67
492.48	3637.19
492.66	3557.61
492.84	3524.85
493.01	3515.48
493.19	3609.11
493.37	3435.91
493.54	3375.05
493.72	3538.89
493.90	3679.32
494.08	3627.83
494.25	3730.81
494.43	3815.07
494.61	3906.35
494.79	3892.31
494.96	3726.13
495.14	3712.09
495.32	3641.87
495.49	3620.81
495.67	3655.92
495.85	3803.37
496.02	4072.53
496.20	3896.99
496.38	3873.59
496.55	3674.64
496.73	3894.65
496.91	3854.86
497.09	4018.70
497.26	3955.51
497.44	3922.74
497.62	3932.10
497.79	3747.20
497.97	3571.66
498.14	3665.28
498.32	3852.52
498.50	3770.60
498.67	4042.11
498.85	3999.98
499.03	3854.86
499.20	3995.29
499.38	3976.57
499.56	3866.56
499.73	3911.04
499.91	3925.08
500.08	3655.92
500.26	3768.26
500.44	3768.26
500.61	3847.84
500.79	3716.77
500.97	3845.50
501.14	3775.28
501.32	3569.32
501.49	3623.15
501.67	3936.78
501.84	3674.64
502.02	3967.21
502.20	3896.99
502.37	3864.22
502.55	3831.46
502.72	3997.64
502.90	4126.36
503.07	4011.68
503.25	4011.68
503.43	3838.48
503.60	3730.81
503.78	3705.07
503.95	3786.99
504.13	4044.45
504.30	4119.34
504.48	4145.09
504.65	3913.38
504.83	3810.39
505.01	3946.14
505.18	4039.76
505.36	4131.05
505.53	4255.09
505.71	4184.88
505.88	4365.10
506.06	4126.36
506.23	4081.89
506.41	3925.08
506.58	3981.25
506.76	4112.32
506.93	4133.39
507.11	3932.10
507.28	4102.96
507.46	3964.87
507.63	3824.44
507.81	3723.79
507.98	3981.25
508.16	4063.17
508.33	4051.47
508.50	4236.37
508.68	4273.82
508.85	4334.67
509.03	4147.43
509.20	4196.58
509.38	4065.51
509.55	3918.06
509.73	3969.55
509.90	4030.40
510.08	4269.14
510.25	4112.32
510.42	4245.73
510.60	4002.32
510.77	4095.94
510.95	4205.94
511.12	4063.17
511.30	4196.58
511.47	4257.43
511.64	4301.90
511.82	4219.99
511.99	4173.18
512.17	4084.23
512.34	4007.00
512.51	4021.04
512.69	4039.76
512.86	4074.87
513.04	4119.34
513.21	4088.92
513.38	4058.49
513.56	4016.36
513.73	3758.90
513.90	3838.48
514.08	3831.46
514.25	3847.84
514.43	3985.93
514.60	3962.53
514.77	4105.30
514.95	4077.21
515.12	4119.34
515.29	4002.32
515.47	4100.62
515.64	4145.09
515.81	4093.60
515.99	4056.15
516.16	3730.81
516.33	3536.55
516.51	3393.78
516.68	3225.26
516.85	3346.97
517.03	3258.03
517.20	3634.85
517.37	3854.86
517.54	4060.83
517.72	4042.11
517.89	3672.30
518.06	3351.65
518.24	3428.88
518.41	3609.11
518.58	3747.20
518.75	3721.45
518.93	3913.38
519.10	3824.44
519.27	3971.89
519.45	3983.59
519.62	4009.34
519.79	4074.87
519.96	4128.70
520.14	3866.56
520.31	3904.01
520.48	3882.95
520.65	3871.25
520.83	4074.87
521.00	4126.36
521.17	3967.21
521.34	4016.36
521.52	4053.81
521.69	4065.51
521.86	4287.86
522.03	4154.45
522.20	4032.74
522.38	3686.34
522.55	3866.56
522.72	3929.76
522.89	4072.53
523.07	3866.56
523.24	3964.87
523.41	4245.73
523.58	4241.05
523.75	4269.14
523.92	4320.63
524.10	4353.40
524.27	4201.26
524.44	4198.92
524.61	4147.43
524.78	4060.83
524.96	4166.15
525.13	4035.08
525.30	4196.58
525.47	4252.75
525.64	4245.73
525.81	3971.89
525.98	3810.39
526.16	3515.48
526.33	3431.23
526.50	3478.04
526.67	3386.76
526.84	3644.21
527.01	3714.43
527.18	3915.72
527.36	4016.36
527.53	4070.19
527.70	4138.07
527.87	4079.55
528.04	3985.93
528.21	3997.64
528.38	4266.80
528.55	4262.12
528.72	4311.27
528.89	4264.46
529.07	4191.90
529.24	4201.26
529.41	4117.00
529.58	3953.16
529.75	3955.51
529.92	4032.74
530.09	4149.77
530.26	4208.28
530.43	4194.24
530.60	4257.43
530.77	4360.42
530.94	4224.67
531.11	4231.69
531.28	4131.05
531.46	4131.05
531.63	4095.94
531.80	4173.18
531.97	4046.79
532.14	4065.51
532.31	3747.20
532.48	3611.45
532.65	3529.53
532.82	3824.44
532.99	4009.34
533.16	4219.99
533.33	4119.34
533.50	4002.32
533.67	3936.78
533.84	3889.97
534.01	4084.23
534.18	3978.91
534.35	4011.68
534.52	3824.44
534.69	4074.87
534.86	3941.46
535.03	4063.17
535.20	4163.81
535.37	4299.56
535.54	4053.81
535.71	4112.32
535.88	4229.35
536.05	4042.11
536.22	3826.78
536.38	4028.06
536.55	3826.78
536.72	3822.09
536.89	3810.39
537.06	3971.89
537.23	4163.81
537.40	4044.45
537.57	4145.09
537.74	3985.93
537.91	3953.16
538.08	4032.74
538.25	3985.93
538.42	4128.70
538.59	4009.34
538.75	3999.98
538.92	3889.97
539.09	3908.69
539.26	3768.26
539.43	3756.56
539.60	3728.47
539.77	3812.73
539.94	3803.37
540.11	3637.19
540.28	3674.64
540.44	3737.84
540.61	3688.68
540.78	3749.54
540.95	3840.82
541.12	3817.41
541.29	3997.64
541.46	3974.23
541.62	3915.72
541.79	3786.99
541.96	3962.53
542.13	3702.73
542.30	3967.21
542.47	3882.95
542.63	4007.00
542.80	3819.75
542.97	3852.52
543.14	3779.97
543.31	3798.69
543.48	3920.40
543.64	3999.98
543.81	3997.64
543.98	3967.21
544.15	3950.82
544.32	3908.69
544.48	3817.41
544.65	3920.40
544.82	3906.35
544.99	3992.95
545.16	3796.35
545.32	3616.13
545.49	3803.37
545.66	3983.59
545.83	3929.76
546.00	3861.88
546.16	3819.75
546.33	3908.69
546.50	3878.27
546.67	3859.54
546.83	3786.99
547.00	3808.05
547.17	3831.46
547.34	3581.02
547.50	3630.17
547.67	3660.60
547.84	3740.18
548.00	3775.28
548.17	3798.69
548.34	3831.46
548.51	3927.42
548.67	3829.12
548.84	3719.11
549.01	3936.78
549.18	3763.58
549.34	3829.12
549.51	3810.39
549.68	3775.28
549.84	3665.28
550.01	3658.26
550.18	3742.52
550.34	3665.28
550.51	3784.65
550.68	3810.39
550.84	3754.22
551.01	3833.80
551.18	3754.22
551.34	3679.32
551.51	3943.80
551.68	3754.22
551.84	3728.47
552.01	3721.45
552.18	3756.56
552.34	3686.34
552.51	3552.93
552.68	3571.66
552.84	3651.24
553.01	3648.90
553.18	3609.11
553.34	3651.24
553.51	3728.47
553.67	3702.73
553.84	3808.05
554.01	3768.26
554.17	3784.65
554.34	3850.18
554.51	3815.07
554.67	3693.37
554.84	3691.02
555.00	3651.24
555.17	3667.62
555.33	3749.54
555.50	3712.09
555.67	3534.21
555.83	3515.48
556.00	3672.30
556.16	3588.04
556.33	3585.70
556.50	3468.67
556.66	3592.72
556.83	3475.70
556.99	3353.99
557.16	3616.13
557.32	3510.80
557.49	3686.34
557.65	3616.13
557.82	3627.83
557.98	3529.53
558.15	3489.74
558.32	3410.16
558.48	3293.13
558.65	3368.03
558.81	3421.86
558.98	3365.69
559.14	3414.84
559.31	3262.71
559.47	3379.73
559.64	3398.46
559.80	3346.97
559.97	3372.71
560.13	3307.18
560.30	3480.38
560.46	3534.21
560.63	3613.79
560.79	3653.58
560.96	3602.08
561.12	3396.12
561.29	3258.03
561.45	3386.76
561.61	3342.28
561.78	3414.84
561.94	3304.84
562.11	3342.28
562.27	3403.14
562.44	3358.67
562.60	3492.08
562.77	3485.06
562.93	3468.67
563.10	3588.04
563.26	3295.47
563.42	3267.39
563.59	3398.46
563.75	3531.87
563.92	3293.13
564.08	3227.60
564.24	3295.47
564.41	3349.31
564.57	3400.80
564.74	3311.86
564.90	3318.88
565.07	3431.23
565.23	3283.77
565.39	3171.43
565.56	3267.39
565.72	3204.19
565.88	3295.47
566.05	3215.90
566.21	3098.87
566.38	3211.22
566.54	3314.20
566.70	3316.54
566.87	3330.58
567.03	3262.71
567.19	3403.14
567.36	3321.22
567.52	3213.56
567.68	3204.19
567.85	3150.36
568.01	3101.21
568.17	3002.91
568.34	3229.94
568.50	3061.42
568.66	3124.62
568.83	3220.58
568.99	3342.28
569.15	3178.45
569.32	3211.22
569.48	3339.94
569.64	3213.56
569.81	3059.08
569.97	3150.36
570.13	3201.85
570.30	3009.93
570.46	2965.46
570.62	3021.63
570.78	2920.99
570.95	3012.27
571.11	3045.04
571.27	2967.80
571.43	3166.74
571.60	3082.49
571.76	3173.77
571.92	3073.12
572.09	3005.25
572.25	3110.57
572.41	3119.93
572.57	3117.59
572.74	3021.63
572.90	3042.70
573.06	3150.36
573.22	3171.43
573.38	3042.70
573.55	3089.51
573.71	3089.51
573.87	3145.68
574.03	3075.46
574.20	3098.87
574.36	3054.40
574.52	3040.36
574.68	3150.36
574.84	3063.76
575.01	3030.99
575.17	3030.99
575.33	2869.50
575.49	3091.85
575.65	3098.87
575.82	3063.76
575.98	2930.35
576.14	2902.26
576.30	2986.52
576.46	3056.74
576.62	2979.50
576.79	2874.18
576.95	2923.33
577.11	3066.10
577.27	3023.97
577.43	2995.89
577.59	2967.80
577.75	2949.08
577.92	2731.41
578.08	2757.15
578.24	2789.92
578.40	3026.31
578.56	2888.22
578.72	2855.45
578.88	2801.62
579.04	2836.73
579.21	2965.46
579.37	2944.39
579.53	2970.14
579.69	3014.61
579.85	2963.12
580.01	2930.35
580.17	2871.84
580.33	2871.84
580.49	2862.48
580.65	2920.99
580.82	2979.50
580.98	2864.82
581.14	2977.16
581.30	2881.20
581.46	2822.69
581.62	2991.20
581.78	2967.80
581.94	3094.19
582.10	3068.44
582.26	2878.86
582.42	2960.78
582.58	2991.20
582.74	2953.76
582.90	2890.56
583.06	2946.73
583.22	2759.49
583.38	2841.41
583.54	2848.43
583.70	2810.98
583.86	2920.99
584.02	3028.65
584.18	2967.80
584.34	2871.84
584.50	2785.24
584.66	2827.37
584.82	2913.97
584.98	2855.45
585.14	2810.98
585.30	2661.19
585.46	2586.29
585.62	2663.53
585.78	2605.02
585.94	2670.55
586.10	2654.17
586.26	2693.96
586.42	2862.48
586.58	2670.55
586.74	2717.36
586.90	2832.05
587.06	2754.81
587.22	2775.88
587.38	2773.53
587.54	2843.75
587.70	2855.45
587.86	2686.94
588.02	2665.87
588.18	2635.44
588.34	2565.23
588.49	2476.29
588.65	2328.83
588.81	2169.68
588.97	2256.28
589.13	2296.07
589.29	2225.85
589.45	2342.88
589.61	2399.05
589.77	2450.54
589.93	2520.76
590.08	2513.74
590.24	2574.59
590.40	2579.27
590.56	2534.80
590.72	2525.44
590.88	2464.58
591.04	2642.46
591.20	2492.67
591.35	2525.44
591.51	2464.58
591.67	2483.31
591.83	2513.74
591.99	2583.95
592.15	2490.33
592.31	2527.78
592.46	2544.16
592.62	2417.77
592.78	2520.76
592.94	2530.12
593.10	2516.08
593.26	2600.34
593.41	2635.44
593.57	2527.78
593.73	2551.18
593.89	2382.67
594.05	2469.27
594.20	2438.84
594.36	2401.39
594.52	2410.75
594.68	2347.56
594.84	2394.37
594.99	2497.35
595.15	2389.69
595.31	2452.88
595.47	2480.97
595.62	2558.21
595.78	2441.18
595.94	2602.68
596.10	2593.31
596.25	2459.90
596.41	2286.70
596.57	2530.12
596.73	2424.80
596.88	2420.11
597.04	2511.39
597.20	2424.80
597.36	2396.71
597.51	2466.92
597.67	2424.80
597.83	2406.07
597.99	2469.27
598.14	2399.05
598.30	2349.90
598.46	2424.80
598.61	2436.50
598.77	2459.90
598.93	2539.48
599.09	2335.85
599.24	2452.88
599.40	2445.86
