SpectraSuite Data File
++++++++++++++++++++++++++++++++++++
Date: Mon Oct 07 14:55:02 GMT-05:00 2013
User: price-jones
Dark Spectrum Present: No
Reference Spectrum Present: No
Number of Sampled Component Spectra: 1
Spectrometers: USB2+H05261
Integration Time (usec): 10000 (USB2+H05261)
Spectra Averaged: 1 (USB2+H05261)
Boxcar Smoothing: 0 (USB2+H05261)
Correct for Electrical Dark: No (USB2+H05261)
Strobe/Lamp Enabled: No (USB2+H05261)
Correct for Detector Non-linearity: No (USB2+H05261)
Correct for Stray Light: No (USB2+H05261)
Number of Pixels in Processed Spectrum: 2048
>>>>>Begin Processed Spectral Data<<<<<
365.73	0.00
365.92	0.00
366.12	0.00
366.32	0.00
366.52	0.00
366.72	0.00
366.91	0.00
367.11	0.00
367.31	0.00
367.51	0.00
367.70	0.00
367.90	0.00
368.10	0.00
368.30	0.00
368.49	0.00
368.69	0.00
368.89	0.00
369.09	0.00
369.28	0.00
369.48	0.00
369.68	0.00
369.87	0.00
370.07	0.00
370.27	0.00
370.47	442.36
370.66	2612.04
370.86	3080.14
371.06	3201.85
371.25	3197.17
371.45	2736.09
371.65	2483.31
371.84	2380.32
372.04	2677.57
372.24	2942.05
372.44	3103.55
372.63	2963.12
372.83	2773.53
373.03	2466.92
373.22	2263.30
373.42	2401.39
373.62	2778.22
373.81	3028.65
374.01	2956.10
374.21	2548.84
374.40	2471.61
374.60	2736.09
374.79	3204.19
374.99	3513.14
375.19	3672.30
375.38	3655.92
375.58	3393.78
375.78	3309.52
375.97	3463.99
376.17	3489.74
376.37	3552.93
376.56	3857.20
376.76	3885.29
376.95	4351.06
377.15	4486.81
377.35	4706.82
377.54	4830.87
377.74	5156.20
377.93	4978.32
378.13	4676.39
378.33	4500.85
378.52	4198.92
378.72	3918.06
378.91	3950.82
379.11	3786.99
379.31	3838.48
379.50	3688.68
379.70	4231.69
379.89	4542.98
380.09	4699.80
380.28	4840.23
380.48	4917.47
380.68	4807.46
380.87	4601.49
381.07	4084.23
381.26	3969.55
381.46	3637.19
381.65	3529.53
381.85	3353.99
382.04	3267.39
382.24	3005.25
382.43	2967.80
382.63	2918.65
382.83	2857.79
383.02	3007.59
383.22	2972.48
383.41	2939.71
383.61	3269.73
383.80	3822.09
384.00	4266.80
384.19	4678.73
384.39	4868.31
384.58	4952.57
384.78	4683.41
384.97	4734.90
385.17	4365.10
385.36	4227.01
385.56	4002.32
385.75	4255.09
385.95	4650.64
386.14	4980.66
386.34	4849.59
386.53	4741.93
386.72	4329.99
386.92	4702.14
387.11	4919.81
387.31	5071.94
387.50	4968.96
387.70	4702.14
387.89	4821.50
388.09	4809.80
388.28	4781.71
388.48	5048.54
388.67	5263.86
388.86	5963.68
389.06	6251.57
389.25	6509.03
389.45	6703.29
389.64	6555.84
389.84	6403.71
390.03	6326.47
390.22	6450.52
390.42	6785.21
390.61	7183.10
390.81	7454.61
391.00	7761.22
391.19	7686.32
391.39	7534.18
391.58	6892.88
391.78	6743.08
391.97	6239.87
392.16	5830.27
392.36	5039.17
392.55	4053.81
392.75	3260.37
392.94	2605.02
393.13	3023.97
393.33	3686.34
393.52	4489.15
393.71	5427.70
393.91	5944.96
394.10	6581.59
394.29	7103.53
394.49	7660.57
394.68	8210.60
394.88	8147.40
395.07	8386.14
395.26	8308.90
395.46	8067.83
395.65	7433.54
395.84	6452.86
396.04	5359.83
396.23	4390.84
396.42	3894.65
396.62	3887.63
396.81	4737.24
397.00	5827.93
397.19	7358.64
397.39	8580.40
397.58	9437.04
397.77	9816.21
397.97	10092.39
398.16	10436.45
398.35	10710.29
398.55	11054.35
398.74	11655.87
398.93	11613.74
399.12	11435.86
399.32	11180.74
399.51	11559.91
399.70	11948.43
399.90	11964.82
400.09	11651.19
400.28	11901.62
400.47	12346.33
400.67	12807.41
400.86	12889.33
401.05	12898.69
401.24	13041.46
401.44	13266.16
401.63	13411.27
401.82	13406.59
402.01	13238.07
402.21	13544.68
402.40	13336.37
402.59	12908.05
402.78	12514.84
402.97	12484.42
403.17	12884.65
403.36	13729.58
403.55	13998.74
403.74	14174.28
403.93	13462.76
404.13	12290.15
404.32	12512.50
404.51	13280.20
404.70	13607.87
404.89	13671.07
405.09	13420.63
405.28	13284.88
405.47	13357.44
405.66	13174.88
405.85	13048.49
406.05	12423.56
406.24	12929.12
406.43	13291.90
406.62	13635.96
406.81	13881.72
407.00	13795.12
407.20	13177.22
407.39	13336.37
407.58	13820.86
407.77	14752.40
407.96	14810.91
408.15	15115.18
408.34	15232.21
408.54	15892.24
408.73	16023.31
408.92	15522.43
409.11	14874.10
409.30	14333.44
409.49	13165.51
409.68	12657.62
409.87	12564.00
410.07	13490.85
410.26	14403.66
410.45	15019.22
410.64	15480.30
410.83	15861.81
411.02	16549.93
411.21	16673.98
411.40	16477.37
411.59	16685.68
411.78	16840.15
411.98	16512.48
412.17	16985.27
412.36	16833.13
412.55	16489.07
412.74	15932.03
412.93	15817.34
413.12	16453.97
413.31	17942.55
413.50	17652.32
413.69	18022.12
413.88	17165.49
414.07	16901.01
414.26	17296.56
414.45	18080.64
414.64	17809.14
414.83	17554.02
415.02	17593.81
415.22	17572.74
415.41	18473.85
415.60	18670.45
415.79	19119.84
415.98	19328.14
416.17	19529.43
416.36	18939.62
416.55	18813.23
416.74	18160.22
416.93	17748.28
417.12	17785.73
417.31	18092.34
417.50	18476.19
417.69	18754.71
417.88	18485.55
418.07	18579.17
418.26	18506.62
418.45	18544.06
418.64	19314.10
418.83	20430.54
419.02	19356.23
419.21	19016.85
419.39	18459.81
419.58	17837.22
419.77	18190.64
419.96	18981.74
420.15	20161.37
420.34	20521.82
420.53	21165.46
420.72	21399.52
420.91	21111.63
421.10	20535.86
421.29	20350.96
421.48	20091.16
421.67	20809.70
421.86	19997.54
422.05	18310.01
422.24	16762.92
422.43	17521.25
422.61	19768.16
422.80	20589.69
422.99	19587.94
423.18	19150.26
423.37	19400.70
423.56	19508.37
423.75	19875.83
423.94	20437.56
424.13	18710.24
424.32	19126.86
424.50	19143.24
424.69	19176.01
424.88	19330.48
425.07	19339.85
425.26	19098.77
425.45	18459.81
425.64	18230.43
425.83	19012.17
426.01	19367.93
426.20	19740.08
426.39	19562.20
426.58	18155.54
426.77	17057.82
426.96	16774.62
427.15	17811.48
427.33	18970.04
427.52	19316.44
427.71	19660.50
427.90	19173.67
428.09	18895.14
428.28	18518.32
428.46	17947.23
428.65	17774.03
428.84	18274.90
429.03	18302.99
429.22	17528.27
429.40	15817.34
429.59	14548.77
429.78	13198.28
429.97	13448.72
430.16	13556.38
430.34	13722.56
430.53	13987.04
430.72	14590.90
430.91	16236.30
431.10	19309.42
431.28	21830.18
431.47	23063.64
431.66	22911.50
431.85	20442.24
432.03	18923.23
432.22	18728.97
432.41	20144.99
432.60	21811.45
432.79	22368.50
432.97	23159.60
433.16	21895.71
433.35	19417.08
433.54	17638.28
433.72	17170.17
433.91	18448.10
434.10	20587.35
434.28	21680.38
434.47	22993.42
434.66	21874.65
434.85	21528.25
435.03	21884.01
435.22	22384.88
435.41	23545.79
435.59	23543.45
435.78	23800.91
435.97	24257.31
436.16	24477.32
436.34	24072.41
436.53	23761.12
436.72	23667.50
436.90	22272.54
437.09	22525.32
437.28	22265.52
437.46	22906.82
437.65	22457.44
437.84	20510.11
438.02	19597.31
438.21	20339.26
438.40	20779.28
438.58	22312.33
438.77	22923.21
438.96	23192.37
439.14	24121.56
439.33	24315.83
439.52	24872.87
439.70	23903.89
439.89	22974.70
440.08	22878.74
440.26	23070.66
440.45	24266.67
440.63	25989.31
440.82	26991.06
441.01	26092.29
441.19	26139.10
441.38	27388.95
441.57	27887.48
441.75	27962.38
441.94	28444.53
442.12	27826.63
442.31	28603.69
442.50	28311.12
442.68	27878.12
442.87	27468.53
443.05	27173.62
443.24	27957.70
443.43	28465.60
443.61	28788.59
443.80	29378.40
443.98	28175.37
444.17	27878.12
444.35	29235.63
444.54	30263.13
444.73	29287.12
444.91	28056.00
445.10	26647.00
445.28	26185.91
445.47	25472.05
445.65	25876.96
445.84	26799.13
446.02	27353.84
446.21	27899.19
446.39	28077.07
446.58	28753.48
446.77	29158.39
446.95	29692.04
447.14	30293.55
447.32	30260.79
447.51	29748.21
447.69	28439.85
447.88	28680.92
448.06	29146.69
448.25	28884.55
448.43	29233.29
448.62	28854.12
448.80	28591.98
448.99	28650.50
449.17	30015.03
449.36	29806.72
449.54	30274.83
449.73	30829.54
449.91	31098.70
450.10	31873.42
450.28	31718.94
450.46	32070.02
450.65	32781.54
450.83	31627.66
451.02	31157.21
451.20	31140.83
451.39	31630.00
451.57	31440.42
451.76	31386.58
451.94	30476.12
452.13	30242.06
452.31	28252.61
452.49	27353.84
452.68	28105.15
452.86	27885.14
453.05	28833.06
453.23	29912.05
453.42	30181.21
453.60	30665.70
453.78	30691.44
453.97	30553.35
454.15	29935.45
454.34	29369.04
454.52	29226.27
454.70	29200.52
454.89	29631.18
455.07	29883.96
455.26	30267.81
455.44	31672.13
455.62	32397.70
455.81	31864.05
455.99	31742.35
456.17	32048.96
456.36	32940.70
456.54	32968.79
456.73	32488.98
456.91	32765.16
457.09	33144.33
457.28	34052.45
457.46	32393.01
457.64	31992.78
457.83	31730.64
458.01	30899.75
458.19	32315.78
458.38	32760.48
458.56	33244.97
458.74	32343.86
458.93	32313.44
459.11	31466.16
459.29	30988.69
459.48	31683.83
459.66	31604.25
459.84	31952.99
460.03	32739.41
460.21	33315.19
460.39	33785.63
460.57	33567.96
460.76	33322.21
460.94	33441.57
461.12	33780.95
461.31	33600.73
461.49	34092.24
461.67	33237.95
461.85	34071.18
462.04	34352.04
462.22	34511.20
462.40	34330.98
462.59	34246.72
462.77	34047.77
462.95	34197.57
463.13	33565.62
463.32	33247.31
463.50	33104.54
463.68	33401.79
463.86	34094.58
464.05	33237.95
464.23	32088.74
464.41	32332.16
464.59	32086.40
464.78	33324.55
464.96	33336.25
465.14	32737.07
465.32	34260.76
465.50	34859.94
465.69	35124.42
465.87	34085.22
466.05	33146.67
466.23	31480.21
466.41	30728.89
466.60	32109.81
466.78	31934.27
466.96	32606.00
467.14	33481.36
467.32	33479.02
467.51	33308.16
467.69	32077.04
467.87	32587.28
468.05	33516.47
468.23	33010.92
468.41	33298.80
468.60	33401.79
468.78	34099.26
468.96	33811.38
469.14	34279.49
469.32	34239.70
469.50	32545.15
469.69	32837.72
469.87	32652.81
470.05	32081.72
470.23	32376.63
470.41	32886.87
470.59	33364.34
470.77	32912.61
470.95	34307.57
471.14	34705.46
471.32	34576.73
471.50	36549.81
471.68	36388.31
471.86	37242.60
472.04	36187.02
472.22	36786.20
472.40	35204.00
472.58	34813.13
472.77	34934.84
472.95	35023.78
473.13	35997.44
473.31	34705.46
473.49	34738.23
473.67	36163.62
473.85	36533.42
474.03	37780.93
474.21	38246.69
474.39	38305.21
474.57	37687.31
474.75	37972.85
474.93	37799.65
475.12	36781.52
475.30	36884.50
475.48	36704.28
475.66	36301.71
475.84	36006.80
476.02	36254.90
476.20	36208.09
476.38	37446.23
476.56	38227.97
476.74	38864.60
476.92	38859.91
477.10	38885.66
477.28	40044.23
477.46	40055.93
477.64	40961.72
477.82	41191.09
478.00	40746.39
478.18	39693.15
478.36	39225.04
478.54	40275.94
478.72	40362.54
478.90	42691.37
479.08	43990.37
479.26	43536.30
479.44	43782.06
479.62	42726.48
479.80	43143.09
479.98	43456.73
480.16	43899.09
480.34	42866.91
480.52	44177.61
480.70	44751.04
480.88	44329.75
481.06	44882.11
481.24	44985.10
481.41	45698.96
481.59	47079.88
481.77	45546.82
481.95	45523.42
482.13	44584.86
482.31	45631.08
482.49	45855.78
482.67	45322.13
482.85	45783.22
483.03	45762.15
483.21	47374.78
483.39	46337.93
483.57	45787.90
483.74	46178.77
483.92	47138.39
484.10	46499.42
484.28	46986.25
484.46	46569.64
484.64	48662.08
484.82	47475.43
485.00	46499.42
485.18	45832.37
485.35	44140.16
485.53	38920.77
485.71	36680.88
485.89	37104.51
486.07	39880.39
486.25	42703.07
486.43	45099.78
486.61	45375.97
486.78	44767.43
486.96	46127.28
487.14	47875.66
487.32	48341.42
487.50	49380.62
487.68	50499.40
487.85	51484.76
488.03	50234.92
488.21	50211.51
488.39	49256.57
488.57	48650.38
488.75	48727.61
488.92	50209.17
489.10	51948.19
489.28	52999.09
489.46	54270.00
489.64	53670.82
489.81	54073.40
489.99	53020.16
490.17	53216.76
490.35	53687.21
490.53	53366.55
490.70	52685.46
490.88	52643.33
491.06	53729.34
491.24	53895.52
491.41	52547.37
491.59	51330.29
491.77	50965.17
491.95	52566.09
492.13	53696.57
492.30	54312.13
492.48	55175.79
492.66	55449.63
492.84	55299.84
493.01	54557.89
493.19	54600.02
493.37	54075.74
493.54	54768.54
493.72	55749.22
493.90	55739.86
494.08	56034.77
494.25	56203.28
494.43	56800.12
494.61	57272.91
494.79	57289.29
494.96	57532.71
495.14	56809.48
495.32	55826.46
495.49	55690.71
495.67	56446.70
495.85	57586.54
496.02	58372.96
496.20	57698.89
496.38	57528.03
496.55	57347.81
496.73	58253.59
496.91	58178.70
497.09	58038.26
497.26	58237.21
497.44	57921.24
497.62	57052.90
497.79	56285.20
497.97	55199.19
498.14	56247.75
498.32	57441.43
498.50	57268.23
498.67	57558.45
498.85	57904.85
499.03	58244.23
499.20	58677.23
499.38	57986.77
499.56	57649.74
499.73	57237.80
499.91	56956.94
500.08	56678.41
500.26	56198.60
500.44	57176.95
500.61	57263.55
500.79	56954.60
500.97	57284.61
501.14	56144.77
501.32	56193.92
501.49	56493.51
501.67	56860.97
501.84	56835.23
502.02	57462.49
502.20	58274.66
502.37	58340.19
502.55	58129.54
502.72	58745.11
502.90	59124.27
503.07	59112.57
503.25	57556.11
503.43	56839.91
503.60	56554.36
503.78	56481.81
503.95	56664.37
504.13	58213.80
504.30	58515.73
504.48	57965.71
504.65	58012.52
504.83	58284.02
505.01	59054.06
505.18	59042.35
505.36	59482.37
505.53	59405.14
505.71	59943.46
505.88	59599.40
506.06	59725.79
506.23	59086.82
506.41	58944.05
506.58	59152.36
506.76	59004.91
506.93	58583.61
507.11	58644.46
507.28	58599.99
507.46	58347.21
507.63	57977.41
507.81	57310.36
507.98	58274.66
508.16	59217.89
508.33	59119.59
508.50	59461.31
508.68	59868.56
508.85	60327.31
509.03	60261.77
509.20	59583.02
509.38	58454.88
509.55	58269.98
509.73	58845.75
509.90	59297.47
510.08	59409.82
510.25	58805.96
510.42	58625.74
510.60	59601.74
510.77	59693.02
510.95	59653.23
511.12	60119.00
511.30	60500.51
511.47	60399.86
511.64	60418.59
511.82	60329.65
511.99	59248.32
512.17	59288.11
512.34	58981.50
512.51	58836.39
512.69	59484.72
512.86	59468.33
513.04	59676.64
513.21	59044.69
513.38	58225.51
513.56	58071.03
513.73	57415.68
513.90	58124.86
514.08	58459.56
514.25	58071.03
514.43	58532.12
514.60	59035.33
514.77	59255.34
514.95	59297.47
515.12	59077.46
515.29	59559.61
515.47	59756.22
515.64	60013.68
515.81	59489.40
515.99	58499.35
516.16	56750.97
516.33	54817.69
516.51	54440.86
516.68	53069.31
516.85	52275.87
517.03	54529.80
517.20	56631.60
517.37	58454.88
517.54	59416.84
517.72	57942.30
517.89	55210.90
518.06	54094.46
518.24	55470.70
518.41	57588.88
518.58	58071.03
518.75	57932.94
518.93	58096.78
519.10	57741.02
519.27	58621.06
519.45	59021.29
519.62	59166.40
519.79	59587.70
519.96	59124.27
520.14	58756.81
520.31	57743.36
520.48	57979.75
520.65	58937.03
520.83	59515.14
521.00	59711.75
521.17	59260.02
521.34	59075.12
521.52	59554.93
521.69	59657.91
521.86	60243.05
522.03	60280.50
522.20	58763.83
522.38	58005.50
522.55	58801.28
522.72	59421.52
522.89	58541.48
523.07	58803.62
523.24	59243.64
523.41	60491.15
523.58	60612.85
523.75	60884.36
523.92	60477.10
524.10	60282.84
524.27	60207.94
524.44	60168.15
524.61	59962.18
524.78	60402.21
524.96	60378.80
525.13	60130.70
525.30	60441.99
525.47	60364.76
525.64	60460.72
525.81	59772.60
525.98	58202.10
526.16	56835.23
526.33	56907.79
526.50	56388.19
526.67	56449.04
526.84	56868.00
527.01	57872.09
527.18	58349.56
527.36	59678.98
527.53	60243.05
527.70	59704.73
527.87	58300.40
528.04	59386.41
528.21	59877.93
528.38	60502.85
528.55	61139.47
528.72	61020.11
528.89	60774.35
529.07	60479.44
529.24	58866.81
529.41	58997.88
529.58	59065.76
529.75	59924.74
529.92	60179.85
530.09	60250.07
530.26	60493.49
530.43	61490.55
530.60	60439.65
530.77	60842.23
530.94	61020.11
531.11	60289.86
531.28	60385.82
531.46	60774.35
531.63	60367.10
531.80	59664.94
531.97	59164.06
532.14	59489.40
532.31	57855.70
532.48	57600.58
532.65	57712.93
532.82	58038.26
532.99	59903.67
533.16	60027.72
533.33	59786.64
533.50	60170.49
533.67	60238.37
533.84	59147.68
534.01	59711.75
534.18	60111.98
534.35	59709.41
534.52	59126.61
534.69	59976.23
534.86	60154.11
535.03	60268.79
535.20	59723.45
535.37	60781.37
535.54	61078.62
535.71	60746.26
535.88	61120.75
536.05	59779.62
536.22	59058.74
536.38	59276.41
536.55	57921.24
536.72	58024.22
536.89	58855.11
537.06	59157.04
537.23	59730.47
537.40	59985.59
537.57	59519.82
537.74	59903.67
537.91	59735.15
538.08	59571.32
538.25	59323.22
538.42	60088.57
538.59	59583.02
538.75	58656.17
538.92	58141.25
539.09	58267.64
539.26	58525.10
539.43	58548.50
539.60	58915.96
539.77	59124.27
539.94	58749.79
540.11	57944.64
540.28	57689.52
540.44	57186.31
540.61	57460.15
540.78	58145.93
540.95	59025.97
541.12	58525.10
541.29	59229.60
541.46	59391.09
541.62	59578.34
541.79	58731.06
541.96	58159.97
542.13	58035.92
542.30	58216.14
542.47	58911.28
542.63	58986.18
542.80	58658.51
542.97	58260.62
543.14	57731.65
543.31	57858.04
543.48	59224.92
543.64	59442.59
543.81	60402.21
543.98	60189.22
544.15	58518.07
544.32	59241.30
544.48	58810.64
544.65	58871.49
544.82	59208.53
544.99	58204.44
545.16	57946.98
545.32	58145.93
545.49	58824.68
545.66	58941.71
545.83	58511.05
546.00	58824.68
546.16	59220.23
546.33	59206.19
546.50	58820.00
546.67	59346.62
546.83	58644.46
547.00	59426.20
547.17	58234.87
547.34	57022.47
547.50	57450.79
547.67	58316.79
547.84	58927.67
548.00	58822.34
548.17	58721.70
548.34	58614.04
548.51	59063.42
548.67	59489.40
548.84	59433.22
549.01	59400.46
549.18	58735.74
549.34	58791.92
549.51	58850.43
549.68	58745.11
549.84	58611.70
550.01	58110.82
550.18	57696.55
550.34	57972.73
550.51	58677.23
550.68	58805.96
550.84	58251.25
551.01	57921.24
551.18	57600.58
551.34	57265.89
551.51	58862.13
551.68	58562.54
551.84	58113.16
552.01	58277.00
552.18	57951.66
552.34	57553.77
552.51	57282.27
552.68	57483.56
552.84	57537.39
553.01	57888.47
553.18	58625.74
553.34	58527.44
553.51	58464.24
553.67	58042.95
553.84	57567.82
554.01	58351.90
554.17	57827.62
554.34	57846.34
554.51	57904.85
554.67	57209.71
554.84	57736.34
555.00	57476.54
555.17	57715.27
555.33	57406.32
555.50	56687.78
555.67	57635.69
555.83	57733.99
556.00	57546.75
556.16	57172.27
556.33	56463.08
556.50	57148.86
556.66	57565.48
556.83	56896.08
556.99	56725.22
557.16	56809.48
557.32	56884.38
557.49	57038.86
557.65	56617.56
557.82	57146.52
557.98	57741.02
558.15	56509.89
558.32	55655.60
558.48	54897.27
558.65	55133.66
558.81	55784.33
558.98	56170.52
559.14	56530.96
559.31	56128.39
559.47	56072.21
559.64	55468.36
559.80	54979.18
559.97	55828.80
560.13	56954.60
560.30	57801.87
560.46	58113.16
560.63	58653.82
560.79	58305.09
560.96	57209.71
561.12	56247.75
561.29	55690.71
561.45	55519.85
561.61	57015.45
561.78	56435.00
561.94	57284.61
562.11	57092.69
562.27	56439.68
562.44	56750.97
562.60	57148.86
562.77	57233.12
562.93	55957.53
563.10	56135.41
563.26	56053.49
563.42	56839.91
563.59	56058.17
563.75	55847.52
563.92	55880.29
564.08	55021.31
564.24	56119.02
564.41	55950.51
564.57	56662.03
564.74	56432.66
564.90	55606.45
565.07	55789.01
565.23	54480.65
565.39	54546.18
565.56	54721.72
565.72	54831.73
565.88	53640.40
566.05	55664.96
566.21	56179.88
566.38	55550.27
566.54	55437.93
566.70	55889.65
566.87	56191.58
567.03	54855.14
567.19	55934.12
567.36	56746.29
567.52	55601.77
567.68	55159.41
567.85	54569.59
568.01	54429.16
568.17	55058.76
568.34	55164.09
568.50	54796.62
568.66	55285.79
568.83	54443.20
568.99	54014.88
569.15	54667.89
569.32	54878.54
569.48	54525.12
569.64	53848.71
569.81	54204.47
569.97	53492.94
570.13	53591.25
570.30	53134.84
570.46	52612.90
570.62	51536.26
570.78	51882.66
570.95	53354.85
571.11	52612.90
571.27	52535.66
571.43	52743.97
571.60	52346.08
571.76	54199.79
571.92	54443.20
572.09	54658.53
572.25	54501.71
572.41	55302.18
572.57	55121.96
572.74	54930.03
572.90	55817.10
573.06	54805.98
573.22	54986.21
573.38	54726.41
573.55	56097.96
573.71	54607.04
573.87	54873.86
574.03	54986.21
574.20	54192.76
574.36	54365.96
574.52	53457.84
574.68	52924.19
574.84	52832.91
575.01	52760.36
575.17	53485.92
575.33	53560.82
575.49	53401.66
575.65	52533.32
575.82	53118.46
575.98	52453.75
576.14	53567.84
576.30	54227.87
576.46	52863.34
576.62	53207.40
576.79	53169.95
576.95	52835.25
577.11	53277.61
577.27	53560.82
577.43	53542.10
577.59	52507.58
577.75	51332.63
577.92	51367.74
578.08	51845.21
578.24	52615.24
578.40	52296.93
578.56	51948.19
578.72	52100.32
578.88	51868.61
579.04	52409.28
579.21	51880.31
579.37	52032.45
579.53	52533.32
579.69	51835.84
579.85	52039.47
580.01	52327.36
580.17	51934.15
580.33	52750.99
580.49	52601.20
580.65	51091.55
580.82	51559.66
580.98	52547.37
581.14	52772.06
581.30	52598.86
581.46	52229.05
581.62	52514.60
581.78	53015.47
581.94	52907.81
582.10	53525.71
582.26	53624.01
582.42	53389.96
582.58	51990.32
582.74	51770.31
582.90	51821.80
583.06	52350.76
583.22	52872.70
583.38	52481.83
583.54	52690.14
583.70	53090.37
583.86	52392.89
584.02	52210.33
584.18	52196.29
584.34	51133.68
584.50	50749.84
584.66	50644.51
584.82	51210.92
584.98	51583.07
585.14	51182.84
585.30	51388.80
