SpectraSuite Data File
++++++++++++++++++++++++++++++++++++
Date: Mon Oct 07 14:53:03 GMT-05:00 2013
User: price-jones
Dark Spectrum Present: No
Reference Spectrum Present: No
Number of Sampled Component Spectra: 1
Spectrometers: USB2+H05261
Integration Time (usec): 100000 (USB2+H05261)
Spectra Averaged: 1 (USB2+H05261)
Boxcar Smoothing: 0 (USB2+H05261)
Correct for Electrical Dark: No (USB2+H05261)
Strobe/Lamp Enabled: No (USB2+H05261)
Correct for Detector Non-linearity: No (USB2+H05261)
Correct for Stray Light: No (USB2+H05261)
Number of Pixels in Processed Spectrum: 2048
>>>>>Begin Processed Spectral Data<<<<<
365.73	0.00
365.92	0.00
366.12	0.00
366.32	0.00
366.52	0.00
366.72	0.00
366.91	0.00
367.11	0.00
367.31	0.00
367.51	0.00
367.70	0.00
367.90	0.00
368.10	0.00
368.30	0.00
368.49	0.00
368.69	0.00
368.89	0.00
369.09	0.00
369.28	0.00
369.48	0.00
369.68	0.00
369.87	0.00
370.07	0.00
370.27	0.00
370.47	456.40
370.66	2565.23
370.86	3005.25
371.06	3485.06
371.25	3372.71
371.45	2906.95
371.65	2839.07
371.84	2471.61
372.04	2609.70
372.24	3091.85
372.44	3110.57
372.63	3038.02
372.83	2902.26
373.03	2471.61
373.22	2251.60
373.42	2396.71
373.62	2818.00
373.81	3073.12
374.01	3082.49
374.21	2799.28
374.40	2537.14
374.60	2649.49
374.79	3133.98
374.99	3620.81
375.19	3836.14
375.38	3882.95
375.58	3625.49
375.78	3480.38
375.97	3602.08
376.17	3688.68
376.37	3592.72
376.56	3852.52
376.76	3922.74
376.95	4236.37
377.15	4596.81
377.35	4603.83
377.54	4889.38
377.74	4938.53
377.93	5032.15
378.13	4784.06
378.33	4643.62
378.52	4210.62
378.72	4070.19
378.91	4058.49
379.11	3936.78
379.31	3772.94
379.50	3723.79
379.70	4109.98
379.89	4475.10
380.09	4770.01
380.28	4737.24
380.48	4987.68
380.68	4901.08
380.87	4725.54
381.07	4358.08
381.26	4037.42
381.46	3772.94
381.65	3702.73
381.85	3602.08
382.04	3461.65
382.24	3089.51
382.43	3021.63
382.63	2920.99
382.83	2939.71
383.02	2986.52
383.22	2827.37
383.41	3014.61
383.61	3243.98
383.80	3709.75
384.00	4119.34
384.19	4741.93
384.39	4926.83
384.58	4748.95
384.78	4657.67
384.97	4678.73
385.17	4566.39
385.36	4259.78
385.56	4067.85
385.75	4278.50
385.95	4711.50
386.14	5057.90
386.34	5013.43
386.53	4692.77
386.72	4463.40
386.92	4557.02
387.11	4725.54
387.31	4966.62
387.50	5015.77
387.70	4830.87
387.89	4674.05
388.09	4716.18
388.28	4706.82
388.48	4887.04
388.67	5107.05
388.86	5652.39
389.06	6087.73
389.25	6502.01
389.45	6555.84
389.64	6436.47
389.84	6345.19
390.03	6218.80
390.22	6340.51
390.42	6473.92
390.61	6960.75
390.81	7604.40
391.00	7578.65
391.19	7407.80
391.39	7318.86
391.58	6738.40
391.78	6417.75
391.97	6225.82
392.16	5818.57
392.36	5413.66
392.55	4177.86
392.75	3321.22
392.94	2738.43
393.13	2796.94
393.33	3155.04
393.52	4292.54
393.71	5212.37
393.91	5905.17
394.10	6300.72
394.29	6789.89
394.49	7358.64
394.68	7840.79
394.88	7871.22
395.07	8280.82
395.26	8194.22
395.46	7693.34
395.65	7302.47
395.84	6413.07
396.04	5465.15
396.23	4458.72
396.42	3768.26
396.62	3604.42
396.81	4252.75
397.00	5301.31
397.19	6717.34
397.39	7941.44
397.58	9062.55
397.77	9348.10
397.97	9785.78
398.16	9963.66
398.35	10202.40
398.55	10473.90
398.74	10932.64
398.93	11059.03
399.12	11140.95
399.32	10511.35
399.51	10698.59
399.70	11573.95
399.90	11452.24
400.09	11426.50
400.28	11332.87
400.47	11597.35
400.67	12159.08
400.86	12266.75
401.05	12102.91
401.24	12369.73
401.44	12704.43
401.63	12692.73
401.82	12666.98
402.01	12533.57
402.21	12868.27
402.40	12854.22
402.59	12575.70
402.78	11934.39
402.97	11651.19
403.17	12116.95
403.36	12898.69
403.55	13458.08
403.74	13488.51
403.93	12877.63
404.13	11910.99
404.32	11641.82
404.51	12273.77
404.70	13242.75
404.89	13425.31
405.09	13109.34
405.28	12683.36
405.47	12702.09
405.66	12498.46
405.85	12191.85
406.05	11829.07
406.24	12123.98
406.43	12795.71
406.62	13114.02
406.81	13252.11
407.00	12528.89
407.20	12294.83
407.39	12241.00
407.58	12908.05
407.77	13476.80
407.96	14059.60
408.15	14038.53
408.34	13984.70
408.54	14916.23
408.73	15068.37
408.92	14836.66
409.11	14169.60
409.30	13549.36
409.49	13102.32
409.68	11948.43
409.87	11662.89
410.07	12402.50
410.26	13362.12
410.45	14031.51
410.64	14555.79
410.83	14939.64
411.02	15133.90
411.21	15807.98
411.40	15482.64
411.59	15793.94
411.78	15283.70
411.98	15400.72
412.17	15714.36
412.36	15510.73
412.55	15592.65
412.74	15257.95
412.93	14661.12
413.12	14834.32
413.31	16702.06
413.50	16512.48
413.69	16620.14
413.88	16203.53
414.07	15524.77
414.26	15641.80
414.45	16573.33
414.64	16262.04
414.83	16713.77
415.02	16383.75
415.22	16159.06
415.41	16814.41
415.60	17188.89
415.79	17942.55
415.98	18057.23
416.17	18345.12
416.36	17755.30
416.55	17469.76
416.74	17039.10
416.93	16460.99
417.12	16500.78
417.31	16678.66
417.50	16924.41
417.69	17446.35
417.88	17568.06
418.07	17114.00
418.26	17130.38
418.45	17275.49
418.64	17612.53
418.83	18417.68
419.02	17781.05
419.21	18111.07
419.39	17214.64
419.58	16243.32
419.77	16458.65
419.96	17076.55
420.15	18129.79
420.34	18565.13
420.53	19264.95
420.72	19826.68
420.91	19161.97
421.10	19019.19
421.29	19030.90
421.48	18438.74
421.67	19330.48
421.86	18377.89
422.05	17687.43
422.24	15772.87
422.43	15611.37
422.61	17202.94
422.80	18478.53
422.99	18602.58
423.18	17687.43
423.37	17415.93
423.56	17937.87
423.75	17926.16
423.94	18583.85
424.13	17303.58
424.32	17172.51
424.50	17284.86
424.69	17132.72
424.88	17287.20
425.07	17326.99
425.26	17432.31
425.45	17104.64
425.64	16697.38
425.83	16833.13
426.01	17680.41
426.20	18054.89
426.39	18537.04
426.58	16966.54
426.77	15382.00
426.96	14974.75
427.15	15541.16
427.33	16889.31
427.52	17095.27
427.71	17448.69
427.90	17284.86
428.09	17060.16
428.28	16882.28
428.46	16397.79
428.65	16011.60
428.84	16533.54
429.03	16468.01
429.22	15737.76
429.40	14988.79
429.59	13352.76
429.78	11763.53
429.97	12086.53
430.16	12025.67
430.34	12222.28
430.53	12112.27
430.72	12772.30
430.91	13991.72
431.10	16465.67
431.28	19480.28
431.47	20849.49
431.66	21118.65
431.85	19140.90
432.03	17652.32
432.22	16631.85
432.41	17649.98
432.60	19433.47
432.79	20198.82
432.97	20659.91
433.16	20135.63
433.35	18310.01
433.54	16318.22
433.72	15358.60
433.91	16145.02
434.10	18059.57
434.28	19342.19
434.47	20334.57
434.66	19573.90
434.85	19124.52
435.03	19585.60
435.22	19854.76
435.41	21245.04
435.59	21043.76
435.78	21261.43
435.97	21884.01
436.16	21944.86
436.34	21593.78
436.53	21245.04
436.72	21231.00
436.90	20311.17
437.09	19917.96
437.28	19751.78
437.46	20439.90
437.65	20336.91
437.84	18782.80
438.02	17378.48
438.21	17558.70
438.40	18506.62
438.58	20191.80
438.77	20262.02
438.96	20673.95
439.14	21394.84
439.33	21858.26
439.52	22211.68
439.70	21596.12
439.89	21165.46
440.08	20524.16
440.26	20858.85
440.45	21598.46
440.63	22965.34
440.82	24065.39
441.01	23648.77
441.19	23627.71
441.38	23756.44
441.57	24732.44
441.75	24978.20
441.94	25125.65
442.12	25139.69
442.31	25172.46
442.50	25202.89
442.68	25069.48
442.87	24589.67
443.05	24554.56
443.24	24917.34
443.43	25104.59
443.61	25979.95
443.80	25909.73
443.98	24718.40
444.17	24355.61
444.35	25577.37
444.54	26529.97
444.73	26326.35
444.91	24552.22
445.10	23997.51
445.28	23227.48
445.47	22373.18
445.65	22698.52
445.84	23761.12
446.02	24233.91
446.21	24409.45
446.39	24992.24
446.58	25165.44
446.77	25710.78
446.95	25586.74
447.14	26602.53
447.32	26808.50
447.51	26127.40
447.69	25230.98
447.88	24851.81
448.06	25425.24
448.25	25942.50
448.43	26448.05
448.62	25610.14
448.80	25324.60
448.99	25673.34
449.17	25757.60
449.36	25628.87
449.54	27236.81
449.73	27510.66
449.91	27756.41
450.10	28343.89
450.28	28629.43
450.46	28421.13
450.65	28734.76
450.83	28465.60
451.02	27697.90
451.20	27847.69
451.39	27653.43
451.57	27578.53
451.76	27260.22
451.94	27180.64
452.13	26925.52
452.31	25366.73
452.49	24388.38
452.68	24922.02
452.86	24627.12
453.05	25371.41
453.23	25949.52
453.42	26307.62
453.60	26766.37
453.78	27267.24
453.97	26916.16
454.15	27321.07
454.34	26469.12
454.52	26932.54
454.70	26108.68
454.89	26469.12
455.07	26810.84
455.26	26991.06
455.44	27910.89
455.62	28187.07
455.81	28659.86
455.99	28479.64
456.17	28140.26
456.36	28268.99
456.54	28914.98
456.73	28617.73
456.91	29340.96
457.09	29514.16
457.28	30260.79
457.46	28987.53
457.64	28465.60
457.83	27899.19
458.01	27246.18
458.19	27725.99
458.38	27990.47
458.56	29156.05
458.74	29186.48
458.93	28194.09
459.11	28432.83
459.29	28173.03
459.48	28474.96
459.66	27707.26
459.84	28002.17
460.03	28496.02
460.21	28814.34
460.39	29434.58
460.57	29631.18
460.76	29869.92
460.94	30066.52
461.12	29455.64
461.31	29769.27
461.49	29762.25
461.67	29427.56
461.85	30221.00
462.04	30286.53
462.22	31000.40
462.40	30438.67
462.59	30099.29
462.77	30110.99
462.95	30345.05
463.13	29909.71
463.32	29432.24
463.50	29488.41
463.68	29701.40
463.86	29504.79
464.05	28882.21
464.23	28627.09
464.41	28573.26
464.59	28119.20
464.78	29322.23
464.96	29137.33
465.14	28804.97
465.32	29572.67
465.50	30593.14
465.69	30560.37
465.87	29874.60
466.05	29425.22
466.23	27620.66
466.41	27288.31
466.60	28444.53
466.78	27903.87
466.96	29139.67
467.14	29343.30
467.32	29600.76
467.51	29621.82
467.69	27852.38
467.87	28762.84
468.05	29383.09
468.23	29467.34
468.41	29476.71
468.60	29579.69
468.78	29811.40
468.96	29369.04
469.14	29586.71
469.32	30029.07
469.50	28575.60
469.69	28652.84
469.87	28669.22
470.05	28383.68
470.23	28231.54
470.41	28407.08
470.59	28790.93
470.77	29181.80
470.95	29666.29
471.14	29926.09
471.32	30246.74
471.50	31466.16
471.68	32086.40
471.86	32357.91
472.04	32173.00
472.22	32657.49
472.40	30967.63
472.58	30426.96
472.77	30221.00
472.95	30518.25
473.13	31747.03
473.31	31084.65
473.49	31030.82
473.67	31538.72
473.85	32135.56
474.03	32418.76
474.21	32711.33
474.39	33048.36
474.57	32912.61
474.75	32964.10
474.93	32961.76
475.12	32048.96
475.30	31974.06
475.48	32102.79
475.66	32910.27
475.84	32528.77
476.02	31779.79
476.20	31817.24
476.38	32142.58
476.56	33228.59
476.74	33748.18
476.92	34045.43
477.10	34469.07
477.28	35456.78
477.46	35311.66
477.64	36023.19
477.82	35402.94
478.00	35716.58
478.18	35079.95
478.36	35051.86
478.54	35299.96
478.72	35325.71
478.90	36224.47
479.08	37376.01
479.26	37741.14
479.44	37598.37
479.62	37228.56
479.80	37769.22
479.98	37329.20
480.16	37996.26
480.34	37535.17
480.52	37982.21
480.70	38239.67
480.88	38345.00
481.06	39037.80
481.24	38937.15
481.41	39915.50
481.59	40893.84
481.77	40357.86
481.95	39562.08
482.13	40041.88
482.31	39576.12
482.49	40390.62
482.67	40076.99
482.85	40266.58
483.03	41460.25
483.21	41944.74
483.39	41455.57
483.57	40627.02
483.74	40535.74
483.92	40912.56
484.10	40615.32
484.28	41453.23
484.46	42190.50
484.64	42508.81
484.82	41914.31
485.00	41469.61
485.18	40203.38
485.35	39395.90
485.53	36025.53
485.71	33326.89
485.89	32797.93
486.07	34939.52
486.25	37502.40
486.43	39496.54
486.61	40287.64
486.78	40135.51
486.96	40456.16
487.14	42096.88
487.32	42794.36
487.50	44516.99
487.68	44949.99
487.85	45705.98
488.03	46199.83
488.21	44336.77
488.39	44619.97
488.57	43501.20
488.75	43058.84
488.92	44458.48
489.10	47199.24
489.28	48495.90
489.46	49378.28
489.64	49031.88
489.81	49184.02
489.99	48987.41
490.17	49057.63
490.35	48989.75
490.53	48540.37
490.70	48502.92
490.88	48404.62
491.06	49581.91
491.24	49041.24
491.41	48172.91
491.59	46274.73
491.77	45287.03
491.95	46756.88
492.13	48353.13
492.30	49661.49
492.48	50361.31
492.66	51285.82
492.84	51051.76
493.01	50775.58
493.19	50342.58
493.37	49827.66
493.54	49394.67
493.72	50506.42
493.90	51311.56
494.08	52105.01
494.25	52786.10
494.43	52844.62
494.61	53073.99
494.79	53228.46
494.96	52959.30
495.14	52556.73
495.32	51257.73
495.49	50955.80
495.67	51978.62
495.85	53420.39
496.02	53647.42
496.20	53359.53
496.38	53029.52
496.55	53006.11
496.73	53504.65
496.91	53738.70
497.09	54492.35
497.26	54501.71
497.44	53792.53
497.62	53474.22
497.79	52435.02
497.97	51157.09
498.14	51173.47
498.32	52467.79
498.50	53294.00
498.67	54078.08
498.85	54021.90
499.03	54106.16
499.20	54330.86
499.38	54396.39
499.56	54255.96
499.73	53851.05
499.91	53104.41
500.08	52678.44
500.26	52144.80
500.44	52563.75
500.61	53481.24
500.79	53296.34
500.97	52549.71
501.14	52374.17
501.32	52521.62
501.49	52584.82
501.67	52425.66
501.84	53272.93
502.02	53418.05
502.20	54270.00
502.37	53907.22
502.55	53904.88
502.72	54597.68
502.90	55143.02
503.07	54719.38
503.25	54344.90
503.43	53373.58
503.60	52624.60
503.78	52144.80
503.95	52786.10
504.13	54061.69
504.30	54752.15
504.48	54695.98
504.65	54241.92
504.83	54370.64
505.01	55100.89
505.18	55601.77
505.36	56104.98
505.53	56109.66
505.71	56533.30
505.88	56378.82
506.06	55569.00
506.23	55271.75
506.41	55096.21
506.58	55178.13
506.76	55288.13
506.93	55391.12
507.11	54878.54
507.28	54988.55
507.46	54499.37
507.63	54045.31
507.81	53705.93
507.98	54089.78
508.16	54815.35
508.33	55072.81
508.50	55861.57
508.68	56177.54
508.85	56755.65
509.03	56568.41
509.20	56507.55
509.38	55620.49
509.55	54515.76
509.73	55309.20
509.90	55327.92
510.08	55671.98
510.25	55669.64
510.42	55533.89
510.60	55480.06
510.77	55739.86
510.95	56275.84
511.12	56147.11
511.30	56701.82
511.47	57062.26
511.64	56992.04
511.82	56472.45
511.99	55657.94
512.17	55234.30
512.34	54817.69
512.51	55217.92
512.69	55238.98
512.86	55566.66
513.04	55781.99
513.21	55737.52
513.38	55643.90
513.56	54681.94
513.73	54408.09
513.90	54539.16
514.08	54768.54
514.25	54747.47
514.43	55187.49
514.60	55381.76
514.77	55571.34
514.95	55468.36
515.12	55522.19
515.29	55622.83
515.47	56254.78
515.64	56460.74
515.81	55934.12
515.99	55531.55
516.16	53776.15
516.33	51082.19
516.51	49610.00
516.68	48545.05
516.85	48268.87
517.03	48999.12
517.20	51969.26
517.37	54475.97
517.54	55501.12
517.72	54820.03
517.89	52207.99
518.06	49153.59
518.24	50216.19
518.41	52734.61
518.58	53968.07
518.75	54171.70
518.93	54429.16
519.10	53963.39
519.27	54693.64
519.45	55033.02
519.62	55707.09
519.79	56341.38
519.96	55889.65
520.14	55454.31
520.31	54637.47
520.48	54541.50
520.65	55150.04
520.83	56116.68
521.00	56315.63
521.17	55962.21
521.34	55704.75
521.52	56128.39
521.69	56423.29
521.86	57027.15
522.03	56477.13
522.20	55285.79
522.38	54234.89
522.55	54223.19
522.72	54993.23
522.89	55140.68
523.07	55367.71
523.24	55856.88
523.41	56697.14
523.58	56898.42
523.75	57291.63
523.92	57205.03
524.10	56987.36
524.27	57127.80
524.44	56797.78
524.61	56769.69
524.78	56949.92
524.96	56397.55
525.13	56629.26
525.30	56736.93
525.47	57481.22
525.64	57013.11
525.81	56500.53
525.98	54873.86
526.16	53195.70
526.33	52458.43
526.50	52404.59
526.67	51941.17
526.84	52678.44
527.01	53518.69
527.18	54567.25
527.36	55695.39
527.53	56444.36
527.70	56509.89
527.87	55994.98
528.04	55662.62
528.21	56233.71
528.38	56767.35
528.55	57535.05
528.72	57619.31
528.89	57783.15
529.07	57399.30
529.24	56818.84
529.41	56086.26
529.58	55671.98
529.75	55913.06
529.92	56308.61
530.09	56687.78
530.26	56978.00
530.43	57371.21
530.60	57261.21
530.77	57588.88
530.94	57703.57
531.11	57034.17
531.28	56849.27
531.46	56760.33
531.63	56907.79
531.80	56753.31
531.97	56198.60
532.14	55695.39
532.31	54213.83
532.48	53752.74
532.65	53783.17
532.82	54789.60
532.99	55866.25
533.16	56154.13
533.33	56687.78
533.50	56406.91
533.67	55929.44
533.84	55800.71
534.01	56030.08
534.18	56219.67
534.35	56135.41
534.52	55910.72
534.69	56296.91
534.86	56535.64
535.03	56963.96
535.20	57565.48
535.37	57558.45
535.54	57792.51
535.71	57378.23
535.88	56961.62
536.05	56310.95
536.22	56072.21
536.38	55805.39
536.55	55068.12
536.72	54562.57
536.89	54618.74
537.06	55573.68
537.23	56472.45
537.40	56334.35
537.57	56896.08
537.74	56329.67
537.91	56310.95
538.08	56348.40
538.25	56495.85
538.42	56413.93
538.59	56079.24
538.75	55632.19
538.92	55592.40
539.09	55173.45
539.26	55105.57
539.43	54948.76
539.60	55161.75
539.77	55086.85
539.94	55220.26
540.11	54155.32
540.28	53607.63
540.44	53769.13
540.61	54211.49
540.78	54274.68
540.95	54925.35
541.12	55302.18
541.29	55601.77
541.46	55812.41
541.62	55922.42
541.79	55803.05
541.96	55145.36
542.13	55077.49
542.30	55466.02
542.47	55437.93
542.63	55365.37
542.80	55023.65
542.97	55208.56
543.14	55131.32
543.31	55370.05
543.48	55779.65
543.64	56781.40
543.81	56734.59
543.98	56502.87
544.15	55695.39
544.32	55210.90
544.48	55358.35
544.65	55884.97
544.82	56222.01
544.99	55718.79
545.16	55370.05
545.32	55220.26
545.49	56116.68
545.66	56432.66
545.83	55938.80
546.00	55777.31
546.16	55306.86
546.33	55346.65
546.50	55367.71
546.67	56034.77
546.83	55416.86
547.00	55098.55
547.17	54527.46
547.34	54068.72
547.50	54033.61
547.67	54805.98
547.84	54674.91
548.00	55246.00
548.17	55784.33
548.34	55503.46
548.51	55391.12
548.67	55594.74
548.84	55683.69
549.01	55220.26
549.18	55540.91
549.34	55402.82
549.51	55313.88
549.68	55203.88
549.84	54667.89
550.01	54836.41
550.18	54562.57
550.34	54908.97
550.51	55063.44
550.68	55035.36
550.84	54415.11
551.01	54719.38
551.18	54658.53
551.34	54710.02
551.51	55068.12
551.68	55501.12
551.84	55599.43
552.01	55299.84
552.18	54836.41
552.34	54347.24
552.51	53909.56
552.68	53860.41
552.84	54593.00
553.01	54410.43
553.18	54403.41
553.34	54323.83
553.51	54801.30
553.67	55054.08
553.84	55332.60
554.01	55000.25
554.17	54995.57
554.34	54918.33
554.51	54838.75
554.67	55489.42
554.84	55229.62
555.00	54688.96
555.17	54555.55
555.33	54408.09
555.50	54543.84
555.67	54611.72
555.83	54618.74
556.00	54389.37
556.16	54059.35
556.33	53516.35
556.50	53600.61
556.66	53462.52
556.83	53418.05
556.99	53401.66
557.16	53638.06
557.32	54028.93
557.49	53923.60
557.65	54003.18
557.82	53935.30
557.98	53965.73
558.15	53495.28
558.32	52264.16
558.48	51449.66
558.65	51763.29
558.81	52243.10
558.98	52493.54
559.14	52905.47
559.31	52872.70
559.47	52753.33
559.64	52472.47
559.80	52233.74
559.97	52406.94
560.13	52872.70
560.30	53689.55
560.46	54372.99
560.63	54532.14
560.79	54674.91
560.96	54164.68
561.12	52940.58
561.29	51887.34
561.45	52034.79
561.61	52659.71
561.78	52996.75
561.94	52940.58
562.11	52662.05
562.27	52736.95
562.44	53134.84
562.60	53116.12
562.77	53448.47
562.93	53422.73
563.10	53378.26
563.26	52921.85
563.42	52800.15
563.59	52596.52
563.75	52718.23
563.92	52659.71
564.08	52624.60
564.24	53219.10
564.41	52907.81
564.57	52982.71
564.74	52767.38
564.90	52519.28
565.07	52133.09
565.23	51920.10
565.39	51381.78
565.56	51023.68
565.72	50908.99
565.88	51178.15
566.05	51501.15
566.21	51777.33
566.38	51821.80
566.54	51770.31
566.70	52355.44
566.87	52739.29
567.03	52528.64
567.19	52853.98
567.36	52648.01
567.52	52390.55
567.68	51995.00
567.85	51129.00
568.01	50763.88
568.17	50281.73
568.34	50864.52
568.50	50525.14
568.66	50419.82
568.83	51224.96
568.99	50997.93
569.15	51718.82
569.32	51475.40
569.48	50967.51
569.64	50794.31
569.81	50534.51
569.97	50349.60
570.13	50349.60
570.30	49617.02
570.46	49432.11
570.62	48779.10
570.78	48706.55
570.95	49118.48
571.11	49865.11
571.27	50047.68
571.43	50492.38
571.60	50494.72
571.76	50988.57
571.92	50927.72
572.09	51271.78
572.25	51086.87
572.41	51393.48
572.57	50939.42
572.74	51030.70
572.90	50337.90
573.06	50248.96
573.22	50817.71
573.38	50457.27
573.55	50576.64
573.71	50873.88
573.87	50848.14
574.03	50365.99
574.20	50309.82
574.36	50038.31
574.52	49691.91
574.68	49507.01
574.84	48872.73
575.01	48844.64
575.17	48582.50
575.33	49109.12
575.49	49338.49
575.65	49546.80
575.82	49930.65
575.98	49186.36
576.14	49333.81
576.30	49717.66
576.46	49380.62
576.62	49619.36
576.79	49453.18
576.95	49476.58
577.11	49223.81
577.27	49235.51
577.43	49418.07
577.59	49029.54
577.75	48409.30
577.92	47374.78
578.08	47068.17
578.24	47529.26
578.40	47849.91
578.56	48282.91
578.72	48086.31
578.88	48357.81
579.04	48575.48
579.21	48413.98
579.37	48886.77
579.53	48956.99
579.69	48650.38
579.85	49130.19
580.01	48856.34
580.17	48341.42
580.33	48193.97
580.49	48041.84
580.65	48542.71
580.82	49078.69
580.98	49130.19
581.14	48533.35
581.30	48907.83
581.46	48657.40
581.62	49003.80
581.78	48598.88
581.94	49223.81
582.10	49036.56
582.26	49174.66
582.42	49050.61
582.58	49282.32
582.74	49092.74
582.90	49092.74
583.06	48928.90
583.22	48589.52
583.38	48624.63
583.54	48512.28
583.70	48509.94
583.86	48498.24
584.02	48369.51
584.18	48678.46
584.34	48451.43
584.50	48638.67
584.66	48133.12
584.82	47894.38
584.98	47812.46
585.14	47206.26
585.30	46415.16
