SpectraSuite Data File
++++++++++++++++++++++++++++++++++++
Date: Mon Oct 07 14:53:16 GMT-05:00 2013
User: price-jones
Dark Spectrum Present: No
Reference Spectrum Present: No
Number of Sampled Component Spectra: 1
Spectrometers: USB2+H05261
Integration Time (usec): 100000 (USB2+H05261)
Spectra Averaged: 1 (USB2+H05261)
Boxcar Smoothing: 0 (USB2+H05261)
Correct for Electrical Dark: No (USB2+H05261)
Strobe/Lamp Enabled: No (USB2+H05261)
Correct for Detector Non-linearity: No (USB2+H05261)
Correct for Stray Light: No (USB2+H05261)
Number of Pixels in Processed Spectrum: 2048
>>>>>Begin Processed Spectral Data<<<<<
365.73	0.00
365.92	0.00
366.12	0.00
366.32	0.00
366.52	0.00
366.72	0.00
366.91	0.00
367.11	0.00
367.31	0.00
367.51	0.00
367.70	0.00
367.90	0.00
368.10	0.00
368.30	0.00
368.49	0.00
368.69	0.00
368.89	0.00
369.09	0.00
369.28	0.00
369.48	0.00
369.68	0.00
369.87	0.00
370.07	0.00
370.27	0.00
370.47	610.88
370.66	3131.64
370.86	3684.00
371.06	3901.67
371.25	4217.65
371.45	3702.73
371.65	3372.71
371.84	3155.04
372.04	3304.84
372.24	3613.79
372.44	3857.20
372.63	3672.30
372.83	3489.74
373.03	3098.87
373.22	2909.29
373.42	3028.65
373.62	3571.66
373.81	3590.38
374.01	3744.86
374.21	3267.39
374.40	3173.77
374.60	3351.65
374.79	3716.77
374.99	4166.15
375.19	4634.26
375.38	4472.76
375.58	4241.05
375.78	4250.41
375.97	4395.53
376.17	4461.06
376.37	4458.72
376.56	4685.75
376.76	4943.21
376.95	5074.28
377.15	5575.16
377.35	5748.36
377.54	5916.87
377.74	6076.03
377.93	6232.85
378.13	5998.79
378.33	5626.65
378.52	5217.05
378.72	5043.85
378.91	4971.30
379.11	4779.37
379.31	4683.41
379.50	4500.85
379.70	5022.79
379.89	5495.58
380.09	5863.04
380.28	5961.34
380.48	6054.97
380.68	5837.30
380.87	5673.46
381.07	5280.25
381.26	4816.82
381.46	4538.30
381.65	4404.89
381.85	4292.54
382.04	4109.98
382.24	3822.09
382.43	3772.94
382.63	3501.44
382.83	3548.25
383.02	3707.41
383.22	3569.32
383.41	3646.55
383.61	3927.42
383.80	4524.26
384.00	4983.00
384.19	5785.80
384.39	5865.38
384.58	5837.30
384.78	5708.57
384.97	5741.33
385.17	5331.74
385.36	5291.95
385.56	5008.75
385.75	5008.75
385.95	5743.67
386.14	5966.03
386.34	6146.25
386.53	5841.98
386.72	5504.94
386.92	5434.72
387.11	5715.59
387.31	6026.88
387.50	5980.07
387.70	5858.36
387.89	5816.23
388.09	5706.23
388.28	5874.74
388.48	5949.64
388.67	6438.81
388.86	6904.58
389.06	7449.93
389.25	7850.16
389.45	8030.38
389.64	7946.12
389.84	7992.93
390.03	7992.93
390.22	7786.96
390.42	7838.45
390.61	8477.42
390.81	9032.13
391.00	9406.61
391.19	9310.65
391.39	8842.54
391.58	8182.51
391.78	7850.16
391.97	7611.42
392.16	6977.14
392.36	6527.75
392.55	5039.17
392.75	4044.45
392.94	3281.43
393.13	3339.94
393.33	4156.79
393.52	5174.92
393.71	6218.80
393.91	7110.55
394.10	7510.78
394.29	8304.22
394.49	8929.14
394.68	9621.94
394.88	9661.73
395.07	10022.17
395.26	9958.98
395.46	9455.76
395.65	8917.44
395.84	7808.03
396.04	6700.95
396.23	5416.00
396.42	4620.22
396.62	4524.26
396.81	5296.63
397.00	6822.66
397.19	8358.05
397.39	9830.25
397.58	11035.63
397.77	11700.34
397.97	12006.95
398.16	12355.69
398.35	13011.04
398.55	13085.94
398.74	13570.43
398.93	14162.58
399.12	13760.01
399.32	13062.53
399.51	13619.58
399.70	14338.12
399.90	14291.31
400.09	14078.32
400.28	14078.32
400.47	14377.91
400.67	14787.50
400.86	15257.95
401.05	15318.81
401.24	15286.04
401.44	15709.68
401.63	15697.97
401.82	15513.07
402.01	15749.46
402.21	15763.51
402.40	16060.76
402.59	15337.53
402.78	14792.19
402.97	14560.47
403.17	15187.74
403.36	15709.68
403.55	16430.56
403.74	16910.37
403.93	15807.98
404.13	14911.55
404.32	14586.22
404.51	15101.14
404.70	15946.07
404.89	16535.88
405.09	16217.57
405.28	15580.95
405.47	15648.82
405.66	15543.50
405.85	15103.48
406.05	14836.66
406.24	14820.27
406.43	15475.62
406.62	16203.53
406.81	16442.26
407.00	15988.20
407.20	15314.13
407.39	15599.67
407.58	16407.16
407.77	16989.95
407.96	17188.89
408.15	17350.39
408.34	17745.94
408.54	18703.22
408.73	18677.48
408.92	18471.51
409.11	17717.86
409.30	16805.05
409.49	15690.95
409.68	14820.27
409.87	14429.40
410.07	15143.27
410.26	16486.73
410.45	17884.03
410.64	18139.15
410.83	18682.16
411.02	18941.96
411.21	20039.67
411.40	19651.14
411.59	19576.24
411.78	19452.19
411.98	19173.67
412.17	19932.00
412.36	19009.83
412.55	18991.11
412.74	18714.92
412.93	18527.68
413.12	18747.69
413.31	20357.98
413.50	20730.12
413.69	20877.58
413.88	19871.15
414.07	19651.14
414.26	19985.83
414.45	20730.12
414.64	20716.08
414.83	20587.35
415.02	20570.97
415.22	20477.35
415.41	20755.87
415.60	21364.41
415.79	22345.09
415.98	22918.53
416.17	22944.27
416.36	22139.13
416.55	21881.67
416.74	21146.74
416.93	20531.18
417.12	20325.21
417.31	20989.92
417.50	21467.39
417.69	22085.30
417.88	21460.37
418.07	21301.22
418.26	21160.78
418.45	21532.93
418.64	22101.68
418.83	23108.11
419.02	22590.85
419.21	22473.82
419.39	21553.99
419.58	20566.29
419.77	20500.75
419.96	21188.87
420.15	22773.41
420.34	23449.83
420.53	24002.19
420.72	24421.15
420.91	24222.20
421.10	24126.24
421.29	23859.42
421.48	23096.41
421.67	24423.49
421.86	23161.94
422.05	21961.25
422.24	19688.59
422.43	19761.14
422.61	21462.71
422.80	23571.54
422.99	23349.18
423.18	22726.60
423.37	22127.42
423.56	22153.17
423.75	22394.25
423.94	23075.34
424.13	21556.33
424.32	22010.40
424.50	21783.37
424.69	21935.50
424.88	21572.72
425.07	21975.29
425.26	21715.49
425.45	21310.58
425.64	21128.02
425.83	21600.80
426.01	22515.95
426.20	22888.10
426.39	22422.33
426.58	20933.75
426.77	19847.74
426.96	18789.82
427.15	19508.37
427.33	21212.28
427.52	22207.00
427.71	22263.18
427.90	21809.11
428.09	21820.81
428.28	21235.68
428.46	20559.27
428.65	20056.05
428.84	20893.96
429.03	21060.14
429.22	19999.88
429.40	18867.06
429.59	16861.22
429.78	15346.89
429.97	15154.97
430.16	15208.80
430.34	15712.02
430.53	15534.14
430.72	15784.57
430.91	17811.48
431.10	20966.52
431.28	24357.96
431.47	26480.82
431.66	26199.96
431.85	24346.25
432.03	21891.03
432.22	21436.97
432.41	22396.59
432.60	24793.29
432.79	25525.88
432.97	26038.46
433.16	25387.79
433.35	23138.54
433.54	20795.66
433.72	19693.27
433.91	20491.39
434.10	22871.72
434.28	24807.34
434.47	25649.93
434.66	24877.55
434.85	24683.29
435.03	24514.77
435.22	24950.11
435.41	26771.05
435.59	26745.30
435.78	27255.54
435.97	27967.06
436.16	27995.15
436.34	27496.61
436.53	26909.14
436.72	26548.70
436.90	25752.91
437.09	25380.77
437.28	24781.59
437.46	26043.14
437.65	26026.76
437.84	23995.17
438.02	21975.29
438.21	22136.79
438.40	23641.75
438.58	24903.30
438.77	26136.76
438.96	26316.98
439.14	27225.11
439.33	27871.10
439.52	28112.17
439.70	27597.26
439.89	27021.48
440.08	26429.33
440.26	26436.35
440.45	27611.30
440.63	29032.00
440.82	30417.60
441.01	30485.48
441.19	30113.33
441.38	30029.07
441.57	31620.64
441.75	31835.97
441.94	31971.72
442.12	31487.23
442.31	32411.74
442.50	32250.24
442.68	31910.86
442.87	31524.68
443.05	30808.47
443.24	31388.92
443.43	32444.51
443.61	33055.39
443.80	33055.39
443.98	31735.32
444.17	31229.77
444.35	33153.69
444.54	33652.22
444.73	33184.12
444.91	32013.85
445.10	30192.91
445.28	29542.24
445.47	28914.98
445.65	29177.12
445.84	30305.26
446.02	31482.55
446.21	31253.17
446.39	31601.91
446.58	32278.33
446.77	32414.08
446.95	33088.15
447.14	33806.70
447.32	34466.73
447.51	33514.13
447.69	32287.69
447.88	31819.58
448.06	32198.75
448.25	33434.55
448.43	33628.82
448.62	32828.35
448.80	32470.25
448.99	32828.35
449.17	33181.77
449.36	32872.82
449.54	34342.68
449.73	35138.46
449.91	35077.61
450.10	36030.21
450.28	36643.43
450.46	36144.89
450.65	36659.81
450.83	35997.44
451.02	35316.34
451.20	35332.73
451.39	35260.17
451.57	35110.38
451.76	35112.72
451.94	34389.49
452.13	34227.99
452.31	32414.08
452.49	31204.02
452.68	31407.65
452.86	31674.47
453.05	32088.74
453.23	33319.87
453.42	34073.52
453.60	34438.64
453.78	34962.92
453.97	34209.27
454.15	34609.50
454.34	34059.48
454.52	34176.50
454.70	33593.71
454.89	33881.60
455.07	33563.28
455.26	34623.54
455.44	35639.34
455.62	36751.09
455.81	36507.68
455.99	36341.50
456.17	35524.65
456.36	35892.12
456.54	37067.06
456.73	36739.39
456.91	37174.73
457.09	37912.00
457.28	38092.22
457.46	36762.79
457.64	36708.96
457.83	35632.32
458.01	34686.74
458.19	35697.85
458.38	36081.70
458.56	37146.64
458.74	36833.01
458.93	35775.09
459.11	36247.88
459.29	35791.47
459.48	36411.71
459.66	35833.60
459.84	36236.17
460.03	37127.92
460.21	36488.95
460.39	37401.76
460.57	37551.56
460.76	38450.32
460.94	37947.11
461.12	37963.49
461.31	38024.34
461.49	37649.86
461.67	37965.83
461.85	39075.24
462.04	38572.03
462.22	39358.45
462.40	38803.74
462.59	38473.73
462.77	38665.65
462.95	38630.54
463.13	38199.88
463.32	38014.98
463.50	37612.41
463.68	37797.31
463.86	37907.32
464.05	37455.59
464.23	36376.61
464.41	36547.47
464.59	35896.80
464.78	37638.15
464.96	37504.74
465.14	37223.88
465.32	38096.90
465.50	39311.64
465.69	39325.68
465.87	38345.00
466.05	37593.68
466.23	36175.32
466.41	35353.79
466.60	36325.11
466.78	36334.48
466.96	37020.25
467.14	37598.37
467.32	38052.43
467.51	38134.35
467.69	36198.73
467.87	37106.85
468.05	37717.73
468.23	37748.16
468.41	37701.35
468.60	37607.73
468.78	38244.35
468.96	37371.33
469.14	38349.68
469.32	38532.24
469.50	37364.31
469.69	37200.47
469.87	36369.58
470.05	36070.00
470.23	36610.66
470.41	36945.36
470.59	37226.22
470.77	37436.87
470.95	38637.56
471.14	38752.25
471.32	39276.53
471.50	40788.52
471.68	40746.39
471.86	41308.11
472.04	41338.54
472.22	40989.80
472.40	39477.82
472.58	39019.07
472.77	38815.44
472.95	39454.41
473.13	40533.40
473.31	39325.68
473.49	39337.38
473.67	40399.99
473.85	40945.33
474.03	41666.22
474.21	41610.04
474.39	41745.80
474.57	42405.83
474.75	42490.09
474.93	42279.44
475.12	40975.76
475.30	41359.61
475.48	41174.70
475.66	41851.12
475.84	41867.50
476.02	40971.08
476.20	40535.74
476.38	41787.92
476.56	42277.10
476.74	43009.68
476.92	43395.87
477.10	43894.41
477.28	44868.07
477.46	45111.49
477.64	45675.55
477.82	45579.59
478.00	45511.72
478.18	45333.84
478.36	45401.71
478.54	44942.97
478.72	45230.85
478.90	46447.93
479.08	47107.96
479.26	47948.21
479.44	47405.21
479.62	47779.70
479.80	47227.33
479.98	47632.24
480.16	47941.19
480.34	47700.12
480.52	48006.73
480.70	47831.19
480.88	48119.07
481.06	48992.09
481.24	49279.98
481.41	50389.39
481.59	50452.59
481.77	50621.11
481.95	49841.71
482.13	49502.33
482.31	49661.49
482.49	50190.45
482.67	50312.16
482.85	50461.95
483.03	50841.12
483.21	51341.99
483.39	51168.79
483.57	50384.71
483.74	50546.21
483.92	50696.00
484.10	50656.21
484.28	51597.11
484.46	51636.90
484.64	52278.21
484.82	51285.82
485.00	51119.64
485.18	50312.16
485.35	49420.41
485.53	46026.63
485.71	42337.95
485.89	41778.56
486.07	44411.67
486.25	47772.67
486.43	49858.09
486.61	49986.82
486.78	50319.18
486.96	50471.31
487.14	51957.55
487.32	52505.24
487.50	53329.11
487.68	53893.18
487.85	54571.93
488.03	54295.75
488.21	54365.96
488.39	53373.58
488.57	52989.73
488.75	52769.72
488.92	53710.61
489.10	55489.42
489.28	56655.01
489.46	57293.97
489.64	57123.11
489.81	57284.61
489.99	56879.70
490.17	57024.81
490.35	57265.89
490.53	56886.72
490.70	56601.18
490.88	56420.95
491.06	57518.67
491.24	57247.16
491.41	56390.53
491.59	54899.61
491.77	54616.40
491.95	55341.97
492.13	56315.63
492.30	57453.13
492.48	58258.27
492.66	58604.67
492.84	58513.39
493.01	58368.28
493.19	57794.85
493.37	57598.24
493.54	57518.67
493.72	57844.00
493.90	58834.05
494.08	59550.25
494.25	59777.28
494.43	59969.21
494.61	60486.46
494.79	60418.59
494.96	60247.73
495.14	59599.40
495.32	58667.87
495.49	58244.23
495.67	59353.65
495.85	60470.08
496.02	60889.04
496.20	60664.35
496.38	60280.50
496.55	60149.43
496.73	60615.19
496.91	60619.88
497.09	61111.39
497.26	61284.59
497.44	60753.29
497.62	60341.35
497.79	59711.75
497.97	58595.31
498.14	58686.59
498.32	59859.20
498.50	60575.40
498.67	61155.86
498.85	60924.14
499.03	60959.25
499.20	61010.74
499.38	60966.27
499.56	61172.24
499.73	60544.98
499.91	60383.48
500.08	59866.22
500.26	59313.86
500.44	59674.30
500.61	60502.85
500.79	60285.18
500.97	59765.58
501.14	59798.35
501.32	59552.59
501.49	59667.28
501.67	59877.93
501.84	60224.32
502.02	60481.78
502.20	60776.69
502.37	60849.25
502.55	61001.38
502.72	61460.13
502.90	61909.51
503.07	61755.03
503.25	61223.73
503.43	60533.28
503.60	59826.43
503.78	59341.94
503.95	59725.79
504.13	60949.89
504.30	61879.08
504.48	61586.52
504.65	61361.82
504.83	61485.87
505.01	61677.80
505.18	62141.22
505.36	62679.55
505.53	62749.76
505.71	62876.15
505.88	62990.84
506.06	62466.56
506.23	62129.52
506.41	61911.85
506.58	61935.26
506.76	61949.30
506.93	61982.07
507.11	61769.08
507.28	61890.79
507.46	61455.45
507.63	60956.91
507.81	60697.11
507.98	61132.45
508.16	61530.34
508.33	61968.02
508.50	62358.89
508.68	62686.57
508.85	63114.89
509.03	63072.76
509.20	62951.05
509.38	62253.57
509.55	61778.44
509.73	61832.27
509.90	62269.95
510.08	62452.51
510.25	62386.98
510.42	62148.24
510.60	62059.30
510.77	62468.90
510.95	62934.66
511.12	62981.48
511.30	63370.00
511.47	63618.10
511.64	63573.63
511.82	63213.19
511.99	62403.36
512.17	62120.16
512.34	61684.82
512.51	61928.23
512.69	62220.80
512.86	62234.84
513.04	62543.80
513.21	62635.08
513.38	62351.87
513.56	61883.76
513.73	61432.04
513.90	61375.87
514.08	61698.86
514.25	61822.91
514.43	61977.39
514.60	62120.16
514.77	62192.72
514.95	62298.04
515.12	62216.12
515.29	62527.41
515.47	62717.00
515.64	63114.89
515.81	62798.91
515.99	62117.82
516.16	60860.95
516.33	58988.52
516.51	57862.72
516.68	57368.87
516.85	56580.11
517.03	57228.44
517.20	59463.65
517.37	61429.70
517.54	62281.66
517.72	61986.75
517.89	59597.06
518.06	57799.53
518.24	57942.30
518.41	59831.11
518.58	61151.18
518.75	61249.48
518.93	61584.18
519.10	61394.59
519.27	61911.85
519.45	61963.34
519.62	62672.52
519.79	62892.54
519.96	62752.10
520.14	62321.44
520.31	61581.84
520.48	61656.73
520.65	61961.00
520.83	62883.17
521.00	63058.71
521.17	62817.64
521.34	62330.81
521.52	62681.89
521.69	63409.79
521.86	63580.65
522.03	63262.34
522.20	62220.80
522.38	61345.44
522.55	61499.92
522.72	61745.67
522.89	62047.60
523.07	62089.73
523.24	62475.92
523.41	63344.26
523.58	63384.05
523.75	63955.14
523.92	63767.90
524.10	63910.67
524.27	63835.77
524.44	63494.05
524.61	63337.24
524.78	63044.67
524.96	63051.69
525.13	63250.64
525.30	63472.99
525.47	63838.11
525.64	63732.79
525.81	63145.31
525.98	61703.54
526.16	60549.66
526.33	59994.95
526.50	59611.10
526.67	59128.95
526.84	59891.97
527.01	60821.16
527.18	61371.19
527.36	62377.62
527.53	63173.40
527.70	63231.91
527.87	62827.00
528.04	62363.57
528.21	62934.66
528.38	63522.14
528.55	63990.25
528.72	64109.61
528.89	64493.46
529.07	64184.51
529.24	63613.42
529.41	62958.07
529.58	62398.68
529.75	62585.92
529.92	62817.64
530.09	63386.39
530.26	63952.80
530.43	64001.95
530.60	64034.72
530.77	64289.84
530.94	64198.55
531.11	63819.39
531.28	63571.29
531.46	63398.09
531.63	63744.49
531.80	63442.56
531.97	63000.20
532.14	62590.61
532.31	61375.87
532.48	60900.74
532.65	61169.90
532.82	61806.53
532.99	62719.34
533.16	63030.63
533.33	63751.51
533.50	63264.68
533.67	62658.48
533.84	62553.16
534.01	62461.88
534.18	62920.62
534.35	62988.50
534.52	62719.34
534.69	63021.26
534.86	63210.85
535.03	63582.99
535.20	64175.15
535.37	64315.58
535.54	64551.98
535.71	64177.49
535.88	63622.78
536.05	63154.68
536.22	62712.31
536.38	62611.67
536.55	62340.17
536.72	61783.12
536.89	61773.76
537.06	62560.18
537.23	63217.87
537.40	63449.58
537.57	63489.37
537.74	63042.33
537.91	62995.52
538.08	63257.66
538.25	63089.14
538.42	63339.58
538.59	62986.16
538.75	62656.14
538.92	62335.49
539.09	62471.24
539.26	61953.98
539.43	61907.17
539.60	62185.69
539.77	62312.08
539.94	62171.65
540.11	61389.91
540.28	60804.78
540.44	61109.05
540.61	61106.71
540.78	61425.02
540.95	61989.09
541.12	62136.54
541.29	62513.37
541.46	62712.31
541.62	62738.06
541.79	62597.63
541.96	61925.89
542.13	61886.10
542.30	62333.15
542.47	62478.26
542.63	62293.36
542.80	62227.82
542.97	62386.98
543.14	61858.02
543.31	62143.56
543.48	62571.88
543.64	63271.70
543.81	63604.06
543.98	63297.45
544.15	62686.57
544.32	62176.33
544.48	62333.15
544.65	62628.05
544.82	63037.65
544.99	62864.45
545.16	62391.66
545.32	62134.20
545.49	63021.26
545.66	63241.28
545.83	62908.92
546.00	62480.60
546.16	62379.96
546.33	62478.26
546.50	62621.03
546.67	62988.50
546.83	62391.66
547.00	62408.04
547.17	61879.08
547.34	61371.19
547.50	61277.57
547.67	61670.78
547.84	61766.74
548.00	62213.78
548.17	62506.35
548.34	62415.07
548.51	62379.96
548.67	62363.57
548.84	62574.22
549.01	62567.20
549.18	62496.98
549.34	62237.19
549.51	62265.27
549.68	62253.57
549.84	62059.30
550.01	62094.41
550.18	61757.38
550.34	62035.90
550.51	61834.61
550.68	61993.77
550.84	61642.69
551.01	61703.54
551.18	61560.77
551.34	61757.38
551.51	62344.85
551.68	62279.31
551.84	62429.11
552.01	62195.06
552.18	62162.29
552.34	61359.48
552.51	61055.21
552.68	61010.74
552.84	61483.53
553.01	61675.46
553.18	61710.56
553.34	61811.21
553.51	61883.76
553.67	62253.57
553.84	62211.44
554.01	62045.26
554.17	61977.39
554.34	61977.39
554.51	62012.49
554.67	62436.13
554.84	62319.10
555.00	61848.66
555.17	61900.15
555.33	61708.22
555.50	61783.12
555.67	61771.42
555.83	61724.61
556.00	61329.06
556.16	61649.71
556.33	61024.79
556.50	60832.86
556.66	60954.57
556.83	60601.15
556.99	60729.88
557.16	60818.82
557.32	61104.37
557.49	61392.25
557.65	61364.17
557.82	61200.33
557.98	61120.75
558.15	60544.98
558.32	60198.58
558.48	59367.69
558.65	59653.23
558.81	59891.97
558.98	60135.38
559.14	60219.64
559.31	60355.39
559.47	60172.83
559.64	59903.67
559.80	59576.00
559.97	59936.44
560.13	60308.58
560.30	61146.50
560.46	61490.55
560.63	61661.41
560.79	61645.03
560.96	61300.97
561.12	60357.74
561.29	59484.72
561.45	59458.97
561.61	60247.73
561.78	60491.15
561.94	60271.14
562.11	60306.24
562.27	60217.30
562.44	60484.12
562.60	60664.35
562.77	60954.57
562.93	60893.72
563.10	60921.80
563.26	60243.05
563.42	60294.54
563.59	60069.85
563.75	60107.30
563.92	60147.09
564.08	60006.65
564.24	60477.10
564.41	60320.29
564.57	60250.07
564.74	60048.78
564.90	59952.82
565.07	59835.80
565.23	59695.36
565.39	59166.40
565.56	59105.55
565.72	58719.36
565.88	59082.14
566.05	59032.99
566.21	59547.91
566.38	59587.70
566.54	59568.97
566.70	59898.99
566.87	60165.81
567.03	60126.02
567.19	60149.43
567.36	60037.08
567.52	59814.73
567.68	59568.97
567.85	59152.36
568.01	59023.63
568.17	58595.31
568.34	58649.14
568.50	58527.44
568.66	58679.57
568.83	59143.00
568.99	59105.55
569.15	59274.07
569.32	59501.10
569.48	58836.39
569.64	58803.62
569.81	58532.12
569.97	58415.09
570.13	58508.71
570.30	57886.13
570.46	57801.87
570.62	57340.78
570.78	57043.54
570.95	57434.41
571.11	57925.92
571.27	58326.15
571.43	58459.56
571.60	58515.73
571.76	58576.59
571.92	59023.63
572.09	59040.01
572.25	59154.70
572.41	59044.69
572.57	58845.75
572.74	59082.14
572.90	58599.99
573.06	58632.76
573.22	58733.40
573.38	58698.30
573.55	58585.95
573.71	58665.53
573.87	58756.81
574.03	58562.54
574.20	58426.79
574.36	58234.87
574.52	57883.79
574.68	57939.96
574.84	57631.01
575.01	57249.50
575.17	57301.00
575.33	57626.33
575.49	57539.73
575.65	57961.03
575.82	57581.86
575.98	57347.81
576.14	57755.06
576.30	57722.29
576.46	57982.09
576.62	57958.69
576.79	58038.26
576.95	57638.03
577.11	57808.89
577.27	57736.34
577.43	57848.68
577.59	57240.14
577.75	57099.71
577.92	56449.04
578.08	56357.76
578.24	56320.31
578.40	56575.43
578.56	57069.28
578.72	57022.47
578.88	57052.90
579.04	57394.62
579.21	57340.78
579.37	57399.30
579.53	57518.67
579.69	57275.25
579.85	57570.16
580.01	57631.01
580.17	56987.36
580.33	56980.34
580.49	56968.64
580.65	57317.38
580.82	57268.23
580.98	57403.98
581.14	57408.66
581.30	57537.39
581.46	57242.48
581.62	57425.04
581.78	57399.30
581.94	57879.11
582.10	57574.84
582.26	57553.77
582.42	57542.07
582.58	57563.14
582.74	57338.44
582.90	57434.41
583.06	57476.54
583.22	57439.09
583.38	57326.74
583.54	57324.40
583.70	57186.31
583.86	57268.23
584.02	57151.20
584.18	57134.82
584.34	57116.09
584.50	56856.29
584.66	57022.47
584.82	56470.11
584.98	56477.13
585.14	56280.52
