SpectraSuite Data File
++++++++++++++++++++++++++++++++++++
Date: Mon Oct 07 14:53:10 GMT-05:00 2013
User: price-jones
Dark Spectrum Present: No
Reference Spectrum Present: No
Number of Sampled Component Spectra: 1
Spectrometers: USB2+H05261
Integration Time (usec): 100000 (USB2+H05261)
Spectra Averaged: 1 (USB2+H05261)
Boxcar Smoothing: 0 (USB2+H05261)
Correct for Electrical Dark: No (USB2+H05261)
Strobe/Lamp Enabled: No (USB2+H05261)
Correct for Detector Non-linearity: No (USB2+H05261)
Correct for Stray Light: No (USB2+H05261)
Number of Pixels in Processed Spectrum: 2048
>>>>>Begin Processed Spectral Data<<<<<
365.73	0.00
365.92	0.00
366.12	0.00
366.32	0.00
366.52	0.00
366.72	0.00
366.91	0.00
367.11	0.00
367.31	0.00
367.51	0.00
367.70	0.00
367.90	0.00
368.10	0.00
368.30	0.00
368.49	0.00
368.69	0.00
368.89	0.00
369.09	0.00
369.28	0.00
369.48	0.00
369.68	0.00
369.87	0.00
370.07	0.00
370.27	0.00
370.47	875.36
370.66	3896.99
370.86	4695.11
371.06	5116.41
371.25	5186.63
371.45	4425.95
371.65	4091.26
371.84	3777.62
372.04	4072.53
372.24	4409.57
372.44	4718.52
372.63	4524.26
372.83	4124.02
373.03	3786.99
373.22	3515.48
373.42	3754.22
373.62	4224.67
373.81	4571.07
374.01	4465.74
374.21	4018.70
374.40	3983.59
374.60	3969.55
374.79	4395.53
374.99	5256.84
375.19	5729.63
375.38	5631.33
375.58	5149.18
375.78	5149.18
375.97	5303.65
376.17	5411.32
376.37	5401.96
376.56	5451.11
376.76	6033.90
376.95	6345.19
377.15	6623.72
377.35	7150.34
377.54	7356.30
377.74	7581.00
377.93	7552.91
378.13	7255.66
378.33	6970.12
378.52	6279.66
378.72	6073.69
378.91	6036.24
379.11	5734.31
379.31	5533.03
379.50	5731.97
379.70	6155.61
379.89	6665.85
380.09	7157.36
380.28	7288.43
380.48	7417.16
380.68	7063.74
380.87	6801.60
381.07	6413.07
381.26	5998.79
381.46	5476.85
381.65	5303.65
381.85	5228.76
382.04	5022.79
382.24	4720.86
382.43	4365.10
382.63	4362.76
382.83	4423.61
383.02	4430.63
383.22	4449.36
383.41	4432.97
383.61	4847.25
383.80	5458.13
384.00	6211.78
384.19	6967.77
384.39	7227.57
384.58	7166.72
384.78	6998.20
384.97	6986.50
385.17	6572.22
385.36	6183.70
385.56	5944.96
385.75	6300.72
385.95	6773.51
386.14	7489.71
386.34	7260.34
386.53	7117.57
386.72	6700.95
386.92	6672.87
387.11	7126.93
387.31	7255.66
387.50	7250.98
387.70	7103.53
387.89	6970.12
388.09	6913.94
388.28	6946.71
388.48	7176.08
388.67	7740.15
388.86	8468.06
389.06	9100.00
389.25	9418.32
389.45	9366.82
389.64	9469.81
389.84	9525.98
390.03	8973.61
390.22	9385.55
390.42	9628.96
390.61	10258.57
390.81	10832.00
391.00	10778.17
391.19	11054.35
391.39	10452.83
391.58	9888.76
391.78	9327.03
391.97	8936.17
392.16	8297.20
392.36	7616.10
392.55	6040.92
392.75	4833.21
392.94	4016.36
393.13	3985.93
393.33	4755.97
393.52	6251.57
393.71	7583.34
393.91	8540.61
394.10	9004.04
394.29	10033.88
394.49	10906.90
394.68	11482.67
394.88	11566.93
395.07	11791.62
395.26	11871.20
395.46	11737.79
395.65	10799.23
395.84	9348.10
396.04	8016.33
396.23	6186.04
396.42	5355.15
396.62	5357.49
396.81	6176.67
397.00	7983.57
397.19	9916.85
397.39	11536.50
397.58	12989.97
397.77	14139.18
397.97	14415.36
398.16	14775.80
398.35	15019.22
398.55	15520.09
398.74	16142.67
398.93	16575.67
399.12	16428.22
399.32	15403.07
399.51	16119.27
399.70	17317.62
399.90	16865.90
400.09	16947.82
400.28	16924.41
400.47	16634.19
400.67	17678.07
400.86	18057.23
401.05	18097.02
401.24	18008.08
401.44	18218.73
401.63	18445.76
401.82	18817.91
402.01	18754.71
402.21	18874.08
402.40	18625.98
402.59	18094.68
402.78	17729.56
402.97	17036.76
403.17	17750.62
403.36	18757.05
403.55	19356.23
403.74	19676.88
403.93	18953.66
404.13	17326.99
404.32	16758.24
404.51	17891.06
404.70	19679.22
404.89	19030.90
405.09	19005.15
405.28	18579.17
405.47	18204.69
405.66	18405.97
405.85	17600.83
406.05	17151.45
406.24	17593.81
406.43	18452.78
406.62	19030.90
406.81	19129.20
407.00	18396.61
407.20	18033.83
407.39	18291.29
407.58	18801.52
407.77	19800.93
407.96	20631.82
408.15	20257.34
408.34	20849.49
408.54	21853.58
408.73	21610.17
408.92	21329.30
409.11	20699.70
409.30	19749.44
409.49	18375.55
409.68	17247.41
409.87	16870.58
410.07	18242.14
410.26	19417.08
410.45	20510.11
410.64	21383.13
410.83	21834.86
411.02	22059.55
411.21	23077.68
411.40	22904.48
411.59	22836.61
411.78	22810.86
411.98	22436.38
412.17	22958.31
412.36	22359.14
412.55	22672.77
412.74	21577.40
412.93	21518.89
413.12	21851.24
413.31	23873.46
413.50	24060.71
413.69	24247.95
413.88	23421.74
414.07	22822.56
414.26	23173.64
414.45	23941.34
414.64	23936.66
414.83	24187.10
415.02	23559.83
415.22	23470.89
415.41	24355.61
415.60	24882.24
415.79	25734.19
415.98	26239.75
416.17	26211.66
416.36	25736.53
416.55	25230.98
416.74	24552.22
416.93	23700.26
417.12	23789.20
417.31	23941.34
417.50	24755.85
417.69	25434.60
417.88	25411.20
418.07	24805.00
418.26	24753.51
418.45	25041.39
418.64	25741.21
418.83	26604.87
419.02	26319.32
419.21	25844.20
419.39	24877.55
419.58	23805.59
419.77	23985.81
419.96	25095.22
420.15	26106.34
420.34	26817.86
420.53	28088.77
420.72	28430.49
420.91	27866.42
421.10	27892.16
421.29	27541.08
421.48	26742.96
421.67	27702.58
421.86	26939.57
422.05	24793.29
422.24	22719.58
422.43	22462.12
422.61	25146.72
422.80	26836.58
422.99	27260.22
423.18	26040.80
423.37	25277.79
423.56	25570.35
423.75	26040.80
423.94	26745.30
424.13	25163.10
424.32	25362.04
424.50	25397.15
424.69	25191.19
424.88	25125.65
425.07	25324.60
425.26	25146.72
425.45	24933.73
425.64	24446.90
425.83	24435.19
426.01	26054.84
426.20	25940.16
426.39	25888.67
426.58	24276.04
426.77	22808.52
426.96	21607.83
427.15	23171.30
427.33	24580.31
427.52	25458.01
427.71	25565.67
427.90	25099.90
428.09	25221.61
428.28	24479.66
428.46	23653.45
428.65	23452.17
428.84	23630.05
429.03	24357.96
429.22	22558.08
429.40	21755.28
429.59	19807.95
429.78	17366.78
429.97	17621.89
430.16	17778.71
430.34	17972.97
430.53	17928.50
430.72	18506.62
430.91	20688.00
431.10	24030.28
431.28	27779.82
431.47	30291.21
431.66	30251.42
431.85	27491.93
432.03	25135.01
432.22	24336.89
432.41	25500.14
432.60	28137.92
432.79	29305.85
432.97	29956.52
433.16	29326.91
433.35	26340.39
433.54	23807.93
433.72	22862.35
433.91	23747.08
434.10	26366.13
434.28	28060.68
434.47	29083.50
434.66	29240.31
434.85	28114.52
435.03	27786.84
435.22	29177.12
435.41	30396.54
435.59	30492.50
435.78	30923.16
435.97	31955.33
436.16	31850.01
436.34	31388.92
436.53	30810.81
436.72	30747.62
436.90	29050.73
437.09	29240.31
437.28	28662.20
437.46	29867.58
437.65	29427.56
437.84	27491.93
438.02	25476.73
438.21	25472.05
438.40	26553.38
438.58	28961.79
438.77	29743.53
438.96	30169.51
439.14	31197.00
439.33	31873.42
439.52	32496.00
439.70	31725.96
439.89	31091.68
440.08	30199.93
440.26	30000.99
440.45	31487.23
440.63	33364.34
440.82	34831.85
441.01	34813.13
441.19	34263.10
441.38	34382.47
441.57	35880.41
441.75	36034.89
441.94	36615.34
442.12	35838.28
442.31	36723.01
442.50	36830.67
442.68	36439.80
442.87	35887.43
443.05	35295.28
443.24	36044.25
443.43	36704.28
443.61	37043.66
443.80	37881.57
443.98	35857.01
444.17	35903.82
444.35	37689.65
444.54	38139.03
444.73	37701.35
444.91	36039.57
445.10	35416.99
445.28	33942.45
445.47	33151.35
445.65	33092.83
445.84	34448.00
446.02	35428.69
446.21	35700.19
446.39	35784.45
446.58	36294.69
446.77	36634.06
446.95	37294.10
447.14	37682.62
447.32	38883.32
447.51	38321.59
447.69	36652.79
447.88	36222.13
448.06	36753.43
448.25	37935.40
448.43	37834.76
448.62	37092.81
448.80	36802.58
448.99	37223.88
449.17	37053.02
449.36	37560.92
449.54	38944.17
449.73	39262.49
449.91	39604.20
450.10	41125.55
450.28	41392.37
450.46	41120.87
450.65	40987.46
450.83	40804.90
451.02	39864.00
451.20	39978.69
451.39	40074.65
451.57	40224.45
451.76	39597.18
451.94	39466.11
452.13	38349.68
452.31	36697.26
452.49	35456.78
452.68	36004.46
452.86	36023.19
453.05	36519.38
453.23	37647.52
453.42	38653.95
453.60	38841.19
453.78	39295.25
453.97	38873.96
454.15	39054.18
454.34	38869.28
454.52	38274.78
454.70	37989.24
454.89	38286.48
455.07	38679.69
455.26	39196.95
455.44	40388.28
455.62	40774.47
455.81	41092.79
455.99	40776.81
456.17	40512.33
456.36	40376.58
456.54	41490.68
456.73	41649.83
456.91	42197.52
457.09	42574.34
457.28	42904.36
457.46	41172.36
457.64	41441.53
457.83	40322.75
458.01	39220.36
458.19	40540.42
458.38	40217.43
458.56	42073.47
458.74	41684.94
458.93	40900.86
459.11	40961.72
459.29	40697.24
459.48	40942.99
459.66	40498.29
459.84	41525.78
460.03	41708.35
460.21	41425.14
460.39	42359.02
460.57	42237.31
460.76	42976.92
460.94	42932.45
461.12	42698.39
461.31	42642.22
461.49	42129.64
461.67	42686.69
461.85	43915.47
462.04	43318.64
462.22	44067.61
462.40	44287.62
462.59	43533.96
462.77	43501.20
462.95	43728.23
463.13	43283.53
463.32	42469.02
463.50	42251.35
463.68	42480.72
463.86	42749.88
464.05	41881.55
464.23	41062.36
464.41	41434.50
464.59	40509.99
464.78	42438.59
464.96	42443.27
465.14	41649.83
465.32	42635.20
465.50	43629.93
465.69	44009.09
465.87	43494.18
466.05	42099.22
466.23	40301.68
466.41	39971.67
466.60	40755.75
466.78	40940.65
466.96	41979.85
467.14	41993.89
467.32	42684.35
467.51	42506.47
467.69	40919.59
467.87	41638.13
468.05	42506.47
468.23	42384.76
468.41	42354.33
468.60	42199.86
468.78	42492.43
468.96	42110.92
469.14	42845.85
469.32	43257.78
469.50	41366.63
469.69	41729.41
469.87	41537.49
470.05	40861.07
470.23	41315.14
470.41	41228.54
470.59	42106.24
470.77	42253.69
470.95	43077.56
471.14	43608.86
471.32	43227.35
471.50	45607.68
471.68	45729.39
471.86	46096.85
472.04	45958.76
472.22	46387.08
472.40	44376.56
472.58	44074.63
472.77	43079.90
472.95	44626.99
473.13	45570.23
473.31	44273.57
473.49	44804.88
473.67	45368.94
473.85	45935.35
474.03	46607.09
474.21	46494.74
474.39	46911.36
474.57	47103.28
474.75	47189.88
474.93	47079.88
475.12	45724.71
475.30	46087.49
475.48	46066.42
475.66	46740.50
475.84	46595.38
476.02	45996.21
476.20	45511.72
476.38	46326.22
476.56	47672.03
476.74	48315.68
476.92	47821.83
477.10	48603.56
477.28	49743.41
477.46	49680.21
477.64	49839.37
477.82	50026.61
478.00	50571.96
478.18	49294.02
478.36	49392.33
478.54	49780.85
478.72	50003.20
478.90	50623.45
479.08	51655.62
479.26	52219.69
479.44	51906.06
479.62	52072.24
479.80	51515.19
479.98	51999.68
480.16	52158.84
480.34	51657.96
480.52	51936.49
480.70	52172.88
480.88	52210.33
481.06	52729.93
481.24	53132.50
481.41	53563.16
481.59	54185.74
481.77	54178.72
481.95	53595.93
482.13	53462.52
482.31	53626.35
482.49	54223.19
482.67	54031.27
482.85	54190.42
483.03	54576.61
483.21	54824.71
483.39	54719.38
483.57	54391.71
483.74	54087.44
483.92	54405.75
484.10	54724.07
484.28	55110.25
484.46	55358.35
484.64	55924.76
484.82	54901.95
485.00	54546.18
485.18	54216.17
485.35	53104.41
485.53	50377.69
485.71	47243.71
485.89	46948.81
486.07	48636.33
486.25	52137.77
486.43	53595.93
486.61	54176.38
486.78	54068.72
486.96	54284.04
487.14	55580.70
487.32	56011.36
487.50	56655.01
487.68	57504.62
487.85	57883.79
488.03	57670.80
488.21	57462.49
488.39	56875.02
488.57	56357.76
488.75	56254.78
488.92	57139.50
489.10	58731.06
489.28	59657.91
489.46	60294.54
489.64	60001.97
489.81	60252.41
489.99	59655.57
490.17	59760.90
490.35	60135.38
490.53	59950.48
490.70	59463.65
490.88	59496.42
491.06	60261.77
491.24	60048.78
491.41	59206.19
491.59	58209.12
491.77	57687.18
491.95	58487.65
492.13	59489.40
492.30	60285.18
492.48	60966.27
492.66	61549.07
492.84	61476.51
493.01	61169.90
493.19	60786.05
493.37	60537.96
493.54	60334.33
493.72	61003.72
493.90	61928.23
494.08	62244.21
494.25	62639.76
494.43	62557.84
494.61	62986.16
494.79	63180.42
494.96	62815.30
495.14	62190.37
495.32	61471.83
495.49	61066.92
495.67	62122.50
495.85	63199.15
496.02	63351.28
496.20	63306.81
496.38	62817.64
496.55	62859.77
496.73	63276.38
496.91	63309.15
497.09	63793.64
497.26	63980.88
497.44	63384.05
497.62	62967.43
497.79	62363.57
497.97	61415.66
498.14	61602.90
498.32	62433.79
498.50	63128.93
498.67	63648.53
498.85	63423.84
499.03	63856.84
499.20	63945.78
499.38	64081.53
499.56	63875.56
499.73	63346.60
499.91	63192.12
500.08	62719.34
500.26	62188.03
500.44	62508.69
500.61	63054.03
500.79	62738.06
500.97	62553.16
501.14	62454.86
501.32	62471.24
501.49	62386.98
501.67	62618.69
501.84	62976.79
502.02	63402.77
502.20	63510.44
502.37	63552.57
502.55	63594.70
502.72	64257.07
502.90	64392.82
503.07	64257.07
503.25	64037.06
503.43	63351.28
503.60	62499.33
503.78	62202.08
503.95	62440.81
504.13	63735.13
504.30	64460.69
504.48	64175.15
504.65	63833.43
504.83	63866.20
505.01	64554.32
505.18	64619.85
505.36	65345.42
505.53	65221.37
505.71	65462.44
505.88	65535.00
506.06	65090.30
506.23	64725.17
506.41	64566.02
506.58	64697.09
506.76	64683.04
506.93	64669.00
507.11	64404.52
507.28	64493.46
507.46	64287.49
507.63	63653.21
507.81	63512.78
507.98	63732.79
508.16	64512.19
508.33	64711.13
508.50	65102.00
508.68	65298.61
508.85	65535.00
509.03	65535.00
509.20	65490.53
509.38	65034.13
509.55	64243.02
509.73	64423.25
509.90	64846.88
510.08	65113.70
510.25	65113.70
510.42	64959.23
510.60	64879.65
510.77	64881.99
510.95	65403.93
511.12	65520.96
511.30	65535.00
511.47	65535.00
511.64	65535.00
511.82	65535.00
511.99	65036.47
512.17	64647.94
512.34	64390.48
512.51	64456.01
512.69	64781.35
512.86	64832.84
513.04	64982.63
513.21	65247.11
513.38	64713.47
513.56	64261.75
513.73	63854.50
513.90	64212.60
514.08	64296.86
514.25	64601.13
514.43	64718.15
514.60	64790.71
514.77	64872.63
514.95	64879.65
515.12	64844.54
515.29	65186.26
515.47	65392.23
515.64	65535.00
515.81	65434.36
515.99	64706.45
516.16	63412.13
516.33	61415.66
516.51	60336.67
516.68	59882.61
516.85	59583.02
517.03	60039.42
517.20	61944.62
517.37	64142.38
517.54	65073.91
517.72	64245.36
517.89	62183.35
518.06	60374.12
518.24	61116.07
518.41	62709.97
518.58	63753.85
518.75	63765.56
518.93	63870.88
519.10	63903.65
519.27	64479.42
519.45	64659.64
519.62	65291.58
519.79	65535.00
519.96	65314.99
520.14	64907.74
520.31	64102.59
520.48	64175.15
520.65	64484.10
520.83	65396.91
521.00	65535.00
521.17	65219.03
521.34	64947.53
521.52	65305.63
521.69	65535.00
521.86	65535.00
522.03	65535.00
522.20	64594.10
522.38	63884.92
522.55	63863.86
522.72	64409.20
522.89	64540.27
523.07	64750.92
523.24	64980.29
523.41	65535.00
523.58	65535.00
523.75	65535.00
523.92	65535.00
524.10	65535.00
524.27	65535.00
524.44	65535.00
524.61	65535.00
524.78	65535.00
524.96	65535.00
525.13	65535.00
525.30	65535.00
525.47	65535.00
525.64	65535.00
525.81	65535.00
525.98	64350.69
526.16	63124.25
526.33	62452.51
526.50	62410.38
526.67	61991.43
526.84	62644.44
527.01	63482.35
527.18	64214.94
527.36	64935.82
527.53	65535.00
527.70	65535.00
527.87	65347.76
528.04	64851.56
528.21	65532.66
528.38	65535.00
528.55	65535.00
528.72	65535.00
528.89	65535.00
529.07	65535.00
529.24	65535.00
529.41	65436.70
529.58	64952.21
529.75	65092.64
529.92	65535.00
530.09	65535.00
530.26	65535.00
530.43	65535.00
530.60	65535.00
530.77	65535.00
530.94	65535.00
531.11	65535.00
531.28	65535.00
531.46	65535.00
531.63	65535.00
531.80	65535.00
531.97	65478.83
532.14	64729.86
532.31	63980.88
532.48	63440.22
532.65	63566.61
532.82	64434.95
532.99	65293.92
533.16	65535.00
533.33	65535.00
533.50	65535.00
533.67	65275.20
533.84	64912.42
534.01	65193.28
534.18	65408.61
534.35	65532.66
534.52	65146.47
534.69	65535.00
534.86	65535.00
535.03	65535.00
535.20	65535.00
535.37	65535.00
535.54	65535.00
535.71	65535.00
535.88	65535.00
536.05	65535.00
536.22	65298.61
536.38	64933.48
536.55	64470.06
536.72	64069.82
536.89	64282.81
537.06	64881.99
537.23	65535.00
537.40	65535.00
537.57	65535.00
537.74	65535.00
537.91	65499.89
538.08	65535.00
538.25	65535.00
538.42	65535.00
538.59	65535.00
538.75	65190.94
538.92	64809.43
539.09	64692.41
539.26	64718.15
539.43	64334.31
539.60	64676.02
539.77	64858.59
539.94	64690.07
540.11	63997.27
540.28	63341.92
540.44	63664.91
540.61	63838.11
540.78	64142.38
540.95	64282.81
541.12	64727.52
541.29	64839.86
541.46	65219.03
541.62	65179.24
541.79	64961.57
541.96	64624.53
542.13	64561.34
542.30	64891.35
542.47	64952.21
542.63	64708.79
542.80	64528.57
542.97	64647.94
543.14	64479.42
543.31	64582.40
543.48	64977.95
543.64	65535.00
543.81	65535.00
543.98	65535.00
544.15	65167.54
544.32	64776.67
544.48	64912.42
544.65	65216.69
544.82	65535.00
544.99	65268.18
545.16	64872.63
545.32	64807.09
545.49	65403.93
545.66	65535.00
545.83	65336.05
546.00	65017.74
546.16	64633.89
546.33	64999.02
546.50	65017.74
546.67	65228.39
546.83	65027.10
547.00	65031.78
547.17	64411.54
547.34	63828.75
547.50	63828.75
547.67	64182.17
547.84	64217.28
548.00	64683.04
548.17	64994.34
548.34	64889.01
548.51	64830.50
548.67	64870.29
548.84	65022.42
549.01	64835.18
549.18	64687.73
549.34	64725.17
549.51	64629.21
549.68	64549.63
549.84	64296.86
550.01	64439.63
550.18	64123.66
550.34	64331.96
550.51	64446.65
550.68	64722.83
550.84	64128.34
551.01	64250.05
551.18	64226.64
551.34	64334.31
551.51	64556.66
551.68	64984.97
551.84	64961.57
552.01	64874.97
552.18	64502.82
552.34	63791.30
552.51	63817.05
552.68	63566.61
552.84	63966.84
553.01	64254.73
553.18	64121.32
553.34	64364.73
553.51	64369.41
553.67	64661.98
553.84	64811.77
554.01	64437.29
554.17	64324.94
554.34	64451.33
554.51	64645.60
554.67	64928.80
554.84	64629.21
555.00	64264.09
555.17	64306.22
555.33	64219.62
555.50	64221.96
555.67	64140.04
555.83	64161.11
556.00	63742.15
556.16	63587.67
556.33	63461.29
556.50	63472.99
556.66	63449.58
556.83	63215.53
556.99	63402.77
557.16	63491.71
557.32	63767.90
557.49	63723.43
557.65	63842.79
557.82	63828.75
557.98	63730.45
558.15	63215.53
558.32	62536.77
558.48	61764.40
558.65	62131.86
558.81	62644.44
558.98	62644.44
559.14	62904.24
559.31	62852.75
559.47	62780.19
559.64	62632.74
559.80	62323.78
559.97	62454.86
560.13	62756.78
560.30	63510.44
560.46	63819.39
560.63	64151.74
560.79	64058.12
560.96	63784.28
561.12	62848.06
561.29	62159.95
561.45	62068.67
561.61	62787.21
561.78	63157.02
561.94	62899.56
562.11	62660.82
562.27	62913.60
562.44	62965.09
562.60	63288.09
562.77	63426.18
562.93	63344.26
563.10	63264.68
563.26	62866.79
563.42	62955.73
563.59	62801.25
563.75	62592.95
563.92	62789.55
564.08	62752.10
564.24	62908.92
564.41	62812.96
564.57	62913.60
564.74	62752.10
564.90	62606.99
565.07	62571.88
565.23	62267.61
565.39	61872.06
565.56	61638.01
565.72	61310.33
565.88	61853.34
566.05	61804.19
566.21	62082.71
566.38	62038.24
566.54	62232.50
566.70	62307.40
566.87	62672.52
567.03	62611.67
567.19	62834.02
567.36	62735.72
567.52	62246.55
567.68	62218.46
567.85	61848.66
568.01	61528.00
568.17	61071.60
568.34	61263.52
568.50	61230.75
568.66	61095.00
568.83	61680.14
568.99	61429.70
569.15	61914.19
569.32	61792.48
569.48	61710.56
569.64	61441.40
569.81	61322.04
569.97	61085.64
570.13	61062.24
570.30	60692.43
570.46	60378.80
570.62	60058.15
570.78	59929.42
570.95	60285.18
571.11	60615.19
571.27	60844.57
571.43	60940.53
571.60	61516.30
571.76	61268.20
571.92	61577.15
572.09	61790.14
572.25	61748.01
572.41	61677.80
572.57	61605.24
572.74	61656.73
572.90	61179.26
573.06	61338.42
573.22	61289.27
573.38	61209.69
573.55	61221.39
573.71	61366.51
573.87	61324.38
574.03	61139.47
574.20	61069.26
574.36	60867.97
574.52	60722.86
574.68	60488.80
574.84	60556.68
575.01	59880.27
575.17	59732.81
575.33	60149.43
575.49	60451.36
575.65	60498.17
575.82	60460.72
575.98	59978.57
576.14	60360.08
576.30	60601.15
576.46	60774.35
576.62	60718.18
576.79	60715.84
576.95	60315.61
577.11	60177.51
577.27	60369.44
577.43	60406.89
577.59	60095.60
577.75	59489.40
577.92	59192.15
578.08	58843.41
578.24	59222.58
578.40	59451.95
578.56	59545.57
578.72	59447.27
578.88	59770.26
579.04	59798.35
579.21	59894.31
579.37	59994.95
579.53	59964.52
579.69	59760.90
579.85	60037.08
580.01	59957.50
580.17	59487.06
580.33	59377.05
580.49	59559.61
580.65	59777.28
580.82	60207.94
580.98	60119.00
581.14	59859.20
581.30	60001.97
581.46	59662.60
581.62	60095.60
581.78	60065.17
581.94	60133.04
582.10	60130.70
582.26	60280.50
582.42	60191.56
582.58	60189.22
582.74	60221.98
582.90	60158.79
583.06	60032.40
583.22	60037.08
583.38	60090.91
583.54	59917.71
583.70	59980.91
583.86	60020.70
584.02	59786.64
584.18	60018.36
584.34	59718.77
584.50	59646.21
584.66	59599.40
584.82	59224.92
584.98	59433.22
585.14	59114.91
