SpectraSuite Data File
++++++++++++++++++++++++++++++++++++
Date: Mon Oct 07 14:54:03 GMT-05:00 2013
User: price-jones
Dark Spectrum Present: No
Reference Spectrum Present: No
Number of Sampled Component Spectra: 1
Spectrometers: USB2+H05261
Integration Time (usec): 100000 (USB2+H05261)
Spectra Averaged: 1 (USB2+H05261)
Boxcar Smoothing: 0 (USB2+H05261)
Correct for Electrical Dark: No (USB2+H05261)
Strobe/Lamp Enabled: No (USB2+H05261)
Correct for Detector Non-linearity: No (USB2+H05261)
Correct for Stray Light: No (USB2+H05261)
Number of Pixels in Processed Spectrum: 2048
>>>>>Begin Processed Spectral Data<<<<<
365.73	0.00
365.92	0.00
366.12	0.00
366.32	0.00
366.52	0.00
366.72	0.00
366.91	0.00
367.11	0.00
367.31	0.00
367.51	0.00
367.70	0.00
367.90	0.00
368.10	0.00
368.30	0.00
368.49	0.00
368.69	0.00
368.89	0.00
369.09	0.00
369.28	0.00
369.48	0.00
369.68	0.00
369.87	0.00
370.07	0.00
370.27	0.00
370.47	786.42
370.66	3435.91
370.86	3920.40
371.06	4252.75
371.25	4383.82
371.45	3854.86
371.65	3574.00
371.84	3344.63
372.04	3424.20
372.24	3859.54
372.44	4002.32
372.63	3908.69
372.83	3763.58
373.03	3365.69
373.22	3143.34
373.42	3211.22
373.62	3719.11
373.81	4056.15
374.01	3981.25
374.21	3562.30
374.40	3260.37
374.60	3623.15
374.79	3840.82
374.99	4678.73
375.19	4919.81
375.38	4884.70
375.58	4648.30
375.78	4409.57
375.97	4650.64
376.17	4830.87
376.37	4692.77
376.56	5069.60
376.76	5144.50
376.95	5607.92
377.15	5926.24
377.35	6108.80
377.54	6534.78
377.74	6492.65
377.93	6689.25
378.13	6483.28
378.33	6352.21
378.52	5731.97
378.72	5345.78
378.91	5322.38
379.11	5184.29
379.31	5053.22
379.50	4954.91
379.70	5476.85
379.89	5870.06
380.09	6331.15
380.28	6654.14
380.48	6434.13
380.68	6272.64
380.87	6186.04
381.07	5680.48
381.26	5226.42
381.46	5015.77
381.65	4805.12
381.85	4463.40
382.04	4531.28
382.24	4067.85
382.43	4063.17
382.63	3955.51
382.83	3861.88
383.02	3833.80
383.22	3798.69
383.41	3929.76
383.61	4154.45
383.80	4777.03
384.00	5390.25
384.19	5818.57
384.39	6207.10
384.58	6300.72
384.78	6176.67
384.97	6300.72
385.17	5907.51
385.36	5645.37
385.56	5235.78
385.75	5516.64
385.95	6157.95
386.14	6689.25
386.34	6553.50
386.53	6265.61
386.72	5823.25
386.92	5947.30
387.11	6179.01
387.31	6717.34
387.50	6443.49
387.70	6204.76
387.89	6216.46
388.09	5973.05
388.28	6375.62
388.48	6382.64
388.67	6902.24
388.86	7382.05
389.06	7969.52
389.25	8381.46
389.45	8676.37
389.64	8355.71
389.84	8219.96
390.03	8280.82
390.22	8198.90
390.42	8489.12
390.61	9060.21
390.81	9607.90
391.00	9844.29
391.19	9809.19
391.39	9451.08
391.58	8950.21
391.78	8285.50
391.97	8086.55
392.16	7510.78
392.36	7040.33
392.55	5661.76
392.75	4379.14
392.94	3578.68
393.13	3597.40
393.33	4086.58
393.52	5268.55
393.71	6354.55
393.91	7330.56
394.10	8072.51
394.29	8835.52
394.49	9481.51
394.68	10279.63
394.88	10200.05
395.07	10637.73
395.26	10445.81
395.46	10310.06
395.65	9734.29
395.84	8557.00
396.04	7265.02
396.23	5837.30
396.42	4875.34
396.62	4706.82
396.81	5427.70
397.00	6951.39
397.19	8533.59
397.39	10253.89
397.58	11712.04
397.77	12271.43
397.97	12936.14
398.16	12961.89
398.35	13228.71
398.55	13647.66
398.74	14288.97
398.93	14370.89
399.12	14394.29
399.32	13696.82
399.51	14106.41
399.70	15239.23
399.90	15049.64
400.09	15075.39
400.28	14658.78
400.47	15005.17
400.67	15756.49
400.86	15946.07
401.05	16297.15
401.24	16107.57
401.44	16266.72
401.63	16381.41
401.82	16561.63
402.01	16388.43
402.21	16556.95
402.40	16648.23
402.59	16135.65
402.78	15566.90
402.97	15323.49
403.17	15459.24
403.36	16334.60
403.55	17296.56
403.74	17673.39
403.93	16559.29
404.13	15358.60
404.32	14967.73
404.51	16030.33
404.70	17032.08
404.89	17001.65
405.09	16833.13
405.28	16072.46
405.47	16004.58
405.66	16098.20
405.85	15693.29
406.05	15307.10
406.24	15644.14
406.43	16044.37
406.62	16973.56
406.81	16966.54
407.00	16259.70
407.20	15831.38
407.39	15985.86
407.58	16573.33
407.77	17603.17
407.96	17965.95
408.15	18214.05
408.34	18279.58
408.54	19091.75
408.73	19253.25
408.92	18518.32
409.11	18642.37
409.30	17427.63
409.49	16723.13
409.68	15501.37
409.87	14895.17
410.07	15800.96
410.26	17081.23
410.45	18143.83
410.64	18771.10
410.83	19168.99
411.02	19878.17
411.21	20226.91
411.40	20182.44
411.59	20198.82
411.78	20025.62
411.98	19817.32
412.17	20432.88
412.36	19562.20
412.55	19805.61
412.74	19609.01
412.93	18799.18
413.12	19180.69
413.31	20734.81
413.50	21275.47
413.69	21539.95
413.88	20559.27
414.07	20135.63
414.26	20247.97
414.45	20992.26
414.64	21015.67
414.83	21216.96
415.02	20575.65
415.22	20828.43
415.41	21039.08
415.60	22085.30
415.79	22754.69
415.98	23239.18
416.17	22888.10
416.36	22618.94
416.55	22377.86
416.74	21671.02
416.93	21139.72
417.12	20746.51
417.31	21252.06
417.50	21291.85
417.69	22302.96
417.88	21799.75
418.07	21841.88
418.26	21706.13
418.45	21806.77
418.64	22604.89
418.83	23070.66
419.02	23197.05
419.21	22827.24
419.39	22078.27
419.58	20798.00
419.77	20601.40
419.96	21865.28
420.15	22860.01
420.34	23630.05
420.53	24538.18
420.72	25003.94
420.91	24655.20
421.10	24423.49
421.29	24332.21
421.48	23157.26
421.67	24446.90
421.86	23882.83
422.05	22663.41
422.24	20060.73
422.43	19857.10
422.61	22001.04
422.80	23604.30
422.99	24041.98
423.18	22864.69
423.37	22436.38
423.56	22703.20
423.75	22508.93
423.94	23213.43
424.13	21926.14
424.32	21879.33
424.50	22410.63
424.69	22113.38
424.88	22216.36
425.07	21996.35
425.26	21823.16
425.45	21699.11
425.64	21336.32
425.83	21219.30
426.01	22427.01
426.20	22939.59
426.39	22906.82
426.58	21359.73
426.77	19674.54
426.96	18988.77
427.15	19894.55
427.33	21378.45
427.52	21888.69
427.71	22553.40
427.90	22253.81
428.09	21984.65
428.28	21399.52
428.46	20498.41
428.65	20088.82
428.84	20704.38
429.03	21013.33
429.22	19583.26
429.40	19077.71
429.59	17228.68
429.78	15059.01
429.97	15255.61
430.16	15246.25
430.34	15662.86
430.53	15520.09
430.72	15758.83
430.91	17490.82
431.10	20580.33
431.28	23955.38
431.47	26150.81
431.66	26211.66
431.85	24011.56
432.03	22324.03
432.22	20875.24
432.41	21734.21
432.60	24446.90
432.79	25511.84
432.97	26031.44
433.16	25298.85
433.35	23351.52
433.54	21137.38
433.72	19548.15
433.91	20416.49
434.10	22637.66
434.28	24039.64
434.47	25612.48
434.66	24900.96
434.85	24336.89
435.03	24364.98
435.22	25158.42
435.41	26497.20
435.59	26436.35
435.78	26831.90
435.97	27288.31
436.16	27627.68
436.34	27248.52
436.53	26705.51
436.72	26841.26
436.90	25357.36
437.09	25462.69
437.28	24884.58
437.46	25614.82
437.65	25631.21
437.84	24287.74
438.02	21902.73
438.21	21640.59
438.40	23070.66
438.58	24687.97
438.77	25556.31
438.96	25645.25
439.14	26759.34
439.33	27395.97
439.52	27934.29
439.70	27644.07
439.89	26405.92
440.08	25671.00
440.26	25525.88
440.45	26965.31
440.63	28353.25
440.82	30008.01
441.01	29926.09
441.19	29490.75
441.38	29530.54
441.57	30859.96
441.75	31337.43
441.94	31491.91
442.12	31438.08
442.31	31676.81
442.50	31812.56
442.68	31133.81
442.87	31072.95
443.05	30396.54
443.24	31051.89
443.43	31487.23
443.61	32238.54
443.80	32311.10
443.98	30607.19
444.17	30588.46
444.35	32388.33
444.54	33165.39
444.73	32624.73
444.91	31173.60
445.10	29890.98
445.28	28968.81
445.47	28203.46
445.65	28355.59
445.84	29142.01
446.02	30328.66
446.21	30841.24
446.39	31026.14
446.58	31564.46
446.77	31740.00
446.95	32067.68
447.14	32837.72
447.32	33727.12
447.51	32776.86
447.69	31274.24
447.88	30946.56
448.06	31192.32
448.25	32292.37
448.43	32519.40
448.62	31484.89
448.80	31484.89
448.99	32091.09
449.17	32226.84
449.36	32252.58
449.54	33261.35
449.73	33565.62
449.91	34120.33
450.10	34983.99
450.28	35641.68
450.46	35283.58
450.65	35157.19
450.83	34759.30
451.02	34370.77
451.20	34143.74
451.39	34078.20
451.57	33762.23
451.76	33766.91
451.94	33397.10
452.13	33043.68
452.31	31861.71
452.49	29818.42
452.68	30560.37
452.86	30689.10
453.05	30829.54
453.23	32095.77
453.42	32472.59
453.60	33518.81
453.78	33809.04
453.97	33359.66
454.15	33607.75
454.34	32741.75
454.52	32577.92
454.70	32222.16
454.89	32547.49
455.07	32762.82
455.26	32936.02
455.44	34209.27
455.62	34707.80
455.81	34845.90
455.99	34801.43
456.17	34003.30
456.36	34780.36
456.54	35278.89
456.73	35639.34
456.91	35658.06
457.09	35861.69
457.28	36566.19
457.46	35323.36
457.64	35360.81
457.83	34125.01
458.01	33226.24
458.19	34129.69
458.38	34227.99
458.56	35639.34
458.74	35981.06
458.93	34916.11
459.11	34419.92
459.29	34445.66
459.48	34586.10
459.66	34642.27
459.84	34677.38
460.03	35405.28
460.21	35285.92
460.39	36102.76
460.57	36229.15
460.76	36392.99
460.94	36203.41
461.12	36233.83
461.31	35889.77
461.49	35983.40
461.67	36065.31
461.85	37146.64
462.04	37127.92
462.22	37572.62
462.40	36804.92
462.59	36376.61
462.77	36631.72
462.95	36933.65
463.13	36465.55
463.32	36046.59
463.50	35819.56
463.68	35854.67
463.86	36130.85
464.05	35489.54
464.23	34969.94
464.41	34506.52
464.59	33759.89
464.78	35566.78
464.96	35391.24
465.14	35194.64
465.32	36189.36
465.50	36821.31
465.69	37090.47
465.87	36297.03
466.05	35952.97
466.23	34345.02
466.41	33312.84
466.60	34284.17
466.78	33916.70
466.96	34824.83
467.14	35234.42
467.32	35971.69
467.51	36074.68
467.69	34272.46
467.87	34976.97
468.05	35426.35
468.23	35569.12
468.41	35690.83
468.60	35349.11
468.78	36128.51
468.96	35941.27
469.14	35810.20
469.32	36313.41
469.50	34668.02
469.69	35098.67
469.87	34497.16
470.05	34270.12
470.23	34895.05
470.41	34806.11
470.59	35225.06
470.77	35070.59
470.95	35625.29
471.14	36510.02
471.32	36119.15
471.50	38307.55
471.68	38845.87
471.86	38958.22
472.04	38670.33
472.22	38721.82
472.40	37179.41
472.58	36217.45
472.77	36151.91
472.95	36980.46
473.13	38195.20
473.31	37244.94
473.49	37029.62
473.67	37830.08
473.85	38029.02
474.03	39196.95
474.21	39112.69
474.39	39679.10
474.57	39613.57
474.75	39615.91
474.93	39608.89
475.12	38637.56
475.30	38803.74
475.48	38780.34
475.66	39178.23
475.84	38562.67
476.02	39014.39
476.20	38050.09
476.38	38972.26
476.56	40247.85
476.74	40512.33
476.92	40615.32
477.10	41067.04
477.28	42438.59
477.46	41940.06
477.64	42562.64
477.82	42946.49
478.00	43021.39
478.18	42267.73
478.36	42373.06
478.54	41949.42
478.72	42564.98
478.90	43503.54
479.08	44243.15
479.26	45048.29
479.44	44903.18
479.62	44390.60
479.80	44507.63
479.98	44748.70
480.16	45013.18
480.34	44692.53
480.52	45193.40
480.70	45439.16
480.88	45214.47
481.06	46171.75
481.24	46340.27
481.41	47449.68
481.59	47547.98
481.77	47426.28
481.95	46894.97
482.13	46873.91
482.31	47079.88
482.49	47405.21
482.67	47079.88
482.85	47744.59
483.03	48002.05
483.21	48507.60
483.39	48339.08
483.57	47573.73
483.74	47910.77
483.92	47908.43
484.10	48126.10
484.28	49055.29
484.46	49148.91
484.64	49467.22
484.82	48907.83
485.00	48484.20
485.18	47407.55
485.35	46553.26
485.53	43152.46
485.71	39194.61
485.89	38651.61
486.07	40624.68
486.25	44383.58
486.43	46607.09
486.61	47278.82
486.78	47150.09
486.96	47264.78
487.14	48938.26
487.32	49731.70
487.50	50843.46
487.68	51697.75
487.85	51901.38
488.03	52079.26
488.21	51868.61
488.39	51068.15
488.57	50007.89
488.75	49839.37
488.92	50967.51
489.10	53169.95
489.28	54246.60
489.46	54901.95
489.64	54513.42
489.81	54932.37
489.99	54672.57
490.17	54534.48
490.35	55049.40
490.53	54616.40
490.70	54110.85
490.88	53895.52
491.06	54923.01
491.24	54827.05
491.41	53888.49
491.59	52507.58
491.77	51533.92
491.95	52694.82
492.13	53998.50
492.30	55002.59
492.48	55693.05
492.66	56261.80
492.84	56207.97
493.01	55889.65
493.19	55491.76
493.37	55208.56
493.54	54871.52
493.72	55363.03
493.90	56243.07
494.08	57277.59
494.25	57506.96
494.43	57513.98
494.61	57989.11
494.79	57932.94
494.96	57867.40
495.14	57202.69
495.32	56322.65
495.49	55613.47
495.67	56832.89
495.85	57986.77
496.02	58284.02
496.20	58047.63
496.38	57752.72
496.55	57673.14
496.73	58103.80
496.91	58258.27
497.09	58686.59
497.26	59018.95
497.44	58454.88
497.62	58012.52
497.79	57247.16
497.97	56205.62
498.14	56189.24
498.32	57186.31
498.50	58199.76
498.67	58609.35
498.85	58424.45
499.03	58585.95
499.20	58887.88
499.38	58972.14
499.56	58543.82
499.73	58056.99
499.91	57818.25
500.08	57396.96
500.26	56652.67
500.44	57193.33
500.61	57869.75
500.79	58010.18
500.97	57233.12
501.14	57069.28
501.32	56999.07
501.49	57066.94
501.67	57073.96
501.84	57719.95
502.02	58085.07
502.20	58389.34
502.37	58576.59
502.55	58541.48
502.72	59028.31
502.90	59475.35
503.07	59044.69
503.25	58880.86
503.43	57851.02
503.60	57467.17
503.78	56676.07
503.95	57083.33
504.13	58630.42
504.30	59440.24
504.48	59065.76
504.65	58550.84
504.83	58866.81
505.01	59444.93
505.18	59498.76
505.36	60079.21
505.53	60205.60
505.71	60378.80
505.88	60629.24
506.06	59812.39
506.23	59487.06
506.41	59222.58
506.58	59402.80
506.76	59372.37
506.93	59215.55
507.11	59082.14
507.28	59203.85
507.46	58738.08
507.63	58258.27
507.81	57998.48
507.98	58305.09
508.16	58953.41
508.33	59379.39
508.50	59924.74
508.68	60193.90
508.85	60364.76
509.03	60587.11
509.20	60280.50
509.38	59833.46
509.55	59035.33
509.73	59075.12
509.90	59519.82
510.08	59774.94
510.25	59622.81
510.42	59625.15
510.60	59468.33
510.77	59615.79
510.95	60151.77
511.12	60224.32
511.30	60409.23
511.47	60800.10
511.64	60781.37
511.82	60521.57
511.99	59812.39
512.17	59194.49
512.34	59002.56
512.51	59145.34
512.69	59255.34
512.86	59128.95
513.04	59814.73
513.21	59849.84
513.38	59442.59
513.56	58927.67
513.73	58440.84
513.90	58415.09
514.08	58773.19
514.25	58937.03
514.43	58995.54
514.60	59344.28
514.77	59419.18
514.95	59325.56
515.12	59341.94
515.29	59615.79
515.47	60165.81
515.64	60411.57
515.81	59882.61
515.99	59267.05
516.16	57968.05
516.33	55913.06
516.51	54494.69
516.68	53649.76
516.85	53317.40
517.03	53357.19
517.20	56226.69
517.37	58405.73
517.54	59442.59
517.72	59028.31
517.89	56858.63
518.06	54382.35
518.24	54733.43
518.41	56669.05
518.58	57883.79
518.75	58248.91
518.93	58412.75
519.10	58211.46
519.27	58747.45
519.45	58925.33
519.62	59587.70
519.79	59945.80
519.96	59695.36
520.14	59400.46
520.31	58466.58
520.48	58541.48
520.65	58913.62
520.83	59746.86
521.00	59938.78
521.17	59683.66
521.34	59325.56
521.52	59686.00
521.69	60238.37
521.86	60559.02
522.03	60322.63
522.20	59196.83
522.38	58335.51
522.55	58028.90
522.72	58707.66
522.89	58885.54
523.07	59021.29
523.24	59302.15
523.41	60123.68
523.58	60402.21
523.75	60729.88
523.92	60879.67
524.10	60411.57
524.27	60556.68
524.44	60376.46
524.61	60163.47
524.78	60039.42
524.96	60219.64
525.13	60072.19
525.30	60200.92
525.47	60750.94
525.64	60570.72
525.81	59983.25
525.98	58623.40
526.16	57102.05
526.33	56554.36
526.50	56350.74
526.67	56060.51
526.84	56399.89
527.01	57516.32
527.18	58162.31
527.36	59009.59
527.53	59969.21
527.70	60062.83
527.87	59519.82
528.04	59189.81
528.21	59732.81
528.38	60247.73
528.55	60870.31
528.72	61020.11
528.89	61190.97
529.07	60898.40
529.24	60259.43
529.41	59629.83
529.58	59128.95
529.75	59409.82
529.92	59550.25
530.09	60114.32
530.26	60423.27
530.43	60786.05
530.60	60729.88
530.77	61024.79
530.94	61137.13
531.11	60587.11
531.28	60140.07
531.46	59952.82
531.63	60214.96
531.80	60191.56
531.97	59599.40
532.14	58969.80
532.31	58005.50
532.48	57429.72
532.65	57312.70
532.82	58368.28
532.99	59276.41
533.16	59634.51
533.33	60083.89
533.50	59969.21
533.67	59346.62
533.84	58843.41
534.01	59143.00
534.18	59419.18
534.35	59728.13
534.52	59400.46
534.69	59451.95
534.86	59987.93
535.03	60144.75
535.20	60739.24
535.37	60931.17
535.54	61022.45
535.71	60662.00
535.88	60252.41
536.05	59519.82
536.22	59398.12
536.38	59110.23
536.55	58564.88
536.72	57949.32
536.89	58012.52
537.06	58972.14
537.23	59597.06
537.40	59756.22
537.57	59805.37
537.74	59512.80
537.91	59468.33
538.08	59732.81
538.25	59442.59
538.42	59887.29
538.59	59519.82
538.75	58979.16
538.92	58698.30
539.09	58609.35
539.26	58281.68
539.43	58319.13
539.60	58529.78
539.77	58590.63
539.94	58384.66
540.11	57682.50
540.28	57317.38
540.44	57275.25
540.61	57485.90
540.78	57649.74
540.95	58202.10
541.12	58588.29
541.29	58644.46
541.46	58922.99
541.62	59131.29
541.79	58913.62
541.96	58248.91
542.13	58328.49
542.30	58408.07
542.47	58639.78
542.63	58628.08
542.80	58398.71
542.97	58382.32
543.14	58344.87
543.31	58181.04
543.48	58614.04
543.64	59517.48
543.81	59803.03
543.98	59676.64
544.15	59068.10
544.32	58370.62
544.48	58309.77
544.65	58918.31
544.82	59297.47
544.99	58979.16
545.16	58539.14
545.32	58480.63
545.49	59079.80
545.66	59435.56
545.83	59283.43
546.00	58574.25
546.16	58305.09
546.33	58478.28
546.50	58686.59
546.67	59168.74
546.83	58518.07
547.00	58609.35
547.17	58010.18
547.34	57621.65
547.50	57359.51
547.67	57806.55
547.84	57776.12
548.00	58227.85
548.17	58672.55
548.34	58592.97
548.51	58424.45
548.67	58480.63
548.84	58637.44
549.01	58630.42
549.18	58398.71
549.34	58372.96
549.51	58440.84
549.68	58354.24
549.84	57911.88
550.01	58035.92
550.18	57858.04
550.34	58068.69
550.51	57956.35
550.68	58244.23
550.84	57659.10
551.01	57677.82
551.18	57446.11
551.34	57710.59
551.51	58136.57
551.68	58422.11
551.84	58541.48
552.01	58277.00
552.18	58010.18
552.34	57380.57
552.51	57034.17
552.68	56938.21
552.84	57584.20
553.01	57719.95
553.18	57563.14
553.34	57825.28
553.51	57792.51
553.67	58000.82
553.84	58124.86
554.01	58157.63
554.17	57801.87
554.34	57827.62
554.51	58028.90
554.67	58408.07
554.84	58075.71
555.00	57680.16
555.17	57354.83
555.33	57623.99
555.50	57406.32
555.67	57530.37
555.83	57474.20
556.00	57282.27
556.16	57183.97
556.33	56638.62
556.50	56647.99
556.66	56605.86
556.83	56367.12
556.99	56640.96
557.16	56633.94
557.32	56968.64
557.49	57104.39
557.65	56802.46
557.82	57090.35
557.98	56973.32
558.15	56755.65
558.32	55627.51
558.48	54852.80
558.65	55194.51
558.81	55374.73
558.98	55421.55
559.14	55948.17
559.31	55938.80
559.47	55840.50
559.64	55538.57
559.80	55332.60
559.97	55187.49
560.13	55920.08
560.30	56697.14
560.46	57214.40
560.63	57062.26
560.79	57406.32
560.96	57055.24
561.12	55840.50
561.29	54813.01
561.45	55110.25
561.61	55679.00
561.78	56182.22
561.94	55901.36
562.11	55870.93
562.27	55812.41
562.44	55873.27
562.60	56088.60
562.77	56516.92
562.93	56582.45
563.10	56217.33
563.26	55686.03
563.42	55695.39
563.59	55538.57
563.75	55601.77
563.92	55632.19
564.08	55557.30
564.24	55737.52
564.41	55877.95
564.57	55529.21
564.74	55622.83
564.90	55587.72
565.07	54995.57
565.23	54836.41
565.39	54401.07
565.56	53881.47
565.72	53862.75
565.88	54365.96
566.05	54576.61
566.21	54770.88
566.38	54871.52
566.54	54974.50
566.70	55363.03
566.87	55299.84
567.03	55189.83
567.19	55742.20
567.36	55381.76
567.52	55393.46
567.68	55278.77
567.85	54543.84
568.01	53909.56
568.17	53626.35
568.34	53748.06
568.50	53553.80
568.66	53661.46
568.83	53930.62
568.99	53991.48
569.15	54190.42
569.32	54035.95
569.48	53939.99
569.64	53727.00
569.81	53682.53
569.97	53343.15
570.13	53343.15
570.30	53123.14
570.46	52411.62
570.62	52119.05
570.78	51842.87
570.95	51901.38
571.11	52767.38
571.27	53008.45
571.43	53357.19
571.60	53738.70
571.76	53853.39
571.92	53947.01
572.09	54167.02
572.25	53942.33
572.41	53968.07
572.57	53909.56
572.74	54134.25
572.90	53537.41
573.06	53312.72
573.22	53481.24
573.38	53478.90
573.55	53446.13
573.71	53663.80
573.87	53708.27
574.03	53303.36
574.20	53095.05
574.36	53038.88
574.52	52889.09
574.68	52486.51
574.84	52449.06
575.01	51714.14
575.17	51620.52
575.33	52048.83
575.49	52568.43
575.65	52528.64
575.82	52030.11
575.98	51887.34
576.14	52435.02
576.30	52514.60
576.46	52912.49
576.62	52837.59
576.79	52713.55
576.95	52018.41
577.11	52233.74
577.27	52474.81
577.43	52430.34
577.59	52100.32
577.75	51585.41
577.92	50726.43
578.08	50532.17
578.24	50468.97
578.40	51243.69
578.56	51264.75
578.72	51292.84
578.88	51313.90
579.04	51704.77
579.21	51365.40
579.37	51796.06
579.53	52126.07
579.69	51714.14
579.85	52086.28
580.01	51803.08
580.17	51047.08
580.33	51487.10
580.49	51538.60
580.65	51566.68
580.82	51800.74
580.98	51664.99
581.14	51414.55
581.30	51508.17
581.46	51615.83
581.62	52053.51
581.78	51643.92
581.94	52133.09
582.10	51763.29
582.26	51870.95
582.42	51798.40
582.58	51877.97
582.74	51852.23
582.90	51826.48
583.06	51810.10
583.22	51627.54
583.38	51597.11
583.54	51201.56
583.70	51178.15
583.86	51112.62
584.02	51241.35
584.18	51580.73
584.34	51393.48
584.50	51334.97
584.66	50782.60
584.82	50873.88
584.98	50864.52
585.14	50302.79
