SpectraSuite Data File
++++++++++++++++++++++++++++++++++++
Date: Mon Oct 07 14:53:22 GMT-05:00 2013
User: price-jones
Dark Spectrum Present: No
Reference Spectrum Present: No
Number of Sampled Component Spectra: 1
Spectrometers: USB2+H05261
Integration Time (usec): 100000 (USB2+H05261)
Spectra Averaged: 1 (USB2+H05261)
Boxcar Smoothing: 0 (USB2+H05261)
Correct for Electrical Dark: No (USB2+H05261)
Strobe/Lamp Enabled: No (USB2+H05261)
Correct for Detector Non-linearity: No (USB2+H05261)
Correct for Stray Light: No (USB2+H05261)
Number of Pixels in Processed Spectrum: 2048
>>>>>Begin Processed Spectral Data<<<<<
365.73	0.00
365.92	0.00
366.12	0.00
366.32	0.00
366.52	0.00
366.72	0.00
366.91	0.00
367.11	0.00
367.31	0.00
367.51	0.00
367.70	0.00
367.90	0.00
368.10	0.00
368.30	0.00
368.49	0.00
368.69	0.00
368.89	0.00
369.09	0.00
369.28	0.00
369.48	0.00
369.68	0.00
369.87	0.00
370.07	0.00
370.27	0.00
370.47	538.32
370.66	3075.46
370.86	3522.51
371.06	3974.23
371.25	3908.69
371.45	3555.27
371.65	3260.37
371.84	3061.42
372.04	3169.09
372.24	3545.91
372.44	3634.85
372.63	3634.85
372.83	3375.05
373.03	2995.89
373.22	2703.32
373.42	2794.60
373.62	3421.86
373.81	3611.45
374.01	3555.27
374.21	3227.60
374.40	3002.91
374.60	3103.55
374.79	3442.93
374.99	4334.67
375.19	4360.42
375.38	4435.32
375.58	4231.69
375.78	4119.34
375.97	4131.05
376.17	4304.25
376.37	4381.48
376.56	4540.64
376.76	4638.94
376.95	5018.11
377.15	5261.52
377.35	5549.41
377.54	5863.04
377.74	5991.77
377.93	5923.90
378.13	5666.44
378.33	5476.85
378.52	5121.09
378.72	4952.57
378.91	4954.91
379.11	4540.64
379.31	4402.55
379.50	4454.04
379.70	4805.12
379.89	5427.70
380.09	5584.52
380.28	5825.59
380.48	5790.49
380.68	5575.16
380.87	5408.98
381.07	5118.75
381.26	4842.57
381.46	4517.23
381.65	4461.06
381.85	4269.14
382.04	4072.53
382.24	3712.09
382.43	3702.73
382.63	3571.66
382.83	3515.48
383.02	3641.87
383.22	3667.62
383.41	3522.51
383.61	3726.13
383.80	4416.59
384.00	4919.81
384.19	5533.03
384.39	5643.03
384.58	5621.97
384.78	5738.99
384.97	5640.69
385.17	5420.68
385.36	5048.54
385.56	4868.31
385.75	5020.45
385.95	5511.96
386.14	5937.94
386.34	6059.65
386.53	5631.33
386.72	5240.46
386.92	5408.98
387.11	5715.59
387.31	5834.96
387.50	5846.66
387.70	5783.46
387.89	5612.60
388.09	5680.48
388.28	5647.71
388.48	5863.04
388.67	6120.50
388.86	6745.42
389.06	7323.54
389.25	7501.42
389.45	7592.70
389.64	7826.75
389.84	7557.59
390.03	7403.11
390.22	7564.61
390.42	7761.22
390.61	8325.29
390.81	8837.86
391.00	9116.39
391.19	9076.60
391.39	8699.77
391.58	8250.39
391.78	7665.25
391.97	7239.28
392.16	6871.81
392.36	6300.72
392.55	4978.32
392.75	4060.83
392.94	3155.04
393.13	3218.24
393.33	3693.37
393.52	5090.67
393.71	6015.18
393.91	6984.16
394.10	7363.33
394.29	8077.19
394.49	8554.66
394.68	9507.26
394.88	9385.55
395.07	9703.86
395.26	9451.08
395.46	9418.32
395.65	8748.92
395.84	7742.49
396.04	6431.79
396.23	5483.88
396.42	4358.08
396.62	4283.18
396.81	4997.04
397.00	6518.39
397.19	8042.08
397.39	9095.32
397.58	10635.39
397.77	11101.16
397.97	11641.82
398.16	11578.63
398.35	12231.64
398.55	12737.20
398.74	13137.43
398.93	13369.14
399.12	13266.16
399.32	12674.00
399.51	13064.87
399.70	13891.08
399.90	13500.21
400.09	13692.13
400.28	13722.56
400.47	13818.52
400.67	14469.19
400.86	14761.76
401.05	14977.09
401.24	14768.78
401.44	15035.60
401.63	15068.37
401.82	15187.74
402.01	14916.23
402.21	15164.33
402.40	15477.96
402.59	14958.36
402.78	14244.50
402.97	14061.94
403.17	14380.25
403.36	15225.18
403.55	16035.01
403.74	16126.29
403.93	15122.20
404.13	14047.90
404.32	13956.61
404.51	14621.33
404.70	15807.98
404.89	15569.24
405.09	15517.75
405.28	15082.41
405.47	14918.57
405.66	14963.04
405.85	14733.67
406.05	14403.66
406.24	14441.11
406.43	14941.98
406.62	15639.46
406.81	15386.68
407.00	15094.11
407.20	14810.91
407.39	14677.50
407.58	15625.42
407.77	16095.86
407.96	16554.61
408.15	16669.30
408.34	17214.64
408.54	17591.47
408.73	18024.47
408.92	17603.17
409.11	17043.78
409.30	16219.91
409.49	15108.16
409.68	14464.51
409.87	13975.34
410.07	14295.99
410.26	16196.51
410.45	16746.53
410.64	17118.68
410.83	18073.62
411.02	18319.37
411.21	18960.68
411.40	18595.56
411.59	18731.31
411.78	18459.81
411.98	18314.69
412.17	18560.45
412.36	18246.82
412.55	18405.97
412.74	18038.51
412.93	17628.92
413.12	17724.88
413.31	19489.64
413.50	19417.08
413.69	20102.86
413.88	19222.82
414.07	18396.61
414.26	18864.72
414.45	19775.19
414.64	19487.30
414.83	19786.89
415.02	19091.75
415.22	19295.38
415.41	19807.95
415.60	20159.03
415.79	21329.30
415.98	21596.12
416.17	21748.26
416.36	20940.77
416.55	20718.42
416.74	20503.09
416.93	19555.18
417.12	19599.65
417.31	19660.50
417.50	20004.56
417.69	20893.96
417.88	20580.33
418.07	20554.58
418.26	19950.73
418.45	20191.80
418.64	21074.18
418.83	21748.26
419.02	21525.91
419.21	21436.97
419.39	20343.94
419.58	19445.17
419.77	19536.45
419.96	20601.40
420.15	21537.61
420.34	22408.29
420.53	22843.63
420.72	23262.58
420.91	23051.94
421.10	22843.63
421.29	22317.01
421.48	22003.38
421.67	23091.73
421.86	22326.37
422.05	20886.94
422.24	18850.67
422.43	18452.78
422.61	20467.98
422.80	22457.44
422.99	22045.51
423.18	21392.50
423.37	20769.91
423.56	20915.03
423.75	21245.04
423.94	21720.17
424.13	20498.41
424.32	20702.04
424.50	20795.66
424.69	20355.64
424.88	20734.81
425.07	20313.51
425.26	20376.70
425.45	20238.61
425.64	19716.67
425.83	20301.81
426.01	20994.61
426.20	21860.60
426.39	21568.04
426.58	20058.39
426.77	18328.74
426.96	17577.42
427.15	18560.45
427.33	19964.77
427.52	20783.96
427.71	20985.24
427.90	20671.61
428.09	20648.21
428.28	20086.48
428.46	19700.29
428.65	19019.19
428.84	19800.93
429.03	20032.65
429.22	18780.46
429.40	17614.87
429.59	16116.93
429.78	14532.39
429.97	14572.18
430.16	14546.43
430.34	14478.55
430.53	14389.61
430.72	14881.13
430.91	16638.87
431.10	19281.33
431.28	22904.48
431.47	24575.62
431.66	25015.65
431.85	22562.76
432.03	20709.06
432.22	19606.67
432.41	20779.28
432.60	22925.55
432.79	24025.60
432.97	24486.68
433.16	23789.20
433.35	21727.19
433.54	19522.41
433.72	18492.57
433.91	18925.57
434.10	21245.04
434.28	22801.50
434.47	24020.92
434.66	23791.55
434.85	22970.02
435.03	22906.82
435.22	23613.66
435.41	25123.31
435.59	24634.14
435.78	25216.93
435.97	26101.65
436.16	26380.18
436.34	25928.45
436.53	25123.31
436.72	25273.10
436.90	23990.49
437.09	23693.24
437.28	23491.96
437.46	24505.41
437.65	24421.15
437.84	22560.42
438.02	20765.23
438.21	20755.87
438.40	21717.83
438.58	23566.85
438.77	24402.43
438.96	24369.66
439.14	25530.56
439.33	25778.66
439.52	26492.52
439.70	25937.82
439.89	25132.67
440.08	24765.21
440.26	24526.47
440.45	25439.28
440.63	27075.32
440.82	28339.21
441.01	27882.80
441.19	27503.64
441.38	28126.22
441.57	29163.08
441.75	29947.15
441.94	29888.64
442.12	29532.88
442.31	30274.83
442.50	29738.85
442.68	29593.73
442.87	29631.18
443.05	28922.00
443.24	29298.83
443.43	30005.67
443.61	30731.23
443.80	30710.17
443.98	29022.64
444.17	29282.44
444.35	30312.28
444.54	31625.32
444.73	31035.50
444.91	29549.26
445.10	28451.55
445.28	27665.13
445.47	26771.05
445.65	26897.44
445.84	27864.08
446.02	29074.13
446.21	29476.71
446.39	29340.96
446.58	29785.66
446.77	30136.74
446.95	30714.85
447.14	31538.72
447.32	31831.29
447.51	31407.65
447.69	29596.07
447.88	29958.86
448.06	30455.05
448.25	30654.00
448.43	30955.93
448.62	30176.53
448.80	30363.77
448.99	30492.50
449.17	30717.19
449.36	30939.54
449.54	31669.79
449.73	32634.09
449.91	32727.71
450.10	33450.94
450.28	34110.97
450.46	33926.07
450.65	33893.30
450.83	33607.75
451.02	32666.86
451.20	33158.37
451.39	32357.91
451.57	32428.12
451.76	32615.37
451.94	32032.57
452.13	31531.70
452.31	30263.13
452.49	28465.60
452.68	29099.88
452.86	28938.38
453.05	29890.98
453.23	30923.16
453.42	31290.62
453.60	31800.86
453.78	32851.76
453.97	31803.20
454.15	32116.83
454.34	31232.11
454.52	31405.31
454.70	31014.44
454.89	30820.17
455.07	31384.24
455.26	32011.51
455.44	32938.36
455.62	33612.43
455.81	33481.36
455.99	33380.72
456.17	32940.70
456.36	33429.87
456.54	34125.01
456.73	34291.19
456.91	34618.86
457.09	34817.81
457.28	35384.22
457.46	34057.14
457.64	33893.30
457.83	32781.54
458.01	31864.05
458.19	32833.04
458.38	32978.15
458.56	34321.62
458.74	34192.89
458.93	33275.40
459.11	33249.65
459.29	33291.78
459.48	33167.73
459.66	32961.76
459.84	33811.38
460.03	33991.60
460.21	34284.17
460.39	34714.83
460.57	34881.00
460.76	35213.36
460.94	35416.99
461.12	34387.15
461.31	34911.43
461.49	34911.43
461.67	34501.84
461.85	36121.49
462.04	35826.58
462.22	36177.66
462.40	36065.31
462.59	35693.17
462.77	36212.77
462.95	35679.13
463.13	34728.87
463.32	34866.96
463.50	34682.06
463.68	34436.30
463.86	34951.22
464.05	34340.34
464.23	33376.04
464.41	33720.10
464.59	32889.21
464.78	34787.38
464.96	34197.57
465.14	34101.61
465.32	34639.93
465.50	35831.26
465.69	35793.81
465.87	35407.62
466.05	34548.65
466.23	32875.16
466.41	32322.80
466.60	33099.86
466.78	33055.39
466.96	33790.31
467.14	33961.17
467.32	34885.68
467.51	34845.90
467.69	33240.29
467.87	34019.69
468.05	34780.36
468.23	34527.58
468.41	34398.85
468.60	34890.37
468.78	35124.42
468.96	34340.34
469.14	35150.17
469.32	35227.40
469.50	33853.51
469.69	33827.76
469.87	33411.15
470.05	33642.86
470.23	33696.69
470.41	33359.66
470.59	34225.65
470.77	34455.03
470.95	34930.16
471.14	35302.30
471.32	35402.94
471.50	37109.19
471.68	37390.06
471.86	38054.77
472.04	37935.40
472.22	38122.65
472.40	36191.70
472.58	35569.12
472.77	35316.34
472.95	36004.46
473.13	37186.43
473.31	35639.34
473.49	36294.69
473.67	37163.03
473.85	37268.35
474.03	38061.79
474.21	38398.83
474.39	38106.26
474.57	38431.60
474.75	39040.14
474.93	38557.99
475.12	37476.66
475.30	37757.52
475.48	37736.46
475.66	38443.30
475.84	38129.67
476.02	37907.32
476.20	36809.61
476.38	37631.13
476.56	38941.83
476.74	39182.91
476.92	39512.92
477.10	40465.52
477.28	41074.06
477.46	41282.37
477.64	41233.22
477.82	41762.18
478.00	42263.05
478.18	41139.60
478.36	41244.92
478.54	41090.44
478.72	41296.41
478.90	42906.70
479.08	43393.53
479.26	44095.69
479.44	43475.45
479.62	43615.88
479.80	43643.97
479.98	43643.97
480.16	44002.07
480.34	43632.27
480.52	44217.40
480.70	44629.34
480.88	44203.36
481.06	45663.85
481.24	45500.01
481.41	46705.39
481.59	47070.51
481.77	46459.63
481.95	46038.34
482.13	46113.23
482.31	45652.15
482.49	47138.39
482.67	46656.24
482.85	46541.55
483.03	47295.21
483.21	47665.01
483.39	47480.11
483.57	46539.21
483.74	46597.73
483.92	47021.36
484.10	47180.52
484.28	48308.66
484.46	48374.19
484.64	48933.58
484.82	48023.11
485.00	47660.33
485.18	46649.22
485.35	45420.44
485.53	42518.17
485.71	38934.81
485.89	37991.58
486.07	40236.15
486.25	43721.21
486.43	45497.67
486.61	46686.67
486.78	46775.61
486.96	46946.47
487.14	48051.20
487.32	49177.00
487.50	50696.00
487.68	50932.40
487.85	51482.42
488.03	51114.96
488.21	50920.70
488.39	50326.20
488.57	49439.14
488.75	49167.63
488.92	50522.80
489.10	52610.56
489.28	53663.80
489.46	54368.30
489.64	54403.41
489.81	54410.43
489.99	53811.26
490.17	54110.85
490.35	54653.85
490.53	53977.43
490.70	53408.68
490.88	53462.52
491.06	54674.91
491.24	54291.07
491.41	53244.85
491.59	51889.68
491.77	50904.31
491.95	52123.73
492.13	53195.70
492.30	54424.48
492.48	55489.42
492.66	55955.19
492.84	55800.71
493.01	55487.08
493.19	54901.95
493.37	54962.80
493.54	54253.62
493.72	55136.00
493.90	55992.64
494.08	56692.46
494.25	57242.48
494.43	57193.33
494.61	57481.22
494.79	57731.65
494.96	57535.05
495.14	56989.70
495.32	55992.64
495.49	55405.16
495.67	56327.33
495.85	57616.97
496.02	58085.07
496.20	57790.17
496.38	57504.62
496.55	57476.54
496.73	57673.14
496.91	57961.03
497.09	58660.85
497.26	58534.46
497.44	58370.62
497.62	57577.18
497.79	56893.74
497.97	56011.36
498.14	55922.42
498.32	56945.23
498.50	57921.24
498.67	58260.62
498.85	58038.26
499.03	58291.04
499.20	58660.85
499.38	58588.29
499.56	58394.03
499.73	57998.48
499.91	57631.01
500.08	57301.00
500.26	56526.28
500.44	56713.52
500.61	57656.76
500.79	57396.96
500.97	57090.35
501.14	56882.04
501.32	56774.37
501.49	56776.72
501.67	57003.75
501.84	57506.96
502.02	57733.99
502.20	57867.40
502.37	58094.44
502.55	58218.49
502.72	58873.84
502.90	59337.26
503.07	58628.08
503.25	58553.18
503.43	57785.49
503.60	57155.88
503.78	56413.93
503.95	56816.50
504.13	58260.62
504.30	59192.15
504.48	58794.26
504.65	58553.18
504.83	58595.31
505.01	59098.53
505.18	59391.09
505.36	60013.68
505.53	60039.42
505.71	60018.36
505.88	60402.21
506.06	59674.30
506.23	59323.22
506.41	59028.31
506.58	59077.46
506.76	59189.81
506.93	59210.87
507.11	58787.24
507.28	59016.61
507.46	58609.35
507.63	58073.37
507.81	57769.10
507.98	58284.02
508.16	58705.32
508.33	59295.13
508.50	59749.20
508.68	59910.69
508.85	60594.13
509.03	60320.29
509.20	60411.57
509.38	59482.37
509.55	58834.05
509.73	58997.88
509.90	59348.96
510.08	59536.21
510.25	59943.46
510.42	59606.42
510.60	59206.19
510.77	59473.01
510.95	60170.49
511.12	60390.50
511.30	60376.46
511.47	60793.07
511.64	60591.79
511.82	60516.89
511.99	59491.74
512.17	59327.90
512.34	59035.33
512.51	59025.97
512.69	59231.94
512.86	59440.24
513.04	59882.61
513.21	59807.71
513.38	59487.06
513.56	59025.97
513.73	58382.32
513.90	58651.48
514.08	58756.81
514.25	58827.02
514.43	59135.98
514.60	59381.73
514.77	59447.27
514.95	59348.96
515.12	59370.03
515.29	59536.21
515.47	59966.87
515.64	60217.30
515.81	59870.90
515.99	59192.15
516.16	57914.22
516.33	55704.75
516.51	54330.86
516.68	53808.92
516.85	53223.78
517.03	53696.57
517.20	56196.26
517.37	58464.24
517.54	59339.60
517.72	58967.46
517.89	56722.88
518.06	54155.32
518.24	54831.73
518.41	56486.49
518.58	58199.76
518.75	58429.13
518.93	58300.40
519.10	58457.22
519.27	58782.55
519.45	59171.08
519.62	59653.23
519.79	59922.40
519.96	59861.54
520.14	59515.14
520.31	58599.99
520.48	58684.25
520.65	59112.57
520.83	59859.20
521.00	60310.92
521.17	59800.69
521.34	59302.15
521.52	59732.81
521.69	60378.80
521.86	60715.84
522.03	60322.63
522.20	59311.52
522.38	58239.55
522.55	58277.00
522.72	58995.54
522.89	58866.81
523.07	59009.59
523.24	59353.65
523.41	60331.99
523.58	60498.17
523.75	61055.21
523.92	60692.43
524.10	60851.59
524.27	60849.25
524.44	60507.53
524.61	60444.33
524.78	59950.48
524.96	60032.40
525.13	60053.47
525.30	60350.71
525.47	60809.46
525.64	60645.62
525.81	60130.70
525.98	58749.79
526.16	57401.64
526.33	56617.56
526.50	56493.51
526.67	56023.06
526.84	56809.48
527.01	57804.21
527.18	58412.75
527.36	59208.53
527.53	60168.15
527.70	60402.21
527.87	59765.58
528.04	59203.85
528.21	59819.41
528.38	60411.57
528.55	61059.90
528.72	61034.15
528.89	61385.23
529.07	61169.90
529.24	60563.70
529.41	59882.61
529.58	59339.60
529.75	59615.79
529.92	59997.29
530.09	60257.09
530.26	60912.44
530.43	61036.49
530.60	61027.13
530.77	61291.61
530.94	61338.42
531.11	60835.20
531.28	60430.29
531.46	60317.95
531.63	60413.91
531.80	60383.48
531.97	59955.16
532.14	59299.81
532.31	58377.64
532.48	57640.37
532.65	57607.61
532.82	58583.61
532.99	59700.04
533.16	59990.27
533.33	60364.76
533.50	60193.90
533.67	59714.09
533.84	59255.34
534.01	59437.90
534.18	59667.28
534.35	59838.14
534.52	59564.29
534.69	59922.40
534.86	60390.50
535.03	60416.25
535.20	60842.23
535.37	61095.00
535.54	61371.19
535.71	60809.46
535.88	60690.09
536.05	60111.98
536.22	59646.21
536.38	59311.52
536.55	59007.25
536.72	58494.67
536.89	58501.69
537.06	59271.73
537.23	60140.07
537.40	60526.25
537.57	60308.58
537.74	59985.59
537.91	59985.59
538.08	59945.80
538.25	59788.98
538.42	60247.73
538.59	59971.55
538.75	59360.67
538.92	59199.17
539.09	59114.91
539.26	58581.27
539.43	58695.95
539.60	58747.45
539.77	58820.00
539.94	58789.58
540.11	58003.16
540.28	57476.54
540.44	57652.08
540.61	58120.18
540.78	58181.04
540.95	58681.91
541.12	58922.99
541.29	59035.33
541.46	59360.67
541.62	59533.87
541.79	59386.41
541.96	58532.12
542.13	58770.85
542.30	58920.65
542.47	59173.42
542.63	59049.38
542.80	58885.54
542.97	58983.84
543.14	58543.82
543.31	58738.08
543.48	59215.55
543.64	60154.11
543.81	60437.31
543.98	60079.21
544.15	59388.75
544.32	58887.88
544.48	59011.93
544.65	59285.77
544.82	59779.62
544.99	59454.29
545.16	58965.12
545.32	58993.20
545.49	59723.45
545.66	60011.34
545.83	59554.93
546.00	59353.65
546.16	59112.57
546.33	58925.33
546.50	59084.48
546.67	59348.96
546.83	59075.12
547.00	59089.16
547.17	58721.70
547.34	57998.48
547.50	57799.53
547.67	58473.60
547.84	58293.38
548.00	58714.68
548.17	59180.45
548.34	59093.85
548.51	58749.79
548.67	59182.79
548.84	59187.47
549.01	59157.04
549.18	59016.61
549.34	58763.83
549.51	58913.62
549.68	58836.39
549.84	58557.86
550.01	58541.48
550.18	58394.03
550.34	58319.13
550.51	58583.61
550.68	58604.67
550.84	58075.71
551.01	58529.78
551.18	58230.19
551.34	58553.18
551.51	58637.44
551.68	59238.96
551.84	58939.37
552.01	58845.75
552.18	58820.00
552.34	57893.15
552.51	57645.05
552.68	57570.16
552.84	58134.23
553.01	58319.13
553.18	58145.93
553.34	58258.27
553.51	58492.33
553.67	58639.78
553.84	58670.21
554.01	58724.04
554.17	58429.13
554.34	58635.10
554.51	58789.58
554.67	59007.25
554.84	58850.43
555.00	58436.16
555.17	58094.44
555.33	58370.62
555.50	58361.26
555.67	58415.09
555.83	57890.81
556.00	57801.87
556.16	57752.72
556.33	57542.07
556.50	57258.87
556.66	57181.63
556.83	57088.01
556.99	57106.73
557.16	57389.94
557.32	57663.78
557.49	57968.05
557.65	57794.85
557.82	57598.24
557.98	57474.20
558.15	57233.12
558.32	56456.06
558.48	55461.33
558.65	55838.16
558.81	56175.20
558.98	56409.25
559.14	56736.93
559.31	56975.66
559.47	56573.09
559.64	56444.36
559.80	55922.42
559.97	56369.46
560.13	56687.78
560.30	57408.66
560.46	57811.23
560.63	57858.04
560.79	58159.97
560.96	57659.10
561.12	56638.62
561.29	55854.54
561.45	55891.99
561.61	56493.51
561.78	56706.50
561.94	56692.46
562.11	56762.67
562.27	56530.96
562.44	56647.99
562.60	57017.79
562.77	57200.35
562.93	57102.05
563.10	57090.35
563.26	56460.74
563.42	56671.39
563.59	56467.76
563.75	56435.00
563.92	56425.64
564.08	56219.67
564.24	56559.05
564.41	56563.73
564.57	56580.11
564.74	56474.79
564.90	56451.38
565.07	56048.81
565.23	55859.23
565.39	55395.80
565.56	55215.58
565.72	54951.10
565.88	55386.44
566.05	55374.73
566.21	55508.14
566.38	55814.76
566.54	55803.05
566.70	56041.79
566.87	56512.23
567.03	56315.63
567.19	56432.66
567.36	56259.46
567.52	56058.17
567.68	55838.16
567.85	55281.11
568.01	55070.46
568.17	54529.80
568.34	54623.42
568.50	54724.07
568.66	54494.69
568.83	55025.99
568.99	55173.45
569.15	55491.76
569.32	55402.82
569.48	54864.50
569.64	55072.81
569.81	54663.21
569.97	54391.71
570.13	54590.66
570.30	53743.38
570.46	53776.15
570.62	52905.47
570.78	52818.87
570.95	53340.81
571.11	53900.20
571.27	54286.39
571.43	54101.48
571.60	54607.04
571.76	54609.38
571.92	54923.01
572.09	55054.08
572.25	55124.30
572.41	55089.19
572.57	54913.65
572.74	54759.17
572.90	54588.31
573.06	54473.63
573.22	54588.31
573.38	54560.23
573.55	54829.39
573.71	54791.94
573.87	54450.22
574.03	54522.78
574.20	54349.58
574.36	54057.01
574.52	54176.38
574.68	53656.78
574.84	53411.02
575.01	53029.52
575.17	53141.86
575.33	53214.42
575.49	53485.92
575.65	53614.65
575.82	53359.53
575.98	53205.06
576.14	53357.19
576.30	53806.58
576.46	53675.51
576.62	54035.95
576.79	53609.97
576.95	53064.63
577.11	53254.21
577.27	53542.10
577.43	53345.49
577.59	53041.22
577.75	52762.70
577.92	52112.03
578.08	51915.42
578.24	52048.83
578.40	52364.81
578.56	52523.96
578.72	52446.72
578.88	52594.18
579.04	52769.72
579.21	52956.96
579.37	53048.24
579.53	53134.84
579.69	52858.66
579.85	53202.72
580.01	52898.45
580.17	52605.88
580.33	52313.31
580.49	52575.45
580.65	52849.30
580.82	52896.11
580.98	53057.60
581.14	53181.65
581.30	52753.33
581.46	52823.55
581.62	52980.37
581.78	52903.13
581.94	53212.08
582.10	52903.13
582.26	53315.06
582.42	53258.89
582.58	53301.02
582.74	53137.18
582.90	53090.37
583.06	52795.46
583.22	53001.43
583.38	52809.51
583.54	52823.55
583.70	52994.41
583.86	52666.73
584.02	52516.94
584.18	52720.57
584.34	52814.19
584.50	52500.56
584.66	52369.49
584.82	51859.25
584.98	51899.04
585.14	51697.75
585.30	50967.51
