SpectraSuite Data File
++++++++++++++++++++++++++++++++++++
Date: Mon Oct 07 14:53:29 GMT-05:00 2013
User: price-jones
Dark Spectrum Present: No
Reference Spectrum Present: No
Number of Sampled Component Spectra: 1
Spectrometers: USB2+H05261
Integration Time (usec): 100000 (USB2+H05261)
Spectra Averaged: 1 (USB2+H05261)
Boxcar Smoothing: 0 (USB2+H05261)
Correct for Electrical Dark: No (USB2+H05261)
Strobe/Lamp Enabled: No (USB2+H05261)
Correct for Detector Non-linearity: No (USB2+H05261)
Correct for Stray Light: No (USB2+H05261)
Number of Pixels in Processed Spectrum: 2048
>>>>>Begin Processed Spectral Data<<<<<
365.73	0.00
365.92	0.00
366.12	0.00
366.32	0.00
366.52	0.00
366.72	0.00
366.91	0.00
367.11	0.00
367.31	0.00
367.51	0.00
367.70	0.00
367.90	0.00
368.10	0.00
368.30	0.00
368.49	0.00
368.69	0.00
368.89	0.00
369.09	0.00
369.28	0.00
369.48	0.00
369.68	0.00
369.87	0.00
370.07	0.00
370.27	0.00
370.47	592.16
370.66	3122.27
370.86	3590.38
371.06	3992.95
371.25	4177.86
371.45	3639.53
371.65	3323.56
371.84	3204.19
372.04	3269.73
372.24	3620.81
372.44	3875.93
372.63	3927.42
372.83	3543.57
373.03	3089.51
373.22	2792.26
373.42	3014.61
373.62	3449.95
373.81	3840.82
374.01	3742.52
374.21	3358.67
374.40	3110.57
374.60	3337.60
374.79	3555.27
374.99	4280.84
375.19	4519.57
375.38	4622.56
375.58	4283.18
375.78	4243.39
375.97	4318.29
376.17	4491.49
376.37	4451.70
376.56	4718.52
376.76	4924.49
376.95	5165.56
377.15	5738.99
377.35	5785.80
377.54	5977.73
377.74	6242.21
377.93	6164.97
378.13	5928.58
378.33	5746.02
378.52	5280.25
378.72	5118.75
378.91	5055.56
379.11	4884.70
379.31	4697.46
379.50	4545.32
379.70	4973.64
379.89	5668.78
380.09	5865.38
380.28	6186.04
380.48	5895.81
380.68	5919.21
380.87	5767.08
381.07	5430.04
381.26	4908.10
381.46	4695.11
381.65	4552.34
381.85	4421.27
382.04	4238.71
382.24	4004.66
382.43	3698.05
382.63	3693.37
382.83	3688.68
383.02	3817.41
383.22	3655.92
383.41	3728.47
383.61	3964.87
383.80	4526.60
384.00	5137.48
384.19	5785.80
384.39	6101.78
384.58	6036.24
384.78	5816.23
384.97	5996.45
385.17	5556.43
385.36	5254.50
385.56	4985.34
385.75	5359.83
385.95	5565.79
386.14	6150.93
386.34	6176.67
386.53	5853.68
386.72	5514.30
386.92	5640.69
387.11	5977.73
387.31	6230.51
387.50	6087.73
387.70	5867.72
387.89	5905.17
388.09	5884.11
388.28	5959.00
388.48	6164.97
388.67	6284.34
388.86	6970.12
389.06	7517.80
389.25	7988.25
389.45	8248.05
389.64	7957.82
389.84	7978.89
390.03	7843.14
390.22	7815.05
390.42	8131.02
390.61	8758.28
390.81	9200.65
391.00	9160.86
391.19	9327.03
391.39	9088.30
391.58	8538.27
391.78	7925.05
391.97	7660.57
392.16	7236.94
392.36	6628.40
392.55	5270.89
392.75	4191.90
392.94	3571.66
393.13	3445.27
393.33	4049.13
393.52	5006.41
393.71	6214.12
393.91	7033.31
394.10	7698.02
394.29	8390.82
394.49	9153.84
394.68	9680.46
394.88	9839.61
395.07	10384.96
395.26	10174.31
395.46	9860.68
395.65	9130.43
395.84	8257.41
396.04	6860.11
396.23	5589.20
396.42	4662.35
396.62	4290.20
396.81	5226.42
397.00	6670.53
397.19	8489.12
397.39	10054.94
397.58	11154.99
397.77	11927.37
397.97	12446.97
398.16	12217.60
398.35	12959.55
398.55	13270.84
398.74	13872.36
398.93	14026.83
399.12	13708.52
399.32	13268.50
399.51	13628.94
399.70	14583.88
399.90	14471.53
400.09	14626.01
400.28	14005.77
400.47	14303.01
400.67	14909.21
400.86	15499.03
401.05	15367.96
401.24	15655.84
401.44	15815.00
401.63	15644.14
401.82	15815.00
402.01	15836.06
402.21	15915.64
402.40	16116.93
402.59	15896.92
402.78	15077.73
402.97	14738.35
403.17	15115.18
403.36	15957.77
403.55	16652.91
403.74	16945.48
403.93	16240.98
404.13	14932.62
404.32	14611.96
404.51	15225.18
404.70	16650.57
404.89	16491.41
405.09	16149.70
405.28	15335.19
405.47	15695.63
405.66	15634.78
405.85	15147.95
406.05	14789.85
406.24	14761.76
406.43	15620.74
406.62	16365.03
406.81	16634.19
407.00	15672.23
407.20	15279.02
407.39	15662.86
407.58	16498.44
407.77	16636.53
407.96	17233.36
408.15	17247.41
408.34	17699.13
408.54	18455.12
408.73	18398.95
408.92	18434.06
409.11	17940.21
409.30	17301.24
409.49	16182.46
409.68	14995.81
409.87	14618.99
410.07	15541.16
410.26	16496.10
410.45	17689.77
410.64	18054.89
410.83	18696.20
411.02	19227.50
411.21	19836.04
411.40	19571.56
411.59	19857.10
411.78	19419.42
411.98	19288.35
412.17	19578.58
412.36	19220.48
412.55	19379.64
412.74	18841.31
412.93	18623.64
413.12	18728.97
413.31	20126.27
413.50	20545.22
413.69	20978.22
413.88	20236.27
414.07	19358.57
414.26	19686.25
414.45	20589.69
414.64	20559.27
414.83	20556.93
415.02	20360.32
415.22	20285.42
415.41	20535.86
415.60	21378.45
415.79	22022.10
415.98	22759.37
416.17	22841.29
416.36	22192.96
416.55	21811.45
416.74	20992.26
416.93	20311.17
417.12	20184.78
417.31	20706.72
417.50	21102.27
417.69	21535.27
417.88	22001.04
418.07	21479.10
418.26	21451.01
418.45	21186.53
418.64	22092.32
418.83	22799.16
419.02	22546.38
419.21	22450.42
419.39	21336.32
419.58	20027.96
419.77	20264.36
419.96	21268.45
420.15	22590.85
420.34	22951.29
420.53	24151.99
420.72	24514.77
420.91	24245.61
421.10	23665.16
421.29	23768.14
421.48	22941.93
421.67	23922.62
421.86	23438.12
422.05	21848.90
422.24	19536.45
422.43	19428.79
422.61	21256.75
422.80	23234.50
422.99	23208.75
423.18	22300.62
423.37	21848.90
423.56	21886.35
423.75	22192.96
423.94	22586.17
424.13	21692.08
424.32	21731.87
424.50	21991.67
424.69	21128.02
424.88	21586.76
425.07	21612.51
425.26	21394.84
425.45	21209.93
425.64	20863.54
425.83	20872.90
426.01	22246.79
426.20	22551.06
426.39	22686.81
426.58	21041.42
426.77	19536.45
426.96	18735.99
427.15	19370.27
427.33	20940.77
427.52	21682.72
427.71	21926.14
427.90	21558.67
428.09	21605.49
428.28	21102.27
428.46	20056.05
428.65	19899.23
428.84	20318.19
429.03	20765.23
429.22	19791.57
429.40	18567.47
429.59	16919.73
429.78	15117.52
429.97	14764.10
430.16	15321.15
430.34	15414.77
430.53	15477.96
430.72	15611.37
430.91	17109.32
431.10	20397.77
431.28	23644.09
431.47	26043.14
431.66	26052.50
431.85	23859.42
432.03	22132.11
432.22	20704.38
432.41	21750.60
432.60	24119.22
432.79	25223.95
432.97	25628.87
433.16	24938.41
433.35	23094.07
433.54	20741.83
433.72	19281.33
433.91	19653.48
434.10	22281.90
434.28	23868.78
434.47	25186.50
434.66	24783.93
434.85	24198.80
435.03	24175.39
435.22	24577.97
435.41	26228.04
435.59	26281.88
435.78	26455.08
435.97	27014.46
436.16	27271.92
436.34	27178.30
436.53	26707.85
436.72	26717.22
436.90	24989.90
437.09	25202.89
437.28	24346.25
437.46	25235.66
437.65	25326.94
437.84	23976.45
438.02	21343.35
438.21	21458.03
438.40	22810.86
438.58	24858.83
438.77	25570.35
438.96	25493.12
439.14	26441.03
439.33	27131.49
439.52	27880.46
439.70	27316.39
439.89	26204.64
440.08	25666.31
440.26	26033.78
440.45	26862.33
440.63	28231.54
440.82	29673.31
441.01	29055.41
441.19	29277.76
441.38	29394.79
441.57	30494.84
441.75	30969.97
441.94	31122.10
442.12	30871.67
442.31	31817.24
442.50	31742.35
442.68	31180.62
442.87	31009.76
443.05	30195.25
443.24	30347.39
443.43	31229.77
443.61	32086.40
443.80	32023.21
443.98	30307.60
444.17	30607.19
444.35	32414.08
444.54	32968.79
444.73	32449.19
444.91	31442.76
445.10	29869.92
445.28	28453.89
445.47	28119.20
445.65	28599.01
445.84	29036.69
446.02	30354.41
446.21	30501.86
446.39	30539.31
446.58	31564.46
446.77	31559.78
446.95	32055.98
447.14	32800.27
447.32	33333.91
447.51	32629.41
447.69	31484.89
447.88	31311.69
448.06	31248.49
448.25	31990.44
448.43	32591.96
448.62	31438.08
448.80	31735.32
448.99	31679.15
449.17	32205.77
449.36	32268.97
449.54	33069.43
449.73	33488.38
449.91	34553.33
450.10	35637.00
450.28	35534.01
450.46	35126.76
450.65	35424.01
450.83	35192.30
451.02	34150.76
451.20	33869.89
451.39	34237.36
451.57	33825.42
451.76	34150.76
451.94	33617.11
452.13	33163.05
452.31	31793.84
452.49	30029.07
452.68	30597.82
452.86	30665.70
453.05	31101.04
453.23	31606.59
453.42	32706.65
453.60	33418.17
453.78	33390.08
453.97	32877.51
454.15	33677.97
454.34	32685.58
454.52	32804.95
454.70	32053.64
454.89	32425.78
455.07	32727.71
455.26	33420.51
455.44	34213.95
455.62	35159.53
455.81	35005.05
455.99	35189.95
456.17	34415.24
456.36	34611.84
456.54	35569.12
456.73	35426.35
456.91	36219.79
457.09	36282.98
457.28	37085.79
457.46	35761.05
457.64	35651.04
457.83	34094.58
458.01	33773.93
458.19	34703.12
458.38	34497.16
458.56	35999.78
458.74	35449.75
458.93	34686.74
459.11	34789.72
459.29	34560.35
459.48	34897.39
459.66	34644.61
459.84	34955.90
460.03	35543.38
460.21	35093.99
460.39	36364.90
460.57	36533.42
460.76	36886.84
460.94	36825.99
461.12	36374.27
461.31	35978.72
461.49	36079.36
461.67	36102.76
461.85	37476.66
462.04	37663.90
462.22	37329.20
462.40	37668.58
462.59	37266.01
462.77	37869.87
462.95	37710.71
463.13	36453.84
463.32	36266.60
463.50	36624.70
463.68	36538.10
463.86	36334.48
464.05	35482.52
464.23	35042.50
464.41	35112.72
464.59	34443.32
464.78	36201.07
464.96	36053.61
465.14	35522.31
465.32	36313.41
465.50	37584.32
465.69	37757.52
465.87	36940.68
466.05	36369.58
466.23	34473.75
466.41	33205.18
466.60	34644.61
466.78	34410.56
466.96	35339.75
467.14	35393.58
467.32	36301.71
467.51	36474.91
467.69	34529.92
467.87	35150.17
468.05	35721.26
468.23	35913.18
468.41	36044.25
468.60	35878.07
468.78	36884.50
468.96	35913.18
469.14	36732.37
469.32	36683.22
469.50	35393.58
469.69	35285.92
469.87	35077.61
470.05	34967.60
470.23	34895.05
470.41	34972.28
470.59	35321.02
470.77	35854.67
470.95	36400.01
471.14	36931.31
471.32	37251.97
471.50	38983.96
471.68	39145.46
471.86	39218.02
472.04	39545.69
472.22	39489.52
472.40	37418.14
472.58	37132.60
472.77	37263.67
472.95	37619.43
473.13	38738.21
473.31	37357.29
473.49	38045.41
473.67	38696.08
473.85	38466.70
474.03	39910.82
474.21	40114.44
474.39	40360.20
474.57	40341.47
474.75	40610.64
474.93	40308.71
475.12	38848.21
475.30	39576.12
475.48	39871.03
475.66	40259.55
475.84	39335.04
476.02	39360.79
476.20	38518.20
476.38	39704.85
476.56	40261.90
476.74	41294.07
476.92	41275.35
477.10	41701.32
477.28	43140.75
477.46	42831.80
477.64	43587.80
477.82	43459.07
478.00	43863.98
478.18	43124.37
478.36	42925.42
478.54	42944.15
478.72	43051.81
478.90	43962.28
479.08	45488.31
479.26	45591.30
479.44	45790.24
479.62	45588.95
479.80	45464.91
479.98	45734.07
480.16	45556.19
480.34	45464.91
480.52	46204.52
480.70	45799.60
480.88	46279.41
481.06	47173.50
481.24	47412.23
481.41	48318.02
481.59	48818.89
481.77	48264.19
481.95	47913.11
482.13	47737.57
482.31	47695.44
482.49	48512.28
482.67	48240.78
482.85	48486.54
483.03	48746.34
483.21	49602.97
483.39	49216.78
483.57	48830.60
483.74	48247.80
483.92	48355.47
484.10	49205.08
484.28	49970.44
484.46	50127.25
484.64	50536.85
484.82	49514.03
485.00	49029.54
485.18	48477.18
485.35	47325.63
485.53	44137.82
485.71	40811.92
485.89	40135.51
486.07	41443.87
486.25	45059.99
486.43	47459.04
486.61	48425.68
486.78	47936.51
486.96	48367.17
487.14	49834.69
487.32	50820.05
487.50	51466.04
487.68	52432.68
487.85	52973.34
488.03	52861.00
488.21	52355.44
488.39	51889.68
488.57	51063.47
488.75	50979.21
488.92	51777.33
489.10	53897.86
489.28	55044.72
489.46	55634.53
489.64	55566.66
489.81	55498.78
489.99	55323.24
490.17	55440.27
490.35	55777.31
490.53	55489.42
490.70	54607.04
490.88	54899.61
491.06	55807.73
491.24	55618.15
491.41	54906.63
491.59	53179.31
491.77	52397.57
491.95	53404.00
492.13	54653.85
492.30	55845.18
492.48	56664.37
492.66	57120.77
492.84	56926.51
493.01	56678.41
493.19	56093.28
493.37	55908.38
493.54	55746.88
493.72	56493.51
493.90	57148.86
494.08	57752.72
494.25	58475.94
494.43	58419.77
494.61	58827.02
494.79	58658.51
494.96	58670.21
495.14	58211.46
495.32	57209.71
495.49	56374.14
495.67	57696.55
495.85	58700.64
496.02	59166.40
496.20	59178.10
496.38	58658.51
496.55	58539.14
496.73	59119.59
496.91	59171.08
497.09	59655.57
497.26	59711.75
497.44	59217.89
497.62	58890.22
497.79	58071.03
497.97	56900.76
498.14	57095.03
498.32	58124.86
498.50	58960.44
498.67	59578.34
498.85	59234.28
499.03	59559.61
499.20	59746.86
499.38	59957.50
499.56	59519.82
499.73	58892.56
499.91	58822.34
500.08	58319.13
500.26	57661.44
500.44	58106.14
500.61	58707.66
500.79	58623.40
500.97	58340.19
501.14	58277.00
501.32	57921.24
501.49	57921.24
501.67	58171.67
501.84	58770.85
502.02	58812.98
502.20	59126.61
502.37	59388.75
502.55	59330.24
502.72	59781.96
502.90	60418.59
503.07	59898.99
503.25	59662.60
503.43	58983.84
503.60	58277.00
503.78	57743.36
503.95	58080.39
504.13	59311.52
504.30	60072.19
504.48	60147.09
504.65	59597.06
504.83	59774.94
505.01	60170.49
505.18	60463.06
505.36	61247.14
505.53	61172.24
505.71	61146.50
505.88	61235.44
506.06	60774.35
506.23	60568.38
506.41	60030.06
506.58	60474.76
506.76	60367.10
506.93	60395.18
507.11	60100.28
507.28	60331.99
507.46	59845.16
507.63	59283.43
507.81	59187.47
507.98	59178.10
508.16	59861.54
508.33	60446.68
508.50	60825.84
508.68	60910.10
508.85	61502.26
509.03	61448.42
509.20	61315.01
509.38	60706.47
509.55	59840.48
509.73	60282.84
509.90	60460.72
510.08	60760.31
510.25	60610.51
510.42	60533.28
510.60	60521.57
510.77	60757.97
510.95	61385.23
511.12	61265.86
511.30	61579.49
511.47	61911.85
511.64	61696.52
511.82	61317.35
511.99	60622.22
512.17	60364.76
512.34	60025.38
512.51	60247.73
512.69	60280.50
512.86	60385.82
513.04	60793.07
513.21	60692.43
513.38	60650.30
513.56	60051.12
513.73	59554.93
513.90	59847.50
514.08	59732.81
514.25	60219.64
514.43	60322.63
514.60	60353.05
514.77	60596.47
514.95	60746.26
515.12	60430.29
515.29	60797.76
515.47	61219.05
515.64	61237.78
515.81	61010.74
515.99	60561.36
516.16	59166.40
516.33	56959.28
516.51	55664.96
516.68	54805.98
516.85	54766.20
517.03	54976.84
517.20	57469.51
517.37	59690.68
517.54	60673.71
517.72	60229.01
517.89	57907.19
518.06	55599.43
518.24	55922.42
518.41	57806.55
518.58	59245.98
518.75	59487.06
518.93	59629.83
519.10	59388.75
519.27	60097.94
519.45	60013.68
519.62	60788.39
519.79	61066.92
519.96	61029.47
520.14	60519.23
520.31	59753.88
520.48	59739.83
520.65	59908.35
520.83	60921.80
521.00	61343.10
521.17	60992.02
521.34	60477.10
521.52	60790.73
521.69	61300.97
521.86	61628.65
522.03	61640.35
522.20	60392.84
522.38	59498.76
522.55	59489.40
522.72	59971.55
522.89	60193.90
523.07	60287.52
523.24	60608.17
523.41	61338.42
523.58	61853.34
523.75	62087.39
523.92	61897.81
524.10	62103.77
524.27	61717.59
524.44	61652.05
524.61	61401.61
524.78	61352.46
524.96	61083.30
525.13	61368.85
525.30	61420.34
525.47	62075.69
525.64	61766.74
525.81	61123.09
525.98	59805.37
526.16	58398.71
526.33	57993.79
526.50	57822.93
526.67	57277.59
526.84	57977.41
527.01	58834.05
527.18	59529.19
527.36	60512.21
527.53	61216.71
527.70	61619.28
527.87	60903.08
528.04	60381.14
528.21	60872.65
528.38	61560.77
528.55	62197.40
528.72	62117.82
528.89	62417.41
529.07	62244.21
529.24	61623.96
529.41	60940.53
529.58	60528.59
529.75	60561.36
529.92	60968.61
530.09	61183.94
530.26	61867.38
530.43	62155.27
530.60	62129.52
530.77	62218.46
530.94	62452.51
531.11	61961.00
531.28	61687.16
531.46	61380.55
531.63	61586.52
531.80	61434.38
531.97	60982.66
532.14	60481.78
532.31	59449.61
532.48	58731.06
532.65	58843.41
532.82	59751.54
532.99	60694.77
533.16	61148.84
533.33	61740.99
533.50	61394.59
533.67	60706.47
533.84	60526.25
534.01	60547.32
534.18	60790.73
534.35	60970.96
534.52	60903.08
534.69	61141.81
534.86	61305.65
535.03	61600.56
535.20	61890.79
535.37	62157.61
535.54	62569.54
535.71	62087.39
535.88	61827.59
536.05	61125.43
536.22	60874.99
536.38	60643.28
536.55	60144.75
536.72	59622.81
536.89	59384.07
537.06	60362.42
537.23	61153.52
537.40	61324.38
537.57	61310.33
537.74	61092.66
537.91	61085.64
538.08	60963.93
538.25	61216.71
538.42	61251.82
538.59	61020.11
538.75	60268.79
538.92	60226.66
539.09	60055.81
539.26	59793.67
539.43	59683.66
539.60	59798.35
539.77	60006.65
539.94	59898.99
540.11	59166.40
540.28	58808.30
540.44	58857.45
540.61	59030.65
540.78	59281.09
540.95	59709.41
541.12	59859.20
541.29	60219.64
541.46	60481.78
541.62	60601.15
541.79	60619.88
541.96	60142.41
542.13	60048.78
542.30	60212.62
542.47	60217.30
542.63	60090.91
542.80	59887.29
542.97	59957.50
543.14	59889.63
543.31	59838.14
543.48	60371.78
543.64	61305.65
543.81	61509.28
543.98	61102.03
544.15	60434.97
544.32	60119.00
544.48	60053.47
544.65	60505.19
544.82	61099.68
544.99	60626.90
545.16	60229.01
545.32	60116.66
545.49	60662.00
545.66	60973.30
545.83	60647.96
546.00	60360.08
546.16	59917.71
546.33	60264.11
546.50	60331.99
546.67	60713.50
546.83	60140.07
547.00	60205.60
547.17	59594.72
547.34	59133.63
547.50	59014.27
547.67	59508.12
547.84	59571.32
548.00	59887.29
548.17	60182.19
548.34	60116.66
548.51	60058.15
548.67	60196.24
548.84	60322.63
549.01	60299.22
549.18	60034.74
549.34	60065.17
549.51	59910.69
549.68	60016.02
549.84	59934.10
550.01	59686.00
550.18	59578.34
550.34	59866.22
550.51	59700.04
550.68	59863.88
550.84	59299.81
551.01	59454.29
551.18	59559.61
551.34	59681.32
551.51	60116.66
551.68	60093.25
551.84	60238.37
552.01	60016.02
552.18	59931.76
552.34	59175.76
552.51	58761.49
552.68	58805.96
552.84	59187.47
553.01	59597.06
553.18	59348.96
553.34	59419.18
553.51	59442.59
553.67	59819.41
553.84	60023.04
554.01	59826.43
554.17	59636.85
554.34	59693.02
554.51	59828.77
554.67	60158.79
554.84	59877.93
555.00	59601.74
555.17	59423.86
555.33	59566.63
555.50	59391.09
555.67	59554.93
555.83	59398.12
556.00	59007.25
556.16	59091.51
556.33	58738.08
556.50	58529.78
556.66	58499.35
556.83	58241.89
556.99	58557.86
557.16	58518.07
557.32	58714.68
557.49	58972.14
557.65	58887.88
557.82	58918.31
557.98	58801.28
558.15	58253.59
558.32	57776.12
558.48	56952.26
558.65	56989.70
558.81	57483.56
558.98	57729.31
559.14	57944.64
559.31	57818.25
559.47	57993.79
559.64	57719.95
559.80	57228.44
559.97	57338.44
560.13	57619.31
560.30	58527.44
560.46	59105.55
560.63	59126.61
560.79	59332.58
560.96	58946.39
561.12	57853.36
561.29	56996.73
561.45	57027.15
561.61	57525.69
561.78	58094.44
561.94	58021.88
562.11	57982.09
562.27	57607.61
562.44	57893.15
562.60	58204.44
562.77	58525.10
562.93	58302.74
563.10	58293.38
563.26	57731.65
563.42	57755.06
563.59	57560.79
563.75	57673.14
563.92	57645.05
564.08	57675.48
564.24	57834.64
564.41	58005.50
564.57	57790.17
564.74	57614.63
564.90	57595.90
565.07	57638.03
565.23	57221.42
565.39	56435.00
565.56	56322.65
565.72	56191.58
565.88	56537.98
566.05	56662.03
566.21	56921.83
566.38	56804.80
566.54	57083.33
566.70	57322.06
566.87	57687.18
567.03	57574.84
567.19	57710.59
567.36	57595.90
567.52	57317.38
567.68	57059.92
567.85	56563.73
568.01	56161.15
568.17	56055.83
568.34	55913.06
568.50	55943.48
568.66	55973.91
568.83	56549.68
568.99	56282.86
569.15	56687.78
569.32	56404.57
569.48	56250.09
569.64	56229.03
569.81	55861.57
569.97	55538.57
570.13	55718.79
570.30	55428.57
570.46	54965.14
570.62	54335.54
570.78	54277.02
570.95	54703.00
571.11	55222.60
571.27	55430.91
571.43	55760.92
571.60	55887.31
571.76	55910.72
571.92	56247.75
572.09	56479.47
572.25	56357.76
572.41	56334.35
572.57	56238.39
572.74	56399.89
572.90	55723.47
573.06	56034.77
573.22	55629.85
573.38	55931.78
573.55	55765.60
573.71	56222.01
573.87	55959.87
574.03	55880.29
574.20	55770.28
574.36	55365.37
574.52	55131.32
574.68	55231.96
574.84	54883.22
575.01	54588.31
575.17	54204.47
575.33	54574.27
575.49	54805.98
575.65	54955.78
575.82	54873.86
575.98	54508.74
576.14	54897.27
576.30	55028.34
576.46	55164.09
576.62	55103.23
576.79	55276.43
576.95	54688.96
577.11	54614.06
577.27	55093.87
577.43	54894.92
577.59	54644.49
577.75	54183.40
577.92	53591.25
578.08	53127.82
578.24	53261.23
578.40	53771.47
578.56	53928.28
578.72	54012.54
578.88	54234.89
579.04	54253.62
579.21	54609.38
579.37	54457.24
579.53	54539.16
579.69	54234.89
579.85	54906.63
580.01	54312.13
580.17	54049.99
580.33	53921.26
580.49	54064.03
580.65	54298.09
580.82	54644.49
580.98	54438.52
581.14	54394.05
581.30	54438.52
581.46	54162.34
581.62	54351.92
581.78	54204.47
581.94	54548.53
582.10	54461.93
582.26	54384.69
582.42	54445.54
582.58	54717.04
582.74	54700.66
582.90	54372.99
583.06	54506.40
583.22	54436.18
583.38	54134.25
583.54	54155.32
583.70	54281.70
583.86	54220.85
584.02	54239.57
584.18	54277.02
584.34	54087.44
584.50	53827.64
584.66	53925.94
584.82	53539.75
584.98	53663.80
585.14	53003.77
