SpectraSuite Data File
++++++++++++++++++++++++++++++++++++
Date: Mon Oct 07 14:53:16 GMT-05:00 2013
User: price-jones
Dark Spectrum Present: No
Reference Spectrum Present: No
Number of Sampled Component Spectra: 1
Spectrometers: USB2+H05261
Integration Time (usec): 100000 (USB2+H05261)
Spectra Averaged: 1 (USB2+H05261)
Boxcar Smoothing: 0 (USB2+H05261)
Correct for Electrical Dark: No (USB2+H05261)
Strobe/Lamp Enabled: No (USB2+H05261)
Correct for Detector Non-linearity: No (USB2+H05261)
Correct for Stray Light: No (USB2+H05261)
Number of Pixels in Processed Spectrum: 2048
>>>>>Begin Processed Spectral Data<<<<<
365.73	0.00
365.92	0.00
366.12	0.00
366.32	0.00
366.52	0.00
366.72	0.00
366.91	0.00
367.11	0.00
367.31	0.00
367.51	0.00
367.70	0.00
367.90	0.00
368.10	0.00
368.30	0.00
368.49	0.00
368.69	0.00
368.89	0.00
369.09	0.00
369.28	0.00
369.48	0.00
369.68	0.00
369.87	0.00
370.07	0.00
370.27	0.00
370.47	1975.41
370.66	8112.30
370.86	9376.19
371.06	9893.44
371.25	9647.69
371.45	8985.32
371.65	8308.90
371.84	7857.18
372.04	8152.09
372.24	8872.97
372.44	9291.93
372.63	8826.16
372.83	8390.82
373.03	7358.64
373.22	6932.67
373.42	7468.65
373.62	8683.39
373.81	8985.32
374.01	8753.60
374.21	7918.03
374.40	7662.91
374.60	8086.55
374.79	9217.03
374.99	10532.41
375.19	10925.62
375.38	10698.59
375.58	10225.80
375.78	10153.24
375.97	10202.40
376.17	10431.77
376.37	10614.33
376.56	11052.01
376.76	11758.85
376.95	12313.56
377.15	13135.09
377.35	13778.73
377.54	14342.80
377.74	14436.42
377.93	14780.48
378.13	13666.39
378.33	12968.91
378.52	12154.40
378.72	11712.04
378.91	11442.88
379.11	11274.36
379.31	11068.39
379.50	11110.52
379.70	11953.12
379.89	13184.24
380.09	13914.48
380.28	14246.84
380.48	14047.90
380.68	13448.72
380.87	13238.07
381.07	12098.23
381.26	11403.09
381.46	10794.55
381.65	10377.94
381.85	10005.79
382.04	9287.25
382.24	8865.95
382.43	8676.37
382.63	8458.70
382.83	8379.12
383.02	8603.81
383.22	8198.90
383.41	8503.17
383.61	9076.60
383.80	10609.65
384.00	12032.69
384.19	13415.95
384.39	13745.97
384.58	13678.09
384.78	13645.32
384.97	13422.97
385.17	12603.78
385.36	11744.81
385.56	11358.62
385.75	11915.67
385.95	13298.92
386.14	13954.27
386.34	13783.41
386.53	13195.94
386.72	12390.80
386.92	12989.97
387.11	13291.90
387.31	13921.51
387.50	13467.44
387.70	13294.24
387.89	13275.52
388.09	13130.41
388.28	13348.08
388.48	13668.73
388.67	14649.41
388.86	16238.64
389.06	17207.62
389.25	17956.59
389.45	17862.97
389.64	17722.54
389.84	17500.19
390.03	17249.75
390.22	17451.03
390.42	18204.69
390.61	19590.28
390.81	20596.71
391.00	20952.48
391.19	20355.64
391.39	19386.66
391.58	18541.72
391.78	17415.93
391.97	16727.81
392.16	15356.25
392.36	13715.54
392.55	11061.37
392.75	8931.48
392.94	7679.30
393.13	7772.92
393.33	9273.20
393.52	11740.13
393.71	14272.59
393.91	15571.58
394.10	17296.56
394.29	19112.81
394.49	20421.17
394.68	21436.97
394.88	21462.71
395.07	22373.18
395.26	21846.56
395.46	21135.04
395.65	19686.25
395.84	17310.60
396.04	14265.57
396.23	11578.63
396.42	9717.90
396.62	9982.38
396.81	12053.76
397.00	15063.69
397.19	18766.42
397.39	21984.65
397.58	24751.17
397.77	25649.93
397.97	26572.10
398.16	27346.82
398.35	28063.02
398.55	28465.60
398.74	29612.46
398.93	30073.54
399.12	29986.94
399.32	29006.26
399.51	29575.01
399.70	31468.50
399.90	30759.32
400.09	30904.43
400.28	29933.11
400.47	30595.48
400.67	32343.86
400.86	32973.47
401.05	32446.85
401.24	32718.35
401.44	33790.31
401.63	33741.16
401.82	33860.53
402.01	33586.69
402.21	34134.37
402.40	34349.70
402.59	33273.06
402.78	31735.32
402.97	31576.17
403.17	32601.32
403.36	34220.97
403.55	35421.67
403.74	36041.91
403.93	33619.46
404.13	31314.03
404.32	31012.10
404.51	32980.49
404.70	34941.86
404.89	34827.17
405.09	34258.42
405.28	33202.84
405.47	33249.65
405.66	33324.55
405.85	32165.98
406.05	31468.50
406.24	32252.58
406.43	33462.64
406.62	34314.59
406.81	34220.97
407.00	33373.70
407.20	32575.58
407.39	32657.49
407.58	34302.89
407.77	35679.13
407.96	36645.77
408.15	37116.22
408.34	37373.67
408.54	38848.21
408.73	38955.88
408.92	38000.94
409.11	37158.34
409.30	35508.27
409.49	33209.86
409.68	31271.90
409.87	30572.08
410.07	32769.84
410.26	35140.80
410.45	36629.38
410.64	38403.51
410.83	39206.31
411.02	40404.67
411.21	40905.54
411.40	40470.20
411.59	40498.29
411.78	40488.93
411.98	40243.17
412.17	41036.61
412.36	40065.29
412.55	40383.60
412.74	39533.99
412.93	38763.95
413.12	39042.48
413.31	42883.30
413.50	42759.25
413.69	43351.40
413.88	41734.09
414.07	40896.18
414.26	41598.34
414.45	42775.63
414.64	42501.79
414.83	42522.85
415.02	42127.30
415.22	42321.57
415.41	42623.50
415.60	44149.53
415.79	45663.85
415.98	46483.04
416.17	46859.87
416.36	45441.50
416.55	44734.66
416.74	43344.38
416.93	41811.33
417.12	42211.56
417.31	42827.12
417.50	43098.62
417.69	44404.64
417.88	44402.30
418.07	44315.70
418.26	43927.17
418.45	43847.60
418.64	45586.61
418.83	46260.69
419.02	45823.01
419.21	45219.15
419.39	43370.13
419.58	42260.71
419.77	42471.36
419.96	44175.27
420.15	46012.59
420.34	47086.90
420.53	48418.66
420.72	48868.05
420.91	48596.54
421.10	48280.57
421.29	48154.18
421.48	46429.21
421.67	47636.92
421.86	46630.49
422.05	43423.96
422.24	40322.75
422.43	40306.37
422.61	43920.15
422.80	46763.90
422.99	46801.35
423.18	45326.81
423.37	44566.14
423.56	45041.27
423.75	45790.24
423.94	46347.29
424.13	44065.27
424.32	45029.57
424.50	44421.03
424.69	43742.27
424.88	44238.47
425.07	44123.78
425.26	44009.09
425.45	43700.14
425.64	43152.46
425.83	43349.06
426.01	45198.09
426.20	46024.29
426.39	45549.17
426.58	42721.80
426.77	39910.82
426.96	39065.88
427.15	40196.36
427.33	43725.89
427.52	44156.55
427.71	43908.45
427.90	43674.40
428.09	43735.25
428.28	42567.32
428.46	41420.46
428.65	41394.71
428.84	42012.62
429.03	42122.62
429.22	39751.66
429.40	37631.13
429.59	34525.24
429.78	30911.46
429.97	31232.11
430.16	31243.81
430.34	31606.59
430.53	31866.39
430.72	33481.36
430.91	36809.61
431.10	42478.38
431.28	48378.87
431.47	50658.56
431.66	50609.40
431.85	46871.57
432.03	44355.49
432.22	43093.94
432.41	44713.59
432.60	48350.79
432.79	49675.53
432.97	50445.57
433.16	49048.27
433.35	45280.00
433.54	41755.16
433.72	40156.57
433.91	41275.35
434.10	45549.17
434.28	47529.26
434.47	49223.81
434.66	48898.47
434.85	47901.40
435.03	48130.78
435.22	48846.98
435.41	50614.08
435.59	50703.03
435.78	51290.50
435.97	52044.15
436.16	51636.90
436.34	51779.67
436.53	51210.92
436.72	50946.44
436.90	49490.63
437.09	49258.91
437.28	48971.03
437.46	49930.65
437.65	49640.42
437.84	46412.82
438.02	44037.18
438.21	43873.34
438.40	46246.65
438.58	49024.86
438.77	49865.11
438.96	50127.25
439.14	51812.44
439.33	52107.35
439.52	52685.46
439.70	51950.53
439.89	50990.91
440.08	50258.32
440.26	50042.99
440.45	51540.94
440.63	53277.61
440.82	54894.92
441.01	54330.86
441.19	54576.61
441.38	54915.99
441.57	55606.45
441.75	55828.80
441.94	56097.96
442.12	55959.87
442.31	56474.79
442.50	56484.15
442.68	56273.50
442.87	55819.44
443.05	55433.25
443.24	56196.26
443.43	56722.88
443.61	56507.55
443.80	56856.29
443.98	55463.67
444.17	55201.53
444.35	56889.06
444.54	57343.12
444.73	57118.43
444.91	55580.70
445.10	54901.95
445.28	53439.11
445.47	52973.34
445.65	53474.22
445.84	54347.24
446.02	55199.19
446.21	55538.57
446.39	55805.39
446.58	56416.27
446.77	56633.94
446.95	56722.88
447.14	57441.43
447.32	57593.56
447.51	57027.15
447.69	55987.95
447.88	55927.10
448.06	56261.80
448.25	56963.96
448.43	56933.53
448.62	56446.70
448.80	56385.85
448.99	56376.48
449.17	56945.23
449.36	56463.08
449.54	57602.92
449.73	57705.91
449.91	58471.26
450.10	59065.76
450.28	59135.98
450.46	59302.15
450.65	59536.21
450.83	59196.83
451.02	58457.22
451.20	58391.68
451.39	58543.82
451.57	58562.54
451.76	58410.41
451.94	57928.26
452.13	57649.74
452.31	56247.75
452.49	54735.77
452.68	55618.15
452.86	55370.05
453.05	56512.23
453.23	57013.11
453.42	57464.83
453.60	57895.49
453.78	58003.16
453.97	57893.15
454.15	57900.17
454.34	57338.44
454.52	57839.32
454.70	56800.12
454.89	57226.10
455.07	57261.21
455.26	57310.36
455.44	58405.73
455.62	58820.00
455.81	58890.22
455.99	58548.50
456.17	58660.85
456.36	58628.08
456.54	59398.12
456.73	59517.48
456.91	59920.05
457.09	59859.20
457.28	60402.21
457.46	59426.20
457.64	59068.10
457.83	58223.17
458.01	57778.46
458.19	58611.70
458.38	58845.75
458.56	59381.73
458.74	58967.46
458.93	58719.36
459.11	58983.84
459.29	58820.00
459.48	58885.54
459.66	58625.74
459.84	59248.32
460.03	59271.73
460.21	59281.09
460.39	60179.85
460.57	59863.88
460.76	60177.51
460.94	60257.09
461.12	59559.61
461.31	60044.10
461.49	59868.56
461.67	59859.20
461.85	60561.36
462.04	60369.44
462.22	60343.69
462.40	60116.66
462.59	60456.04
462.77	60280.50
462.95	60491.15
463.13	60163.47
463.32	59943.46
463.50	60016.02
463.68	59805.37
463.86	59952.82
464.05	59557.27
464.23	58911.28
464.41	58871.49
464.59	58705.32
464.78	59889.63
464.96	59756.22
465.14	59309.18
465.32	60123.68
465.50	60900.74
465.69	61099.68
465.87	60406.89
466.05	59454.29
466.23	58489.99
466.41	58003.16
466.60	58829.37
466.78	58522.76
466.96	58915.96
467.14	59440.24
467.32	59571.32
467.51	59653.23
467.69	58557.86
467.87	58913.62
468.05	59473.01
468.23	59355.99
468.41	59414.50
468.60	59133.63
468.78	59653.23
468.96	59664.94
469.14	60053.47
469.32	60149.43
469.50	59016.61
469.69	59320.88
469.87	58972.14
470.05	58599.99
470.23	58642.12
470.41	58831.71
470.59	58955.75
470.77	59100.87
470.95	59578.34
471.14	59831.11
471.32	59941.12
471.50	61460.13
471.68	61312.67
471.86	61549.07
472.04	61750.35
472.22	61900.15
472.40	60624.56
472.58	60570.72
472.77	59950.48
472.95	60568.38
473.13	61303.31
473.31	60673.71
473.49	60870.31
473.67	61085.64
473.85	61324.38
474.03	61918.87
474.21	62099.09
474.39	61911.85
474.57	62019.52
474.75	62052.28
474.93	62143.56
475.12	61462.47
475.30	61420.34
475.48	61843.98
475.66	62225.48
475.84	61773.76
476.02	61675.46
476.20	61132.45
476.38	61930.58
476.56	62541.45
476.74	62695.93
476.92	62845.72
477.10	63313.83
477.28	63901.31
477.46	63803.00
477.64	63831.09
477.82	63786.62
478.00	64100.25
478.18	63737.47
478.36	63751.51
478.54	63671.93
478.72	64224.30
478.90	64715.81
479.08	65176.90
479.26	65403.93
479.44	65139.45
479.62	65078.60
479.80	64980.29
479.98	65113.70
480.16	65392.23
480.34	65010.72
480.52	65469.46
480.70	65467.12
480.88	65535.00
481.06	65535.00
481.24	65535.00
481.41	65535.00
481.59	65535.00
481.77	65535.00
481.95	65535.00
482.13	65535.00
482.31	65535.00
482.49	65535.00
482.67	65535.00
482.85	65535.00
483.03	65535.00
483.21	65535.00
483.39	65535.00
483.57	65535.00
483.74	65535.00
483.92	65535.00
484.10	65535.00
484.28	65535.00
484.46	65535.00
484.64	65535.00
484.82	65535.00
485.00	65535.00
485.18	65535.00
485.35	65535.00
485.53	64825.82
485.71	61942.28
485.89	61778.44
486.07	63398.09
486.25	65364.14
486.43	65535.00
486.61	65535.00
486.78	65535.00
486.96	65535.00
487.14	65535.00
487.32	65535.00
487.50	65535.00
487.68	65535.00
487.85	65535.00
488.03	65535.00
488.21	65535.00
488.39	65535.00
488.57	65535.00
488.75	65535.00
488.92	65535.00
489.10	65535.00
489.28	65535.00
489.46	65535.00
489.64	65535.00
489.81	65535.00
489.99	65535.00
490.17	65535.00
490.35	65535.00
490.53	65535.00
490.70	65535.00
490.88	65535.00
491.06	65535.00
491.24	65535.00
491.41	65535.00
491.59	65535.00
491.77	65535.00
491.95	65535.00
492.13	65535.00
492.30	65535.00
492.48	65535.00
492.66	65535.00
492.84	65535.00
493.01	65535.00
493.19	65535.00
493.37	65535.00
493.54	65535.00
493.72	65535.00
493.90	65535.00
494.08	65535.00
494.25	65535.00
494.43	65535.00
494.61	65535.00
494.79	65535.00
494.96	65535.00
495.14	65535.00
495.32	65535.00
495.49	65535.00
495.67	65535.00
495.85	65535.00
496.02	65535.00
496.20	65535.00
496.38	65535.00
496.55	65535.00
496.73	65535.00
496.91	65535.00
497.09	65535.00
497.26	65535.00
497.44	65535.00
497.62	65535.00
497.79	65535.00
497.97	65535.00
498.14	65535.00
498.32	65535.00
498.50	65535.00
498.67	65535.00
498.85	65535.00
499.03	65535.00
499.20	65535.00
499.38	65535.00
499.56	65535.00
499.73	65535.00
499.91	65535.00
500.08	65535.00
500.26	65535.00
500.44	65535.00
500.61	65535.00
500.79	65535.00
500.97	65535.00
501.14	65535.00
501.32	65535.00
501.49	65535.00
501.67	65535.00
501.84	65535.00
502.02	65535.00
502.20	65535.00
502.37	65535.00
502.55	65535.00
502.72	65535.00
502.90	65535.00
503.07	65535.00
503.25	65535.00
503.43	65535.00
503.60	65535.00
503.78	65535.00
503.95	65535.00
504.13	65535.00
504.30	65535.00
504.48	65535.00
504.65	65535.00
504.83	65535.00
505.01	65535.00
505.18	65535.00
505.36	65535.00
505.53	65535.00
505.71	65535.00
505.88	65535.00
506.06	65535.00
506.23	65535.00
506.41	65535.00
506.58	65535.00
506.76	65535.00
506.93	65535.00
507.11	65535.00
507.28	65535.00
507.46	65535.00
507.63	65535.00
507.81	65535.00
507.98	65535.00
508.16	65535.00
508.33	65535.00
508.50	65535.00
508.68	65535.00
508.85	65535.00
509.03	65535.00
509.20	65535.00
509.38	65535.00
509.55	65535.00
509.73	65535.00
509.90	65535.00
510.08	65535.00
510.25	65535.00
510.42	65535.00
510.60	65535.00
510.77	65535.00
510.95	65535.00
511.12	65535.00
511.30	65535.00
511.47	65535.00
511.64	65535.00
511.82	65535.00
511.99	65535.00
512.17	65535.00
512.34	65535.00
512.51	65535.00
512.69	65535.00
512.86	65535.00
513.04	65535.00
513.21	65535.00
513.38	65535.00
513.56	65535.00
513.73	65535.00
513.90	65535.00
514.08	65535.00
514.25	65535.00
514.43	65535.00
514.60	65535.00
514.77	65535.00
514.95	65535.00
515.12	65535.00
515.29	65535.00
515.47	65535.00
515.64	65535.00
515.81	65535.00
515.99	65535.00
516.16	65535.00
516.33	65535.00
516.51	65535.00
516.68	65535.00
516.85	65535.00
517.03	65535.00
517.20	65535.00
517.37	65535.00
517.54	65535.00
517.72	65535.00
517.89	65535.00
518.06	65535.00
518.24	65535.00
518.41	65535.00
518.58	65535.00
518.75	65535.00
518.93	65535.00
519.10	65535.00
519.27	65535.00
519.45	65535.00
519.62	65535.00
519.79	65535.00
519.96	65535.00
520.14	65535.00
520.31	65535.00
520.48	65535.00
520.65	65535.00
520.83	65535.00
521.00	65535.00
521.17	65535.00
521.34	65535.00
521.52	65535.00
521.69	65535.00
521.86	65535.00
522.03	65535.00
522.20	65535.00
522.38	65535.00
522.55	65535.00
522.72	65535.00
522.89	65535.00
523.07	65535.00
523.24	65535.00
523.41	65535.00
523.58	65535.00
523.75	65535.00
523.92	65535.00
524.10	65535.00
524.27	65535.00
524.44	65535.00
524.61	65535.00
524.78	65535.00
524.96	65535.00
525.13	65535.00
525.30	65535.00
525.47	65535.00
525.64	65535.00
525.81	65535.00
525.98	65535.00
526.16	65535.00
526.33	65535.00
526.50	65535.00
526.67	65535.00
526.84	65535.00
527.01	65535.00
527.18	65535.00
527.36	65535.00
527.53	65535.00
527.70	65535.00
527.87	65535.00
528.04	65535.00
528.21	65535.00
528.38	65535.00
528.55	65535.00
528.72	65535.00
528.89	65535.00
529.07	65535.00
529.24	65535.00
529.41	65535.00
529.58	65535.00
529.75	65535.00
529.92	65535.00
530.09	65535.00
530.26	65535.00
530.43	65535.00
530.60	65535.00
530.77	65535.00
530.94	65535.00
531.11	65535.00
531.28	65535.00
531.46	65535.00
531.63	65535.00
531.80	65535.00
531.97	65535.00
532.14	65535.00
532.31	65535.00
532.48	65535.00
532.65	65535.00
532.82	65535.00
532.99	65535.00
533.16	65535.00
533.33	65535.00
533.50	65535.00
533.67	65535.00
533.84	65535.00
534.01	65535.00
534.18	65535.00
534.35	65535.00
534.52	65535.00
534.69	65535.00
534.86	65535.00
535.03	65535.00
535.20	65535.00
535.37	65535.00
535.54	65535.00
535.71	65535.00
535.88	65535.00
536.05	65535.00
536.22	65535.00
536.38	65535.00
536.55	65535.00
536.72	65535.00
536.89	65535.00
537.06	65535.00
537.23	65535.00
537.40	65535.00
537.57	65535.00
537.74	65535.00
537.91	65535.00
538.08	65535.00
538.25	65535.00
538.42	65535.00
538.59	65535.00
538.75	65535.00
538.92	65535.00
539.09	65535.00
539.26	65535.00
539.43	65535.00
539.60	65535.00
539.77	65535.00
539.94	65535.00
540.11	65535.00
540.28	65535.00
540.44	65535.00
540.61	65535.00
540.78	65535.00
540.95	65535.00
541.12	65535.00
541.29	65535.00
541.46	65535.00
541.62	65535.00
541.79	65535.00
541.96	65535.00
542.13	65535.00
542.30	65535.00
542.47	65535.00
542.63	65535.00
542.80	65535.00
542.97	65535.00
543.14	65535.00
543.31	65535.00
543.48	65535.00
543.64	65535.00
543.81	65535.00
543.98	65535.00
544.15	65535.00
544.32	65535.00
544.48	65535.00
544.65	65535.00
544.82	65535.00
544.99	65535.00
545.16	65535.00
545.32	65535.00
545.49	65535.00
545.66	65535.00
545.83	65535.00
546.00	65535.00
546.16	65535.00
546.33	65535.00
546.50	65535.00
546.67	65535.00
546.83	65535.00
547.00	65535.00
547.17	65535.00
547.34	65535.00
547.50	65535.00
547.67	65535.00
547.84	65535.00
548.00	65535.00
548.17	65535.00
548.34	65535.00
548.51	65535.00
548.67	65535.00
548.84	65535.00
549.01	65535.00
549.18	65535.00
549.34	65535.00
549.51	65535.00
549.68	65535.00
549.84	65535.00
550.01	65535.00
550.18	65535.00
550.34	65535.00
550.51	65535.00
550.68	65535.00
550.84	65535.00
551.01	65535.00
551.18	65535.00
551.34	65535.00
551.51	65535.00
551.68	65535.00
551.84	65535.00
552.01	65535.00
552.18	65535.00
552.34	65535.00
552.51	65535.00
552.68	65535.00
552.84	65535.00
553.01	65535.00
553.18	65535.00
553.34	65535.00
553.51	65535.00
553.67	65535.00
553.84	65535.00
554.01	65535.00
554.17	65535.00
554.34	65535.00
554.51	65535.00
554.67	65535.00
554.84	65535.00
555.00	65535.00
555.17	65535.00
555.33	65535.00
555.50	65535.00
555.67	65535.00
555.83	65535.00
556.00	65535.00
556.16	65535.00
556.33	65535.00
556.50	65535.00
556.66	65535.00
556.83	65535.00
556.99	65535.00
557.16	65535.00
557.32	65535.00
557.49	65535.00
557.65	65535.00
557.82	65535.00
557.98	65535.00
558.15	65535.00
558.32	65535.00
558.48	65535.00
558.65	65535.00
558.81	65535.00
558.98	65535.00
559.14	65535.00
559.31	65535.00
559.47	65535.00
559.64	65535.00
559.80	65535.00
559.97	65535.00
560.13	65535.00
560.30	65535.00
560.46	65535.00
560.63	65535.00
560.79	65535.00
560.96	65535.00
561.12	65535.00
561.29	65535.00
561.45	65535.00
561.61	65535.00
561.78	65535.00
561.94	65535.00
562.11	65535.00
562.27	65535.00
562.44	65535.00
562.60	65535.00
562.77	65535.00
562.93	65535.00
563.10	65535.00
563.26	65535.00
563.42	65535.00
563.59	65535.00
563.75	65535.00
563.92	65535.00
564.08	65535.00
564.24	65535.00
564.41	65535.00
564.57	65535.00
564.74	65535.00
564.90	65535.00
565.07	65535.00
565.23	65535.00
565.39	65535.00
565.56	65535.00
565.72	65535.00
565.88	65535.00
566.05	65535.00
566.21	65535.00
566.38	65535.00
566.54	65535.00
566.70	65535.00
566.87	65535.00
567.03	65535.00
567.19	65535.00
567.36	65535.00
567.52	65535.00
567.68	65535.00
567.85	65535.00
568.01	65535.00
568.17	65535.00
568.34	65535.00
568.50	65535.00
568.66	65535.00
568.83	65535.00
568.99	65535.00
569.15	65535.00
569.32	65535.00
569.48	65535.00
569.64	65535.00
569.81	65535.00
569.97	65535.00
570.13	65535.00
570.30	65535.00
570.46	65535.00
570.62	65535.00
570.78	65535.00
570.95	65535.00
571.11	65535.00
571.27	65535.00
571.43	65535.00
571.60	65535.00
571.76	65535.00
571.92	65535.00
572.09	65535.00
572.25	65535.00
572.41	65535.00
572.57	65535.00
572.74	65535.00
572.90	65535.00
573.06	65535.00
573.22	65535.00
573.38	65535.00
573.55	65535.00
573.71	65535.00
573.87	65535.00
574.03	65535.00
574.20	65535.00
574.36	65535.00
574.52	65535.00
574.68	65535.00
574.84	65535.00
575.01	65535.00
575.17	65535.00
575.33	65535.00
575.49	65535.00
575.65	65535.00
575.82	65535.00
575.98	65535.00
576.14	65535.00
576.30	65535.00
576.46	65535.00
576.62	65535.00
576.79	65535.00
576.95	65535.00
577.11	65535.00
577.27	65535.00
577.43	65535.00
577.59	65535.00
577.75	65535.00
577.92	65535.00
578.08	65535.00
578.24	65535.00
578.40	65535.00
578.56	65535.00
578.72	65535.00
578.88	65535.00
579.04	65535.00
579.21	65535.00
579.37	65535.00
579.53	65535.00
579.69	65535.00
579.85	65535.00
580.01	65535.00
580.17	65535.00
580.33	65535.00
580.49	65535.00
580.65	65535.00
580.82	65535.00
580.98	65535.00
581.14	65535.00
581.30	65535.00
581.46	65535.00
581.62	65535.00
581.78	65535.00
581.94	65535.00
582.10	65535.00
582.26	65535.00
582.42	65535.00
582.58	65535.00
582.74	65535.00
582.90	65535.00
583.06	65535.00
583.22	65535.00
583.38	65535.00
583.54	65535.00
583.70	65535.00
583.86	65535.00
584.02	65535.00
584.18	65535.00
