SpectraSuite Data File
++++++++++++++++++++++++++++++++++++
Date: Mon Oct 07 14:53:19 GMT-05:00 2013
User: price-jones
Dark Spectrum Present: No
Reference Spectrum Present: No
Number of Sampled Component Spectra: 1
Spectrometers: USB2+H05261
Integration Time (usec): 100000 (USB2+H05261)
Spectra Averaged: 1 (USB2+H05261)
Boxcar Smoothing: 0 (USB2+H05261)
Correct for Electrical Dark: No (USB2+H05261)
Strobe/Lamp Enabled: No (USB2+H05261)
Correct for Detector Non-linearity: No (USB2+H05261)
Correct for Stray Light: No (USB2+H05261)
Number of Pixels in Processed Spectrum: 2048
>>>>>Begin Processed Spectral Data<<<<<
365.73	0.00
365.92	0.00
366.12	0.00
366.32	0.00
366.52	0.00
366.72	0.00
366.91	0.00
367.11	0.00
367.31	0.00
367.51	0.00
367.70	0.00
367.90	0.00
368.10	0.00
368.30	0.00
368.49	0.00
368.69	0.00
368.89	0.00
369.09	0.00
369.28	0.00
369.48	0.00
369.68	0.00
369.87	0.00
370.07	0.00
370.27	0.00
370.47	823.87
370.66	3791.67
370.86	4315.95
371.06	4533.62
371.25	4915.12
371.45	4362.76
371.65	3904.01
371.84	3581.02
372.04	3775.28
372.24	4273.82
372.44	4329.99
372.63	4219.99
372.83	4021.04
373.03	3653.58
373.22	3262.71
373.42	3506.12
373.62	4049.13
373.81	4308.93
374.01	4234.03
374.21	4016.36
374.40	3658.26
374.60	3779.97
374.79	4383.82
374.99	4880.02
375.19	5310.68
375.38	5369.19
375.58	5055.56
375.78	4922.15
375.97	5018.11
376.17	5235.78
376.37	5291.95
376.56	5308.34
376.76	5626.65
376.95	5951.98
377.15	6303.06
377.35	6696.27
377.54	6923.30
377.74	7089.48
377.93	7126.93
378.13	6881.18
378.33	6534.78
378.52	6019.86
378.72	5741.33
378.91	5680.48
379.11	5467.49
379.31	5186.63
379.50	5336.42
379.70	5764.74
379.89	6305.40
380.09	6740.74
380.28	6890.54
380.48	7080.12
380.68	6810.96
380.87	6637.76
381.07	6106.46
381.26	5729.63
381.46	5280.25
381.65	5118.75
381.85	4910.44
382.04	4725.54
382.24	4456.38
382.43	4203.60
382.63	4184.88
382.83	4257.43
383.02	4278.50
383.22	4255.09
383.41	4297.22
383.61	4542.98
383.80	5102.37
384.00	5935.60
384.19	6743.08
384.39	6988.84
384.58	6951.39
384.78	6621.38
384.97	6621.38
385.17	6207.10
385.36	6097.10
385.56	5596.22
385.75	6092.41
385.95	6487.96
386.14	6993.52
386.34	7241.62
386.53	6778.19
386.72	6270.30
386.92	6586.27
387.11	6731.38
387.31	7082.46
387.50	7171.40
387.70	6827.34
387.89	6672.87
388.09	6691.59
388.28	6693.93
388.48	6717.34
388.67	7370.35
388.86	8114.64
389.06	8531.25
389.25	9259.16
389.45	8940.85
389.64	9156.18
389.84	9092.98
390.03	8922.12
390.22	8788.71
390.42	9146.81
390.61	9750.67
390.81	10525.39
391.00	10623.69
391.19	10361.55
391.39	10080.69
391.58	9713.22
391.78	9123.41
391.97	8720.84
392.16	8322.94
392.36	7410.14
392.55	5802.19
392.75	4617.88
392.94	3943.80
393.13	3932.10
393.33	4519.57
393.52	5951.98
393.71	7337.58
393.91	8315.92
394.10	8779.35
394.29	9509.60
394.49	10431.77
394.68	11147.97
394.88	11185.42
395.07	11562.25
395.26	11407.77
395.46	11236.91
395.65	10375.59
395.84	9006.38
396.04	7735.47
396.23	6183.70
396.42	5263.86
396.62	5064.92
396.81	6012.84
397.00	7506.10
397.19	9343.42
397.39	11396.07
397.58	12802.73
397.77	13467.44
397.97	14043.21
398.16	13958.96
398.35	14628.35
398.55	15042.62
398.74	15669.89
398.93	15985.86
399.12	15702.65
399.32	14977.09
399.51	15243.91
399.70	16556.95
399.90	16226.93
400.09	16549.93
400.28	16533.54
400.47	16299.49
400.67	17224.00
400.86	17659.34
401.05	17401.88
401.24	17652.32
401.44	18136.81
401.63	17886.37
401.82	18143.83
402.01	17881.69
402.21	18356.82
402.40	18405.97
402.59	17874.67
402.78	17153.79
402.97	16575.67
403.17	17345.71
403.36	17804.46
403.55	18640.03
403.74	19176.01
403.93	18141.49
404.13	17188.89
404.32	16718.45
404.51	17252.09
404.70	18663.43
404.89	18403.63
405.09	18380.23
405.28	17530.61
405.47	17816.16
405.66	17738.92
405.85	17043.78
406.05	16793.34
406.24	17015.69
406.43	17970.63
406.62	18356.82
406.81	18513.64
407.00	18125.11
407.20	17214.64
407.39	17577.42
407.58	18492.57
407.77	19447.51
407.96	19543.47
408.15	19999.88
408.34	20030.30
408.54	20971.20
408.73	20933.75
408.92	20805.02
409.11	20271.38
409.30	19311.76
409.49	18230.43
409.68	16624.83
409.87	16594.40
410.07	17455.72
410.26	18860.04
410.45	20009.24
410.64	20561.61
410.83	21146.74
411.02	21675.70
411.21	22581.49
411.40	22375.52
411.59	22288.92
411.78	22097.00
411.98	21977.63
412.17	22429.35
412.36	21736.56
412.55	22008.06
412.74	21465.05
412.93	20994.61
413.12	21076.52
413.31	23030.87
413.50	23482.59
413.69	23438.12
413.88	22670.43
414.07	21975.29
414.26	22834.27
414.45	23381.95
414.64	23332.80
414.83	23513.02
415.02	23037.89
415.22	22768.73
415.41	23527.06
415.60	24278.38
415.79	25383.11
415.98	25460.35
416.17	25589.08
416.36	24929.05
416.55	24966.49
416.74	23784.52
416.93	23410.04
417.12	23166.62
417.31	23740.05
417.50	24116.88
417.69	24465.62
417.88	24748.82
418.07	24203.48
418.26	23873.46
418.45	24107.52
418.64	25188.85
418.83	25647.59
419.02	25731.85
419.21	25481.41
419.39	24636.48
419.58	22913.84
419.77	23225.14
419.96	24041.98
420.15	25692.06
420.34	26286.56
420.53	27087.02
420.72	27763.43
420.91	27505.98
421.10	27084.68
421.29	26941.91
421.48	26003.35
421.67	27328.10
421.86	26218.68
422.05	25212.25
422.24	22352.12
422.43	22075.93
422.61	24414.13
422.80	26497.20
422.99	26806.16
423.18	25591.42
423.37	24996.92
423.56	25043.73
423.75	25453.33
423.94	25898.03
424.13	24709.04
424.32	24599.03
424.50	24847.13
424.69	24229.23
424.88	24690.31
425.07	24362.64
425.26	24730.10
425.45	24081.77
425.64	23899.21
425.83	23929.64
426.01	25394.81
426.20	25914.41
426.39	25446.30
426.58	23981.13
426.77	22047.85
426.96	21350.37
427.15	22139.13
427.33	23896.87
427.52	24678.61
427.71	25025.01
427.90	24657.54
428.09	24559.24
428.28	23763.46
428.46	23023.85
428.65	22927.89
428.84	23094.07
429.03	23955.38
429.22	22525.32
429.40	21579.74
429.59	19185.37
429.78	17071.87
429.97	16999.31
430.16	17380.82
430.34	17394.86
430.53	17570.40
430.72	17933.18
430.91	19805.61
431.10	23569.19
431.28	27339.80
431.47	29123.29
431.66	29607.78
431.85	27131.49
432.03	25165.44
432.22	23800.91
432.41	25053.09
432.60	27637.05
432.79	28580.28
432.97	29160.73
433.16	28952.43
433.35	26174.21
433.54	23688.56
433.72	22199.98
433.91	23077.68
434.10	25916.75
434.28	27779.82
434.47	28706.67
434.66	28489.00
434.85	27985.79
435.03	27435.76
435.22	27957.70
435.41	29553.94
435.59	29893.32
435.78	30438.67
435.97	31337.43
436.16	31517.65
436.34	31028.48
436.53	30150.78
436.72	30064.18
436.90	28727.74
437.09	28421.13
437.28	27946.00
437.46	29062.43
437.65	28404.74
437.84	27068.30
438.02	24821.38
438.21	24748.82
438.40	26106.34
438.58	28388.36
438.77	29156.05
438.96	29443.94
439.14	30539.31
439.33	30955.93
439.52	31566.81
439.70	30724.21
439.89	30368.45
440.08	29479.05
440.26	29383.09
440.45	30810.81
440.63	32308.76
440.82	34284.17
441.01	34108.63
441.19	32788.56
441.38	34050.11
441.57	34913.77
441.75	35615.93
441.94	35569.12
442.12	35634.66
442.31	36060.63
442.50	35927.22
442.68	35606.57
442.87	34866.96
443.05	34700.78
443.24	35314.00
443.43	36156.60
443.61	36662.15
443.80	37090.47
443.98	35274.21
444.17	34974.63
444.35	36847.05
444.54	37251.97
444.73	37275.37
444.91	35770.41
445.10	34288.85
445.28	33102.20
445.47	32439.82
445.65	32886.87
445.84	33481.36
446.02	34333.32
446.21	35456.78
446.39	35192.30
446.58	35789.13
446.77	35981.06
446.95	36790.88
447.14	37146.64
447.32	38197.54
447.51	37090.47
447.69	35864.03
447.88	35482.52
448.06	36140.21
448.25	36868.12
448.43	37118.56
448.62	36154.26
448.80	36236.17
448.99	36271.28
449.17	36737.05
449.36	37104.51
449.54	38328.61
449.73	39283.55
449.91	38990.98
450.10	40292.32
450.28	40514.67
450.46	40535.74
450.65	40399.99
450.83	40086.36
451.02	39728.25
451.20	39028.43
451.39	38834.17
451.57	39337.38
451.76	38930.13
451.94	38197.54
452.13	38057.11
452.31	36514.70
452.49	34429.28
452.68	35101.01
452.86	35260.17
453.05	35826.58
453.23	36664.49
453.42	37874.55
453.60	38565.01
453.78	38581.39
453.97	38366.06
454.15	38242.01
454.34	37324.52
454.52	38096.90
454.70	37060.04
454.89	37354.95
455.07	37441.55
455.26	38387.13
455.44	39728.25
455.62	39964.65
455.81	40215.08
455.99	39620.59
456.17	39562.08
456.36	39599.52
456.54	40399.99
456.73	41085.76
456.91	41579.62
457.09	41462.59
457.28	42225.60
457.46	40547.44
457.64	40561.48
457.83	39569.10
458.01	38562.67
458.19	39592.50
458.38	40297.00
458.56	41287.05
458.74	40818.94
458.93	40158.91
459.11	40381.26
459.29	39707.19
459.48	39931.88
459.66	39662.72
459.84	40229.13
460.03	40540.42
460.21	40725.32
460.39	41596.00
460.57	41446.21
460.76	42319.23
460.94	42265.39
461.12	41757.50
461.31	41930.70
461.49	41722.39
461.67	41584.30
461.85	42962.87
462.04	42724.14
462.22	43243.74
462.40	42948.83
462.59	42712.44
462.77	42817.76
462.95	42663.28
463.13	42312.20
463.32	41907.29
463.50	41535.15
463.68	41507.06
463.86	41727.07
464.05	41516.42
464.23	40374.24
464.41	40079.33
464.59	39728.25
464.78	41429.82
464.96	41301.09
465.14	40830.65
465.32	42291.14
465.50	42698.39
465.69	43374.81
465.87	41956.44
466.05	41462.59
466.23	40292.32
466.41	38665.65
466.60	39999.76
466.78	40081.67
466.96	40725.32
467.14	41521.10
467.32	41801.97
467.51	42396.46
467.69	40034.86
467.87	40795.54
468.05	41921.34
468.23	41467.27
468.41	41638.13
468.60	41951.76
468.78	41886.23
468.96	41872.18
469.14	42134.32
469.32	42553.28
469.50	40961.72
469.69	40947.67
469.87	40376.58
470.05	40509.99
470.23	40526.38
470.41	40453.82
470.59	41228.54
470.77	41010.87
470.95	42244.33
471.14	42527.53
471.32	42918.40
471.50	44978.07
471.68	44608.27
471.86	45167.66
472.04	44891.48
472.22	45518.74
472.40	43578.43
472.58	43049.47
472.77	42326.25
472.95	43643.97
473.13	44287.62
473.31	43185.22
473.49	43548.01
473.67	44472.52
473.85	44638.70
474.03	45422.78
474.21	45949.40
474.39	45888.54
474.57	46239.62
474.75	45792.58
474.93	45986.85
475.12	44844.66
475.30	45317.45
475.48	45006.16
475.66	46354.31
475.84	45373.63
476.02	45097.44
476.20	44325.07
476.38	45551.51
476.56	46637.51
476.74	47079.88
476.92	47590.11
477.10	47597.13
477.28	49010.82
477.46	48935.92
477.64	49492.97
477.82	49560.84
478.00	49272.96
478.18	48959.33
478.36	48863.36
478.54	48907.83
478.72	49387.64
478.90	50080.44
479.08	50967.51
479.26	51398.16
479.44	51173.47
479.62	51257.73
479.80	50855.16
479.98	51334.97
480.16	51189.86
480.34	51093.89
480.52	51536.26
480.70	51452.00
480.88	51531.57
481.06	52200.97
481.24	52339.06
481.41	53361.87
481.59	53755.08
481.77	53450.81
481.95	52765.04
482.13	52807.17
482.31	52938.24
482.49	53738.70
482.67	53195.70
482.85	53504.65
483.03	54019.56
483.21	54440.86
483.39	54504.06
483.57	53717.64
483.74	53602.95
483.92	53741.04
484.10	53799.55
484.28	54576.61
484.46	54845.77
484.64	55351.33
484.82	54541.50
485.00	54354.26
485.18	53537.41
485.35	52575.45
485.53	49717.66
485.71	46143.66
485.89	45918.97
486.07	47927.15
486.25	51026.02
486.43	52837.59
486.61	53404.00
486.78	53284.64
486.96	53453.15
487.14	54880.88
487.32	55508.14
487.50	56411.59
487.68	56898.42
487.85	57167.58
488.03	57364.19
488.21	56647.99
488.39	56278.18
488.57	55971.57
488.75	55531.55
488.92	56463.08
489.10	58183.38
489.28	58962.78
489.46	59711.75
489.64	59517.48
489.81	59746.86
489.99	59311.52
490.17	59304.49
490.35	59678.98
490.53	59283.43
490.70	59147.68
490.88	58761.49
491.06	59580.68
491.24	59845.16
491.41	58850.43
491.59	57668.46
491.77	56966.30
491.95	58122.52
492.13	58745.11
492.30	59812.39
492.48	60542.64
492.66	60982.66
492.84	60795.42
493.01	60718.18
493.19	60210.28
493.37	59973.89
493.54	59962.18
493.72	60406.89
493.90	61212.03
494.08	61883.76
494.25	62038.24
494.43	62216.12
494.61	62482.94
494.79	62677.21
494.96	62405.70
495.14	61822.91
495.32	61132.45
495.49	60640.94
495.67	61497.58
495.85	62621.03
496.02	62944.03
496.20	62768.49
496.38	62382.30
496.55	62508.69
496.73	62836.36
496.91	62946.37
497.09	63412.13
497.26	63484.69
497.44	63000.20
497.62	62639.76
497.79	61979.73
497.97	61008.40
498.14	60931.17
498.32	61886.10
498.50	62796.57
498.67	63257.66
498.85	62993.18
499.03	63360.64
499.20	63599.38
499.38	63480.01
499.56	63201.49
499.73	62979.14
499.91	62763.81
500.08	62089.73
500.26	61609.92
500.44	61949.30
500.61	62698.27
500.79	62445.49
500.97	62162.29
501.14	62000.79
501.32	61858.02
501.49	61935.26
501.67	62099.09
501.84	62459.54
502.02	62705.29
502.20	62915.94
502.37	63168.72
502.55	63358.30
502.72	63786.62
502.90	64097.91
503.07	63817.05
503.25	63550.23
503.43	62824.66
503.60	62120.16
503.78	61619.28
503.95	62003.13
504.13	63278.72
504.30	63948.12
504.48	63798.32
504.65	63573.63
504.83	63393.41
505.01	64114.29
505.18	64404.52
505.36	64844.54
505.53	64907.74
505.71	65181.58
505.88	65066.89
506.06	64573.04
506.23	64266.43
506.41	63882.58
506.58	64224.30
506.76	64011.31
506.93	64163.45
507.11	64011.31
507.28	64013.65
507.46	63498.73
507.63	63241.28
507.81	63075.10
507.98	63236.59
508.16	63962.16
508.33	64437.29
508.50	64542.61
508.68	64828.16
508.85	65216.69
509.03	65151.15
509.20	65118.38
509.38	64432.61
509.55	63765.56
509.73	63847.47
509.90	64388.14
510.08	64711.13
510.25	64481.76
510.42	64437.29
510.60	64161.11
510.77	64446.65
510.95	65024.76
511.12	65057.53
511.30	65354.78
511.47	65535.00
511.64	65359.46
511.82	65223.71
511.99	64654.96
512.17	64231.32
512.34	63948.12
512.51	63985.57
512.69	64240.68
512.86	64179.83
513.04	64694.75
513.21	64746.24
513.38	64383.46
513.56	63828.75
513.73	63491.71
513.90	63700.02
514.08	63606.40
514.25	63913.01
514.43	64025.35
514.60	64154.08
514.77	64257.07
514.95	64465.38
515.12	64233.66
515.29	64369.41
515.47	64877.31
515.64	65204.98
515.81	64804.75
515.99	64301.54
516.16	63086.80
516.33	60947.55
516.51	60004.31
516.68	59337.26
516.85	58918.31
517.03	59271.73
517.20	61689.50
517.37	63550.23
517.54	64479.42
517.72	63931.73
517.89	61755.03
518.06	60004.31
518.24	60217.30
518.41	62075.69
518.58	62981.48
518.75	63538.52
518.93	63580.65
519.10	63351.28
519.27	63784.28
519.45	64069.82
519.62	64690.07
519.79	64968.59
519.96	64711.13
520.14	64491.12
520.31	63540.86
520.48	63625.12
520.65	63959.82
520.83	64779.01
521.00	65151.15
521.17	64690.07
521.34	64537.93
521.52	64802.41
521.69	64987.31
521.86	65535.00
522.03	65298.61
522.20	64259.41
522.38	63234.25
522.55	63522.14
522.72	63959.82
522.89	64189.19
523.07	64221.96
523.24	64505.16
523.41	65254.14
523.58	65413.29
523.75	65535.00
523.92	65535.00
524.10	65535.00
524.27	65535.00
524.44	65511.59
524.61	65523.30
524.78	65319.67
524.96	65050.51
525.13	65130.09
525.30	65520.96
525.47	65535.00
525.64	65535.00
525.81	64849.22
525.98	63781.94
526.16	62436.13
526.33	62012.49
526.50	61836.95
526.67	61581.84
526.84	62040.58
527.01	62883.17
527.18	63487.03
527.36	64441.97
527.53	65181.58
527.70	65399.25
527.87	64835.18
528.04	64329.62
528.21	64856.24
528.38	65427.34
528.55	65535.00
528.72	65535.00
528.89	65535.00
529.07	65535.00
529.24	65518.62
529.41	65064.55
529.58	64519.21
529.75	64481.76
529.92	64786.03
530.09	65261.16
530.26	65535.00
530.43	65535.00
530.60	65535.00
530.77	65535.00
530.94	65535.00
531.11	65535.00
531.28	65525.64
531.46	65336.05
531.63	65535.00
531.80	65406.27
531.97	65008.38
532.14	64474.74
532.31	63515.12
532.48	62836.36
532.65	63089.14
532.82	63559.59
532.99	64692.41
533.16	65013.06
533.33	65513.94
533.50	65204.98
533.67	64750.92
533.84	64418.56
534.01	64666.66
534.18	64865.61
534.35	64863.27
534.52	64818.80
534.69	65087.96
534.86	65326.69
535.03	65535.00
535.20	65535.00
535.37	65535.00
535.54	65535.00
535.71	65535.00
535.88	65535.00
536.05	65057.53
536.22	64786.03
536.38	64523.89
536.55	64006.63
536.72	63751.51
536.89	63681.30
537.06	64519.21
537.23	65172.22
537.40	65272.86
537.57	65176.90
537.74	65214.35
537.91	65073.91
538.08	64938.16
538.25	65158.17
538.42	65385.21
538.59	64975.61
538.75	64233.66
538.92	64243.02
539.09	64231.32
539.26	64018.33
539.43	63943.44
539.60	63957.48
539.77	64107.27
539.94	63931.73
540.11	63365.32
540.28	62824.66
540.44	62953.39
540.61	63159.36
540.78	63430.86
540.95	63737.47
541.12	64114.29
541.29	64404.52
541.46	64481.76
541.62	64594.10
541.79	64502.82
541.96	64107.27
542.13	63973.86
542.30	64317.92
542.47	64378.78
542.63	64074.51
542.80	64079.19
542.97	64074.51
543.14	64130.68
543.31	64044.08
543.48	64484.10
543.64	65214.35
543.81	65392.23
543.98	65052.85
544.15	64556.66
544.32	64004.29
544.48	64231.32
544.65	64418.56
544.82	64996.68
544.99	64448.99
545.16	64236.00
545.32	64158.76
545.49	64793.05
545.66	65212.01
545.83	64835.18
546.00	64343.67
546.16	64264.09
546.33	64081.53
546.50	64317.92
546.67	64877.31
546.83	64226.64
547.00	64191.53
547.17	63700.02
547.34	63267.02
547.50	63234.25
547.67	63543.20
547.84	63742.15
548.00	63938.75
548.17	64350.69
548.34	64254.73
548.51	64346.01
548.67	64406.86
548.84	64404.52
549.01	64294.52
549.18	64189.19
549.34	64011.31
549.51	63983.22
549.68	64184.51
549.84	64250.05
550.01	63943.44
550.18	63814.71
550.34	63615.76
550.51	63985.57
550.68	63973.86
550.84	63559.59
551.01	63760.87
551.18	63685.98
551.34	63599.38
551.51	64001.95
551.68	64296.86
551.84	64226.64
552.01	64027.70
552.18	63999.61
552.34	63465.97
552.51	63072.76
552.68	63168.72
552.84	63414.47
553.01	63608.74
553.18	63604.06
553.34	63695.34
553.51	63793.64
553.67	63898.97
553.84	64224.30
554.01	63948.12
554.17	63826.41
554.34	63763.21
554.51	64109.61
554.67	64418.56
554.84	64142.38
555.00	63838.11
555.17	63627.46
555.33	63639.17
555.50	63451.92
555.67	63463.63
555.83	63388.73
556.00	63018.92
556.16	63269.36
556.33	62901.90
556.50	62780.19
556.66	62864.45
556.83	62606.99
556.99	62518.05
557.16	62714.65
557.32	63051.69
557.49	63255.32
557.65	63002.54
557.82	63208.51
557.98	63028.29
558.15	62726.36
558.32	61932.92
558.48	61289.27
558.65	61520.98
558.81	61771.42
558.98	61872.06
559.14	62237.19
559.31	62330.81
559.47	62162.29
559.64	61869.72
559.80	61661.41
559.97	61696.52
560.13	62286.34
560.30	62972.11
560.46	63267.02
560.63	63723.43
560.79	63519.80
560.96	63168.72
561.12	62129.52
561.29	61422.68
561.45	61485.87
561.61	62059.30
561.78	62227.82
561.94	62148.24
562.11	62199.74
562.27	61977.39
562.44	62398.68
562.60	62567.20
562.77	62904.24
562.93	62677.21
563.10	62766.15
563.26	62120.16
563.42	62209.10
563.59	61890.79
563.75	62101.43
563.92	62052.28
564.08	61923.55
564.24	62307.40
564.41	62386.98
564.57	62220.80
564.74	62068.67
564.90	62063.99
565.07	61794.82
565.23	61509.28
565.39	61111.39
565.56	60823.50
565.72	60743.92
565.88	60882.02
566.05	61024.79
566.21	61338.42
566.38	61284.59
566.54	61359.48
566.70	61846.32
566.87	62054.62
567.03	62005.47
567.19	62106.12
567.36	61813.55
567.52	61689.50
567.68	61530.34
567.85	61242.46
568.01	60729.88
568.17	60575.40
568.34	60463.06
568.50	60292.20
568.66	60523.91
568.83	60762.65
568.99	60889.04
569.15	60952.23
569.32	61001.38
569.48	61003.72
569.64	60645.62
569.81	60474.76
569.97	60350.71
570.13	60378.80
570.30	59781.96
570.46	59545.57
570.62	59030.65
570.78	59117.25
570.95	59185.13
571.11	59861.54
571.27	59913.03
571.43	60182.19
571.60	60507.53
571.76	60491.15
571.92	60746.26
572.09	60828.18
572.25	61092.66
572.41	60924.14
572.57	60772.01
572.74	60867.97
572.90	60271.14
573.06	60439.65
573.22	60418.59
573.38	60495.83
573.55	60411.57
573.71	60825.84
573.87	60636.26
574.03	60278.16
574.20	60395.18
574.36	60088.57
574.52	60041.76
574.68	59765.58
574.84	59662.60
575.01	59114.91
575.17	59344.28
575.33	59547.91
575.49	59606.42
575.65	59674.30
575.82	59566.63
575.98	59250.66
576.14	59421.52
576.30	59985.59
576.46	59793.67
576.62	59835.80
576.79	59601.74
576.95	59332.58
577.11	59484.72
577.27	59625.15
577.43	59545.57
577.59	59154.70
577.75	58979.16
577.92	58321.47
578.08	58429.13
578.24	58370.62
578.40	58630.42
578.56	58913.62
578.72	58770.85
578.88	59061.08
579.04	59100.87
579.21	59199.17
579.37	59187.47
579.53	59409.82
579.69	59185.13
579.85	59454.29
580.01	59297.47
580.17	58890.22
580.33	58609.35
580.49	59004.91
580.65	59334.92
580.82	59304.49
580.98	59093.85
581.14	59037.67
581.30	59180.45
581.46	59166.40
581.62	59187.47
581.78	59152.36
581.94	59456.63
582.10	59386.41
582.26	59255.34
582.42	59363.01
582.58	59341.94
582.74	59320.88
582.90	59428.54
583.06	59274.07
583.22	59377.05
583.38	59271.73
583.54	58890.22
583.70	59166.40
583.86	59241.30
584.02	58773.19
584.18	59107.89
584.34	58995.54
584.50	58855.11
584.66	58801.28
584.82	58424.45
584.98	58534.46
585.14	58145.93
