SpectraSuite Data File
++++++++++++++++++++++++++++++++++++
Date: Mon Oct 07 14:53:20 GMT-05:00 2013
User: price-jones
Dark Spectrum Present: No
Reference Spectrum Present: No
Number of Sampled Component Spectra: 1
Spectrometers: USB2+H05261
Integration Time (usec): 100000 (USB2+H05261)
Spectra Averaged: 1 (USB2+H05261)
Boxcar Smoothing: 0 (USB2+H05261)
Correct for Electrical Dark: No (USB2+H05261)
Strobe/Lamp Enabled: No (USB2+H05261)
Correct for Detector Non-linearity: No (USB2+H05261)
Correct for Stray Light: No (USB2+H05261)
Number of Pixels in Processed Spectrum: 2048
>>>>>Begin Processed Spectral Data<<<<<
365.73	0.00
365.92	0.00
366.12	0.00
366.32	0.00
366.52	0.00
366.72	0.00
366.91	0.00
367.11	0.00
367.31	0.00
367.51	0.00
367.70	0.00
367.90	0.00
368.10	0.00
368.30	0.00
368.49	0.00
368.69	0.00
368.89	0.00
369.09	0.00
369.28	0.00
369.48	0.00
369.68	0.00
369.87	0.00
370.07	0.00
370.27	0.00
370.47	629.60
370.66	3096.53
370.86	3742.52
371.06	4053.81
371.25	3988.27
371.45	3691.02
371.65	3389.10
371.84	3056.74
372.04	3255.69
372.24	3646.55
372.44	3786.99
372.63	3672.30
372.83	3424.20
373.03	3091.85
373.22	2834.39
373.42	2993.55
373.62	3419.52
373.81	3728.47
374.01	3730.81
374.21	3328.24
374.40	3068.44
374.60	3265.05
374.79	3618.47
374.99	4236.37
375.19	4638.94
375.38	4491.49
375.58	4287.86
375.78	4091.26
375.97	4533.62
376.17	4325.31
376.37	4390.84
376.56	4545.32
376.76	4833.21
376.95	5231.10
377.15	5568.13
377.35	5593.88
377.54	6113.48
377.74	6188.38
377.93	6160.29
378.13	5987.09
378.33	5661.76
378.52	5132.79
378.72	5074.28
378.91	5018.11
379.11	4755.97
379.31	4692.77
379.50	4503.19
379.70	4987.68
379.89	5535.37
380.09	5825.59
380.28	6036.24
380.48	6090.07
380.68	5959.00
380.87	5753.04
381.07	5317.70
381.26	4898.74
381.46	4573.41
381.65	4479.79
381.85	4362.76
382.04	4189.56
382.24	3950.82
382.43	3868.91
382.63	3564.64
382.83	3686.34
383.02	3756.56
383.22	3475.70
383.41	3555.27
383.61	3875.93
383.80	4505.53
384.00	5102.37
384.19	5727.29
384.39	6015.18
384.58	5792.83
384.78	5799.85
384.97	5703.89
385.17	5425.36
385.36	5266.21
385.56	4873.00
385.75	5107.05
385.95	5593.88
386.14	6141.57
386.34	6237.53
386.53	5884.11
386.72	5514.30
386.92	5636.01
387.11	5781.12
387.31	6001.13
387.50	5881.77
387.70	5619.63
387.89	5776.44
388.09	5738.99
388.28	5874.74
388.48	5816.23
388.67	6392.00
388.86	7087.14
389.06	7410.14
389.25	7964.84
389.45	8138.04
389.64	7934.42
389.84	7789.30
390.03	7651.21
390.22	7817.39
390.42	7911.01
390.61	8540.61
390.81	9137.45
391.00	8973.61
391.19	9076.60
391.39	8922.12
391.58	8173.15
391.78	7873.56
391.97	7536.52
392.16	7007.56
392.36	6499.67
392.55	5256.84
392.75	4135.73
392.94	3342.28
393.13	3302.50
393.33	3988.27
393.52	5121.09
393.71	6202.42
393.91	7047.35
394.10	7503.76
394.29	8287.84
394.49	8943.19
394.68	9558.75
394.88	9715.56
395.07	9921.53
395.26	9949.62
395.46	9507.26
395.65	9195.96
395.84	8098.25
396.04	6815.64
396.23	5341.10
396.42	4648.30
396.62	4414.25
396.81	5261.52
397.00	6612.01
397.19	8152.09
397.39	9692.16
397.58	10970.09
397.77	11658.21
397.97	12269.09
398.16	12123.98
398.35	12865.92
398.55	13027.42
398.74	13518.93
398.93	13851.29
399.12	13504.89
399.32	13036.78
399.51	13509.57
399.70	14237.48
399.90	14078.32
400.09	14071.30
400.28	14118.11
400.47	14387.27
400.67	15094.11
400.86	15094.11
401.05	15051.99
401.24	15157.31
401.44	15857.13
401.63	15386.68
401.82	15571.58
402.01	15679.25
402.21	15812.66
402.40	16350.98
402.59	15613.71
402.78	14532.39
402.97	14274.93
403.17	14944.32
403.36	15583.29
403.55	16250.34
403.74	16826.11
403.93	15934.37
404.13	14892.83
404.32	14427.06
404.51	14855.38
404.70	16100.55
404.89	16215.23
405.09	15817.34
405.28	15559.88
405.47	15377.32
405.66	15557.54
405.85	15396.04
406.05	14771.12
406.24	14974.75
406.43	15225.18
406.62	15997.56
406.81	16140.33
407.00	15550.52
407.20	15522.43
407.39	15393.70
407.58	16067.78
407.77	16603.76
407.96	17308.26
408.15	17207.62
408.34	17673.39
408.54	18146.17
408.73	18293.63
408.92	18321.71
409.11	17558.70
409.30	16507.80
409.49	15641.80
409.68	14618.99
409.87	14312.38
410.07	15297.74
410.26	16198.85
410.45	17118.68
410.64	17703.81
410.83	18286.61
411.02	18853.02
411.21	19611.35
411.40	19178.35
411.59	19063.66
411.78	19147.92
411.98	18836.63
412.17	19286.01
412.36	18700.88
412.55	18995.79
412.74	18817.91
412.93	18141.49
413.12	18607.26
413.31	20060.73
413.50	20084.14
413.69	20638.84
413.88	19690.93
414.07	19346.87
414.26	19749.44
414.45	20332.23
414.64	19960.09
414.83	20400.11
415.02	19953.07
415.22	20130.95
415.41	20290.10
415.60	21001.63
415.79	21736.56
415.98	21769.32
416.17	22520.63
416.36	21940.18
416.55	21532.93
416.74	20699.70
416.93	20318.19
417.12	20287.76
417.31	20493.73
417.50	20802.68
417.69	21390.16
417.88	21785.71
418.07	21097.59
418.26	21013.33
418.45	20772.25
418.64	21851.24
418.83	22562.76
419.02	22389.56
419.21	21944.86
419.39	20940.77
419.58	19999.88
419.77	20236.27
419.96	21289.51
420.15	22223.39
420.34	22845.97
420.53	23896.87
420.72	23999.85
420.91	23885.17
421.10	23536.43
421.29	23487.28
421.48	22965.34
421.67	23601.96
421.86	23007.47
422.05	21530.59
422.24	19278.99
422.43	19051.96
422.61	21158.44
422.80	22855.33
422.99	22836.61
423.18	22019.76
423.37	21528.25
423.56	21745.92
423.75	22171.89
423.94	22471.48
424.13	21231.00
424.32	21165.46
424.50	21596.12
424.69	21144.40
424.88	21537.61
425.07	21252.06
425.26	21020.35
425.45	21160.78
425.64	20884.60
425.83	20680.97
426.01	22087.64
426.20	22361.48
426.39	22068.91
426.58	21034.39
426.77	19124.52
426.96	18483.21
427.15	19159.63
427.33	20521.82
427.52	21612.51
427.71	21298.88
427.90	21366.75
428.09	21254.40
428.28	20524.16
428.46	19941.36
428.65	19454.53
428.84	20163.72
429.03	20629.48
429.22	19321.12
429.40	18546.40
429.59	16634.19
429.78	14827.29
429.97	14841.34
430.16	15044.96
430.34	15028.58
430.53	15239.23
430.72	15557.54
430.91	17146.76
431.10	20044.35
431.28	23676.86
431.47	25357.36
431.66	26012.71
431.85	23410.04
432.03	21617.19
432.22	20957.16
432.41	21572.72
432.60	24098.16
432.79	24706.70
432.97	25483.75
433.16	24840.11
433.35	22813.20
433.54	20477.35
433.72	18923.23
433.91	19796.25
434.10	22026.78
434.28	23550.47
434.47	25022.67
434.66	24814.36
434.85	24051.34
435.03	23838.36
435.22	24531.15
435.41	25802.07
435.59	26050.16
435.78	26127.40
435.97	26852.97
436.16	26810.84
436.34	26532.31
436.53	26031.44
436.72	25970.58
436.90	24776.91
437.09	24636.48
437.28	24130.92
437.46	25392.47
437.65	24821.38
437.84	23283.65
438.02	21523.57
438.21	21137.38
438.40	22679.79
438.58	24334.55
438.77	25010.96
438.96	25525.88
439.14	26368.48
439.33	27187.66
439.52	27407.67
439.70	27016.80
439.89	26204.64
440.08	25331.62
440.26	25544.61
440.45	26574.44
440.63	28093.45
440.82	29804.38
441.01	29518.84
441.19	28542.83
441.38	29329.25
441.57	30087.59
441.75	30590.80
441.94	30883.37
442.12	30508.88
442.31	31299.98
442.50	31077.63
442.68	30881.03
442.87	30352.07
443.05	29605.44
443.24	30120.35
443.43	31393.61
443.61	31644.04
443.80	32016.19
443.98	30064.18
444.17	30333.34
444.35	31913.20
444.54	32180.03
444.73	32034.91
444.91	30944.22
445.10	29731.83
445.28	28280.69
445.47	27850.03
445.65	28360.27
445.84	28975.83
446.02	29876.94
446.21	30380.15
446.39	30485.48
446.58	30771.02
446.77	31302.32
446.95	31817.24
447.14	32411.74
447.32	33046.02
447.51	32573.24
447.69	31117.42
447.88	30562.72
448.06	31133.81
448.25	31866.39
448.43	32140.24
448.62	30974.65
448.80	31189.98
448.99	31243.81
449.17	31669.79
449.36	32065.34
449.54	32985.17
449.73	33692.01
449.91	34169.48
450.10	34857.60
450.28	34951.22
450.46	34927.81
450.65	35276.55
450.83	34632.91
451.02	33605.41
451.20	33675.63
451.39	33926.07
451.57	33301.14
451.76	33453.28
451.94	33497.75
452.13	32872.82
452.31	31372.54
452.49	29848.85
452.68	30267.81
452.86	30246.74
453.05	30838.90
453.23	31337.43
453.42	32308.76
453.60	32978.15
453.78	33340.93
453.97	33315.19
454.15	33397.10
454.34	32098.11
454.52	32521.74
454.70	31927.25
454.89	32315.78
455.07	32437.48
455.26	32683.24
455.44	34199.91
455.62	34817.81
455.81	34665.67
455.99	34941.86
456.17	34487.79
456.36	34312.25
456.54	35089.31
456.73	34983.99
456.91	36142.55
457.09	35840.62
457.28	36641.09
457.46	35332.73
457.64	34955.90
457.83	33975.22
458.01	33076.45
458.19	34448.00
458.38	34129.69
458.56	35288.26
458.74	35440.39
458.93	34803.77
459.11	34806.11
459.29	34326.30
459.48	34679.72
459.66	34295.87
459.84	34787.38
460.03	34976.97
460.21	35002.71
460.39	36275.96
460.57	35695.51
460.76	36613.00
460.94	36172.98
461.12	35929.56
461.31	36126.17
461.49	35875.73
461.67	35957.65
461.85	37251.97
462.04	36968.76
462.22	37230.90
462.40	37062.38
462.59	36790.88
462.77	36842.37
462.95	37144.30
463.13	36687.90
463.32	36088.72
463.50	35798.49
463.68	35810.20
463.86	35887.43
464.05	35175.91
464.23	34761.64
464.41	34841.21
464.59	33963.51
464.78	36051.27
464.96	35402.94
465.14	35150.17
465.32	36032.55
465.50	37464.96
465.69	37170.05
465.87	36383.63
466.05	35709.55
466.23	34213.95
466.41	33350.29
466.60	34518.22
466.78	34249.06
466.96	34796.74
467.14	35627.63
467.32	35934.24
467.51	35971.69
467.69	34682.06
467.87	34845.90
468.05	35800.83
468.23	35873.39
468.41	35831.26
468.60	35747.00
468.78	35885.09
468.96	35690.83
469.14	36538.10
469.32	36268.94
469.50	34876.32
469.69	35138.46
469.87	34862.28
470.05	34438.64
470.23	34366.09
470.41	34955.90
470.59	35477.84
470.77	35346.77
470.95	36144.89
471.14	36404.69
471.32	36723.01
471.50	38855.23
471.68	38962.90
471.86	39398.24
472.04	39281.21
472.22	39065.88
472.40	37425.17
472.58	37170.05
472.77	36238.51
472.95	36921.95
473.13	38529.90
473.31	36900.89
473.49	37577.30
473.67	38588.41
473.85	38316.91
474.03	39620.59
474.21	39342.06
474.39	40039.54
474.57	40051.25
474.75	39875.71
474.93	40076.99
475.12	38880.98
475.30	39199.29
475.48	39049.50
475.66	39866.34
475.84	39332.70
476.02	38759.27
476.20	38387.13
476.38	39253.12
476.56	40350.84
476.74	40868.09
476.92	40994.48
477.10	41226.20
477.28	42485.40
477.46	42719.46
477.64	43461.41
477.82	43318.64
478.00	43800.79
478.18	42660.94
478.36	42918.40
478.54	42852.87
478.72	42789.67
478.90	43456.73
479.08	45251.92
479.26	45464.91
479.44	45251.92
479.62	45097.44
479.80	44758.06
479.98	45523.42
480.16	46017.27
480.34	45460.23
480.52	45371.28
480.70	45956.42
480.88	46019.61
481.06	46583.68
481.24	46653.90
481.41	47821.83
481.59	48643.35
481.77	47950.56
481.95	47515.22
482.13	47239.03
482.31	47346.70
482.49	48158.86
482.67	48357.81
482.85	48404.62
483.03	48669.10
483.21	48872.73
483.39	49062.31
483.57	48582.50
483.74	47906.08
483.92	48528.67
484.10	48273.55
484.28	49427.43
484.46	49708.30
484.64	50157.68
484.82	49439.14
485.00	48868.05
485.18	48397.60
485.35	46841.14
485.53	43573.75
485.71	40076.99
485.89	39459.09
486.07	41691.96
486.25	44978.07
486.43	47189.88
486.61	47723.52
486.78	47952.90
486.96	48250.14
487.14	49539.78
487.32	50291.09
487.50	51388.80
487.68	52275.87
487.85	52573.11
488.03	52704.18
488.21	52245.44
488.39	51480.08
488.57	50820.05
488.75	50553.23
488.92	51669.67
489.10	53621.67
489.28	54857.48
489.46	55370.05
489.64	55365.37
489.81	55576.02
489.99	55262.39
490.17	55316.22
490.35	55531.55
490.53	55203.88
490.70	54836.41
490.88	54733.43
491.06	55454.31
491.24	55468.36
491.41	54752.15
491.59	52973.34
491.77	52467.79
491.95	52966.32
492.13	54651.51
492.30	55767.94
492.48	56392.87
492.66	56896.08
492.84	56839.91
493.01	56479.47
493.19	55983.27
493.37	55622.83
493.54	55576.02
493.72	56030.08
493.90	57233.12
494.08	57729.31
494.25	58054.65
494.43	58199.76
494.61	58614.04
494.79	58651.48
494.96	58370.62
495.14	58000.82
495.32	57097.37
495.49	56481.81
495.67	57420.36
495.85	58616.38
496.02	59037.67
496.20	58918.31
496.38	58096.78
496.55	58398.71
496.73	58796.60
496.91	58904.26
497.09	59318.54
497.26	59578.34
497.44	58937.03
497.62	58438.50
497.79	57937.62
497.97	56671.39
498.14	56985.02
498.32	57911.88
498.50	59044.69
498.67	59285.77
498.85	59096.19
499.03	59161.72
499.20	59428.54
499.38	59339.60
499.56	59360.67
499.73	58880.86
499.91	58665.53
500.08	58110.82
500.26	57382.91
500.44	57862.72
500.61	58710.00
500.79	58436.16
500.97	58113.16
501.14	57958.69
501.32	57851.02
501.49	57956.35
501.67	57975.07
501.84	58461.90
502.02	58693.61
502.20	59061.08
502.37	59117.25
502.55	59334.92
502.72	59646.21
502.90	60104.96
503.07	59941.12
503.25	59473.01
503.43	58639.78
503.60	58066.35
503.78	57616.97
503.95	57928.26
504.13	59185.13
504.30	59906.01
504.48	59749.20
504.65	59470.67
504.83	59334.92
505.01	60020.70
505.18	60467.74
505.36	60924.14
505.53	60940.53
505.71	61223.73
505.88	61394.59
506.06	60624.56
506.23	60392.84
506.41	59835.80
506.58	60200.92
506.76	59962.18
506.93	60034.74
507.11	59889.63
507.28	59807.71
507.46	59814.73
507.63	58993.20
507.81	58841.07
507.98	59199.17
508.16	59978.57
508.33	60107.30
508.50	60636.26
508.68	60856.27
508.85	61270.54
509.03	61324.38
509.20	61132.45
509.38	60348.37
509.55	59831.11
509.73	59833.46
509.90	60374.12
510.08	60741.58
510.25	60451.36
510.42	60434.97
510.60	60275.82
510.77	60584.77
510.95	61249.48
511.12	61263.52
511.30	61394.59
511.47	61652.05
511.64	61399.27
511.82	61464.81
511.99	60673.71
512.17	60210.28
512.34	59861.54
512.51	60086.23
512.69	60350.71
512.86	60243.05
513.04	60985.00
513.21	60589.45
513.38	60523.91
513.56	59845.16
513.73	59299.81
513.90	59496.42
514.08	59688.34
514.25	60088.57
514.43	60051.12
514.60	60257.09
514.77	60449.02
514.95	60481.78
515.12	60154.11
515.29	60495.83
515.47	60942.87
515.64	61162.88
515.81	60694.77
515.99	60191.56
516.16	58930.01
516.33	56575.43
516.51	55662.62
516.68	54761.51
516.85	54213.83
517.03	54913.65
517.20	57219.08
517.37	59599.40
517.54	60463.06
517.72	59985.59
517.89	57586.54
518.06	55517.51
518.24	56151.79
518.41	57836.98
518.58	58988.52
518.75	59374.71
518.93	59437.90
519.10	59458.97
519.27	59873.24
519.45	60088.57
519.62	60594.13
519.79	60917.12
519.96	60566.04
520.14	60060.49
520.31	59515.14
520.48	59540.89
520.65	59992.61
520.83	60708.82
521.00	61223.73
521.17	60713.50
521.34	60474.76
521.52	60816.48
521.69	61193.31
521.86	61546.73
522.03	61476.51
522.20	60032.40
522.38	59040.01
522.55	59096.19
522.72	59709.41
522.89	59887.29
523.07	60420.93
523.24	60493.49
523.41	61151.18
523.58	61476.51
523.75	61879.08
523.92	61539.71
524.10	61666.09
524.27	61593.54
524.44	61364.17
524.61	61298.63
524.78	61130.11
524.96	61036.49
525.13	61329.06
525.30	61413.32
525.47	61755.03
525.64	61642.69
525.81	60942.87
525.98	59678.98
526.16	58232.53
526.33	57893.15
526.50	57598.24
526.67	57223.76
526.84	57872.09
527.01	58674.89
527.18	59517.48
527.36	60238.37
527.53	61062.24
527.70	61453.11
527.87	60612.85
528.04	60343.69
528.21	60893.72
528.38	61282.25
528.55	61977.39
528.72	62188.03
528.89	62382.30
529.07	62136.54
529.24	61446.08
529.41	60720.52
529.58	60299.22
529.75	60257.09
529.92	60802.44
530.09	61336.08
530.26	61806.53
530.43	62010.15
530.60	62054.62
530.77	62164.63
530.94	62368.26
531.11	61822.91
531.28	61492.89
531.46	61214.37
531.63	61476.51
531.80	61251.82
531.97	60938.19
532.14	60383.48
532.31	59114.91
532.48	58838.73
532.65	58707.66
532.82	59728.13
532.99	60594.13
533.16	60933.51
533.33	61331.40
533.50	61193.31
533.67	60566.04
533.84	60339.01
534.01	60451.36
534.18	60519.23
534.35	60804.78
534.52	60708.82
534.69	60846.91
534.86	61123.09
535.03	61563.11
535.20	61855.68
535.37	62218.46
535.54	62157.61
535.71	61794.82
535.88	61675.46
536.05	60963.93
536.22	60853.93
536.38	60470.08
536.55	59898.99
536.72	59426.20
536.89	59496.42
537.06	60317.95
537.23	60996.70
537.40	61146.50
537.57	61148.84
537.74	60748.60
537.91	60963.93
538.08	60814.14
538.25	60975.64
538.42	61099.68
538.59	60961.59
538.75	60303.90
538.92	60046.44
539.09	60037.08
539.26	59997.29
539.43	59653.23
539.60	59828.77
539.77	59854.52
539.94	59849.84
540.11	59161.72
540.28	58555.52
540.44	58630.42
540.61	58784.90
540.78	59306.83
540.95	59760.90
541.12	59917.71
541.29	60081.55
541.46	60364.76
541.62	60589.45
541.79	60142.41
541.96	59615.79
542.13	59779.62
542.30	59924.74
542.47	60168.15
542.63	59873.24
542.80	59852.18
542.97	60062.83
543.14	59618.13
543.31	59700.04
543.48	60355.39
543.64	61001.38
543.81	61270.54
543.98	60921.80
544.15	60261.77
544.32	59814.73
544.48	60001.97
544.65	60226.66
544.82	60734.56
544.99	60357.74
545.16	59943.46
545.32	59838.14
545.49	60533.28
545.66	61095.00
545.83	60540.30
546.00	60100.28
546.16	59973.89
546.33	59835.80
546.50	60079.21
546.67	60402.21
546.83	59884.95
547.00	60102.62
547.17	59468.33
547.34	58618.72
547.50	58962.78
547.67	59103.21
547.84	59482.37
548.00	59700.04
548.17	60133.04
548.34	60116.66
548.51	60048.78
548.67	60093.25
548.84	59990.27
549.01	59924.74
549.18	59976.23
549.34	59884.95
549.51	59980.91
549.68	59774.94
549.84	59430.88
550.01	59400.46
550.18	59543.23
550.34	59576.00
550.51	59505.78
550.68	59573.66
550.84	59234.28
551.01	59327.90
551.18	59278.75
551.34	59526.84
551.51	59592.38
551.68	59950.48
551.84	59896.65
552.01	59941.12
552.18	59821.75
552.34	58866.81
552.51	58567.23
552.68	58646.80
552.84	58960.44
553.01	59224.92
553.18	59292.79
553.34	59325.56
553.51	59351.30
553.67	59568.97
553.84	60062.83
554.01	59618.13
554.17	59428.54
554.34	59536.21
554.51	59737.49
554.67	59920.05
554.84	59856.86
555.00	59531.53
555.17	59337.26
555.33	59203.85
555.50	59276.41
555.67	59276.41
555.83	59049.38
556.00	58761.49
556.16	58922.99
556.33	58368.28
556.50	58333.17
556.66	58546.16
556.83	58082.73
556.99	58246.57
557.16	58333.17
557.32	58707.66
557.49	58946.39
557.65	58754.47
557.82	58759.15
557.98	58618.72
558.15	58288.70
558.32	57284.61
558.48	56640.96
558.65	56884.38
558.81	57148.86
558.98	57396.96
559.14	57806.55
559.31	57790.17
559.47	57921.24
559.64	57602.92
559.80	57179.29
559.97	57125.46
560.13	57745.70
560.30	58658.51
560.46	58995.54
560.63	58962.78
560.79	59063.42
560.96	58756.81
561.12	57729.31
561.29	56797.78
561.45	57109.07
561.61	57513.98
561.78	57965.71
561.94	57684.84
562.11	57539.73
562.27	57642.71
562.44	57862.72
562.60	58138.91
562.77	58372.96
562.93	58087.42
563.10	58234.87
563.26	57460.15
563.42	57806.55
563.59	57593.56
563.75	57513.98
563.92	57389.94
564.08	57623.99
564.24	57865.06
564.41	57647.39
564.57	57652.08
564.74	57408.66
564.90	57375.89
565.07	57284.61
565.23	56907.79
565.39	56516.92
565.56	56315.63
565.72	56203.28
565.88	56449.04
566.05	56423.29
566.21	56872.68
566.38	56994.39
566.54	57099.71
566.70	57006.09
566.87	57366.53
567.03	57329.08
567.19	57649.74
567.36	57411.00
567.52	57228.44
567.68	56846.93
567.85	56395.21
568.01	56214.99
568.17	55704.75
568.34	55707.09
568.50	55674.32
568.66	55807.73
568.83	56247.75
568.99	56315.63
569.15	56271.16
569.32	56193.92
569.48	56072.21
569.64	55931.78
569.81	55725.81
569.97	55863.91
570.13	55552.62
570.30	55077.49
570.46	54735.77
570.62	54157.66
570.78	54244.26
570.95	54543.84
571.11	55309.20
571.27	55421.55
571.43	55384.10
571.60	55950.51
571.76	55821.78
571.92	56149.45
572.09	56343.72
572.25	56287.54
572.41	56465.42
572.57	55877.95
572.74	56107.32
572.90	55669.64
573.06	55730.50
573.22	55618.15
573.38	55936.46
573.55	55756.24
573.71	55894.33
573.87	55877.95
574.03	55592.40
574.20	55599.43
574.36	55159.41
574.52	55037.70
574.68	55009.61
574.84	54513.42
575.01	54351.92
575.17	54094.46
575.33	54372.99
575.49	54464.27
575.65	54972.16
575.82	54539.16
575.98	54190.42
576.14	54443.20
576.30	54932.37
576.46	55014.29
576.62	54925.35
576.79	54927.69
576.95	54585.97
577.11	54555.55
577.27	54625.76
577.43	54679.60
577.59	54255.96
577.75	54031.27
577.92	53474.22
578.08	53223.78
578.24	53062.29
578.40	53705.93
578.56	53769.13
578.72	53968.07
578.88	54010.20
579.04	53895.52
579.21	54167.02
579.37	54199.79
579.53	54150.63
579.69	54452.56
579.85	54412.77
580.01	54433.84
580.17	53502.31
580.33	53502.31
580.49	53701.25
580.65	53935.30
580.82	54267.66
580.98	54124.89
581.14	54321.49
581.30	54368.30
581.46	54019.56
581.62	54241.92
581.78	54330.86
581.94	54408.09
582.10	54246.60
582.26	54429.16
582.42	54363.62
582.58	54328.52
582.74	54291.07
582.90	54410.43
583.06	54438.52
583.22	54028.93
583.38	54047.65
583.54	54040.63
583.70	54176.38
583.86	53897.86
584.02	54057.01
584.18	54106.16
584.34	53893.18
584.50	53792.53
584.66	53656.78
584.82	53373.58
584.98	53029.52
585.14	52816.53
585.30	52371.83
