SpectraSuite Data File
++++++++++++++++++++++++++++++++++++
Date: Mon Oct 07 14:55:02 GMT-05:00 2013
User: price-jones
Dark Spectrum Present: No
Reference Spectrum Present: No
Number of Sampled Component Spectra: 1
Spectrometers: USB2+H05261
Integration Time (usec): 10000 (USB2+H05261)
Spectra Averaged: 1 (USB2+H05261)
Boxcar Smoothing: 0 (USB2+H05261)
Correct for Electrical Dark: No (USB2+H05261)
Strobe/Lamp Enabled: No (USB2+H05261)
Correct for Detector Non-linearity: No (USB2+H05261)
Correct for Stray Light: No (USB2+H05261)
Number of Pixels in Processed Spectrum: 2048
>>>>>Begin Processed Spectral Data<<<<<
365.73	0.00
365.92	0.00
366.12	0.00
366.32	0.00
366.52	0.00
366.72	0.00
366.91	0.00
367.11	0.00
367.31	0.00
367.51	0.00
367.70	0.00
367.90	0.00
368.10	0.00
368.30	0.00
368.49	0.00
368.69	0.00
368.89	0.00
369.09	0.00
369.28	0.00
369.48	0.00
369.68	0.00
369.87	0.00
370.07	0.00
370.27	0.00
370.47	493.85
370.66	2827.37
370.86	3375.05
371.06	3662.94
371.25	3403.14
371.45	3115.25
371.65	2745.45
371.84	2850.77
372.04	3133.98
372.24	3229.94
372.44	3255.69
372.63	3337.60
372.83	2895.24
373.03	2605.02
373.22	2499.69
373.42	2684.59
373.62	3192.49
373.81	3335.26
374.01	3377.39
374.21	2897.58
374.40	2780.56
374.60	2993.55
374.79	3513.14
374.99	4025.72
375.19	4114.66
375.38	4088.92
375.58	3660.60
375.78	3768.26
375.97	3918.06
376.17	3882.95
376.37	4180.20
376.56	4177.86
376.76	4292.54
376.95	4652.98
377.15	4987.68
377.35	5064.92
377.54	5378.55
377.74	5596.22
377.93	5364.51
378.13	5282.59
378.33	4840.23
378.52	4524.26
378.72	4535.96
378.91	4374.46
379.11	4367.44
379.31	4107.64
379.50	4168.49
379.70	4578.09
379.89	4978.32
380.09	5268.55
380.28	5584.52
380.48	5376.21
380.68	5296.63
380.87	4915.12
381.07	4786.40
381.26	4198.92
381.46	4142.75
381.65	3906.35
381.85	3854.86
382.04	3550.59
382.24	3478.04
382.43	3241.64
382.63	3375.05
382.83	3131.64
383.02	3304.84
383.22	3234.62
383.41	3325.90
383.61	3538.89
383.80	4243.39
384.00	4725.54
384.19	5526.00
384.39	5331.74
384.58	5301.31
384.78	5240.46
384.97	5317.70
385.17	4877.68
385.36	4704.48
385.56	4578.09
385.75	4919.81
385.95	5303.65
386.14	5813.89
386.34	5659.42
386.53	5179.61
386.72	4947.89
386.92	5071.94
387.11	5664.10
387.31	5781.12
387.50	5563.45
387.70	5465.15
387.89	5322.38
388.09	5305.99
388.28	5224.08
388.48	5481.53
388.67	6047.94
388.86	6576.91
389.06	7152.68
389.25	7375.03
389.45	7548.23
389.64	7342.26
389.84	7178.42
390.03	6967.77
390.22	7087.14
390.42	7770.58
390.61	7967.18
390.81	8592.11
391.00	8887.01
391.19	8496.14
391.39	8065.49
391.58	7709.72
391.78	7461.63
391.97	6895.22
392.16	6525.41
392.36	5860.70
392.55	4432.97
392.75	3562.30
392.94	3082.49
393.13	3234.62
393.33	3985.93
393.52	5078.96
393.71	6073.69
393.91	6703.29
394.10	7279.07
394.29	7896.97
394.49	8704.45
394.68	9027.45
394.88	8985.32
395.07	9563.43
395.26	9369.16
395.46	8898.72
395.65	8318.26
395.84	7122.25
396.04	5970.71
396.23	4821.50
396.42	4074.87
396.62	4112.32
396.81	5238.12
397.00	6565.20
397.19	8231.66
397.39	9521.30
397.58	10558.16
397.77	11119.89
397.97	11623.10
398.16	11957.80
398.35	12140.36
398.55	12311.22
398.74	12898.69
398.93	13259.13
399.12	12898.69
399.32	12659.96
399.51	12980.61
399.70	13678.09
399.90	13317.65
400.09	13628.94
400.28	13336.37
400.47	13792.78
400.67	14010.45
400.86	14558.13
401.05	14576.86
401.24	14827.29
401.44	14831.97
401.63	14902.19
401.82	15154.97
402.01	14686.86
402.21	14927.94
402.40	15250.93
402.59	14537.07
402.78	13638.30
402.97	14153.22
403.17	14689.20
403.36	15131.56
403.55	15917.98
403.74	15899.26
403.93	14939.64
404.13	13855.97
404.32	13841.93
404.51	15087.09
404.70	15400.72
404.89	15272.00
405.09	15358.60
405.28	14897.51
405.47	14979.43
405.66	14771.12
405.85	14211.73
406.05	13902.78
406.24	14256.20
406.43	15204.12
406.62	15625.42
406.81	15702.65
407.00	15293.06
407.20	14630.69
407.39	14974.75
407.58	15606.69
407.77	16585.04
407.96	16587.38
408.15	17048.46
408.34	17118.68
408.54	17954.25
408.73	17762.33
408.92	17495.50
409.11	16938.46
409.30	15620.74
409.49	14768.78
409.68	14391.95
409.87	13954.27
410.07	15040.28
410.26	16095.86
410.45	16910.37
410.64	17654.66
410.83	18125.11
411.02	18408.31
411.21	18963.02
411.40	18881.10
411.59	19232.18
411.78	18735.99
411.98	18553.43
412.17	18766.42
412.36	18721.95
412.55	18815.57
412.74	17886.37
412.93	17970.63
413.12	18396.61
413.31	20177.76
413.50	20149.67
413.69	19826.68
413.88	19283.67
414.07	19058.98
414.26	19829.02
414.45	20081.80
414.64	19648.80
414.83	19761.14
415.02	19344.53
415.22	19550.49
415.41	20278.40
415.60	20779.28
415.79	21287.17
415.98	21961.25
416.17	21809.11
416.36	21425.26
416.55	21078.86
416.74	20245.63
416.93	20173.08
417.12	19786.89
417.31	19880.51
417.50	20655.23
417.69	21638.25
417.88	21137.38
418.07	20582.67
418.26	20582.67
418.45	21212.28
418.64	21804.43
418.83	22780.43
419.02	22300.62
419.21	21745.92
419.39	20725.44
419.58	19943.70
419.77	20224.57
419.96	21317.60
420.15	22401.27
420.34	23204.07
420.53	23220.45
420.72	24020.92
420.91	23627.71
421.10	23323.44
421.29	22988.74
421.48	22803.84
421.67	23882.83
421.86	22375.52
422.05	20814.38
422.24	18789.82
422.43	20030.30
422.61	22265.52
422.80	23117.47
422.99	22698.52
423.18	21706.13
423.37	21708.47
423.56	21937.84
423.75	22244.45
423.94	22661.07
424.13	21851.24
424.32	21380.79
424.50	21551.65
424.69	21509.52
424.88	21900.39
425.07	21474.42
425.26	22038.48
425.45	21069.50
425.64	20851.83
425.83	21118.65
426.01	22391.91
426.20	22569.79
426.39	22338.07
426.58	20311.17
426.77	19129.20
426.96	19187.71
427.15	19955.41
427.33	21369.09
427.52	22160.19
427.71	22141.47
427.90	22125.08
428.09	21736.56
428.28	21090.57
428.46	19875.83
428.65	20039.67
428.84	20709.06
429.03	20828.43
429.22	19559.86
429.40	18005.74
429.59	16358.00
429.78	14836.66
429.97	15016.88
430.16	15087.09
430.34	15000.49
430.53	15438.17
430.72	16248.00
430.91	18302.99
431.10	21378.45
431.28	24311.14
431.47	26501.89
431.66	25549.29
431.85	22815.54
432.03	21362.07
432.22	21465.05
432.41	23159.60
432.60	24865.85
432.79	25282.47
432.97	25584.40
433.16	24418.81
433.35	22207.00
433.54	19999.88
433.72	19660.50
433.91	21106.95
434.10	23545.79
434.28	24673.93
434.47	25860.58
434.66	24774.57
434.85	24353.27
435.03	24542.86
435.22	25371.41
435.41	26506.57
435.59	26979.36
435.78	26787.43
435.97	28107.49
436.16	27564.49
436.34	27285.97
436.53	26548.70
436.72	26820.20
436.90	25465.03
437.09	25415.88
437.28	24732.44
437.46	26286.56
437.65	25418.22
437.84	22841.29
438.02	21958.91
438.21	22384.88
438.40	23300.03
438.58	24898.62
438.77	26312.30
438.96	26654.02
439.14	27569.17
439.33	27789.18
439.52	28009.19
439.70	26998.08
439.89	26572.10
440.08	26398.90
440.26	26644.66
440.45	27370.22
440.63	29392.45
440.82	29883.96
441.01	29479.05
441.19	29710.76
441.38	30340.36
441.57	31613.62
441.75	31335.09
441.94	31768.09
442.12	31461.48
442.31	33027.30
442.50	32275.99
442.68	31559.78
442.87	31620.64
443.05	31007.42
443.24	31878.10
443.43	32233.86
443.61	32797.93
443.80	33439.23
443.98	32496.00
444.17	31550.42
444.35	32999.21
444.54	33369.02
444.73	33008.58
444.91	31253.17
445.10	30012.69
445.28	29497.77
445.47	28910.30
445.65	29118.60
445.84	29961.20
446.02	30766.34
446.21	31374.88
446.39	32254.92
446.58	32074.70
446.77	33209.86
446.95	32858.78
447.14	34153.10
447.32	34726.53
447.51	33867.55
447.69	32336.84
447.88	32329.82
448.06	32863.46
448.25	33123.26
448.43	33113.90
448.62	32388.33
448.80	32343.86
448.99	32732.39
449.17	33322.21
449.36	33692.01
449.54	34948.88
449.73	35131.44
449.91	35541.03
450.10	37244.94
450.28	36793.22
450.46	36575.55
450.65	36498.31
450.83	36381.29
451.02	35697.85
451.20	35405.28
451.39	35384.22
451.57	35337.41
451.76	35323.36
451.94	34726.53
452.13	33696.69
452.31	32290.03
452.49	31154.87
452.68	32079.38
452.86	32098.11
453.05	32748.78
453.23	33986.92
453.42	34071.18
453.60	35388.90
453.78	35051.86
453.97	35136.12
454.15	34335.66
454.34	33387.74
454.52	33441.57
454.70	33446.26
454.89	34022.03
455.07	33675.63
455.26	34815.47
455.44	35814.88
455.62	36275.96
455.81	36011.48
455.99	36308.73
456.17	35992.76
456.36	36975.78
456.54	37184.09
456.73	36741.73
456.91	37656.88
457.09	37577.30
457.28	38686.71
457.46	36318.09
457.64	36589.59
457.83	35765.73
458.01	35049.52
458.19	36271.28
458.38	37317.50
458.56	37862.85
458.74	37240.26
458.93	36425.76
459.11	36067.66
459.29	36137.87
459.48	36657.47
459.66	35489.54
459.84	36470.23
460.03	36411.71
460.21	37495.38
460.39	38618.84
460.57	37823.06
460.76	38256.06
460.94	38274.78
461.12	38033.71
461.31	38043.07
461.49	38649.27
461.67	38347.34
461.85	39779.74
462.04	38974.60
462.22	39082.27
462.40	39115.03
462.59	38347.34
462.77	39206.31
462.95	38366.06
463.13	38745.23
463.32	37567.94
463.50	37544.53
463.68	37509.43
463.86	38223.29
464.05	36907.91
464.23	36615.34
464.41	36400.01
464.59	36055.95
464.78	37633.47
464.96	37097.49
465.14	36559.17
465.32	38602.46
465.50	40013.80
465.69	40091.04
465.87	38923.11
466.05	37170.05
466.23	36439.80
466.41	35288.26
466.60	36968.76
466.78	36458.52
466.96	36751.09
467.14	37607.73
467.32	37888.59
467.51	38014.98
467.69	35981.06
467.87	37780.93
468.05	37944.76
468.23	37993.92
468.41	37993.92
468.60	38279.46
468.78	38293.50
468.96	38188.18
469.14	39360.79
469.32	38749.91
469.50	36793.22
469.69	37366.65
469.87	37013.23
470.05	36491.29
470.23	36795.56
470.41	37111.53
470.59	37464.96
470.77	37474.32
470.95	38087.54
471.14	39374.83
471.32	39342.06
471.50	41242.58
471.68	40954.69
471.86	41471.95
472.04	41521.10
472.22	41476.63
472.40	39976.35
472.58	39367.81
472.77	39192.27
472.95	40196.36
473.13	41551.53
473.31	40432.75
473.49	40252.53
473.67	41013.21
473.85	41413.44
474.03	42960.53
474.21	43075.22
474.39	43129.05
474.57	43058.84
474.75	43243.74
474.93	42447.96
475.12	41008.53
475.30	42029.00
475.48	41383.01
475.66	42256.03
475.84	41242.58
476.02	42061.77
476.20	41113.85
476.38	42150.71
476.56	42658.60
476.74	43924.83
476.92	43908.45
477.10	44245.49
477.28	45195.74
477.46	45750.45
477.64	46623.47
477.82	46733.48
478.00	46410.48
478.18	45170.00
478.36	44900.84
478.54	45701.30
478.72	46199.83
478.90	47821.83
479.08	48460.79
479.26	47938.85
479.44	48907.83
479.62	48177.59
479.80	48933.58
479.98	48238.44
480.16	48694.85
480.34	48046.52
480.52	49153.59
480.70	48729.95
480.88	49031.88
481.06	49090.40
481.24	49841.71
481.41	50841.12
481.59	51466.04
481.77	50141.30
481.95	50174.06
482.13	50279.39
482.31	50674.94
482.49	51409.87
482.67	50113.21
482.85	50756.86
483.03	51136.02
483.21	51786.69
483.39	51742.22
483.57	51281.14
483.74	51215.60
483.92	51262.41
484.10	51035.38
484.28	51587.75
484.46	51770.31
484.64	53104.41
484.82	51997.34
485.00	51800.74
485.18	51007.29
485.35	49151.25
485.53	43943.56
485.71	40950.01
485.89	42953.51
486.07	45949.40
486.25	48121.41
486.43	50281.73
486.61	50944.10
486.78	50309.82
486.96	51222.62
487.14	52568.43
487.32	53073.99
487.50	53867.43
487.68	55007.27
487.85	55283.45
488.03	54712.36
488.21	54035.95
488.39	54096.80
488.57	52573.11
488.75	52891.43
488.92	54468.95
489.10	55725.81
489.28	56423.29
489.46	57659.10
489.64	57436.75
489.81	57621.65
489.99	56999.07
490.17	57308.02
490.35	57258.87
490.53	57090.35
490.70	56786.08
490.88	56711.18
491.06	57750.38
491.24	58218.49
491.41	57120.77
491.59	55863.91
491.77	55304.52
491.95	56322.65
492.13	57497.60
492.30	57944.64
492.48	58784.90
492.66	58829.37
492.84	58550.84
493.01	58255.93
493.19	58021.88
493.37	57715.27
493.54	58078.05
493.72	59028.31
493.90	59276.41
494.08	59763.24
494.25	60020.70
494.43	60491.15
494.61	60757.97
494.79	60617.53
494.96	60807.12
495.14	60589.45
495.32	59187.47
495.49	59292.79
495.67	60210.28
495.85	61106.71
496.02	61689.50
496.20	60795.42
496.38	60486.46
496.55	60582.43
496.73	61326.72
496.91	61546.73
497.09	61537.36
497.26	61932.92
497.44	61256.50
497.62	60430.29
497.79	60006.65
497.97	59463.65
498.14	59737.49
498.32	60933.51
498.50	60755.63
498.67	60853.93
498.85	60989.68
499.03	61420.34
499.20	61694.18
499.38	61263.52
499.56	60659.66
499.73	60509.87
499.91	60299.22
500.08	59739.83
500.26	59608.76
500.44	60315.61
500.61	60608.17
500.79	60254.75
500.97	60233.69
501.14	59737.49
501.32	59482.37
501.49	59863.88
501.67	60420.93
501.84	60182.19
502.02	60739.24
502.20	61331.40
502.37	61144.16
502.55	61563.11
502.72	62340.17
502.90	62644.44
503.07	62213.78
503.25	61481.19
503.43	60537.96
503.60	60221.98
503.78	60032.40
503.95	60537.96
504.13	61752.69
504.30	62078.03
504.48	61162.88
504.65	61623.96
504.83	61661.41
505.01	62471.24
505.18	62693.59
505.36	63168.72
505.53	63086.80
505.71	62728.70
505.88	63334.90
506.06	62962.75
506.23	62557.84
506.41	62333.15
506.58	62365.91
506.76	62244.21
506.93	61607.58
507.11	61869.72
507.28	62087.39
507.46	61352.46
507.63	61535.02
507.81	61106.71
507.98	61506.94
508.16	62691.25
508.33	62422.09
508.50	62513.37
508.68	63199.15
508.85	63433.20
509.03	63494.05
509.20	63030.63
509.38	62267.61
509.55	62471.24
509.73	62691.25
509.90	62372.94
510.08	62520.39
510.25	62253.57
510.42	62042.92
510.60	62148.24
510.77	62979.14
510.95	62986.16
511.12	63332.56
511.30	64051.10
511.47	64142.38
511.64	63786.62
511.82	64032.38
511.99	63093.82
512.17	62761.47
512.34	62508.69
512.51	62651.46
512.69	62934.66
512.86	62543.80
513.04	62986.16
513.21	62239.53
513.38	61766.74
513.56	61443.74
513.73	60947.55
513.90	62145.90
514.08	61968.02
514.25	62031.22
514.43	62368.26
514.60	62489.96
514.77	62719.34
514.95	62827.00
515.12	62887.85
515.29	63039.99
515.47	63585.33
515.64	63458.94
515.81	63152.33
515.99	61965.68
516.16	60734.56
516.33	58705.32
516.51	58492.33
516.68	57141.84
516.85	56456.06
517.03	57972.73
517.20	60420.93
517.37	62230.16
517.54	62789.55
517.72	61689.50
517.89	58838.73
518.06	57378.23
518.24	58515.73
518.41	60619.88
518.58	61822.91
518.75	61715.25
518.93	61563.11
519.10	61160.54
519.27	62302.72
519.45	62614.01
519.62	63206.17
519.79	63231.91
519.96	62534.43
520.14	62386.98
520.31	61441.40
520.48	61471.83
520.65	62363.57
520.83	63641.51
521.00	63178.08
521.17	62602.31
521.34	62855.09
521.52	63117.23
521.69	63472.99
521.86	63735.13
522.03	63545.54
522.20	61900.15
522.38	61661.41
522.55	61949.30
522.72	62255.91
522.89	61731.63
523.07	62782.53
523.24	63168.72
523.41	63655.55
523.58	64041.74
523.75	64018.33
523.92	63985.57
524.10	63913.01
524.27	63437.88
524.44	63245.96
524.61	62518.05
524.78	63318.51
524.96	63311.49
525.13	63465.97
525.30	63786.62
525.47	64280.47
525.64	64058.12
525.81	63234.25
525.98	61656.73
526.16	60423.27
526.33	60472.42
526.50	59894.31
526.67	59945.80
526.84	60610.51
527.01	61705.88
527.18	61762.06
527.36	62408.04
527.53	63566.61
527.70	63147.65
527.87	61904.83
528.04	62724.02
528.21	63173.40
528.38	63770.24
528.55	64512.19
528.72	64198.55
528.89	63866.20
529.07	64025.35
529.24	62831.68
529.41	62625.71
529.58	62560.18
529.75	63419.16
529.92	63732.79
530.09	63627.46
530.26	64273.45
530.43	64846.88
530.60	63934.07
530.77	64598.79
530.94	64605.81
531.11	63786.62
531.28	63505.76
531.46	63557.25
531.63	63744.49
531.80	63634.48
531.97	63248.30
532.14	63000.20
532.31	61635.67
532.48	61085.64
532.65	61375.87
532.82	61874.40
532.99	63828.75
533.16	63580.65
533.33	63477.67
533.50	63838.11
533.67	63341.92
533.84	62944.03
534.01	63519.80
534.18	63149.99
534.35	62951.05
534.52	62312.08
534.69	63215.53
534.86	63494.05
535.03	63805.34
535.20	63877.90
535.37	64507.50
535.54	64706.45
535.71	64338.99
535.88	64434.95
536.05	62972.11
536.22	62733.38
536.38	62733.38
536.55	62234.84
536.72	61745.67
536.89	62417.41
537.06	62426.77
537.23	62789.55
537.40	62644.44
537.57	62485.28
537.74	62920.62
537.91	63000.20
538.08	63152.33
538.25	63304.47
538.42	64149.40
538.59	63522.14
538.75	62702.95
538.92	61961.00
539.09	62443.15
539.26	62129.52
539.43	62145.90
539.60	61968.02
539.77	62670.18
539.94	62274.63
540.11	61778.44
540.28	61240.12
540.44	61116.07
540.61	61235.44
540.78	61708.22
540.95	62164.63
541.12	62106.12
541.29	62391.66
541.46	62845.72
541.62	63065.73
541.79	62365.91
541.96	61867.38
542.13	62129.52
542.30	62103.77
542.47	62082.71
542.63	62606.99
542.80	62354.21
542.97	61771.42
543.14	61745.67
543.31	62052.28
543.48	62876.15
543.64	63159.36
543.81	63756.19
543.98	63669.59
544.15	62632.74
544.32	62887.85
544.48	62459.54
544.65	62487.62
544.82	63016.58
544.99	62005.47
545.16	61778.44
545.32	61785.46
545.49	62415.07
545.66	62588.27
545.83	62562.52
546.00	62761.47
546.16	62440.81
546.33	62246.55
546.50	62211.44
546.67	62899.56
546.83	62298.04
547.00	62929.98
547.17	61347.78
547.34	60825.84
547.50	60846.91
547.67	61769.08
547.84	62464.22
548.00	62649.12
548.17	62412.73
548.34	62747.42
548.51	62569.54
548.67	62410.38
548.84	62363.57
549.01	62745.08
549.18	62300.38
549.34	62391.66
549.51	62815.30
549.68	63056.37
549.84	62007.81
550.01	61443.74
550.18	61329.06
550.34	61853.34
550.51	62122.50
550.68	62410.38
550.84	62262.93
551.01	61289.27
551.18	61467.15
551.34	61525.66
551.51	62368.26
551.68	62539.11
551.84	63196.80
552.01	62333.15
552.18	61815.89
552.34	60973.30
552.51	61052.87
552.68	60921.80
552.84	61221.39
553.01	61609.92
553.18	61375.87
553.34	61516.30
553.51	62007.81
553.67	62014.83
553.84	62169.31
554.01	62504.01
554.17	61740.99
554.34	61752.69
554.51	61778.44
554.67	61317.35
554.84	61588.86
555.00	60917.12
555.17	61015.43
555.33	61120.75
555.50	60764.99
555.67	61570.13
555.83	61581.84
556.00	61008.40
556.16	60889.04
556.33	60666.69
556.50	60830.52
556.66	60846.91
556.83	60343.69
556.99	60236.03
557.16	60940.53
557.32	60563.70
557.49	61045.85
557.65	60945.21
557.82	60940.53
557.98	61298.63
558.15	60322.63
558.32	59819.41
558.48	59440.24
558.65	59330.24
558.81	59494.08
558.98	60566.04
559.14	60243.05
559.31	60329.65
559.47	59868.56
559.64	60074.53
559.80	59206.19
559.97	60107.30
560.13	60591.79
560.30	61766.74
560.46	61757.38
560.63	62176.33
560.79	61883.76
560.96	60914.78
561.12	60135.38
561.29	59941.12
561.45	59980.91
561.61	60764.99
561.78	60013.68
561.94	60310.92
562.11	60224.32
562.27	59606.42
562.44	60865.63
562.60	61130.11
562.77	60996.70
562.93	60313.26
563.10	60214.96
563.26	60456.04
563.42	60732.22
563.59	60699.45
563.75	60074.53
563.92	59793.67
564.08	59793.67
564.24	60434.97
564.41	59772.60
564.57	60931.17
564.74	60591.79
564.90	59962.18
565.07	59803.03
565.23	58798.94
565.39	58452.54
565.56	58681.91
565.72	59262.36
565.88	58450.20
566.05	60067.51
566.21	59856.86
566.38	59667.28
566.54	60067.51
566.70	60811.80
566.87	60189.22
567.03	59955.16
567.19	60863.29
567.36	61200.33
567.52	59781.96
567.68	59220.23
567.85	58899.58
568.01	59299.81
568.17	59185.13
568.34	59398.12
568.50	58686.59
568.66	58508.71
568.83	58361.26
568.99	58389.34
569.15	58632.76
569.32	58478.28
569.48	58555.52
569.64	58588.29
569.81	58532.12
569.97	58281.68
570.13	57586.54
570.30	57216.74
570.46	56786.08
570.62	56423.29
570.78	56474.79
570.95	57331.42
571.11	57851.02
571.27	57425.04
571.43	57811.23
571.60	57565.48
571.76	58489.99
571.92	58810.64
572.09	59079.80
572.25	58522.76
572.41	58506.37
572.57	58585.95
572.74	58925.33
572.90	59873.24
573.06	59327.90
573.22	59119.59
573.38	58997.88
573.55	60161.13
573.71	58698.30
573.87	58670.21
574.03	58855.11
574.20	58377.64
574.36	58000.82
574.52	57495.26
574.68	57705.91
574.84	57265.89
575.01	57052.90
575.17	56970.98
575.33	57591.22
575.49	57504.62
575.65	56757.99
575.82	57052.90
575.98	57312.70
576.14	58122.52
576.30	58660.85
576.46	57392.28
576.62	57497.60
576.79	57827.62
576.95	57591.22
577.11	58010.18
577.27	57598.24
577.43	58071.03
577.59	57418.02
577.75	56947.57
577.92	56631.60
578.08	56938.21
578.24	57158.22
578.40	57160.56
578.56	56090.94
578.72	56580.11
578.88	56376.48
579.04	56856.29
579.21	56664.37
579.37	56591.81
579.53	57235.46
579.69	56594.15
579.85	56233.71
580.01	56502.87
580.17	56023.06
580.33	56907.79
580.49	57523.35
580.65	56390.53
580.82	56729.90
580.98	57261.21
581.14	56959.28
581.30	56736.93
581.46	56214.99
581.62	56821.19
581.78	57415.68
581.94	57485.90
582.10	57443.77
582.26	57427.38
582.42	57228.44
582.58	56940.55
582.74	56928.85
582.90	56659.69
583.06	57216.74
583.22	57165.24
583.38	57141.84
583.54	57556.11
583.70	57399.30
583.86	57329.08
584.02	56392.87
584.18	56135.41
584.34	56280.52
584.50	55842.84
584.66	56114.34
584.82	56336.69
584.98	56310.95
585.14	55442.61
585.30	55613.47
