SpectraSuite Data File
++++++++++++++++++++++++++++++++++++
Date: Mon Oct 07 14:52:56 GMT-05:00 2013
User: price-jones
Dark Spectrum Present: No
Reference Spectrum Present: No
Number of Sampled Component Spectra: 1
Spectrometers: USB2+H05261
Integration Time (usec): 100000 (USB2+H05261)
Spectra Averaged: 1 (USB2+H05261)
Boxcar Smoothing: 0 (USB2+H05261)
Correct for Electrical Dark: No (USB2+H05261)
Strobe/Lamp Enabled: No (USB2+H05261)
Correct for Detector Non-linearity: No (USB2+H05261)
Correct for Stray Light: No (USB2+H05261)
Number of Pixels in Processed Spectrum: 2048
>>>>>Begin Processed Spectral Data<<<<<
365.73	0.00
365.92	0.00
366.12	0.00
366.32	0.00
366.52	0.00
366.72	0.00
366.91	0.00
367.11	0.00
367.31	0.00
367.51	0.00
367.70	0.00
367.90	0.00
368.10	0.00
368.30	0.00
368.49	0.00
368.69	0.00
368.89	0.00
369.09	0.00
369.28	0.00
369.48	0.00
369.68	0.00
369.87	0.00
370.07	0.00
370.27	0.00
370.47	505.56
370.66	2312.45
370.86	2778.22
371.06	3047.38
371.25	3138.66
371.45	2722.04
371.65	2450.54
371.84	2422.45
372.04	2413.09
372.24	2679.91
372.44	2864.82
372.63	2792.26
372.83	2651.83
373.03	2270.32
373.22	2076.06
373.42	2300.75
373.62	2590.97
373.81	2857.79
374.01	2832.05
374.21	2509.05
374.40	2380.32
374.60	2438.84
374.79	2829.71
374.99	3255.69
375.19	3543.57
375.38	3445.27
375.58	3314.20
375.78	3251.00
375.97	3323.56
376.17	3445.27
376.37	3438.25
376.56	3506.12
376.76	3768.26
376.95	3824.44
377.15	4210.62
377.35	4353.40
377.54	4575.75
377.74	4470.42
377.93	4809.80
378.13	4559.36
378.33	4365.10
378.52	4074.87
378.72	3845.50
378.91	3653.58
379.11	3639.53
379.31	3461.65
379.50	3503.78
379.70	3801.03
379.89	4180.20
380.09	4325.31
380.28	4498.51
380.48	4507.87
380.68	4533.62
380.87	4306.59
381.07	4025.72
381.26	3674.64
381.46	3351.65
381.65	3393.78
381.85	3293.13
382.04	3014.61
382.24	2942.05
382.43	2843.75
382.63	2752.47
382.83	2768.85
383.02	2731.41
383.22	2843.75
383.41	2895.24
383.61	2986.52
383.80	3339.94
384.00	3932.10
384.19	4250.41
384.39	4559.36
384.58	4498.51
384.78	4634.26
384.97	4407.23
385.17	4196.58
385.36	3904.01
385.56	3819.75
385.75	4046.79
385.95	4421.27
386.14	4622.56
386.34	4837.89
386.53	4505.53
386.72	4217.65
386.92	4255.09
387.11	4601.49
387.31	4725.54
387.50	4657.67
387.70	4594.47
387.89	4414.25
388.09	4440.00
388.28	4514.89
388.48	4435.32
388.67	4828.53
388.86	5359.83
389.06	5792.83
389.25	6092.41
389.45	6003.47
389.64	5982.41
389.84	6122.84
390.03	5893.47
390.22	5947.30
390.42	6160.29
390.61	6548.82
390.81	7056.72
391.00	7304.81
391.19	6740.74
391.39	6993.52
391.58	6607.33
391.78	6087.73
391.97	5959.00
392.16	5455.79
392.36	5041.51
392.55	4070.19
392.75	3087.17
392.94	2523.10
393.13	2616.72
393.33	2995.89
393.52	3941.46
393.71	4760.65
393.91	5460.47
394.10	5905.17
394.29	6530.09
394.49	6890.54
394.68	7499.08
394.88	7300.13
395.07	7740.15
395.26	7468.65
395.46	7398.43
395.65	6773.51
395.84	6008.16
396.04	5121.09
396.23	4126.36
396.42	3386.76
396.62	3487.40
396.81	3988.27
397.00	5097.69
397.19	6125.18
397.39	7641.85
397.58	8252.73
397.77	9041.49
397.97	9345.76
398.16	9420.66
398.35	9888.76
398.55	10143.88
398.74	10448.15
398.93	10473.90
399.12	10408.36
399.32	10162.61
399.51	10310.06
399.70	11040.31
399.90	11059.03
400.09	10988.82
400.28	10806.25
400.47	10752.42
400.67	11555.22
400.86	11534.16
401.05	11822.05
401.24	11712.04
401.44	11784.60
401.63	12037.38
401.82	12084.19
402.01	12102.91
402.21	12236.32
402.40	12306.54
402.59	11702.68
402.78	11183.08
402.97	10890.51
403.17	11300.11
403.36	12138.02
403.55	12837.84
403.74	12812.09
403.93	12367.39
404.13	11239.25
404.32	10946.69
404.51	11648.85
404.70	12674.00
404.89	12437.61
405.09	12198.87
405.28	11854.81
405.47	11763.53
405.66	11854.81
405.85	11590.33
406.05	11126.91
406.24	11459.26
406.43	11929.71
406.62	12308.88
406.81	12739.54
407.00	11929.71
407.20	11723.74
407.39	11763.53
407.58	12507.82
407.77	12765.28
407.96	13298.92
408.15	13598.51
408.34	13437.02
408.54	13827.88
408.73	14068.96
408.92	13968.32
409.11	13586.81
409.30	12739.54
409.49	11915.67
409.68	11372.66
409.87	11105.84
410.07	11712.04
410.26	12681.02
410.45	13324.67
410.64	13720.22
410.83	14270.25
411.02	14782.82
411.21	15014.54
411.40	14956.02
411.59	15009.86
411.78	14586.22
411.98	14618.99
412.17	14953.68
412.36	14583.88
412.55	14640.05
412.74	14202.37
412.93	13884.06
413.12	14317.06
413.31	15508.39
413.50	15721.38
413.69	15852.45
413.88	15262.63
414.07	14953.68
414.26	15103.48
414.45	15412.43
414.64	16011.60
414.83	15590.31
415.02	15279.02
415.22	15358.60
415.41	15915.64
415.60	16395.45
415.79	16940.80
415.98	17474.44
416.17	17294.22
416.36	16987.61
416.55	16533.54
416.74	16063.10
416.93	15566.90
417.12	15559.88
417.31	16100.55
417.50	15932.03
417.69	16737.17
417.88	16645.89
418.07	16549.93
418.26	16180.12
418.45	16168.42
418.64	16681.00
418.83	17654.66
419.02	17362.09
419.21	16765.26
419.39	16341.62
419.58	15225.18
419.77	15534.14
419.96	16362.69
420.15	17216.98
420.34	17963.61
420.53	18359.16
420.72	18853.02
420.91	18469.17
421.10	18190.64
421.29	18185.96
421.48	17539.97
421.67	18483.21
421.86	17713.17
422.05	16348.64
422.24	15063.69
422.43	14883.47
422.61	16556.95
422.80	17841.90
422.99	17736.58
423.18	17261.45
423.37	16945.48
423.56	16973.56
423.75	17025.06
423.94	17621.89
424.13	16468.01
424.32	16613.12
424.50	16922.07
424.69	16542.91
424.88	16051.39
425.07	16498.44
425.26	16833.13
425.45	16554.61
425.64	16095.86
425.83	16035.01
426.01	17235.70
426.20	17696.79
426.39	17411.25
426.58	15988.20
426.77	14956.02
426.96	14611.96
427.15	14927.94
427.33	16205.87
427.52	16446.94
427.71	16730.15
427.90	16669.30
428.09	16493.76
428.28	16184.80
428.46	15349.23
428.65	15403.07
428.84	15620.74
429.03	15995.22
429.22	15021.56
429.40	14174.28
429.59	13060.19
429.78	11389.05
429.97	11396.07
430.16	11599.70
430.34	11714.38
430.53	11763.53
430.72	12294.83
430.91	13500.21
431.10	15625.42
431.28	18721.95
431.47	20046.69
431.66	20152.01
431.85	18120.43
432.03	16603.76
432.22	15866.49
432.41	16685.68
432.60	18567.47
432.79	19697.95
432.97	19838.38
433.16	19379.64
433.35	17607.85
433.54	15925.00
433.72	14923.26
433.91	15536.48
434.10	17181.87
434.28	18588.53
434.47	19461.55
434.66	18773.44
434.85	18576.83
435.03	18242.14
435.22	19016.85
435.41	20503.09
435.59	20524.16
435.78	20737.15
435.97	20807.36
436.16	21191.21
436.34	21088.23
436.53	20467.98
436.72	20580.33
436.90	19386.66
437.09	19630.07
437.28	19082.39
437.46	19740.08
437.65	19407.72
437.84	18099.36
438.02	16849.52
438.21	16547.59
438.40	17841.90
438.58	19288.35
438.77	19686.25
438.96	19826.68
439.14	20704.38
439.33	21006.31
439.52	21593.78
439.70	21036.74
439.89	20538.20
440.08	19943.70
440.26	20032.65
440.45	21025.03
440.63	21982.31
440.82	22925.55
441.01	22754.69
441.19	22808.52
441.38	22965.34
441.57	23927.30
441.75	24109.86
441.94	24187.10
442.12	23700.26
442.31	24617.75
442.50	24446.90
442.68	24053.69
442.87	23866.44
443.05	23482.59
443.24	23943.68
443.43	24489.03
443.61	25198.21
443.80	25078.84
443.98	23974.11
444.17	23714.31
444.35	25228.63
444.54	25605.46
444.73	25146.72
444.91	24201.14
445.10	23250.88
445.28	22111.04
445.47	21806.77
445.65	22567.45
445.84	22644.68
446.02	23524.72
446.21	23826.65
446.39	23796.23
446.58	24245.61
446.77	24891.60
446.95	24762.87
447.14	25362.04
447.32	26155.49
447.51	25406.52
447.69	24229.23
447.88	24231.57
448.06	24510.09
448.25	25340.98
448.43	25294.17
448.62	24608.39
448.80	24250.29
448.99	24482.00
449.17	24982.88
449.36	25039.05
449.54	26150.81
449.73	26319.32
449.91	26658.70
450.10	27463.85
450.28	27374.91
450.46	27761.09
450.65	27182.98
450.83	27405.33
451.02	26574.44
451.20	26642.32
451.39	26696.15
451.57	26342.73
451.76	26527.63
451.94	26534.65
452.13	25544.61
452.31	24538.18
452.49	23805.59
452.68	23726.01
452.86	23995.17
453.05	23978.79
453.23	25308.21
453.42	25345.66
453.60	26345.07
453.78	26223.36
453.97	26089.95
454.15	26295.92
454.34	25883.98
454.52	25635.89
454.70	25135.01
454.89	25289.49
455.07	25565.67
455.26	26251.45
455.44	27000.42
455.62	27395.97
455.81	27875.78
455.99	27257.88
456.17	27220.43
456.36	27342.14
456.54	28020.89
456.73	27637.05
456.91	28584.96
457.09	28397.72
457.28	29113.92
457.46	27866.42
457.64	27594.92
457.83	26749.98
458.01	26431.67
458.19	26995.74
458.38	26785.09
458.56	27824.29
458.74	28032.60
458.93	27197.02
459.11	27056.59
459.29	27243.84
459.48	27122.13
459.66	26965.31
459.84	27505.98
460.03	27407.67
460.21	28112.17
460.39	28521.77
460.57	28713.69
460.76	28891.57
460.94	29020.30
461.12	28533.47
461.31	28446.87
461.49	28315.80
461.67	28577.94
461.85	29771.61
462.04	29151.37
462.22	30132.06
462.40	29509.47
462.59	29270.74
462.77	29266.06
462.95	29741.19
463.13	28615.39
463.32	28268.99
463.50	28182.39
463.68	28299.42
463.86	28926.68
464.05	28142.60
464.23	27559.81
464.41	27281.28
464.59	27515.34
464.78	28367.29
464.96	28320.48
465.14	28107.49
465.32	28664.54
465.50	29832.47
465.69	30019.71
465.87	29289.46
466.05	28503.04
466.23	27131.49
466.41	26333.37
466.60	27314.05
466.78	27234.47
466.96	27672.15
467.14	28051.32
467.32	28577.94
467.51	28746.46
467.69	27641.73
467.87	28030.26
468.05	28477.30
468.23	28465.60
468.41	28240.90
468.60	28716.03
468.78	28526.45
468.96	28325.16
469.14	29024.98
469.32	29149.03
469.50	28037.28
469.69	28095.79
469.87	27623.00
470.05	27489.59
470.23	27281.28
470.41	27676.83
470.59	28374.31
470.77	28105.15
470.95	28863.49
471.14	29118.60
471.32	29380.74
471.50	30698.47
471.68	30892.73
471.86	31435.74
472.04	31332.75
472.22	31342.11
472.40	29977.58
472.58	29818.42
472.77	29263.72
472.95	30401.22
473.13	30567.40
473.31	30139.08
473.49	30000.99
473.67	30551.01
473.85	30658.68
474.03	31646.38
474.21	31559.78
474.39	31885.12
474.57	31800.86
474.75	32250.24
474.93	31754.05
475.12	30993.37
475.30	31278.92
475.48	31562.12
475.66	31882.78
475.84	31012.10
476.02	31016.78
476.20	30560.37
476.38	31627.66
476.56	32217.47
476.74	32591.96
476.92	33270.72
477.10	33563.28
477.28	33834.78
477.46	34352.04
477.64	34782.70
477.82	35086.97
478.00	34829.51
478.18	34370.77
478.36	33986.92
478.54	34532.26
478.72	34501.84
478.90	35625.29
479.08	36690.24
479.26	37305.80
479.44	36793.22
479.62	36449.16
479.80	36156.60
479.98	36460.87
480.16	36924.29
480.34	36570.87
480.52	36542.78
480.70	37205.16
480.88	37125.58
481.06	37806.67
481.24	38195.20
481.41	39108.01
481.59	39756.34
481.77	38822.47
481.95	38689.06
482.13	38548.62
482.31	38529.90
482.49	39676.76
482.67	39225.04
482.85	39023.75
483.03	40275.94
483.21	40034.86
483.39	40030.18
483.57	39611.23
483.74	39445.05
483.92	39622.93
484.10	39814.85
484.28	40741.71
484.46	40617.66
484.64	41373.65
484.82	40957.03
485.00	39812.51
485.18	39068.22
485.35	38115.62
485.53	35161.87
485.71	32009.17
485.89	31810.22
486.07	33713.08
486.25	36762.79
486.43	38462.02
486.61	39100.99
486.78	38843.53
486.96	39765.70
487.14	41055.34
487.32	41881.55
487.50	43096.28
487.68	44243.15
487.85	44009.09
488.03	44055.90
488.21	43679.08
488.39	43157.14
488.57	42380.08
488.75	42153.05
488.92	43634.61
489.10	45860.46
489.28	47356.06
489.46	48390.58
489.64	48020.77
489.81	48172.91
489.99	47711.82
490.17	47611.18
490.35	48589.52
490.53	47487.13
490.70	47257.76
490.88	46887.95
491.06	48100.35
491.24	48601.22
491.41	46670.28
491.59	44603.59
491.77	43966.96
491.95	45422.78
492.13	46916.04
492.30	48428.02
492.48	49890.86
492.66	50157.68
492.84	50031.29
493.01	49827.66
493.19	49169.97
493.37	48727.61
493.54	48189.29
493.72	49088.06
493.90	50604.72
494.08	51405.19
494.25	51763.29
494.43	51803.08
494.61	52444.38
494.79	52549.71
494.96	51990.32
495.14	51695.41
495.32	50398.76
495.49	49413.39
495.67	51114.96
495.85	52474.81
496.02	52996.75
496.20	52851.64
496.38	52315.65
496.55	51688.39
496.73	52772.06
496.91	52776.74
497.09	53371.24
497.26	53504.65
497.44	52886.74
497.62	52287.57
497.79	51241.35
497.97	50057.04
498.14	50108.53
498.32	51861.59
498.50	52442.04
498.67	53315.06
498.85	52961.64
499.03	53511.67
499.20	53766.79
499.38	53497.62
499.56	53233.14
499.73	52853.98
499.91	52287.57
500.08	51606.47
500.26	51124.32
500.44	51475.40
500.61	52463.11
500.79	52322.68
500.97	51892.02
501.14	51739.88
501.32	51449.66
501.49	51475.40
501.67	51887.34
501.84	52329.70
502.02	52626.95
502.20	53010.79
502.37	53181.65
502.55	53340.81
502.72	53682.53
502.90	54354.26
503.07	54178.72
503.25	53525.71
503.43	52301.61
503.60	51840.53
503.78	50916.01
503.95	51784.35
504.13	53413.37
504.30	54045.31
504.48	53806.58
504.65	53612.31
504.83	53668.48
505.01	54424.48
505.18	54705.34
505.36	55412.18
505.53	55271.75
505.71	55538.57
505.88	55608.79
506.06	54855.14
506.23	54628.10
506.41	54501.71
506.58	54546.18
506.76	54431.50
506.93	54396.39
507.11	53954.03
507.28	54347.24
507.46	53712.95
507.63	53277.61
507.81	52842.27
507.98	53329.11
508.16	54167.02
508.33	54637.47
508.50	54927.69
508.68	55224.94
508.85	55870.93
509.03	55976.25
509.20	55674.32
509.38	54724.07
509.55	53963.39
509.73	54185.74
509.90	54728.75
510.08	54845.77
510.25	55091.53
510.42	54508.74
510.60	54625.76
510.77	54782.58
510.95	55606.45
511.12	55686.03
511.30	56060.51
511.47	56151.79
511.64	56273.50
511.82	55676.66
511.99	54845.77
512.17	54436.18
512.34	54012.54
512.51	54216.17
512.69	54480.65
512.86	54782.58
513.04	54988.55
513.21	55117.28
513.38	54539.16
513.56	54169.36
513.73	53394.64
513.90	53935.30
514.08	53801.89
514.25	54216.17
514.43	54548.53
514.60	54642.15
514.77	54377.67
514.95	54810.67
515.12	54841.09
515.29	54927.69
515.47	55302.18
515.64	55510.49
515.81	55145.36
515.99	54597.68
516.16	52907.81
516.33	50431.52
516.51	48610.59
516.68	47428.62
516.85	47257.76
517.03	47845.23
517.20	51206.24
517.37	53961.05
517.54	54623.42
517.72	53909.56
517.89	51084.53
518.06	48748.68
518.24	49703.62
518.41	51819.46
518.58	53092.71
518.75	53244.85
518.93	53677.85
519.10	53677.85
519.27	54277.02
519.45	54539.16
519.62	55234.30
519.79	55381.76
519.96	54934.71
520.14	54710.02
520.31	53876.79
520.48	53998.50
520.65	54365.96
520.83	55391.12
521.00	55648.58
521.17	55412.18
521.34	54915.99
521.52	55372.39
521.69	55852.20
521.86	56055.83
522.03	55660.28
522.20	54375.33
522.38	53638.06
522.55	53607.63
522.72	54054.67
522.89	54473.63
523.07	54597.68
523.24	54817.69
523.41	55798.37
523.58	56329.67
523.75	56573.09
523.92	56420.95
524.10	56472.45
524.27	56247.75
524.44	56299.25
524.61	56018.38
524.78	55613.47
524.96	55576.02
525.13	55524.53
525.30	55980.93
525.47	56568.41
525.64	56308.61
525.81	55489.42
525.98	54094.46
526.16	52498.22
526.33	51686.05
526.50	51231.99
526.67	50880.91
526.84	51643.92
527.01	52865.68
527.18	53609.97
527.36	54784.92
527.53	55641.56
527.70	55854.54
527.87	55180.47
528.04	54976.84
528.21	55379.42
528.38	56090.94
528.55	56638.62
528.72	57006.09
528.89	56970.98
529.07	56774.37
529.24	55957.53
529.41	55217.92
529.58	54932.37
529.75	54990.89
529.92	55398.14
530.09	55908.38
530.26	56329.67
530.43	56568.41
530.60	56760.33
530.77	56931.19
530.94	56924.17
531.11	56603.52
531.28	56207.97
531.46	56055.83
531.63	55920.08
531.80	55791.35
531.97	55496.44
532.14	54539.16
532.31	53469.54
532.48	52935.90
532.65	53263.57
532.82	53853.39
532.99	55143.02
533.16	55564.32
533.33	56114.34
533.50	55702.41
533.67	55285.79
533.84	54768.54
534.01	55227.28
534.18	55089.19
534.35	55517.51
534.52	55257.71
534.69	55704.75
534.86	55772.63
535.03	56219.67
535.20	56626.92
535.37	57078.64
535.54	56912.47
535.71	56645.65
535.88	56355.42
536.05	55524.53
536.22	55206.22
536.38	54892.58
536.55	54241.92
536.72	53893.18
536.89	53708.27
537.06	54850.45
537.23	55664.96
537.40	55842.84
537.57	55882.63
537.74	55554.96
537.91	55402.82
538.08	55753.90
538.25	55688.37
538.42	55580.70
538.59	55414.52
538.75	54543.84
538.92	54578.95
539.09	54600.02
539.26	54143.61
539.43	53829.98
539.60	54220.85
539.77	54513.42
539.94	54314.47
540.11	53282.30
540.28	52758.02
540.44	52992.07
540.61	53296.34
540.78	53492.94
540.95	53979.78
541.12	54401.07
541.29	54703.00
541.46	55082.17
541.62	54920.67
541.79	54820.03
541.96	54162.34
542.13	54344.90
542.30	54674.91
542.47	54740.45
542.63	54293.41
542.80	54321.49
542.97	54585.97
543.14	54103.82
543.31	54157.66
543.48	54766.20
543.64	55711.77
543.81	55884.97
543.98	55716.45
544.15	54805.98
544.32	54485.33
544.48	54391.71
544.65	55042.38
544.82	55545.59
544.99	54864.50
545.16	54384.69
545.32	54738.11
545.49	55421.55
545.66	55718.79
545.83	55131.32
546.00	55105.57
546.16	54607.04
546.33	54761.51
546.50	54408.09
546.67	55098.55
546.83	54419.80
547.00	54674.91
547.17	53825.30
547.34	53172.29
547.50	53064.63
547.67	53586.57
547.84	53832.32
548.00	54494.69
548.17	54621.08
548.34	54494.69
548.51	54344.90
548.67	54588.31
548.84	54864.50
549.01	54632.78
549.18	54358.94
549.34	54253.62
549.51	54450.22
549.68	54035.95
549.84	53961.05
550.01	53900.20
550.18	54045.31
550.34	54167.02
550.51	53998.50
550.68	54028.93
550.84	53549.12
551.01	53879.13
551.18	53727.00
551.34	54138.93
551.51	54284.04
551.68	54452.56
551.84	54536.82
552.01	54358.94
552.18	54195.10
552.34	53638.06
552.51	53116.12
552.68	53104.41
552.84	53656.78
553.01	53581.88
553.18	53663.80
553.34	53649.76
553.51	54110.85
553.67	54211.49
553.84	54246.60
554.01	54155.32
554.17	53972.75
554.34	53916.58
554.51	54244.26
554.67	54740.45
554.84	54293.41
555.00	53932.96
555.17	53879.13
555.33	53734.02
555.50	53602.95
555.67	53600.61
555.83	53652.10
556.00	53167.61
556.16	53371.24
556.33	52582.48
556.50	52622.26
556.66	52800.15
556.83	52486.51
556.99	52481.83
557.16	52858.66
557.32	53284.64
557.49	53387.62
557.65	53214.42
557.82	52966.32
557.98	52636.31
558.15	52252.46
558.32	51643.92
558.48	50705.37
558.65	51019.00
558.81	51075.17
558.98	51746.90
559.14	51854.57
559.31	52004.36
559.47	51957.55
559.64	51447.32
559.80	51164.11
559.97	51285.82
560.13	51524.55
560.30	52956.96
560.46	53315.06
560.63	53670.82
560.79	53146.54
560.96	53048.24
561.12	51838.18
561.29	50899.63
561.45	50930.06
561.61	51639.24
561.78	52069.90
561.94	51828.82
562.11	52074.58
562.27	51585.41
562.44	51674.35
562.60	52275.87
562.77	52633.97
562.93	52594.18
563.10	52416.30
563.26	51611.15
563.42	51683.71
563.59	51517.53
563.75	51543.28
563.92	51412.21
564.08	51721.16
564.24	51913.08
564.41	51838.18
564.57	51709.46
564.74	51695.41
564.90	51519.87
565.07	51449.66
565.23	50600.04
565.39	50106.19
565.56	50162.36
565.72	49595.95
565.88	50007.89
566.05	50527.48
566.21	50677.28
566.38	50649.19
566.54	50770.90
566.70	51056.45
566.87	51629.88
567.03	51554.98
567.19	51667.33
567.36	51517.53
567.52	51264.75
567.68	51159.43
567.85	50614.08
568.01	49640.42
568.17	49141.89
568.34	49563.18
568.50	49350.20
568.66	49485.95
568.83	50031.29
568.99	49804.26
569.15	50300.45
569.32	50040.65
569.48	49837.03
569.64	49621.70
569.81	49209.76
569.97	49109.12
570.13	49244.87
570.30	48467.81
570.46	48198.65
570.62	47569.05
570.78	47150.09
570.95	47634.58
571.11	48516.96
571.27	48818.89
571.43	49275.30
571.60	49794.90
571.76	49813.62
571.92	50033.63
572.09	49984.48
572.25	49839.37
572.41	49883.84
572.57	49619.36
572.74	50024.27
572.90	49413.39
573.06	49268.28
573.22	49214.44
573.38	49254.23
573.55	49237.85
573.71	49619.36
573.87	49223.81
574.03	49015.50
574.20	49279.98
574.36	48807.19
574.52	48722.93
574.68	48729.95
574.84	47885.02
575.01	47562.03
575.17	47339.68
575.33	47786.72
575.49	48002.05
575.65	48247.80
575.82	48140.14
575.98	47700.12
576.14	48341.42
576.30	48161.20
576.46	48622.29
576.62	48355.47
576.79	48362.49
576.95	48011.41
577.11	47817.14
577.27	47782.04
577.43	47894.38
577.59	47384.15
577.75	47107.96
577.92	46361.33
578.08	46469.00
578.24	45797.26
578.40	46752.20
578.56	46817.74
578.72	46885.61
578.88	47232.01
579.04	47461.38
579.21	47391.17
579.37	47360.74
579.53	47749.27
579.69	48046.52
579.85	47922.47
580.01	47821.83
580.17	46899.65
580.33	46894.97
580.49	47262.44
580.65	47365.42
580.82	47421.59
580.98	47475.43
581.14	47379.46
581.30	47915.45
581.46	47442.66
581.62	47899.06
581.78	47475.43
581.94	47997.37
582.10	47686.07
582.26	47697.78
582.42	47667.35
582.58	47959.92
582.74	47669.69
582.90	47676.71
583.06	47601.82
583.22	47938.85
583.38	47058.81
583.54	47585.43
583.70	47702.46
583.86	47508.19
584.02	47274.14
584.18	47391.17
584.34	47288.18
584.50	47007.32
584.66	46958.17
584.82	46424.53
584.98	46686.67
585.14	45794.92
585.30	45146.59
