SpectraSuite Data File
++++++++++++++++++++++++++++++++++++
Date: Mon Oct 07 14:55:02 GMT-05:00 2013
User: price-jones
Dark Spectrum Present: No
Reference Spectrum Present: No
Number of Sampled Component Spectra: 1
Spectrometers: USB2+H05261
Integration Time (usec): 10000 (USB2+H05261)
Spectra Averaged: 1 (USB2+H05261)
Boxcar Smoothing: 0 (USB2+H05261)
Correct for Electrical Dark: No (USB2+H05261)
Strobe/Lamp Enabled: No (USB2+H05261)
Correct for Detector Non-linearity: No (USB2+H05261)
Correct for Stray Light: No (USB2+H05261)
Number of Pixels in Processed Spectrum: 2048
>>>>>Begin Processed Spectral Data<<<<<
365.73	0.00
365.92	0.00
366.12	0.00
366.32	0.00
366.52	0.00
366.72	0.00
366.91	0.00
367.11	0.00
367.31	0.00
367.51	0.00
367.70	0.00
367.90	0.00
368.10	0.00
368.30	0.00
368.49	0.00
368.69	0.00
368.89	0.00
369.09	0.00
369.28	0.00
369.48	0.00
369.68	0.00
369.87	0.00
370.07	0.00
370.27	0.00
370.47	461.09
370.66	2768.85
370.86	3180.79
371.06	3543.57
371.25	3318.88
371.45	3033.33
371.65	2740.77
371.84	2719.70
372.04	2911.63
372.24	3119.93
372.44	3349.31
372.63	3103.55
372.83	2834.39
373.03	2569.91
373.22	2420.11
373.42	2689.28
373.62	3162.06
373.81	3269.73
374.01	3141.00
374.21	2682.25
374.40	2541.82
374.60	2813.32
374.79	3208.87
374.99	3831.46
375.19	3971.89
375.38	3939.12
375.58	3810.39
375.78	3761.24
375.97	3700.39
376.17	3971.89
376.37	3880.61
376.56	4051.47
376.76	4250.41
376.95	4477.44
377.15	4842.57
377.35	5053.22
377.54	5242.80
377.74	5439.40
377.93	5301.31
378.13	5135.14
378.33	4854.27
378.52	4617.88
378.72	4304.25
378.91	4285.52
379.11	4156.79
379.31	4035.08
379.50	4093.60
379.70	4519.57
379.89	4901.08
380.09	4975.98
380.28	5191.31
380.48	5263.86
380.68	5153.86
380.87	5018.11
381.07	4510.21
381.26	4231.69
381.46	3918.06
381.65	3911.04
381.85	3712.09
382.04	3377.39
382.24	3314.20
382.43	3234.62
382.63	3089.51
382.83	3150.36
383.02	3094.19
383.22	3204.19
383.41	3157.38
383.61	3503.78
383.80	3887.63
384.00	4414.25
384.19	4980.66
384.39	5280.25
384.58	5078.96
384.78	5111.73
384.97	5081.30
385.17	4652.98
385.36	4374.46
385.56	4395.53
385.75	4596.81
385.95	5158.54
386.14	5434.72
386.34	5455.79
386.53	4952.57
386.72	4732.56
386.92	4985.34
387.11	5408.98
387.31	5451.11
387.50	5327.06
387.70	5205.35
387.89	5240.46
388.09	5188.97
388.28	5048.54
388.48	5310.68
388.67	5734.31
388.86	6457.54
389.06	6855.43
389.25	7070.76
389.45	7119.91
389.64	7124.59
389.84	6817.98
390.03	6834.36
390.22	6913.94
390.42	7253.32
390.61	7644.19
390.81	8149.75
391.00	8184.85
391.19	8159.11
391.39	7847.82
391.58	7405.46
391.78	6883.52
391.97	6792.23
392.16	6333.49
392.36	5537.71
392.55	4432.97
392.75	3419.52
392.94	2956.10
393.13	3218.24
393.33	3904.01
393.52	4959.60
393.71	5837.30
393.91	6548.82
394.10	6850.75
394.29	7765.90
394.49	8496.14
394.68	8865.95
394.88	8779.35
395.07	8877.65
395.26	8968.93
395.46	8674.03
395.65	7864.20
395.84	6761.81
396.04	5729.63
396.23	4615.54
396.42	3878.27
396.62	4063.17
396.81	5004.07
397.00	6284.34
397.19	7868.88
397.39	9338.74
397.58	10207.08
397.77	10789.87
397.97	10920.94
398.16	11178.40
398.35	11580.97
398.55	12018.65
398.74	12599.10
398.93	12559.31
399.12	12437.61
399.32	11899.28
399.51	12269.09
399.70	13413.61
399.90	12704.43
400.09	12821.45
400.28	12732.51
400.47	13139.77
400.67	13806.82
400.86	13879.38
401.05	14113.43
401.24	14001.08
401.44	14586.22
401.63	14541.75
401.82	14370.89
402.01	14326.42
402.21	14824.95
402.40	14438.76
402.59	13954.27
402.78	13099.98
402.97	13188.92
403.17	13961.30
403.36	14736.01
403.55	14974.75
403.74	15133.90
403.93	14377.91
404.13	13282.54
404.32	13076.57
404.51	13933.21
404.70	14918.57
404.89	14958.36
405.09	14600.26
405.28	14340.46
405.47	14525.36
405.66	14471.53
405.85	13631.28
406.05	13453.40
406.24	13884.06
406.43	14565.15
406.62	14649.41
406.81	14855.38
407.00	14670.48
407.20	13853.63
407.39	14288.97
407.58	15047.30
407.77	15866.49
407.96	16236.30
408.15	16306.51
408.34	16582.70
408.54	16877.60
408.73	16985.27
408.92	16456.31
409.11	16442.26
409.30	15349.23
409.49	14389.61
409.68	13301.26
409.87	13432.33
410.07	14501.96
410.26	15466.26
410.45	16070.12
410.64	16655.25
410.83	17025.06
411.02	17729.56
411.21	18127.45
411.40	18157.88
411.59	18108.72
411.78	17980.00
411.98	17832.54
412.17	18022.12
412.36	17638.28
412.55	18108.72
412.74	17310.60
412.93	17181.87
413.12	17654.66
413.31	19215.80
413.50	19220.48
413.69	19417.08
413.88	18370.86
414.07	18153.20
414.26	18958.34
414.45	19655.82
414.64	19028.56
414.83	18845.99
415.02	18703.22
415.22	19056.64
415.41	19571.56
415.60	19892.21
415.79	20657.57
415.98	20961.84
416.17	20882.26
416.36	20414.15
416.55	20177.76
416.74	19370.27
416.93	18806.20
417.12	19192.39
417.31	19061.32
417.50	19784.55
417.69	20908.01
417.88	19943.70
418.07	19721.35
418.26	19604.33
418.45	20065.41
418.64	20985.24
418.83	21706.13
419.02	20854.17
419.21	20397.77
419.39	20058.39
419.58	18864.72
419.77	19442.83
419.96	20624.80
420.15	21551.65
420.34	22127.42
420.53	22632.98
420.72	22916.19
420.91	22724.26
421.10	22134.45
421.29	21919.12
421.48	21764.64
421.67	22742.99
421.86	21413.56
422.05	19665.18
422.24	18087.66
422.43	19194.73
422.61	21394.84
422.80	22075.93
422.99	21128.02
423.18	20638.84
423.37	20577.99
423.56	20844.81
423.75	21593.78
423.94	22064.23
424.13	20685.65
424.32	20460.96
424.50	20606.08
424.69	20795.66
424.88	20798.00
425.07	20624.80
425.26	20868.22
425.45	20343.94
425.64	20105.20
425.83	20360.32
426.01	21439.31
426.20	21509.52
426.39	21231.00
426.58	19590.28
426.77	18431.72
426.96	18422.36
427.15	18965.36
427.33	20458.62
427.52	20954.82
427.71	21247.38
427.90	20657.57
428.09	20535.86
428.28	19836.04
428.46	18899.83
428.65	19136.22
428.84	19999.88
429.03	19974.13
429.22	18576.83
429.40	17350.39
429.59	15779.89
429.78	14204.71
429.97	14281.95
430.16	14284.29
430.34	14628.35
430.53	15014.54
430.72	15541.16
430.91	17551.68
431.10	20566.29
431.28	23300.03
431.47	25383.11
431.66	24882.24
431.85	21928.48
432.03	20517.14
432.22	20725.44
432.41	22197.64
432.60	23578.56
432.79	24266.67
432.97	25092.88
433.16	23805.59
433.35	21266.11
433.54	19096.43
433.72	18874.08
433.91	20184.78
434.10	22452.76
434.28	23548.13
434.47	24702.01
434.66	23662.82
434.85	23044.91
435.03	23571.54
435.22	23903.89
435.41	25153.74
435.59	25813.77
435.78	25830.15
435.97	26380.18
436.16	26183.57
436.34	25982.29
436.53	25678.02
436.72	25305.87
436.90	24517.11
437.09	24304.12
437.28	24020.92
437.46	24592.01
437.65	23892.19
437.84	22052.53
438.02	21123.33
438.21	21256.75
438.40	22609.58
438.58	24091.13
438.77	24622.44
438.96	25219.27
439.14	25900.37
439.33	26895.10
439.52	26878.71
439.70	26036.12
439.89	25163.10
440.08	24706.70
440.26	24926.71
440.45	26352.09
440.63	28053.66
440.82	28723.05
441.01	28173.03
441.19	27992.81
441.38	29413.51
441.57	30036.09
441.75	29809.06
441.94	30443.35
442.12	29610.12
442.31	31229.77
442.50	30710.17
442.68	29853.53
442.87	30157.80
443.05	29607.78
443.24	30300.58
443.43	30459.73
443.61	31248.49
443.80	31630.00
443.98	30590.80
444.17	29970.56
444.35	31161.89
444.54	32011.51
444.73	31503.61
444.91	29778.64
445.10	28678.58
445.28	28163.67
445.47	27489.59
445.65	27828.97
445.84	29202.86
446.02	29156.05
446.21	30342.70
446.39	29996.31
446.58	30532.29
446.77	31447.44
446.95	31875.76
447.14	32444.51
447.32	33092.83
447.51	32460.89
447.69	30588.46
447.88	30782.73
448.06	31159.55
448.25	31557.44
448.43	31662.77
448.62	30742.94
448.80	30991.03
448.99	30939.54
449.17	31744.69
449.36	32084.06
449.54	32905.59
449.73	33450.94
449.91	33954.15
450.10	34714.83
450.28	34600.14
450.46	35234.42
450.65	34691.42
450.83	34609.50
451.02	33553.92
451.20	33860.53
451.39	34087.56
451.57	33954.15
451.76	33668.61
451.94	32526.42
452.13	32217.47
452.31	30560.37
452.49	29584.37
452.68	30209.29
452.86	30960.61
453.05	30881.03
453.23	32275.99
453.42	32921.98
453.60	33450.94
453.78	33315.19
453.97	33268.37
454.15	32889.21
454.34	31386.58
454.52	31529.36
454.70	31632.34
454.89	32589.62
455.07	32479.61
455.26	32989.85
455.44	34012.66
455.62	34689.08
455.81	34410.56
455.99	34618.86
456.17	34637.59
456.36	35171.23
456.54	35644.02
456.73	35161.87
456.91	35761.05
457.09	35438.05
457.28	37003.87
457.46	34932.50
457.64	34616.52
457.83	33804.36
458.01	33787.97
458.19	35122.08
458.38	35257.83
458.56	36168.30
458.74	35711.89
458.93	34499.50
459.11	34169.48
459.29	33963.51
459.48	34719.51
459.66	34246.72
459.84	34494.82
460.03	34827.17
460.21	35964.67
460.39	36041.91
460.57	35522.31
460.76	36037.23
460.94	36505.34
461.12	36491.29
461.31	36339.16
461.49	36734.71
461.67	36500.65
461.85	37345.59
462.04	37301.12
462.22	37034.30
462.40	36739.39
462.59	36282.98
462.77	36884.50
462.95	36678.54
463.13	36428.10
463.32	35615.93
463.50	36112.13
463.68	35864.03
463.86	36318.09
464.05	35271.87
464.23	34586.10
464.41	35000.37
464.59	34197.57
464.78	36084.04
464.96	35302.30
465.14	34841.21
465.32	36765.14
465.50	37537.51
465.69	38429.26
465.87	37137.28
466.05	35597.21
466.23	34169.48
466.41	33504.77
466.60	34691.42
466.78	34726.53
466.96	35325.71
467.14	35791.47
467.32	36205.75
467.51	36250.22
467.69	34543.97
467.87	35871.05
468.05	36329.80
468.23	35873.39
468.41	36416.40
468.60	36463.21
468.78	36603.64
468.96	36662.15
469.14	36758.11
469.32	37284.73
469.50	35122.08
469.69	35428.69
469.87	35164.21
470.05	35108.04
470.23	35180.59
470.41	35475.50
470.59	35833.60
470.77	35379.54
470.95	36793.22
471.14	37350.27
471.32	37560.92
471.50	39416.96
471.68	39388.88
471.86	39674.42
472.04	38869.28
472.22	39313.98
472.40	38134.35
472.58	37600.71
472.77	37481.34
472.95	38164.78
473.13	39248.44
473.31	37420.48
473.49	37890.93
473.67	38918.43
473.85	39496.54
474.03	41188.75
474.21	41092.79
474.39	40980.44
474.57	41158.32
474.75	41074.06
474.93	40486.59
475.12	39269.51
475.30	39374.83
475.48	39110.35
475.66	40069.97
475.84	39180.57
476.02	39899.11
476.20	39445.05
476.38	40098.06
476.56	41469.61
476.74	41935.38
476.92	41759.84
477.10	41982.19
477.28	43517.58
477.46	43168.84
477.64	44186.97
477.82	43952.92
478.00	43997.39
478.18	43180.54
478.36	42761.59
478.54	43061.18
478.72	44013.77
478.90	45581.93
479.08	47002.64
479.26	46405.80
479.44	46855.18
479.62	46286.43
479.80	46574.32
479.98	46623.47
480.16	47363.08
480.34	46445.59
480.52	46829.44
480.70	47196.90
480.88	46600.07
481.06	47079.88
481.24	48114.39
481.41	48603.56
481.59	49794.90
481.77	48332.06
481.95	48116.73
482.13	48147.16
482.31	48671.44
482.49	49689.57
482.67	48648.03
482.85	49017.84
483.03	49172.31
483.21	50019.59
483.39	49801.92
483.57	49326.79
483.74	49474.24
483.92	49799.58
484.10	49530.42
484.28	49893.20
484.46	49785.54
484.64	51400.50
484.82	50326.20
485.00	49935.33
485.18	49263.60
485.35	46836.46
485.53	41703.67
485.71	39414.62
485.89	40746.39
486.07	43447.36
486.25	45443.84
486.43	47892.04
486.61	48495.90
486.78	48311.00
486.96	49588.93
487.14	50588.34
487.32	51133.68
487.50	52657.37
487.68	53556.14
487.85	53855.73
488.03	52935.90
488.21	52732.27
488.39	52158.84
488.57	51124.32
488.75	51290.50
488.92	52402.25
489.10	54450.22
489.28	55082.17
489.46	56165.84
489.64	56135.41
489.81	56353.08
489.99	55543.25
490.17	55964.55
490.35	55891.99
490.53	55615.81
490.70	55365.37
490.88	55018.97
491.06	56217.33
491.24	56788.42
491.41	55758.58
491.59	54113.19
491.77	53801.89
491.95	54695.98
492.13	56189.24
492.30	56879.70
492.48	57230.78
492.66	57563.14
492.84	57270.57
493.01	57045.88
493.19	56928.85
493.37	56292.22
493.54	56797.78
493.72	57738.68
493.90	57951.66
494.08	58269.98
494.25	58506.37
494.43	58955.75
494.61	59496.42
494.79	59442.59
494.96	59529.19
495.14	59058.74
495.32	57839.32
495.49	58150.61
495.67	59133.63
495.85	59875.58
496.02	60463.06
496.20	59536.21
496.38	59231.94
496.55	59306.83
496.73	59943.46
496.91	60210.28
497.09	60032.40
497.26	60722.86
497.44	60065.17
497.62	59341.94
497.79	58684.25
497.97	57930.60
498.14	58539.14
498.32	59566.63
498.50	59828.77
498.67	59269.39
498.85	59618.13
499.03	60191.56
499.20	60526.25
499.38	60039.42
499.56	59475.35
499.73	59480.03
499.91	59276.41
500.08	58443.18
500.26	58342.53
500.44	58873.84
500.61	59470.67
500.79	59110.23
500.97	59384.07
501.14	58550.84
501.32	58269.98
501.49	58394.03
501.67	59028.31
501.84	59037.67
502.02	59688.34
502.20	60126.02
502.37	60009.00
502.55	60322.63
502.72	60884.36
502.90	61539.71
503.07	60874.99
503.25	59948.14
503.43	59086.82
503.60	58859.79
503.78	58702.98
503.95	58993.20
504.13	60348.37
504.30	60699.45
504.48	60009.00
504.65	60376.46
504.83	60378.80
505.01	61045.85
505.18	61296.29
505.36	61469.49
505.53	61712.91
505.71	61736.31
505.88	61979.73
506.06	61516.30
506.23	61415.66
506.41	60905.42
506.58	61130.11
506.76	61155.86
506.93	60502.85
507.11	60556.68
507.28	60732.22
507.46	60074.53
507.63	60224.32
507.81	59613.44
507.98	60193.90
508.16	61352.46
508.33	61235.44
508.50	61389.91
508.68	61890.79
508.85	62143.56
509.03	62323.78
509.20	61771.42
509.38	60940.53
509.55	61200.33
509.73	61116.07
509.90	61188.63
510.08	61434.38
510.25	60982.66
510.42	60842.23
510.60	61111.39
510.77	61645.03
510.95	61528.00
511.12	62024.20
511.30	62611.67
511.47	62810.62
511.64	62602.31
511.82	62445.49
511.99	61811.21
512.17	61609.92
512.34	60992.02
512.51	61296.29
512.69	61516.30
512.86	61141.81
513.04	61687.16
513.21	60879.67
513.38	60357.74
513.56	60219.64
513.73	59814.73
513.90	60657.32
514.08	60500.51
514.25	60596.47
514.43	61022.45
514.60	61275.22
514.77	61333.74
514.95	61581.84
515.12	61340.76
515.29	61752.69
515.47	62284.00
515.64	62192.72
515.81	61647.37
515.99	60692.43
516.16	59117.25
516.33	57109.07
516.51	56903.10
516.68	55683.69
516.85	54820.03
517.03	56612.88
517.20	58979.16
517.37	60860.95
517.54	61708.22
517.72	60048.78
517.89	57308.02
518.06	56222.01
518.24	57340.78
518.41	59297.47
518.58	60367.10
518.75	60331.99
518.93	60001.97
519.10	59711.75
519.27	60844.57
519.45	61183.94
519.62	61687.16
519.79	61841.63
519.96	61279.91
520.14	60898.40
520.31	60025.38
520.48	60193.90
520.65	61055.21
520.83	62183.35
521.00	61923.55
521.17	61319.70
521.34	61415.66
521.52	61970.36
521.69	62082.71
521.86	62415.07
522.03	62129.52
522.20	60743.92
522.38	60179.85
522.55	60704.13
522.72	61071.60
522.89	60493.49
523.07	61446.08
523.24	61806.53
523.41	62560.18
523.58	62890.19
523.75	62937.01
523.92	62782.53
524.10	62403.36
524.27	62274.63
524.44	62082.71
524.61	61600.56
524.78	62145.90
524.96	61986.75
525.13	62085.05
525.30	62803.59
525.47	62770.83
525.64	62653.80
525.81	61787.80
525.98	60114.32
526.16	58791.92
526.33	59166.40
526.50	58204.44
526.67	58752.13
526.84	59238.96
527.01	60081.55
527.18	60406.89
527.36	61340.76
527.53	62309.74
527.70	61818.23
527.87	60582.43
528.04	61410.98
528.21	61876.74
528.38	62504.01
528.55	63257.66
528.72	62925.30
528.89	62473.58
529.07	62567.20
529.24	61392.25
529.41	61118.41
529.58	61125.43
529.75	62096.75
529.92	62234.84
530.09	62244.21
530.26	62817.64
530.43	63430.86
530.60	62450.17
530.77	63089.14
530.94	63313.83
531.11	62344.85
531.28	62183.35
531.46	62597.63
531.63	62279.31
531.80	62052.28
531.97	61558.43
532.14	61425.02
532.31	60079.21
532.48	59538.55
532.65	60046.44
532.82	60591.79
532.99	62178.67
533.16	62190.37
533.33	62288.68
533.50	62368.26
533.67	62150.59
533.84	61520.98
534.01	61944.62
534.18	61843.98
534.35	61481.19
534.52	61029.47
534.69	61771.42
534.86	62344.85
535.03	62436.13
535.20	62349.53
535.37	63121.91
535.54	63278.72
535.71	62986.16
535.88	63285.75
536.05	61811.21
536.22	61291.61
536.38	61226.07
536.55	60509.87
536.72	60219.64
536.89	61057.56
537.06	61041.17
537.23	61450.77
537.40	61387.57
537.57	61109.05
537.74	61689.50
537.91	61785.46
538.08	61757.38
538.25	61752.69
538.42	62562.52
538.59	61989.09
538.75	61176.92
538.92	60547.32
539.09	61066.92
539.26	60966.27
539.43	60554.34
539.60	60570.72
539.77	61279.91
539.94	60856.27
540.11	60053.47
540.28	59856.86
540.44	59711.75
540.61	59760.90
540.78	60294.54
540.95	60867.97
541.12	60842.23
541.29	61315.01
541.46	61511.62
541.62	61710.56
541.79	60942.87
541.96	60444.33
542.13	60622.22
542.30	60669.03
542.47	61160.54
542.63	61003.72
542.80	60931.17
542.97	60432.63
543.14	60247.73
543.31	60563.70
543.48	61481.19
543.64	61652.05
543.81	62468.90
543.98	62401.02
544.15	61003.72
544.32	61520.98
544.48	61085.64
544.65	61174.58
544.82	61506.94
544.99	60275.82
545.16	60130.70
545.32	60252.41
545.49	60889.04
545.66	61176.92
545.83	60886.70
546.00	61373.53
546.16	61193.31
546.33	60914.78
546.50	61148.84
546.67	61516.30
546.83	60912.44
547.00	61394.59
547.17	60034.74
547.34	59363.01
547.50	59482.37
547.67	60268.79
547.84	61247.14
548.00	61087.98
548.17	61017.77
548.34	61137.13
548.51	61312.67
548.67	61310.33
548.84	61134.79
549.01	61165.22
549.18	60809.46
549.34	60928.83
549.51	61034.15
549.68	61389.91
549.84	60762.65
550.01	60039.42
550.18	60048.78
550.34	60282.84
550.51	60608.17
550.68	60994.36
550.84	60718.18
551.01	60032.40
551.18	59924.74
551.34	59700.04
551.51	60893.72
551.68	60963.93
551.84	61216.71
552.01	60910.10
552.18	60346.03
552.34	59615.79
552.51	59480.03
552.68	59330.24
552.84	59664.94
553.01	59835.80
553.18	60266.45
553.34	60306.24
553.51	60619.88
553.67	60507.53
553.84	60505.19
554.01	60809.46
554.17	60240.71
554.34	60460.72
554.51	60341.35
554.67	59767.92
554.84	59929.42
555.00	59522.16
555.17	59898.99
555.33	59465.99
555.50	59227.26
555.67	59796.01
555.83	59943.46
556.00	59613.44
556.16	59463.65
556.33	58932.35
556.50	59433.22
556.66	59395.77
556.83	59222.58
556.99	58901.92
557.16	59250.66
557.32	58899.58
557.49	59505.78
557.65	59018.95
557.82	59587.70
557.98	59934.10
558.15	58674.89
558.32	58145.93
558.48	57937.62
558.65	57645.05
558.81	58206.78
558.98	58918.31
559.14	58941.71
559.31	58834.05
559.47	58305.09
559.64	58305.09
559.80	57663.78
559.97	58695.95
560.13	59166.40
560.30	60280.50
560.46	60301.56
560.63	60598.81
560.79	60357.74
560.96	59573.66
561.12	58527.44
561.29	58136.57
561.45	58195.08
561.61	59531.53
561.78	58630.42
561.94	59222.58
562.11	58925.33
562.27	58377.64
562.44	59447.27
562.60	59519.82
562.77	59629.83
562.93	58728.72
563.10	58745.11
563.26	58878.52
563.42	59044.69
563.59	58707.66
563.75	58295.72
563.92	58333.17
564.08	57984.43
564.24	58784.90
564.41	58188.06
564.57	59271.73
564.74	58759.15
564.90	58216.14
565.07	58012.52
565.23	56933.53
565.39	56842.25
565.56	57345.47
565.72	57757.40
565.88	56589.47
566.05	58424.45
566.21	58480.63
566.38	58056.99
566.54	58286.36
566.70	58857.45
566.87	58635.10
567.03	57984.43
567.19	59325.56
567.36	59465.99
567.52	57984.43
567.68	57712.93
567.85	57092.69
568.01	57509.30
568.17	57471.85
568.34	57862.72
568.50	57411.00
568.66	57116.09
568.83	56982.68
568.99	56849.27
569.15	57228.44
569.32	57172.27
569.48	57052.90
569.64	56952.26
569.81	56933.53
569.97	56589.47
570.13	56093.28
570.30	55732.84
570.46	55140.68
570.62	54387.03
570.78	54731.09
570.95	55604.11
571.11	55990.30
571.27	55351.33
571.43	55884.97
571.60	55470.70
571.76	56514.58
571.92	56952.26
572.09	57329.08
572.25	56910.13
572.41	57324.40
572.57	56760.33
572.74	57303.34
572.90	58059.33
573.06	57724.63
573.22	57593.56
573.38	57485.90
573.55	58349.56
573.71	57186.31
573.87	56931.19
574.03	57275.25
574.20	56736.93
574.36	56554.36
574.52	56090.94
574.68	56041.79
574.84	55231.96
575.01	55515.17
575.17	55592.40
575.33	55964.55
575.49	55936.46
575.65	55056.42
575.82	55386.44
575.98	55599.43
576.14	56505.21
576.30	56919.49
576.46	55498.78
576.62	55709.43
576.79	55856.88
576.95	55945.83
577.11	56381.16
577.27	56055.83
577.43	56460.74
577.59	55781.99
577.75	54749.81
577.92	54539.16
578.08	55164.09
578.24	55529.21
578.40	55054.08
578.56	54307.45
578.72	54841.09
578.88	54656.19
579.04	55154.72
579.21	54887.90
579.37	55014.29
579.53	55564.32
579.69	54946.42
579.85	54583.63
580.01	54590.66
580.17	54396.39
580.33	55288.13
580.49	55533.89
580.65	54075.74
580.82	55033.02
580.98	55669.64
581.14	55313.88
581.30	55238.98
581.46	54798.96
581.62	54801.30
581.78	55718.79
581.94	55819.44
582.10	55842.84
582.26	55842.84
582.42	55852.20
582.58	54646.83
582.74	54866.84
582.90	54911.31
583.06	55388.78
583.22	55473.04
583.38	55278.77
583.54	55849.86
583.70	55814.76
583.86	55468.36
584.02	54726.41
584.18	54539.16
584.34	54272.34
584.50	54075.74
584.66	54490.01
584.82	54223.19
584.98	54501.71
585.14	53715.29
585.30	53813.60
