SpectraSuite Data File
++++++++++++++++++++++++++++++++++++
Date: Mon Oct 07 14:53:23 GMT-05:00 2013
User: price-jones
Dark Spectrum Present: No
Reference Spectrum Present: No
Number of Sampled Component Spectra: 1
Spectrometers: USB2+H05261
Integration Time (usec): 100000 (USB2+H05261)
Spectra Averaged: 1 (USB2+H05261)
Boxcar Smoothing: 0 (USB2+H05261)
Correct for Electrical Dark: No (USB2+H05261)
Strobe/Lamp Enabled: No (USB2+H05261)
Correct for Detector Non-linearity: No (USB2+H05261)
Correct for Stray Light: No (USB2+H05261)
Number of Pixels in Processed Spectrum: 2048
>>>>>Begin Processed Spectral Data<<<<<
365.73	0.00
365.92	0.00
366.12	0.00
366.32	0.00
366.52	0.00
366.72	0.00
366.91	0.00
367.11	0.00
367.31	0.00
367.51	0.00
367.70	0.00
367.90	0.00
368.10	0.00
368.30	0.00
368.49	0.00
368.69	0.00
368.89	0.00
369.09	0.00
369.28	0.00
369.48	0.00
369.68	0.00
369.87	0.00
370.07	0.00
370.27	0.00
370.47	655.35
370.66	2738.43
370.86	3393.78
371.06	3786.99
371.25	3920.40
371.45	3330.58
371.65	3117.59
371.84	2895.24
372.04	3059.08
372.24	3351.65
372.44	3557.61
372.63	3536.55
372.83	3262.71
373.03	2853.11
373.22	2537.14
373.42	2719.70
373.62	3126.96
373.81	3471.01
374.01	3363.35
374.21	3173.77
374.40	2822.69
374.60	3070.78
374.79	3316.54
374.99	3953.16
375.19	4205.94
375.38	4297.22
375.58	4091.26
375.78	4002.32
375.97	3981.25
376.17	4088.92
376.37	4124.02
376.56	4402.55
376.76	4451.70
376.95	4931.51
377.15	5146.84
377.35	5486.22
377.54	5526.00
377.74	5734.31
377.93	5724.95
378.13	5659.42
378.33	5287.27
378.52	4805.12
378.72	4603.83
378.91	4641.28
379.11	4512.55
379.31	4475.10
379.50	4334.67
379.70	4617.88
379.89	5160.88
380.09	5448.77
380.28	5785.80
380.48	5547.07
380.68	5535.37
380.87	5315.36
381.07	5006.41
381.26	4634.26
381.46	4255.09
381.65	4105.30
381.85	4065.51
382.04	3681.66
382.24	3630.17
382.43	3559.95
382.63	3197.17
382.83	3485.06
383.02	3501.44
383.22	3461.65
383.41	3335.26
383.61	3707.41
383.80	4177.86
384.00	4627.24
384.19	5263.86
384.39	5612.60
384.58	5584.52
384.78	5362.17
384.97	5537.71
385.17	5018.11
385.36	4849.59
385.56	4713.84
385.75	4865.97
385.95	5146.84
386.14	5628.99
386.34	5912.19
386.53	5441.75
386.72	4980.66
386.92	5282.59
387.11	5406.64
387.31	5710.91
387.50	5741.33
387.70	5476.85
387.89	5469.83
388.09	5394.93
388.28	5474.51
388.48	5392.59
388.67	5970.71
388.86	6539.46
389.06	7061.40
389.25	7344.60
389.45	7573.97
389.64	7262.68
389.84	7365.67
390.03	7190.13
390.22	7133.95
390.42	7449.93
390.61	7885.26
390.81	8458.70
391.00	8887.01
391.19	8318.26
391.39	8053.78
391.58	7604.40
391.78	7302.47
391.97	7201.83
392.16	6672.87
392.36	6094.76
392.55	4887.04
392.75	3824.44
392.94	3117.59
393.13	3122.27
393.33	3653.58
393.52	4688.09
393.71	5750.70
393.91	6478.60
394.10	7059.06
394.29	7911.01
394.49	8582.74
394.68	9064.89
394.88	9156.18
395.07	9366.82
395.26	9296.61
395.46	8872.97
395.65	8402.52
395.84	7503.76
396.04	6171.99
396.23	5088.32
396.42	4255.09
396.62	3852.52
396.81	4821.50
397.00	6242.21
397.19	7639.51
397.39	9097.66
397.58	10265.59
397.77	11019.24
397.97	11227.55
398.16	11367.98
398.35	11796.30
398.55	12121.63
398.74	12606.13
398.93	13142.11
399.12	12760.60
399.32	12386.12
399.51	12596.76
399.70	13390.20
399.90	13291.90
400.09	12989.97
400.28	13071.89
400.47	13099.98
400.67	14059.60
400.86	14258.54
401.05	14078.32
401.24	14389.61
401.44	14581.54
401.63	14504.30
401.82	14597.92
402.01	14841.34
402.21	14754.74
402.40	14934.96
402.59	14349.82
402.78	13626.60
402.97	13221.69
403.17	14083.00
403.36	14757.08
403.55	15059.01
403.74	15620.74
403.93	14771.12
404.13	13738.94
404.32	13074.23
404.51	13954.27
404.70	15257.95
404.89	15002.83
405.09	14946.66
405.28	14391.95
405.47	14459.83
405.66	14230.46
405.85	13804.48
406.05	13657.03
406.24	13937.89
406.43	14658.78
406.62	15049.64
406.81	15115.18
407.00	14450.47
407.20	14244.50
407.39	14548.77
407.58	14752.40
407.77	15360.94
407.96	16121.61
408.15	16189.49
408.34	16313.53
408.54	17032.08
408.73	17252.09
408.92	16734.83
409.11	16376.73
409.30	15452.22
409.49	14618.99
409.68	13818.52
409.87	13254.45
410.07	14120.45
410.26	15236.89
410.45	16215.23
410.64	16334.60
410.83	17270.81
411.02	17394.86
411.21	18202.35
411.40	17944.89
411.59	17996.38
411.78	18251.50
411.98	17549.34
412.17	18005.74
412.36	17607.85
412.55	17633.60
412.74	17415.93
412.93	17067.19
413.12	16966.54
413.31	18822.59
413.50	19044.94
413.69	19555.18
413.88	18560.45
414.07	17947.23
414.26	18317.03
414.45	18686.84
414.64	18972.38
414.83	19101.11
415.02	18462.15
415.22	18546.40
415.41	18874.08
415.60	19417.08
415.79	20615.44
415.98	20964.18
416.17	20945.45
416.36	20133.29
416.55	20327.55
416.74	19440.49
416.93	18635.35
417.12	18735.99
417.31	19058.98
417.50	19199.41
417.69	19763.48
417.88	19730.72
418.07	19901.58
418.26	19372.61
418.45	19763.48
418.64	20372.02
418.83	20994.61
419.02	20709.06
419.21	20657.57
419.39	19716.67
419.58	18883.44
419.77	19080.05
419.96	19735.40
420.15	20458.62
420.34	21219.30
420.53	22188.28
420.72	22401.27
420.91	22340.41
421.10	22075.93
421.29	21867.63
421.48	20973.54
421.67	22349.78
421.86	21549.31
422.05	20084.14
422.24	17944.89
422.43	17511.89
422.61	19733.06
422.80	21359.73
422.99	21287.17
423.18	20795.66
423.37	20126.27
423.56	19892.21
423.75	20327.55
423.94	20783.96
424.13	20130.95
424.32	19906.26
424.50	20002.22
424.69	19997.54
424.88	20053.71
425.07	19845.40
425.26	19740.08
425.45	19707.31
425.64	19222.82
425.83	19124.52
426.01	20563.95
426.20	20882.26
426.39	20702.04
426.58	19070.68
426.77	17781.05
426.96	17006.33
427.15	18064.25
427.33	19424.11
427.52	20067.75
427.71	20231.59
427.90	19571.56
428.09	19779.87
428.28	19442.83
428.46	18457.46
428.65	18277.24
428.84	18965.36
429.03	19236.86
429.22	18204.69
429.40	17364.43
429.59	15604.35
429.78	13783.41
429.97	14115.77
430.16	13947.25
430.34	13771.71
430.53	14108.75
430.72	14174.28
430.91	15868.83
431.10	18813.23
431.28	21830.18
431.47	23978.79
431.66	24126.24
431.85	21771.66
432.03	20161.37
432.22	19278.99
432.41	20156.69
432.60	22462.12
432.79	23302.37
432.97	23620.69
433.16	23077.68
433.35	21282.49
433.54	19220.48
433.72	17933.18
433.91	18590.88
434.10	20493.73
434.28	22129.77
434.47	23096.41
434.66	22998.10
434.85	22431.69
435.03	21958.91
435.22	22499.57
435.41	23988.15
435.59	24121.56
435.78	24519.45
435.97	25158.42
436.16	25441.62
436.34	24692.65
436.53	24261.99
436.72	24130.92
436.90	22885.76
437.09	23068.32
437.28	22539.36
437.46	23536.43
437.65	23332.80
437.84	21865.28
438.02	20072.43
438.21	19800.93
438.40	20978.22
438.58	22785.12
438.77	23232.16
438.96	23948.36
439.14	24222.20
439.33	24788.61
439.52	25481.41
439.70	25207.57
439.89	23992.83
440.08	23604.30
440.26	23733.03
440.45	24542.86
440.63	26010.37
440.82	27618.32
441.01	27398.31
441.19	26719.56
441.38	27363.20
441.57	28573.26
441.75	28540.49
441.94	29064.77
442.12	28273.67
442.31	29132.65
442.50	28938.38
442.68	28591.98
442.87	28210.48
443.05	27716.62
443.24	28423.47
443.43	28914.98
443.61	29633.52
443.80	29935.45
443.98	28297.08
444.17	28030.26
444.35	29708.42
444.54	30174.19
444.73	30127.38
444.91	28519.43
445.10	27623.00
445.28	26426.99
445.47	26228.04
445.65	25900.37
445.84	27145.53
446.02	27805.56
446.21	28397.72
446.39	28247.93
446.58	28800.29
446.77	29170.10
446.95	29198.18
447.14	30314.62
447.32	30754.64
447.51	30176.53
447.69	28940.72
447.88	28568.58
448.06	29015.62
448.25	29738.85
448.43	30127.38
448.62	29392.45
448.80	28985.19
448.99	29249.67
449.17	29898.00
449.36	29790.34
449.54	30801.45
449.73	30976.99
449.91	31622.98
450.10	32460.89
450.28	32814.31
450.46	32723.03
450.65	32687.92
450.83	32259.60
451.02	31351.48
451.20	31637.02
451.39	31349.14
451.57	31496.59
451.76	31180.62
451.94	31234.45
452.13	30539.31
452.31	29333.93
452.49	27852.38
452.68	28407.08
452.86	28210.48
453.05	28697.31
453.23	29277.76
453.42	30101.63
453.60	30621.23
453.78	31138.49
453.97	30932.52
454.15	31271.90
454.34	30003.33
454.52	30338.02
454.70	30305.26
454.89	30558.03
455.07	30118.01
455.26	30560.37
455.44	32025.55
455.62	32292.37
455.81	32203.43
455.99	32367.27
456.17	31772.77
456.36	31952.99
456.54	32847.08
456.73	32720.69
456.91	33256.67
457.09	33214.54
457.28	33986.92
457.46	33111.56
457.64	32463.23
457.83	31803.20
458.01	30848.26
458.19	32037.25
458.38	31938.95
458.56	33254.33
458.74	32978.15
458.93	32044.27
459.11	32301.73
459.29	31978.74
459.48	32243.22
459.66	31770.43
459.84	32488.98
460.03	32830.69
460.21	32804.95
460.39	33598.39
460.57	33331.57
460.76	33825.42
460.94	34183.52
461.12	33130.28
461.31	33612.43
461.49	33699.03
461.67	33727.12
461.85	34735.89
462.04	34518.22
462.22	35243.79
462.40	34368.43
462.59	34611.84
462.77	34747.59
462.95	34600.14
463.13	33673.29
463.32	33769.25
463.50	33532.86
463.68	33621.80
463.86	33708.40
464.05	32959.42
464.23	32191.73
464.41	31992.78
464.59	31894.48
464.78	33338.59
464.96	33118.58
465.14	32783.88
465.32	33696.69
465.50	34792.06
465.69	35009.73
465.87	34047.77
466.05	33296.46
466.23	31894.48
466.41	31264.88
466.60	32095.77
466.78	32123.85
466.96	32566.21
467.14	32795.59
467.32	33879.25
467.51	33736.48
467.69	31983.42
467.87	32505.36
468.05	33226.24
468.23	33369.02
468.41	33177.09
468.60	33628.82
468.78	33975.22
468.96	33282.42
469.14	33825.42
469.32	33638.18
469.50	32341.52
469.69	32863.46
469.87	32311.10
470.05	32250.24
470.23	32510.04
470.41	32189.39
470.59	32996.87
470.77	32905.59
470.95	33759.89
471.14	34153.10
471.32	34171.82
471.50	36037.23
471.68	36397.67
471.86	36421.08
472.04	35999.78
472.22	36519.38
472.40	34728.87
472.58	34780.36
472.77	33631.16
472.95	34955.90
473.13	36123.83
473.31	34948.88
473.49	35079.95
473.67	35847.64
473.85	36198.73
474.03	37048.34
474.21	37308.14
474.39	37439.21
474.57	37139.62
474.75	37404.10
474.93	37266.01
475.12	35924.88
475.30	36481.93
475.48	36664.49
475.66	37277.71
475.84	36346.18
476.02	36364.90
476.20	35587.85
476.38	36823.65
476.56	37354.95
476.74	38005.62
476.92	38583.73
477.10	38890.34
477.28	39754.00
477.46	39690.80
477.64	40081.67
477.82	40282.96
478.00	40615.32
478.18	39901.45
478.36	39707.19
478.54	39779.74
478.72	39978.69
478.90	41247.26
479.08	42164.75
479.26	42443.27
479.44	42607.11
479.62	42061.77
479.80	42195.18
479.98	42586.05
480.16	42632.86
480.34	42106.24
480.52	42780.31
480.70	42909.04
480.88	42782.65
481.06	43611.20
481.24	43566.73
481.41	44549.76
481.59	45701.30
481.77	45319.79
481.95	44748.70
482.13	44294.64
482.31	44650.40
482.49	45773.86
482.67	44971.05
482.85	45113.83
483.03	45984.51
483.21	45984.51
483.39	46363.67
483.57	45272.98
483.74	45294.05
483.92	45855.78
484.10	45595.98
484.28	46852.84
484.46	47192.22
484.64	47501.17
484.82	46571.98
485.00	46419.84
485.18	45565.55
485.35	44432.73
485.53	40928.95
485.71	37310.48
485.89	37193.45
486.07	38616.50
486.25	42110.92
486.43	44486.56
486.61	45340.86
486.78	45013.18
486.96	45294.05
487.14	46873.91
487.32	47812.46
487.50	49036.56
487.68	49481.27
487.85	50169.38
488.03	50265.34
488.21	49769.15
488.39	49144.23
488.57	48444.41
488.75	47873.32
488.92	49392.33
489.10	51267.09
489.28	52339.06
489.46	53329.11
489.64	53088.03
489.81	53502.31
489.99	53237.83
490.17	52790.78
490.35	53219.10
490.53	52898.45
490.70	52514.60
490.88	52474.81
491.06	53542.10
491.24	53310.38
491.41	52165.86
491.59	50632.81
491.77	49682.55
491.95	50777.92
492.13	52271.18
492.30	53364.21
492.48	54321.49
492.66	54763.85
492.84	54752.15
493.01	54600.02
493.19	54042.97
493.37	53572.52
493.54	53443.79
493.72	53923.60
493.90	55154.72
494.08	55840.50
494.25	56137.75
494.43	56332.01
494.61	56722.88
494.79	56851.61
494.96	56601.18
495.14	55840.50
495.32	54450.22
495.49	54281.70
495.67	55519.85
495.85	56673.73
496.02	57293.97
496.20	57057.58
496.38	56453.72
496.55	56273.50
496.73	56769.69
496.91	56893.74
497.09	57399.30
497.26	57698.89
497.44	57148.86
497.62	56860.97
497.79	56116.68
497.97	54745.13
498.14	54960.46
498.32	56147.11
498.50	56938.21
498.67	57378.23
498.85	56931.19
499.03	57235.46
499.20	57600.58
499.38	57581.86
499.56	57345.47
499.73	56849.27
499.91	56739.27
500.08	56222.01
500.26	55292.82
500.44	56133.07
500.61	56528.62
500.79	56472.45
500.97	56182.22
501.14	55899.01
501.32	55529.21
501.49	55765.60
501.67	55828.80
501.84	56708.84
502.02	56949.92
502.20	56966.30
502.37	57078.64
502.55	56982.68
502.72	57893.15
502.90	58080.39
503.07	58019.54
503.25	57600.58
503.43	56750.97
503.60	55934.12
503.78	55538.57
503.95	55952.85
504.13	57403.98
504.30	58204.44
504.48	57724.63
504.65	57542.07
504.83	57766.76
505.01	58239.55
505.18	58543.82
505.36	59128.95
505.53	59112.57
505.71	59381.73
505.88	59531.53
506.06	58850.43
506.23	58326.15
506.41	58103.80
506.58	58398.71
506.76	58314.45
506.93	58195.08
507.11	58021.88
507.28	58199.76
507.46	57722.29
507.63	57095.03
507.81	57080.98
507.98	57169.93
508.16	57834.64
508.33	58485.31
508.50	58798.94
508.68	58831.71
508.85	59473.01
509.03	59377.05
509.20	59236.62
509.38	58721.70
509.55	57785.49
509.73	58031.24
509.90	58473.60
510.08	58782.55
510.25	58782.55
510.42	58592.97
510.60	58354.24
510.77	58808.30
510.95	59363.01
511.12	59313.86
511.30	59803.03
511.47	59866.22
511.64	59763.24
511.82	59484.72
511.99	58763.83
512.17	58319.13
512.34	58159.97
512.51	58190.40
512.69	58354.24
512.86	58379.98
513.04	58735.74
513.21	58815.32
513.38	58525.10
513.56	57724.63
513.73	57244.82
513.90	57673.14
514.08	57801.87
514.25	57907.19
514.43	58059.33
514.60	58389.34
514.77	58309.77
514.95	58513.39
515.12	58532.12
515.29	58803.62
515.47	59131.29
515.64	59269.39
515.81	58967.46
515.99	58391.68
516.16	57015.45
516.33	54670.23
516.51	53205.06
516.68	52790.78
516.85	52090.96
517.03	52229.05
517.20	55166.43
517.37	57724.63
517.54	58616.38
517.72	58031.24
517.89	55655.60
518.06	53427.41
518.24	53815.94
518.41	55695.39
518.58	57141.84
518.75	57537.39
518.93	57481.22
519.10	57525.69
519.27	57881.45
519.45	58113.16
519.62	58719.36
519.79	58962.78
519.96	58864.47
520.14	58492.33
520.31	57743.36
520.48	57771.44
520.65	57942.30
520.83	58930.01
521.00	59248.32
521.17	58937.03
521.34	58450.20
521.52	58789.58
521.69	59288.11
521.86	59800.69
522.03	59470.67
522.20	58447.86
522.38	57326.74
522.55	57216.74
522.72	58138.91
522.89	58166.99
523.07	58251.25
523.24	58457.22
523.41	59318.54
523.58	59601.74
523.75	60001.97
523.92	59957.50
524.10	59910.69
524.27	59817.07
524.44	59557.27
524.61	59215.55
524.78	59545.57
524.96	59241.30
525.13	59241.30
525.30	59571.32
525.47	60016.02
525.64	59910.69
525.81	59236.62
525.98	57745.70
526.16	56474.79
526.33	55704.75
526.50	55458.99
526.67	55004.93
526.84	55891.99
527.01	56722.88
527.18	57530.37
527.36	58372.96
527.53	59180.45
527.70	59316.20
527.87	59065.76
528.04	58342.53
528.21	58983.84
528.38	59601.74
528.55	60107.30
528.72	60390.50
528.89	60383.48
529.07	60135.38
529.24	59807.71
529.41	59068.10
529.58	58485.31
529.75	58438.50
529.92	58871.49
530.09	59264.70
530.26	60004.31
530.43	60086.23
530.60	60116.66
530.77	60463.06
530.94	60313.26
531.11	60074.53
531.28	59753.88
531.46	59543.23
531.63	59547.91
531.80	59437.90
531.97	59107.89
532.14	58356.58
532.31	57247.16
532.48	56835.23
532.65	56868.00
532.82	57694.21
532.99	58899.58
533.16	58969.80
533.33	59585.36
533.50	59320.88
533.67	58614.04
533.84	58520.41
534.01	58710.00
534.18	58965.12
534.35	59035.33
534.52	58862.13
534.69	58967.46
534.86	59056.40
535.03	59508.12
535.20	59913.03
535.37	60261.77
535.54	60453.70
535.71	60011.34
535.88	59678.98
536.05	59037.67
536.22	58841.07
536.38	58543.82
536.55	58047.63
536.72	57516.32
536.89	57626.33
537.06	58344.87
537.23	58983.84
537.40	59585.36
537.57	59437.90
537.74	59068.10
537.91	58965.12
538.08	58894.90
538.25	59079.80
538.42	59182.79
538.59	59140.66
538.75	58450.20
538.92	58227.85
539.09	58122.52
539.26	57942.30
539.43	57434.41
539.60	57750.38
539.77	57874.43
539.94	57928.26
540.11	57120.77
540.28	56647.99
540.44	56949.92
540.61	57099.71
540.78	57352.49
540.95	57766.76
541.12	57958.69
541.29	58253.59
541.46	58438.50
541.62	58607.01
541.79	58501.69
541.96	57799.53
542.13	57776.12
542.30	57965.71
542.47	58401.05
542.63	58096.78
542.80	57790.17
542.97	58061.67
543.14	57771.44
543.31	57904.85
543.48	58197.42
543.64	59194.49
543.81	59529.19
543.98	59208.53
544.15	58560.20
544.32	57942.30
544.48	58038.26
544.65	58497.01
544.82	58838.73
544.99	58550.84
545.16	58141.25
545.32	58031.24
545.49	59000.22
545.66	59180.45
545.83	58506.37
546.00	58391.68
546.16	58164.65
546.33	58089.76
546.50	58045.29
546.67	58546.16
546.83	58265.30
547.00	58223.17
547.17	57511.64
547.34	56877.36
547.50	56924.17
547.67	57219.08
547.84	57322.06
548.00	57733.99
548.17	58288.70
548.34	57935.28
548.51	58066.35
548.67	58082.73
548.84	58216.14
549.01	58129.54
549.18	58145.93
549.34	57752.72
549.51	57956.35
549.68	57836.98
549.84	57867.40
550.01	57656.76
550.18	57492.92
550.34	57453.13
550.51	57530.37
550.68	57741.02
550.84	57200.35
551.01	57272.91
551.18	57436.75
551.34	57488.24
551.51	57722.29
551.68	58152.95
551.84	58401.05
552.01	58014.86
552.18	57865.06
552.34	57020.13
552.51	56978.00
552.68	56573.09
552.84	57200.35
553.01	57279.93
553.18	57340.78
553.34	57668.46
553.51	57497.60
553.67	57851.02
553.84	58054.65
554.01	57813.57
554.17	57652.08
554.34	57471.85
554.51	57794.85
554.67	58099.12
554.84	57785.49
555.00	57411.00
555.17	57296.31
555.33	57223.76
555.50	57389.94
555.67	57448.45
555.83	56970.98
556.00	56774.37
556.16	56945.23
556.33	56680.75
556.50	56273.50
556.66	56348.40
556.83	56177.54
556.99	56327.33
557.16	56425.64
557.32	56875.02
557.49	56891.40
557.65	56746.29
557.82	56622.24
557.98	56362.44
558.15	56163.50
558.32	55409.84
558.48	54740.45
558.65	54639.81
558.81	55194.51
558.98	55515.17
559.14	55664.96
559.31	55746.88
559.47	55711.77
559.64	55590.06
559.80	54880.88
559.97	54990.89
560.13	55763.26
560.30	56343.72
560.46	56856.29
560.63	57249.50
560.79	57059.92
560.96	56666.71
561.12	55622.83
561.29	55040.04
561.45	54925.35
561.61	55491.76
561.78	55891.99
561.94	55842.84
562.11	55475.38
562.27	55489.42
562.44	55812.41
562.60	56055.83
562.77	56404.57
562.93	55978.59
563.10	55873.27
563.26	55604.11
563.42	55646.24
563.59	55468.36
563.75	55344.31
563.92	55451.97
564.08	55363.03
564.24	55749.22
564.41	55908.38
564.57	55552.62
564.74	55433.25
564.90	55224.94
565.07	55051.74
565.23	54663.21
565.39	54197.44
565.56	54190.42
565.72	53666.14
565.88	54354.26
566.05	54286.39
566.21	54553.21
566.38	54719.38
566.54	55030.68
566.70	55159.41
566.87	55356.01
567.03	55468.36
567.19	55580.70
567.36	55416.86
567.52	55093.87
567.68	54719.38
567.85	54099.14
568.01	53897.86
568.17	53401.66
568.34	53645.08
568.50	53368.90
568.66	53628.69
568.83	54136.59
568.99	54195.10
569.15	54267.66
569.32	54281.70
569.48	53951.69
569.64	53691.89
569.81	53661.46
569.97	53488.26
570.13	53385.28
570.30	52619.92
570.46	52598.86
570.62	51845.21
570.78	51709.46
570.95	52137.77
571.11	52914.83
571.27	52921.85
571.43	53226.12
571.60	53570.18
571.76	53687.21
571.92	53858.07
572.09	54066.38
572.25	54127.23
572.41	54033.61
572.57	53769.13
572.74	54010.20
572.90	53055.26
573.06	53375.92
573.22	53675.51
573.38	53607.63
573.55	53881.47
573.71	53745.72
573.87	53172.29
574.03	53207.40
574.20	53202.72
574.36	52971.00
574.52	52774.40
574.68	52814.19
574.84	52278.21
575.01	51629.88
575.17	51742.22
575.33	52130.75
575.49	52296.93
575.65	52671.42
575.82	52032.45
575.98	51735.20
576.14	52203.31
576.30	52575.45
576.46	52720.57
576.62	52498.22
576.79	52587.16
576.95	52086.28
577.11	52151.82
577.27	52458.43
577.43	52229.05
577.59	52128.41
577.75	51573.70
577.92	50829.41
578.08	50515.78
578.24	50583.66
578.40	51217.94
578.56	51114.96
578.72	51313.90
578.88	51393.48
579.04	51536.26
579.21	51861.59
579.37	52128.41
579.53	51952.87
579.69	52018.41
579.85	52065.22
580.01	51899.04
580.17	51278.80
580.33	51433.27
580.49	51267.09
580.65	51599.45
580.82	52016.07
580.98	51807.76
581.14	51730.52
581.30	51901.38
581.46	51545.62
581.62	52076.92
581.78	51648.60
581.94	52210.33
582.10	51896.70
582.26	52121.39
582.42	51997.34
582.58	52142.45
582.74	51929.47
582.90	51927.13
583.06	51936.49
583.22	51491.79
583.38	51531.57
583.54	51655.62
583.70	51089.21
583.86	51400.50
584.02	51679.03
584.18	51885.00
584.34	51409.87
584.50	51454.34
584.66	50981.55
584.82	50688.98
584.98	51124.32
585.14	50286.41
585.30	49797.24
