SpectraSuite Data File
++++++++++++++++++++++++++++++++++++
Date: Mon Oct 07 14:54:04 GMT-05:00 2013
User: price-jones
Dark Spectrum Present: No
Reference Spectrum Present: No
Number of Sampled Component Spectra: 1
Spectrometers: USB2+H05261
Integration Time (usec): 100000 (USB2+H05261)
Spectra Averaged: 1 (USB2+H05261)
Boxcar Smoothing: 0 (USB2+H05261)
Correct for Electrical Dark: No (USB2+H05261)
Strobe/Lamp Enabled: No (USB2+H05261)
Correct for Detector Non-linearity: No (USB2+H05261)
Correct for Stray Light: No (USB2+H05261)
Number of Pixels in Processed Spectrum: 2048
>>>>>Begin Processed Spectral Data<<<<<
365.73	0.00
365.92	0.00
366.12	0.00
366.32	0.00
366.52	0.00
366.72	0.00
366.91	0.00
367.11	0.00
367.31	0.00
367.51	0.00
367.70	0.00
367.90	0.00
368.10	0.00
368.30	0.00
368.49	0.00
368.69	0.00
368.89	0.00
369.09	0.00
369.28	0.00
369.48	0.00
369.68	0.00
369.87	0.00
370.07	0.00
370.27	0.00
370.47	671.73
370.66	3426.54
370.86	4039.76
371.06	4285.52
371.25	4308.93
371.45	4067.85
371.65	3576.34
371.84	3344.63
372.04	3545.91
372.24	3955.51
372.44	4126.36
372.63	4112.32
372.83	3775.28
373.03	3431.23
373.22	3021.63
373.42	3318.88
373.62	3611.45
373.81	3983.59
374.01	3908.69
374.21	3662.94
374.40	3424.20
374.60	3555.27
374.79	3878.27
374.99	4662.35
375.19	5001.72
375.38	4943.21
375.58	4652.98
375.78	4571.07
375.97	4739.58
376.17	4873.00
376.37	4727.88
376.56	4985.34
376.76	5369.19
376.95	5568.13
377.15	6003.47
377.35	6225.82
377.54	6438.81
377.74	6464.56
377.93	6672.87
378.13	6331.15
378.33	6120.50
378.52	5654.73
378.72	5359.83
378.91	5228.76
379.11	5172.58
379.31	4994.70
379.50	5032.15
379.70	5420.68
379.89	5870.06
380.09	6263.27
380.28	6504.35
380.48	6490.31
380.68	6258.59
380.87	6157.95
381.07	5909.85
381.26	5303.65
381.46	5057.90
381.65	4851.93
381.85	4652.98
382.04	4566.39
382.24	4205.94
382.43	3836.14
382.63	3796.35
382.83	3901.67
383.02	3768.26
383.22	3943.80
383.41	3819.75
383.61	4269.14
383.80	4741.93
384.00	5528.35
384.19	6157.95
384.39	6445.84
384.58	6572.22
384.78	6223.48
384.97	6272.64
385.17	5853.68
385.36	5680.48
385.56	5245.14
385.75	5467.49
385.95	6090.07
386.14	6607.33
386.34	6478.60
386.53	6499.67
386.72	5858.36
386.92	5900.49
387.11	6305.40
387.31	6647.12
387.50	6354.55
387.70	6179.01
387.89	6162.63
388.09	6230.51
388.28	6291.36
388.48	6459.88
388.67	7000.54
388.86	7492.05
389.06	7999.95
389.25	8472.74
389.45	8638.92
389.64	8510.19
389.84	8348.69
390.03	8231.66
390.22	8393.16
390.42	8561.68
390.61	9083.62
390.81	9617.26
391.00	9902.81
391.19	9605.56
391.39	9537.68
391.58	8966.59
391.78	8379.12
391.97	8138.04
392.16	7758.88
392.36	6904.58
392.55	5472.17
392.75	4381.48
392.94	3597.40
393.13	3592.72
393.33	4201.26
393.52	5542.39
393.71	6738.40
393.91	7562.27
394.10	8114.64
394.29	8919.78
394.49	9390.23
394.68	10256.23
394.88	10228.14
395.07	10881.15
395.26	10506.66
395.46	10415.38
395.65	9708.54
395.84	8510.19
396.04	7222.89
396.23	5863.04
396.42	4762.99
396.62	4702.14
396.81	5394.93
397.00	6939.69
397.19	8671.68
397.39	10520.71
397.58	11866.52
397.77	12290.15
397.97	12915.08
398.16	13121.04
398.35	13642.98
398.55	13680.43
398.74	14473.87
398.93	14705.59
399.12	14464.51
399.32	13675.75
399.51	14466.85
399.70	15157.31
399.90	14960.70
400.09	15005.17
400.28	14843.68
400.47	14946.66
400.67	15679.25
400.86	16292.47
401.05	16079.48
401.24	16161.40
401.44	16779.30
401.63	16538.23
401.82	16704.40
402.01	16706.74
402.21	16830.79
402.40	16732.49
402.59	16299.49
402.78	15297.74
402.97	15023.90
403.17	15910.96
403.36	16772.28
403.55	17324.65
403.74	17563.38
403.93	16868.24
404.13	15517.75
404.32	15047.30
404.51	15777.55
404.70	17003.99
404.89	17174.85
405.09	16910.37
405.28	16365.03
405.47	16201.19
405.66	16587.38
405.85	15779.89
406.05	15442.85
406.24	15831.38
406.43	16341.62
406.62	17128.04
406.81	17153.79
407.00	16395.45
407.20	16067.78
407.39	16035.01
407.58	16690.36
407.77	17703.81
407.96	17942.55
408.15	18082.98
408.34	18539.38
408.54	19087.07
408.73	19283.67
408.92	19178.35
409.11	18412.99
409.30	17558.70
409.49	16465.67
409.68	15314.13
409.87	14946.66
410.07	15864.15
410.26	17015.69
410.45	18530.02
410.64	19040.26
410.83	19283.67
411.02	19463.90
411.21	20442.24
411.40	19873.49
411.59	20416.49
411.78	20245.63
411.98	19974.13
412.17	20341.60
412.36	19922.64
412.55	20034.99
412.74	19269.63
412.93	19157.28
413.12	19192.39
413.31	21181.85
413.50	21034.39
413.69	21680.38
413.88	20849.49
414.07	20269.04
414.26	20315.85
414.45	21219.30
414.64	21177.17
414.83	21280.15
415.02	20947.79
415.22	20957.16
415.41	21434.63
415.60	21811.45
415.79	22745.33
415.98	23728.35
416.17	23367.91
416.36	23056.62
416.55	22555.74
416.74	21551.65
416.93	21322.28
417.12	21256.75
417.31	21469.73
417.50	21502.50
417.69	22345.09
417.88	22408.29
418.07	22209.34
418.26	21788.05
418.45	22171.89
418.64	22808.52
418.83	23613.66
419.02	23274.29
419.21	23051.94
419.39	21893.37
419.58	21113.97
419.77	21247.38
419.96	21919.12
420.15	23285.99
420.34	23653.45
420.53	24521.79
420.72	24933.73
420.91	25104.59
421.10	24442.21
421.29	24198.80
421.48	23405.36
421.67	25081.18
421.86	24119.22
422.05	22607.23
422.24	19922.64
422.43	19438.15
422.61	21916.78
422.80	23742.39
422.99	24046.66
423.18	23311.74
423.37	22434.03
423.56	22525.32
423.75	22955.97
423.94	23269.61
424.13	21970.61
424.32	22043.17
424.50	22469.14
424.69	22199.98
424.88	22246.79
425.07	22427.01
425.26	22162.53
425.45	21832.52
425.64	21507.18
425.83	21539.95
426.01	22354.46
426.20	23262.58
426.39	22881.08
426.58	21458.03
426.77	19604.33
426.96	19030.90
427.15	19864.13
427.33	21270.79
427.52	21937.84
427.71	22207.00
427.90	22008.06
428.09	22368.50
428.28	21621.87
428.46	20556.93
428.65	19981.15
428.84	20819.07
429.03	21387.82
429.22	20004.56
429.40	19307.08
429.59	17205.28
429.78	15103.48
429.97	15426.47
430.16	15779.89
430.34	15609.03
430.53	15693.29
430.72	15925.00
430.91	17701.47
431.10	20465.64
431.28	24395.40
431.47	26324.01
431.66	26834.24
431.85	24259.65
432.03	22082.95
432.22	21158.44
432.41	22157.85
432.60	24159.01
432.79	25692.06
432.97	26085.27
433.16	25619.50
433.35	23651.11
433.54	21209.93
433.72	19840.72
433.91	20238.61
434.10	22506.59
434.28	24395.40
434.47	25755.26
434.66	25198.21
434.85	24254.97
435.03	24580.31
435.22	25055.43
435.41	26651.68
435.59	26394.22
435.78	26885.73
435.97	27447.46
436.16	27779.82
436.34	27264.90
436.53	26721.90
436.72	26946.59
436.90	25380.77
437.09	25268.42
437.28	24797.98
437.46	25879.30
437.65	25874.62
437.84	24116.88
438.02	22024.44
438.21	21752.94
438.40	23211.09
438.58	25053.09
438.77	25673.34
438.96	25586.74
439.14	27211.07
439.33	27330.44
439.52	28070.04
439.70	27225.11
439.89	26639.98
440.08	26232.72
440.26	26059.52
440.45	26771.05
440.63	28723.05
440.82	29998.65
441.01	30171.85
441.19	28964.13
441.38	30202.27
441.57	30817.83
441.75	31349.14
441.94	31545.74
442.12	31477.86
442.31	32032.57
442.50	31440.42
442.68	31571.49
442.87	30799.11
443.05	30387.18
443.24	31049.55
443.43	31517.65
443.61	32346.20
443.80	32779.20
443.98	30759.32
444.17	30960.61
444.35	32451.53
444.54	32987.51
444.73	32863.46
444.91	31346.79
445.10	30323.98
445.28	28730.08
445.47	28224.52
445.65	28538.15
445.84	29593.73
446.02	30302.92
446.21	30635.27
446.39	31250.83
446.58	31374.88
446.77	31552.76
446.95	32030.23
447.14	32996.87
447.32	33605.41
447.51	32802.61
447.69	31508.29
447.88	31166.57
448.06	31826.60
448.25	32322.80
448.43	32584.94
448.62	31756.39
448.80	31796.18
448.99	32318.12
449.17	32313.44
449.36	31828.95
449.54	33617.11
449.73	33963.51
449.91	34059.48
450.10	35026.12
450.28	35880.41
450.46	35578.48
450.65	35578.48
450.83	35318.68
451.02	34380.13
451.20	34223.31
451.39	33935.43
451.57	33883.94
451.76	33926.07
451.94	34071.18
452.13	33270.72
452.31	31976.40
452.49	30003.33
452.68	30677.40
452.86	30590.80
453.05	31311.69
453.23	31929.59
453.42	32381.31
453.60	33390.08
453.78	33883.94
453.97	33401.79
454.15	33411.15
454.34	32694.94
454.52	32900.91
454.70	31866.39
454.89	32882.19
455.07	32634.09
455.26	33167.73
455.44	34511.20
455.62	34946.54
455.81	35363.15
455.99	34909.09
456.17	34352.04
456.36	34597.80
456.54	35784.45
456.73	35618.27
456.91	36229.15
457.09	36210.43
457.28	36842.37
457.46	35681.47
457.64	35342.09
457.83	33937.77
458.01	33256.67
458.19	34506.52
458.38	34478.43
458.56	35372.52
458.74	35681.47
458.93	34754.61
459.11	34906.75
459.29	34766.32
459.48	34312.25
459.66	34115.65
459.84	34859.94
460.03	35477.84
460.21	35299.96
460.39	36058.29
460.57	36334.48
460.76	36306.39
460.94	36435.12
461.12	35819.56
461.31	36404.69
461.49	36175.32
461.67	36350.86
461.85	37165.37
462.04	37380.70
462.22	37137.28
462.40	37205.16
462.59	36828.33
462.77	37273.03
462.95	37319.84
463.13	36744.07
463.32	35831.26
463.50	36226.81
463.68	35796.15
463.86	35842.96
464.05	35552.74
464.23	35061.22
464.41	35173.57
464.59	34125.01
464.78	36219.79
464.96	35711.89
465.14	35262.51
465.32	36226.81
465.50	36924.29
465.69	37167.71
465.87	36491.29
466.05	35250.81
466.23	34038.41
466.41	33216.88
466.60	34576.73
466.78	34412.90
466.96	35051.86
467.14	35531.67
467.32	36084.04
467.51	36004.46
467.69	34665.67
467.87	35234.42
468.05	35676.79
468.23	35693.17
468.41	35723.60
468.60	36184.68
468.78	36156.60
468.96	35562.10
469.14	35917.86
469.32	36935.99
469.50	34838.87
469.69	35351.45
469.87	35086.97
470.05	34309.91
470.23	34731.21
470.41	34902.07
470.59	34810.79
470.77	35611.25
470.95	36084.04
471.14	36748.75
471.32	35852.33
471.50	37989.24
471.68	38293.50
471.86	39033.11
472.04	39110.35
472.22	38913.75
472.40	37448.57
472.58	36538.10
472.77	36500.65
472.95	37479.00
473.13	38457.34
473.31	37258.99
473.49	37031.96
473.67	38567.35
473.85	38195.20
474.03	38934.81
474.21	39054.18
474.39	40128.48
474.57	39735.27
474.75	40325.09
474.93	39693.15
475.12	38691.40
475.30	38644.59
475.48	39225.04
475.66	39365.47
475.84	39014.39
476.02	38543.94
476.20	37488.36
476.38	38803.74
476.56	39981.03
476.74	40432.75
476.92	40374.24
477.10	41153.64
477.28	42864.57
477.46	42293.48
477.64	42815.42
477.82	42763.93
478.00	42733.50
478.18	42527.53
478.36	42490.09
478.54	42232.63
478.72	42244.33
478.90	43456.73
479.08	44589.55
479.26	45219.15
479.44	45209.79
479.62	45031.91
479.80	44643.38
479.98	44935.95
480.16	45062.33
480.34	44832.96
480.52	45226.17
480.70	45333.84
480.88	45600.66
481.06	46038.34
481.24	46560.28
481.41	47257.76
481.59	48126.10
481.77	47540.96
481.95	46913.70
482.13	46548.57
482.31	46820.08
482.49	47786.72
482.67	47421.59
482.85	47489.47
483.03	48275.89
483.21	48816.55
483.39	48638.67
483.57	48053.54
483.74	47459.04
483.92	47856.93
484.10	48067.58
484.28	49137.21
484.46	49514.03
484.64	49441.48
484.82	48671.44
485.00	48289.93
485.18	47828.85
485.35	46740.50
485.53	43377.15
485.71	39995.07
485.89	39056.52
486.07	40889.16
486.25	44273.57
486.43	46597.73
486.61	47171.16
486.78	47393.51
486.96	47718.84
487.14	49104.44
487.32	49923.63
487.50	51007.29
487.68	51683.71
487.85	52280.55
488.03	52025.43
488.21	51585.41
488.39	51056.45
488.57	50609.40
488.75	50092.15
488.92	51068.15
489.10	53155.91
489.28	54466.61
489.46	55114.94
489.64	54714.70
489.81	54932.37
489.99	54614.06
490.17	54679.60
490.35	55274.09
490.53	54766.20
490.70	54167.02
490.88	54195.10
491.06	55220.26
491.24	55187.49
491.41	54223.19
491.59	52423.32
491.77	51583.07
491.95	52732.27
492.13	53951.69
492.30	55018.97
492.48	55899.01
492.66	56371.80
492.84	56088.60
493.01	56179.88
493.19	55561.98
493.37	55388.78
493.54	55035.36
493.72	55718.79
493.90	56701.82
494.08	57326.74
494.25	57350.15
494.43	57689.52
494.61	58218.49
494.79	58075.71
494.96	57869.75
495.14	57425.04
495.32	56362.44
495.49	55730.50
495.67	56795.44
495.85	58064.01
496.02	58489.99
496.20	58307.43
496.38	57750.38
496.55	57846.34
496.73	58227.85
496.91	58382.32
497.09	58864.47
497.26	58894.90
497.44	58387.00
497.62	58150.61
497.79	57247.16
497.97	56086.26
498.14	56231.37
498.32	57378.23
498.50	58239.55
498.67	58630.42
498.85	58506.37
499.03	58756.81
499.20	58920.65
499.38	59000.22
499.56	58684.25
499.73	58340.19
499.91	58021.88
500.08	57509.30
500.26	56886.72
500.44	57109.07
500.61	58071.03
500.79	57829.96
500.97	57293.97
501.14	57113.75
501.32	56959.28
501.49	56779.06
501.67	57293.97
501.84	57804.21
502.02	57982.09
502.20	58504.03
502.37	58630.42
502.55	58389.34
502.72	58960.44
502.90	59437.90
503.07	59372.37
503.25	58782.55
503.43	58075.71
503.60	57392.28
503.78	56816.50
503.95	57230.78
504.13	58459.56
504.30	59395.77
504.48	58871.49
504.65	58794.26
504.83	58684.25
505.01	59337.26
505.18	59721.11
505.36	60310.92
505.53	60074.53
505.71	60509.87
505.88	60547.32
506.06	59950.48
506.23	59517.48
506.41	59180.45
506.58	59625.15
506.76	59470.67
506.93	59442.59
507.11	59128.95
507.28	59341.94
507.46	58838.73
507.63	58272.32
507.81	58204.44
507.98	58546.16
508.16	59274.07
508.33	59482.37
508.50	59770.26
508.68	60100.28
508.85	60624.56
509.03	60392.84
509.20	60498.17
509.38	59877.93
509.55	59044.69
509.73	58880.86
509.90	59774.94
510.08	59760.90
510.25	59796.01
510.42	59538.55
510.60	59419.18
510.77	59863.88
510.95	60301.56
511.12	60439.65
511.30	60544.98
511.47	60828.18
511.64	60966.27
511.82	60645.62
511.99	59924.74
512.17	59231.94
512.34	58925.33
512.51	59187.47
512.69	59150.02
512.86	59281.09
513.04	59941.12
513.21	59800.69
513.38	59587.70
513.56	59061.08
513.73	58429.13
513.90	58658.51
514.08	58639.78
514.25	59192.15
514.43	59304.49
514.60	59182.79
514.77	59384.07
514.95	59531.53
515.12	59363.01
515.29	59660.26
515.47	60009.00
515.64	60432.63
515.81	59943.46
515.99	59173.42
516.16	58216.14
516.33	55966.89
516.51	54506.40
516.68	53712.95
516.85	53081.01
517.03	53668.48
517.20	56348.40
517.37	58632.76
517.54	59522.16
517.72	59182.79
517.89	56835.23
518.06	54286.39
518.24	54663.21
518.41	56650.33
518.58	58166.99
518.75	58241.89
518.93	58557.86
519.10	58351.90
519.27	58628.08
519.45	59114.91
519.62	59669.62
519.79	59962.18
519.96	59821.75
520.14	59348.96
520.31	58714.68
520.48	58370.62
520.65	58880.86
520.83	59906.01
521.00	60397.52
521.17	59739.83
521.34	59489.40
521.52	59744.51
521.69	60275.82
521.86	60631.58
522.03	60516.89
522.20	59213.21
522.38	58190.40
522.55	58239.55
522.72	58635.10
522.89	59082.14
523.07	59241.30
523.24	59419.18
523.41	60140.07
523.58	60360.08
523.75	60793.07
523.92	60729.88
524.10	60601.15
524.27	60523.91
524.44	60238.37
524.61	60236.03
524.78	60039.42
524.96	60205.60
525.13	60095.60
525.30	60339.01
525.47	60638.60
525.64	60725.20
525.81	59833.46
525.98	58702.98
526.16	57368.87
526.33	56713.52
526.50	56439.68
526.67	55800.71
526.84	56327.33
527.01	57546.75
527.18	58288.70
527.36	59117.25
527.53	59788.98
527.70	60273.48
527.87	59669.62
528.04	59112.57
528.21	59728.13
528.38	60275.82
528.55	60762.65
528.72	61097.34
528.89	61090.32
529.07	60874.99
529.24	60346.03
529.41	59625.15
529.58	59128.95
529.75	59086.82
529.92	59622.81
530.09	60130.70
530.26	60570.72
530.43	60741.58
530.60	60874.99
530.77	60942.87
530.94	61186.28
531.11	60687.75
531.28	60388.16
531.46	60191.56
531.63	60275.82
531.80	60170.49
531.97	59887.29
532.14	58899.58
532.31	58031.24
532.48	57586.54
532.65	57549.09
532.82	58445.52
532.99	59435.56
533.16	59669.62
533.33	60224.32
533.50	60114.32
533.67	59475.35
533.84	59157.04
534.01	59117.25
534.18	59339.60
534.35	59693.02
534.52	59306.83
534.69	59697.70
534.86	59924.74
535.03	60245.39
535.20	60722.86
535.37	60987.34
535.54	61083.30
535.71	60797.76
535.88	60378.80
536.05	59873.24
536.22	59515.14
536.38	59236.62
536.55	58726.38
536.72	58136.57
536.89	58176.36
537.06	58759.15
537.23	59861.54
537.40	59781.96
537.57	59994.95
537.74	59599.40
537.91	59702.38
538.08	59629.83
538.25	59508.12
538.42	59772.60
538.59	59730.47
538.75	58873.84
538.92	58749.79
539.09	58745.11
539.26	58464.24
539.43	58248.91
539.60	58375.30
539.77	58433.81
539.94	58403.39
540.11	57710.59
540.28	57291.63
540.44	57401.64
540.61	57492.92
540.78	57687.18
540.95	58333.17
541.12	58625.74
541.29	58878.52
541.46	58981.50
541.62	59370.03
541.79	58993.20
541.96	58258.27
542.13	58389.34
542.30	58644.46
542.47	59049.38
542.63	58494.67
542.80	58433.81
542.97	58611.70
543.14	58480.63
543.31	58431.47
543.48	58894.90
543.64	59613.44
543.81	59945.80
543.98	59655.57
544.15	59093.85
544.32	58323.81
544.48	58410.41
544.65	58958.09
544.82	59416.84
544.99	58925.33
545.16	58607.01
545.32	58188.06
545.49	59145.34
545.66	59540.89
545.83	59309.18
546.00	58838.73
546.16	58534.46
546.33	58473.60
546.50	58536.80
546.67	59028.31
546.83	58618.72
547.00	58726.38
547.17	58021.88
547.34	57549.09
547.50	57331.42
547.67	57928.26
547.84	57675.48
548.00	58178.70
548.17	58852.77
548.34	58485.31
548.51	58571.91
548.67	58604.67
548.84	58698.30
549.01	58660.85
549.18	58438.50
549.34	58562.54
549.51	58365.94
549.68	58396.37
549.84	58120.18
550.01	58040.60
550.18	58021.88
550.34	57977.41
550.51	58298.06
550.68	57949.32
550.84	57532.71
551.01	57766.76
551.18	57673.14
551.34	57923.58
551.51	58269.98
551.68	58527.44
551.84	58508.71
552.01	58220.83
552.18	58354.24
552.34	57471.85
552.51	56919.49
552.68	57013.11
552.84	57336.10
553.01	57745.70
553.18	57577.18
553.34	57698.89
553.51	58017.20
553.67	58192.74
553.84	58232.53
554.01	58075.71
554.17	57832.30
554.34	58007.84
554.51	57935.28
554.67	58284.02
554.84	58176.36
555.00	57865.06
555.17	57729.31
555.33	57567.82
555.50	57759.74
555.67	57769.10
555.83	57446.11
556.00	57319.72
556.16	57223.76
556.33	56755.65
556.50	56512.23
556.66	56760.33
556.83	56470.11
556.99	56430.32
557.16	56528.62
557.32	56942.89
557.49	57315.04
557.65	57123.11
557.82	57097.37
557.98	56811.82
558.15	56507.55
558.32	55529.21
558.48	55068.12
558.65	55131.32
558.81	55608.79
558.98	55585.38
559.14	56076.90
559.31	55920.08
559.47	55917.74
559.64	55590.06
559.80	55370.05
559.97	55351.33
560.13	55786.67
560.30	56591.81
560.46	57207.37
560.63	57364.19
560.79	57350.15
560.96	57034.17
561.12	55899.01
561.29	55061.10
561.45	55040.04
561.61	55877.95
561.78	55973.91
561.94	55997.32
562.11	55749.22
562.27	55585.38
562.44	55859.23
562.60	56193.92
562.77	56495.85
562.93	56367.12
563.10	56280.52
563.26	55604.11
563.42	55798.37
563.59	55412.18
563.75	55721.13
563.92	55442.61
564.08	55592.40
564.24	56023.06
564.41	55777.31
564.57	55739.86
564.74	55552.62
564.90	55388.78
565.07	55498.78
565.23	54897.27
565.39	54354.26
565.56	53986.80
565.72	54028.93
565.88	54368.30
566.05	54410.43
566.21	54593.00
566.38	54745.13
566.54	54986.21
566.70	54967.48
566.87	55655.60
567.03	55468.36
567.19	55681.34
567.36	55498.78
567.52	55173.45
567.68	55100.89
567.85	54347.24
568.01	53738.70
568.17	53776.15
568.34	53890.83
568.50	53483.58
568.66	53841.68
568.83	53984.46
568.99	54391.71
569.15	54377.67
569.32	54281.70
569.48	54073.40
569.64	53600.61
569.81	53488.26
569.97	53453.15
570.13	53595.93
570.30	52802.49
570.46	52741.63
570.62	52278.21
570.78	51880.31
570.95	52065.22
571.11	52851.64
571.27	52949.94
571.43	53200.38
571.60	53485.92
571.76	53879.13
571.92	53958.71
572.09	54075.74
572.25	54066.38
572.41	53944.67
572.57	54026.59
572.74	53925.94
572.90	53780.83
573.06	53584.22
573.22	53729.34
573.38	53666.14
573.55	53525.71
573.71	53656.78
573.87	53612.31
574.03	53514.01
574.20	53518.69
574.36	53408.68
574.52	52816.53
574.68	52561.41
574.84	52449.06
575.01	51737.54
575.17	51686.05
575.33	52093.30
575.49	52348.42
575.65	52514.60
575.82	52418.64
575.98	52191.61
576.14	52147.14
576.30	52561.41
576.46	52685.46
576.62	52809.51
576.79	52589.50
576.95	51690.73
577.11	51894.36
577.27	52177.56
577.43	52198.63
577.59	51995.00
577.75	51793.71
577.92	50738.13
578.08	50532.17
578.24	50672.60
578.40	51021.34
578.56	51072.83
578.72	51079.85
578.88	51594.77
579.04	51901.38
579.21	51767.97
579.37	51924.78
579.53	51896.70
579.69	51753.93
579.85	51739.88
580.01	51980.96
580.17	51477.74
580.33	51168.79
580.49	51180.49
580.65	51466.04
580.82	51840.53
580.98	51517.53
581.14	51597.11
581.30	51709.46
581.46	51679.03
581.62	51704.77
581.78	51786.69
581.94	51917.76
582.10	51760.95
582.26	52060.54
582.42	51615.83
582.58	51955.21
582.74	51550.30
582.90	51866.27
583.06	51672.01
583.22	51779.67
583.38	51538.60
583.54	51774.99
583.70	51016.66
583.86	51819.46
584.02	51538.60
584.18	51494.13
584.34	51206.24
584.50	51276.46
584.66	51152.41
584.82	50817.71
584.98	50817.71
585.14	50490.04
