SpectraSuite Data File
++++++++++++++++++++++++++++++++++++
Date: Mon Oct 07 14:53:25 GMT-05:00 2013
User: price-jones
Dark Spectrum Present: No
Reference Spectrum Present: No
Number of Sampled Component Spectra: 1
Spectrometers: USB2+H05261
Integration Time (usec): 100000 (USB2+H05261)
Spectra Averaged: 1 (USB2+H05261)
Boxcar Smoothing: 0 (USB2+H05261)
Correct for Electrical Dark: No (USB2+H05261)
Strobe/Lamp Enabled: No (USB2+H05261)
Correct for Detector Non-linearity: No (USB2+H05261)
Correct for Stray Light: No (USB2+H05261)
Number of Pixels in Processed Spectrum: 2048
>>>>>Begin Processed Spectral Data<<<<<
365.73	0.00
365.92	0.00
366.12	0.00
366.32	0.00
366.52	0.00
366.72	0.00
366.91	0.00
367.11	0.00
367.31	0.00
367.51	0.00
367.70	0.00
367.90	0.00
368.10	0.00
368.30	0.00
368.49	0.00
368.69	0.00
368.89	0.00
369.09	0.00
369.28	0.00
369.48	0.00
369.68	0.00
369.87	0.00
370.07	0.00
370.27	0.00
370.47	531.30
370.66	2895.24
370.86	3339.94
371.06	3700.39
371.25	3700.39
371.45	3337.60
371.65	2979.50
371.84	2834.39
372.04	2944.39
372.24	3335.26
372.44	3524.85
372.63	3475.70
372.83	3162.06
373.03	2813.32
373.22	2600.34
373.42	2708.00
373.62	3110.57
373.81	3527.19
374.01	3389.10
374.21	3131.64
374.40	2806.30
374.60	2960.78
374.79	3353.99
374.99	3927.42
375.19	4306.59
375.38	4301.90
375.58	3943.80
375.78	3920.40
375.97	3936.78
376.17	4140.41
376.37	4105.30
376.56	4451.70
376.76	4655.33
376.95	4765.33
377.15	5266.21
377.35	5343.44
377.54	5589.20
377.74	5776.44
377.93	5666.44
378.13	5444.09
378.33	5238.12
378.52	4884.70
378.72	4762.99
378.91	4505.53
379.11	4255.09
379.31	4332.33
379.50	4109.98
379.70	4559.36
379.89	5170.24
380.09	5284.93
380.28	5680.48
380.48	5607.92
380.68	5369.19
380.87	5322.38
381.07	4889.38
381.26	4414.25
381.46	4283.18
381.65	4227.01
381.85	4032.74
382.04	3812.73
382.24	3571.66
382.43	3321.22
382.63	3382.07
382.83	3438.25
383.02	3358.67
383.22	3349.31
383.41	3304.84
383.61	3627.83
383.80	4128.70
384.00	4645.96
384.19	5123.43
384.39	5572.82
384.58	5427.70
384.78	5408.98
384.97	5350.46
385.17	5022.79
385.36	4884.70
385.56	4657.67
385.75	4774.69
385.95	5287.27
386.14	5652.39
386.34	5682.82
386.53	5401.96
386.72	4936.19
386.92	5013.43
387.11	5401.96
387.31	5542.39
387.50	5626.65
387.70	5399.62
387.89	5254.50
388.09	5385.57
388.28	5301.31
388.48	5371.53
388.67	5909.85
388.86	6352.21
389.06	6890.54
389.25	7335.24
389.45	7323.54
389.64	7045.01
389.84	7318.86
390.03	7138.63
390.22	7250.98
390.42	7456.95
390.61	8044.42
390.81	8327.63
391.00	8461.04
391.19	8470.40
391.39	8105.28
391.58	7777.60
391.78	7194.81
391.97	6988.84
392.16	6609.67
392.36	6179.01
392.55	4877.68
392.75	3779.97
392.94	3038.02
393.13	3176.11
393.33	3543.57
393.52	4723.20
393.71	5685.16
393.91	6420.09
394.10	6951.39
394.29	7733.13
394.49	8365.07
394.68	9083.62
394.88	8826.16
395.07	9207.67
395.26	9130.43
395.46	8774.67
395.65	8374.44
395.84	7445.24
396.04	6359.24
396.23	5027.47
396.42	4198.92
396.62	4194.24
396.81	4660.01
397.00	6066.67
397.19	7578.65
397.39	9160.86
397.58	10115.80
397.77	10925.62
397.97	10979.45
398.16	11194.78
398.35	11571.61
398.55	11885.24
398.74	12456.33
398.93	13046.15
399.12	12341.64
399.32	12020.99
399.51	12191.85
399.70	13294.24
399.90	12957.21
400.09	13352.76
400.28	13062.53
400.47	12999.34
400.67	13582.13
400.86	13928.53
401.05	14211.73
401.24	13980.02
401.44	14202.37
401.63	14434.08
401.82	14593.24
402.01	14504.30
402.21	14618.99
402.40	14534.73
402.59	14356.85
402.78	13673.41
402.97	13301.26
403.17	13497.87
403.36	14544.09
403.55	15002.83
403.74	15463.92
403.93	14616.65
404.13	13420.63
404.32	13312.97
404.51	13872.36
404.70	14951.34
404.89	14757.08
405.09	14738.35
405.28	14661.12
405.47	14242.16
405.66	14178.97
405.85	13591.49
406.05	13509.57
406.24	13465.10
406.43	14202.37
406.62	14895.17
406.81	14740.69
407.00	14204.71
407.20	13907.46
407.39	14010.45
407.58	14728.99
407.77	15257.95
407.96	15779.89
408.15	15836.06
408.34	16116.93
408.54	16758.24
408.73	16933.78
408.92	16840.15
409.11	16421.20
409.30	15452.22
409.49	14373.23
409.68	13802.14
409.87	13043.81
410.07	14003.43
410.26	15021.56
410.45	15910.96
410.64	16285.45
410.83	16688.02
411.02	17228.68
411.21	17764.67
411.40	17769.35
411.59	17879.35
411.78	17624.23
411.98	17280.18
412.17	18183.62
412.36	17671.04
412.55	17638.28
412.74	16971.22
412.93	16788.66
413.12	16896.33
413.31	18377.89
413.50	18551.09
413.69	18799.18
413.88	18197.67
414.07	17701.47
414.26	17914.46
414.45	18319.37
414.64	18548.75
414.83	18869.40
415.02	18462.15
415.22	18349.80
415.41	18792.16
415.60	19365.59
415.79	19894.55
415.98	20692.68
416.17	20582.67
416.36	19962.43
416.55	19735.40
416.74	19122.18
416.93	18520.66
417.12	18305.33
417.31	18654.07
417.50	19164.31
417.69	19819.66
417.88	19620.71
418.07	19400.70
418.26	19103.45
418.45	19384.32
418.64	19632.41
418.83	21034.39
419.02	20332.23
419.21	20163.72
419.39	19264.95
419.58	18530.02
419.77	18647.05
419.96	19604.33
420.15	20332.23
420.34	21003.97
420.53	21696.77
420.72	22242.11
420.91	21900.39
421.10	21708.47
421.29	21397.18
421.48	20608.42
421.67	21804.43
421.86	21266.11
422.05	19798.59
422.24	17554.02
422.43	17158.47
422.61	19058.98
422.80	20798.00
422.99	21338.66
423.18	20170.74
423.37	19805.61
423.56	19854.76
423.75	19997.54
423.94	20383.73
424.13	19365.59
424.32	19679.22
424.50	20060.73
424.69	19290.70
424.88	19527.09
425.07	19557.52
425.26	19281.33
425.45	19255.59
425.64	18979.40
425.83	18958.34
426.01	20084.14
426.20	20638.84
426.39	20858.85
426.58	19281.33
426.77	17411.25
426.96	17034.42
427.15	17451.03
427.33	19028.56
427.52	19735.40
427.71	19875.83
427.90	19679.22
428.09	19562.20
428.28	19019.19
428.46	18054.89
428.65	18101.70
428.84	18721.95
429.03	19215.80
429.22	17717.86
429.40	17088.25
429.59	15353.91
429.78	13247.43
429.97	13586.81
430.16	13792.78
430.34	14148.54
430.53	13823.20
430.72	13930.87
430.91	15630.10
431.10	18258.52
431.28	21497.82
431.47	23417.06
431.66	23616.01
431.85	21755.28
432.03	19716.67
432.22	18693.86
432.41	19887.53
432.60	21748.26
432.79	22302.96
432.97	23178.33
433.16	22572.13
433.35	20470.33
433.54	18850.67
433.72	17717.86
433.91	18080.64
434.10	20430.54
434.28	21839.54
434.47	22923.21
434.66	22338.07
434.85	21940.18
435.03	21635.91
435.22	22370.84
435.41	23789.20
435.59	23630.05
435.78	24100.50
435.97	24760.53
436.16	25083.52
436.34	24327.53
436.53	23714.31
436.72	24105.18
436.90	22679.79
437.09	22635.32
437.28	21977.63
437.46	22782.77
437.65	22967.68
437.84	21315.26
438.02	19737.74
438.21	19501.34
438.40	21013.33
438.58	22621.28
438.77	23047.26
438.96	23154.92
439.14	23988.15
439.33	24114.54
439.52	25132.67
439.70	24945.43
439.89	23990.49
440.08	23433.44
440.26	23501.32
440.45	24004.53
440.63	25764.62
440.82	26586.15
441.01	26654.02
441.19	26080.59
441.38	26719.56
441.57	27522.36
441.75	28311.12
441.94	28334.53
442.12	27821.95
442.31	28374.31
442.50	28568.58
442.68	28137.92
442.87	28070.04
443.05	27447.46
443.24	27833.65
443.43	28081.75
443.61	28676.24
443.80	29017.96
443.98	27728.33
444.17	27835.99
444.35	29237.97
444.54	29694.38
444.73	29130.31
444.91	28091.11
445.10	26995.74
445.28	25984.63
445.47	25385.45
445.65	25837.17
445.84	26426.99
446.02	27433.42
446.21	27623.00
446.39	27655.77
446.58	27798.54
446.77	28498.36
446.95	29261.38
447.14	30209.29
447.32	30405.90
447.51	29399.47
447.69	28133.24
447.88	28240.90
448.06	28306.44
448.25	28971.15
448.43	29032.00
448.62	28568.58
448.80	28535.81
448.99	28790.93
449.17	29043.71
449.36	28886.89
449.54	30033.75
449.73	30817.83
449.91	31138.49
450.10	31929.59
450.28	32252.58
450.46	31777.45
450.65	32327.48
450.83	31681.49
451.02	31070.61
451.20	30913.80
451.39	30998.06
451.57	30916.14
451.76	30785.07
451.94	30235.04
452.13	29802.04
452.31	28676.24
452.49	27190.00
452.68	27768.12
452.86	27475.55
453.05	28016.21
453.23	29020.30
453.42	29303.51
453.60	30118.01
453.78	30543.99
453.97	29998.65
454.15	30546.33
454.34	29802.04
454.52	29823.11
454.70	29200.52
454.89	29118.60
455.07	29378.40
455.26	30181.21
455.44	31187.64
455.62	32002.14
455.81	32063.00
455.99	31859.37
456.17	30993.37
456.36	31070.61
456.54	32222.16
456.73	32498.34
456.91	32861.12
457.09	33062.41
457.28	33230.93
457.46	31864.05
457.64	31924.91
457.83	30679.74
458.01	30047.80
458.19	31424.03
458.38	31145.51
458.56	32498.34
458.74	32418.76
458.93	31938.95
459.11	31391.26
459.29	31274.24
459.48	31344.45
459.66	30986.35
459.84	31580.85
460.03	32397.70
460.21	32196.41
460.39	32924.32
460.57	33137.30
460.76	33158.37
460.94	33216.88
461.12	32395.35
461.31	32627.07
461.49	33118.58
461.67	32879.85
461.85	34038.41
462.04	33755.21
462.22	34258.42
462.40	33933.09
462.59	33390.08
462.77	33720.10
462.95	33989.26
463.13	33542.22
463.32	32929.00
463.50	32285.35
463.68	32842.40
463.86	33060.07
464.05	32477.27
464.23	31777.45
464.41	31676.81
464.59	31009.76
464.78	32809.63
464.96	32987.51
465.14	32252.58
465.32	33053.05
465.50	33757.55
465.69	34080.54
465.87	33474.34
466.05	32311.10
466.23	31126.78
466.41	30501.86
466.60	31728.30
466.78	31173.60
466.96	31889.80
467.14	32320.46
467.32	32875.16
467.51	32793.25
467.69	31468.50
467.87	31985.76
468.05	32458.55
468.23	32463.23
468.41	32680.90
468.60	32378.97
468.78	33095.18
468.96	32402.38
469.14	32996.87
469.32	33631.16
469.50	32063.00
469.69	32039.59
469.87	31555.10
470.05	31414.67
470.23	31704.90
470.41	31690.85
470.59	32432.80
470.77	31934.27
470.95	32713.67
471.14	33359.66
471.32	33429.87
471.50	35613.59
471.68	35548.06
471.86	35618.27
472.04	35512.95
472.22	35812.54
472.40	34366.09
472.58	33638.18
472.77	33757.55
472.95	33883.94
473.13	34941.86
473.31	34047.77
473.49	34518.22
473.67	34403.53
473.85	35351.45
474.03	36177.66
474.21	36137.87
474.39	36233.83
474.57	36978.12
474.75	36907.91
474.93	36397.67
475.12	35491.88
475.30	35243.79
475.48	35526.99
475.66	36533.42
475.84	36084.04
476.02	35344.43
476.20	35108.04
476.38	35475.50
476.56	36692.58
476.74	37495.38
476.92	37277.71
477.10	37951.79
477.28	38906.73
477.46	38808.42
477.64	39445.05
477.82	39313.98
478.00	39688.46
478.18	38728.84
478.36	38988.64
478.54	39054.18
478.72	38902.04
478.90	40322.75
479.08	41324.50
479.26	42134.32
479.44	41408.76
479.62	41186.41
479.80	41500.04
479.98	41378.33
480.16	41867.50
480.34	41450.89
480.52	41869.84
480.70	42251.35
480.88	42387.10
481.06	42892.66
481.24	43543.33
481.41	43821.85
481.59	44769.77
481.77	44376.56
481.95	43625.25
482.13	43349.06
482.31	43643.97
482.49	44751.04
482.67	43943.56
482.85	44500.61
483.03	45443.84
483.21	45705.98
483.39	45427.46
483.57	44790.83
483.74	44332.09
483.92	44687.85
484.10	44868.07
484.28	46007.91
484.46	46384.74
484.64	46377.72
484.82	45509.38
485.00	45280.00
485.18	44531.03
485.35	43536.30
485.53	39646.33
485.71	36804.92
485.89	35772.75
486.07	37989.24
486.25	41092.79
486.43	43477.79
486.61	44311.02
486.78	44243.15
486.96	44498.26
487.14	46115.58
487.32	46986.25
487.50	47938.85
487.68	48566.12
487.85	49694.25
488.03	49357.22
488.21	48811.87
488.39	48563.78
488.57	47573.73
488.75	46897.31
488.92	48383.55
489.10	50515.78
489.28	51962.23
489.46	52795.46
489.64	52631.63
489.81	52460.77
489.99	52303.95
490.17	52465.45
490.35	52877.38
490.53	51943.51
490.70	51913.08
490.88	51302.20
491.06	52762.70
491.24	52905.47
491.41	51489.45
491.59	49961.08
491.77	48697.19
491.95	50356.63
492.13	51489.45
492.30	52786.10
492.48	53865.09
492.66	54281.70
492.84	54103.82
493.01	53815.94
493.19	53233.14
493.37	53198.04
493.54	52776.74
493.72	53294.00
493.90	54548.53
494.08	55096.21
494.25	55482.40
494.43	55859.23
494.61	55927.10
494.79	55952.85
494.96	55859.23
495.14	55348.99
495.32	54576.61
495.49	53492.94
495.67	54700.66
495.85	56186.90
496.02	56594.15
496.20	56514.58
496.38	56058.17
496.55	55573.68
496.73	56420.95
496.91	56306.27
497.09	56996.73
497.26	57134.82
497.44	56629.26
497.62	56161.15
497.79	55515.17
497.97	54000.84
498.14	53991.48
498.32	55533.89
498.50	56315.63
498.67	56802.46
498.85	56582.45
499.03	56795.44
499.20	57104.39
499.38	57001.41
499.56	56910.13
499.73	56229.03
499.91	55936.46
500.08	55552.62
500.26	54871.52
500.44	55365.37
500.61	56030.08
500.79	55800.71
500.97	55419.20
501.14	55145.36
501.32	55187.49
501.49	55400.48
501.67	55337.29
501.84	55863.91
502.02	56163.50
502.20	56570.75
502.37	56655.01
502.55	56626.92
502.72	57268.23
502.90	57612.29
503.07	57319.72
503.25	57057.58
503.43	56231.37
503.60	55515.17
503.78	55021.31
503.95	55358.35
504.13	56685.43
504.30	57396.96
504.48	57488.24
504.65	56931.19
504.83	56935.87
505.01	57783.15
505.18	57858.04
505.36	58752.13
505.53	58354.24
505.71	58663.19
505.88	58915.96
506.06	58368.28
506.23	57766.76
506.41	57537.39
506.58	57677.82
506.76	57645.05
506.93	57565.48
507.11	57511.64
507.28	57528.03
507.46	57055.24
507.63	56416.27
507.81	56268.82
507.98	56584.79
508.16	57155.88
508.33	58075.71
508.50	58045.29
508.68	58372.96
508.85	58922.99
509.03	58944.05
509.20	58674.89
509.38	58054.65
509.55	57132.48
509.73	57366.53
509.90	57902.51
510.08	58255.93
510.25	57853.36
510.42	57844.00
510.60	58038.26
510.77	58202.10
510.95	58541.48
511.12	58710.00
511.30	59100.87
511.47	59444.93
511.64	59133.63
511.82	58906.60
511.99	58223.17
512.17	57836.98
512.34	57621.65
512.51	57640.37
512.69	57581.86
512.86	57844.00
513.04	58197.42
513.21	58417.43
513.38	58085.07
513.56	57462.49
513.73	56956.94
513.90	57158.22
514.08	56982.68
514.25	57474.20
514.43	57598.24
514.60	57623.99
514.77	57944.64
514.95	57801.87
515.12	58110.82
515.29	58122.52
515.47	58583.61
515.64	58724.04
515.81	58293.38
515.99	57733.99
516.16	56477.13
516.33	54192.76
516.51	52320.34
516.68	51700.09
516.85	51409.87
517.03	51796.06
517.20	54546.18
517.37	56996.73
517.54	58080.39
517.72	57521.01
517.89	55056.42
518.06	52711.20
518.24	52975.69
518.41	55147.70
518.58	56704.16
518.75	56870.34
518.93	57076.30
519.10	56704.16
519.27	57202.69
519.45	57331.42
519.62	58106.14
519.79	58614.04
519.96	58370.62
520.14	57832.30
520.31	56985.02
520.48	57174.61
520.65	57455.47
520.83	58358.92
521.00	58717.02
521.17	58361.26
521.34	58183.38
521.52	58244.23
521.69	58742.77
521.86	59241.30
522.03	58843.41
522.20	57663.78
522.38	56722.88
522.55	56994.39
522.72	57347.81
522.89	57392.28
523.07	57684.84
523.24	58103.80
523.41	58880.86
523.58	59089.16
523.75	59463.65
523.92	59395.77
524.10	59227.26
524.27	59267.05
524.44	59016.61
524.61	59061.08
524.78	58644.46
524.96	58714.68
525.13	58756.81
525.30	59035.33
525.47	59117.25
525.64	59220.23
525.81	58667.87
525.98	57406.32
526.16	55817.10
526.33	55105.57
526.50	54803.64
526.67	54181.06
526.84	54960.46
527.01	56200.94
527.18	56893.74
527.36	57656.76
527.53	58560.20
527.70	58885.54
527.87	58239.55
528.04	57844.00
528.21	58372.96
528.38	58677.23
528.55	59407.48
528.72	59730.47
528.89	59992.61
529.07	59625.15
529.24	58920.65
529.41	58560.20
529.58	57652.08
529.75	57865.06
529.92	58426.79
530.09	58731.06
530.26	59283.43
530.43	59725.79
530.60	59461.31
530.77	59718.77
530.94	59877.93
531.11	59482.37
531.28	58880.86
531.46	58791.92
531.63	58876.18
531.80	58997.88
531.97	58480.63
532.14	57925.92
532.31	56853.95
532.48	55955.19
532.65	56104.98
532.82	57148.86
532.99	57979.75
533.16	58370.62
533.33	58908.94
533.50	58763.83
533.67	58017.20
533.84	57640.37
534.01	57801.87
534.18	58237.21
534.35	58429.13
534.52	58115.50
534.69	58637.44
534.86	58922.99
535.03	59037.67
535.20	59414.50
535.37	59604.08
535.54	59854.52
535.71	59585.36
535.88	58988.52
536.05	58438.50
536.22	58082.73
536.38	57771.44
536.55	57422.70
536.72	56889.06
536.89	56776.72
537.06	57799.53
537.23	58445.52
537.40	58705.32
537.57	58679.57
537.74	58375.30
537.91	58628.08
538.08	58363.60
538.25	58436.16
538.42	58553.18
538.59	58515.73
538.75	57696.55
538.92	57546.75
539.09	57464.83
539.26	57441.43
539.43	56982.68
539.60	57050.56
539.77	57364.19
539.94	57340.78
540.11	56605.86
540.28	55969.23
540.44	56097.96
540.61	56226.69
540.78	56570.75
540.95	57041.20
541.12	57579.52
541.29	57439.09
541.46	57614.63
541.62	58094.44
541.79	57773.78
541.96	57172.27
542.13	57106.73
542.30	57471.85
542.47	57471.85
542.63	57301.00
542.80	57324.40
542.97	57375.89
543.14	57338.44
543.31	57186.31
543.48	57883.79
543.64	58733.40
543.81	58784.90
543.98	58506.37
544.15	57890.81
544.32	57268.23
544.48	57336.10
544.65	57935.28
544.82	58379.98
544.99	57811.23
545.16	57748.04
545.32	57401.64
545.49	58216.14
545.66	58464.24
545.83	57909.53
546.00	57783.15
546.16	57602.92
546.33	57544.41
546.50	57340.78
546.67	58026.56
546.83	57535.05
547.00	57427.38
547.17	56900.76
547.34	56268.82
547.50	56222.01
547.67	56512.23
547.84	56921.83
548.00	57137.16
548.17	57474.20
548.34	57602.92
548.51	57450.79
548.67	57453.13
548.84	57518.67
549.01	57492.92
549.18	57382.91
549.34	57216.74
549.51	57190.99
549.68	57258.87
549.84	56931.19
550.01	57078.64
550.18	56638.62
550.34	56914.81
550.51	57050.56
550.68	57006.09
550.84	56568.41
551.01	56582.45
551.18	56652.67
551.34	56823.53
551.51	57230.78
551.68	57474.20
551.84	57471.85
552.01	57387.60
552.18	57020.13
552.34	56299.25
552.51	55973.91
552.68	55854.54
552.84	56427.98
553.01	56484.15
553.18	56729.90
553.34	56935.87
553.51	56736.93
553.67	57099.71
553.84	57209.71
554.01	57272.91
554.17	56872.68
554.34	56795.44
554.51	57153.54
554.67	57293.97
554.84	57326.74
555.00	56750.97
555.17	56488.83
555.33	56523.94
555.50	56765.01
555.67	56413.93
555.83	56566.07
556.00	56205.62
556.16	55950.51
556.33	55604.11
556.50	55711.77
556.66	55772.63
556.83	55627.51
556.99	55620.49
557.16	55468.36
557.32	55987.95
557.49	56196.26
557.65	55957.53
557.82	56009.02
557.98	55917.74
558.15	55519.85
558.32	54546.18
558.48	53738.70
558.65	54089.78
558.81	54401.07
558.98	54712.36
559.14	55033.02
559.31	55136.00
559.47	55075.15
559.64	54679.60
559.80	54131.91
559.97	54094.46
560.13	54738.11
560.30	55880.29
560.46	56505.21
560.63	56362.44
560.79	56032.42
560.96	55985.61
561.12	54918.33
561.29	54071.06
561.45	54082.76
561.61	54703.00
561.78	55281.11
561.94	54845.77
562.11	54731.09
562.27	54906.63
562.44	55075.15
562.60	55531.55
562.77	55494.10
562.93	55590.06
563.10	55594.74
563.26	54946.42
563.42	54946.42
563.59	54375.33
563.75	54871.52
563.92	54553.21
564.08	54541.50
564.24	54843.43
564.41	55091.53
564.57	54808.32
564.74	54506.40
564.90	54805.98
565.07	54504.06
565.23	54068.72
565.39	53469.54
565.56	53268.25
565.72	52917.17
565.88	53427.41
566.05	53530.39
566.21	53858.07
566.38	53989.14
566.54	53951.69
566.70	54342.56
566.87	54738.11
567.03	54548.53
567.19	54670.23
567.36	54482.99
567.52	54389.37
567.68	53963.39
567.85	53179.31
568.01	53118.46
568.17	52893.77
568.34	52643.33
568.50	52629.29
568.66	52760.36
568.83	53174.63
568.99	52905.47
569.15	53525.71
569.32	53202.72
569.48	53244.85
569.64	53085.69
569.81	52495.88
569.97	52699.50
570.13	52285.23
570.30	52088.62
570.46	51400.50
570.62	50906.65
570.78	50887.93
570.95	51100.92
571.11	51807.76
571.27	51915.42
571.43	52275.87
571.60	52828.23
571.76	52736.95
571.92	53183.99
572.09	53125.48
572.25	53228.46
572.41	53169.95
572.57	52952.28
572.74	53127.82
572.90	52671.42
573.06	52772.06
573.22	52711.20
573.38	52863.34
573.55	52734.61
573.71	52985.05
573.87	52617.58
574.03	52610.56
574.20	52428.00
574.36	51849.89
574.52	51995.00
574.68	51789.03
574.84	51154.75
575.01	50806.01
575.17	51044.74
575.33	50948.78
575.49	51545.62
575.65	51370.08
575.82	51526.89
575.98	51313.90
576.14	51423.91
576.30	51664.99
576.46	51700.09
576.62	51604.13
576.79	51531.57
576.95	51112.62
577.11	51456.68
577.27	51505.83
577.43	51196.88
577.59	51161.77
577.75	50504.08
577.92	49743.41
578.08	49528.08
578.24	49499.99
578.40	49949.37
578.56	50499.40
578.72	50321.52
578.88	50731.11
579.04	51044.74
579.21	50901.97
579.37	50876.22
579.53	51255.39
579.69	51035.38
579.85	51168.79
580.01	51105.60
580.17	50602.38
580.33	50408.12
580.49	50213.85
580.65	50731.11
580.82	50667.92
580.98	51042.40
581.14	50717.07
581.30	50527.48
581.46	50527.48
581.62	51466.04
581.78	50845.80
581.94	51166.45
582.10	51320.93
582.26	51180.49
582.42	51084.53
582.58	51044.74
582.74	50948.78
582.90	51075.17
583.06	51112.62
583.22	50850.48
583.38	50836.44
583.54	50827.07
583.70	50820.05
583.86	50766.22
584.02	50461.95
584.18	50857.50
584.34	50660.90
584.50	50539.19
584.66	50499.40
584.82	49762.13
584.98	49668.51
585.14	49364.24
585.30	48456.11
