SpectraSuite Data File
++++++++++++++++++++++++++++++++++++
Date: Mon Oct 07 14:52:53 GMT-05:00 2013
User: price-jones
Dark Spectrum Present: No
Reference Spectrum Present: No
Number of Sampled Component Spectra: 1
Spectrometers: USB2+H05261
Integration Time (usec): 100000 (USB2+H05261)
Spectra Averaged: 1 (USB2+H05261)
Boxcar Smoothing: 0 (USB2+H05261)
Correct for Electrical Dark: No (USB2+H05261)
Strobe/Lamp Enabled: No (USB2+H05261)
Correct for Detector Non-linearity: No (USB2+H05261)
Correct for Stray Light: No (USB2+H05261)
Number of Pixels in Processed Spectrum: 2048
>>>>>Begin Processed Spectral Data<<<<<
365.73	0.00
365.92	0.00
366.12	0.00
366.32	0.00
366.52	0.00
366.72	0.00
366.91	0.00
367.11	0.00
367.31	0.00
367.51	0.00
367.70	0.00
367.90	0.00
368.10	0.00
368.30	0.00
368.49	0.00
368.69	0.00
368.89	0.00
369.09	0.00
369.28	0.00
369.48	0.00
369.68	0.00
369.87	0.00
370.07	0.00
370.27	0.00
370.47	1071.97
370.66	4713.84
370.86	5486.22
371.06	5827.93
371.25	5729.63
371.45	5186.63
371.65	4858.95
371.84	4428.29
372.04	4760.65
372.24	5259.18
372.44	5350.46
372.63	5217.05
372.83	4697.46
373.03	4182.54
373.22	4114.66
373.42	4297.22
373.62	4959.60
373.81	5195.99
374.01	5088.32
374.21	4564.04
374.40	4212.96
374.60	4524.26
374.79	5315.36
374.99	6125.18
375.19	6499.67
375.38	6373.28
375.58	6076.03
375.78	5916.87
375.97	5877.09
376.17	6080.71
376.37	6190.72
376.56	6396.68
376.76	6672.87
376.95	7187.79
377.15	7602.06
377.35	8114.64
377.54	8313.58
377.74	8659.98
377.93	8463.38
378.13	8248.05
378.33	7552.91
378.52	7045.01
378.72	6665.85
378.91	6719.68
379.11	6427.11
379.31	6387.32
379.50	6469.24
379.70	6864.79
379.89	7723.77
380.09	7885.26
380.28	8234.00
380.48	8131.02
380.68	8107.62
380.87	7758.88
381.07	7269.70
381.26	6642.44
381.46	6253.91
381.65	6017.52
381.85	5900.49
382.04	5518.98
382.24	5212.37
382.43	5008.75
382.63	4826.18
382.83	5104.71
383.02	5036.83
383.22	5034.49
383.41	5060.24
383.61	5474.51
383.80	6207.10
384.00	6906.92
384.19	7623.12
384.39	8241.03
384.58	8030.38
384.78	7857.18
384.97	7681.64
385.17	7208.85
385.36	6918.62
385.56	6813.30
385.75	7176.08
385.95	7655.89
386.14	8299.54
386.34	8049.10
386.53	7768.24
386.72	7421.84
386.92	7503.76
387.11	7882.92
387.31	8021.02
387.50	7934.42
387.70	7461.63
387.89	7571.63
388.09	7754.19
388.28	7983.57
388.48	8025.70
388.67	8542.96
388.86	9465.13
389.06	9774.08
389.25	10593.26
389.45	10541.77
389.64	10485.60
389.84	10518.37
390.03	10115.80
390.22	10094.73
390.42	10721.99
390.61	11318.83
390.81	11943.75
391.00	12109.93
391.19	11976.52
391.39	11770.55
391.58	10761.78
391.78	10387.30
391.97	10052.60
392.16	9219.37
392.36	8203.58
392.55	6644.78
392.75	5263.86
392.94	4374.46
393.13	4578.09
393.33	5338.76
393.52	6895.22
393.71	8304.22
393.91	9207.67
394.10	10113.45
394.29	11293.08
394.49	11950.78
394.68	12613.15
394.88	12737.20
395.07	13226.37
395.26	13048.49
395.46	12498.46
395.65	11609.06
395.84	10263.25
396.04	8552.32
396.23	6895.22
396.42	5956.66
396.62	5692.18
396.81	6881.18
397.00	8842.54
397.19	11028.60
397.39	13006.36
397.58	14450.47
397.77	15021.56
397.97	15702.65
398.16	16046.71
398.35	16582.70
398.55	16886.97
398.74	17319.96
398.93	17827.86
399.12	17507.21
399.32	16769.94
399.51	17556.36
399.70	18658.75
399.90	18310.01
400.09	18167.24
400.28	18490.23
400.47	18530.02
400.67	19335.17
400.86	19566.88
401.05	19484.96
401.24	19782.21
401.44	20273.72
401.63	20292.44
401.82	20009.24
402.01	20278.40
402.21	20489.05
402.40	20561.61
402.59	20042.01
402.78	18984.09
402.97	18441.08
403.17	19185.37
403.36	20432.88
403.55	20968.86
403.74	21811.45
403.93	20098.18
404.13	18972.38
404.32	18707.90
404.51	19545.81
404.70	20748.85
404.89	20608.42
405.09	20666.93
405.28	19854.76
405.47	20065.41
405.66	19971.79
405.85	19372.61
406.05	18682.16
406.24	19396.02
406.43	19913.28
406.62	20386.07
406.81	20788.64
407.00	19896.89
407.20	19316.44
407.39	19648.80
407.58	20688.00
407.77	21434.63
407.96	22097.00
408.15	22586.17
408.34	22740.64
408.54	23358.55
408.73	23199.39
408.92	23477.91
409.11	22485.53
409.30	21184.19
409.49	19845.40
409.68	18857.70
409.87	18197.67
410.07	19400.70
410.26	21010.99
410.45	22188.28
410.64	22843.63
410.83	23513.02
411.02	24051.34
411.21	24903.30
411.40	24601.37
411.59	24699.67
411.78	24620.10
411.98	24137.94
412.17	24903.30
412.36	24100.50
412.55	24102.84
412.74	23573.88
412.93	23267.27
413.12	23674.52
413.31	25584.40
413.50	26024.42
413.69	25979.95
413.88	25200.55
414.07	24575.62
414.26	25092.88
414.45	25867.60
414.64	25591.42
414.83	26052.50
415.02	25188.85
415.22	25731.85
415.41	25984.63
415.60	26911.48
415.79	28006.85
415.98	28783.91
416.17	28496.02
416.36	27480.23
416.55	27140.85
416.74	26017.40
416.93	25277.79
417.12	25591.42
417.31	26080.59
417.50	25914.41
417.69	27150.21
417.88	27178.30
418.07	26958.29
418.26	26384.86
418.45	26810.84
418.64	28002.17
418.83	28540.49
419.02	28006.85
419.21	27903.87
419.39	26607.21
419.58	25553.97
419.77	25710.78
419.96	26874.03
420.15	28271.33
420.34	29132.65
420.53	30265.47
420.72	30742.94
420.91	29991.62
421.10	29921.41
421.29	30171.85
421.48	28601.35
421.67	30005.67
421.86	29247.33
422.05	27140.85
422.24	24189.44
422.43	24812.02
422.61	27562.15
422.80	28781.57
422.99	28978.17
423.18	27749.39
423.37	27494.27
423.56	27606.62
423.75	28177.71
423.94	28533.47
424.13	26960.63
424.32	27433.42
424.50	27583.21
424.69	26972.33
424.88	27260.22
425.07	26977.01
425.26	26909.14
425.45	26419.97
425.64	26162.51
425.83	26473.80
426.01	28018.55
426.20	28311.12
426.39	28371.97
426.58	25991.65
426.77	24414.13
426.96	23199.39
427.15	24472.64
427.33	26185.91
427.52	26803.82
427.71	27505.98
427.90	27063.61
428.09	26834.24
428.28	26464.44
428.46	25385.45
428.65	25467.37
428.84	25947.18
429.03	25958.88
429.22	24657.54
429.40	23234.50
429.59	21341.00
429.78	18876.42
429.97	18939.62
430.16	18867.06
430.34	19323.46
430.53	19297.72
430.72	19667.52
430.91	22335.73
431.10	25818.45
431.28	30263.13
431.47	32238.54
431.66	32671.54
431.85	29443.94
432.03	27042.55
432.22	26511.25
432.41	27597.26
432.60	29783.32
432.79	31316.37
432.97	31957.67
433.16	31541.06
433.35	27992.81
433.54	25855.90
433.72	24507.75
433.91	25268.42
434.10	28156.64
434.28	30050.14
434.47	30916.14
434.66	30614.21
434.85	30342.70
435.03	29855.87
435.22	30778.04
435.41	32655.15
435.59	32643.45
435.78	33130.28
435.97	33654.56
436.16	33689.67
436.34	33467.32
436.53	32257.26
436.72	32966.45
436.90	31232.11
437.09	31220.41
437.28	30857.62
437.46	32128.53
437.65	31868.73
437.84	28996.90
438.02	27012.12
438.21	26859.99
438.40	28652.84
438.58	31264.88
438.77	31559.78
438.96	31936.61
439.14	33542.22
439.33	34459.71
439.52	34478.43
439.70	33933.09
439.89	33053.05
440.08	32428.12
440.26	32163.64
440.45	33280.08
440.63	35637.00
440.82	37235.58
441.01	36280.64
441.19	36517.04
441.38	37221.54
441.57	38239.67
441.75	38227.97
441.94	38932.47
442.12	38286.48
442.31	39409.94
442.50	39264.83
442.68	38824.81
442.87	37897.95
443.05	37619.43
443.24	38604.80
443.43	39229.72
443.61	39910.82
443.80	39941.24
443.98	37979.87
444.17	38080.52
444.35	40245.51
444.54	40374.24
444.73	40187.00
444.91	38808.42
445.10	37160.69
445.28	35754.02
445.47	34946.54
445.65	35824.24
445.84	36589.59
446.02	37544.53
446.21	38139.03
446.39	38136.69
446.58	39084.61
446.77	39775.06
446.95	39536.33
447.14	41280.03
447.32	41034.27
447.51	40254.87
447.69	39044.82
447.88	38646.93
448.06	39515.26
448.25	40016.14
448.43	39920.18
448.62	39349.09
448.80	38979.28
448.99	39665.06
449.17	39899.11
449.36	40304.02
449.54	41310.46
449.73	41696.64
449.91	42831.80
450.10	43969.30
450.28	43707.16
450.46	43817.17
450.65	43531.62
450.83	43594.82
451.02	42595.41
451.20	42588.39
451.39	42469.02
451.57	41888.57
451.76	41991.55
451.94	41975.17
452.13	40952.35
452.31	39262.49
452.49	37752.84
452.68	38071.15
452.86	38284.14
453.05	38955.88
453.23	40184.66
453.42	40608.29
453.60	41720.05
453.78	41982.19
453.97	41680.26
454.15	41797.29
454.34	40975.76
454.52	40781.49
454.70	39714.21
454.89	40582.55
455.07	40891.50
455.26	41523.44
455.44	42843.51
455.62	43470.77
455.81	43730.57
455.99	43358.42
456.17	42810.74
456.36	42646.90
456.54	44406.98
456.73	44044.20
456.91	44596.57
457.09	45095.10
457.28	45977.48
457.46	44304.00
457.64	43704.82
457.83	42476.04
458.01	41862.82
458.19	42923.08
458.38	43632.27
458.56	44388.26
458.74	44428.05
458.93	43421.62
459.11	43454.39
459.29	43026.07
459.48	43206.29
459.66	43037.77
459.84	43957.60
460.03	44032.50
460.21	43915.47
460.39	45230.85
460.57	44699.55
460.76	45762.15
460.94	45598.32
461.12	45076.38
461.31	45462.57
461.49	45130.21
461.67	45001.48
461.85	46309.84
462.04	45830.03
462.22	46628.15
462.40	46209.20
462.59	46274.73
462.77	46309.84
462.95	46183.45
463.13	45717.68
463.32	45441.50
463.50	45001.48
463.68	45603.00
463.86	45689.60
464.05	44612.95
464.23	43070.54
464.41	43335.02
464.59	43061.18
464.78	45303.41
464.96	44580.18
465.14	44301.66
465.32	45577.25
465.50	46560.28
465.69	46948.81
465.87	45771.52
466.05	44566.14
466.23	42698.39
466.41	41998.57
466.60	43419.28
466.78	43299.91
466.96	44446.77
467.14	44683.17
467.32	44980.42
467.51	45439.16
467.69	43129.05
467.87	43988.03
468.05	45029.57
468.23	44896.16
468.41	44737.00
468.60	45106.80
468.78	45085.74
468.96	44879.77
469.14	45570.23
469.32	45645.13
469.50	43959.94
469.69	43952.92
469.87	43412.26
470.05	43320.98
470.23	43372.47
470.41	43786.74
470.59	44589.55
470.77	44406.98
470.95	45390.01
471.14	45577.25
471.32	45879.18
471.50	47908.43
471.68	47777.36
471.86	48615.27
472.04	48701.87
472.22	48416.32
472.40	46520.49
472.58	46075.79
472.77	46171.75
472.95	46749.86
473.13	47690.76
473.31	46534.53
473.49	47051.79
473.67	47573.73
473.85	48151.84
474.03	49169.97
474.21	48994.43
474.39	48938.26
474.57	49382.96
474.75	49455.52
474.93	48966.35
475.12	48563.78
475.30	48556.75
475.48	48128.44
475.66	48886.77
475.84	48421.00
476.02	48369.51
476.20	47767.99
476.38	48514.62
476.56	49769.15
476.74	49970.44
476.92	50487.70
477.10	50843.46
477.28	51950.53
477.46	51866.27
477.64	51924.78
477.82	52348.42
478.00	52261.82
478.18	51959.89
478.36	51566.68
478.54	51985.64
478.72	52320.34
478.90	52659.71
479.08	53427.41
479.26	53827.64
479.44	53715.29
479.62	53411.02
479.80	53558.48
479.98	53680.19
480.16	54054.67
480.34	53832.32
480.52	54040.63
480.70	54335.54
480.88	54169.36
481.06	54653.85
481.24	55004.93
481.41	55870.93
481.59	56086.26
481.77	55700.07
481.95	55201.53
482.13	55091.53
482.31	55475.38
482.49	55313.88
482.67	55828.80
482.85	55856.88
483.03	56409.25
483.21	56568.41
483.39	56409.25
483.57	55992.64
483.74	55796.03
483.92	56013.70
484.10	56308.61
484.28	56821.19
484.46	57029.49
484.64	57450.79
484.82	56598.83
485.00	56371.80
485.18	55964.55
485.35	54880.88
485.53	52371.83
485.71	49453.18
485.89	49343.17
486.07	51166.45
486.25	53696.57
486.43	55456.65
486.61	55585.38
486.78	55625.17
486.96	55906.04
487.14	57090.35
487.32	57813.57
487.50	58592.97
487.68	58993.20
487.85	59260.02
488.03	59135.98
488.21	59021.29
488.39	58677.23
488.57	57984.43
488.75	57631.01
488.92	58609.35
489.10	60306.24
489.28	61249.48
489.46	61520.98
489.64	61462.47
489.81	61698.86
489.99	61434.38
490.17	61499.92
490.35	61691.84
490.53	61265.86
490.70	60879.67
490.88	60809.46
491.06	61422.68
491.24	61532.68
491.41	60673.71
491.59	59728.13
491.77	58990.86
491.95	60226.66
492.13	61188.63
492.30	61900.15
492.48	62513.37
492.66	62915.94
492.84	62878.49
493.01	62714.65
493.19	62127.18
493.37	62033.56
493.54	62010.15
493.72	62574.22
493.90	63309.15
494.08	63791.30
494.25	64097.91
494.43	64133.02
494.61	64439.63
494.79	64498.14
494.96	64331.96
495.14	63678.96
495.32	62948.71
495.49	62529.75
495.67	63566.61
495.85	64594.10
496.02	64804.75
496.20	64732.20
496.38	64376.43
496.55	64123.66
496.73	64828.16
496.91	64830.50
497.09	65361.80
497.26	65174.56
497.44	64942.84
497.62	64357.71
497.79	63573.63
497.97	62796.57
498.14	63213.19
498.32	63856.84
498.50	64453.67
498.67	65268.18
498.85	65064.55
499.03	65371.16
499.20	65535.00
499.38	65403.93
499.56	65139.45
499.73	64676.02
499.91	64448.99
500.08	64121.32
500.26	63536.18
500.44	63957.48
500.61	64280.47
500.79	64350.69
500.97	64034.72
501.14	63779.60
501.32	63835.77
501.49	63842.79
501.67	63927.05
501.84	64306.22
502.02	64502.82
502.20	64767.30
502.37	64987.31
502.55	65160.51
502.72	65535.00
502.90	65535.00
503.07	65535.00
503.25	65371.16
503.43	64439.63
503.60	64214.94
503.78	63388.73
503.95	63927.05
504.13	65132.43
504.30	65535.00
504.48	65436.70
504.65	65317.33
504.83	65502.23
505.01	65535.00
505.18	65535.00
505.36	65535.00
505.53	65535.00
505.71	65535.00
505.88	65535.00
506.06	65535.00
506.23	65535.00
506.41	65535.00
506.58	65535.00
506.76	65535.00
506.93	65535.00
507.11	65535.00
507.28	65535.00
507.46	65535.00
507.63	64963.91
507.81	64842.20
507.98	65144.13
508.16	65535.00
508.33	65535.00
508.50	65535.00
508.68	65535.00
508.85	65535.00
509.03	65535.00
509.20	65535.00
509.38	65535.00
509.55	65535.00
509.73	65535.00
509.90	65535.00
510.08	65535.00
510.25	65535.00
510.42	65535.00
510.60	65535.00
510.77	65535.00
510.95	65535.00
511.12	65535.00
511.30	65535.00
511.47	65535.00
511.64	65535.00
511.82	65535.00
511.99	65535.00
512.17	65535.00
512.34	65535.00
512.51	65535.00
512.69	65535.00
512.86	65535.00
513.04	65535.00
513.21	65535.00
513.38	65535.00
513.56	65535.00
513.73	65193.28
513.90	65319.67
514.08	65455.42
514.25	65535.00
514.43	65535.00
514.60	65535.00
514.77	65535.00
514.95	65535.00
515.12	65535.00
515.29	65535.00
515.47	65535.00
515.64	65535.00
515.81	65535.00
515.99	65535.00
516.16	64750.92
516.33	62775.51
516.51	61858.02
516.68	60938.19
516.85	60739.24
517.03	61528.00
517.20	63578.31
517.37	65535.00
517.54	65535.00
517.72	65535.00
517.89	63552.57
518.06	62073.35
518.24	62522.73
518.41	64072.17
518.58	64903.06
518.75	65284.56
518.93	65380.52
519.10	65233.07
519.27	65535.00
519.45	65535.00
519.62	65535.00
519.79	65535.00
519.96	65535.00
520.14	65535.00
520.31	65420.31
520.48	65535.00
520.65	65535.00
520.83	65535.00
521.00	65535.00
521.17	65535.00
521.34	65535.00
521.52	65535.00
521.69	65535.00
521.86	65535.00
522.03	65535.00
522.20	65535.00
522.38	65347.76
522.55	65415.63
522.72	65535.00
522.89	65535.00
523.07	65535.00
523.24	65535.00
523.41	65535.00
523.58	65535.00
523.75	65535.00
523.92	65535.00
524.10	65535.00
524.27	65535.00
524.44	65535.00
524.61	65535.00
524.78	65535.00
524.96	65535.00
525.13	65535.00
525.30	65535.00
525.47	65535.00
525.64	65535.00
525.81	65535.00
525.98	65535.00
526.16	64886.67
526.33	64023.01
526.50	63632.14
526.67	63618.10
526.84	63938.75
527.01	64514.53
527.18	65476.49
527.36	65535.00
527.53	65535.00
527.70	65535.00
527.87	65535.00
528.04	65535.00
528.21	65535.00
528.38	65535.00
528.55	65535.00
528.72	65535.00
528.89	65535.00
529.07	65535.00
529.24	65535.00
529.41	65535.00
529.58	65535.00
529.75	65535.00
529.92	65535.00
530.09	65535.00
530.26	65535.00
530.43	65535.00
530.60	65535.00
530.77	65535.00
530.94	65535.00
531.11	65535.00
531.28	65535.00
531.46	65535.00
531.63	65535.00
531.80	65535.00
531.97	65535.00
532.14	65535.00
532.31	65535.00
532.48	64863.27
532.65	64968.59
532.82	65535.00
532.99	65535.00
533.16	65535.00
533.33	65535.00
533.50	65535.00
533.67	65535.00
533.84	65535.00
534.01	65535.00
534.18	65535.00
534.35	65535.00
534.52	65535.00
534.69	65535.00
534.86	65535.00
535.03	65535.00
535.20	65535.00
535.37	65535.00
535.54	65535.00
535.71	65535.00
535.88	65535.00
536.05	65535.00
536.22	65535.00
536.38	65535.00
536.55	65535.00
536.72	65535.00
536.89	65535.00
537.06	65535.00
537.23	65535.00
537.40	65535.00
537.57	65535.00
537.74	65535.00
537.91	65535.00
538.08	65535.00
538.25	65535.00
538.42	65535.00
538.59	65535.00
538.75	65535.00
538.92	65535.00
539.09	65535.00
539.26	65535.00
539.43	65535.00
539.60	65535.00
539.77	65535.00
539.94	65535.00
540.11	65155.83
540.28	64893.69
540.44	65010.72
540.61	65027.10
540.78	65190.94
540.95	65535.00
541.12	65535.00
541.29	65535.00
541.46	65535.00
541.62	65535.00
541.79	65535.00
541.96	65535.00
542.13	65535.00
542.30	65535.00
542.47	65535.00
542.63	65535.00
542.80	65535.00
542.97	65535.00
543.14	65535.00
543.31	65535.00
543.48	65535.00
543.64	65535.00
543.81	65535.00
543.98	65535.00
544.15	65535.00
544.32	65535.00
544.48	65535.00
544.65	65535.00
544.82	65535.00
544.99	65535.00
545.16	65535.00
545.32	65535.00
545.49	65535.00
545.66	65535.00
545.83	65535.00
546.00	65535.00
546.16	65535.00
546.33	65535.00
546.50	65535.00
546.67	65535.00
546.83	65535.00
547.00	65535.00
547.17	65504.57
547.34	65139.45
547.50	65258.82
547.67	65535.00
547.84	65460.10
548.00	65535.00
548.17	65535.00
548.34	65535.00
548.51	65535.00
548.67	65535.00
548.84	65535.00
549.01	65535.00
549.18	65535.00
549.34	65535.00
549.51	65535.00
549.68	65535.00
549.84	65535.00
550.01	65535.00
550.18	65535.00
550.34	65535.00
550.51	65535.00
550.68	65535.00
550.84	65455.42
551.01	65511.59
551.18	65415.63
551.34	65535.00
551.51	65535.00
551.68	65535.00
551.84	65535.00
552.01	65535.00
552.18	65535.00
552.34	65270.52
552.51	65247.11
552.68	65003.70
552.84	65406.27
553.01	65535.00
553.18	65520.96
553.34	65443.72
553.51	65535.00
553.67	65535.00
553.84	65535.00
554.01	65535.00
554.17	65535.00
554.34	65535.00
554.51	65535.00
554.67	65535.00
554.84	65535.00
555.00	65535.00
555.17	65460.10
555.33	65530.32
555.50	65464.78
555.67	65509.25
555.83	65249.45
556.00	65130.09
556.16	65230.73
556.33	64809.43
556.50	64570.70
556.66	64580.06
556.83	64404.52
556.99	64617.51
557.16	64624.53
557.32	64856.24
557.49	65118.38
557.65	65092.64
557.82	64984.97
557.98	64926.46
558.15	64533.25
558.32	63833.43
558.48	63285.75
558.65	63543.20
558.81	63641.51
558.98	63765.56
559.14	63994.93
559.31	64013.65
559.47	64151.74
559.64	63875.56
559.80	63587.67
559.97	63842.79
560.13	64067.48
560.30	64645.60
560.46	65125.41
560.63	65410.95
560.79	65310.31
560.96	64940.50
561.12	64088.55
561.29	63271.70
561.45	63451.92
561.61	63962.16
561.78	64327.28
561.94	64102.59
562.11	64076.85
562.27	64156.42
562.44	64233.66
562.60	64479.42
562.77	64584.74
562.93	64629.21
563.10	64598.79
563.26	64037.06
563.42	63866.20
563.59	63833.43
563.75	63896.62
563.92	63910.67
564.08	63880.24
564.24	64079.19
564.41	64327.28
564.57	63891.94
564.74	64193.87
564.90	64118.98
565.07	63643.85
565.23	63526.82
565.39	62993.18
565.56	62695.93
565.72	62670.18
565.88	63103.18
566.05	63281.06
566.21	63210.85
566.38	63295.11
566.54	63348.94
566.70	63519.80
566.87	63828.75
567.03	63753.85
567.19	63924.71
567.36	63835.77
567.52	63613.42
567.68	63412.13
567.85	63061.05
568.01	62883.17
568.17	62351.87
568.34	62347.19
568.50	62185.69
568.66	62527.41
568.83	62719.34
568.99	62756.78
569.15	63140.63
569.32	62997.86
569.48	62780.19
569.64	62866.79
569.81	62489.96
569.97	62326.13
570.13	62274.63
570.30	61740.99
570.46	61460.13
570.62	60931.17
570.78	61265.86
570.95	61485.87
571.11	62031.22
571.27	62255.91
571.43	62291.02
571.60	62670.18
571.76	62944.03
571.92	63091.48
572.09	63056.37
572.25	62981.48
572.41	63016.58
572.57	62871.47
572.74	62887.85
572.90	62522.73
573.06	62616.35
573.22	62494.64
573.38	62518.05
573.55	62309.74
573.71	62658.48
573.87	62700.61
574.03	62443.15
574.20	62260.59
574.36	62021.86
574.52	62031.22
574.68	61689.50
574.84	61352.46
575.01	61158.20
575.17	61333.74
575.33	61572.47
575.49	61883.76
575.65	61813.55
575.82	61476.51
575.98	61504.60
576.14	61614.60
576.30	61715.25
576.46	61586.52
576.62	61738.65
576.79	61832.27
576.95	61656.73
577.11	61698.86
577.27	61539.71
577.43	61469.49
577.59	61382.89
577.75	60830.52
577.92	60598.81
578.08	60598.81
578.24	60488.80
578.40	60987.34
578.56	60900.74
578.72	60856.27
578.88	61223.73
579.04	61261.18
579.21	61331.40
579.37	61312.67
579.53	61457.79
579.69	61357.14
579.85	61361.82
580.01	61324.38
580.17	60999.04
580.33	60692.43
580.49	60739.24
580.65	61183.94
580.82	61275.22
580.98	61368.85
581.14	61368.85
581.30	61471.83
581.46	61401.61
581.62	61399.27
581.78	61132.45
581.94	61354.80
582.10	61572.47
582.26	61357.14
582.42	61399.27
582.58	61563.11
582.74	61366.51
582.90	61635.67
583.06	61483.53
583.22	61282.25
583.38	61289.27
583.54	61230.75
583.70	61214.37
583.86	61216.71
584.02	61052.87
584.18	61296.29
584.34	60999.04
584.50	60959.25
584.66	60996.70
584.82	60601.15
584.98	60444.33
