SpectraSuite Data File
++++++++++++++++++++++++++++++++++++
Date: Mon Oct 07 14:53:58 GMT-05:00 2013
User: price-jones
Dark Spectrum Present: No
Reference Spectrum Present: No
Number of Sampled Component Spectra: 1
Spectrometers: USB2+H05261
Integration Time (usec): 100000 (USB2+H05261)
Spectra Averaged: 1 (USB2+H05261)
Boxcar Smoothing: 0 (USB2+H05261)
Correct for Electrical Dark: No (USB2+H05261)
Strobe/Lamp Enabled: No (USB2+H05261)
Correct for Detector Non-linearity: No (USB2+H05261)
Correct for Stray Light: No (USB2+H05261)
Number of Pixels in Processed Spectrum: 2048
>>>>>Begin Processed Spectral Data<<<<<
365.73	0.00
365.92	0.00
366.12	0.00
366.32	0.00
366.52	0.00
366.72	0.00
366.91	0.00
367.11	0.00
367.31	0.00
367.51	0.00
367.70	0.00
367.90	0.00
368.10	0.00
368.30	0.00
368.49	0.00
368.69	0.00
368.89	0.00
369.09	0.00
369.28	0.00
369.48	0.00
369.68	0.00
369.87	0.00
370.07	0.00
370.27	0.00
370.47	681.10
370.66	3548.25
370.86	4194.24
371.06	4608.51
371.25	4575.75
371.45	4198.92
371.65	3796.35
371.84	3529.53
372.04	3829.12
372.24	4128.70
372.44	4250.41
372.63	4231.69
372.83	4124.02
373.03	3452.29
373.22	3157.38
373.42	3323.56
373.62	4117.00
373.81	4283.18
374.01	4241.05
374.21	3794.01
374.40	3527.19
374.60	3627.83
374.79	4161.47
374.99	4924.49
375.19	5064.92
375.38	5146.84
375.58	4975.98
375.78	4786.40
375.97	4847.25
376.17	5083.64
376.37	4947.89
376.56	5291.95
376.76	5497.92
376.95	5764.74
377.15	6108.80
377.35	6270.30
377.54	6607.33
377.74	6855.43
377.93	7040.33
378.13	6796.92
378.33	6347.53
378.52	5844.32
378.72	5673.46
378.91	5645.37
379.11	5298.97
379.31	5245.14
379.50	5071.94
379.70	5781.12
379.89	6150.93
380.09	6434.13
380.28	6567.54
380.48	6705.63
380.68	6698.61
380.87	6429.45
381.07	6045.60
381.26	5479.19
381.46	5095.35
381.65	5055.56
381.85	4865.97
382.04	4676.39
382.24	4332.33
382.43	4053.81
382.63	4107.64
382.83	4081.89
383.02	4131.05
383.22	4088.92
383.41	4056.15
383.61	4416.59
383.80	4922.15
384.00	5659.42
384.19	6232.85
384.39	6799.26
384.58	6658.82
384.78	6462.22
384.97	6609.67
385.17	6029.22
385.36	5879.43
385.56	5488.56
385.75	5671.12
385.95	6237.53
386.14	6937.35
386.34	7033.31
386.53	6747.76
386.72	6015.18
386.92	6317.11
387.11	6399.02
387.31	6860.11
387.50	6747.76
387.70	6417.75
387.89	6370.94
388.09	6595.63
388.28	6483.28
388.48	6534.78
388.67	7145.66
388.86	7707.38
389.06	8315.92
389.25	8798.07
389.45	9025.11
389.64	8720.84
389.84	8524.23
390.03	8468.06
390.22	8545.30
390.42	8870.63
390.61	9376.19
390.81	9853.66
391.00	10235.16
391.19	10195.37
391.39	9853.66
391.58	9245.12
391.78	8685.73
391.97	8510.19
392.16	7793.98
392.36	7316.51
392.55	5818.57
392.75	4552.34
392.94	3833.80
393.13	3763.58
393.33	4142.75
393.52	5722.61
393.71	7087.14
393.91	7728.45
394.10	8475.08
394.29	9165.54
394.49	9811.53
394.68	10724.33
394.88	10693.91
395.07	10984.13
395.26	10979.45
395.46	10527.73
395.65	10022.17
395.84	8690.41
396.04	7379.71
396.23	5989.43
396.42	4931.51
396.62	4840.23
396.81	5544.73
397.00	7077.78
397.19	8992.34
397.39	10604.97
397.58	11978.86
397.77	12685.70
397.97	13373.82
398.16	13493.19
398.35	13973.00
398.55	14090.02
398.74	14661.12
398.93	15417.11
399.12	15136.24
399.32	14338.12
399.51	14796.87
399.70	15662.86
399.90	15653.50
400.09	15449.88
400.28	15213.48
400.47	15810.32
400.67	16442.26
400.86	17015.69
401.05	16999.31
401.24	16816.75
401.44	17235.70
401.63	17083.57
401.82	17097.61
402.01	17254.43
402.21	17399.54
402.40	17626.57
402.59	17022.72
402.78	16177.78
402.97	15655.84
403.17	16231.62
403.36	17041.44
403.55	17839.56
403.74	18251.50
403.93	17261.45
404.13	16020.97
404.32	15508.39
404.51	16365.03
404.70	18106.38
404.89	17724.88
405.09	17465.08
405.28	16917.39
405.47	17114.00
405.66	17114.00
405.85	16589.72
406.05	16100.55
406.24	16177.78
406.43	16769.94
406.62	17483.80
406.81	17818.50
407.00	16901.01
407.20	16573.33
407.39	16840.15
407.58	17331.67
407.77	18387.25
407.96	19007.49
408.15	19094.09
408.34	18991.11
408.54	19833.70
408.73	19665.18
408.92	19782.21
409.11	19208.78
409.30	18038.51
409.49	17106.98
409.68	16215.23
409.87	15838.41
410.07	16641.21
410.26	17738.92
410.45	18904.51
410.64	19255.59
410.83	19985.83
411.02	20666.93
411.21	21434.63
411.40	20908.01
411.59	20720.76
411.78	20854.17
411.98	20294.79
412.17	21001.63
412.36	20486.71
412.55	20950.14
412.74	20360.32
412.93	19981.15
413.12	20013.92
413.31	21776.34
413.50	22106.36
413.69	22431.69
413.88	21900.39
414.07	21146.74
414.26	21067.16
414.45	21970.61
414.64	22232.75
414.83	22057.21
415.02	21472.07
415.22	21671.02
415.41	22169.55
415.60	22684.47
415.79	23824.31
415.98	24109.86
416.17	24519.45
416.36	23480.25
416.55	23592.60
416.74	22649.36
416.93	22017.42
417.12	21921.46
417.31	22101.68
417.50	22686.81
417.69	23293.01
417.88	23257.90
418.07	22848.31
418.26	22862.35
418.45	22981.72
418.64	23281.31
418.83	24252.63
419.02	24140.29
419.21	23824.31
419.39	22979.38
419.58	21631.23
419.77	21921.46
419.96	22766.39
420.15	24102.84
420.34	24631.80
420.53	25656.95
420.72	26031.44
420.91	25575.03
421.10	25373.75
421.29	25219.27
421.48	23927.30
421.67	25479.07
421.86	24966.49
422.05	23431.10
422.24	21097.59
422.43	20601.40
422.61	22817.88
422.80	24716.06
422.99	24423.49
423.18	24023.26
423.37	23173.64
423.56	23557.49
423.75	24002.19
423.94	24292.42
424.13	22787.46
424.32	22698.52
424.50	22944.27
424.69	22827.24
424.88	23009.81
425.07	22899.80
425.26	23087.04
425.45	22618.94
425.64	21956.57
425.83	22284.24
426.01	23475.57
426.20	24201.14
426.39	24112.20
426.58	22183.60
426.77	20397.77
426.96	20060.73
427.15	20201.16
427.33	22492.55
427.52	23136.20
427.71	23218.11
427.90	22850.65
428.09	22583.83
428.28	22141.47
428.46	21729.53
428.65	21432.29
428.84	21575.06
429.03	21937.84
429.22	20837.79
429.40	19910.94
429.59	18277.24
429.78	15768.19
429.97	16126.29
430.16	15906.28
430.34	16418.86
430.53	16517.16
430.72	16416.52
430.91	18178.94
431.10	21633.57
431.28	25460.35
431.47	27555.13
431.66	27517.68
431.85	25256.72
432.03	23276.63
432.22	22232.75
432.41	23073.00
432.60	25404.17
432.79	26417.63
432.97	27168.94
433.16	26810.84
433.35	24486.68
433.54	21979.97
433.72	20599.05
433.91	20924.39
434.10	23304.71
434.28	25472.05
434.47	26625.93
434.66	26284.22
434.85	25380.77
435.03	25371.41
435.22	26111.02
435.41	27704.92
435.59	27440.44
435.78	28058.34
435.97	28622.41
436.16	28758.16
436.34	28669.22
436.53	28020.89
436.72	27906.21
436.90	26412.95
437.09	26281.88
437.28	25759.94
437.46	26869.35
437.65	26960.63
437.84	24940.75
438.02	23005.13
438.21	22494.89
438.40	23997.51
438.58	25921.43
438.77	26483.16
438.96	27288.31
439.14	27721.30
439.33	28776.89
439.52	29301.17
439.70	29291.80
439.89	28065.36
440.08	27201.71
440.26	27070.64
440.45	27840.67
440.63	29647.57
440.82	31173.60
441.01	30726.55
441.19	30532.29
441.38	31119.76
441.57	32205.77
441.75	32470.25
441.94	32898.57
442.12	32243.22
442.31	33118.58
442.50	32938.36
442.68	32821.33
442.87	32215.13
443.05	31716.60
443.24	32154.28
443.43	32765.16
443.61	33563.28
443.80	33930.75
443.98	32294.71
444.17	32053.64
444.35	34160.12
444.54	34665.67
444.73	34003.30
444.91	32568.55
445.10	31321.05
445.28	30450.37
445.47	29521.18
445.65	29645.23
445.84	30778.04
446.02	31723.62
446.21	31630.00
446.39	32034.91
446.58	32591.96
446.77	33357.32
446.95	33743.50
447.14	34249.06
447.32	34483.11
447.51	33818.40
447.69	32627.07
447.88	32486.64
448.06	32912.61
448.25	33631.16
448.43	33507.11
448.62	33109.22
448.80	32996.87
448.99	33251.99
449.17	33633.50
449.36	33720.10
449.54	34822.49
449.73	35225.06
449.91	35604.23
450.10	36921.95
450.28	37340.91
450.46	36680.88
450.65	36996.85
450.83	36378.95
451.02	35744.66
451.20	35648.70
451.39	35700.19
451.57	34965.26
451.76	35463.80
451.94	35222.72
452.13	34630.57
452.31	33149.01
452.49	31559.78
452.68	32039.59
452.86	31695.53
453.05	32086.40
453.23	33188.80
453.42	33853.51
453.60	35012.07
453.78	34885.68
453.97	34778.02
454.15	34761.64
454.34	33759.89
454.52	34550.99
454.70	33364.34
454.89	33787.97
455.07	33944.79
455.26	34513.54
455.44	35981.06
455.62	36290.01
455.81	36549.81
455.99	36095.74
456.17	35489.54
456.36	36084.04
456.54	36786.20
456.73	36994.51
456.91	37364.31
457.09	37607.73
457.28	38117.96
457.46	37022.59
457.64	36793.22
457.83	35367.84
458.01	34806.11
458.19	35606.57
458.38	35971.69
458.56	36996.85
458.74	37038.98
458.93	36439.80
459.11	35922.54
459.29	35711.89
459.48	36275.96
459.66	35765.73
459.84	36517.04
460.03	36746.41
460.21	36472.57
460.39	37860.51
460.57	37635.81
460.76	38246.69
460.94	38087.54
461.12	37703.69
461.31	37631.13
461.49	37572.62
461.67	37429.85
461.85	38967.58
462.04	38347.34
462.22	39147.80
462.40	38384.79
462.59	38361.38
462.77	38405.85
462.95	38834.17
463.13	38132.01
463.32	37523.47
463.50	37675.60
463.68	37392.40
463.86	37577.30
464.05	36980.46
464.23	36278.30
464.41	36692.58
464.59	35833.60
464.78	37750.50
464.96	37074.09
465.14	36933.65
465.32	37457.93
465.50	38476.07
465.69	38829.49
465.87	38293.50
466.05	37198.13
466.23	35723.60
466.41	34998.03
466.60	35941.27
466.78	35847.64
466.96	36357.88
467.14	37249.63
467.32	37507.08
467.51	37984.55
467.69	36182.34
467.87	36444.48
468.05	37099.83
468.23	37132.60
468.41	37333.89
468.60	37340.91
468.78	37628.79
468.96	36868.12
469.14	37888.59
469.32	38492.45
469.50	36254.90
469.69	36690.24
469.87	36102.76
470.05	36268.94
470.23	35871.05
470.41	36364.90
470.59	36570.87
470.77	36664.49
470.95	37263.67
471.14	37832.42
471.32	38242.01
471.50	39985.71
471.68	40100.40
471.86	40348.50
472.04	40428.07
472.22	40746.39
472.40	38672.67
472.58	38380.10
472.77	38370.74
472.95	38675.01
473.13	39768.04
473.31	38670.33
473.49	39098.65
473.67	39573.78
473.85	39707.19
474.03	40921.93
474.21	40732.34
474.39	41315.14
474.57	41521.10
474.75	41509.40
474.93	40807.24
475.12	40318.07
475.30	40119.12
475.48	40725.32
475.66	41034.27
475.84	40570.85
476.02	40072.31
476.20	39409.94
476.38	40587.23
476.56	41876.86
476.74	42204.54
476.92	41972.83
477.10	43100.97
477.28	43990.37
477.46	43812.49
477.64	44369.54
477.82	44589.55
478.00	44505.29
478.18	43861.64
478.36	43966.96
478.54	43878.02
478.72	44406.98
478.90	45467.25
479.08	46167.07
479.26	46726.46
479.44	46808.37
479.62	46461.97
479.80	46483.04
479.98	46880.93
480.16	47150.09
480.34	46078.13
480.52	46698.37
480.70	47012.00
480.88	47374.78
481.06	48093.33
481.24	48369.51
481.41	48339.08
481.59	49663.83
481.77	48722.93
481.95	48858.68
482.13	48247.80
482.31	48598.88
482.49	49380.62
482.67	49097.42
482.85	49406.37
483.03	49684.89
483.21	49937.67
483.39	50005.55
483.57	49542.12
483.74	48971.03
483.92	49652.12
484.10	49727.02
484.28	50688.98
484.46	50670.26
484.64	51199.22
484.82	50377.69
485.00	49977.46
485.18	49144.23
485.35	48313.34
485.53	44940.63
485.71	40957.03
485.89	40107.42
486.07	42705.41
486.25	46298.14
486.43	48486.54
486.61	48844.64
486.78	48685.48
486.96	48959.33
487.14	50777.92
487.32	51246.03
487.50	52428.00
487.68	53095.05
487.85	53621.67
488.03	53223.78
488.21	53048.24
488.39	52310.97
488.57	51744.56
488.75	51402.85
488.92	52549.71
489.10	54525.12
489.28	55494.10
489.46	56168.18
489.64	55934.12
489.81	56006.68
489.99	55636.87
490.17	55910.72
490.35	56240.73
490.53	55899.01
490.70	55501.12
490.88	55313.88
491.06	56128.39
491.24	56200.94
491.41	55395.80
491.59	53865.09
491.77	53024.84
491.95	53869.77
492.13	55182.81
492.30	56179.88
492.48	57181.63
492.66	57364.19
492.84	57371.21
493.01	57310.36
493.19	56659.69
493.37	56530.96
493.54	56301.59
493.72	56647.99
493.90	57673.14
494.08	58230.19
494.25	58644.46
494.43	58688.93
494.61	58997.88
494.79	59150.02
494.96	58941.71
495.14	58478.28
495.32	57640.37
495.49	56956.94
495.67	57954.00
495.85	59135.98
496.02	59318.54
496.20	59423.86
496.38	59002.56
496.55	58801.28
496.73	59348.96
496.91	59358.33
497.09	59983.25
497.26	59978.57
497.44	59627.49
497.62	59131.29
497.79	58501.69
497.97	57125.46
498.14	57513.98
498.32	58499.35
498.50	59203.85
498.67	59723.45
498.85	59550.25
499.03	59943.46
499.20	59952.82
499.38	60081.55
499.56	59964.52
499.73	59365.35
499.91	59098.53
500.08	58740.42
500.26	58010.18
500.44	58361.26
500.61	59112.57
500.79	58885.54
500.97	58553.18
501.14	58396.37
501.32	58185.72
501.49	58188.06
501.67	58408.07
501.84	59150.02
502.02	59332.58
502.20	59468.33
502.37	59489.40
502.55	59358.33
502.72	60259.43
502.90	60467.74
503.07	60266.45
503.25	59814.73
503.43	58930.01
503.60	58365.94
503.78	57888.47
503.95	58284.02
504.13	59735.15
504.30	60397.52
504.48	60097.94
504.65	59840.48
504.83	59927.08
505.01	60519.23
505.18	60521.57
505.36	61343.10
505.53	61429.70
505.71	61408.64
505.88	61340.76
506.06	60786.05
506.23	60587.11
506.41	60299.22
506.58	60542.64
506.76	60491.15
506.93	60470.08
507.11	60418.59
507.28	60425.61
507.46	60069.85
507.63	59248.32
507.81	59131.29
507.98	59360.67
508.16	60163.47
508.33	60486.46
508.50	60772.01
508.68	61111.39
508.85	61567.79
509.03	61483.53
509.20	61359.48
509.38	60750.94
509.55	60067.51
509.73	60147.09
509.90	60563.70
510.08	60865.63
510.25	60961.59
510.42	60729.88
510.60	60678.39
510.77	60767.33
510.95	61305.65
511.12	61382.89
511.30	61621.62
511.47	61855.68
511.64	61848.66
511.82	61801.85
511.99	60804.78
512.17	60477.10
512.34	60121.34
512.51	60413.91
512.69	60364.76
512.86	60498.17
513.04	60849.25
513.21	60935.85
513.38	60671.37
513.56	60004.31
513.73	59608.76
513.90	59697.70
514.08	59592.38
514.25	60097.94
514.43	60322.63
514.60	60355.39
514.77	60425.61
514.95	60757.97
515.12	60446.68
515.29	60860.95
515.47	61221.39
515.64	61303.31
515.81	60924.14
515.99	60465.40
516.16	59166.40
516.33	57338.44
516.51	55753.90
516.68	55152.38
516.85	54494.69
517.03	54773.22
517.20	57265.89
517.37	59657.91
517.54	60371.78
517.72	60048.78
517.89	57687.18
518.06	55552.62
518.24	55908.38
518.41	58003.16
518.58	59068.10
518.75	59449.61
518.93	59491.74
519.10	59475.35
519.27	59973.89
519.45	60142.41
519.62	60760.31
519.79	61193.31
519.96	60992.02
520.14	60460.72
520.31	59592.38
520.48	59580.68
520.65	60032.40
520.83	60825.84
521.00	61197.99
521.17	60970.96
521.34	60544.98
521.52	60687.75
521.69	61310.33
521.86	61659.07
522.03	61389.91
522.20	60257.09
522.38	59290.45
522.55	59278.75
522.72	59908.35
522.89	59959.84
523.07	60390.50
523.24	60376.46
523.41	61291.61
523.58	61385.23
523.75	62012.49
523.92	62038.24
524.10	61862.70
524.27	61797.16
524.44	61511.62
524.61	61336.08
524.78	61183.94
524.96	61038.83
525.13	61027.13
525.30	61420.34
525.47	61841.63
525.64	61598.22
525.81	61041.17
525.98	59709.41
526.16	58454.88
526.33	57621.65
526.50	57502.28
526.67	57223.76
526.84	57766.76
527.01	58532.12
527.18	59341.94
527.36	60355.39
527.53	60987.34
527.70	61293.95
527.87	60596.47
528.04	60427.95
528.21	60921.80
528.38	61378.21
528.55	61956.32
528.72	61956.32
528.89	62379.96
529.07	62035.90
529.24	61387.57
529.41	60874.99
529.58	60254.75
529.75	60397.52
529.92	60926.49
530.09	61296.29
530.26	61539.71
530.43	61970.36
530.60	61841.63
530.77	62080.37
530.94	62085.05
531.11	61572.47
531.28	61322.04
531.46	61010.74
531.63	61450.77
531.80	61205.01
531.97	60741.58
532.14	60308.58
532.31	59339.60
532.48	58740.42
532.65	58534.46
532.82	59494.08
532.99	60451.36
533.16	60774.35
533.33	61212.03
533.50	61038.83
533.67	60350.71
533.84	59936.44
534.01	60369.44
534.18	60554.34
534.35	60739.24
534.52	60622.22
534.69	60975.64
534.86	61345.44
535.03	61467.15
535.20	61848.66
535.37	62047.60
535.54	62223.14
535.71	61724.61
535.88	61382.89
536.05	60729.88
536.22	60573.06
536.38	60212.62
536.55	59760.90
536.72	59217.89
536.89	59166.40
537.06	60072.19
537.23	60804.78
537.40	61127.77
537.57	60954.57
537.74	60849.25
537.91	60622.22
538.08	60622.22
538.25	60889.04
538.42	60743.92
538.59	60636.26
538.75	60001.97
538.92	59964.52
539.09	59842.82
539.26	59639.19
539.43	59447.27
539.60	59461.31
539.77	59697.70
539.94	59559.61
540.11	58995.54
540.28	58251.25
540.44	58501.69
540.61	58574.25
540.78	58862.13
540.95	59435.56
541.12	59718.77
541.29	59894.31
541.46	60357.74
541.62	60236.03
541.79	60126.02
541.96	59426.20
542.13	59615.79
542.30	59728.13
542.47	59828.77
542.63	59824.09
542.80	59449.61
542.97	59678.98
543.14	59379.39
543.31	59494.08
543.48	60074.53
543.64	60647.96
543.81	61013.08
543.98	60764.99
544.15	60088.57
544.32	59730.47
544.48	59760.90
544.65	60128.36
544.82	60444.33
544.99	60123.68
545.16	59807.71
545.32	59774.94
545.49	60193.90
545.66	60685.41
545.83	60306.24
546.00	59924.74
546.16	59615.79
546.33	59711.75
546.50	59744.51
546.67	60350.71
546.83	59756.22
547.00	59805.37
547.17	59171.08
547.34	58548.50
547.50	58412.75
547.67	59007.25
547.84	59145.34
548.00	59398.12
548.17	59777.28
548.34	59676.64
548.51	59711.75
548.67	59756.22
548.84	59746.86
549.01	59772.60
549.18	59601.74
549.34	59618.13
549.51	59571.32
549.68	59487.06
549.84	59381.73
550.01	59367.69
550.18	59344.28
550.34	59079.80
550.51	59447.27
550.68	59433.22
550.84	58639.78
551.01	58864.47
551.18	58845.75
551.34	59245.98
551.51	59519.82
551.68	59721.11
551.84	59957.50
552.01	59629.83
552.18	59437.90
552.34	58459.56
552.51	58326.15
552.68	58251.25
552.84	58618.72
553.01	58656.17
553.18	58768.51
553.34	58967.46
553.51	59091.51
553.67	59096.19
553.84	59355.99
554.01	59231.94
554.17	58967.46
554.34	59143.00
554.51	59206.19
554.67	59660.26
554.84	59407.48
555.00	58894.90
555.17	58829.37
555.33	58979.16
555.50	58784.90
555.67	58817.66
555.83	58656.17
556.00	58396.37
556.16	58356.58
556.33	57867.40
556.50	57904.85
556.66	58024.22
556.83	57694.21
556.99	57911.88
557.16	57977.41
557.32	58162.31
557.49	58599.99
557.65	58204.44
557.82	58190.40
557.98	58134.23
558.15	57588.88
558.32	56905.44
558.48	55978.59
558.65	56535.64
558.81	56596.49
558.98	56898.42
559.14	57125.46
559.31	57219.08
559.47	57347.81
559.64	56924.17
559.80	56879.70
559.97	56549.68
560.13	57062.26
560.30	57970.39
560.46	58375.30
560.63	58459.56
560.79	58642.12
560.96	58464.24
561.12	57113.75
561.29	56371.80
561.45	56252.44
561.61	56898.42
561.78	57111.41
561.94	57249.50
562.11	57073.96
562.27	57017.79
562.44	57174.61
562.60	57712.93
562.77	57595.90
562.93	57705.91
563.10	57490.58
563.26	57006.09
563.42	57050.56
563.59	56947.57
563.75	56879.70
563.92	56846.93
564.08	56772.03
564.24	57104.39
564.41	57139.50
564.57	57073.96
564.74	56910.13
564.90	57055.24
565.07	56793.10
565.23	56488.83
565.39	55725.81
565.56	55583.04
565.72	55215.58
565.88	55751.56
566.05	55700.07
566.21	56072.21
566.38	56030.08
566.54	56229.03
566.70	56725.22
566.87	56535.64
567.03	56715.86
567.19	57106.73
567.36	56790.76
567.52	56591.81
567.68	56388.19
567.85	55702.41
568.01	55327.92
568.17	55037.70
568.34	55290.48
568.50	54927.69
568.66	55119.62
568.83	55470.70
568.99	55646.24
569.15	55760.92
569.32	55697.73
569.48	55543.25
569.64	55306.86
569.81	54883.22
569.97	54979.18
570.13	54845.77
570.30	54576.61
570.46	53757.42
570.62	53647.42
570.78	53539.75
570.95	53837.00
571.11	54363.62
571.27	54475.97
571.43	54501.71
571.60	55110.25
571.76	54944.08
571.92	55447.29
572.09	55721.13
572.25	55552.62
572.41	55386.44
572.57	55421.55
572.74	55358.35
572.90	55025.99
573.06	55054.08
573.22	54997.91
573.38	55086.85
573.55	55051.74
573.71	55238.98
573.87	55004.93
574.03	54798.96
574.20	54555.55
574.36	54391.71
574.52	54232.55
574.68	54410.43
574.84	53818.28
575.01	53565.50
575.17	53219.10
575.33	53858.07
575.49	53694.23
575.65	53970.41
575.82	53876.79
575.98	53523.37
576.14	53895.52
576.30	54160.00
576.46	54234.89
576.62	54042.97
576.79	53991.48
576.95	53502.31
577.11	53478.90
577.27	53729.34
577.43	53778.49
577.59	53378.26
577.75	53017.82
577.92	52633.97
578.08	52296.93
578.24	52339.06
578.40	52645.67
578.56	52774.40
578.72	53078.67
578.88	52973.34
579.04	53277.61
579.21	53413.37
579.37	53373.58
579.53	53418.05
579.69	53574.86
579.85	53563.16
580.01	53392.30
580.17	53195.70
580.33	52680.78
580.49	53289.32
580.65	53015.47
580.82	53310.38
580.98	53268.25
581.14	53361.87
581.30	53364.21
581.46	53359.53
581.62	53642.74
581.78	53378.26
581.94	53483.58
582.10	53118.46
582.26	53570.18
582.42	53427.41
582.58	53492.94
582.74	53469.54
582.90	53125.48
583.06	53242.51
583.22	53284.64
583.38	53127.82
583.54	53088.03
583.70	53111.44
583.86	53249.53
584.02	52884.40
584.18	53099.73
584.34	52931.22
584.50	52816.53
584.66	52633.97
584.82	52229.05
584.98	52362.46
585.14	51861.59
