SpectraSuite Data File
++++++++++++++++++++++++++++++++++++
Date: Mon Oct 07 14:54:55 GMT-05:00 2013
User: price-jones
Dark Spectrum Present: No
Reference Spectrum Present: No
Number of Sampled Component Spectra: 1
Spectrometers: USB2+H05261
Integration Time (usec): 10000 (USB2+H05261)
Spectra Averaged: 1 (USB2+H05261)
Boxcar Smoothing: 0 (USB2+H05261)
Correct for Electrical Dark: No (USB2+H05261)
Strobe/Lamp Enabled: No (USB2+H05261)
Correct for Detector Non-linearity: No (USB2+H05261)
Correct for Stray Light: No (USB2+H05261)
Number of Pixels in Processed Spectrum: 2048
>>>>>Begin Processed Spectral Data<<<<<
365.73	0.00
365.92	0.00
366.12	0.00
366.32	0.00
366.52	0.00
366.72	0.00
366.91	0.00
367.11	0.00
367.31	0.00
367.51	0.00
367.70	0.00
367.90	0.00
368.10	0.00
368.30	0.00
368.49	0.00
368.69	0.00
368.89	0.00
369.09	0.00
369.28	0.00
369.48	0.00
369.68	0.00
369.87	0.00
370.07	0.00
370.27	0.00
370.47	0.00
370.66	0.00
370.86	77.24
371.06	121.71
371.25	102.98
371.45	0.00
371.65	0.00
371.84	0.00
372.04	0.00
372.24	117.03
372.44	79.58
372.63	105.32
372.83	39.79
373.03	0.00
373.22	21.06
373.42	63.19
373.62	0.00
373.81	51.49
374.01	175.54
374.21	72.56
374.40	58.51
374.60	2.34
374.79	81.92
374.99	126.39
375.19	105.32
375.38	128.73
375.58	147.45
375.78	245.76
375.97	133.41
376.17	149.79
376.37	163.84
376.56	131.07
376.76	196.60
376.95	198.95
377.15	250.44
377.35	264.48
377.54	170.86
377.74	362.78
377.93	353.42
378.13	322.99
378.33	234.05
378.52	142.77
378.72	128.73
378.91	194.26
379.11	170.86
379.31	112.35
379.50	177.88
379.70	227.03
379.89	203.63
380.09	264.48
380.28	360.44
380.48	280.86
380.68	278.52
380.87	280.86
381.07	170.86
381.26	117.03
381.46	131.07
381.65	135.75
381.85	91.28
382.04	98.30
382.24	23.41
382.43	37.45
382.63	79.58
382.83	91.28
383.02	23.41
383.22	39.79
383.41	44.47
383.61	63.19
383.80	65.54
384.00	259.80
384.19	201.29
384.39	220.01
384.58	198.95
384.78	306.61
384.97	250.44
385.17	278.52
385.36	304.27
385.56	290.23
385.75	273.84
385.95	212.99
386.14	322.99
386.34	266.82
386.53	325.33
386.72	266.82
386.92	227.03
387.11	220.01
387.31	372.15
387.50	250.44
387.70	241.08
387.89	327.68
388.09	241.08
388.28	266.82
388.48	292.57
388.67	346.40
388.86	362.78
389.06	388.53
389.25	475.13
389.45	428.32
389.64	428.32
389.84	428.32
390.03	521.94
390.22	503.22
390.42	461.09
390.61	442.36
390.81	543.00
391.00	540.66
391.19	528.96
391.39	580.45
391.58	517.26
391.78	451.72
391.97	332.36
392.16	339.38
392.36	341.72
392.55	154.48
392.75	170.86
392.94	133.41
393.13	35.11
393.33	105.32
393.52	205.97
393.71	315.97
393.91	313.63
394.10	416.62
394.29	503.22
394.49	484.49
394.68	568.75
394.88	550.03
395.07	573.43
395.26	641.31
395.46	503.22
395.65	543.00
395.84	397.89
396.04	320.65
396.23	264.48
396.42	177.88
396.62	133.41
396.81	187.24
397.00	304.27
397.19	507.90
397.39	624.92
397.58	753.65
397.77	791.10
397.97	791.10
398.16	779.40
398.35	851.96
398.55	809.83
398.74	936.21
398.93	905.79
399.12	1004.09
399.32	837.91
399.51	884.72
399.70	985.37
399.90	894.08
400.09	938.55
400.28	983.02
400.47	983.02
400.67	990.05
400.86	968.98
401.05	1004.09
401.24	1034.52
401.44	1004.09
401.63	1100.05
401.82	1137.50
402.01	983.02
402.21	1097.71
402.40	1083.67
402.59	983.02
402.78	964.30
402.97	933.87
403.17	943.24
403.36	1123.46
403.55	1097.71
403.74	1109.41
403.93	1198.35
404.13	966.64
404.32	1004.09
404.51	1088.35
404.70	1172.61
404.89	1081.33
405.09	1088.35
405.28	999.41
405.47	968.98
405.66	1097.71
405.85	983.02
406.05	1001.75
406.24	973.66
406.43	1011.11
406.62	1064.94
406.81	1057.92
407.00	1146.86
407.20	990.05
407.39	1118.78
407.58	1104.73
407.77	1130.48
407.96	1170.27
408.15	1231.12
408.34	1277.93
408.54	1266.23
408.73	1259.21
408.92	1308.36
409.11	1233.46
409.30	1107.07
409.49	1062.60
409.68	954.94
409.87	919.83
410.07	1029.84
410.26	1149.20
410.45	1263.89
410.64	1268.57
410.83	1280.27
411.02	1299.00
411.21	1355.17
411.40	1369.21
411.59	1348.15
411.78	1334.11
411.98	1348.15
412.17	1352.83
412.36	1268.57
412.55	1380.92
412.74	1233.46
412.93	1217.08
413.12	1217.08
413.31	1355.17
413.50	1359.85
413.69	1462.83
413.88	1343.47
414.07	1369.21
414.26	1394.96
414.45	1406.66
414.64	1401.98
414.83	1448.79
415.02	1444.11
415.22	1425.39
415.41	1488.58
415.60	1486.24
415.79	1490.92
415.98	1575.18
416.17	1432.41
416.36	1516.67
416.55	1537.73
416.74	1401.98
416.93	1392.62
417.12	1364.53
417.31	1413.68
417.50	1446.45
417.69	1582.20
417.88	1537.73
418.07	1481.56
418.26	1383.26
418.45	1481.56
418.64	1483.90
418.83	1535.39
419.02	1598.59
419.21	1568.16
419.39	1465.18
419.58	1373.89
419.77	1338.79
419.96	1474.54
420.15	1535.39
420.34	1619.65
420.53	1678.16
420.72	1703.91
420.91	1610.29
421.10	1600.93
421.29	1650.08
421.48	1607.95
421.67	1654.76
421.86	1540.07
422.05	1528.37
422.24	1306.02
422.43	1277.93
422.61	1516.67
422.80	1542.41
422.99	1490.92
423.18	1502.62
423.37	1329.42
423.56	1495.60
423.75	1479.22
423.94	1488.58
424.13	1434.75
424.32	1488.58
424.50	1458.15
424.69	1490.92
424.88	1472.20
425.07	1437.09
425.26	1469.86
425.45	1579.86
425.64	1427.73
425.83	1373.89
426.01	1460.49
426.20	1509.65
426.39	1460.49
426.58	1350.49
426.77	1245.16
426.96	1165.59
427.15	1252.19
427.33	1397.30
427.52	1458.15
427.71	1497.94
427.90	1380.92
428.09	1371.55
428.28	1420.71
428.46	1373.89
428.65	1261.55
428.84	1324.74
429.03	1310.70
429.22	1252.19
429.40	1203.04
429.59	1055.58
429.78	933.87
429.97	950.26
430.16	1032.18
430.34	990.05
430.53	994.73
430.72	1011.11
430.91	1174.95
431.10	1420.71
431.28	1584.54
431.47	1764.76
431.66	1797.53
431.85	1643.06
432.03	1453.47
432.22	1406.66
432.41	1497.94
432.60	1577.52
432.79	1710.93
432.97	1753.06
433.16	1732.00
433.35	1561.14
433.54	1308.36
433.72	1256.87
433.91	1263.89
434.10	1509.65
434.28	1640.72
434.47	1755.40
434.66	1748.38
434.85	1605.61
435.03	1593.90
435.22	1643.06
435.41	1811.57
435.59	1767.10
435.78	1799.87
435.97	1834.98
436.16	1863.07
436.34	1844.34
436.53	1795.19
436.72	1884.13
436.90	1762.42
437.09	1722.63
437.28	1764.76
437.46	1673.48
437.65	1689.87
437.84	1502.62
438.02	1364.53
438.21	1359.85
438.40	1497.94
438.58	1589.22
438.77	1694.55
438.96	1753.06
439.14	1830.30
439.33	1844.34
439.52	1923.92
439.70	1877.11
439.89	1741.36
440.08	1706.25
440.26	1785.83
440.45	1914.56
440.63	1914.56
440.82	1928.60
441.01	2005.84
441.19	1937.96
441.38	2036.27
441.57	2033.93
441.75	2113.50
441.94	2139.25
442.12	2193.08
442.31	2153.29
442.50	2141.59
442.68	2115.84
442.87	2165.00
443.05	2073.71
443.24	2125.21
443.43	2076.06
443.61	2214.15
443.80	2202.44
443.98	2118.18
444.17	2066.69
444.35	2258.62
444.54	2169.68
444.73	2169.68
444.91	2054.99
445.10	2050.31
445.28	1933.28
445.47	1921.58
445.65	1912.22
445.84	1940.30
446.02	2033.93
446.21	2083.08
446.39	2094.78
446.58	1952.01
446.77	2221.17
446.95	2129.89
447.14	2211.81
447.32	2307.77
447.51	2162.66
447.69	2101.80
447.88	1977.75
448.06	2071.37
448.25	2209.47
448.43	2146.27
448.62	2186.06
448.80	2223.51
448.99	2188.40
449.17	2190.74
449.36	2286.70
449.54	2244.57
449.73	2284.36
449.91	2272.66
450.10	2352.24
450.28	2420.11
450.46	2406.07
450.65	2235.21
450.83	2338.20
451.02	2335.85
451.20	2359.26
451.39	2370.96
451.57	2211.81
451.76	2251.60
451.94	2282.02
452.13	2291.38
452.31	2069.03
452.49	2064.35
452.68	2036.27
452.86	2108.82
453.05	2193.08
453.23	2132.23
453.42	2258.62
453.60	2286.70
453.78	2284.36
453.97	2218.83
454.15	2242.23
454.34	2218.83
454.52	2284.36
454.70	2230.53
454.89	2193.08
455.07	2129.89
455.26	2279.68
455.44	2377.98
455.62	2370.96
455.81	2469.27
455.99	2382.67
456.17	2286.70
456.36	2399.05
456.54	2469.27
456.73	2335.85
456.91	2401.39
457.09	2502.03
457.28	2436.50
457.46	2558.21
457.64	2375.64
457.83	2338.20
458.01	2345.22
458.19	2186.06
458.38	2293.72
458.56	2450.54
458.74	2392.03
458.93	2331.17
459.11	2310.11
459.29	2335.85
459.48	2399.05
459.66	2385.01
459.84	2396.71
460.03	2417.77
460.21	2335.85
460.39	2415.43
460.57	2436.50
460.76	2466.92
460.94	2401.39
461.12	2403.73
461.31	2450.54
461.49	2532.46
461.67	2476.29
461.85	2466.92
462.04	2485.65
462.22	2553.52
462.40	2539.48
462.59	2523.10
462.77	2410.75
462.95	2534.80
463.13	2382.67
463.32	2509.05
463.50	2436.50
463.68	2511.39
463.86	2492.67
464.05	2324.15
464.23	2406.07
464.41	2328.83
464.59	2275.00
464.78	2504.37
464.96	2403.73
465.14	2326.49
465.32	2445.86
465.50	2438.84
465.69	2466.92
465.87	2438.84
466.05	2373.30
466.23	2310.11
466.41	2169.68
466.60	2289.04
466.78	2253.94
466.96	2377.98
467.14	2314.79
467.32	2286.70
467.51	2511.39
467.69	2321.81
467.87	2380.32
468.05	2410.75
468.23	2289.04
468.41	2431.82
468.60	2396.71
468.78	2272.66
468.96	2359.26
469.14	2485.65
469.32	2483.31
469.50	2342.88
469.69	2286.70
469.87	2352.24
470.05	2359.26
470.23	2286.70
470.41	2246.91
470.59	2312.45
470.77	2385.01
470.95	2331.17
471.14	2333.51
471.32	2492.67
471.50	2478.63
471.68	2572.25
471.86	2574.59
472.04	2654.17
472.22	2700.98
472.40	2485.65
472.58	2406.07
472.77	2471.61
472.95	2434.16
473.13	2490.33
473.31	2509.05
473.49	2518.42
473.67	2649.49
473.85	2602.68
474.03	2616.72
474.21	2600.34
474.39	2661.19
474.57	2810.98
474.75	2558.21
474.93	2677.57
475.12	2705.66
475.30	2544.16
475.48	2637.78
475.66	2574.59
475.84	2656.51
476.02	2520.76
476.20	2607.36
476.38	2759.49
476.56	2677.57
476.74	2731.41
476.92	2780.56
477.10	2731.41
477.28	3000.57
477.46	2895.24
477.64	2925.67
477.82	2806.30
478.00	2967.80
478.18	2911.63
478.36	2848.43
478.54	2855.45
478.72	2928.01
478.90	2864.82
479.08	2965.46
479.26	2993.55
479.44	3019.29
479.62	2991.20
479.80	2949.08
479.98	3155.04
480.16	3056.74
480.34	3087.17
480.52	3126.96
480.70	3056.74
480.88	3129.30
481.06	3126.96
481.24	3187.81
481.41	3222.92
481.59	3311.86
481.77	3267.39
481.95	3302.50
482.13	3272.07
482.31	3225.26
482.49	3215.90
482.67	3241.64
482.85	3368.03
483.03	3307.18
483.21	3421.86
483.39	3361.01
483.57	3164.40
483.74	3241.64
483.92	3300.16
484.10	3267.39
484.28	3218.24
484.46	3358.67
484.64	3478.04
484.82	3328.24
485.00	3332.92
485.18	3325.90
485.35	3194.83
485.53	2899.92
485.71	2684.59
485.89	2600.34
486.07	2686.94
486.25	3026.31
486.43	3049.72
486.61	3239.30
486.78	3171.43
486.96	3243.98
487.14	3426.54
487.32	3389.10
487.50	3508.46
487.68	3742.52
487.85	3779.97
488.03	3559.95
488.21	3723.79
488.39	3648.90
488.57	3513.14
488.75	3473.36
488.92	3637.19
489.10	3824.44
489.28	3960.19
489.46	4133.39
489.64	4140.41
489.81	4166.15
489.99	4046.79
490.17	4084.23
490.35	4028.06
490.53	3953.16
490.70	3978.91
490.88	3985.93
491.06	4161.47
491.24	4049.13
491.41	3948.48
491.59	3700.39
491.77	3695.71
491.95	3892.31
492.13	3946.14
492.30	3871.25
492.48	4182.54
492.66	4287.86
492.84	4278.50
493.01	4311.27
493.19	4119.34
493.37	4203.60
493.54	4161.47
493.72	4180.20
493.90	4344.03
494.08	4512.55
494.25	4631.92
494.43	4585.11
494.61	4634.26
494.79	4645.96
494.96	4582.77
495.14	4353.40
495.32	4273.82
495.49	4131.05
495.67	4344.03
495.85	4545.32
496.02	4622.56
496.20	4655.33
496.38	4484.47
496.55	4671.71
496.73	4521.92
496.91	4592.13
497.09	4809.80
497.26	4823.84
497.44	4688.09
497.62	4594.47
497.79	4526.60
497.97	4287.86
498.14	4182.54
498.32	4493.83
498.50	4615.54
498.67	4624.90
498.85	4660.01
499.03	4664.69
499.20	4648.30
499.38	4589.79
499.56	4734.90
499.73	4638.94
499.91	4559.36
500.08	4386.16
500.26	4365.10
500.44	4493.83
500.61	4418.93
500.79	4470.42
500.97	4416.59
501.14	4496.17
501.32	4306.59
501.49	4538.30
501.67	4407.23
501.84	4641.28
502.02	4528.94
502.20	4601.49
502.37	4660.01
502.55	4748.95
502.72	4662.35
502.90	4732.56
503.07	4880.02
503.25	4650.64
503.43	4608.51
503.60	4264.46
503.78	4210.62
503.95	4346.37
504.13	4514.89
504.30	4748.95
504.48	4777.03
504.65	4594.47
504.83	4638.94
505.01	4802.78
505.18	4844.91
505.36	5069.60
505.53	5006.41
505.71	4870.65
505.88	5102.37
506.06	4910.44
506.23	4798.10
506.41	4823.84
506.58	4730.22
506.76	4795.76
506.93	4877.68
507.11	4706.82
507.28	4762.99
507.46	4627.24
507.63	4629.58
507.81	4552.34
507.98	4664.69
508.16	4599.15
508.33	4589.79
508.50	4999.38
508.68	4961.94
508.85	4952.57
509.03	5022.79
509.20	4926.83
509.38	4877.68
509.55	4652.98
509.73	4713.84
509.90	4854.27
510.08	4865.97
510.25	4690.43
510.42	4798.10
510.60	4959.60
510.77	4966.62
510.95	4947.89
511.12	5004.07
511.30	4938.53
511.47	5107.05
511.64	5132.79
511.82	4980.66
511.99	4901.08
512.17	4959.60
512.34	4592.13
512.51	4599.15
512.69	4737.24
512.86	4802.78
513.04	4950.23
513.21	4760.65
513.38	4851.93
513.56	4695.11
513.73	4547.66
513.90	4755.97
514.08	4652.98
514.25	4795.76
514.43	4784.06
514.60	4685.75
514.77	4816.82
514.95	4683.41
515.12	4657.67
515.29	4945.55
515.47	4938.53
515.64	4987.68
515.81	4807.46
515.99	4816.82
516.16	4573.41
516.33	4198.92
516.51	4063.17
516.68	3742.52
516.85	3765.92
517.03	3824.44
517.20	4250.41
517.37	4582.77
517.54	4847.25
517.72	4704.48
517.89	4294.88
518.06	3866.56
518.24	4042.11
518.41	4374.46
518.58	4603.83
518.75	4631.92
518.93	4655.33
519.10	4526.60
519.27	4667.03
519.45	4737.24
519.62	4849.59
519.79	4779.37
519.96	4861.29
520.14	4877.68
520.31	4613.20
520.48	4606.17
520.65	4671.71
520.83	4896.40
521.00	4830.87
521.17	4786.40
521.34	4730.22
521.52	4814.48
521.69	5093.01
521.86	4997.04
522.03	4842.57
522.20	4580.43
522.38	4589.79
522.55	4624.90
522.72	4723.20
522.89	4690.43
523.07	4727.88
523.24	4746.61
523.41	4898.74
523.58	5137.48
523.75	5078.96
523.92	5109.39
524.10	4966.62
524.27	5102.37
524.44	5041.51
524.61	4882.36
524.78	4950.23
524.96	4849.59
525.13	4863.63
525.30	4924.49
525.47	5100.03
525.64	4915.12
525.81	4805.12
525.98	4550.00
526.16	4383.82
526.33	4337.01
526.50	4007.00
526.67	4147.43
526.84	4236.37
527.01	4367.44
527.18	4564.04
527.36	4718.52
527.53	4854.27
527.70	4830.87
527.87	4856.61
528.04	4629.58
528.21	4730.22
528.38	4912.78
528.55	5013.43
528.72	5093.01
528.89	5069.60
529.07	5116.41
529.24	4870.65
529.41	4777.03
529.58	4512.55
529.75	4650.64
529.92	4795.76
530.09	4739.58
530.26	4903.42
530.43	5050.88
530.60	4950.23
530.77	5029.81
530.94	5069.60
531.11	4929.17
531.28	4926.83
531.46	4912.78
531.63	4889.38
531.80	4830.87
531.97	4858.95
532.14	4526.60
532.31	4358.08
532.48	4353.40
532.65	4276.16
532.82	4449.36
532.99	4779.37
533.16	4770.01
533.33	4851.93
533.50	4873.00
533.67	4688.09
533.84	4690.43
534.01	4758.31
534.18	4592.13
534.35	4791.08
534.52	4781.71
534.69	4734.90
534.86	4814.48
535.03	4823.84
535.20	4882.36
535.37	5174.92
535.54	4901.08
535.71	4830.87
535.88	4861.29
536.05	4842.57
536.22	4725.54
536.38	4730.22
536.55	4542.98
536.72	4437.66
536.89	4440.00
537.06	4678.73
537.23	4620.22
537.40	4849.59
537.57	4847.25
537.74	4802.78
537.91	4753.63
538.08	4674.05
538.25	4608.51
538.42	4821.50
538.59	4870.65
538.75	4631.92
538.92	4634.26
539.09	4505.53
539.26	4585.11
539.43	4479.79
539.60	4376.80
539.77	4615.54
539.94	4526.60
540.11	4386.16
540.28	4362.76
540.44	4182.54
540.61	4266.80
540.78	4355.74
540.95	4341.69
541.12	4512.55
541.29	4535.96
541.46	4690.43
541.62	4517.23
541.79	4627.24
541.96	4477.44
542.13	4484.47
542.30	4461.06
542.47	4489.15
542.63	4503.19
542.80	4344.03
542.97	4510.21
543.14	4482.13
543.31	4440.00
543.48	4557.02
543.64	4774.69
543.81	4793.42
543.98	4889.38
544.15	4739.58
544.32	4542.98
544.48	4568.73
544.65	4540.64
544.82	4634.26
544.99	4732.56
545.16	4496.17
545.32	4652.98
545.49	4589.79
545.66	4596.81
545.83	4526.60
546.00	4629.58
546.16	4573.41
546.33	4571.07
546.50	4482.13
546.67	4564.04
546.83	4641.28
547.00	4372.12
547.17	4421.27
547.34	4227.01
547.50	4320.63
547.67	4440.00
547.84	4322.97
548.00	4503.19
548.17	4486.81
548.34	4421.27
548.51	4393.19
548.67	4461.06
548.84	4545.32
549.01	4545.32
549.18	4575.75
549.34	4425.95
549.51	4475.10
549.68	4365.10
549.84	4472.76
550.01	4418.93
550.18	4491.49
550.34	4248.07
550.51	4395.53
550.68	4512.55
550.84	4264.46
551.01	4332.33
551.18	4269.14
551.34	4374.46
551.51	4311.27
551.68	4468.08
551.84	4472.76
552.01	4498.51
552.18	4379.14
552.34	4322.97
552.51	4145.09
552.68	4306.59
552.84	4276.16
553.01	4311.27
553.18	4250.41
553.34	4322.97
553.51	4362.76
553.67	4442.34
553.84	4437.66
554.01	4521.92
554.17	4285.52
554.34	4444.68
554.51	4510.21
554.67	4442.34
554.84	4407.23
555.00	4301.90
555.17	4456.38
555.33	4297.22
555.50	4325.31
555.67	4454.04
555.83	4145.09
556.00	4205.94
556.16	4131.05
556.33	4194.24
556.50	4081.89
556.66	4311.27
556.83	4170.83
556.99	4217.65
557.16	4219.99
557.32	4236.37
557.49	4257.43
557.65	4196.58
557.82	4131.05
557.98	4187.22
558.15	4131.05
558.32	3985.93
558.48	3850.18
558.65	3852.52
558.81	4032.74
558.98	4109.98
559.14	4140.41
559.31	3948.48
559.47	3871.25
559.64	4112.32
559.80	4037.42
559.97	4053.81
560.13	4014.02
560.30	4205.94
560.46	4248.07
560.63	4360.42
560.79	4271.48
560.96	4315.95
561.12	3878.27
561.29	3920.40
561.45	3936.78
561.61	4025.72
561.78	4037.42
561.94	4128.70
562.11	3964.87
562.27	3922.74
562.44	4004.66
562.60	4208.28
562.77	4109.98
562.93	4217.65
563.10	4042.11
563.26	4067.85
563.42	4011.68
563.59	3946.14
563.75	3906.35
563.92	3911.04
564.08	3988.27
564.24	3962.53
564.41	3976.57
564.57	4011.68
564.74	3901.67
564.90	3962.53
565.07	4032.74
565.23	3857.20
565.39	3915.72
565.56	3765.92
565.72	3705.07
565.88	3721.45
566.05	3765.92
566.21	3850.18
566.38	3913.38
566.54	3805.71
566.70	3871.25
566.87	4049.13
567.03	3861.88
567.19	3896.99
567.36	3927.42
567.52	3861.88
567.68	3913.38
567.85	3927.42
568.01	3782.31
568.17	3672.30
568.34	3641.87
568.50	3686.34
568.66	3857.20
568.83	3756.56
568.99	3719.11
569.15	3859.54
569.32	3882.95
569.48	3775.28
569.64	3616.13
569.81	3707.41
569.97	3676.98
570.13	3742.52
570.30	3630.17
570.46	3463.99
570.62	3471.01
570.78	3590.38
570.95	3433.57
571.11	3590.38
571.27	3705.07
571.43	3538.89
571.60	3641.87
571.76	3674.64
571.92	3726.13
572.09	3744.86
572.25	3740.18
572.41	3669.96
572.57	3770.60
572.74	3702.73
572.90	3581.02
573.06	3728.47
573.22	3726.13
573.38	3693.37
573.55	3751.88
573.71	3775.28
573.87	3805.71
574.03	3712.09
574.20	3644.21
574.36	3632.51
574.52	3667.62
574.68	3548.25
574.84	3550.59
575.01	3353.99
575.17	3606.77
575.33	3571.66
575.49	3543.57
575.65	3536.55
575.82	3522.51
575.98	3524.85
576.14	3632.51
576.30	3522.51
576.46	3662.94
576.62	3562.30
576.79	3606.77
576.95	3503.78
577.11	3602.08
577.27	3606.77
577.43	3545.91
577.59	3618.47
577.75	3421.86
577.92	3361.01
578.08	3325.90
578.24	3459.31
578.40	3403.14
578.56	3501.44
578.72	3339.94
578.88	3466.33
579.04	3501.44
579.21	3396.12
579.37	3508.46
579.53	3468.67
579.69	3499.10
579.85	3407.82
580.01	3485.06
580.17	3562.30
580.33	3393.78
580.49	3461.65
580.65	3440.59
580.82	3466.33
580.98	3473.36
581.14	3433.57
581.30	3489.74
581.46	3410.16
581.62	3365.69
581.78	3499.10
581.94	3564.64
582.10	3318.88
582.26	3410.16
582.42	3461.65
582.58	3424.20
582.74	3515.48
582.90	3555.27
583.06	3428.88
583.22	3541.23
583.38	3438.25
583.54	3433.57
583.70	3410.16
583.86	3403.14
584.02	3449.95
584.18	3482.72
584.34	3417.18
584.50	3496.76
584.66	3382.07
584.82	3365.69
584.98	3335.26
585.14	3318.88
585.30	3281.43
585.46	3136.32
585.62	3220.58
585.78	3262.71
585.94	3194.83
586.10	3215.90
586.26	3265.05
586.42	3197.17
586.58	3218.24
586.74	3272.07
586.90	3325.90
587.06	3435.91
587.22	3173.77
587.38	3155.04
587.54	3112.91
587.70	3105.89
587.86	3103.55
588.02	3180.79
588.18	3096.53
588.34	2944.39
588.49	2916.31
588.65	2715.02
588.81	2705.66
588.97	2689.28
589.13	2658.85
589.29	2698.64
589.45	2740.77
589.61	2913.97
589.77	2796.94
589.93	2895.24
590.08	3131.64
590.24	3159.72
590.40	3201.85
590.56	3180.79
590.72	3059.08
590.88	3026.31
591.04	2850.77
591.20	3005.25
591.35	3075.46
591.51	2995.89
591.67	3045.04
591.83	3098.87
591.99	2979.50
592.15	2984.18
592.31	3164.40
592.46	3073.12
592.62	3014.61
592.78	3094.19
592.94	2965.46
593.10	3033.33
593.26	3047.38
593.41	3063.76
593.57	3023.97
593.73	3066.10
593.89	2932.69
594.05	2953.76
594.20	2942.05
594.36	2913.97
594.52	2820.35
594.68	2771.19
594.84	2726.72
594.99	2930.35
595.15	2920.99
595.31	2963.12
595.47	3049.72
595.62	2862.48
595.78	2972.48
595.94	3075.46
596.10	2867.16
596.25	2897.58
596.41	2956.10
596.57	2923.33
596.73	2937.37
596.88	2904.60
597.04	2874.18
597.20	2939.71
597.36	2768.85
597.51	2965.46
597.67	2822.69
597.83	3005.25
597.99	2988.86
598.14	2885.88
598.30	2808.64
598.46	2782.90
598.61	2799.28
598.77	2949.08
