SpectraSuite Data File
++++++++++++++++++++++++++++++++++++
Date: Mon Oct 07 14:54:59 GMT-05:00 2013
User: price-jones
Dark Spectrum Present: No
Reference Spectrum Present: No
Number of Sampled Component Spectra: 1
Spectrometers: USB2+H05261
Integration Time (usec): 10000 (USB2+H05261)
Spectra Averaged: 1 (USB2+H05261)
Boxcar Smoothing: 0 (USB2+H05261)
Correct for Electrical Dark: No (USB2+H05261)
Strobe/Lamp Enabled: No (USB2+H05261)
Correct for Detector Non-linearity: No (USB2+H05261)
Correct for Stray Light: No (USB2+H05261)
Number of Pixels in Processed Spectrum: 2048
>>>>>Begin Processed Spectral Data<<<<<
365.73	0.00
365.92	0.00
366.12	0.00
366.32	0.00
366.52	0.00
366.72	0.00
366.91	0.00
367.11	0.00
367.31	0.00
367.51	0.00
367.70	0.00
367.90	0.00
368.10	0.00
368.30	0.00
368.49	0.00
368.69	0.00
368.89	0.00
369.09	0.00
369.28	0.00
369.48	0.00
369.68	0.00
369.87	0.00
370.07	0.00
370.27	0.00
370.47	79.58
370.66	1076.65
370.86	1322.40
371.06	1416.02
371.25	1418.36
371.45	1261.55
371.65	1179.63
371.84	1090.69
372.04	1163.25
372.24	1416.02
372.44	1331.76
372.63	1359.85
372.83	1273.25
373.03	1025.15
373.22	1013.45
373.42	1069.62
373.62	1296.66
373.81	1448.79
374.01	1345.81
374.21	1151.54
374.40	1074.31
374.60	1163.25
374.79	1458.15
374.99	1638.38
375.19	1589.22
375.38	1568.16
375.58	1647.74
375.78	1577.52
375.97	1577.52
376.17	1673.48
376.37	1734.34
376.56	1743.70
376.76	1853.70
376.95	1940.30
377.15	2127.55
377.35	2139.25
377.54	2235.21
377.74	2370.96
377.93	2361.60
378.13	2244.57
378.33	2101.80
378.52	1884.13
378.72	1886.47
378.91	1774.13
379.11	1694.55
379.31	1811.57
379.50	1872.43
379.70	1839.66
379.89	2157.97
380.09	2277.34
380.28	2188.40
380.48	2263.30
380.68	2349.90
380.87	2319.47
381.07	1994.14
381.26	1827.96
381.46	1717.95
381.65	1675.82
381.85	1577.52
382.04	1437.09
382.24	1458.15
382.43	1266.23
382.63	1235.80
382.83	1355.17
383.02	1373.89
383.22	1313.04
383.41	1378.58
383.61	1504.96
383.80	1844.34
384.00	2036.27
384.19	2080.74
384.39	2232.87
384.58	2328.83
384.78	2263.30
384.97	2087.76
385.17	1968.39
385.36	1926.26
385.56	1860.73
385.75	1987.11
385.95	2165.00
386.14	2385.01
386.34	2242.23
386.53	2260.96
386.72	2080.74
386.92	2106.48
387.11	2291.38
387.31	2253.94
387.50	2263.30
387.70	2134.57
387.89	2165.00
388.09	2258.62
388.28	2246.91
388.48	2307.77
388.67	2696.30
388.86	2686.94
389.06	2834.39
389.25	3166.74
389.45	2932.69
389.64	3033.33
389.84	2928.01
390.03	2930.35
390.22	3042.70
390.42	3234.62
390.61	3279.09
390.81	3541.23
391.00	3492.08
391.19	3428.88
391.39	3363.35
391.58	3110.57
391.78	2930.35
391.97	2944.39
392.16	2553.52
392.36	2253.94
392.55	1760.08
392.75	1369.21
392.94	1233.46
393.13	1268.57
393.33	1584.54
393.52	2073.71
393.71	2471.61
393.91	2740.77
394.10	3077.80
394.29	3342.28
394.49	3581.02
394.68	3861.88
394.88	3789.33
395.07	3819.75
395.26	3885.29
395.46	3609.11
395.65	3349.31
395.84	2925.67
396.04	2492.67
396.23	1863.07
396.42	1619.65
396.62	1743.70
396.81	2062.01
397.00	2705.66
397.19	3412.50
397.39	3896.99
397.58	4404.89
397.77	4688.09
397.97	4926.83
398.16	4816.82
398.35	5018.11
398.55	5146.84
398.74	5401.96
398.93	5390.25
399.12	5383.23
399.32	4980.66
399.51	5390.25
399.70	5675.80
399.90	5469.83
400.09	5439.40
400.28	5528.35
400.47	5577.50
400.67	5832.62
400.86	5919.21
401.05	5987.09
401.24	5914.53
401.44	6174.33
401.63	5956.66
401.82	6195.40
402.01	6193.06
402.21	6169.65
402.40	6207.10
402.59	5806.87
402.78	5703.89
402.97	5724.95
403.17	5928.58
403.36	6319.45
403.55	6513.71
403.74	6457.54
403.93	6115.82
404.13	5497.92
404.32	5556.43
404.51	5940.28
404.70	6509.03
404.89	6328.81
405.09	6200.08
405.28	6069.01
405.47	6129.86
405.66	5977.73
405.85	5834.96
406.05	5746.02
406.24	6157.95
406.43	6043.26
406.62	6169.65
406.81	6380.30
407.00	6197.74
407.20	5907.51
407.39	5959.00
407.58	6249.23
407.77	6761.81
407.96	6602.65
408.15	6874.15
408.34	6822.66
408.54	7302.47
408.73	7295.45
408.92	6979.48
409.11	6860.11
409.30	6361.58
409.49	6026.88
409.68	5680.48
409.87	5586.86
410.07	6092.41
410.26	6256.25
410.45	6658.82
410.64	7005.22
410.83	7449.93
411.02	7541.21
411.21	7508.44
411.40	7442.90
411.59	7449.93
411.78	7634.83
411.98	7562.27
412.17	7681.64
412.36	7419.50
412.55	7449.93
412.74	7159.70
412.93	7124.59
413.12	7150.34
413.31	8166.13
413.50	8056.12
413.69	7934.42
413.88	7662.91
414.07	7779.94
414.26	7796.32
414.45	7836.11
414.64	7714.41
414.83	8011.65
415.02	7761.22
415.22	7920.37
415.41	8351.03
415.60	8327.63
415.79	8748.92
415.98	8861.27
416.17	8929.14
416.36	8444.65
416.55	8301.88
416.74	8297.20
416.93	7831.43
417.12	8030.38
417.31	8147.40
417.50	8327.63
417.69	8664.66
417.88	8386.14
418.07	8135.70
418.26	8215.28
418.45	8311.24
418.64	8643.60
418.83	8629.56
419.02	8634.24
419.21	8367.42
419.39	8105.28
419.58	7936.76
419.77	7791.64
419.96	8367.42
420.15	8606.15
420.34	9001.70
420.53	9039.15
420.72	9315.33
420.91	9165.54
421.10	8926.80
421.29	9092.98
421.48	8959.57
421.67	9280.22
421.86	8716.16
422.05	8039.74
422.24	7353.96
422.43	7751.85
422.61	8636.58
422.80	8875.31
422.99	8903.40
423.18	8468.06
423.37	8479.76
423.56	8479.76
423.75	8718.50
423.94	8931.48
424.13	8362.73
424.32	8566.36
424.50	8329.97
424.69	8416.57
424.88	8301.88
425.07	8685.73
425.26	8425.93
425.45	7957.82
425.64	8058.46
425.83	8208.26
426.01	8739.56
426.20	8594.45
426.39	8458.70
426.58	7971.86
426.77	7555.25
426.96	7545.89
427.15	7875.90
427.33	8287.84
427.52	8479.76
427.71	8402.52
427.90	8257.41
428.09	8198.90
428.28	8077.19
428.46	7606.74
428.65	7623.12
428.84	8058.46
429.03	8091.23
429.22	7307.15
429.40	6750.10
429.59	6305.40
429.78	5748.36
429.97	5973.05
430.16	5900.49
430.34	5743.67
430.53	5930.92
430.72	6174.33
430.91	7014.59
431.10	8299.54
431.28	9474.49
431.47	9900.47
431.66	10047.92
431.85	8950.21
432.03	8437.63
432.22	8421.25
432.41	8908.08
432.60	9692.16
432.79	9980.04
432.97	10141.54
433.16	9383.21
433.35	8610.83
433.54	7667.60
433.72	7793.98
433.91	7997.61
434.10	8868.29
434.28	9170.22
434.47	9834.93
434.66	9334.06
434.85	9350.44
435.03	9469.81
435.22	9558.75
435.41	9886.42
435.59	10080.69
435.78	10129.84
435.97	10410.70
436.16	10497.30
436.34	10448.15
436.53	9919.19
436.72	10218.78
436.90	9741.31
437.09	9741.31
437.28	9493.21
437.46	9757.69
437.65	9750.67
437.84	9092.98
438.02	8259.75
438.21	8449.33
438.40	8678.71
438.58	9355.12
438.77	9699.18
438.96	9673.43
439.14	10260.91
439.33	10345.17
439.52	10820.30
439.70	10258.57
439.89	9998.77
440.08	9989.41
440.26	9797.48
440.45	10200.05
440.63	11314.15
440.82	11332.87
441.01	11152.65
441.19	11335.21
441.38	11618.42
441.57	11822.05
441.75	11770.55
441.94	11976.52
442.12	11946.09
442.31	12107.59
442.50	12505.48
442.68	12131.00
442.87	11756.51
443.05	11637.14
443.24	11929.71
443.43	12086.53
443.61	12236.32
443.80	12521.87
443.98	12016.31
444.17	11868.86
444.35	12592.08
444.54	12950.18
444.73	12702.09
444.91	11679.27
445.10	11477.99
445.28	11262.66
445.47	10925.62
445.65	10867.11
445.84	11096.48
446.02	11992.90
446.21	12201.21
446.39	12020.99
446.58	11976.52
446.77	12168.45
446.95	12336.96
447.14	13050.83
447.32	12807.41
447.51	12496.12
447.69	12121.63
447.88	12049.08
448.06	12318.24
448.25	12271.43
448.43	12397.82
448.62	12201.21
448.80	11918.01
448.99	12358.03
449.17	12365.05
449.36	12917.42
449.54	13027.42
449.73	13411.27
449.91	13263.82
450.10	13420.63
450.28	14019.81
450.46	13729.58
450.65	13701.50
450.83	13231.05
451.02	13139.77
451.20	13053.17
451.39	13261.48
451.57	13050.83
451.76	13128.06
451.94	12622.51
452.13	12365.05
452.31	11815.02
452.49	11517.78
452.68	11782.26
452.86	11988.22
453.05	12121.63
453.23	12430.59
453.42	12858.90
453.60	12912.74
453.78	13055.51
453.97	12725.49
454.15	12959.55
454.34	12339.30
454.52	12549.95
454.70	12620.17
454.89	12566.34
455.07	12306.54
455.26	12585.06
455.44	13036.78
455.62	13245.09
455.81	13338.71
455.99	13493.19
456.17	13500.21
456.36	13366.80
456.54	13973.00
456.73	13516.59
456.91	13912.14
457.09	13907.46
457.28	14171.94
457.46	13474.46
457.64	13467.44
457.83	12966.57
458.01	12699.75
458.19	13287.22
458.38	13411.27
458.56	13785.76
458.74	13626.60
458.93	13151.47
459.11	13104.66
459.29	13331.69
459.48	13097.64
459.66	13118.70
459.84	13493.19
460.03	13556.38
460.21	13547.02
460.39	14040.87
460.57	14038.53
460.76	14057.26
460.94	14249.18
461.12	13743.63
461.31	13905.12
461.49	13884.06
461.67	13736.60
461.85	14382.59
462.04	13898.10
462.22	14197.69
462.40	14141.52
462.59	14207.05
462.77	14012.79
462.95	14080.66
463.13	13844.27
463.32	13774.05
463.50	13640.64
463.68	13958.96
463.86	13870.01
464.05	13341.05
464.23	13163.17
464.41	13083.59
464.59	13214.66
464.78	13558.72
464.96	13486.17
465.14	13327.01
465.32	13575.11
465.50	14120.45
465.69	14436.42
465.87	13902.78
466.05	13097.64
466.23	12973.59
466.41	12821.45
466.60	13149.13
466.78	13521.27
466.96	13415.95
467.14	13518.93
467.32	13675.75
467.51	13542.34
467.69	12774.64
467.87	13420.63
468.05	13556.38
468.23	13607.87
468.41	13734.26
468.60	13605.53
468.78	14352.16
468.96	13774.05
469.14	13895.76
469.32	13827.88
469.50	13345.73
469.69	13139.77
469.87	13135.09
470.05	13217.01
470.23	13352.76
470.41	13816.18
470.59	13397.23
470.77	13612.56
470.95	13902.78
471.14	14445.79
471.32	14185.99
471.50	14621.33
471.68	15370.30
471.86	14937.30
472.04	14934.96
472.22	14913.89
472.40	14312.38
472.58	13891.08
472.77	13540.00
472.95	14377.91
473.13	14616.65
473.31	14391.95
473.49	14944.32
473.67	14899.85
473.85	15211.14
474.03	15346.89
474.21	15510.73
474.39	15054.33
474.57	15225.18
474.75	15246.25
474.93	15051.99
475.12	14668.14
475.30	14801.55
475.48	14970.07
475.66	14831.97
475.84	15112.84
476.02	14970.07
476.20	14466.85
476.38	14820.27
476.56	15744.78
476.74	15815.00
476.92	15957.77
477.10	16222.25
477.28	16395.45
477.46	16259.70
477.64	16634.19
477.82	16835.47
478.00	16578.01
478.18	16367.37
478.36	16409.50
478.54	16255.02
478.72	16264.38
478.90	17298.90
479.08	17968.29
479.26	17420.61
479.44	17273.15
479.62	17334.01
479.80	17233.36
479.98	17078.89
480.16	17247.41
480.34	17593.81
480.52	17937.87
480.70	18045.53
480.88	17549.34
481.06	18483.21
481.24	18410.65
481.41	18251.50
481.59	18937.27
481.77	18473.85
481.95	18370.86
482.13	18373.21
482.31	18267.88
482.49	18590.88
482.67	18941.96
482.85	18724.29
483.03	18876.42
483.21	19087.07
483.39	19236.86
483.57	18876.42
483.74	18806.20
483.92	19012.17
484.10	19342.19
484.28	19311.76
484.46	19711.99
484.64	20318.19
484.82	19229.84
485.00	18523.00
485.18	18726.63
485.35	17820.84
485.53	16013.95
485.71	14635.37
485.89	15520.09
486.07	16336.94
486.25	17806.80
486.43	18129.79
486.61	18185.96
486.78	18843.65
486.96	18530.02
487.14	19655.82
487.32	20224.57
487.50	20360.32
487.68	20814.38
487.85	20915.03
488.03	21216.96
488.21	20580.33
488.39	19983.49
488.57	19896.89
488.75	19992.86
488.92	21158.44
489.10	22501.91
489.28	22150.83
489.46	23175.98
489.64	22972.36
489.81	23129.17
489.99	22834.27
490.17	23094.07
490.35	23583.24
490.53	23187.69
490.70	22682.13
490.88	22396.59
491.06	23779.84
491.24	23365.57
491.41	22370.84
491.59	21184.19
491.77	21329.30
491.95	22155.51
492.13	22916.19
492.30	23358.55
492.48	24123.90
492.66	24727.76
492.84	24421.15
493.01	24610.73
493.19	23520.04
493.37	23417.06
493.54	23281.31
493.72	24292.42
493.90	24393.06
494.08	24725.42
494.25	25694.40
494.43	25656.95
494.61	25968.24
494.79	25823.13
494.96	25593.76
495.14	24842.45
495.32	24348.59
495.49	24418.81
495.67	25357.36
495.85	26068.89
496.02	26349.75
496.20	25958.88
496.38	25666.31
496.55	25390.13
496.73	25916.75
496.91	25876.96
497.09	26864.67
497.26	26665.72
497.44	26520.61
497.62	26583.80
497.79	24865.85
497.97	24364.98
498.14	24734.78
498.32	26082.93
498.50	26820.20
498.67	26920.84
498.85	27080.00
499.03	26960.63
499.20	26569.76
499.38	26939.57
499.56	26843.60
499.73	26462.10
499.91	25998.67
500.08	25528.22
500.26	25137.35
500.44	25851.22
500.61	25895.69
500.79	25582.06
500.97	25830.15
501.14	25305.87
501.32	25170.12
501.49	25422.90
501.67	25729.51
501.84	25741.21
502.02	25411.20
502.20	26061.87
502.37	26544.02
502.55	26745.30
502.72	27318.73
502.90	28163.67
503.07	27269.58
503.25	26068.89
503.43	25589.08
503.60	24931.39
503.78	24292.42
503.95	25151.40
504.13	27009.78
504.30	27585.55
504.48	27349.16
504.65	26939.57
504.83	27049.57
505.01	27878.12
505.18	27894.50
505.36	28966.47
505.53	28807.31
505.71	28765.18
505.88	28346.23
506.06	27744.71
506.23	28002.17
506.41	27269.58
506.58	27847.69
506.76	27690.88
506.93	27510.66
507.11	26855.31
507.28	26529.97
507.46	26497.20
507.63	26256.13
507.81	26108.68
507.98	26335.71
508.16	27274.26
508.33	27910.89
508.50	27803.22
508.68	27730.67
508.85	29385.43
509.03	29172.44
509.20	28671.56
509.38	27250.86
509.55	27477.89
509.73	27992.81
509.90	27981.10
510.08	27693.22
510.25	27239.15
510.42	26984.04
510.60	28233.88
510.77	27536.40
510.95	28261.97
511.12	28173.03
511.30	29048.39
511.47	28837.74
511.64	28624.75
511.82	27805.56
511.99	26883.39
512.17	27164.26
512.34	27522.36
512.51	28208.14
512.69	27463.85
512.86	27447.46
513.04	28093.45
513.21	27164.26
513.38	26614.23
513.56	26773.39
513.73	25724.83
513.90	25991.65
514.08	26328.69
514.25	27623.00
514.43	27655.77
514.60	26937.23
514.77	27278.94
514.95	27573.85
515.12	27388.95
515.29	27309.37
515.47	27740.03
515.64	28393.04
515.81	27946.00
515.99	27569.17
516.16	25467.37
516.33	23580.90
516.51	22981.72
516.68	21717.83
516.85	21303.56
517.03	22263.18
517.20	24386.04
517.37	26394.22
517.54	26874.03
517.72	26232.72
517.89	23899.21
518.06	23365.57
518.24	24175.39
518.41	25851.22
518.58	26190.59
518.75	25605.46
518.93	25865.26
519.10	26092.29
519.27	26775.73
519.45	27475.55
519.62	28065.36
519.79	27154.90
519.96	27180.64
520.14	26932.54
520.31	25727.17
520.48	26867.01
520.65	26298.26
520.83	28133.24
521.00	28285.37
521.17	27524.70
521.34	26541.68
521.52	27779.82
521.69	28334.53
521.86	28390.70
522.03	27857.06
522.20	26139.10
522.38	26052.50
522.55	25865.26
522.72	26490.18
522.89	27103.40
523.07	27754.07
523.24	28067.70
523.41	28306.44
523.58	28411.76
523.75	28631.77
523.92	28615.39
524.10	29071.79
524.27	28830.72
524.44	27908.55
524.61	27604.28
524.78	28577.94
524.96	27520.02
525.13	27707.26
525.30	28121.54
525.47	27756.41
525.64	27580.87
525.81	26471.46
525.98	25694.40
526.16	25127.99
526.33	24360.30
526.50	23353.87
526.67	23751.76
526.84	24620.10
527.01	24985.22
527.18	26211.66
527.36	27662.79
527.53	27985.79
527.70	26923.18
527.87	26806.16
528.04	28135.58
528.21	27197.02
528.38	28526.45
528.55	29834.81
528.72	29235.63
528.89	28819.02
529.07	27871.10
529.24	27164.26
529.41	26553.38
529.58	26651.68
529.75	27108.08
529.92	27365.54
530.09	27618.32
530.26	28428.15
530.43	28376.66
530.60	27491.93
530.77	28355.59
530.94	28327.50
531.11	28081.75
531.28	28156.64
531.46	27424.06
531.63	27304.69
531.80	26529.97
531.97	26529.97
532.14	26139.10
532.31	24753.51
532.48	25057.78
532.65	25397.15
532.82	26527.63
532.99	27606.62
533.16	27936.63
533.33	27730.67
533.50	27552.79
533.67	26808.50
533.84	26794.45
534.01	26464.44
534.18	27250.86
534.35	27234.47
534.52	27445.12
534.69	28051.32
534.86	27442.78
535.03	28030.26
535.20	28781.57
535.37	29509.47
535.54	28704.33
535.71	28416.44
535.88	27896.85
536.05	27498.95
536.22	26932.54
536.38	26572.10
536.55	25366.73
536.72	25706.10
536.89	25998.67
537.06	26731.26
537.23	27695.56
537.40	27164.26
537.57	27358.52
537.74	27800.88
537.91	26899.78
538.08	26499.55
538.25	27611.30
538.42	27880.46
538.59	27131.49
538.75	26733.60
538.92	25937.82
539.09	25223.95
539.26	25766.96
539.43	25837.17
539.60	25184.16
539.77	25710.78
539.94	25071.82
540.11	24896.28
540.28	24800.32
540.44	24765.21
540.61	25504.82
540.78	26352.09
540.95	26185.91
541.12	25553.97
541.29	26286.56
541.46	26185.91
541.62	25961.22
541.79	25530.56
541.96	25469.71
542.13	25233.32
542.30	25834.83
542.47	26403.58
542.63	26204.64
542.80	25834.83
542.97	26349.75
543.14	25174.80
543.31	25085.86
543.48	25642.91
543.64	26548.70
543.81	25846.54
543.98	26295.92
544.15	25631.21
544.32	25483.75
544.48	26101.65
544.65	25907.39
544.82	25893.35
544.99	25362.04
545.16	25390.13
545.32	25455.67
545.49	26494.86
545.66	26955.95
545.83	26380.18
546.00	25589.08
546.16	25647.59
546.33	25610.14
546.50	25909.73
546.67	26593.17
546.83	25476.73
547.00	25315.23
547.17	25053.09
547.34	25135.01
547.50	23845.38
547.67	24545.20
547.84	25528.22
548.00	25116.29
548.17	25195.87
548.34	25240.34
548.51	25364.39
548.67	25317.57
548.84	25713.13
549.01	25703.76
549.18	25563.33
549.34	25331.62
549.51	25315.23
549.68	25603.12
549.84	25902.71
550.01	26096.97
550.18	26005.69
550.34	24854.15
550.51	24755.85
550.68	24821.38
550.84	25111.61
551.01	24308.80
551.18	24978.20
551.34	25734.19
551.51	24879.89
551.68	24884.58
551.84	24776.91
552.01	25043.73
552.18	23936.66
552.34	23988.15
552.51	24517.11
552.68	24355.61
552.84	24563.92
553.01	24999.26
553.18	24999.26
553.34	25263.74
553.51	25340.98
553.67	25303.53
553.84	24751.17
554.01	24753.51
554.17	24311.14
554.34	24582.65
554.51	24676.27
554.67	25207.57
554.84	25273.10
555.00	24709.04
555.17	24297.10
555.33	25111.61
555.50	25329.28
555.67	24589.67
555.83	24795.64
556.00	24411.79
556.16	24222.20
556.33	23948.36
556.50	24320.51
556.66	23590.26
556.83	22970.02
556.99	23367.91
557.16	22960.66
557.32	23517.70
557.49	23681.54
557.65	23903.89
557.82	24098.16
557.98	23779.84
558.15	23084.70
558.32	22899.80
558.48	22642.34
558.65	22293.60
558.81	22197.64
558.98	22726.60
559.14	22834.27
559.31	23782.18
559.47	23171.30
559.64	22347.44
559.80	21979.97
559.97	21832.52
560.13	23126.83
560.30	23353.87
560.46	24037.30
560.63	25195.87
560.79	25577.37
560.96	24112.20
561.12	22637.66
561.29	22228.07
561.45	22728.94
561.61	22382.54
561.78	22230.41
561.94	22061.89
562.11	23005.13
562.27	22735.96
562.44	22930.23
562.60	24056.03
562.77	23466.21
562.93	23880.49
563.10	24056.03
563.26	22913.84
563.42	22815.54
563.59	22621.28
563.75	22314.67
563.92	22157.85
564.08	22576.81
564.24	22532.34
564.41	21977.63
564.57	22885.76
564.74	22920.87
564.90	22506.59
565.07	21479.10
565.23	21289.51
565.39	21621.87
565.56	22094.66
565.72	21486.12
565.88	21837.20
566.05	22382.54
566.21	21701.45
566.38	21460.37
566.54	22405.95
566.70	22902.14
566.87	22380.20
567.03	22452.76
567.19	23047.26
567.36	21661.66
567.52	21703.79
567.68	21518.89
567.85	21530.59
568.01	20601.40
568.17	20978.22
568.34	20589.69
568.50	20814.38
568.66	21254.40
568.83	20573.31
568.99	20709.06
569.15	20671.61
569.32	20695.02
569.48	21179.51
569.64	21001.63
569.81	21088.23
569.97	20496.07
570.13	20222.23
570.30	20166.06
570.46	20266.70
570.62	20100.52
570.78	19489.64
570.95	20486.71
571.11	20741.83
571.27	20493.73
571.43	20613.10
571.60	21135.04
571.76	21067.16
571.92	21729.53
572.09	21572.72
572.25	21460.37
572.41	21570.38
572.57	22541.70
572.74	21956.57
572.90	21186.53
573.06	20952.48
573.22	21214.62
573.38	21322.28
573.55	20882.26
573.71	21001.63
573.87	20664.59
574.03	21006.31
574.20	20613.10
574.36	20013.92
574.52	20334.57
574.68	21275.47
574.84	19875.83
575.01	19784.55
575.17	19463.90
575.33	19866.47
575.49	19466.24
575.65	19632.41
575.82	19363.25
575.98	20262.02
576.14	19796.25
576.30	20123.93
576.46	19864.13
576.62	19847.74
576.79	19950.73
576.95	19674.54
577.11	20306.49
577.27	19868.81
577.43	19866.47
577.59	19981.15
577.75	20205.84
577.92	19763.48
578.08	19470.92
578.24	19674.54
578.40	20301.81
578.56	19482.62
578.72	19384.32
578.88	19145.58
579.04	19278.99
579.21	19583.26
579.37	19417.08
579.53	19386.66
579.69	19770.51
579.85	19899.23
580.01	18691.52
580.17	18099.36
580.33	19470.92
580.49	19985.83
580.65	19061.32
580.82	18923.23
580.98	18824.93
581.14	18630.66
581.30	18494.91
581.46	18941.96
581.62	19143.24
581.78	19211.12
581.94	19204.10
582.10	19002.81
582.26	19293.04
582.42	20196.48
582.58	20407.13
582.74	19953.07
582.90	20341.60
583.06	20498.41
583.22	20212.87
583.38	19749.44
583.54	19545.81
583.70	19403.04
583.86	19742.42
584.02	19658.16
584.18	19594.96
584.34	20102.86
584.50	19960.09
584.66	19403.04
584.82	18883.44
584.98	18806.20
585.14	18567.47
585.30	18207.03
585.46	18139.15
585.62	18384.91
585.78	17975.31
585.94	18256.18
586.10	17961.27
586.26	18087.66
586.42	18572.15
586.58	18380.23
586.74	18548.75
586.90	18780.46
587.06	18338.10
587.22	18228.09
587.38	17476.78
