SpectraSuite Data File
++++++++++++++++++++++++++++++++++++
Date: Mon Oct 07 14:55:01 GMT-05:00 2013
User: price-jones
Dark Spectrum Present: No
Reference Spectrum Present: No
Number of Sampled Component Spectra: 1
Spectrometers: USB2+H05261
Integration Time (usec): 10000 (USB2+H05261)
Spectra Averaged: 1 (USB2+H05261)
Boxcar Smoothing: 0 (USB2+H05261)
Correct for Electrical Dark: No (USB2+H05261)
Strobe/Lamp Enabled: No (USB2+H05261)
Correct for Detector Non-linearity: No (USB2+H05261)
Correct for Stray Light: No (USB2+H05261)
Number of Pixels in Processed Spectrum: 2048
>>>>>Begin Processed Spectral Data<<<<<
365.73	0.00
365.92	0.00
366.12	0.00
366.32	0.00
366.52	0.00
366.72	0.00
366.91	0.00
367.11	0.00
367.31	0.00
367.51	0.00
367.70	0.00
367.90	0.00
368.10	0.00
368.30	0.00
368.49	0.00
368.69	0.00
368.89	0.00
369.09	0.00
369.28	0.00
369.48	0.00
369.68	0.00
369.87	0.00
370.07	0.00
370.27	0.00
370.47	379.17
370.66	2504.37
370.86	2782.90
371.06	3012.27
371.25	3040.36
371.45	2717.36
371.65	2377.98
371.84	2375.64
372.04	2478.63
372.24	2736.09
372.44	2883.54
372.63	2846.09
372.83	2527.78
373.03	2195.42
373.22	2172.02
373.42	2399.05
373.62	2595.65
373.81	2881.20
374.01	2822.69
374.21	2487.99
374.40	2284.36
374.60	2558.21
374.79	2979.50
374.99	3265.05
375.19	3358.67
375.38	3370.37
375.58	3309.52
375.78	3309.52
375.97	3346.97
376.17	3302.50
376.37	3508.46
376.56	3407.82
376.76	3749.54
376.95	3988.27
377.15	4219.99
377.35	4344.03
377.54	4547.66
377.74	4720.86
377.93	4709.16
378.13	4444.68
378.33	4243.39
378.52	3868.91
378.72	3936.78
378.91	3634.85
379.11	3658.26
379.31	3414.84
379.50	3545.91
379.70	3967.21
379.89	4397.87
380.09	4484.47
380.28	4676.39
380.48	4390.84
380.68	4498.51
380.87	4262.12
381.07	4067.85
381.26	3730.81
381.46	3405.48
381.65	3468.67
381.85	3169.09
382.04	3089.51
382.24	2939.71
382.43	2827.37
382.63	2794.60
382.83	2771.19
383.02	2647.15
383.22	2710.34
383.41	2906.95
383.61	3049.72
383.80	3576.34
384.00	4121.68
384.19	4327.65
384.39	4596.81
384.58	4613.20
384.78	4526.60
384.97	4500.85
385.17	4168.49
385.36	3957.85
385.56	3882.95
385.75	3962.53
385.95	4601.49
386.14	4800.44
386.34	4770.01
386.53	4344.03
386.72	4280.84
386.92	4404.89
387.11	4638.94
387.31	4741.93
387.50	4627.24
387.70	4458.72
387.89	4423.61
388.09	4575.75
388.28	4444.68
388.48	4863.63
388.67	5191.31
388.86	5589.20
389.06	6010.50
389.25	6277.32
389.45	6099.44
389.64	6115.82
389.84	5991.77
390.03	5863.04
390.22	6160.29
390.42	6670.53
390.61	6808.62
390.81	7133.95
391.00	7365.67
391.19	7180.76
391.39	6946.71
391.58	6270.30
391.78	6176.67
391.97	5874.74
392.16	5444.09
392.36	4732.56
392.55	3805.71
392.75	3070.78
392.94	2572.25
393.13	2703.32
393.33	3351.65
393.52	4285.52
393.71	5095.35
393.91	5575.16
394.10	6209.44
394.29	6871.81
394.49	7089.48
394.68	7784.62
394.88	7625.47
395.07	7840.79
395.26	7721.43
395.46	7508.44
395.65	7028.63
395.84	6017.52
396.04	4966.62
396.23	3887.63
396.42	3459.31
396.62	3590.38
396.81	4411.91
397.00	5753.04
397.19	6726.70
397.39	7985.91
397.58	8945.53
397.77	9390.23
397.97	9518.96
398.16	9947.28
398.35	10188.35
398.55	10413.04
398.74	10684.55
398.93	10820.30
399.12	10775.83
399.32	10422.41
399.51	10698.59
399.70	11875.88
399.90	11192.44
400.09	11002.86
400.28	11171.38
400.47	11346.92
400.67	12105.25
400.86	12351.01
401.05	12182.49
401.24	12226.96
401.44	12669.32
401.63	12599.10
401.82	12697.41
402.01	12699.75
402.21	12826.14
402.40	12940.82
402.59	12400.16
402.78	11730.76
402.97	11494.37
403.17	12184.83
403.36	12769.96
403.55	13249.77
403.74	13357.44
403.93	12603.78
404.13	11597.35
404.32	11515.44
404.51	12444.63
404.70	13041.46
404.89	12985.29
405.09	12978.27
405.28	12582.72
405.47	12559.31
405.66	12608.47
405.85	12037.38
406.05	11690.98
406.24	12222.28
406.43	12713.79
406.62	12861.24
406.81	12961.89
407.00	12765.28
407.20	12470.37
407.39	12648.26
407.58	13205.30
407.77	13710.86
407.96	13968.32
408.15	14223.44
408.34	14408.34
408.54	14782.82
408.73	14789.85
408.92	14792.19
409.11	13891.08
409.30	13511.91
409.49	12341.64
409.68	11889.92
409.87	11836.09
410.07	12751.24
410.26	13844.27
410.45	14111.09
410.64	14595.58
410.83	14934.96
411.02	15410.09
411.21	15829.04
411.40	15810.32
411.59	15833.72
411.78	15985.86
411.98	15922.66
412.17	15704.99
412.36	15943.73
412.55	15674.57
412.74	15033.26
412.93	14932.62
413.12	15279.02
413.31	16781.64
413.50	16933.78
413.69	17125.70
413.88	15927.35
414.07	15796.28
414.26	16301.83
414.45	16765.26
414.64	16615.46
414.83	16702.06
415.02	16439.92
415.22	16776.96
415.41	17018.04
415.60	17497.84
415.79	17940.21
415.98	18478.53
416.17	18258.52
416.36	18094.68
416.55	17846.58
416.74	16875.26
416.93	16664.61
417.12	16657.59
417.31	16744.19
417.50	17029.74
417.69	17706.15
417.88	17572.74
418.07	17270.81
418.26	17425.29
418.45	17771.69
418.64	18345.12
418.83	19056.64
419.02	18310.01
419.21	17666.36
419.39	17249.75
419.58	16578.01
419.77	16699.72
419.96	17914.46
420.15	18700.88
420.34	19527.09
420.53	20060.73
420.72	19999.88
420.91	19665.18
421.10	19396.02
421.29	19386.66
421.48	18920.89
421.67	19903.92
421.86	18881.10
422.05	17593.81
422.24	16149.70
422.43	16711.42
422.61	18366.18
422.80	19344.53
422.99	18143.83
423.18	17841.90
423.37	18190.64
423.56	18354.48
423.75	18424.70
423.94	19126.86
424.13	18008.08
424.32	18017.44
424.50	17715.51
424.69	18284.26
424.88	18349.80
425.07	18036.17
425.26	17877.01
425.45	17383.16
425.64	17343.37
425.83	17706.15
426.01	18838.97
426.20	18726.63
426.39	18342.78
426.58	16830.79
426.77	15953.09
426.96	15513.07
427.15	16341.62
427.33	17748.28
427.52	18530.02
427.71	18497.25
427.90	17839.56
428.09	17996.38
428.28	17202.94
428.46	16957.18
428.65	16683.34
428.84	17277.83
429.03	17504.87
429.22	16409.50
429.40	15164.33
429.59	13785.76
429.78	12318.24
429.97	12453.99
430.16	12685.70
430.34	12568.68
430.53	13111.68
430.72	13429.99
430.91	15211.14
431.10	17729.56
431.28	20386.07
431.47	22054.87
431.66	21165.46
431.85	19091.75
432.03	17781.05
432.22	17905.10
432.41	18951.32
432.60	20603.74
432.79	21223.98
432.97	21900.39
433.16	20807.36
433.35	18527.68
433.54	16821.43
433.72	16411.84
433.91	17408.90
434.10	19929.66
434.28	20982.90
434.47	21179.51
434.66	20472.67
434.85	20205.84
435.03	20851.83
435.22	20896.30
435.41	22305.31
435.59	22555.74
435.78	22581.49
435.97	23082.36
436.16	22864.69
436.34	22747.67
436.53	22218.71
436.72	22354.46
436.90	21111.63
437.09	21167.80
437.28	20882.26
437.46	21710.81
437.65	21202.91
437.84	18963.02
438.02	18597.90
438.21	18827.27
438.40	19447.51
438.58	21104.61
438.77	21050.78
438.96	21720.17
439.14	22951.29
439.33	23255.56
439.52	23644.09
439.70	22593.19
439.89	21834.86
440.08	21308.24
440.26	21970.61
440.45	22827.24
440.63	24402.43
440.82	25333.96
441.01	24341.57
441.19	24907.98
441.38	25436.94
441.57	26438.69
441.75	26288.90
441.94	26548.70
442.12	26424.65
442.31	27267.24
442.50	26773.39
442.68	25977.61
442.87	26162.51
443.05	25493.12
443.24	26143.78
443.43	26869.35
443.61	27290.65
443.80	27674.49
443.98	26244.43
444.17	25982.29
444.35	27725.99
444.54	28180.05
444.73	27204.05
444.91	25935.48
445.10	24968.84
445.28	24189.44
445.47	23810.27
445.65	24166.03
445.84	25645.25
446.02	25755.26
446.21	26345.07
446.39	26324.01
446.58	26904.46
446.77	27101.06
446.95	27449.80
447.14	28187.07
447.32	28673.90
447.51	27733.01
447.69	26691.47
447.88	26749.98
448.06	27419.38
448.25	27545.76
448.43	27274.26
448.62	27496.61
448.80	26979.36
448.99	26909.14
449.17	27580.87
449.36	27903.87
449.54	28720.71
449.73	28931.36
449.91	29418.19
450.10	30457.39
450.28	30504.20
450.46	30349.73
450.65	30249.08
450.83	30092.27
451.02	29317.55
451.20	29383.09
451.39	29474.37
451.57	29392.45
451.76	29598.41
451.94	28460.91
452.13	28018.55
452.31	26480.82
452.49	25500.14
452.68	25991.65
452.86	26434.01
453.05	27044.89
453.23	28175.37
453.42	28634.11
453.60	29233.29
453.78	28999.24
453.97	28706.67
454.15	28458.57
454.34	27344.48
454.52	27639.39
454.70	27452.14
454.89	28046.64
455.07	28348.57
455.26	28540.49
455.44	29670.97
455.62	30113.33
455.81	29607.78
455.99	29905.02
456.17	30375.47
456.36	30672.72
456.54	31091.68
456.73	30412.92
456.91	30810.81
457.09	31449.78
457.28	31838.31
457.46	30190.57
457.64	30202.27
457.83	29638.20
458.01	29659.27
458.19	30417.60
458.38	31180.62
458.56	30972.31
458.74	30609.53
458.93	30230.36
459.11	29542.24
459.29	29638.20
459.48	30342.70
459.66	29532.88
459.84	30223.34
460.03	30473.78
460.21	30883.37
460.39	31896.82
460.57	31161.89
460.76	31267.22
460.94	31761.07
461.12	31826.60
461.31	31847.67
461.49	31627.66
461.67	31952.99
461.85	32346.20
462.04	31978.74
462.22	32231.52
462.40	32254.92
462.59	31384.24
462.77	31627.66
462.95	31840.65
463.13	31768.09
463.32	31246.15
463.50	31136.15
463.68	31246.15
463.86	31864.05
464.05	30909.11
464.23	30536.97
464.41	30581.44
464.59	30211.64
464.78	31180.62
464.96	31248.49
465.14	30485.48
465.32	32219.81
465.50	32961.76
465.69	33179.43
465.87	32320.46
466.05	31215.72
466.23	29977.58
466.41	29221.59
466.60	30103.97
466.78	29860.55
466.96	30478.46
467.14	31529.36
467.32	31578.51
467.51	31391.26
467.69	30356.75
467.87	30572.08
468.05	31379.56
468.23	31241.47
468.41	30988.69
468.60	31679.15
468.78	32123.85
468.96	31515.31
469.14	31985.76
469.32	31896.82
469.50	30316.96
469.69	31009.76
469.87	30700.81
470.05	30312.28
470.23	30246.74
470.41	30714.85
470.59	30813.15
470.77	31068.27
470.95	31887.46
471.14	32456.21
471.32	32470.25
471.50	33923.72
471.68	34279.49
471.86	34653.97
472.04	34106.29
472.22	34209.27
472.40	32924.32
472.58	32451.53
472.77	32730.05
472.95	33046.02
473.13	33923.72
473.31	32723.03
473.49	32598.98
473.67	33504.77
473.85	34125.01
474.03	35924.88
474.21	35798.49
474.39	35728.28
474.57	35374.86
474.75	35714.23
474.93	35267.19
475.12	33961.17
475.30	34558.01
475.48	34286.51
475.66	34686.74
475.84	33979.90
476.02	34232.68
476.20	34157.78
476.38	34778.02
476.56	35590.19
476.74	36570.87
476.92	36378.95
477.10	36428.10
477.28	37263.67
477.46	37469.64
477.64	37923.70
477.82	38888.00
478.00	38834.17
478.18	37298.78
478.36	37160.69
478.54	37689.65
478.72	38597.77
478.90	39807.83
479.08	41361.95
479.26	40987.46
479.44	41102.15
479.62	39950.60
479.80	41209.81
479.98	40561.48
480.16	41418.12
480.34	40119.12
480.52	41296.41
480.70	42066.45
480.88	41251.94
481.06	42281.78
481.24	42054.75
481.41	43192.25
481.59	44261.87
481.77	42618.81
481.95	42471.36
482.13	41951.76
482.31	43000.32
482.49	43531.62
482.67	42614.13
482.85	43117.35
483.03	43005.00
483.21	44638.70
483.39	43997.39
483.57	42965.21
483.74	43613.54
483.92	44561.46
484.10	43871.00
484.28	44364.85
484.46	43929.51
484.64	45876.84
484.82	44648.06
485.00	44411.67
485.18	43496.52
485.35	41013.21
485.53	36130.85
485.71	34497.16
485.89	35026.12
486.07	37691.99
486.25	40421.05
486.43	42181.13
486.61	42562.64
486.78	42546.26
486.96	43992.71
487.14	44928.92
487.32	45624.06
487.50	46766.24
487.68	47770.33
487.85	49172.31
488.03	47959.92
488.21	48053.54
488.39	47021.36
488.57	46195.15
488.75	45982.16
488.92	47515.22
489.10	49633.40
489.28	50670.26
489.46	52257.14
489.64	51812.44
489.81	51924.78
489.99	51072.83
490.17	51260.07
490.35	51271.78
490.53	50738.13
490.70	50389.39
490.88	50431.52
491.06	51753.93
491.24	51929.47
491.41	50450.25
491.59	48914.86
491.77	48713.57
491.95	50143.64
492.13	51819.46
492.30	52418.64
492.48	53073.99
492.66	53488.26
492.84	53130.16
493.01	52919.51
493.19	52971.00
493.37	52011.38
493.54	52783.76
493.72	53614.65
493.90	53806.58
494.08	54274.68
494.25	54438.52
494.43	54990.89
494.61	55529.21
494.79	55220.26
494.96	55477.72
495.14	55288.13
495.32	53886.15
495.49	54143.61
495.67	54829.39
495.85	55718.79
496.02	56449.04
496.20	56030.08
496.38	55650.92
496.55	55559.64
496.73	56493.51
496.91	56303.93
497.09	56252.44
497.26	56561.39
497.44	56516.92
497.62	55203.88
497.79	54419.80
497.97	53563.16
498.14	54564.91
498.32	55781.99
498.50	55552.62
498.67	55772.63
498.85	55987.95
499.03	56608.20
499.20	57038.86
499.38	56184.56
499.56	55657.94
499.73	55442.61
499.91	55330.26
500.08	54602.36
500.26	54057.01
500.44	54986.21
500.61	55688.37
500.79	55231.96
500.97	55257.71
501.14	54354.26
501.32	54195.10
501.49	54344.90
501.67	54838.75
501.84	55100.89
502.02	55735.18
502.20	56376.48
502.37	56673.73
502.55	56741.61
502.72	57013.11
502.90	57567.82
503.07	57198.01
503.25	55789.01
503.43	55187.49
503.60	54920.67
503.78	54588.31
503.95	54848.11
504.13	56214.99
504.30	56589.47
504.48	56250.09
504.65	56055.83
504.83	56371.80
505.01	57158.22
505.18	57539.73
505.36	57759.74
505.53	57979.75
505.71	58227.85
505.88	58216.14
506.06	57689.52
506.23	57446.11
506.41	57228.44
506.58	57506.96
506.76	57616.97
506.93	56800.12
507.11	56931.19
507.28	56966.30
507.46	56463.08
507.63	56294.56
507.81	55569.00
507.98	56346.06
508.16	57443.77
508.33	57528.03
508.50	57703.57
508.68	58185.72
508.85	58349.56
509.03	58740.42
509.20	57928.26
509.38	56685.43
509.55	56935.87
509.73	57069.28
509.90	57406.32
510.08	57476.54
510.25	56999.07
510.42	57080.98
510.60	57654.42
510.77	57874.43
510.95	58028.90
511.12	58138.91
511.30	58852.77
511.47	59112.57
511.64	58958.09
511.82	58962.78
511.99	57996.13
512.17	57822.93
512.34	57415.68
512.51	57151.20
512.69	57649.74
512.86	57380.57
513.04	57904.85
513.21	57202.69
513.38	56296.91
513.56	56231.37
513.73	55576.02
513.90	56629.26
514.08	56755.65
514.25	56142.43
514.43	57027.15
514.60	57139.50
514.77	57310.36
514.95	57640.37
515.12	57319.72
515.29	58038.26
515.47	58646.80
515.64	58307.43
515.81	57696.55
515.99	56921.83
516.16	55035.36
516.33	52767.38
516.51	52430.34
516.68	51255.39
516.85	49991.50
517.03	52315.65
517.20	54930.03
517.37	56886.72
517.54	57801.87
517.72	56112.00
517.89	53017.82
518.06	51835.84
518.24	53045.90
518.41	55313.88
518.58	56252.44
518.75	56076.90
518.93	56268.82
519.10	55756.24
519.27	56811.82
519.45	57226.10
519.62	57808.89
519.79	57771.44
519.96	57237.80
520.14	57095.03
520.31	55964.55
520.48	56222.01
520.65	57209.71
520.83	58054.65
521.00	57984.43
521.17	57474.20
521.34	57258.87
521.52	58080.39
521.69	58152.95
521.86	58611.70
522.03	58698.30
522.20	56612.88
522.38	56060.51
522.55	56966.30
522.72	57310.36
522.89	56629.26
523.07	57481.22
523.24	57836.98
523.41	58990.86
523.58	59262.36
523.75	59580.68
523.92	59054.06
524.10	58461.90
524.27	58475.94
524.44	58251.25
524.61	58003.16
524.78	58239.55
524.96	58307.43
525.13	58475.94
525.30	58915.96
525.47	59135.98
525.64	58993.20
525.81	57958.69
525.98	56383.51
526.16	54876.20
526.33	55154.72
526.50	54719.38
526.67	54557.89
526.84	54988.55
527.01	56027.74
527.18	56554.36
527.36	57509.30
527.53	58424.45
527.70	57769.10
527.87	56537.98
528.04	57717.61
528.21	58344.87
528.38	58843.41
528.55	59627.49
528.72	59332.58
528.89	59086.82
529.07	58614.04
529.24	57490.58
529.41	57401.64
529.58	57261.21
529.75	58253.59
529.92	58457.22
530.09	58277.00
530.26	58812.98
530.43	59751.54
530.60	58607.01
530.77	59161.72
530.94	59480.03
531.11	58459.56
531.28	58955.75
531.46	58922.99
531.63	58651.48
531.80	58178.70
531.97	57485.90
532.14	57668.46
532.31	56034.77
532.48	55618.15
532.65	55945.83
532.82	56477.13
532.99	57818.25
533.16	58206.78
533.33	58145.93
533.50	58574.25
533.67	58618.72
533.84	57600.58
534.01	57984.43
534.18	57972.73
534.35	57794.85
534.52	57036.51
534.69	57808.89
534.86	58417.43
535.03	58810.64
535.20	58436.16
535.37	59271.73
535.54	59620.47
535.71	59295.13
535.88	59681.32
536.05	58021.88
536.22	57476.54
536.38	57268.23
536.55	56484.15
536.72	56317.97
536.89	57216.74
537.06	57235.46
537.23	57645.05
537.40	57708.25
537.57	57649.74
537.74	57946.98
537.91	57937.62
538.08	57638.03
538.25	57642.71
538.42	58394.03
538.59	58150.61
538.75	57003.75
538.92	56437.34
539.09	56676.07
539.26	56708.84
539.43	56404.57
539.60	56917.15
539.77	57406.32
539.94	56858.63
540.11	56332.01
540.28	56163.50
540.44	55763.26
540.61	55547.93
540.78	56346.06
540.95	56713.52
541.12	57162.90
541.29	57609.95
541.46	57785.49
541.62	57818.25
541.79	56968.64
541.96	56460.74
542.13	56135.41
542.30	56416.27
542.47	57322.06
542.63	56868.00
542.80	56818.84
542.97	56198.60
543.14	56296.91
543.31	56161.15
543.48	57607.61
543.64	57785.49
543.81	59126.61
543.98	58494.67
544.15	56865.66
544.32	57586.54
544.48	57017.79
544.65	57209.71
544.82	57733.99
544.99	56179.88
545.16	55870.93
545.32	55903.70
545.49	56868.00
545.66	57095.03
545.83	56711.18
546.00	57378.23
546.16	57249.50
546.33	56846.93
546.50	57146.52
546.67	57539.73
546.83	56577.77
547.00	57303.34
547.17	56168.18
547.34	55161.75
547.50	55451.97
547.67	56526.28
547.84	57380.57
548.00	56942.89
548.17	56851.61
548.34	57130.14
548.51	57347.81
548.67	57443.77
548.84	57434.41
549.01	57492.92
549.18	56720.54
549.34	56846.93
549.51	57092.69
549.68	57113.75
549.84	56530.96
550.01	56158.81
550.18	55814.76
550.34	55957.53
550.51	56392.87
550.68	56970.98
550.84	56704.16
551.01	56142.43
551.18	55987.95
551.34	55173.45
551.51	56788.42
551.68	56411.59
551.84	56556.70
552.01	56559.05
552.18	56186.90
552.34	55477.72
552.51	55196.85
552.68	55241.32
552.84	55339.63
553.01	55669.64
553.18	56540.32
553.34	56472.45
553.51	56645.65
553.67	56278.18
553.84	55856.88
554.01	56540.32
554.17	55826.46
554.34	56163.50
554.51	56264.14
554.67	55517.51
554.84	55426.23
555.00	55650.92
555.17	55716.45
555.33	55309.20
555.50	54724.07
555.67	55557.30
555.83	55587.72
556.00	55433.25
556.16	54831.73
556.33	54433.84
556.50	55400.48
556.66	55360.69
556.83	54930.03
556.99	54384.69
557.16	54859.82
557.32	54555.55
557.49	54894.92
557.65	54550.87
557.82	55370.05
557.98	55683.69
558.15	54501.71
558.32	53380.60
558.48	52954.62
558.65	53315.06
558.81	53420.39
558.98	54241.92
559.14	54761.51
559.31	54368.30
559.47	53794.87
559.64	53567.84
559.80	53069.31
559.97	54246.60
560.13	54892.58
560.30	55983.27
560.46	56170.52
560.63	56425.64
560.79	56303.93
560.96	55384.10
561.12	54122.55
561.29	53394.64
561.45	53453.15
561.61	55124.30
561.78	54408.09
561.94	54997.91
562.11	55065.78
562.27	54024.25
562.44	54892.58
562.60	55145.36
562.77	55131.32
562.93	54108.50
563.10	54080.42
563.26	53909.56
563.42	54787.26
563.59	54113.19
563.75	53694.23
563.92	53792.53
564.08	53083.35
564.24	54216.17
564.41	53818.28
564.57	54490.01
564.74	54309.79
564.90	53202.72
565.07	53464.86
565.23	52442.04
565.39	52500.56
565.56	52706.52
565.72	52846.96
565.88	51285.82
566.05	53675.51
566.21	54028.93
566.38	53544.44
566.54	53619.33
566.70	54160.00
566.87	54129.57
567.03	52931.22
567.19	54649.17
567.36	54990.89
567.52	53401.66
567.68	53324.43
567.85	52018.41
568.01	52317.99
568.17	52715.89
568.34	53352.51
568.50	52921.85
568.66	52851.64
568.83	52350.76
568.99	51800.74
569.15	52343.74
569.32	52732.27
569.48	51941.17
569.64	51618.17
569.81	52039.47
569.97	51533.92
570.13	51126.66
570.30	50515.78
570.46	49897.88
570.62	49162.95
570.78	49710.64
570.95	50536.85
571.11	50478.33
571.27	50019.59
571.43	50160.02
571.60	50274.71
571.76	51969.26
571.92	51978.62
572.09	52383.53
572.25	52334.38
572.41	53205.06
572.57	52540.35
572.74	52706.52
572.90	53752.74
573.06	52720.57
573.22	52598.86
573.38	52619.92
573.55	54131.91
573.71	52360.12
573.87	52575.45
574.03	52315.65
574.20	51683.71
574.36	51971.60
574.52	51068.15
574.68	51056.45
574.84	50122.57
575.01	50174.06
575.17	51007.29
575.33	51192.20
575.49	51185.18
575.65	50246.62
575.82	50731.11
575.98	50134.28
576.14	51222.62
576.30	51695.41
576.46	50204.49
576.62	50536.85
576.79	50588.34
576.95	50569.61
577.11	51047.08
577.27	51161.77
577.43	51367.74
577.59	50110.87
577.75	48823.58
577.92	49001.46
578.08	49289.34
578.24	50293.43
578.40	49907.24
578.56	49034.22
578.72	49366.58
578.88	48940.60
579.04	49771.49
579.21	49078.69
579.37	49705.96
579.53	50145.98
579.69	49462.54
579.85	49528.08
580.01	49619.36
580.17	49160.61
580.33	50309.82
580.49	50637.49
580.65	48481.86
580.82	49333.81
580.98	50417.48
581.14	50487.70
581.30	49844.05
581.46	49752.77
581.62	49834.69
581.78	50705.37
581.94	50644.51
582.10	51061.13
582.26	50595.36
582.42	50946.44
582.58	49235.51
582.74	49359.56
582.90	49687.23
583.06	49485.95
583.22	49984.48
583.38	49928.31
583.54	50351.94
583.70	50796.65
583.86	50396.42
584.02	49691.91
584.18	49822.98
584.34	48816.55
584.50	48451.43
584.66	48697.19
584.82	48854.00
584.98	48706.55
585.14	48170.57
585.30	48844.64
