SpectraSuite Data File
++++++++++++++++++++++++++++++++++++
Date: Mon Oct 07 14:53:56 GMT-05:00 2013
User: price-jones
Dark Spectrum Present: No
Reference Spectrum Present: No
Number of Sampled Component Spectra: 1
Spectrometers: USB2+H05261
Integration Time (usec): 100000 (USB2+H05261)
Spectra Averaged: 1 (USB2+H05261)
Boxcar Smoothing: 0 (USB2+H05261)
Correct for Electrical Dark: No (USB2+H05261)
Strobe/Lamp Enabled: No (USB2+H05261)
Correct for Detector Non-linearity: No (USB2+H05261)
Correct for Stray Light: No (USB2+H05261)
Number of Pixels in Processed Spectrum: 2048
>>>>>Begin Processed Spectral Data<<<<<
365.73	0.00
365.92	0.00
366.12	0.00
366.32	0.00
366.52	0.00
366.72	0.00
366.91	0.00
367.11	0.00
367.31	0.00
367.51	0.00
367.70	0.00
367.90	0.00
368.10	0.00
368.30	0.00
368.49	0.00
368.69	0.00
368.89	0.00
369.09	0.00
369.28	0.00
369.48	0.00
369.68	0.00
369.87	0.00
370.07	0.00
370.27	0.00
370.47	442.36
370.66	2656.51
370.86	3119.93
371.06	3595.06
371.25	3520.17
371.45	3185.47
371.65	2848.43
371.84	2576.93
372.04	2857.79
372.24	3012.27
372.44	3393.78
372.63	3288.45
372.83	3063.76
373.03	2715.02
373.22	2469.27
373.42	2628.42
373.62	2956.10
373.81	3171.43
374.01	3363.35
374.21	2986.52
374.40	2724.38
374.60	2906.95
374.79	3052.06
374.99	3772.94
375.19	4025.72
375.38	4105.30
375.58	3789.33
375.78	3779.97
375.97	3822.09
376.17	4007.00
376.37	3843.16
376.56	4021.04
376.76	4166.15
376.95	4615.54
377.15	4861.29
377.35	5111.73
377.54	5284.93
377.74	5371.53
377.93	5423.02
378.13	5284.93
378.33	4980.66
378.52	4582.77
378.72	4374.46
378.91	4355.74
379.11	4196.58
379.31	4182.54
379.50	3948.48
379.70	4580.43
379.89	4854.27
380.09	5188.97
380.28	5200.67
380.48	5308.34
380.68	5137.48
380.87	5139.82
381.07	4699.80
381.26	4334.67
381.46	4079.55
381.65	3805.71
381.85	3836.14
382.04	3524.85
382.24	3543.57
382.43	3138.66
382.63	3033.33
382.83	3098.87
383.02	3185.47
383.22	3220.58
383.41	3133.98
383.61	3419.52
383.80	3892.31
384.00	4329.99
384.19	4894.06
384.39	5390.25
384.58	5135.14
384.78	5137.48
384.97	4980.66
385.17	4716.18
385.36	4613.20
385.56	4332.33
385.75	4416.59
385.95	4875.34
386.14	5373.87
386.34	5270.89
386.53	5170.24
386.72	4734.90
386.92	4760.65
387.11	5036.83
387.31	5341.10
387.50	5158.54
387.70	4980.66
387.89	5144.50
388.09	5022.79
388.28	5149.18
388.48	5093.01
388.67	5486.22
388.86	6090.07
389.06	6698.61
389.25	6848.41
389.45	7002.88
389.64	6782.87
389.84	6834.36
390.03	6773.51
390.22	6689.25
390.42	6949.05
390.61	7316.51
390.81	7751.85
391.00	7997.61
391.19	7971.86
391.39	7840.79
391.58	7213.53
391.78	6726.70
391.97	6801.60
392.16	6246.89
392.36	5617.29
392.55	4486.81
392.75	3653.58
392.94	2899.92
393.13	2862.48
393.33	3478.04
393.52	4507.87
393.71	5327.06
393.91	6066.67
394.10	6616.69
394.29	7382.05
394.49	7749.51
394.68	8351.03
394.88	8449.33
395.07	8854.25
395.26	8645.94
395.46	8449.33
395.65	8086.55
395.84	7222.89
396.04	5961.34
396.23	4643.62
396.42	3964.87
396.62	3679.32
396.81	4454.04
397.00	5708.57
397.19	7112.89
397.39	8301.88
397.58	9647.69
397.77	10068.98
397.97	10635.39
398.16	10436.45
398.35	10874.13
398.55	11391.39
398.74	11843.11
398.93	11810.34
399.12	11742.47
399.32	11534.16
399.51	11627.78
399.70	12634.21
399.90	12407.18
400.09	12486.76
400.28	12231.64
400.47	12273.77
400.67	12964.23
400.86	13254.45
401.05	13193.60
401.24	13142.11
401.44	13270.84
401.63	13654.69
401.82	13727.24
402.01	13540.00
402.21	13696.82
402.40	13645.32
402.59	13378.50
402.78	13027.42
402.97	12568.68
403.17	12755.92
403.36	13511.91
403.55	14270.25
403.74	14312.38
403.93	13811.50
404.13	12730.17
404.32	12332.28
404.51	12877.63
404.70	14122.79
404.89	14029.17
405.09	13933.21
405.28	13291.90
405.47	13596.17
405.66	13380.84
405.85	13158.49
406.05	12599.10
406.24	12599.10
406.43	13261.48
406.62	13743.63
406.81	13902.78
407.00	13511.91
407.20	13043.81
407.39	13303.60
407.58	13947.25
407.77	14242.16
407.96	14717.29
408.15	15094.11
408.34	15208.80
408.54	15576.27
408.73	15791.59
408.92	15875.85
409.11	15389.02
409.30	14508.98
409.49	13760.01
409.68	12861.24
409.87	12465.69
410.07	12896.35
410.26	14012.79
410.45	14991.13
410.64	15363.28
410.83	15885.22
411.02	16086.50
411.21	17266.13
411.40	16477.37
411.59	16898.67
411.78	16514.82
411.98	16446.94
412.17	16554.61
412.36	16669.30
412.55	16556.95
412.74	16205.87
412.93	15559.88
413.12	15850.11
413.31	17095.27
413.50	17359.75
413.69	17781.05
413.88	17165.49
414.07	16545.25
414.26	17181.87
414.45	17425.29
414.64	17612.53
414.83	17383.16
415.02	16842.50
415.22	17116.34
415.41	17994.04
415.60	18001.06
415.79	18913.87
415.98	19491.98
416.17	19367.93
416.36	18726.63
416.55	18464.49
416.74	18136.81
416.93	17256.77
417.12	17308.26
417.31	17631.26
417.50	17755.30
417.69	18572.15
417.88	18572.15
418.07	18408.31
418.26	18068.94
418.45	18537.04
418.64	18759.39
418.83	19461.55
419.02	19201.76
419.21	18824.93
419.39	18265.54
419.58	17326.99
419.77	17451.03
419.96	17942.55
420.15	19023.87
420.34	19543.47
420.53	20362.66
420.72	20641.18
420.91	20372.02
421.10	20058.39
421.29	20250.32
421.48	19470.92
421.67	20477.35
421.86	20121.59
422.05	18633.00
422.24	16453.97
422.43	16390.77
422.61	18134.47
422.80	19674.54
422.99	20114.56
423.18	19056.64
423.37	18473.85
423.56	18555.77
423.75	18857.70
423.94	19159.63
424.13	18085.32
424.32	18328.74
424.50	18625.98
424.69	18052.55
424.88	18078.30
425.07	18391.93
425.26	18277.24
425.45	18052.55
425.64	17628.92
425.83	17692.11
426.01	18649.39
426.20	19456.87
426.39	19023.87
426.58	17776.37
426.77	16334.60
426.96	15861.81
427.15	16374.39
427.33	17661.68
427.52	18391.93
427.71	18684.50
427.90	18368.52
428.09	18235.11
428.28	17841.90
428.46	17312.94
428.65	16861.22
428.84	17291.88
429.03	17612.53
429.22	16453.97
429.40	16229.27
429.59	14520.68
429.78	12610.81
429.97	12695.07
430.16	12901.03
430.34	12910.40
430.53	12861.24
430.72	13217.01
430.91	14780.48
431.10	17114.00
431.28	20219.89
431.47	21722.51
431.66	22104.02
431.85	20306.49
432.03	18410.65
432.22	17827.86
432.41	18190.64
432.60	20748.85
432.79	21252.06
432.97	21862.94
433.16	21252.06
433.35	19178.35
433.54	17411.25
433.72	16320.56
433.91	16795.68
434.10	18853.02
434.28	20074.77
434.47	21092.91
434.66	21041.42
434.85	20430.54
435.03	20109.88
435.22	21083.55
435.41	22153.17
435.59	22347.44
435.78	22277.22
435.97	23000.44
436.16	22974.70
436.34	22551.06
436.53	22384.88
436.72	22665.75
436.90	21111.63
437.09	21123.33
437.28	20524.16
437.46	21516.54
437.65	21617.19
437.84	19908.60
438.02	18443.42
438.21	18092.34
438.40	18974.72
438.58	20854.17
438.77	21436.97
438.96	21549.31
439.14	22075.93
439.33	22876.40
439.52	23428.76
439.70	23007.47
439.89	22368.50
440.08	21546.97
440.26	21682.72
440.45	22478.50
440.63	24109.86
440.82	25053.09
441.01	25336.30
441.19	24439.87
441.38	24680.95
441.57	25773.98
441.75	26139.10
441.94	26127.40
442.12	26199.96
442.31	26635.30
442.50	26504.23
442.68	26064.21
442.87	25652.27
443.05	25427.58
443.24	25923.77
443.43	26246.77
443.61	27220.43
443.80	27351.50
443.98	25610.14
444.17	25689.72
444.35	27068.30
444.54	28102.81
444.73	27133.83
444.91	26022.08
445.10	25200.55
445.28	24196.46
445.47	23660.48
445.65	23805.59
445.84	24746.48
446.02	25305.87
446.21	25869.94
446.39	25923.77
446.58	26195.28
446.77	26998.08
446.95	26707.85
447.14	27693.22
447.32	27934.29
447.51	27232.13
447.69	26501.89
447.88	25781.00
448.06	26546.36
448.25	26925.52
448.43	27367.88
448.62	26497.20
448.80	26794.45
448.99	26918.50
449.17	26710.19
449.36	26728.92
449.54	27725.99
449.73	28135.58
449.91	28786.25
450.10	29448.62
450.28	29699.06
450.46	29694.38
450.65	29766.93
450.83	29462.66
451.02	28580.28
451.20	28535.81
451.39	28498.36
451.57	28587.30
451.76	28561.56
451.94	28119.20
452.13	27749.39
452.31	26745.30
452.49	25235.66
452.68	25570.35
452.86	25813.77
453.05	26111.02
453.23	26696.15
453.42	27489.59
453.60	27943.66
453.78	27964.72
453.97	27941.32
454.15	28032.60
454.34	27164.26
454.52	27885.14
454.70	27208.73
454.89	27253.20
455.07	26862.33
455.26	27953.02
455.44	28683.27
455.62	29097.54
455.81	29273.08
455.99	29188.82
456.17	28945.41
456.36	29144.35
456.54	29773.95
456.73	30272.49
456.91	30616.55
457.09	30443.35
457.28	31122.10
457.46	29666.29
457.64	29394.79
457.83	28409.42
458.01	27931.95
458.19	28620.07
458.38	28980.51
458.56	30139.08
458.74	29788.00
458.93	29120.95
459.11	28828.38
459.29	29144.35
459.48	29142.01
459.66	29177.12
459.84	29352.66
460.03	29364.36
460.21	29802.04
460.39	30445.69
460.57	30529.95
460.76	30621.23
460.94	30984.01
461.12	30270.15
461.31	30277.17
461.49	30515.90
461.67	30291.21
461.85	31552.76
462.04	31009.76
462.22	31658.09
462.40	31271.90
462.59	30866.98
462.77	30944.22
462.95	31555.10
463.13	30815.49
463.32	30632.93
463.50	30188.23
463.68	30225.68
463.86	30155.46
464.05	29905.02
464.23	29434.58
464.41	29289.46
464.59	28645.82
464.78	29970.56
464.96	29982.26
465.14	29642.88
465.32	30494.84
465.50	31402.97
465.69	31634.68
465.87	30897.41
466.05	29837.15
466.23	28884.55
466.41	27831.31
466.60	28861.15
466.78	28800.29
466.96	29280.10
467.14	29720.12
467.32	30314.62
467.51	30274.83
467.69	28697.31
467.87	29116.26
468.05	29975.24
468.23	29687.36
468.41	30129.72
468.60	30277.17
468.78	30651.66
468.96	29844.17
469.14	30948.90
469.32	30885.71
469.50	29556.28
469.69	29640.54
469.87	29032.00
470.05	28645.82
470.23	28999.24
470.41	29443.94
470.59	29663.95
470.77	29851.19
470.95	30221.00
471.14	30745.28
471.32	30857.62
471.50	32559.19
471.68	32470.25
471.86	32884.53
472.04	33076.45
472.22	32889.21
472.40	31108.06
472.58	31187.64
472.77	30635.27
472.95	31384.24
473.13	32163.64
473.31	31103.38
473.49	31505.95
473.67	32093.43
473.85	32063.00
474.03	33097.52
474.21	33207.52
474.39	33635.84
474.57	33879.25
474.75	33853.51
474.93	33385.40
475.12	32921.98
475.30	32910.27
475.48	33118.58
475.66	33254.33
475.84	32790.91
476.02	32453.87
476.20	32268.97
476.38	32437.48
476.56	33661.58
476.74	34284.17
476.92	34417.58
477.10	34881.00
477.28	36034.89
477.46	36004.46
477.64	36268.94
477.82	36570.87
478.00	36657.47
478.18	35765.73
478.36	35637.00
478.54	35859.35
478.72	35805.52
478.90	37237.92
479.08	38120.31
479.26	38679.69
479.44	38143.71
479.62	38225.63
479.80	38188.18
479.98	38202.22
480.16	38705.44
480.34	37933.06
480.52	38064.13
480.70	38548.62
480.88	38721.82
481.06	39180.57
481.24	39601.86
481.41	40657.45
481.59	41687.28
481.77	40769.79
481.95	40130.83
482.13	39845.28
482.31	40119.12
482.49	40683.19
482.67	40371.90
482.85	40734.68
483.03	41366.63
483.21	41752.82
483.39	41565.57
483.57	41034.27
483.74	40849.37
483.92	41137.26
484.10	41083.42
484.28	42267.73
484.46	42469.02
484.64	43058.84
484.82	42319.23
485.00	41750.48
485.18	40809.58
485.35	39225.04
485.53	36601.30
485.71	33221.56
485.89	32744.09
486.07	34838.87
486.25	37549.21
486.43	39674.42
486.61	40538.08
486.78	40563.82
486.96	40369.56
487.14	42466.68
487.32	43260.12
487.50	44383.58
487.68	45003.82
487.85	46270.05
488.03	45694.28
488.21	45490.65
488.39	44322.72
488.57	43777.38
488.75	43269.48
488.92	44442.09
489.10	46913.70
489.28	48650.38
489.46	49427.43
489.64	49055.29
489.81	49113.80
489.99	48921.88
490.17	48765.06
490.35	49584.25
490.53	49134.87
490.70	48308.66
490.88	48545.05
491.06	49731.70
491.24	49319.77
491.41	48074.60
491.59	46232.60
491.77	45516.40
491.95	46719.43
492.13	48301.64
492.30	49544.46
492.48	50775.58
492.66	51255.39
492.84	51236.67
493.01	50581.32
493.19	50211.51
493.37	49818.30
493.54	49492.97
493.72	50419.82
493.90	51473.06
494.08	52615.24
494.25	52479.49
494.43	52933.56
494.61	53322.08
494.79	53270.59
494.96	53001.43
495.14	52582.48
495.32	51269.43
495.49	50745.15
495.67	51629.88
495.85	53375.92
496.02	53818.28
496.20	53832.32
496.38	53022.50
496.55	52994.41
496.73	53647.42
496.91	53396.98
497.09	54134.25
497.26	54588.31
497.44	53975.09
497.62	53272.93
497.79	52402.25
497.97	51014.32
498.14	51203.90
498.32	52528.64
498.50	53474.22
498.67	53853.39
498.85	53748.06
499.03	54003.18
499.20	54183.40
499.38	54461.93
499.56	54211.49
499.73	53340.81
499.91	53261.23
500.08	52828.23
500.26	51796.06
500.44	52254.80
500.61	53003.77
500.79	53006.11
500.97	52793.12
501.14	52294.59
501.32	52177.56
501.49	52369.49
501.67	52374.17
501.84	53155.91
502.02	53195.70
502.20	53605.29
502.37	53860.41
502.55	53883.81
502.72	54370.64
502.90	55136.00
503.07	54557.89
503.25	54286.39
503.43	53628.69
503.60	52566.09
503.78	51693.07
503.95	52114.37
504.13	53806.58
504.30	54791.94
504.48	54705.34
504.65	54410.43
504.83	54251.28
505.01	55058.76
505.18	55121.96
505.36	55770.28
505.53	55781.99
505.71	56299.25
505.88	56093.28
506.06	55576.02
506.23	55344.31
506.41	54532.14
506.58	55033.02
506.76	55227.28
506.93	55044.72
507.11	54712.36
507.28	54763.85
507.46	54298.09
507.63	53846.36
507.81	53544.44
507.98	53595.93
508.16	54410.43
508.33	54852.80
508.50	55585.38
508.68	55683.69
508.85	56289.88
509.03	56212.65
509.20	56025.40
509.38	55199.19
509.55	54513.42
509.73	54604.70
509.90	55192.17
510.08	55576.02
510.25	55358.35
510.42	55210.90
510.60	55030.68
510.77	55440.27
510.95	56268.82
511.12	55917.74
511.30	56336.69
511.47	56732.25
511.64	56596.49
511.82	56191.58
511.99	55234.30
512.17	54995.57
512.34	54487.67
512.51	54770.88
512.69	54801.30
512.86	55056.42
513.04	55377.08
513.21	55391.12
513.38	55344.31
513.56	54482.99
513.73	53839.34
513.90	54028.93
514.08	54232.55
514.25	54728.75
514.43	54735.77
514.60	55061.10
514.77	54934.71
514.95	55105.57
515.12	55140.68
515.29	55274.09
515.47	55821.78
515.64	56020.72
515.81	55711.77
515.99	55025.99
516.16	53375.92
516.33	50983.89
516.51	48900.81
516.68	48226.74
516.85	47203.92
517.03	47756.29
517.20	51208.58
517.37	54164.68
517.54	55075.15
517.72	54721.72
517.89	51789.03
518.06	49162.95
518.24	49155.93
518.41	52341.40
518.58	53511.67
518.75	53979.78
518.93	53762.11
519.10	53895.52
519.27	54419.80
519.45	54714.70
519.62	55447.29
519.79	55423.89
519.96	55379.42
520.14	54955.78
520.31	53925.94
520.48	54335.54
520.65	54543.84
520.83	55360.69
521.00	55906.04
521.17	55758.58
521.34	55070.46
521.52	55262.39
521.69	55840.50
521.86	56514.58
522.03	55948.17
522.20	54415.11
522.38	53811.26
522.55	53684.87
522.72	54171.70
522.89	54370.64
523.07	54454.90
523.24	55173.45
523.41	55866.25
523.58	56367.12
523.75	56879.70
523.92	56409.25
524.10	56409.25
524.27	56509.89
524.44	56245.41
524.61	56060.51
524.78	55746.88
524.96	55945.83
525.13	55987.95
525.30	56207.97
525.47	56577.77
525.64	56542.66
525.81	55758.58
525.98	54316.81
526.16	52458.43
526.33	51765.63
526.50	51540.94
526.67	50937.08
526.84	51454.34
527.01	53008.45
527.18	53759.76
527.36	54815.35
527.53	55629.85
527.70	55891.99
527.87	55112.59
528.04	54873.86
528.21	55346.65
528.38	56163.50
528.55	56781.40
528.72	56966.30
528.89	56996.73
529.07	56818.84
529.24	56100.30
529.41	55683.69
529.58	54583.63
529.75	55140.68
529.92	55430.91
530.09	55894.33
530.26	56402.23
530.43	56746.29
530.60	56561.39
530.77	56935.87
530.94	57066.94
531.11	56626.92
531.28	56116.68
531.46	56175.20
531.63	56140.09
531.80	56184.56
531.97	55489.42
532.14	54873.86
532.31	53593.59
532.48	52786.10
532.65	52767.38
532.82	54085.10
532.99	55299.84
533.16	55447.29
533.33	56090.94
533.50	55875.61
533.67	54951.10
533.84	54761.51
534.01	55014.29
534.18	55210.90
534.35	55393.46
534.52	55164.09
534.69	55475.38
534.86	55810.07
535.03	55931.78
535.20	56559.05
535.37	56746.29
535.54	56980.34
535.71	56610.54
535.88	56097.96
536.05	55723.47
536.22	55065.78
536.38	54923.01
536.55	54279.36
536.72	53542.10
536.89	53294.00
537.06	54468.95
537.23	55430.91
537.40	55990.30
537.57	55859.23
537.74	55370.05
537.91	55426.23
538.08	55388.78
538.25	55283.45
538.42	55496.44
538.59	55288.13
538.75	54761.51
538.92	54497.03
539.09	54265.32
539.26	54094.46
539.43	53930.62
539.60	53460.18
539.77	54380.01
539.94	53834.66
540.11	53071.65
540.28	52519.28
540.44	52669.08
540.61	52959.30
540.78	53106.76
540.95	53497.62
541.12	54361.28
541.29	54447.88
541.46	54997.91
541.62	54801.30
541.79	54742.79
541.96	54232.55
542.13	53848.71
542.30	54253.62
542.47	54305.11
542.63	54394.05
542.80	53862.75
542.97	53993.82
543.14	53982.12
543.31	53930.62
543.48	54375.33
543.64	55379.42
543.81	55660.28
543.98	55440.27
544.15	54855.14
544.32	53963.39
544.48	54380.01
544.65	54660.87
544.82	55089.19
544.99	54796.62
545.16	54220.85
545.32	54012.54
545.49	55058.76
545.66	55487.08
545.83	54908.97
546.00	54433.84
546.16	54293.41
546.33	54286.39
546.50	54209.15
546.67	54438.52
546.83	54218.51
547.00	54071.06
547.17	53471.88
547.34	52978.03
547.50	52676.10
547.67	53263.57
547.84	53446.13
548.00	54073.40
548.17	54101.48
548.34	54099.14
548.51	54092.12
548.67	54262.98
548.84	54042.97
549.01	54286.39
549.18	53939.99
549.34	54206.81
549.51	54237.23
549.68	53872.11
549.84	53757.42
550.01	54059.35
550.18	53490.60
550.34	53584.22
550.51	53879.13
550.68	53684.87
550.84	53195.70
551.01	53078.67
551.18	53516.35
551.34	53277.61
551.51	53888.49
551.68	54089.78
551.84	54057.01
552.01	54005.52
552.18	53694.23
552.34	52952.28
552.51	52552.05
552.68	52322.68
552.84	52935.90
553.01	53228.46
553.18	53214.42
553.34	53324.43
553.51	53474.22
553.67	53722.32
553.84	53881.47
554.01	53661.46
554.17	53380.60
554.34	53677.85
554.51	53879.13
554.67	54330.86
554.84	53956.37
555.00	53642.74
555.17	53275.27
555.33	53120.80
555.50	53347.83
555.67	53095.05
555.83	53027.18
556.00	52615.24
556.16	52479.49
556.33	51854.57
556.50	51798.40
556.66	52236.08
556.83	51615.83
556.99	51812.44
557.16	52177.56
557.32	52418.64
557.49	52601.20
557.65	52591.84
557.82	52259.48
557.98	52203.31
558.15	51985.64
558.32	50932.40
558.48	50199.81
558.65	49874.48
558.81	50410.46
558.98	51049.42
559.14	51021.34
559.31	51110.28
559.47	51178.15
559.64	50876.22
559.80	50656.21
559.97	50190.45
560.13	50707.71
560.30	52079.26
560.46	52753.33
560.63	52856.32
560.79	52858.66
560.96	52222.03
561.12	51124.32
561.29	50412.80
561.45	50096.83
561.61	50932.40
561.78	51224.96
561.94	50923.04
562.11	50958.14
562.27	50693.66
562.44	51220.28
562.60	51936.49
562.77	51880.31
562.93	51672.01
563.10	51592.43
563.26	50768.56
563.42	50918.35
563.59	50703.03
563.75	50513.44
563.92	50555.57
564.08	50604.72
564.24	50993.25
564.41	51262.41
564.57	50728.77
564.74	50667.92
564.90	50976.87
565.07	50171.72
565.23	49958.73
565.39	49551.48
565.56	48861.02
565.72	48842.30
565.88	49303.38
566.05	49219.13
566.21	49563.18
566.38	49923.63
566.54	50024.27
566.70	50227.90
566.87	51023.68
567.03	50747.50
567.19	50908.99
567.36	50529.83
567.52	50197.47
567.68	49862.77
567.85	49408.71
568.01	48538.03
568.17	48301.64
568.34	48374.19
568.50	48589.52
568.66	48619.95
568.83	48914.86
568.99	48994.43
569.15	49116.14
569.32	48921.88
569.48	48781.45
569.64	49029.54
569.81	48364.83
569.97	48329.72
570.13	47866.30
570.30	47555.00
570.46	46864.55
570.62	46691.35
570.78	46136.64
570.95	46829.44
571.11	47290.52
571.27	47400.53
571.43	47777.36
571.60	48208.01
571.76	48690.16
571.92	49048.27
572.09	48786.13
572.25	49214.44
572.41	49027.20
572.57	48774.42
572.74	48486.54
572.90	48114.39
573.06	47915.45
573.22	48397.60
573.38	48222.06
573.55	48179.93
573.71	48664.42
573.87	48196.31
574.03	48116.73
574.20	48126.10
574.36	47386.49
574.52	47391.17
574.68	47400.53
574.84	46674.96
575.01	45956.42
575.17	46087.49
575.33	46714.75
575.49	46623.47
575.65	46937.10
575.82	47061.15
575.98	46286.43
576.14	46513.47
576.30	47044.77
576.46	47229.67
576.62	47014.34
576.79	47070.51
576.95	46417.50
577.11	46590.70
577.27	46791.99
577.43	46752.20
577.59	45799.60
577.75	45603.00
577.92	45076.38
578.08	44486.56
578.24	44568.48
578.40	44903.18
578.56	46050.04
578.72	45492.99
578.88	45940.04
579.04	45865.14
579.21	45862.80
579.37	46017.27
579.53	46117.92
579.69	46108.55
579.85	46307.50
580.01	46347.29
580.17	45916.63
580.33	45497.67
580.49	45471.93
580.65	45993.87
580.82	46169.41
580.98	46167.07
581.14	45734.07
581.30	46094.51
581.46	45958.76
581.62	46321.54
581.78	46216.22
581.94	46375.37
582.10	46375.37
582.26	46356.65
582.42	46305.16
582.58	46354.31
582.74	46176.43
582.90	45935.35
583.06	46000.89
583.22	46190.47
583.38	45996.21
583.54	45638.11
583.70	46127.28
583.86	45617.04
584.02	45556.19
584.18	46143.66
584.34	45425.12
584.50	45137.23
584.66	45425.12
584.82	45045.95
584.98	45130.21
585.14	44123.78
585.30	43416.94
