SpectraSuite Data File
++++++++++++++++++++++++++++++++++++
Date: Mon Oct 07 14:52:55 GMT-05:00 2013
User: price-jones
Dark Spectrum Present: No
Reference Spectrum Present: No
Number of Sampled Component Spectra: 1
Spectrometers: USB2+H05261
Integration Time (usec): 100000 (USB2+H05261)
Spectra Averaged: 1 (USB2+H05261)
Boxcar Smoothing: 0 (USB2+H05261)
Correct for Electrical Dark: No (USB2+H05261)
Strobe/Lamp Enabled: No (USB2+H05261)
Correct for Detector Non-linearity: No (USB2+H05261)
Correct for Stray Light: No (USB2+H05261)
Number of Pixels in Processed Spectrum: 2048
>>>>>Begin Processed Spectral Data<<<<<
365.73	0.00
365.92	0.00
366.12	0.00
366.32	0.00
366.52	0.00
366.72	0.00
366.91	0.00
367.11	0.00
367.31	0.00
367.51	0.00
367.70	0.00
367.90	0.00
368.10	0.00
368.30	0.00
368.49	0.00
368.69	0.00
368.89	0.00
369.09	0.00
369.28	0.00
369.48	0.00
369.68	0.00
369.87	0.00
370.07	0.00
370.27	0.00
370.47	393.21
370.66	2532.46
370.86	2937.37
371.06	3279.09
371.25	3323.56
371.45	2862.48
371.65	2600.34
371.84	2375.64
372.04	2562.89
372.24	2860.13
372.44	3084.83
372.63	2895.24
372.83	2686.94
373.03	2483.31
373.22	2249.25
373.42	2354.58
373.62	2672.89
373.81	2949.08
374.01	3033.33
374.21	2663.53
374.40	2534.80
374.60	2633.10
374.79	2988.86
374.99	3307.18
375.19	3648.90
375.38	3719.11
375.58	3461.65
375.78	3297.81
375.97	3403.14
376.17	3660.60
376.37	3662.94
376.56	3733.15
376.76	4011.68
376.95	4117.00
377.15	4353.40
377.35	4517.23
377.54	4835.55
377.74	4980.66
377.93	4919.81
378.13	4713.84
378.33	4475.10
378.52	4095.94
378.72	3887.63
378.91	3894.65
379.11	3791.67
379.31	3669.96
379.50	3751.88
379.70	4018.70
379.89	4531.28
380.09	4704.48
380.28	4828.53
380.48	4737.24
380.68	4676.39
380.87	4695.11
381.07	4229.35
381.26	4028.06
381.46	3723.79
381.65	3641.87
381.85	3379.73
382.04	3339.94
382.24	3096.53
382.43	2813.32
382.63	2773.53
382.83	2878.86
383.02	2944.39
383.22	2977.16
383.41	2956.10
383.61	3253.34
383.80	3620.81
384.00	4049.13
384.19	4564.04
384.39	4744.27
384.58	4814.48
384.78	4692.77
384.97	4713.84
385.17	4447.02
385.36	4184.88
385.56	4025.72
385.75	4210.62
385.95	4449.36
386.14	4929.17
386.34	4999.38
386.53	4720.86
386.72	4402.55
386.92	4442.34
387.11	4627.24
387.31	4901.08
387.50	4826.18
387.70	4472.76
387.89	4667.03
388.09	4723.20
388.28	4737.24
388.48	4737.24
388.67	5205.35
388.86	5575.16
389.06	6186.04
389.25	6359.24
389.45	6305.40
389.64	6408.39
389.84	6366.26
390.03	6099.44
390.22	6265.61
390.42	6415.41
390.61	6801.60
390.81	7375.03
391.00	7391.41
391.19	7360.98
391.39	6986.50
391.58	6832.02
391.78	6420.09
391.97	6111.14
392.16	5738.99
392.36	5114.07
392.55	4215.30
392.75	3248.66
392.94	2658.85
393.13	2878.86
393.33	3239.30
393.52	4086.58
393.71	5020.45
393.91	5661.76
394.10	6118.16
394.29	6637.76
394.49	7243.96
394.68	7999.95
394.88	7901.65
395.07	8189.53
395.26	7918.03
395.46	7667.60
395.65	7382.05
395.84	6251.57
396.04	5275.57
396.23	4327.65
396.42	3581.02
396.62	3637.19
396.81	4222.33
397.00	5458.13
397.19	6527.75
397.39	7948.46
397.58	8891.70
397.77	9282.56
397.97	9799.82
398.16	10143.88
398.35	10321.76
398.55	10654.12
398.74	11035.63
398.93	11197.12
399.12	11007.54
399.32	10635.39
399.51	11173.72
399.70	11492.03
399.90	11375.00
400.09	11728.42
400.28	11344.58
400.47	11587.99
400.67	12044.40
400.86	12456.33
401.05	12329.94
401.24	12437.61
401.44	12638.89
401.63	12723.15
401.82	12486.76
402.01	12489.10
402.21	12776.98
402.40	12957.21
402.59	12491.44
402.78	12100.57
402.97	11723.74
403.17	12018.65
403.36	12884.65
403.55	13310.63
403.74	13600.85
403.93	12732.51
404.13	11686.29
404.32	11660.55
404.51	12358.03
404.70	13448.72
404.89	12999.34
405.09	12905.71
405.28	12444.63
405.47	12627.19
405.66	12622.51
405.85	12119.29
406.05	12116.95
406.24	11992.90
406.43	12657.62
406.62	13018.06
406.81	13226.37
407.00	12599.10
407.20	12500.80
407.39	12706.77
407.58	13018.06
407.77	13715.54
407.96	13870.01
408.15	13893.42
408.34	14115.77
408.54	14806.23
408.73	15014.54
408.92	15023.90
409.11	14380.25
409.30	13722.56
409.49	12774.64
409.68	11929.71
409.87	11765.87
410.07	12496.12
410.26	13348.08
410.45	14214.07
410.64	14452.81
410.83	14916.23
411.02	15267.31
411.21	16189.49
411.40	15917.98
411.59	15882.88
411.78	15529.45
411.98	15786.91
412.17	15592.65
412.36	15611.37
412.55	15475.62
412.74	14946.66
412.93	14686.86
413.12	15133.90
413.31	16414.18
413.50	16390.77
413.69	16751.21
413.88	16250.34
414.07	15770.53
414.26	16098.20
414.45	16563.97
414.64	16631.85
414.83	16374.39
415.02	16318.22
415.22	16346.30
415.41	17001.65
415.60	17366.78
415.79	17893.40
415.98	18534.70
416.17	18361.50
416.36	18031.49
416.55	17469.76
416.74	16685.68
416.93	16514.82
417.12	16444.60
417.31	16823.77
417.50	17341.03
417.69	17596.15
417.88	17476.78
418.07	17348.05
418.26	17275.49
418.45	17425.29
418.64	17944.89
418.83	18576.83
419.02	18148.51
419.21	18153.20
419.39	17357.41
419.58	16313.53
419.77	16648.23
419.96	17317.62
420.15	18314.69
420.34	18675.13
420.53	19435.81
420.72	19770.51
420.91	19484.96
421.10	19267.29
421.29	19101.11
421.48	18576.83
421.67	19527.09
421.86	18728.97
422.05	17645.30
422.24	15810.32
422.43	15702.65
422.61	17532.95
422.80	18801.52
422.99	18696.20
423.18	18066.60
423.37	17996.38
423.56	17919.14
423.75	18207.03
423.94	18684.50
424.13	17809.14
424.32	17884.03
424.50	17507.21
424.69	17338.69
424.88	17657.00
425.07	17357.41
425.26	17675.73
425.45	17291.88
425.64	16772.28
425.83	17184.21
426.01	18113.41
426.20	18340.44
426.39	18279.58
426.58	16779.30
426.77	15737.76
426.96	15164.33
427.15	15929.69
427.33	17378.48
427.52	17633.60
427.71	17839.56
427.90	17422.95
428.09	17479.12
428.28	16985.27
428.46	16615.46
428.65	16189.49
428.84	16676.32
429.03	16889.31
429.22	15920.32
429.40	15264.97
429.59	13633.62
429.78	12292.49
429.97	12311.22
430.16	12559.31
430.34	12325.26
430.53	12554.63
430.72	12861.24
430.91	14420.04
431.10	16971.22
431.28	19721.35
431.47	21238.02
431.66	21050.78
431.85	19470.92
432.03	17771.69
432.22	16891.65
432.41	17996.38
432.60	19786.89
432.79	20367.34
432.97	20842.47
433.16	20456.28
433.35	18609.60
433.54	16744.19
433.72	15943.73
433.91	16350.98
434.10	18583.85
434.28	19328.14
434.47	20643.52
434.66	20587.35
434.85	19728.38
435.03	19658.16
435.22	20493.73
435.41	21322.28
435.59	21420.58
435.78	22099.34
435.97	22412.97
436.16	22764.05
436.34	22176.58
436.53	21603.14
436.72	21612.51
436.90	20554.58
437.09	20135.63
437.28	20170.74
437.46	20893.96
437.65	20798.00
437.84	19339.85
438.02	17795.09
438.21	17649.98
438.40	18817.91
438.58	19990.52
438.77	20821.41
438.96	20870.56
439.14	21912.10
439.33	22387.22
439.52	22670.43
439.70	22160.19
439.89	21493.14
440.08	21343.35
440.26	21277.81
440.45	21689.74
440.63	23293.01
440.82	24570.94
441.01	24318.17
441.19	23901.55
441.38	24514.77
441.57	24875.21
441.75	25460.35
441.94	25668.66
442.12	25266.08
442.31	26136.76
442.50	26267.83
442.68	25343.32
442.87	25364.39
443.05	24816.70
443.24	25783.34
443.43	25891.01
443.61	26190.59
443.80	26764.03
443.98	25142.03
444.17	25256.72
444.35	26867.01
444.54	26871.69
444.73	26476.14
444.91	25848.88
445.10	24613.07
445.28	23733.03
445.47	23005.13
445.65	23269.61
445.84	23758.78
446.02	24917.34
446.21	25308.21
446.39	25273.10
446.58	25902.71
446.77	26202.30
446.95	26878.71
447.14	27346.82
447.32	27665.13
447.51	27236.81
447.69	25715.47
447.88	25486.09
448.06	26209.32
448.25	26651.68
448.43	26616.57
448.62	26279.54
448.80	25942.50
448.99	26457.42
449.17	26670.40
449.36	26415.29
449.54	27679.18
449.73	28217.50
449.91	28411.76
450.10	29266.06
450.28	29497.77
450.46	29385.43
450.65	29420.53
450.83	28854.12
451.02	28278.35
451.20	28519.43
451.39	28318.14
451.57	28301.76
451.76	28100.47
451.94	28063.02
452.13	27175.96
452.31	26108.68
452.49	25238.00
452.68	25214.59
452.86	25193.53
453.05	25895.69
453.23	26277.19
453.42	27358.52
453.60	27442.78
453.78	27819.61
453.97	27573.85
454.15	27997.49
454.34	27063.61
454.52	27094.04
454.70	26810.84
454.89	27433.42
455.07	27367.88
455.26	27513.00
455.44	28575.60
455.62	29095.20
455.81	29366.70
455.99	28891.57
456.17	28439.85
456.36	29209.89
456.54	29394.79
456.73	29928.43
456.91	30122.69
457.09	29986.94
457.28	31082.31
457.46	29385.43
457.64	29717.78
457.83	28666.88
458.01	27889.82
458.19	28631.77
458.38	28737.10
458.56	29748.21
458.74	29563.31
458.93	29308.19
459.11	29237.97
459.29	29380.74
459.48	28940.72
459.66	28821.36
459.84	29317.55
460.03	29179.46
460.21	29612.46
460.39	30417.60
460.57	30183.55
460.76	30632.93
460.94	30665.70
461.12	30195.25
461.31	30663.36
461.49	30644.63
461.67	30555.69
461.85	31419.35
462.04	30960.61
462.22	31772.77
462.40	31192.32
462.59	31063.59
462.77	31297.64
462.95	31035.50
463.13	30733.57
463.32	30562.72
463.50	30494.84
463.68	30279.51
463.86	30033.75
464.05	29898.00
464.23	29516.50
464.41	29172.44
464.59	28877.53
464.78	30087.59
464.96	30178.87
465.14	30071.20
465.32	30693.79
465.50	31632.34
465.69	31548.08
465.87	30923.16
466.05	30085.25
466.23	28521.77
466.41	28100.47
466.60	29219.25
466.78	29275.42
466.96	29649.91
467.14	30024.39
467.32	30466.75
467.51	30478.46
467.69	28959.45
467.87	29745.87
468.05	29972.90
468.23	30260.79
468.41	30024.39
468.60	30705.49
468.78	30195.25
468.96	29989.28
469.14	30773.36
469.32	31173.60
469.50	29771.61
469.69	29682.67
469.87	29483.73
470.05	29376.06
470.23	29385.43
470.41	29635.86
470.59	29858.21
470.77	30026.73
470.95	30740.60
471.14	30707.83
471.32	30579.10
471.50	32680.90
471.68	33118.58
471.86	32910.27
472.04	33202.84
472.22	33362.00
472.40	31601.91
472.58	31578.51
472.77	30637.61
472.95	31590.21
473.13	32678.56
473.31	31365.52
473.49	31894.48
473.67	32217.47
473.85	33179.43
474.03	33516.47
474.21	33390.08
474.39	34293.53
474.57	33937.77
474.75	34127.35
474.93	33921.38
475.12	33200.50
475.30	33191.14
475.48	33804.36
475.66	34057.14
475.84	33324.55
476.02	33057.73
476.20	32636.43
476.38	33163.05
476.56	33893.30
476.74	34824.83
476.92	35159.53
477.10	35522.31
477.28	36673.85
477.46	36512.36
477.64	36790.88
477.82	36645.77
478.00	37184.09
478.18	36528.74
478.36	36093.40
478.54	36650.45
478.72	36556.83
478.90	37598.37
479.08	38443.30
479.26	39112.69
479.44	38677.35
479.62	38754.59
479.80	38527.56
479.98	39021.41
480.16	39346.75
480.34	38864.60
480.52	39360.79
480.70	39660.38
480.88	39564.42
481.06	40610.64
481.24	40432.75
481.41	41184.07
481.59	41614.72
481.77	41411.10
481.95	40659.79
482.13	40814.26
482.31	40945.33
482.49	41502.38
482.67	41591.32
482.85	42089.85
483.03	42085.17
483.21	42557.96
483.39	42618.81
483.57	42181.13
483.74	41837.08
483.92	41975.17
484.10	42464.34
484.28	42836.48
484.46	43313.95
484.64	43452.05
484.82	42838.83
485.00	42263.05
485.18	41668.56
485.35	40727.66
485.53	37397.08
485.71	34354.38
485.89	33890.96
486.07	35847.64
486.25	38721.82
486.43	40725.32
486.61	41467.27
486.78	41720.05
486.96	41780.90
487.14	43583.12
487.32	44144.84
487.50	45170.00
487.68	46422.19
487.85	47065.83
488.03	47056.47
488.21	46223.24
488.39	45284.68
488.57	44989.78
488.75	44376.56
488.92	46007.91
489.10	48114.39
489.28	49689.57
489.46	50396.42
489.64	50445.57
489.81	50190.45
489.99	50260.66
490.17	49963.42
490.35	50632.81
490.53	49886.18
490.70	49691.91
490.88	49434.45
491.06	50466.63
491.24	50541.53
491.41	49247.21
491.59	47384.15
491.77	46995.62
491.95	48016.09
492.13	49509.35
492.30	50859.84
492.48	51971.60
492.66	52376.51
492.84	52348.42
493.01	52224.37
493.19	51082.19
493.37	51079.85
493.54	50719.41
493.72	51393.48
493.90	52750.99
494.08	53577.20
494.25	53879.13
494.43	53855.73
494.61	54468.95
494.79	54349.58
494.96	53956.37
495.14	53439.11
495.32	52552.05
495.49	51931.81
495.67	52797.80
495.85	54136.59
496.02	54976.84
496.20	54745.13
496.38	54089.78
496.55	53937.65
496.73	54621.08
496.91	54805.98
497.09	55213.24
497.26	55543.25
497.44	54714.70
497.62	54475.97
497.79	53504.65
497.97	51824.14
498.14	52470.13
498.32	53666.14
498.50	54642.15
498.67	54871.52
498.85	55002.59
499.03	55227.28
499.20	55264.73
499.38	55482.40
499.56	55297.50
499.73	54543.84
499.91	54686.62
500.08	53858.07
500.26	53148.88
500.44	53577.20
500.61	54234.89
500.79	53829.98
500.97	54021.90
501.14	53759.76
501.32	53270.59
501.49	53689.55
501.67	53497.62
501.84	54246.60
502.02	54267.66
502.20	54820.03
502.37	54944.08
502.55	55269.41
502.72	55681.34
502.90	56009.02
503.07	55840.50
503.25	55468.36
503.43	54237.23
503.60	53921.26
503.78	53045.90
503.95	53642.74
504.13	55246.00
504.30	56104.98
504.48	55826.46
504.65	55313.88
504.83	55477.72
505.01	56179.88
505.18	56486.49
505.36	56912.47
505.53	57045.88
505.71	57293.97
505.88	57223.76
506.06	56832.89
506.23	56371.80
506.41	56048.81
506.58	56222.01
506.76	56193.92
506.93	56250.09
507.11	55655.60
507.28	56261.80
507.46	55587.72
507.63	54993.23
507.81	54810.67
507.98	54918.33
508.16	56090.94
508.33	56306.27
508.50	56743.95
508.68	56800.12
508.85	57542.07
509.03	57495.26
509.20	57373.55
509.38	56446.70
509.55	56086.26
509.73	55774.97
509.90	56603.52
510.08	56872.68
510.25	56849.27
510.42	56439.68
510.60	56371.80
510.77	56727.56
510.95	57347.81
511.12	57565.48
511.30	57616.97
511.47	57984.43
511.64	57897.83
511.82	57556.11
511.99	56776.72
512.17	56484.15
512.34	55957.53
512.51	56207.97
512.69	56409.25
512.86	56229.03
513.04	56704.16
513.21	56804.80
513.38	56554.36
513.56	55800.71
513.73	55400.48
513.90	55475.38
514.08	55840.50
514.25	56009.02
514.43	56088.60
514.60	56488.83
514.77	56282.86
514.95	56624.58
515.12	56406.91
515.29	56729.90
515.47	57293.97
515.64	57396.96
515.81	56725.22
515.99	56243.07
516.16	54820.03
516.33	52545.03
516.51	50735.79
516.68	49954.05
516.85	49542.12
517.03	50429.18
517.20	53256.55
517.37	55753.90
517.54	56516.92
517.72	55894.33
517.89	52865.68
518.06	50967.51
518.24	51491.79
518.41	53951.69
518.58	55093.87
518.75	55269.41
518.93	55454.31
519.10	55302.18
519.27	55945.83
519.45	56095.62
519.62	56844.59
519.79	57286.95
519.96	57027.15
520.14	56577.77
520.31	55512.83
520.48	55730.50
520.65	56142.43
520.83	56870.34
521.00	57279.93
521.17	56933.53
521.34	56610.54
521.52	57052.90
521.69	57649.74
521.86	57982.09
522.03	57345.47
522.20	56121.37
522.38	55402.82
522.55	55494.10
522.72	56287.54
522.89	56002.00
523.07	56367.12
523.24	56683.09
523.41	57719.95
523.58	57755.06
523.75	58379.98
523.92	57958.69
524.10	58052.31
524.27	58152.95
524.44	58033.58
524.61	57593.56
524.78	57565.48
524.96	57425.04
525.13	57361.85
525.30	57378.23
525.47	58150.61
525.64	57855.70
525.81	57286.95
525.98	55807.73
526.16	54429.16
526.33	53900.20
526.50	53251.87
526.67	53029.52
526.84	53874.45
527.01	54637.47
527.18	55620.49
527.36	56526.28
527.53	57535.05
527.70	57525.69
527.87	56942.89
528.04	56498.19
528.21	57228.44
528.38	57909.53
528.55	58300.40
528.72	58660.85
528.89	58571.91
529.07	58646.80
529.24	57769.10
529.41	57134.82
529.58	56582.45
529.75	56868.00
529.92	57162.90
530.09	57752.72
530.26	58085.07
530.43	58326.15
530.60	58284.02
530.77	58387.00
530.94	58614.04
531.11	58192.74
531.28	57654.42
531.46	57483.56
531.63	57844.00
531.80	57717.61
531.97	57106.73
532.14	56500.53
532.31	55311.54
532.48	54733.43
532.65	55011.95
532.82	55805.39
532.99	56823.53
533.16	57139.50
533.33	57806.55
533.50	57567.82
533.67	56907.79
533.84	56631.60
534.01	56938.21
534.18	57022.47
534.35	57123.11
534.52	56851.61
534.69	57265.89
534.86	57574.84
535.03	57790.17
535.20	58379.98
535.37	58763.83
535.54	58534.46
535.71	58176.36
535.88	57942.30
536.05	57518.67
536.22	57031.83
536.38	56755.65
536.55	56175.20
536.72	55671.98
536.89	55639.22
537.06	56399.89
537.23	57315.04
537.40	57640.37
537.57	57544.41
537.74	57106.73
537.91	57317.38
538.08	57113.75
538.25	57425.04
538.42	57567.82
538.59	57305.68
538.75	56402.23
538.92	56271.16
539.09	56306.27
539.26	56081.58
539.43	55868.59
539.60	56198.60
539.77	56130.73
539.94	56158.81
540.11	55243.66
540.28	55004.93
540.44	54967.48
540.61	55271.75
540.78	55426.23
540.95	55845.18
541.12	56210.31
541.29	56449.04
541.46	56879.70
541.62	56816.50
541.79	56390.53
541.96	56257.12
542.13	56210.31
542.30	56420.95
542.47	56650.33
542.63	56413.93
542.80	56229.03
542.97	56273.50
543.14	56126.05
543.31	56156.47
543.48	56837.57
543.64	57677.82
543.81	57724.63
543.98	57544.41
544.15	56809.48
544.32	56161.15
544.48	56432.66
544.65	56718.20
544.82	57221.42
544.99	56858.63
545.16	56353.08
545.32	56217.33
545.49	56926.51
545.66	57343.12
545.83	56933.53
546.00	56601.18
546.16	56371.80
546.33	56369.46
546.50	56411.59
546.67	56767.35
546.83	56062.85
547.00	56439.68
547.17	55576.02
547.34	55341.97
547.50	55260.05
547.67	55777.31
547.84	55594.74
548.00	56299.25
548.17	56671.39
548.34	56374.14
548.51	56575.43
548.67	56416.27
548.84	56561.39
549.01	56446.70
549.18	56332.01
549.34	56247.75
549.51	56264.14
549.68	56144.77
549.84	56112.00
550.01	55969.23
550.18	55945.83
550.34	55786.67
550.51	56002.00
550.68	56163.50
550.84	55339.63
551.01	55648.58
551.18	55831.14
551.34	55887.31
551.51	56315.63
551.68	56495.85
551.84	56388.19
552.01	56205.62
552.18	55873.27
552.34	55086.85
552.51	55196.85
552.68	54885.56
552.84	55458.99
553.01	55484.74
553.18	55395.80
553.34	55767.94
553.51	56062.85
553.67	56154.13
553.84	56327.33
554.01	56067.53
554.17	56069.87
554.34	55828.80
554.51	56184.56
554.67	56376.48
554.84	56217.33
555.00	55714.11
555.17	55529.21
555.33	55482.40
555.50	55522.19
555.67	55489.42
555.83	55508.14
556.00	54784.92
556.16	55236.64
556.33	54670.23
556.50	54473.63
556.66	54796.62
556.83	54326.17
556.99	54178.72
557.16	54740.45
557.32	54780.24
557.49	55107.91
557.65	55185.15
557.82	54756.83
557.98	54883.22
558.15	54164.68
558.32	53708.27
558.48	52732.27
558.65	52685.46
558.81	53415.71
558.98	53745.72
559.14	53418.05
559.31	54047.65
559.47	53869.77
559.64	53633.38
559.80	53127.82
559.97	53338.47
560.13	53542.10
560.30	54665.55
560.46	55192.17
560.63	55501.12
560.79	55480.06
560.96	55082.17
561.12	53837.00
561.29	52861.00
561.45	53076.33
561.61	53708.27
561.78	54033.61
561.94	54021.90
562.11	54007.86
562.27	53989.14
562.44	53984.46
562.60	54358.94
562.77	54607.04
562.93	54604.70
563.10	54562.57
563.26	53649.76
563.42	53773.81
563.59	53895.52
563.75	53420.39
563.92	53701.25
564.08	53659.12
564.24	53968.07
564.41	54007.86
564.57	53963.39
564.74	53689.55
564.90	53673.16
565.07	53457.84
565.23	52985.05
565.39	52428.00
565.56	52123.73
565.72	51863.93
565.88	52404.59
566.05	52502.90
566.21	52802.49
566.38	52821.21
566.54	52914.83
566.70	53282.30
566.87	53752.74
567.03	53624.01
567.19	53652.10
567.36	53818.28
567.52	53354.85
567.68	52921.85
567.85	52259.48
568.01	52072.24
568.17	51154.75
568.34	51526.89
568.50	51636.90
568.66	51819.46
568.83	52250.12
568.99	52313.31
569.15	52608.22
569.32	52376.51
569.48	51639.24
569.64	52041.81
569.81	51391.14
569.97	51224.96
570.13	51564.34
570.30	50869.20
570.46	50157.68
570.62	49593.61
570.78	49853.41
570.95	49949.37
571.11	51061.13
571.27	51192.20
571.43	51426.25
571.60	51777.33
571.76	51969.26
571.92	52465.45
572.09	52442.04
572.25	52509.92
572.41	52144.80
572.57	52259.48
572.74	51950.53
572.90	51767.97
573.06	51461.36
573.22	51356.03
573.38	51789.03
573.55	51599.45
573.71	52086.28
573.87	51615.83
574.03	51330.29
574.20	51351.35
574.36	50930.06
574.52	51058.79
574.68	50677.28
574.84	50000.86
575.01	49881.50
575.17	49705.96
575.33	50391.73
575.49	50251.30
575.65	50607.06
575.82	50588.34
575.98	50040.65
576.14	50274.71
576.30	50822.39
576.46	50869.20
576.62	50997.93
576.79	50644.51
576.95	50255.98
577.11	50358.97
577.27	50391.73
577.43	50291.09
577.59	49696.59
577.75	49977.46
577.92	49153.59
578.08	48676.12
578.24	48858.68
578.40	49188.70
578.56	49389.98
578.72	49579.57
578.88	49574.89
579.04	50078.10
579.21	49830.01
579.37	50040.65
579.53	50042.99
579.69	49860.43
579.85	49965.76
580.01	49771.49
580.17	49539.78
580.33	49301.04
580.49	49602.97
580.65	49935.33
580.82	50028.95
580.98	50155.34
581.14	49890.86
581.30	49844.05
581.46	49462.54
581.62	50211.51
581.78	50546.21
581.94	50270.03
582.10	50288.75
582.26	50157.68
582.42	49930.65
582.58	50237.26
582.74	50066.40
582.90	50143.64
583.06	50408.12
583.22	49832.35
583.38	49666.17
583.54	49415.73
583.70	49736.38
583.86	50010.23
584.02	49535.10
584.18	49556.16
584.34	49783.19
584.50	49371.26
584.66	49464.88
584.82	48816.55
584.98	49001.46
585.14	48313.34
585.30	47622.88
