SpectraSuite Data File
++++++++++++++++++++++++++++++++++++
Date: Mon Oct 07 14:52:56 GMT-05:00 2013
User: price-jones
Dark Spectrum Present: No
Reference Spectrum Present: No
Number of Sampled Component Spectra: 1
Spectrometers: USB2+H05261
Integration Time (usec): 100000 (USB2+H05261)
Spectra Averaged: 1 (USB2+H05261)
Boxcar Smoothing: 0 (USB2+H05261)
Correct for Electrical Dark: No (USB2+H05261)
Strobe/Lamp Enabled: No (USB2+H05261)
Correct for Detector Non-linearity: No (USB2+H05261)
Correct for Stray Light: No (USB2+H05261)
Number of Pixels in Processed Spectrum: 2048
>>>>>Begin Processed Spectral Data<<<<<
365.73	0.00
365.92	0.00
366.12	0.00
366.32	0.00
366.52	0.00
366.72	0.00
366.91	0.00
367.11	0.00
367.31	0.00
367.51	0.00
367.70	0.00
367.90	0.00
368.10	0.00
368.30	0.00
368.49	0.00
368.69	0.00
368.89	0.00
369.09	0.00
369.28	0.00
369.48	0.00
369.68	0.00
369.87	0.00
370.07	0.00
370.27	0.00
370.47	423.64
370.66	2328.83
370.86	2717.36
371.06	2888.22
371.25	2904.60
371.45	2623.74
371.65	2422.45
371.84	2211.81
372.04	2366.28
372.24	2710.34
372.44	2825.03
372.63	2813.32
372.83	2722.04
373.03	2298.41
373.22	2118.18
373.42	2197.76
373.62	2509.05
373.81	2736.09
374.01	2715.02
374.21	2504.37
374.40	2300.75
374.60	2413.09
374.79	2710.34
374.99	3185.47
375.19	3475.70
375.38	3517.83
375.58	3169.09
375.78	3183.13
375.97	3211.22
376.17	3295.47
376.37	3314.20
376.56	3592.72
376.76	3571.66
376.95	3880.61
377.15	4187.22
377.35	4273.82
377.54	4395.53
377.74	4542.98
377.93	4484.47
378.13	4477.44
378.33	4241.05
378.52	3861.88
378.72	3712.09
378.91	3775.28
379.11	3517.83
379.31	3382.07
379.50	3459.31
379.70	3840.82
379.89	4138.07
380.09	4308.93
380.28	4603.83
380.48	4559.36
380.68	4428.29
380.87	4227.01
381.07	4030.40
381.26	3653.58
381.46	3433.57
381.65	3260.37
381.85	3269.73
382.04	3192.49
382.24	2935.03
382.43	2743.11
382.63	2658.85
382.83	2686.94
383.02	2750.13
383.22	2733.75
383.41	2658.85
383.61	2846.09
383.80	3269.73
384.00	3861.88
384.19	4196.58
384.39	4540.64
384.58	4369.78
384.78	4299.56
384.97	4285.52
385.17	4149.77
385.36	3770.60
385.56	3796.35
385.75	3892.31
385.95	4339.35
386.14	4688.09
386.34	4552.34
386.53	4369.78
386.72	4077.21
386.92	4266.80
387.11	4454.04
387.31	4613.20
387.50	4493.83
387.70	4287.86
387.89	4311.27
388.09	4353.40
388.28	4215.30
388.48	4456.38
388.67	4809.80
388.86	5231.10
389.06	5678.14
389.25	6026.88
389.45	6085.39
389.64	6148.59
389.84	5963.68
390.03	5888.79
390.22	5799.85
390.42	6066.67
390.61	6356.90
390.81	6771.17
391.00	7016.93
391.19	6946.71
391.39	6602.65
391.58	6083.05
391.78	5914.53
391.97	5727.29
392.16	5275.57
392.36	4781.71
392.55	3845.50
392.75	3124.62
392.94	2560.55
393.13	2593.31
393.33	3136.32
393.52	3934.44
393.71	4830.87
393.91	5315.36
394.10	5720.27
394.29	6164.97
394.49	6820.32
394.68	7265.02
394.88	7325.88
395.07	7758.88
395.26	7377.37
395.46	7353.96
395.65	6857.77
395.84	6001.13
396.04	5011.09
396.23	4053.81
396.42	3555.27
396.62	3314.20
396.81	3955.51
397.00	5013.43
397.19	6218.80
397.39	7211.19
397.58	8388.48
397.77	8648.28
397.97	9266.18
398.16	9352.78
398.35	9504.92
398.55	9841.95
398.74	10289.00
398.93	10457.51
399.12	10499.64
399.32	9961.32
399.51	10333.47
399.70	10848.38
399.90	10565.18
400.09	10803.91
400.28	10714.97
400.47	10817.96
400.67	11325.85
400.86	11503.73
401.05	11440.54
401.24	11442.88
401.44	11630.12
401.63	11885.24
401.82	11887.58
402.01	11742.47
402.21	12131.00
402.40	11925.03
402.59	11693.32
402.78	11154.99
402.97	10925.62
403.17	11136.27
403.36	11873.54
403.55	12622.51
403.74	12713.79
403.93	11962.48
404.13	11035.63
404.32	10981.79
404.51	11485.01
404.70	12482.08
404.89	12250.36
405.09	12100.57
405.28	11660.55
405.47	11499.05
405.66	11861.84
405.85	11414.79
406.05	11105.84
406.24	11398.41
406.43	11786.94
406.62	12259.73
406.81	12287.81
407.00	11737.79
407.20	11501.39
407.39	11735.45
407.58	12461.01
407.77	12896.35
407.96	12894.01
408.15	13394.89
408.34	13121.04
408.54	13898.10
408.73	13926.19
408.92	13909.80
409.11	13451.06
409.30	12594.42
409.49	11971.84
409.68	11372.66
409.87	10991.16
410.07	11695.66
410.26	12500.80
410.45	13097.64
410.64	13619.58
410.83	13837.25
411.02	14525.36
411.21	14686.86
411.40	14787.50
411.59	14876.44
411.78	14717.29
411.98	14370.89
412.17	14672.82
412.36	14413.02
412.55	14501.96
412.74	14295.99
412.93	13998.74
413.12	13823.20
413.31	15393.70
413.50	15473.28
413.69	15819.68
413.88	15094.11
414.07	14544.09
414.26	14909.21
414.45	15424.13
414.64	15534.14
414.83	15517.75
415.02	15314.13
415.22	15262.63
415.41	15655.84
415.60	15906.28
415.79	16783.98
415.98	17118.68
416.17	17193.58
416.36	16648.23
416.55	16339.28
416.74	15875.85
416.93	15405.41
417.12	15468.60
417.31	15686.27
417.50	15756.49
417.69	16439.92
417.88	16540.57
418.07	16283.11
418.26	16016.29
418.45	16130.97
418.64	16767.60
418.83	17500.19
419.02	17165.49
419.21	16582.70
419.39	16287.79
419.58	15393.70
419.77	15538.82
419.96	16016.29
420.15	17184.21
420.34	17315.28
420.53	18363.84
420.72	18537.04
420.91	18569.81
421.10	18174.26
421.29	18106.38
421.48	17282.52
421.67	18443.42
421.86	17816.16
422.05	16334.60
422.24	15037.94
422.43	14705.59
422.61	16294.81
422.80	17633.60
422.99	17605.51
423.18	17081.23
423.37	16748.87
423.56	16805.05
423.75	16931.44
423.94	17216.98
424.13	16304.17
424.32	16287.79
424.50	16573.33
424.69	16451.63
424.88	16465.67
425.07	16088.84
425.26	16456.31
425.45	16257.36
425.64	16063.10
425.83	16257.36
426.01	16858.88
426.20	17334.01
426.39	17153.79
426.58	15871.17
426.77	14675.16
426.96	14139.18
427.15	14710.27
427.33	16170.76
427.52	16388.43
427.71	16470.35
427.90	16477.37
428.09	16128.63
428.28	15964.79
428.46	15424.13
428.65	15487.32
428.84	15541.16
429.03	16205.87
429.22	14925.60
429.40	14083.00
429.59	12901.03
429.78	11435.86
429.97	11517.78
430.16	11875.88
430.34	11529.48
430.53	11726.08
430.72	11981.20
430.91	13062.53
431.10	15674.57
431.28	18253.84
431.47	19831.36
431.66	19737.74
431.85	18202.35
432.03	16360.34
432.22	15964.79
432.41	16638.87
432.60	18661.09
432.79	19208.78
432.97	19637.09
433.16	18923.23
433.35	17418.27
433.54	15667.55
433.72	14780.48
433.91	15527.11
434.10	17018.04
434.28	18443.42
434.47	19126.86
434.66	18878.76
434.85	18422.36
435.03	18417.68
435.22	18897.49
435.41	20458.62
435.59	20278.40
435.78	20496.07
435.97	20472.67
436.16	21027.37
436.34	20362.66
436.53	19997.54
436.72	20058.39
436.90	18904.51
437.09	19243.88
437.28	18876.42
437.46	19449.85
437.65	19150.26
437.84	18026.81
438.02	16683.34
438.21	16472.69
438.40	17425.29
438.58	18972.38
438.77	19339.85
438.96	19716.67
439.14	20877.58
439.33	20936.09
439.52	20940.77
439.70	20683.31
439.89	20079.46
440.08	19807.95
440.26	19976.47
440.45	20545.22
440.63	21589.10
440.82	23117.47
441.01	22555.74
441.19	22616.60
441.38	22799.16
441.57	23321.10
441.75	23838.36
441.94	24144.97
442.12	23915.59
442.31	24636.48
442.50	24072.41
442.68	24098.16
442.87	23847.72
443.05	23426.42
443.24	23524.72
443.43	24552.22
443.61	24627.12
443.80	25013.31
443.98	23740.05
444.17	24030.28
444.35	24823.72
444.54	24889.26
444.73	25032.03
444.91	23990.49
445.10	23339.82
445.28	22120.40
445.47	21766.98
445.65	21937.84
445.84	22602.55
446.02	23517.70
446.21	23583.24
446.39	23765.80
446.58	24112.20
446.77	24596.69
446.95	24783.93
447.14	25420.56
447.32	26010.37
447.51	24900.96
447.69	24187.10
447.88	24173.05
448.06	24130.92
448.25	25027.35
448.43	25043.73
448.62	24673.93
448.80	24203.48
448.99	24636.48
449.17	24685.63
449.36	25006.28
449.54	26108.68
449.73	26096.97
449.91	26621.25
450.10	27213.41
450.28	27775.14
450.46	27199.37
450.65	27309.37
450.83	26946.59
451.02	26766.37
451.20	26396.56
451.39	26590.83
451.57	26539.33
451.76	26309.96
451.94	25785.68
452.13	25797.38
452.31	24563.92
452.49	23262.58
452.68	23620.69
452.86	23847.72
453.05	24247.95
453.23	24727.76
453.42	25294.17
453.60	26087.61
453.78	26459.76
453.97	26230.38
454.15	26036.12
454.34	25233.32
454.52	25516.52
454.70	24952.45
454.89	25308.21
455.07	25214.59
455.26	25830.15
455.44	26609.55
455.62	27452.14
455.81	27307.03
455.99	27482.57
456.17	27056.59
456.36	27075.32
456.54	27300.01
456.73	27697.90
456.91	28315.80
457.09	28016.21
457.28	28430.49
457.46	27740.03
457.64	27630.02
457.83	26672.74
458.01	25923.77
458.19	26923.18
458.38	27234.47
458.56	27882.80
458.74	27775.14
458.93	27496.61
459.11	26960.63
459.29	26815.52
459.48	27138.51
459.66	26787.43
459.84	27501.29
460.03	27833.65
460.21	27358.52
460.39	28498.36
460.57	28203.46
460.76	28985.19
460.94	28804.97
461.12	28556.88
461.31	28374.31
461.49	28554.54
461.67	28446.87
461.85	29397.13
462.04	29130.31
462.22	29530.54
462.40	29233.29
462.59	29310.53
462.77	29223.93
462.95	28945.41
463.13	28797.95
463.32	28381.34
463.50	28542.83
463.68	28236.22
463.86	28451.55
464.05	27950.68
464.23	27302.35
464.41	27445.12
464.59	27098.72
464.78	28594.32
464.96	28002.17
465.14	28121.54
465.32	28493.68
465.50	29467.34
465.69	29790.34
465.87	28879.87
466.05	28130.90
466.23	26796.79
466.41	26230.38
466.60	27346.82
466.78	27276.60
466.96	27997.49
467.14	28362.61
467.32	28706.67
467.51	28563.90
467.69	27304.69
467.87	27328.10
468.05	28135.58
468.23	28357.93
468.41	28168.35
468.60	27857.06
468.78	28205.80
468.96	28189.41
469.14	28599.01
469.32	29336.27
469.50	27716.62
469.69	27934.29
469.87	27445.12
470.05	27545.76
470.23	27592.58
470.41	27400.65
470.59	27873.44
470.77	27953.02
470.95	28486.66
471.14	28947.75
471.32	28889.23
471.50	30616.55
471.68	30539.31
471.86	31197.00
472.04	31239.13
472.22	31096.36
472.40	29362.02
472.58	29469.69
472.77	29387.77
472.95	29530.54
473.13	30731.23
473.31	29949.50
473.49	29912.05
473.67	30588.46
473.85	30703.15
474.03	31545.74
474.21	31632.34
474.39	32053.64
474.57	31821.92
474.75	31838.31
474.93	31742.35
475.12	31105.72
475.30	31112.74
475.48	31339.77
475.66	31817.24
475.84	31133.81
476.02	30726.55
476.20	30335.68
476.38	31030.82
476.56	32219.81
476.74	32318.12
476.92	32512.38
477.10	33071.77
477.28	33645.20
477.46	34333.32
477.64	34677.38
477.82	34911.43
478.00	35246.13
478.18	34431.62
478.36	33743.50
478.54	34281.83
478.72	34272.46
478.90	35416.99
479.08	36495.97
479.26	36685.56
479.44	36233.83
479.62	36065.31
479.80	36013.82
479.98	36510.02
480.16	36669.17
480.34	36280.64
480.52	36486.61
480.70	37015.57
480.88	37022.59
481.06	37757.52
481.24	37820.72
481.41	39229.72
481.59	39515.26
481.77	38983.96
481.95	38174.14
482.13	38583.73
482.31	38541.60
482.49	39061.20
482.67	39026.09
482.85	39482.50
483.03	39562.08
483.21	40055.93
483.39	39892.09
483.57	38941.83
483.74	39239.08
483.92	39313.98
484.10	39475.48
484.28	40470.20
484.46	41008.53
484.64	41570.25
484.82	40304.02
485.00	40194.02
485.18	38972.26
485.35	38164.78
485.53	34789.72
485.71	31758.73
485.89	31805.54
486.07	33338.59
486.25	36708.96
486.43	38487.77
486.61	38904.38
486.78	38447.98
486.96	39108.01
487.14	40601.27
487.32	41670.90
487.50	42794.36
487.68	43704.82
487.85	44240.81
488.03	44039.52
488.21	43601.84
488.39	42782.65
488.57	42302.84
488.75	42014.96
488.92	43466.09
489.10	45736.41
489.28	47346.70
489.46	47814.80
489.64	48053.54
489.81	47796.08
489.99	47885.02
490.17	47704.80
490.35	48250.14
490.53	47487.13
490.70	46920.72
490.88	47044.77
491.06	48149.50
491.24	47796.08
491.41	46637.51
491.59	44626.99
491.77	44212.72
491.95	45378.31
492.13	46597.73
492.30	48505.26
492.48	49462.54
492.66	50096.83
492.84	49808.94
493.01	49474.24
493.19	48891.45
493.37	48591.86
493.54	48165.88
493.72	49488.29
493.90	50443.23
494.08	50834.10
494.25	51459.02
494.43	51695.41
494.61	52512.26
494.79	52416.30
494.96	51625.20
495.14	51360.72
495.32	50073.42
495.49	49705.96
495.67	50532.17
495.85	52205.65
496.02	52645.67
496.20	52587.16
496.38	52212.67
496.55	52264.16
496.73	52633.97
496.91	52605.88
497.09	53317.40
497.26	53404.00
497.44	52889.09
497.62	52079.26
497.79	51323.27
497.97	50007.89
498.14	50307.47
498.32	51653.28
498.50	52556.73
498.67	52952.28
498.85	53148.88
499.03	53207.40
499.20	53495.28
499.38	53382.94
499.56	53202.72
499.73	52706.52
499.91	52198.63
500.08	51484.76
500.26	51037.72
500.44	51657.96
500.61	52315.65
500.79	52385.87
500.97	51519.87
501.14	51442.63
501.32	51199.22
501.49	51084.53
501.67	51618.17
501.84	51973.94
502.02	52435.02
502.20	52889.09
502.37	52758.02
502.55	53034.20
502.72	53722.32
502.90	54054.67
503.07	53631.04
503.25	53371.24
503.43	52575.45
503.60	51817.12
503.78	50693.66
503.95	51505.83
504.13	53183.99
504.30	53780.83
504.48	53951.69
504.65	53176.97
504.83	53638.06
505.01	54064.03
505.18	54354.26
505.36	55189.83
505.53	55075.15
505.71	55463.67
505.88	55461.33
506.06	54602.36
506.23	54380.01
506.41	53951.69
506.58	54532.14
506.76	54424.48
506.93	54181.06
507.11	53911.90
507.28	54293.41
507.46	53499.97
507.63	52891.43
507.81	53031.86
507.98	53120.80
508.16	53996.16
508.33	54693.64
508.50	54948.76
508.68	54616.40
508.85	55437.93
509.03	55604.11
509.20	55620.49
509.38	54749.81
509.55	53811.26
509.73	53815.94
509.90	54431.50
510.08	54824.71
510.25	54894.92
510.42	54857.48
510.60	54319.15
510.77	54653.85
510.95	55430.91
511.12	55772.63
511.30	55789.01
511.47	56210.31
511.64	55625.17
511.82	55524.53
511.99	54693.64
512.17	54141.27
512.34	54012.54
512.51	54232.55
512.69	54511.08
512.86	54443.20
513.04	54962.80
513.21	55004.93
513.38	54688.96
513.56	53886.15
513.73	53104.41
513.90	53556.14
514.08	53785.51
514.25	54021.90
514.43	54279.36
514.60	54183.40
514.77	54335.54
514.95	54632.78
515.12	54733.43
515.29	55112.59
515.47	55206.22
515.64	55484.74
515.81	54892.58
515.99	54316.81
516.16	52545.03
516.33	50148.32
516.51	48514.62
516.68	46981.57
516.85	46969.87
517.03	47742.25
517.20	50906.65
517.37	53888.49
517.54	54700.66
517.72	53834.66
517.89	51133.68
518.06	48556.75
518.24	49055.29
518.41	51730.52
518.58	53008.45
518.75	53169.95
518.93	53862.75
519.10	53153.57
519.27	54092.12
519.45	54244.26
519.62	54925.35
519.79	55199.19
519.96	55065.78
520.14	54780.24
520.31	53418.05
520.48	53663.80
520.65	54286.39
520.83	55182.81
521.00	55407.50
521.17	55058.76
521.34	54625.76
521.52	55119.62
521.69	55744.54
521.86	56027.74
522.03	55681.34
522.20	54344.90
522.38	53439.11
522.55	53275.27
522.72	53928.28
522.89	54028.93
523.07	54475.97
523.24	54761.51
523.41	55543.25
523.58	55983.27
523.75	56474.79
523.92	56463.08
524.10	56266.48
524.27	56383.51
524.44	55889.65
524.61	55817.10
524.78	55803.05
524.96	55414.52
525.13	55702.41
525.30	55859.23
525.47	56479.47
525.64	56137.75
525.81	55271.75
525.98	53820.62
526.16	52229.05
526.33	51409.87
526.50	51054.11
526.67	50703.03
526.84	51475.40
527.01	52573.11
527.18	53539.75
527.36	54557.89
527.53	55650.92
527.70	55477.72
527.87	54944.08
528.04	54719.38
528.21	55384.10
528.38	55819.44
528.55	56133.07
528.72	56561.39
528.89	57027.15
529.07	56671.39
529.24	55737.52
529.41	55292.82
529.58	54887.90
529.75	54731.09
529.92	55068.12
530.09	56013.70
530.26	56081.58
530.43	56488.83
530.60	56488.83
530.77	56676.07
530.94	56837.57
531.11	56367.12
531.28	56065.19
531.46	55639.22
531.63	55828.80
531.80	55854.54
531.97	55274.09
532.14	54695.98
532.31	53457.84
532.48	52858.66
532.65	53008.45
532.82	53717.64
532.99	55136.00
533.16	55510.49
533.33	56018.38
533.50	55540.91
533.67	55014.29
533.84	54754.49
534.01	55023.65
534.18	54824.71
534.35	55276.43
534.52	55110.25
534.69	55419.20
534.86	55627.51
535.03	56055.83
535.20	56502.87
535.37	56804.80
535.54	56547.34
535.71	56605.86
535.88	55894.33
536.05	55379.42
536.22	55168.77
536.38	54798.96
536.55	54120.21
536.72	53727.00
536.89	53682.53
537.06	54660.87
537.23	55580.70
537.40	55924.76
537.57	55789.01
537.74	55302.18
537.91	55187.49
538.08	55288.13
538.25	55552.62
538.42	55887.31
538.59	55604.11
538.75	54665.55
538.92	54541.50
539.09	54511.08
539.26	54232.55
539.43	53876.79
539.60	54174.04
539.77	54372.99
539.94	54103.82
540.11	53244.85
540.28	52746.31
540.44	53038.88
540.61	53205.06
540.78	53518.69
540.95	53958.71
541.12	54157.66
541.29	54639.81
541.46	54908.97
541.62	54974.50
541.79	54937.05
541.96	53991.48
542.13	54475.97
542.30	54536.82
542.47	54614.06
542.63	54443.20
542.80	54101.48
542.97	54363.62
543.14	54199.79
543.31	54155.32
543.48	54850.45
543.64	55702.41
543.81	55814.76
543.98	55676.66
544.15	55103.23
544.32	54391.71
544.48	54363.62
544.65	55089.19
544.82	55341.97
544.99	54829.39
545.16	54719.38
545.32	54436.18
545.49	55159.41
545.66	55398.14
545.83	54995.57
546.00	54674.91
546.16	54340.22
546.33	54384.69
546.50	54597.68
546.67	54927.69
546.83	54597.68
547.00	54351.92
547.17	53450.81
547.34	53345.49
547.50	53308.04
547.67	53600.61
547.84	53408.68
548.00	54003.18
548.17	54494.69
548.34	54358.94
548.51	54527.46
548.67	54387.03
548.84	54705.34
549.01	54674.91
549.18	54349.58
549.34	54375.33
549.51	54344.90
549.68	54246.60
549.84	53970.41
550.01	53939.99
550.18	53731.68
550.34	53745.72
550.51	54024.25
550.68	54192.76
550.84	53474.22
551.01	53488.26
551.18	53741.04
551.34	53881.47
551.51	54089.78
551.68	54223.19
551.84	54726.41
552.01	54291.07
552.18	54195.10
552.34	53364.21
552.51	53120.80
552.68	52933.56
552.84	53284.64
553.01	53663.80
553.18	53436.77
553.34	53558.48
553.51	53984.46
553.67	54087.44
553.84	54284.04
554.01	54234.89
554.17	54064.03
554.34	53883.81
554.51	54078.08
554.67	54319.15
554.84	54120.21
555.00	53867.43
555.17	53595.93
555.33	53595.93
555.50	53595.93
555.67	53492.94
555.83	53373.58
556.00	52987.39
556.16	53130.16
556.33	52371.83
556.50	52509.92
556.66	52706.52
556.83	52266.50
556.99	52549.71
557.16	52514.60
557.32	52849.30
557.49	53071.65
557.65	53045.90
557.82	53083.35
557.98	52545.03
558.15	52147.14
558.32	51327.95
558.48	50490.04
558.65	50784.94
558.81	50815.37
558.98	51124.32
559.14	51538.60
559.31	51653.28
559.47	51744.56
559.64	51051.76
559.80	51016.66
559.97	51075.17
560.13	51587.75
560.30	52638.65
560.46	53003.77
560.63	53509.33
560.79	53329.11
560.96	53172.29
561.12	51543.28
561.29	50913.67
561.45	50756.86
561.61	51672.01
561.78	51854.57
561.94	52044.15
562.11	51842.87
562.27	51379.44
562.44	51800.74
562.60	52233.74
562.77	52385.87
562.93	52336.72
563.10	52435.02
563.26	51578.39
563.42	51782.01
563.59	51573.70
563.75	51538.60
563.92	51662.64
564.08	51629.88
564.24	51756.27
564.41	52090.96
564.57	51826.48
564.74	51842.87
564.90	51236.67
565.07	51068.15
565.23	50749.84
565.39	50092.15
565.56	50143.64
565.72	49338.49
565.88	49869.79
566.05	49755.11
566.21	50628.13
566.38	50681.96
566.54	50473.65
566.70	51086.87
566.87	51365.40
567.03	51526.89
567.19	51789.03
567.36	51187.52
567.52	51215.60
567.68	50815.37
567.85	49895.54
568.01	49680.21
568.17	49223.81
568.34	49155.93
568.50	48912.52
568.66	49092.74
568.83	49570.21
568.99	49942.35
569.15	50263.00
569.32	49942.35
569.48	49572.55
569.64	49787.88
569.81	49139.55
569.97	49137.21
570.13	48641.01
570.30	48289.93
570.46	48128.44
570.62	47086.90
570.78	47220.31
570.95	47505.85
571.11	48369.51
571.27	48877.41
571.43	49284.66
571.60	49518.71
571.76	49270.62
571.92	50054.70
572.09	49827.66
572.25	49439.14
572.41	49846.39
572.57	49808.94
572.74	49565.52
572.90	49020.18
573.06	49036.56
573.22	49205.08
573.38	49219.13
573.55	49298.70
573.71	49511.69
573.87	49216.78
574.03	48959.33
574.20	49120.82
574.36	48748.68
574.52	48296.95
574.68	47990.34
574.84	47620.54
575.01	47122.01
575.17	46735.82
575.33	47838.21
575.49	47952.90
575.65	48025.45
575.82	47927.15
575.98	47604.16
576.14	47812.46
576.30	47990.34
576.46	48687.82
576.62	48130.78
576.79	48109.71
576.95	47372.44
577.11	47690.76
577.27	47695.44
577.43	48210.35
577.59	47393.51
577.75	47196.90
577.92	46569.64
578.08	46237.28
578.24	45904.93
578.40	46602.41
578.56	46445.59
578.72	47136.05
578.88	47028.38
579.04	47330.31
579.21	47473.09
579.37	47386.49
579.53	47613.52
579.69	47473.09
579.85	47735.23
580.01	47208.61
580.17	46941.78
580.33	46312.18
580.49	46487.72
580.65	47330.31
580.82	47641.60
580.98	47643.94
581.14	47107.96
581.30	47257.76
581.46	47246.05
581.62	47302.23
581.78	47468.40
581.94	47529.26
582.10	47660.33
582.26	47770.33
582.42	47608.84
582.58	47842.89
582.74	47622.88
582.90	47831.19
583.06	47667.35
583.22	47292.86
583.38	46904.34
583.54	47065.83
583.70	47026.04
583.86	46951.15
584.02	46941.78
584.18	47100.94
584.34	46880.93
584.50	47208.61
584.66	46951.15
584.82	46288.77
584.98	46218.56
585.14	45771.52
585.30	44870.41
