SpectraSuite Data File
++++++++++++++++++++++++++++++++++++
Date: Mon Oct 07 14:52:54 GMT-05:00 2013
User: price-jones
Dark Spectrum Present: No
Reference Spectrum Present: No
Number of Sampled Component Spectra: 1
Spectrometers: USB2+H05261
Integration Time (usec): 100000 (USB2+H05261)
Spectra Averaged: 1 (USB2+H05261)
Boxcar Smoothing: 0 (USB2+H05261)
Correct for Electrical Dark: No (USB2+H05261)
Strobe/Lamp Enabled: No (USB2+H05261)
Correct for Detector Non-linearity: No (USB2+H05261)
Correct for Stray Light: No (USB2+H05261)
Number of Pixels in Processed Spectrum: 2048
>>>>>Begin Processed Spectral Data<<<<<
365.73	0.00
365.92	0.00
366.12	0.00
366.32	0.00
366.52	0.00
366.72	0.00
366.91	0.00
367.11	0.00
367.31	0.00
367.51	0.00
367.70	0.00
367.90	0.00
368.10	0.00
368.30	0.00
368.49	0.00
368.69	0.00
368.89	0.00
369.09	0.00
369.28	0.00
369.48	0.00
369.68	0.00
369.87	0.00
370.07	0.00
370.27	0.00
370.47	1046.22
370.66	5041.51
370.86	5928.58
371.06	6038.58
371.25	6106.46
371.45	5474.51
371.65	4865.97
371.84	4755.97
372.04	5001.72
372.24	5504.94
372.44	5806.87
372.63	5547.07
372.83	5095.35
373.03	4671.71
373.22	4189.56
373.42	4531.28
373.62	5193.65
373.81	5650.05
374.01	5455.79
374.21	4940.87
374.40	4641.28
374.60	4919.81
374.79	5682.82
374.99	6480.94
375.19	6635.42
375.38	6689.25
375.58	6303.06
375.78	6118.16
375.97	6298.38
376.17	6630.74
376.37	6621.38
376.56	6796.92
376.76	7311.83
376.95	7583.34
377.15	8231.66
377.35	8535.93
377.54	8788.71
377.74	9034.47
377.93	8936.17
378.13	8690.41
378.33	8224.64
378.52	7737.81
378.72	7307.15
378.91	7258.00
379.11	6899.90
379.31	6782.87
379.50	6855.43
379.70	7358.64
379.89	7847.82
380.09	8681.05
380.28	8716.16
380.48	8538.27
380.68	8557.00
380.87	8215.28
381.07	7522.48
381.26	6885.86
381.46	6490.31
381.65	6422.43
381.85	6162.63
382.04	5858.36
382.24	5561.11
382.43	5247.48
382.63	5158.54
382.83	5273.23
383.02	5261.52
383.22	5179.61
383.41	5256.84
383.61	5542.39
383.80	6466.90
384.00	7300.13
384.19	8224.64
384.39	8566.36
384.58	8512.53
384.78	8594.45
384.97	8252.73
385.17	7658.23
385.36	7445.24
385.56	7176.08
385.75	7405.46
385.95	8210.60
386.14	8777.01
386.34	8678.71
386.53	8435.29
386.72	8088.89
386.92	8042.08
387.11	8376.78
387.31	8554.66
387.50	8404.86
387.70	8264.43
387.89	8329.97
388.09	8098.25
388.28	8238.69
388.48	8465.72
388.67	9123.41
388.86	10001.11
389.06	10740.72
389.25	11082.44
389.45	11328.19
389.64	11007.54
389.84	11105.84
390.03	10930.30
390.22	10843.70
390.42	11171.38
390.61	11782.26
390.81	12723.15
391.00	13027.42
391.19	12784.01
391.39	12229.30
391.58	11492.03
391.78	10839.02
391.97	10609.65
392.16	10029.20
392.36	8524.23
392.55	7178.42
392.75	5762.40
392.94	4835.55
393.13	4840.23
393.33	5731.97
393.52	7183.10
393.71	8578.06
393.91	9724.93
394.10	10888.17
394.29	11845.45
394.49	12512.50
394.68	13460.42
394.88	13331.69
395.07	14017.47
395.26	13858.31
395.46	13202.96
395.65	12376.75
395.84	10796.89
396.04	8915.10
396.23	7379.71
396.42	6307.74
396.62	6148.59
396.81	7419.50
397.00	9390.23
397.19	11494.37
397.39	13727.24
397.58	15332.85
397.77	15974.16
397.97	16940.80
398.16	16568.65
398.35	17521.25
398.55	17933.18
398.74	18647.05
398.93	19073.03
399.12	18801.52
399.32	18036.17
399.51	18717.26
399.70	19571.56
399.90	19239.20
400.09	19468.58
400.28	19419.42
400.47	19569.22
400.67	20531.18
400.86	21235.68
401.05	20971.20
401.24	21120.99
401.44	21439.31
401.63	21689.74
401.82	21556.33
402.01	21692.08
402.21	21633.57
402.40	21586.76
402.59	20943.11
402.78	20049.03
402.97	19726.04
403.17	20589.69
403.36	21509.52
403.55	22324.03
403.74	22977.04
403.93	21748.26
404.13	20023.28
404.32	19826.68
404.51	20748.85
404.70	21823.16
404.89	22181.26
405.09	21774.00
405.28	21209.93
405.47	21170.15
405.66	21198.23
405.85	20615.44
406.05	20421.17
406.24	20077.12
406.43	21338.66
406.62	22033.80
406.81	21830.18
407.00	21212.28
407.20	20795.66
407.39	20943.11
407.58	22272.54
407.77	22977.04
407.96	23669.84
408.15	23747.08
408.34	23817.29
408.54	24823.72
408.73	25083.52
408.92	24521.79
409.11	23761.12
409.30	22663.41
409.49	21212.28
409.68	19829.02
409.87	19604.33
410.07	20809.70
410.26	22216.36
410.45	23676.86
410.64	24222.20
410.83	24943.09
411.02	25654.61
411.21	26202.30
411.40	26263.15
411.59	26225.70
411.78	26043.14
411.98	25766.96
412.17	26651.68
412.36	25495.46
412.55	25832.49
412.74	25153.74
412.93	24683.29
413.12	25123.31
413.31	27538.74
413.50	27463.85
413.69	27934.29
413.88	26988.72
414.07	26260.81
414.26	26773.39
414.45	27391.29
414.64	27576.19
414.83	27529.38
415.02	27363.20
415.22	27098.72
415.41	27770.46
415.60	28671.56
415.79	29715.44
415.98	30101.63
416.17	30307.60
416.36	29373.72
416.55	28615.39
416.74	28004.51
416.93	27103.40
417.12	27211.07
417.31	28020.89
417.50	27957.70
417.69	28945.41
417.88	28797.95
418.07	28587.30
418.26	28367.29
418.45	28395.38
418.64	29413.51
418.83	30677.40
419.02	30143.76
419.21	29495.43
419.39	28229.20
419.58	27470.87
419.77	27260.22
419.96	28477.30
420.15	29961.20
420.34	30749.96
420.53	31789.16
420.72	32652.81
420.91	32114.49
421.10	31693.19
421.29	31517.65
421.48	30469.09
421.67	32039.59
421.86	30979.33
422.05	28453.89
422.24	25809.09
422.43	26160.17
422.61	28776.89
422.80	30799.11
422.99	30450.37
423.18	29497.77
423.37	28905.62
423.56	29450.96
423.75	29769.27
423.94	30029.07
424.13	28762.84
424.32	28814.34
424.50	29165.42
424.69	28624.75
424.88	28964.13
425.07	29137.33
425.26	29345.64
425.45	28210.48
425.64	28002.17
425.83	28023.23
426.01	29795.02
426.20	29862.90
426.39	29617.14
426.58	27803.22
426.77	25642.91
426.96	24652.86
427.15	26232.72
427.33	28002.17
427.52	28968.81
427.71	29015.62
427.90	28552.20
428.09	28421.13
428.28	27835.99
428.46	27014.46
428.65	26789.77
428.84	27573.85
429.03	27859.40
429.22	26258.47
429.40	24664.57
429.59	22277.22
429.78	19880.51
429.97	20070.09
430.16	20266.70
430.34	20486.71
430.53	20713.74
430.72	21462.71
430.91	23428.76
431.10	27669.81
431.28	32334.50
431.47	34712.49
431.66	34710.14
431.85	31356.16
432.03	29109.24
432.22	28039.62
432.41	29432.24
432.60	32147.26
432.79	33308.16
432.97	33933.09
433.16	33116.24
433.35	30235.04
433.54	27325.75
433.72	26129.74
433.91	26780.41
434.10	29776.30
434.28	31672.13
434.47	33432.21
434.66	32498.34
434.85	31964.70
435.03	31934.27
435.22	32622.39
435.41	34345.02
435.59	34834.19
435.78	34888.03
435.97	36521.72
436.16	36512.36
436.34	35421.67
436.53	34693.76
436.72	34906.75
436.90	33261.35
437.09	33305.82
437.28	32755.80
437.46	34141.39
437.65	33427.53
437.84	31187.64
438.02	28669.22
438.21	29116.26
438.40	30918.48
438.58	33303.48
438.77	33663.93
438.96	33949.47
439.14	35447.41
439.33	35899.14
439.52	36575.55
439.70	36067.66
439.89	35257.83
440.08	34684.40
440.26	34693.76
440.45	35604.23
440.63	37682.62
440.82	39599.52
441.01	39035.45
441.19	38824.81
441.38	39620.59
441.57	40589.57
441.75	40790.86
441.94	41226.20
442.12	40685.53
442.31	41893.25
442.50	41806.65
442.68	41123.21
442.87	40624.68
443.05	40055.93
443.24	40907.88
443.43	41626.43
443.61	42087.51
443.80	42614.13
443.98	40430.41
444.17	40603.61
444.35	42375.40
444.54	42967.55
444.73	42382.42
444.91	40891.50
445.10	39189.93
445.28	38038.39
445.47	37797.31
445.65	37785.61
445.84	39026.09
446.02	40135.51
446.21	40811.92
446.39	40982.78
446.58	41642.81
446.77	42309.86
446.95	42227.95
447.14	43519.92
447.32	43882.70
447.51	43023.73
447.69	41645.15
447.88	41415.78
448.06	41886.23
448.25	42635.20
448.43	42799.04
448.62	41738.77
448.80	42068.79
448.99	42312.20
449.17	42038.36
449.36	42897.34
449.54	44032.50
449.73	44605.93
449.91	45120.85
450.10	46085.15
450.28	46761.56
450.46	46356.65
450.65	46534.53
450.83	45448.52
451.02	45357.24
451.20	45125.53
451.39	44502.95
451.57	44605.93
451.76	45062.33
451.94	44519.33
452.13	43414.60
452.31	41804.31
452.49	39976.35
452.68	40484.25
452.86	40657.45
453.05	41242.58
453.23	42564.98
453.42	43763.34
453.60	44076.97
453.78	44596.57
453.97	44325.07
454.15	44486.56
454.34	43133.73
454.52	43569.07
454.70	42887.98
454.89	43337.36
455.07	43264.80
455.26	43969.30
455.44	45792.58
455.62	46174.09
455.81	45956.42
455.99	46218.56
456.17	45717.68
456.36	45652.15
456.54	46831.78
456.73	46848.16
456.91	47445.00
457.09	47746.93
457.28	48020.77
457.46	46368.35
457.64	46536.87
457.83	44938.29
458.01	43941.22
458.19	45925.99
458.38	46265.37
458.56	47044.77
458.74	46899.65
458.93	46176.43
459.11	45787.90
459.29	45935.35
459.48	45834.71
459.66	45708.32
459.84	46347.29
460.03	46328.56
460.21	46651.56
460.39	47332.65
460.57	47440.32
460.76	47683.73
460.94	48287.59
461.12	47814.80
461.31	47765.65
461.49	47576.07
461.67	47578.41
461.85	49085.72
462.04	48353.13
462.22	48570.80
462.40	48540.37
462.59	48582.50
462.77	48788.47
462.95	48872.73
463.13	47959.92
463.32	47585.43
463.50	47753.95
463.68	47585.43
463.86	47496.49
464.05	47339.68
464.23	46412.82
464.41	46328.56
464.59	45764.49
464.78	47709.48
464.96	47842.89
465.14	47007.32
465.32	48198.65
465.50	48779.10
465.69	49148.91
465.87	47711.82
466.05	46918.38
466.23	45289.37
466.41	44858.71
466.60	45951.74
466.78	45532.78
466.96	46663.26
467.14	47131.37
467.32	47498.83
467.51	47517.56
467.69	45848.75
467.87	46848.16
468.05	47487.13
468.23	47351.38
468.41	47182.86
468.60	46955.83
468.78	47709.48
468.96	47374.78
469.14	47999.71
469.32	48240.78
469.50	46710.07
469.69	46670.28
469.87	46199.83
470.05	45844.07
470.23	45764.49
470.41	46387.08
470.59	46644.54
470.77	47236.69
470.95	47807.78
471.14	47627.56
471.32	48280.57
471.50	50305.13
471.68	50328.54
471.86	50721.75
472.04	50473.65
472.22	50838.78
472.40	49162.95
472.58	49008.48
472.77	48662.08
472.95	49130.19
473.13	50068.74
473.31	48910.17
473.49	49279.98
473.67	50122.57
473.85	50241.94
474.03	51194.54
474.21	51239.01
474.39	51402.85
474.57	51807.76
474.75	51435.61
474.93	51526.89
475.12	50880.91
475.30	50834.10
475.48	50852.82
475.66	51220.28
475.84	50813.03
476.02	50337.90
476.20	50054.70
476.38	50705.37
476.56	51854.57
476.74	52505.24
476.92	52676.10
477.10	53165.27
477.28	53904.88
477.46	53895.52
477.64	54143.61
477.82	54092.12
478.00	54274.68
478.18	53829.98
478.36	53752.74
478.54	53701.25
478.72	54284.04
478.90	54756.83
479.08	55526.87
479.26	55636.87
479.44	55583.04
479.62	55381.76
479.80	55402.82
479.98	55730.50
480.16	55653.26
480.34	55454.31
480.52	55737.52
480.70	55950.51
480.88	56002.00
481.06	56427.98
481.24	56797.78
481.41	57387.60
481.59	57909.53
481.77	57502.28
481.95	57020.13
482.13	56966.30
482.31	57031.83
482.49	57612.29
482.67	57485.90
482.85	57663.78
483.03	58078.05
483.21	58188.06
483.39	58127.20
483.57	57619.31
483.74	57612.29
483.92	57874.43
484.10	57773.78
484.28	58539.14
484.46	58497.01
484.64	58824.68
484.82	58520.41
485.00	58080.39
485.18	57511.64
485.35	56598.83
485.53	54202.13
485.71	51573.70
485.89	51444.98
486.07	53223.78
486.25	55547.93
486.43	56926.51
486.61	57298.65
486.78	57305.68
486.96	57647.39
487.14	58691.27
487.32	59334.92
487.50	60086.23
487.68	60409.23
487.85	60720.52
488.03	60821.16
488.21	60308.58
488.39	59859.20
488.57	59545.57
488.75	59278.75
488.92	60327.31
489.10	61780.78
489.28	62583.58
489.46	63047.01
489.64	62965.09
489.81	63157.02
489.99	62794.23
490.17	62894.88
490.35	63065.73
490.53	62695.93
490.70	62354.21
490.88	62377.62
491.06	63241.28
491.24	63142.97
491.41	62234.84
491.59	60996.70
491.77	60755.63
491.95	61619.28
492.13	62326.13
492.30	63325.53
492.48	64088.55
492.66	64516.87
492.84	64360.05
493.01	64278.13
493.19	63737.47
493.37	63594.70
493.54	63234.25
493.72	64039.40
493.90	64814.12
494.08	65282.22
494.25	65483.51
494.43	65535.00
494.61	65535.00
494.79	65535.00
494.96	65535.00
495.14	65216.69
495.32	64573.04
495.49	64037.06
495.67	64907.74
495.85	65535.00
496.02	65535.00
496.20	65535.00
496.38	65535.00
496.55	65535.00
496.73	65535.00
496.91	65535.00
497.09	65535.00
497.26	65535.00
497.44	65535.00
497.62	65535.00
497.79	65244.77
497.97	64474.74
498.14	64589.42
498.32	65373.50
498.50	65535.00
498.67	65535.00
498.85	65535.00
499.03	65535.00
499.20	65535.00
499.38	65535.00
499.56	65535.00
499.73	65535.00
499.91	65535.00
500.08	65347.76
500.26	64956.89
500.44	65424.99
500.61	65535.00
500.79	65535.00
500.97	65396.91
501.14	65242.43
501.32	65254.14
501.49	65279.88
501.67	65471.81
501.84	65535.00
502.02	65535.00
502.20	65535.00
502.37	65535.00
502.55	65535.00
502.72	65535.00
502.90	65535.00
503.07	65535.00
503.25	65535.00
503.43	65535.00
503.60	65535.00
503.78	65001.36
503.95	65448.40
504.13	65535.00
504.30	65535.00
504.48	65535.00
504.65	65535.00
504.83	65535.00
505.01	65535.00
505.18	65535.00
505.36	65535.00
505.53	65535.00
505.71	65535.00
505.88	65535.00
506.06	65535.00
506.23	65535.00
506.41	65535.00
506.58	65535.00
506.76	65535.00
506.93	65535.00
507.11	65535.00
507.28	65535.00
507.46	65535.00
507.63	65535.00
507.81	65535.00
507.98	65535.00
508.16	65535.00
508.33	65535.00
508.50	65535.00
508.68	65535.00
508.85	65535.00
509.03	65535.00
509.20	65535.00
509.38	65535.00
509.55	65535.00
509.73	65535.00
509.90	65535.00
510.08	65535.00
510.25	65535.00
510.42	65535.00
510.60	65535.00
510.77	65535.00
510.95	65535.00
511.12	65535.00
511.30	65535.00
511.47	65535.00
511.64	65535.00
511.82	65535.00
511.99	65535.00
512.17	65535.00
512.34	65535.00
512.51	65535.00
512.69	65535.00
512.86	65535.00
513.04	65535.00
513.21	65535.00
513.38	65535.00
513.56	65535.00
513.73	65535.00
513.90	65535.00
514.08	65535.00
514.25	65535.00
514.43	65535.00
514.60	65535.00
514.77	65535.00
514.95	65535.00
515.12	65535.00
515.29	65535.00
515.47	65535.00
515.64	65535.00
515.81	65535.00
515.99	65535.00
516.16	65535.00
516.33	65535.00
516.51	63419.16
516.68	62548.48
516.85	62241.87
517.03	62848.06
517.20	65116.04
517.37	65535.00
517.54	65535.00
517.72	65535.00
517.89	65535.00
518.06	63723.43
518.24	63971.52
518.41	65385.21
518.58	65535.00
518.75	65535.00
518.93	65535.00
519.10	65535.00
519.27	65535.00
519.45	65535.00
519.62	65535.00
519.79	65535.00
519.96	65535.00
520.14	65535.00
520.31	65535.00
520.48	65535.00
520.65	65535.00
520.83	65535.00
521.00	65535.00
521.17	65535.00
521.34	65535.00
521.52	65535.00
521.69	65535.00
521.86	65535.00
522.03	65535.00
522.20	65535.00
522.38	65535.00
522.55	65535.00
522.72	65535.00
522.89	65535.00
523.07	65535.00
523.24	65535.00
523.41	65535.00
523.58	65535.00
523.75	65535.00
523.92	65535.00
524.10	65535.00
524.27	65535.00
524.44	65535.00
524.61	65535.00
524.78	65535.00
524.96	65535.00
525.13	65535.00
525.30	65535.00
525.47	65535.00
525.64	65535.00
525.81	65535.00
525.98	65535.00
526.16	65535.00
526.33	65535.00
526.50	65200.30
526.67	64994.34
526.84	65492.87
527.01	65535.00
527.18	65535.00
527.36	65535.00
527.53	65535.00
527.70	65535.00
527.87	65535.00
528.04	65535.00
528.21	65535.00
528.38	65535.00
528.55	65535.00
528.72	65535.00
528.89	65535.00
529.07	65535.00
529.24	65535.00
529.41	65535.00
529.58	65535.00
529.75	65535.00
529.92	65535.00
530.09	65535.00
530.26	65535.00
530.43	65535.00
530.60	65535.00
530.77	65535.00
530.94	65535.00
531.11	65535.00
531.28	65535.00
531.46	65535.00
531.63	65535.00
531.80	65535.00
531.97	65535.00
532.14	65535.00
532.31	65535.00
532.48	65535.00
532.65	65535.00
532.82	65535.00
532.99	65535.00
533.16	65535.00
533.33	65535.00
533.50	65535.00
533.67	65535.00
533.84	65535.00
534.01	65535.00
534.18	65535.00
534.35	65535.00
534.52	65535.00
534.69	65535.00
534.86	65535.00
535.03	65535.00
535.20	65535.00
535.37	65535.00
535.54	65535.00
535.71	65535.00
535.88	65535.00
536.05	65535.00
536.22	65535.00
536.38	65535.00
536.55	65535.00
536.72	65535.00
536.89	65535.00
537.06	65535.00
537.23	65535.00
537.40	65535.00
537.57	65535.00
537.74	65535.00
537.91	65535.00
538.08	65535.00
538.25	65535.00
538.42	65535.00
538.59	65535.00
538.75	65535.00
538.92	65535.00
539.09	65535.00
539.26	65535.00
539.43	65535.00
539.60	65535.00
539.77	65535.00
539.94	65535.00
540.11	65535.00
540.28	65535.00
540.44	65535.00
540.61	65535.00
540.78	65535.00
540.95	65535.00
541.12	65535.00
541.29	65535.00
541.46	65535.00
541.62	65535.00
541.79	65535.00
541.96	65535.00
542.13	65535.00
542.30	65535.00
542.47	65535.00
542.63	65535.00
542.80	65535.00
542.97	65535.00
543.14	65535.00
543.31	65535.00
543.48	65535.00
543.64	65535.00
543.81	65535.00
543.98	65535.00
544.15	65535.00
544.32	65535.00
544.48	65535.00
544.65	65535.00
544.82	65535.00
544.99	65535.00
545.16	65535.00
545.32	65535.00
545.49	65535.00
545.66	65535.00
545.83	65535.00
546.00	65535.00
546.16	65535.00
546.33	65535.00
546.50	65535.00
546.67	65535.00
546.83	65535.00
547.00	65535.00
547.17	65535.00
547.34	65535.00
547.50	65535.00
547.67	65535.00
547.84	65535.00
548.00	65535.00
548.17	65535.00
548.34	65535.00
548.51	65535.00
548.67	65535.00
548.84	65535.00
549.01	65535.00
549.18	65535.00
549.34	65535.00
549.51	65535.00
549.68	65535.00
549.84	65535.00
550.01	65535.00
550.18	65535.00
550.34	65535.00
550.51	65535.00
550.68	65535.00
550.84	65535.00
551.01	65535.00
551.18	65535.00
551.34	65535.00
551.51	65535.00
551.68	65535.00
551.84	65535.00
552.01	65535.00
552.18	65535.00
552.34	65535.00
552.51	65535.00
552.68	65535.00
552.84	65535.00
553.01	65535.00
553.18	65535.00
553.34	65535.00
553.51	65535.00
553.67	65535.00
553.84	65535.00
554.01	65535.00
554.17	65535.00
554.34	65535.00
554.51	65535.00
554.67	65535.00
554.84	65535.00
555.00	65535.00
555.17	65535.00
555.33	65535.00
555.50	65535.00
555.67	65535.00
555.83	65535.00
556.00	65535.00
556.16	65535.00
556.33	65535.00
556.50	65535.00
556.66	65535.00
556.83	65535.00
556.99	65535.00
557.16	65535.00
557.32	65535.00
557.49	65535.00
557.65	65535.00
557.82	65535.00
557.98	65535.00
558.15	65535.00
558.32	65455.42
558.48	64788.37
558.65	64919.44
558.81	65209.67
558.98	65535.00
559.14	65535.00
559.31	65535.00
559.47	65535.00
559.64	65352.44
559.80	64940.50
559.97	65300.95
560.13	65408.61
560.30	65535.00
560.46	65535.00
560.63	65535.00
560.79	65535.00
560.96	65535.00
561.12	65535.00
561.29	64762.62
561.45	64961.57
561.61	65490.53
561.78	65535.00
561.94	65535.00
562.11	65535.00
562.27	65535.00
562.44	65530.32
562.60	65535.00
562.77	65535.00
562.93	65535.00
563.10	65535.00
563.26	65535.00
563.42	65471.81
563.59	65350.10
563.75	65364.14
563.92	65340.74
564.08	65467.12
564.24	65535.00
564.41	65535.00
564.57	65535.00
564.74	65446.06
564.90	65406.27
565.07	65219.03
565.23	64933.48
565.39	64383.46
565.56	64264.09
565.72	64142.38
565.88	64479.42
566.05	64676.02
566.21	64851.56
566.38	64980.29
566.54	64771.99
566.70	65130.09
566.87	65385.21
567.03	65450.74
567.19	65513.94
567.36	65254.14
567.52	65195.62
567.68	64823.48
567.85	64551.98
568.01	64079.19
568.17	63770.24
568.34	63983.22
568.50	63681.30
568.66	63934.07
568.83	64343.67
568.99	64353.03
569.15	64643.26
569.32	64638.57
569.48	64364.73
569.64	64301.54
569.81	63957.48
569.97	63910.67
570.13	63847.47
570.30	63337.24
570.46	62911.26
570.62	62609.33
570.78	62745.08
570.95	62834.02
571.11	63395.75
571.27	63700.02
571.43	63875.56
571.60	64114.29
571.76	64334.31
571.92	64580.06
572.09	64540.27
572.25	64488.78
572.41	64486.44
572.57	64243.02
572.74	64090.89
572.90	64126.00
573.06	64065.14
573.22	64013.65
573.38	63936.41
573.55	63854.50
573.71	64051.10
573.87	64140.04
574.03	63873.22
574.20	63866.20
574.36	63519.80
574.52	63543.20
574.68	63227.23
574.84	62962.75
575.01	62752.10
575.17	62749.76
575.33	62929.98
575.49	63409.79
575.65	63433.20
575.82	63227.23
575.98	62960.41
576.14	63039.99
576.30	63079.78
576.46	63339.58
576.62	63351.28
576.79	63482.35
576.95	63028.29
577.11	63243.62
577.27	62929.98
577.43	63131.27
577.59	62541.45
577.75	62394.00
577.92	62148.24
578.08	61968.02
578.24	62019.52
578.40	62349.53
578.56	62269.95
578.72	62646.78
578.88	62632.74
579.04	62679.55
579.21	62974.45
579.37	62784.87
579.53	62897.22
579.69	62752.10
579.85	62922.96
580.01	62801.25
580.17	62452.51
580.33	62335.49
580.49	62410.38
580.65	62606.99
580.82	62838.70
580.98	62796.57
581.14	62831.68
581.30	62901.90
581.46	62709.97
581.62	62829.34
581.78	62773.17
581.94	63011.90
582.10	63063.39
582.26	63173.40
582.42	62906.58
582.58	62911.26
582.74	62960.41
582.90	62899.56
583.06	62850.41
583.22	62726.36
583.38	62688.91
583.54	62709.97
583.70	62812.96
583.86	62616.35
584.02	62674.87
584.18	62719.34
584.34	62651.46
584.50	62508.69
584.66	62447.83
584.82	62159.95
584.98	61895.47
