SpectraSuite Data File
++++++++++++++++++++++++++++++++++++
Date: Mon Oct 07 14:53:23 GMT-05:00 2013
User: price-jones
Dark Spectrum Present: No
Reference Spectrum Present: No
Number of Sampled Component Spectra: 1
Spectrometers: USB2+H05261
Integration Time (usec): 100000 (USB2+H05261)
Spectra Averaged: 1 (USB2+H05261)
Boxcar Smoothing: 0 (USB2+H05261)
Correct for Electrical Dark: No (USB2+H05261)
Strobe/Lamp Enabled: No (USB2+H05261)
Correct for Detector Non-linearity: No (USB2+H05261)
Correct for Stray Light: No (USB2+H05261)
Number of Pixels in Processed Spectrum: 2048
>>>>>Begin Processed Spectral Data<<<<<
365.73	0.00
365.92	0.00
366.12	0.00
366.32	0.00
366.52	0.00
366.72	0.00
366.91	0.00
367.11	0.00
367.31	0.00
367.51	0.00
367.70	0.00
367.90	0.00
368.10	0.00
368.30	0.00
368.49	0.00
368.69	0.00
368.89	0.00
369.09	0.00
369.28	0.00
369.48	0.00
369.68	0.00
369.87	0.00
370.07	0.00
370.27	0.00
370.47	510.24
370.66	2902.26
370.86	3435.91
371.06	3747.20
371.25	3733.15
371.45	3501.44
371.65	3091.85
371.84	2878.86
372.04	3016.95
372.24	3379.73
372.44	3370.37
372.63	3344.63
372.83	3208.87
373.03	2764.17
373.22	2665.87
373.42	2766.51
373.62	3166.74
373.81	3463.99
374.01	3501.44
374.21	3110.57
374.40	2878.86
374.60	3023.97
374.79	3379.73
374.99	3976.57
375.19	4252.75
375.38	4140.41
375.58	3997.64
375.78	3962.53
375.97	3920.40
376.17	4105.30
376.37	4086.58
376.56	4091.26
376.76	4498.51
376.95	4737.24
377.15	5022.79
377.35	5245.14
377.54	5413.66
377.74	5453.45
377.93	5657.07
378.13	5469.83
378.33	5221.74
378.52	4856.61
378.72	4568.73
378.91	4507.87
379.11	4376.80
379.31	4166.15
379.50	4187.22
379.70	4650.64
379.89	5186.63
380.09	5280.25
380.28	5406.64
380.48	5678.14
380.68	5467.49
380.87	5490.90
381.07	5004.07
381.26	4507.87
381.46	4187.22
381.65	4215.30
381.85	4117.00
382.04	3901.67
382.24	3433.57
382.43	3531.87
382.63	3323.56
382.83	3323.56
383.02	3545.91
383.22	3426.54
383.41	3440.59
383.61	3665.28
383.80	4056.15
384.00	4889.38
384.19	5245.14
384.39	5380.89
384.58	5434.72
384.78	5343.44
384.97	5249.82
385.17	5020.45
385.36	4755.97
385.56	4645.96
385.75	4741.93
385.95	5163.22
386.14	5593.88
386.34	5504.94
386.53	5474.51
386.72	5050.88
386.92	5233.44
387.11	5540.05
387.31	5589.20
387.50	5572.82
387.70	5294.29
387.89	5277.91
388.09	5327.06
388.28	5366.85
388.48	5378.55
388.67	5912.19
388.86	6436.47
389.06	7030.97
389.25	7281.41
389.45	7255.66
389.64	7412.48
389.84	7204.17
390.03	7054.37
390.22	7101.19
390.42	7358.64
390.61	7674.62
390.81	8365.07
391.00	8442.31
391.19	8524.23
391.39	8058.46
391.58	7829.09
391.78	7096.50
391.97	6984.16
392.16	6651.80
392.36	5947.30
392.55	4755.97
392.75	3812.73
392.94	3143.34
393.13	2970.14
393.33	3592.72
393.52	4596.81
393.71	5617.29
393.91	6354.55
394.10	7012.24
394.29	7716.75
394.49	8369.76
394.68	8767.65
394.88	8901.06
395.07	9329.38
395.26	8940.85
395.46	8865.95
395.65	8475.08
395.84	7442.90
396.04	6207.10
396.23	5090.67
396.42	4227.01
396.62	3932.10
396.81	4739.58
397.00	5916.87
397.19	7597.38
397.39	9022.77
397.58	10022.17
397.77	10726.68
397.97	11103.50
398.16	11180.74
398.35	11751.83
398.55	11985.88
398.74	12212.92
398.93	12690.38
399.12	12606.13
399.32	11843.11
399.51	12414.20
399.70	13146.79
399.90	13118.70
400.09	13439.36
400.28	13004.02
400.47	13123.38
400.67	13645.32
400.86	14033.85
401.05	14155.56
401.24	14143.86
401.44	14279.61
401.63	14319.40
401.82	14544.09
402.01	14352.16
402.21	14579.20
402.40	14569.83
402.59	14200.03
402.78	13642.98
402.97	13067.21
403.17	13612.56
403.36	14555.79
403.55	15185.40
403.74	15543.50
403.93	14546.43
404.13	13509.57
404.32	13090.62
404.51	13846.61
404.70	14836.66
404.89	14970.07
405.09	14747.72
405.28	14331.10
405.47	14267.91
405.66	14382.59
405.85	13837.25
406.05	13481.49
406.24	13621.92
406.43	14333.44
406.62	15140.93
406.81	15019.22
407.00	14129.81
407.20	13720.22
407.39	14288.97
407.58	14682.18
407.77	15372.64
407.96	15941.39
408.15	15899.26
408.34	15946.07
408.54	16903.35
408.73	16758.24
408.92	16517.16
409.11	16456.31
409.30	15765.85
409.49	14391.95
409.68	13661.71
409.87	13088.28
410.07	13984.70
410.26	15183.06
410.45	16119.27
410.64	16402.47
410.83	16980.59
411.02	17139.74
411.21	18094.68
411.40	17657.00
411.59	17741.26
411.78	17668.70
411.98	17771.69
412.17	17961.27
412.36	17216.98
412.55	17399.54
412.74	17008.67
412.93	16968.88
413.12	16716.11
413.31	18410.65
413.50	18766.42
413.69	19009.83
413.88	18314.69
414.07	17434.65
414.26	17968.29
414.45	18583.85
414.64	18499.59
414.83	18958.34
415.02	18265.54
415.22	18239.79
415.41	18867.06
415.60	19412.40
415.79	20020.94
415.98	20596.71
416.17	20678.63
416.36	20173.08
416.55	19772.85
416.74	19288.35
416.93	18675.13
417.12	18710.24
417.31	18874.08
417.50	19168.99
417.69	19620.71
417.88	19632.41
418.07	19775.19
418.26	19215.80
418.45	19543.47
418.64	19924.98
418.83	20730.12
419.02	20517.14
419.21	20224.57
419.39	19358.57
419.58	18595.56
419.77	18621.30
419.96	19028.56
420.15	20088.82
420.34	21198.23
420.53	21699.11
420.72	22251.47
420.91	22057.21
421.10	21565.70
421.29	21553.99
421.48	20842.47
421.67	21642.93
421.86	21057.80
422.05	20093.50
422.24	17851.27
422.43	17462.74
422.61	19590.28
422.80	21102.27
422.99	21097.59
423.18	20215.21
423.37	19840.72
423.56	19719.01
423.75	19983.49
423.94	20704.38
424.13	19721.35
424.32	19807.95
424.50	19852.42
424.69	19372.61
424.88	19674.54
425.07	20030.30
425.26	19580.92
425.45	19482.62
425.64	19035.58
425.83	19136.22
426.01	19852.42
426.20	20655.23
426.39	20851.83
426.58	19243.88
426.77	17804.46
426.96	16856.54
427.15	17418.27
427.33	19295.38
427.52	19740.08
427.71	19742.42
427.90	19435.81
428.09	19435.81
428.28	19066.00
428.46	18410.65
428.65	18183.62
428.84	18593.22
429.03	18941.96
429.22	17951.91
429.40	17142.08
429.59	15496.69
429.78	13472.12
429.97	13652.34
430.16	13752.99
430.34	14031.51
430.53	13942.57
430.72	14174.28
430.91	15587.97
431.10	18726.63
431.28	21891.03
431.47	23442.81
431.66	23594.94
431.85	21282.49
432.03	19702.63
432.22	19005.15
432.41	19686.25
432.60	21858.26
432.79	22794.48
432.97	23407.70
433.16	22878.74
433.35	20879.92
433.54	18857.70
433.72	17706.15
433.91	18080.64
434.10	20191.80
434.28	21631.23
434.47	22838.95
434.66	22752.35
434.85	22155.51
435.03	22132.11
435.22	22466.80
435.41	23583.24
435.59	23655.79
435.78	23901.55
435.97	24650.52
436.16	24772.23
436.34	24505.41
436.53	23922.62
436.72	23964.75
436.90	22363.82
437.09	22441.06
437.28	22162.53
437.46	22998.10
437.65	22766.39
437.84	21813.79
438.02	19761.14
438.21	19653.48
438.40	20716.08
438.58	22724.26
438.77	23321.10
438.96	23351.52
439.14	23913.25
439.33	24915.00
439.52	25212.25
439.70	24599.03
439.89	24004.53
440.08	23613.66
440.26	23463.87
440.45	24407.11
440.63	26015.05
440.82	26869.35
441.01	26450.39
441.19	26565.08
441.38	26766.37
441.57	27756.41
441.75	28173.03
441.94	28259.63
442.12	27744.71
442.31	28507.72
442.50	28582.62
442.68	28367.29
442.87	28016.21
443.05	27501.29
443.24	27761.09
443.43	28753.48
443.61	28776.89
443.80	29631.18
443.98	27653.43
444.17	27747.05
444.35	29720.12
444.54	29596.07
444.73	29465.00
444.91	28332.18
445.10	27278.94
445.28	26092.29
445.47	25504.82
445.65	26134.42
445.84	26515.93
446.02	27791.52
446.21	27824.29
446.39	27997.49
446.58	28348.57
446.77	28774.55
446.95	28786.25
447.14	29937.79
447.32	29956.52
447.51	29420.53
447.69	28102.81
447.88	27992.81
448.06	28638.80
448.25	29134.99
448.43	29394.79
448.62	28931.36
448.80	28545.17
448.99	28968.81
449.17	28950.09
449.36	29177.12
449.54	30221.00
449.73	30815.49
449.91	31077.63
450.10	31995.12
450.28	32378.97
450.46	31861.71
450.65	32208.11
450.83	32290.03
451.02	31379.56
451.20	31075.29
451.39	31103.38
451.57	30843.58
451.76	31084.65
451.94	30836.56
452.13	30106.31
452.31	28973.49
452.49	27314.05
452.68	28023.23
452.86	27520.02
453.05	28308.78
453.23	28779.23
453.42	29799.70
453.60	30558.03
453.78	30969.97
453.97	30469.09
454.15	30410.58
454.34	29708.42
454.52	29907.37
454.70	29006.26
454.89	29333.93
455.07	29813.74
455.26	30312.28
455.44	31536.38
455.62	31824.26
455.81	32343.86
455.99	31845.33
456.17	31395.95
456.36	31597.23
456.54	32411.74
456.73	32175.34
456.91	32847.08
457.09	33064.75
457.28	33387.74
457.46	32294.71
457.64	32311.10
457.83	31187.64
458.01	30127.38
458.19	31630.00
458.38	31309.35
458.56	32643.45
458.74	32313.44
458.93	31967.04
459.11	31873.42
459.29	31704.90
459.48	31545.74
459.66	31232.11
459.84	31700.22
460.03	32095.77
460.21	31819.58
460.39	33106.88
460.57	33053.05
460.76	33556.26
460.94	33235.61
461.12	32533.45
461.31	33235.61
461.49	32811.97
461.67	32814.31
461.85	34480.77
462.04	33752.87
462.22	34342.68
462.40	34022.03
462.59	33703.71
462.77	33787.97
462.95	34150.76
463.13	33392.42
463.32	33170.07
463.50	32673.88
463.68	33212.20
463.86	33385.40
464.05	32811.97
464.23	31934.27
464.41	31721.28
464.59	30892.73
464.78	32854.10
464.96	32882.19
465.14	32273.65
465.32	32989.85
465.50	34115.65
465.69	34396.51
465.87	33708.40
466.05	32650.47
466.23	31580.85
466.41	30574.42
466.60	31665.11
466.78	31424.03
466.96	32304.07
467.14	32547.49
467.32	33401.79
467.51	32814.31
467.69	31709.58
467.87	32002.14
468.05	32933.68
468.23	32603.66
468.41	32952.40
468.60	32760.48
468.78	33263.69
468.96	32837.72
469.14	33467.32
469.32	33474.34
469.50	31878.10
469.69	32142.58
469.87	31992.78
470.05	31882.78
470.23	31931.93
470.41	31997.46
470.59	32367.27
470.77	32388.33
470.95	33284.76
471.14	33352.63
471.32	33364.34
471.50	35578.48
471.68	35178.25
471.86	36233.83
472.04	35943.61
472.22	36236.17
472.40	34305.23
472.58	34047.77
472.77	33574.98
472.95	34242.04
473.13	34948.88
473.31	34174.16
473.49	34513.54
473.67	35330.39
473.85	35424.01
474.03	36397.67
474.21	36432.78
474.39	36921.95
474.57	37331.54
474.75	36643.43
474.93	36561.51
475.12	35807.86
475.30	35438.05
475.48	36027.87
475.66	36285.33
475.84	36531.08
476.02	35665.08
476.20	35353.79
476.38	35576.14
476.56	37179.41
476.74	37460.27
476.92	37729.44
477.10	38031.36
477.28	39545.69
477.46	39459.09
477.64	39470.79
477.82	39983.37
478.00	39871.03
478.18	39353.77
478.36	39065.88
478.54	39173.55
478.72	39786.77
478.90	40378.92
479.08	41481.31
479.26	42010.28
479.44	41764.52
479.62	42045.38
479.80	41315.14
479.98	41837.08
480.16	41787.92
480.34	41895.59
480.52	42127.30
480.70	42480.72
480.88	42831.80
481.06	42960.53
481.24	43866.32
481.41	44357.83
481.59	45408.73
481.77	44582.52
481.95	43938.88
482.13	43505.88
482.31	43903.77
482.49	44287.62
482.67	44432.73
482.85	44573.16
483.03	45696.62
483.21	45553.85
483.39	46000.89
483.57	44987.44
483.74	44704.23
483.92	45092.76
484.10	45052.97
484.28	46454.95
484.46	46611.77
484.64	46946.47
484.82	45886.20
485.00	45762.15
485.18	44807.22
485.35	43421.62
485.53	40570.85
485.71	36627.04
485.89	36568.53
486.07	38216.27
486.25	41584.30
486.43	43868.66
486.61	44325.07
486.78	44034.84
486.96	44634.02
487.14	46291.12
487.32	47253.08
487.50	48144.82
487.68	49272.96
487.85	49869.79
488.03	49610.00
488.21	49420.41
488.39	48299.30
488.57	48200.99
488.75	47189.88
488.92	48797.83
489.10	50958.14
489.28	52247.78
489.46	52858.66
489.64	52678.44
489.81	52727.59
489.99	52676.10
490.17	52711.20
490.35	52807.17
490.53	52453.75
490.70	51957.55
490.88	52257.14
491.06	53088.03
491.24	52849.30
491.41	51676.69
491.59	50113.21
491.77	49488.29
491.95	50213.85
492.13	51646.26
492.30	52999.09
492.48	53970.41
492.66	54382.35
492.84	54377.67
493.01	53928.28
493.19	53684.87
493.37	53111.44
493.54	53010.79
493.72	53544.44
493.90	54532.14
494.08	55480.06
494.25	55725.81
494.43	55648.58
494.61	56086.26
494.79	56287.54
494.96	56069.87
495.14	55655.60
495.32	54513.42
495.49	53942.33
495.67	55075.15
495.85	55973.91
496.02	56647.99
496.20	56619.90
496.38	56002.00
496.55	56086.26
496.73	56495.85
496.91	56346.06
497.09	57275.25
497.26	57427.38
497.44	56835.23
497.62	56104.98
497.79	55325.58
497.97	54138.93
498.14	54424.48
498.32	55671.98
498.50	56353.08
498.67	56823.53
498.85	56975.66
499.03	56849.27
499.20	57345.47
499.38	57237.80
499.56	57073.96
499.73	56505.21
499.91	56133.07
500.08	56109.66
500.26	55091.53
500.44	55650.92
500.61	56205.62
500.79	55896.67
500.97	55730.50
501.14	55561.98
501.32	55313.88
501.49	55421.55
501.67	55608.79
501.84	55964.55
502.02	56238.39
502.20	56516.92
502.37	57055.24
502.55	56811.82
502.72	57448.45
502.90	57804.21
503.07	57408.66
503.25	57176.95
503.43	56275.84
503.60	55550.27
503.78	55051.74
503.95	55594.74
504.13	57111.41
504.30	57822.93
504.48	57577.18
504.65	57366.53
504.83	57291.63
505.01	57689.52
505.18	58019.54
505.36	58691.27
505.53	58773.19
505.71	59133.63
505.88	59103.21
506.06	58255.93
506.23	58071.03
506.41	57626.33
506.58	57916.56
506.76	58141.25
506.93	57687.18
507.11	57457.81
507.28	57818.25
507.46	57511.64
507.63	56755.65
507.81	56828.21
507.98	56676.07
508.16	57432.07
508.33	57818.25
508.50	58358.92
508.68	58883.20
508.85	59056.40
509.03	59049.38
509.20	59114.91
509.38	58188.06
509.55	57738.68
509.73	57799.53
509.90	58115.50
510.08	58300.40
510.25	58066.35
510.42	58241.89
510.60	58054.65
510.77	58183.38
510.95	58836.39
511.12	58937.03
511.30	59215.55
511.47	59482.37
511.64	59461.31
511.82	59058.74
511.99	58248.91
512.17	58038.26
512.34	57544.41
512.51	57738.68
512.69	57961.03
512.86	58162.31
513.04	58356.58
513.21	58431.47
513.38	58033.58
513.56	57467.17
513.73	57010.77
513.90	57350.15
514.08	57237.80
514.25	57591.22
514.43	57478.88
514.60	57818.25
514.77	57963.37
514.95	57951.66
515.12	57932.94
515.29	58141.25
515.47	58702.98
515.64	58885.54
515.81	58534.46
515.99	58066.35
516.16	56587.13
516.33	54150.63
516.51	52963.98
516.68	52060.54
516.85	51562.00
517.03	52006.70
517.20	54635.13
517.37	57165.24
517.54	58110.82
517.72	57900.17
517.89	55117.28
518.06	52655.03
518.24	53064.63
518.41	55217.92
518.58	56816.50
518.75	56945.23
518.93	57125.46
519.10	56989.70
519.27	57668.46
519.45	57567.82
519.62	58520.41
519.79	58756.81
519.96	58534.46
520.14	58145.93
520.31	57221.42
520.48	57069.28
520.65	57469.51
520.83	58412.75
521.00	58972.14
521.17	58536.80
521.34	58188.06
521.52	58595.31
521.69	58899.58
521.86	59264.70
522.03	59054.06
522.20	57989.11
522.38	56907.79
522.55	56940.55
522.72	57649.74
522.89	57766.76
523.07	58071.03
523.24	58312.11
523.41	58988.52
523.58	59157.04
523.75	59824.09
523.92	59363.01
524.10	59348.96
524.27	59576.00
524.44	59245.98
524.61	59100.87
524.78	59009.59
524.96	58983.84
525.13	58906.60
525.30	59182.79
525.47	59622.81
525.64	59477.69
525.81	58866.81
525.98	57296.31
526.16	56039.45
526.33	55318.56
526.50	55037.70
526.67	54688.96
526.84	55182.81
527.01	56109.66
527.18	57104.39
527.36	58157.63
527.53	58951.07
527.70	59351.30
527.87	58674.89
528.04	57972.73
528.21	58482.97
528.38	59047.04
528.55	59566.63
528.72	60023.04
528.89	60025.38
529.07	59847.50
529.24	59044.69
529.41	58548.50
529.58	58176.36
529.75	58145.93
529.92	58473.60
530.09	59000.22
530.26	59461.31
530.43	59774.94
530.60	59758.56
530.77	59929.42
530.94	59980.91
531.11	59552.59
531.28	59257.68
531.46	59175.76
531.63	59182.79
531.80	59192.15
531.97	58660.85
532.14	57996.13
532.31	57088.01
532.48	56329.67
532.65	56292.22
532.82	57139.50
532.99	58204.44
533.16	58450.20
533.33	59168.74
533.50	59058.74
533.67	58562.54
533.84	58138.91
534.01	58361.26
534.18	58375.30
534.35	58614.04
534.52	58305.09
534.69	58897.24
534.86	58953.41
535.03	59372.37
535.20	59730.47
535.37	60013.68
535.54	60020.70
535.71	59714.09
535.88	59517.48
536.05	58838.73
536.22	58333.17
536.38	58178.70
536.55	57549.09
536.72	57029.49
536.89	56933.53
537.06	57743.36
537.23	58688.93
537.40	58855.11
537.57	58749.79
537.74	58766.17
537.91	58712.34
538.08	58649.14
538.25	58651.48
538.42	58798.94
538.59	58686.59
538.75	58017.20
538.92	57832.30
539.09	57827.62
539.26	57408.66
539.43	57092.69
539.60	57427.38
539.77	57574.84
539.94	57600.58
540.11	56645.65
540.28	56144.77
540.44	56355.42
540.61	56666.71
540.78	56804.80
540.95	57226.10
541.12	57471.85
541.29	57710.59
541.46	58113.16
541.62	58232.53
541.79	57951.66
541.96	57331.42
542.13	57382.91
542.30	57563.14
542.47	57949.32
542.63	57441.43
542.80	57373.55
542.97	57619.31
543.14	57336.10
543.31	57460.15
543.48	57963.37
543.64	58773.19
543.81	58904.26
543.98	58707.66
544.15	58330.83
544.32	57593.56
544.48	57535.05
544.65	58113.16
544.82	58583.61
544.99	58269.98
545.16	57652.08
545.32	57755.06
545.49	58504.03
545.66	58534.46
545.83	58447.86
546.00	57951.66
546.16	57544.41
546.33	57668.46
546.50	57525.69
546.67	57890.81
546.83	57687.18
547.00	57808.89
547.17	57097.37
547.34	56573.09
547.50	56442.02
547.67	56992.04
547.84	57151.20
548.00	57471.85
548.17	57623.99
548.34	57750.38
548.51	57537.39
548.67	57556.11
548.84	57535.05
549.01	57677.82
549.18	57595.90
549.34	57375.89
549.51	57673.14
549.68	57633.35
549.84	57415.68
550.01	57092.69
550.18	57123.11
550.34	57165.24
550.51	57265.89
550.68	57429.72
550.84	56718.20
551.01	57029.49
551.18	57052.90
551.34	57092.69
551.51	57375.89
551.68	57733.99
551.84	57691.86
552.01	57506.96
552.18	57394.62
552.34	56790.76
552.51	56231.37
552.68	56175.20
552.84	56743.95
553.01	56879.70
553.18	56879.70
553.34	57228.44
553.51	57209.71
553.67	57352.49
553.84	57455.47
554.01	57137.16
554.17	57195.67
554.34	57270.57
554.51	57558.45
554.67	57909.53
554.84	57476.54
555.00	57120.77
555.17	57080.98
555.33	56844.59
555.50	56753.31
555.67	57048.22
555.83	56835.23
556.00	56402.23
556.16	56509.89
556.33	56079.24
556.50	55917.74
556.66	55767.94
556.83	55758.58
556.99	55756.24
557.16	56069.87
557.32	56093.28
557.49	56488.83
557.65	56142.43
557.82	56430.32
557.98	56240.73
558.15	55697.73
558.32	54845.77
558.48	54075.74
558.65	54164.68
558.81	54609.38
558.98	54925.35
559.14	55330.26
559.31	55199.19
559.47	55126.64
559.64	54927.69
559.80	54576.61
559.97	54614.06
560.13	55206.22
560.30	56257.12
560.46	56575.43
560.63	56622.24
560.79	56589.47
560.96	56126.05
561.12	55405.16
561.29	54260.64
561.45	54461.93
561.61	54955.78
561.78	55393.46
561.94	55227.28
562.11	55131.32
562.27	54937.05
562.44	55302.18
562.60	55716.45
562.77	55831.14
562.93	55550.27
563.10	55585.38
563.26	55025.99
563.42	54981.52
563.59	54948.76
563.75	55000.25
563.92	54965.14
564.08	54962.80
564.24	55496.44
564.41	55309.20
564.57	55084.51
564.74	54794.28
564.90	54813.01
565.07	54562.57
565.23	54368.30
565.39	53705.93
565.56	53776.15
565.72	53165.27
565.88	53535.07
566.05	53595.93
566.21	54000.84
566.38	54148.29
566.54	54328.52
566.70	54688.96
566.87	54843.43
567.03	54864.50
567.19	54920.67
567.36	54717.04
567.52	54588.31
567.68	54461.93
567.85	53701.25
568.01	53279.96
568.17	53183.99
568.34	52790.78
568.50	52924.19
568.66	53097.39
568.83	53645.08
568.99	53673.16
569.15	53638.06
569.32	53645.08
569.48	53279.96
569.64	53317.40
569.81	53102.07
569.97	52683.12
570.13	52853.98
570.30	52383.53
570.46	52081.60
570.62	51337.31
570.78	50965.17
570.95	51337.31
571.11	52296.93
571.27	52428.00
571.43	52638.65
571.60	53081.01
571.76	53155.91
571.92	53396.98
572.09	53818.28
572.25	53621.67
572.41	53546.78
572.57	53244.85
572.74	53340.81
572.90	52865.68
573.06	52863.34
573.22	52891.43
573.38	53137.18
573.55	53113.78
573.71	53261.23
573.87	53176.97
574.03	52793.12
574.20	52849.30
574.36	52315.65
574.52	52418.64
574.68	52013.73
574.84	51615.83
575.01	51171.13
575.17	51423.91
575.33	51554.98
575.49	51742.22
575.65	51594.77
575.82	51608.81
575.98	51510.51
576.14	51866.27
576.30	51976.28
576.46	52147.14
576.62	52048.83
576.79	52140.11
576.95	51821.80
577.11	51358.38
577.27	51522.21
577.43	51924.78
577.59	51372.42
577.75	51070.49
577.92	50124.91
578.08	49785.54
578.24	49804.26
578.40	50417.48
578.56	50803.67
578.72	50878.57
578.88	51068.15
579.04	51009.64
579.21	51264.75
579.37	51330.29
579.53	51178.15
579.69	51353.69
579.85	51449.66
580.01	51477.74
580.17	50880.91
580.33	50740.47
580.49	50864.52
580.65	51330.29
580.82	51056.45
580.98	51150.07
581.14	51269.43
581.30	51264.75
581.46	50983.89
581.62	51405.19
581.78	51318.59
581.94	51351.35
582.10	51491.79
582.26	51459.02
582.42	51615.83
582.58	51164.11
582.74	51356.03
582.90	51681.37
583.06	51353.69
583.22	51187.52
583.38	50944.10
583.54	51103.26
583.70	50925.38
583.86	51239.01
584.02	51114.96
584.18	50908.99
584.34	51030.70
584.50	50663.24
584.66	50742.81
584.82	50117.89
584.98	50092.15
585.14	49888.52
585.30	49216.78
