SpectraSuite Data File
++++++++++++++++++++++++++++++++++++
Date: Mon Oct 07 14:54:59 GMT-05:00 2013
User: price-jones
Dark Spectrum Present: No
Reference Spectrum Present: No
Number of Sampled Component Spectra: 1
Spectrometers: USB2+H05261
Integration Time (usec): 10000 (USB2+H05261)
Spectra Averaged: 1 (USB2+H05261)
Boxcar Smoothing: 0 (USB2+H05261)
Correct for Electrical Dark: No (USB2+H05261)
Strobe/Lamp Enabled: No (USB2+H05261)
Correct for Detector Non-linearity: No (USB2+H05261)
Correct for Stray Light: No (USB2+H05261)
Number of Pixels in Processed Spectrum: 2048
>>>>>Begin Processed Spectral Data<<<<<
365.73	0.00
365.92	0.00
366.12	0.00
366.32	0.00
366.52	0.00
366.72	0.00
366.91	0.00
367.11	0.00
367.31	0.00
367.51	0.00
367.70	0.00
367.90	0.00
368.10	0.00
368.30	0.00
368.49	0.00
368.69	0.00
368.89	0.00
369.09	0.00
369.28	0.00
369.48	0.00
369.68	0.00
369.87	0.00
370.07	0.00
370.27	0.00
370.47	0.00
370.66	496.19
370.86	655.35
371.06	854.30
371.25	706.84
371.45	641.31
371.65	503.22
371.84	510.24
372.04	550.03
372.24	606.20
372.44	641.31
372.63	681.10
372.83	557.05
373.03	437.68
373.22	489.17
373.42	550.03
373.62	667.05
373.81	674.07
374.01	688.12
374.21	575.77
374.40	603.86
374.60	568.75
374.79	688.12
374.99	882.38
375.19	936.21
375.38	945.58
375.58	861.32
375.78	786.42
375.97	772.38
376.17	908.13
376.37	908.13
376.56	976.00
376.76	983.02
376.95	978.34
377.15	1069.62
377.35	1121.12
377.54	1303.68
377.74	1217.08
377.93	1177.29
378.13	1191.33
378.33	1078.99
378.52	807.48
378.72	924.51
378.91	1004.09
379.11	866.00
379.31	877.70
379.50	936.21
379.70	1055.58
379.89	1100.05
380.09	1128.14
380.28	1193.67
380.48	1317.72
380.68	1217.08
380.87	1217.08
381.07	985.37
381.26	854.30
381.46	854.30
381.65	880.04
381.85	875.36
382.04	669.39
382.24	706.84
382.43	578.11
382.63	627.26
382.83	610.88
383.02	585.13
383.22	650.67
383.41	557.05
383.61	638.97
383.80	877.70
384.00	966.64
384.19	1181.97
384.39	1132.82
384.58	1064.94
384.78	1097.71
384.97	1125.80
385.17	1048.56
385.36	985.37
385.56	971.32
385.75	1020.47
385.95	1081.33
386.14	1210.06
386.34	1114.10
386.53	1130.48
386.72	1093.03
386.92	1027.50
387.11	1165.59
387.31	1076.65
387.50	1139.84
387.70	1128.14
387.89	1067.28
388.09	1179.63
388.28	1074.31
388.48	1179.63
388.67	1179.63
388.86	1401.98
389.06	1472.20
389.25	1542.41
389.45	1577.52
389.64	1621.99
389.84	1544.75
390.03	1369.21
390.22	1577.52
390.42	1647.74
390.61	1708.59
390.81	1923.92
391.00	1839.66
391.19	1778.81
391.39	1732.00
391.58	1631.35
391.78	1479.22
391.97	1500.28
392.16	1341.13
392.36	1219.42
392.55	968.98
392.75	641.31
392.94	540.66
393.13	559.39
393.33	690.46
393.52	947.92
393.71	1289.64
393.91	1324.74
394.10	1486.24
394.29	1561.14
394.49	1685.19
394.68	1956.69
394.88	1806.89
395.07	1930.94
395.26	2003.50
395.46	1839.66
395.65	1643.06
395.84	1493.26
396.04	1188.99
396.23	954.94
396.42	798.12
396.62	765.36
396.81	1006.43
397.00	1273.25
397.19	1607.95
397.39	1849.02
397.58	2188.40
397.77	2417.77
397.97	2331.17
398.16	2408.41
398.35	2642.46
398.55	2656.51
398.74	2719.70
398.93	2696.30
399.12	2670.55
399.32	2600.34
399.51	2715.02
399.70	2869.50
399.90	2752.47
400.09	2768.85
400.28	2785.24
400.47	2778.22
400.67	2984.18
400.86	2967.80
401.05	3005.25
401.24	2913.97
401.44	3063.76
401.63	2986.52
401.82	3066.10
402.01	3084.83
402.21	3030.99
402.40	2998.23
402.59	2799.28
402.78	2818.00
402.97	2850.77
403.17	2771.19
403.36	3087.17
403.55	3110.57
403.74	3117.59
403.93	3012.27
404.13	2726.72
404.32	2698.64
404.51	2984.18
404.70	3117.59
404.89	3009.93
405.09	2988.86
405.28	2906.95
405.47	3000.57
405.66	2850.77
405.85	2834.39
406.05	2719.70
406.24	3049.72
406.43	3005.25
406.62	2993.55
406.81	3028.65
407.00	2906.95
407.20	2918.65
407.39	2803.96
407.58	2958.44
407.77	3108.23
407.96	3201.85
408.15	3131.64
408.34	3288.45
408.54	3431.23
408.73	3311.86
408.92	3386.76
409.11	3087.17
409.30	3070.78
409.49	2750.13
409.68	2698.64
409.87	2693.96
410.07	2991.20
410.26	3045.04
410.45	3098.87
410.64	3300.16
410.83	3447.61
411.02	3634.85
411.21	3730.81
411.40	3492.08
411.59	3524.85
411.78	3620.81
411.98	3632.51
412.17	3463.99
412.36	3353.99
412.55	3534.21
412.74	3307.18
412.93	3361.01
413.12	3438.25
413.31	3744.86
413.50	3627.83
413.69	3667.62
413.88	3562.30
414.07	3616.13
414.26	3592.72
414.45	3559.95
414.64	3571.66
414.83	3648.90
415.02	3576.34
415.22	3625.49
415.41	3655.92
415.60	3808.05
415.79	4081.89
415.98	3901.67
416.17	4149.77
416.36	3948.48
416.55	3868.91
416.74	3782.31
416.93	3688.68
417.12	3627.83
417.31	3754.22
417.50	3737.84
417.69	3653.58
417.88	3819.75
418.07	3822.09
418.26	3779.97
418.45	3810.39
418.64	3838.48
418.83	4067.85
419.02	4046.79
419.21	3777.62
419.39	3646.55
419.58	3522.51
419.77	3662.94
419.96	3693.37
420.15	3983.59
420.34	4177.86
420.53	4262.12
420.72	4049.13
420.91	4147.43
421.10	4168.49
421.29	4173.18
421.48	4049.13
421.67	4138.07
421.86	3920.40
422.05	3648.90
422.24	3201.85
422.43	3389.10
422.61	3693.37
422.80	4018.70
422.99	3950.82
423.18	3843.16
423.37	3728.47
423.56	3826.78
423.75	3801.03
423.94	4032.74
424.13	3847.84
424.32	3693.37
424.50	3653.58
424.69	3693.37
424.88	3716.77
425.07	3712.09
425.26	3627.83
425.45	3520.17
425.64	3522.51
425.83	3625.49
426.01	3747.20
426.20	3803.37
426.39	3756.56
426.58	3435.91
426.77	3101.21
426.96	3133.98
427.15	3148.02
427.33	3574.00
427.52	3604.42
427.71	3534.21
427.90	3536.55
428.09	3543.57
428.28	3372.71
428.46	3253.34
428.65	3356.33
428.84	3269.73
429.03	3332.92
429.22	3096.53
429.40	2963.12
429.59	2782.90
429.78	2438.84
429.97	2466.92
430.16	2415.43
430.34	2457.56
430.53	2375.64
430.72	2558.21
430.91	2972.48
431.10	3325.90
431.28	3880.61
431.47	4198.92
431.66	3992.95
431.85	3887.63
432.03	3552.93
432.22	3438.25
432.41	3625.49
432.60	3999.98
432.79	4142.75
432.97	4234.03
433.16	4035.08
433.35	3531.87
433.54	3307.18
433.72	3180.79
433.91	3187.81
434.10	3700.39
434.28	3864.22
434.47	3960.19
434.66	3847.84
434.85	3861.88
435.03	3864.22
435.22	3875.93
435.41	4095.94
435.59	4095.94
435.78	4278.50
435.97	4362.76
436.16	4301.90
436.34	4196.58
436.53	4168.49
436.72	4063.17
436.90	3953.16
437.09	3866.56
437.28	3901.67
437.46	3957.85
437.65	3969.55
437.84	3620.81
438.02	3410.16
438.21	3461.65
438.40	3676.98
438.58	3765.92
438.77	3777.62
438.96	4079.55
439.14	4318.29
439.33	4278.50
439.52	4159.13
439.70	3936.78
439.89	3878.27
440.08	3882.95
440.26	3927.42
440.45	4081.89
440.63	4451.70
440.82	4564.04
441.01	4496.17
441.19	4379.14
441.38	4608.51
441.57	4823.84
441.75	4727.88
441.94	4880.02
442.12	4847.25
442.31	4943.21
442.50	4748.95
442.68	4851.93
442.87	4624.90
443.05	4437.66
443.24	4690.43
443.43	4760.65
443.61	4873.00
443.80	4987.68
443.98	4723.20
444.17	4564.04
444.35	4856.61
444.54	4947.89
444.73	4947.89
444.91	4585.11
445.10	4599.15
445.28	4327.65
445.47	4126.36
445.65	4325.31
445.84	4442.34
446.02	4435.32
446.21	4568.73
446.39	4662.35
446.58	4671.71
446.77	4777.03
446.95	4704.48
447.14	4924.49
447.32	4894.06
447.51	4760.65
447.69	4575.75
447.88	4589.79
448.06	4753.63
448.25	4896.40
448.43	4784.06
448.62	4711.50
448.80	4629.58
448.99	4650.64
449.17	4802.78
449.36	4678.73
449.54	4781.71
449.73	4901.08
449.91	4842.57
450.10	5036.83
450.28	5212.37
450.46	5053.22
450.65	5165.56
450.83	5125.77
451.02	4847.25
451.20	4994.70
451.39	4908.10
451.57	4931.51
451.76	4999.38
451.94	4880.02
452.13	4671.71
452.31	4538.30
452.49	4493.83
452.68	4318.29
452.86	4334.67
453.05	4428.29
453.23	4690.43
453.42	4732.56
453.60	4842.57
453.78	4751.29
453.97	4709.16
454.15	4795.76
454.34	4571.07
454.52	4615.54
454.70	4372.12
454.89	4566.39
455.07	4582.77
455.26	4657.67
455.44	4896.40
455.62	5146.84
455.81	4891.72
455.99	4999.38
456.17	4830.87
456.36	4861.29
456.54	4952.57
456.73	4875.34
456.91	4943.21
457.09	5107.05
457.28	5057.90
457.46	4830.87
457.64	4760.65
457.83	4638.94
458.01	4599.15
458.19	4662.35
458.38	4772.35
458.56	4905.76
458.74	4954.91
458.93	4833.21
459.11	4973.64
459.29	4833.21
459.48	4741.93
459.66	4823.84
459.84	4884.70
460.03	4697.46
460.21	4777.03
460.39	4992.36
460.57	4957.25
460.76	5102.37
460.94	4959.60
461.12	5071.94
461.31	4940.87
461.49	4985.34
461.67	4936.19
461.85	4924.49
462.04	4915.12
462.22	5069.60
462.40	5083.64
462.59	4961.94
462.77	4971.30
462.95	4919.81
463.13	5004.07
463.32	4793.42
463.50	4821.50
463.68	4931.51
463.86	4765.33
464.05	4791.08
464.23	4734.90
464.41	4596.81
464.59	4575.75
464.78	4774.69
464.96	4863.63
465.14	4809.80
465.32	4678.73
465.50	4929.17
465.69	4936.19
465.87	4739.58
466.05	4732.56
466.23	4711.50
466.41	4461.06
466.60	4517.23
466.78	4528.94
466.96	4594.47
467.14	4713.84
467.32	4662.35
467.51	4746.61
467.69	4482.13
467.87	4564.04
468.05	4685.75
468.23	4753.63
468.41	4723.20
468.60	4695.11
468.78	4713.84
468.96	4610.86
469.14	4840.23
469.32	4781.71
469.50	4681.07
469.69	4552.34
469.87	4528.94
470.05	4533.62
470.23	4402.55
470.41	4566.39
470.59	4505.53
470.77	4620.22
470.95	4786.40
471.14	4870.65
471.32	4739.58
471.50	5062.58
471.68	5027.47
471.86	5203.01
472.04	5032.15
472.22	5029.81
472.40	4896.40
472.58	4767.67
472.77	4615.54
472.95	4821.50
473.13	4851.93
473.31	4880.02
473.49	4856.61
473.67	4973.64
473.85	4938.53
474.03	5015.77
474.21	5041.51
474.39	5036.83
474.57	5071.94
474.75	5153.86
474.93	4947.89
475.12	4688.09
475.30	5034.49
475.48	4929.17
475.66	4870.65
475.84	5081.30
476.02	5008.75
476.20	4863.63
476.38	4908.10
476.56	5109.39
476.74	5097.69
476.92	5200.67
477.10	5247.48
477.28	5425.36
477.46	5352.81
477.64	5451.11
477.82	5460.47
478.00	5408.98
478.18	5380.89
478.36	5247.48
478.54	5467.49
478.72	5322.38
478.90	5493.24
479.08	5577.50
479.26	5727.29
479.44	5755.38
479.62	5565.79
479.80	5710.91
479.98	5713.25
480.16	5621.97
480.34	5490.90
480.52	5647.71
480.70	5617.29
480.88	5788.14
481.06	6026.88
481.24	5724.95
481.41	5977.73
481.59	6080.71
481.77	5944.96
481.95	5865.38
482.13	5900.49
482.31	5905.17
482.49	5970.71
482.67	5933.26
482.85	5973.05
483.03	6260.93
483.21	6256.25
483.39	6289.02
483.57	6036.24
483.74	5947.30
483.92	6223.48
484.10	5930.92
484.28	6277.32
484.46	6237.53
484.64	6064.33
484.82	6059.65
485.00	5893.47
485.18	6090.07
485.35	5668.78
485.53	5256.84
485.71	4746.61
485.89	4793.42
486.07	4964.28
486.25	5509.62
486.43	5582.18
486.61	5813.89
486.78	5757.72
486.96	5928.58
487.14	6125.18
487.32	6031.56
487.50	6424.77
487.68	6623.72
487.85	6710.32
488.03	6670.53
488.21	6581.59
488.39	6483.28
488.57	6342.85
488.75	6277.32
488.92	6406.05
489.10	6967.77
489.28	7218.21
489.46	7517.80
489.64	7108.21
489.81	7375.03
489.99	7316.51
490.17	7073.10
490.35	7438.22
490.53	7180.76
490.70	7077.78
490.88	6993.52
491.06	7279.07
491.24	7309.49
491.41	7080.12
491.59	6614.35
491.77	6321.79
491.95	6672.87
492.13	6899.90
492.30	7403.11
492.48	7639.51
492.66	7487.37
492.84	7456.95
493.01	7403.11
493.19	7281.41
493.37	7396.09
493.54	7138.63
493.72	7199.49
493.90	7639.51
494.08	7775.26
494.25	8011.65
494.43	7948.46
494.61	7997.61
494.79	7941.44
494.96	7887.61
495.14	7777.60
495.32	7688.66
495.49	7470.99
495.67	7571.63
495.85	8023.36
496.02	8212.94
496.20	8100.59
496.38	7845.48
496.55	7847.82
496.73	8124.00
496.91	8081.87
497.09	8124.00
497.26	8348.69
497.44	8002.29
497.62	7882.92
497.79	7655.89
497.97	7145.66
498.14	7503.76
498.32	7911.01
498.50	7955.48
498.67	8241.03
498.85	8147.40
499.03	8236.35
499.20	8388.48
499.38	8299.54
499.56	7885.26
499.73	7815.05
499.91	7791.64
500.08	7911.01
500.26	7590.36
500.44	7634.83
500.61	7871.22
500.79	7672.28
500.97	7578.65
501.14	7494.40
501.32	7599.72
501.49	7576.31
501.67	7499.08
501.84	7803.35
502.02	7885.26
502.20	7889.95
502.37	7838.45
502.55	8042.08
502.72	8175.49
502.90	8367.42
503.07	8241.03
503.25	7861.86
503.43	7875.90
503.60	7637.17
503.78	7449.93
503.95	7538.87
504.13	7889.95
504.30	8098.25
504.48	8021.02
504.65	7915.69
504.83	7999.95
505.01	8222.30
505.18	8163.79
505.36	8479.76
505.53	8524.23
505.71	8692.75
505.88	8542.96
506.06	8348.69
506.23	8095.91
506.41	8121.66
506.58	8243.37
506.76	8236.35
506.93	8138.04
507.11	8013.99
507.28	8049.10
507.46	7911.01
507.63	7819.73
507.81	7784.62
507.98	7761.22
508.16	7887.61
508.33	8124.00
508.50	8241.03
508.68	8334.65
508.85	8442.31
509.03	8329.97
509.20	8449.33
509.38	8131.02
509.55	8079.53
509.73	7988.25
509.90	8212.94
510.08	8016.33
510.25	8053.78
510.42	8056.12
510.60	8056.12
510.77	7983.57
510.95	8346.35
511.12	8336.99
511.30	8610.83
511.47	8442.31
511.64	8404.86
511.82	8306.56
511.99	8093.57
512.17	8030.38
512.34	7911.01
512.51	7927.39
512.69	8084.21
512.86	7962.50
513.04	8035.06
513.21	8013.99
513.38	8042.08
513.56	8006.97
513.73	7517.80
513.90	7953.14
514.08	7571.63
514.25	8025.70
514.43	7929.74
514.60	7871.22
514.77	7765.90
514.95	7751.85
515.12	8028.04
515.29	7880.58
515.47	8269.11
515.64	8259.75
515.81	8175.49
515.99	7962.50
516.16	7440.56
516.33	6843.73
516.51	6553.50
516.68	6183.70
516.85	6305.40
517.03	6356.90
517.20	6782.87
517.37	7524.82
517.54	7782.28
517.72	7625.47
517.89	6895.22
518.06	6534.78
518.24	6651.80
518.41	7087.14
518.58	7545.89
518.75	7716.75
518.93	7550.57
519.10	7564.61
519.27	7641.85
519.45	7726.11
519.62	7995.27
519.79	7756.54
519.96	7925.05
520.14	7801.01
520.31	7365.67
520.48	7536.52
520.65	7616.10
520.83	7981.23
521.00	8081.87
521.17	7833.77
521.34	7857.18
521.52	7918.03
521.69	8028.04
521.86	8194.22
522.03	7906.33
522.20	7791.64
522.38	7496.74
522.55	7398.43
522.72	7520.14
522.89	7620.78
523.07	7590.36
523.24	7709.72
523.41	7896.97
523.58	8053.78
523.75	8091.23
523.92	8081.87
524.10	8243.37
524.27	8091.23
524.44	7981.23
524.61	7899.31
524.78	7894.63
524.96	7896.97
525.13	7798.66
525.30	7873.56
525.47	8205.92
525.64	8224.64
525.81	7768.24
525.98	7314.17
526.16	7016.93
526.33	6782.87
526.50	6806.28
526.67	6590.95
526.84	6909.26
527.01	7199.49
527.18	7262.68
527.36	7625.47
527.53	7721.43
527.70	7918.03
527.87	7660.57
528.04	7606.74
528.21	7627.81
528.38	7868.88
528.55	8224.64
528.72	8116.98
528.89	8077.19
529.07	8159.11
529.24	7941.44
529.41	7466.31
529.58	7548.23
529.75	7557.59
529.92	7873.56
530.09	7651.21
530.26	7882.92
530.43	7962.50
530.60	7843.14
530.77	8114.64
530.94	7913.35
531.11	7885.26
531.28	7854.84
531.46	7721.43
531.63	7772.92
531.80	7946.12
531.97	7768.24
532.14	7274.38
532.31	7215.87
532.48	6885.86
532.65	6998.20
532.82	7197.15
532.99	7445.24
533.16	7562.27
533.33	7595.04
533.50	7627.81
533.67	7573.97
533.84	7489.71
534.01	7515.46
534.18	7524.82
534.35	7513.12
534.52	7602.06
534.69	7583.34
534.86	7742.49
535.03	7765.90
535.20	7822.07
535.37	7964.84
535.54	8070.17
535.71	7899.31
535.88	7758.88
536.05	7674.62
536.22	7508.44
536.38	7344.60
536.55	7295.45
536.72	7180.76
536.89	7159.70
537.06	7470.99
537.23	7595.04
537.40	7705.04
537.57	7564.61
537.74	7466.31
537.91	7590.36
538.08	7489.71
538.25	7520.14
538.42	7623.12
538.59	7534.18
538.75	7187.79
538.92	7258.00
539.09	7122.25
539.26	7138.63
539.43	7211.19
539.60	6960.75
539.77	7112.89
539.94	7143.32
540.11	6920.96
540.28	6637.76
540.44	6771.17
540.61	7059.06
540.78	6810.96
540.95	7211.19
541.12	6977.14
541.29	7190.13
541.46	7232.26
541.62	7033.31
541.79	7201.83
541.96	7143.32
542.13	7164.38
542.30	7297.79
542.47	7208.85
542.63	7162.04
542.80	7023.95
542.97	7080.12
543.14	6902.24
543.31	6988.84
543.48	7098.84
543.64	7438.22
543.81	7368.01
543.98	7625.47
544.15	7201.83
544.32	7122.25
544.48	7049.69
544.65	7119.91
544.82	7286.09
544.99	7276.73
545.16	7243.96
545.32	6930.33
545.49	7300.13
545.66	7105.87
545.83	7297.79
546.00	6988.84
546.16	6752.45
546.33	7166.72
546.50	7178.42
546.67	7155.02
546.83	7185.44
547.00	6998.20
547.17	6930.33
547.34	6761.81
547.50	6633.08
547.67	6684.57
547.84	6829.68
548.00	6864.79
548.17	7115.23
548.34	7037.99
548.51	7021.61
548.67	7199.49
548.84	7066.08
549.01	7063.74
549.18	7049.69
549.34	7110.55
549.51	7021.61
549.68	6937.35
549.84	7087.14
550.01	7087.14
550.18	6848.41
550.34	6836.70
550.51	6892.88
550.68	6848.41
550.84	6834.36
551.01	6864.79
551.18	6754.79
551.34	6654.14
551.51	6904.58
551.68	7084.80
551.84	7040.33
552.01	6864.79
552.18	7037.99
552.34	6778.19
552.51	6656.48
552.68	6642.44
552.84	6740.74
553.01	6829.68
553.18	6782.87
553.34	6583.93
553.51	6691.59
553.67	6829.68
553.84	6799.26
554.01	6689.25
554.17	6785.21
554.34	6834.36
554.51	6958.41
554.67	6871.81
554.84	6785.21
555.00	6890.54
555.17	6874.15
555.33	6836.70
555.50	6684.57
555.67	6846.07
555.83	6534.78
556.00	6525.41
556.16	6600.31
556.33	6438.81
556.50	6497.33
556.66	6431.79
556.83	6413.07
556.99	6502.01
557.16	6595.63
557.32	6441.15
557.49	6715.00
557.65	6604.99
557.82	6623.72
557.98	6394.34
558.15	6399.02
558.32	6242.21
558.48	6066.67
558.65	6064.33
558.81	6239.87
558.98	6221.14
559.14	6083.05
559.31	6293.70
559.47	6153.27
559.64	6057.31
559.80	6153.27
559.97	6127.52
560.13	6382.64
560.30	6509.03
560.46	6710.32
560.63	6670.53
560.79	6588.61
560.96	6384.98
561.12	6289.02
561.29	5987.09
561.45	6113.48
561.61	6129.86
561.78	6279.66
561.94	6340.51
562.11	6310.08
562.27	6272.64
562.44	6258.59
562.60	6392.00
562.77	6410.73
562.93	6317.11
563.10	6319.45
563.26	6183.70
563.42	6183.70
563.59	5977.73
563.75	6239.87
563.92	6200.08
564.08	6167.31
564.24	6246.89
564.41	6223.48
564.57	6155.61
564.74	6272.64
564.90	6125.18
565.07	6012.84
565.23	5893.47
565.39	5687.50
565.56	5949.64
565.72	5694.52
565.88	5865.38
566.05	5966.03
566.21	6012.84
566.38	5921.56
566.54	5947.30
566.70	6040.92
566.87	5928.58
567.03	6012.84
567.19	6085.39
567.36	6017.52
567.52	5926.24
567.68	6040.92
567.85	5858.36
568.01	5905.17
568.17	5631.33
568.34	5640.69
568.50	5764.74
568.66	5518.98
568.83	5813.89
568.99	5820.91
569.15	5664.10
569.32	5891.13
569.48	5748.36
569.64	5802.19
569.81	5568.13
569.97	5570.48
570.13	5614.95
570.30	5612.60
570.46	5488.56
570.62	5420.68
570.78	5320.04
570.95	5469.83
571.11	5575.16
571.27	5474.51
571.43	5647.71
571.60	5598.56
571.76	5767.08
571.92	5898.15
572.09	5748.36
572.25	5813.89
572.41	5722.61
572.57	5731.97
572.74	5724.95
572.90	5757.72
573.06	5703.89
573.22	5701.54
573.38	5753.04
573.55	5556.43
573.71	5589.20
573.87	5673.46
574.03	5771.76
574.20	5830.27
574.36	5624.31
574.52	5633.67
574.68	5528.35
574.84	5401.96
575.01	5345.78
575.17	5291.95
575.33	5221.74
575.49	5518.98
575.65	5458.13
575.82	5345.78
575.98	5385.57
576.14	5334.08
576.30	5345.78
576.46	5425.36
576.62	5408.98
576.79	5401.96
576.95	5310.68
577.11	5497.92
577.27	5191.31
577.43	5369.19
577.59	5303.65
577.75	5219.39
577.92	5242.80
578.08	5053.22
578.24	4997.04
578.40	5104.71
578.56	5357.49
578.72	5118.75
578.88	5231.10
579.04	5334.08
579.21	5322.38
579.37	5273.23
579.53	5294.29
579.69	5268.55
579.85	5247.48
580.01	5203.01
580.17	4931.51
580.33	5188.97
580.49	5172.58
580.65	5125.77
580.82	5177.26
580.98	5203.01
581.14	5193.65
581.30	5465.15
581.46	5277.91
581.62	5301.31
581.78	5348.12
581.94	5235.78
582.10	5193.65
582.26	5221.74
582.42	5359.83
582.58	5310.68
582.74	5249.82
582.90	5315.36
583.06	5200.67
583.22	5313.02
583.38	5249.82
583.54	5301.31
583.70	5263.86
583.86	5102.37
584.02	5191.31
584.18	5128.11
584.34	5188.97
584.50	5231.10
584.66	5109.39
584.82	5078.96
584.98	5085.98
585.14	4931.51
585.30	4774.69
585.46	4716.18
585.62	4826.18
585.78	4952.57
585.94	4966.62
586.10	4945.55
586.26	4990.02
586.42	5146.84
586.58	5015.77
586.74	4975.98
586.90	5046.20
587.06	4980.66
587.22	5008.75
587.38	4957.25
587.54	4844.91
587.70	4912.78
587.86	4652.98
588.02	4704.48
588.18	4779.37
588.34	4601.49
588.49	4287.86
588.65	4166.15
588.81	4077.21
588.97	4180.20
589.13	4149.77
589.29	4135.73
589.45	4243.39
589.61	4353.40
589.77	4477.44
589.93	4622.56
590.08	4606.17
590.24	4868.31
590.40	4889.38
590.56	4739.58
590.72	4702.14
590.88	4538.30
591.04	4535.96
591.20	4571.07
591.35	4580.43
591.51	4636.60
591.67	4664.69
591.83	4561.70
591.99	4475.10
592.15	4599.15
592.31	4702.14
592.46	4599.15
592.62	4524.26
592.78	4486.81
592.94	4496.17
593.10	4573.41
593.26	4627.24
593.41	4486.81
593.57	4629.58
593.73	4437.66
593.89	4587.45
594.05	4444.68
594.20	4283.18
594.36	4435.32
594.52	4362.76
594.68	4437.66
594.84	4238.71
594.99	4159.13
595.15	4294.88
595.31	4346.37
595.47	4381.48
595.62	4479.79
595.78	4580.43
595.94	4339.35
596.10	4559.36
596.25	4381.48
596.41	4292.54
596.57	4430.63
596.73	4388.50
596.88	4599.15
597.04	4374.46
597.20	4301.90
