SpectraSuite Data File
++++++++++++++++++++++++++++++++++++
Date: Mon Oct 07 14:53:45 GMT-05:00 2013
User: price-jones
Dark Spectrum Present: No
Reference Spectrum Present: No
Number of Sampled Component Spectra: 1
Spectrometers: USB2+H05261
Integration Time (usec): 100000 (USB2+H05261)
Spectra Averaged: 1 (USB2+H05261)
Boxcar Smoothing: 0 (USB2+H05261)
Correct for Electrical Dark: No (USB2+H05261)
Strobe/Lamp Enabled: No (USB2+H05261)
Correct for Detector Non-linearity: No (USB2+H05261)
Correct for Stray Light: No (USB2+H05261)
Number of Pixels in Processed Spectrum: 2048
>>>>>Begin Processed Spectral Data<<<<<
365.73	0.00
365.92	0.00
366.12	0.00
366.32	0.00
366.52	0.00
366.72	0.00
366.91	0.00
367.11	0.00
367.31	0.00
367.51	0.00
367.70	0.00
367.90	0.00
368.10	0.00
368.30	0.00
368.49	0.00
368.69	0.00
368.89	0.00
369.09	0.00
369.28	0.00
369.48	0.00
369.68	0.00
369.87	0.00
370.07	0.00
370.27	0.00
370.47	660.03
370.66	3218.24
370.86	3784.65
371.06	4159.13
371.25	4086.58
371.45	3873.59
371.65	3459.31
371.84	3281.43
372.04	3290.79
372.24	3667.62
372.44	3878.27
372.63	4002.32
372.83	3623.15
373.03	3187.81
373.22	2944.39
373.42	2963.12
373.62	3417.18
373.81	3691.02
374.01	3934.44
374.21	3445.27
374.40	3206.53
374.60	3438.25
374.79	3763.58
374.99	4311.27
375.19	4727.88
375.38	4699.80
375.58	4402.55
375.78	4358.08
375.97	4337.01
376.17	4491.49
376.37	4594.47
376.56	4849.59
376.76	4961.94
376.95	5214.71
377.15	5694.52
377.35	5947.30
377.54	6157.95
377.74	6221.14
377.93	6291.36
378.13	6036.24
378.33	5909.85
378.52	5416.00
378.72	5050.88
378.91	5132.79
379.11	4954.91
379.31	4798.10
379.50	4615.54
379.70	5231.10
379.89	5736.65
380.09	5968.37
380.28	6150.93
380.48	6216.46
380.68	6197.74
380.87	6005.81
381.07	5568.13
381.26	5015.77
381.46	4844.91
381.65	4564.04
381.85	4465.74
382.04	4329.99
382.24	4079.55
382.43	3871.25
382.63	3726.13
382.83	3815.07
383.02	3667.62
383.22	3674.64
383.41	3751.88
383.61	4091.26
383.80	4449.36
384.00	5287.27
384.19	5914.53
384.39	6249.23
384.58	6134.54
384.78	6026.88
384.97	6017.52
385.17	5680.48
385.36	5324.72
385.56	5226.42
385.75	5308.34
385.95	5706.23
386.14	6487.96
386.34	6413.07
386.53	6057.31
386.72	5823.25
386.92	5785.80
387.11	5963.68
387.31	6314.77
387.50	6223.48
387.70	6005.81
387.89	5844.32
388.09	6047.94
388.28	5891.13
388.48	5975.39
388.67	6635.42
388.86	7253.32
389.06	7815.05
389.25	8098.25
389.45	8194.22
389.64	8126.34
389.84	8339.33
390.03	7946.12
390.22	7941.44
390.42	8327.63
390.61	8659.98
390.81	9224.05
391.00	9664.07
391.19	9324.69
391.39	9186.60
391.58	8587.43
391.78	8142.72
391.97	7838.45
392.16	7431.20
392.36	6984.16
392.55	5537.71
392.75	4322.97
392.94	3410.16
393.13	3431.23
393.33	3985.93
393.52	5245.14
393.71	6401.37
393.91	7239.28
394.10	7889.95
394.29	8608.49
394.49	9507.26
394.68	9818.55
394.88	10064.30
395.07	10450.49
395.26	10370.91
395.46	10148.56
395.65	9317.67
395.84	8121.66
396.04	7213.53
396.23	5722.61
396.42	4688.09
396.62	4365.10
396.81	5336.42
397.00	6916.28
397.19	8627.21
397.39	10171.97
397.58	11243.93
397.77	12131.00
397.97	12552.29
398.16	12781.67
398.35	13048.49
398.55	13577.45
398.74	14029.17
398.93	14380.25
399.12	14244.50
399.32	13795.12
399.51	13802.14
399.70	14813.25
399.90	14691.54
400.09	14527.71
400.28	14518.34
400.47	14600.26
400.67	15117.52
400.86	15763.51
401.05	15618.39
401.24	15754.15
401.44	16355.66
401.63	16039.69
401.82	16673.98
402.01	16353.32
402.21	16685.68
402.40	16624.83
402.59	16079.48
402.78	15365.62
402.97	14759.42
403.17	15599.67
403.36	16278.43
403.55	16950.16
403.74	17572.74
403.93	16322.90
404.13	15173.69
404.32	14883.47
404.51	15536.48
404.70	16816.75
404.89	16620.14
405.09	16566.31
405.28	16215.23
405.47	16109.91
405.66	15775.21
405.85	15735.42
406.05	15241.57
406.24	15370.30
406.43	16023.31
406.62	16498.44
406.81	16858.88
407.00	16020.97
407.20	15737.76
407.39	16016.29
407.58	16720.79
407.77	17193.58
407.96	18132.13
408.15	18302.99
408.34	18082.98
408.54	18853.02
408.73	18939.62
408.92	18750.03
409.11	18300.65
409.30	17228.68
409.49	16388.43
409.68	15260.29
409.87	14876.44
410.07	15363.28
410.26	17039.10
410.45	18026.81
410.64	18157.88
410.83	18824.93
411.02	19552.84
411.21	20671.61
411.40	20025.62
411.59	20407.13
411.78	19623.05
411.98	19578.58
412.17	20074.77
412.36	20056.05
412.55	19868.81
412.74	19133.88
412.93	18712.58
413.12	19012.17
413.31	20664.59
413.50	21240.36
413.69	21530.59
413.88	20357.98
414.07	20140.31
414.26	20362.66
414.45	20755.87
414.64	20926.73
414.83	21284.83
415.02	20563.95
415.22	20648.21
415.41	21343.35
415.60	22125.08
415.79	22551.06
415.98	23243.86
416.17	23784.52
416.36	22546.38
416.55	22396.59
416.74	21743.58
416.93	20929.07
417.12	21020.35
417.31	21263.77
417.50	21638.25
417.69	21926.14
417.88	22349.78
418.07	22008.06
418.26	21741.24
418.45	21900.39
418.64	22745.33
418.83	23543.45
419.02	23295.35
419.21	23105.77
419.39	21900.39
419.58	20767.57
419.77	21053.12
419.96	21860.60
420.15	23396.00
420.34	23796.23
420.53	24397.74
420.72	25184.16
420.91	25132.67
421.10	24697.33
421.29	24329.87
421.48	23274.29
421.67	24636.48
421.86	24233.91
422.05	22675.11
422.24	20285.42
422.43	20081.80
422.61	22057.21
422.80	23927.30
422.99	24011.56
423.18	23264.92
423.37	22574.47
423.56	22878.74
423.75	23082.36
423.94	23201.73
424.13	21989.33
424.32	22361.48
424.50	22279.56
424.69	22019.76
424.88	22647.02
425.07	22272.54
425.26	22125.08
425.45	22057.21
425.64	21923.80
425.83	21429.94
426.01	22607.23
426.20	23473.23
426.39	23271.95
426.58	21642.93
426.77	20163.72
426.96	19293.04
427.15	19751.78
427.33	21455.69
427.52	22188.28
427.71	22623.62
427.90	22068.91
428.09	22094.66
428.28	21593.78
428.46	21039.08
428.65	20407.13
428.84	20903.32
429.03	21188.87
429.22	20428.20
429.40	19178.35
429.59	17558.70
429.78	15410.09
429.97	15393.70
430.16	15782.23
430.34	15882.88
430.53	15733.08
430.72	16177.78
430.91	17638.28
431.10	20409.47
431.28	24402.43
431.47	26515.93
431.66	26927.86
431.85	24554.56
432.03	22576.81
432.22	21792.73
432.41	22106.36
432.60	24788.61
432.79	25275.45
432.97	26438.69
433.16	25919.09
433.35	23714.31
433.54	21451.01
433.72	19861.79
433.91	20514.80
434.10	22726.60
434.28	24601.37
434.47	25795.04
434.66	25546.95
434.85	25165.44
435.03	24549.88
435.22	25500.14
435.41	26930.20
435.59	26780.41
435.78	27180.64
435.97	28322.82
436.16	28119.20
436.34	27531.72
436.53	26862.33
436.72	27388.95
436.90	25530.56
437.09	25820.79
437.28	25242.68
437.46	26185.91
437.65	26321.66
437.84	24552.22
438.02	22183.60
438.21	22040.82
438.40	23543.45
438.58	25582.06
438.77	25893.35
438.96	26324.01
439.14	27449.80
439.33	27889.82
439.52	28376.66
439.70	28039.62
439.89	27419.38
440.08	26417.63
440.26	26270.17
440.45	27243.84
440.63	29198.18
440.82	30754.64
441.01	30307.60
441.19	29724.80
441.38	30487.82
441.57	31318.71
441.75	32126.19
441.94	32273.65
442.12	31718.94
442.31	32636.43
442.50	32800.27
442.68	31880.44
442.87	31613.62
443.05	31442.76
443.24	31608.93
443.43	32290.03
443.61	33170.07
443.80	33579.67
443.98	31501.27
444.17	31409.99
444.35	33149.01
444.54	34213.95
444.73	33223.90
444.91	32156.62
445.10	30602.50
445.28	29219.25
445.47	29102.22
445.65	29324.57
445.84	29989.28
446.02	30850.60
446.21	31777.45
446.39	31775.11
446.58	31840.65
446.77	32528.77
446.95	32734.73
447.14	34043.09
447.32	34569.71
447.51	33490.73
447.69	32327.48
447.88	32311.10
448.06	32243.22
448.25	33268.37
448.43	33443.91
448.62	32690.26
448.80	32517.06
448.99	32844.74
449.17	33254.33
449.36	33001.55
449.54	34457.37
449.73	34993.35
449.91	35192.30
450.10	36376.61
450.28	36678.54
450.46	36081.70
450.65	36449.16
450.83	36472.57
451.02	35480.18
451.20	35145.48
451.39	35101.01
451.57	34710.14
451.76	34878.66
451.94	34429.28
452.13	33916.70
452.31	32371.95
452.49	31253.17
452.68	31377.22
452.86	31527.02
453.05	32144.92
453.23	32835.38
453.42	33876.91
453.60	34649.29
453.78	34785.04
453.97	34462.05
454.15	34632.91
454.34	33900.32
454.52	33816.06
454.70	33247.31
454.89	34061.82
455.07	33876.91
455.26	34366.09
455.44	35608.91
455.62	36318.09
455.81	36175.32
455.99	36231.49
456.17	35819.56
456.36	35346.77
456.54	36683.22
456.73	36741.73
456.91	37343.25
457.09	37387.72
457.28	38274.78
457.46	36854.08
457.64	36128.51
457.83	35424.01
458.01	34639.93
458.19	35349.11
458.38	35395.92
458.56	36603.64
458.74	36928.97
458.93	36128.51
459.11	35894.46
459.29	35962.33
459.48	36180.00
459.66	35667.42
459.84	35920.20
460.03	36636.41
460.21	36491.29
460.39	37230.90
460.57	37752.84
460.76	38202.22
460.94	37954.13
461.12	37315.16
461.31	37656.88
461.49	37471.98
461.67	37223.88
461.85	38808.42
462.04	38251.38
462.22	38120.31
462.40	38873.96
462.59	38796.72
462.77	38789.70
462.95	38824.81
463.13	37441.55
463.32	37624.11
463.50	37298.78
463.68	37228.56
463.86	37614.75
464.05	37333.89
464.23	36503.00
464.41	36594.28
464.59	35641.68
464.78	37244.94
464.96	37167.71
465.14	37020.25
465.32	37666.24
465.50	38665.65
465.69	38890.34
465.87	38052.43
466.05	37354.95
466.23	35927.22
466.41	34658.65
466.60	35339.75
466.78	35318.68
466.96	36416.40
467.14	36835.35
467.32	37624.11
467.51	37624.11
467.69	36189.36
467.87	36669.17
468.05	36957.06
468.23	36952.38
468.41	37387.72
468.60	37392.40
468.78	37603.05
468.96	36898.55
469.14	37696.67
469.32	38202.22
469.50	36477.25
469.69	36779.18
469.87	36170.64
470.05	36058.29
470.23	36566.19
470.41	36297.03
470.59	37088.13
470.77	36921.95
470.95	37865.19
471.14	38010.30
471.32	38029.02
471.50	40304.02
471.68	40025.50
471.86	40348.50
472.04	40540.42
472.22	41003.85
472.40	38658.63
472.58	38906.73
472.77	38082.86
472.95	39409.94
473.13	39913.16
473.31	39187.59
473.49	39295.25
473.67	40095.72
473.85	40016.14
474.03	41160.66
474.21	41202.79
474.39	41600.68
474.57	41827.71
474.75	41867.50
474.93	41460.25
475.12	40411.69
475.30	40418.71
475.48	40374.24
475.66	41553.87
475.84	40678.51
476.02	40566.16
476.20	39936.56
476.38	40500.63
476.56	41727.07
476.74	42431.57
476.92	42504.13
477.10	43304.59
477.28	44877.43
477.46	44570.82
477.64	44884.45
477.82	44921.90
478.00	45198.09
478.18	44222.08
478.36	44332.09
478.54	44460.82
478.72	44685.51
478.90	45322.13
479.08	46508.79
479.26	47248.39
479.44	47262.44
479.62	46534.53
479.80	46258.35
479.98	47000.30
480.16	47199.24
480.34	46869.23
480.52	47344.36
480.70	47152.43
480.88	47196.90
481.06	48046.52
481.24	48423.34
481.41	49397.01
481.59	49764.47
481.77	49698.94
481.95	48891.45
482.13	48889.11
482.31	49001.46
482.49	49441.48
482.67	49303.38
482.85	49764.47
483.03	50293.43
483.21	50728.77
483.39	50539.19
483.57	50031.29
483.74	49661.49
483.92	49895.54
484.10	50167.04
484.28	51264.75
484.46	51323.27
484.64	51627.54
484.82	50724.09
485.00	50546.21
485.18	49771.49
485.35	48313.34
485.53	45230.85
485.71	42017.30
485.89	40964.06
486.07	43009.68
486.25	46553.26
486.43	48982.73
486.61	49483.61
486.78	49425.09
486.96	49378.28
487.14	51150.07
487.32	51901.38
487.50	52559.07
487.68	53609.97
487.85	53837.00
488.03	53977.43
488.21	53689.55
488.39	52921.85
488.57	52285.23
488.75	52149.48
488.92	53123.14
489.10	54752.15
489.28	55994.98
489.46	56563.73
489.64	56453.72
489.81	56729.90
489.99	56250.09
490.17	56282.86
490.35	56708.84
490.53	56161.15
490.70	55906.04
490.88	55796.03
491.06	56645.65
491.24	56589.47
491.41	55950.51
491.59	54358.94
491.77	53294.00
491.95	54735.77
492.13	55774.97
492.30	56739.27
492.48	57574.84
492.66	58115.50
492.84	57806.55
493.01	57584.20
493.19	56963.96
493.37	56935.87
493.54	56526.28
493.72	57254.18
493.90	58134.23
494.08	58913.62
494.25	59166.40
494.43	59243.64
494.61	59625.15
494.79	59564.29
494.96	59571.32
495.14	58915.96
495.32	58164.65
495.49	57656.76
495.67	58204.44
495.85	59592.38
496.02	60116.66
496.20	59831.11
496.38	59491.74
496.55	59398.12
496.73	59779.62
496.91	59887.29
497.09	60544.98
497.26	60678.39
497.44	60090.91
497.62	59735.15
497.79	59068.10
497.97	57668.46
498.14	58003.16
498.32	59030.65
498.50	59805.37
498.67	60200.92
498.85	60355.39
499.03	60231.35
499.20	60416.25
499.38	60477.10
499.56	60280.50
499.73	59978.57
499.91	59686.00
500.08	59253.00
500.26	58436.16
500.44	58829.37
500.61	59571.32
500.79	59402.80
500.97	59051.72
501.14	58913.62
501.32	58869.15
501.49	58960.44
501.67	59068.10
501.84	59440.24
502.02	59697.70
502.20	60137.72
502.37	60135.38
502.55	60083.89
502.72	60718.18
502.90	61226.07
503.07	60882.02
503.25	60580.09
503.43	59889.63
503.60	59344.28
503.78	58424.45
503.95	58969.80
504.13	60397.52
504.30	60910.10
504.48	60912.44
504.65	60530.93
504.83	60425.61
505.01	61113.73
505.18	61446.08
505.36	61813.55
505.53	61890.79
505.71	62131.86
505.88	62176.33
506.06	61740.99
506.23	61350.12
506.41	61064.58
506.58	61284.59
506.76	61029.47
506.93	61240.12
507.11	60921.80
507.28	61031.81
507.46	60622.22
507.63	60069.85
507.81	59952.82
507.98	60339.01
508.16	60907.76
508.33	61441.40
508.50	61677.80
508.68	61879.08
508.85	62279.31
509.03	62239.53
509.20	62054.62
509.38	61616.94
509.55	60945.21
509.73	60858.61
509.90	61492.89
510.08	61764.40
510.25	61516.30
510.42	61450.77
510.60	61102.03
510.77	61684.82
510.95	61930.58
511.12	62248.89
511.30	62316.76
511.47	62658.48
511.64	62606.99
511.82	62464.22
511.99	61663.75
512.17	61305.65
512.34	60769.67
512.51	61062.24
512.69	61052.87
512.86	61406.30
513.04	61647.37
513.21	61708.22
513.38	61354.80
513.56	60860.95
513.73	60381.14
513.90	60556.68
514.08	60547.32
514.25	60893.72
514.43	61130.11
514.60	61197.99
514.77	61197.99
514.95	61460.13
515.12	61441.40
515.29	61336.08
515.47	61989.09
515.64	62363.57
515.81	61752.69
515.99	61474.17
516.16	60055.81
516.33	57986.77
516.51	56718.20
516.68	56011.36
516.85	55765.60
517.03	55796.03
517.20	58241.89
517.37	60313.26
517.54	61572.47
517.72	60945.21
517.89	58892.56
518.06	56683.09
518.24	56807.14
518.41	58927.67
518.58	60095.60
518.75	60313.26
518.93	60449.02
519.10	60233.69
519.27	60832.86
519.45	61027.13
519.62	61733.97
519.79	61977.39
519.96	61881.42
520.14	61284.59
520.31	60664.35
520.48	60533.28
520.65	60823.50
520.83	61560.77
521.00	62106.12
521.17	61712.91
521.34	61394.59
521.52	61766.74
521.69	62288.68
521.86	62841.04
522.03	62134.20
522.20	61375.87
522.38	60420.93
522.55	60289.86
522.72	60699.45
522.89	61167.56
523.07	61265.86
523.24	61425.02
523.41	62356.55
523.58	62459.54
523.75	62862.11
523.92	62674.87
524.10	62726.36
524.27	62623.37
524.44	62445.49
524.61	62241.87
524.78	62218.46
524.96	61886.10
525.13	62164.63
525.30	62281.66
525.47	62745.08
525.64	62745.08
525.81	62071.01
525.98	60687.75
526.16	59491.74
526.33	58777.87
526.50	58473.60
526.67	58349.56
526.84	58738.08
527.01	59810.05
527.18	60544.98
527.36	61242.46
527.53	61846.32
527.70	62192.72
527.87	61848.66
528.04	61305.65
528.21	61581.84
528.38	62422.09
528.55	63065.73
528.72	63089.14
528.89	63245.96
529.07	63030.63
529.24	62494.64
529.41	61890.79
529.58	61434.38
529.75	61286.93
529.92	61886.10
530.09	62195.06
530.26	62691.25
530.43	62834.02
530.60	62869.13
530.77	63084.46
530.94	63334.90
531.11	62794.23
531.28	62370.60
531.46	62274.63
531.63	62326.13
531.80	62328.47
531.97	61815.89
532.14	61221.39
532.31	60477.10
532.48	59746.86
532.65	59683.66
532.82	60647.96
532.99	61492.89
533.16	61748.01
533.33	62340.17
533.50	62305.06
533.67	61691.84
533.84	61228.41
534.01	61549.07
534.18	61525.66
534.35	61890.79
534.52	61701.20
534.69	61855.68
534.86	62005.47
535.03	62356.55
535.20	62871.47
535.37	63196.80
535.54	63119.57
535.71	62651.46
535.88	62602.31
536.05	61916.53
536.22	61654.39
536.38	61366.51
536.55	60884.36
536.72	60537.96
536.89	60371.78
537.06	61233.10
537.23	62124.84
537.40	62155.27
537.57	62131.86
537.74	62080.37
537.91	61755.03
538.08	61939.94
538.25	62071.01
538.42	62195.06
538.59	62024.20
538.75	61436.72
538.92	61197.99
539.09	60935.85
539.26	60687.75
539.43	60718.18
539.60	60659.66
539.77	60769.67
539.94	60896.06
540.11	60189.22
540.28	59599.40
540.44	59779.62
540.61	59973.89
540.78	60109.64
540.95	60554.34
541.12	61027.13
541.29	61109.05
541.46	61513.96
541.62	61556.09
541.79	61366.51
541.96	60722.86
542.13	60720.52
542.30	60989.68
542.47	61123.09
542.63	60851.59
542.80	60725.20
542.97	61048.19
543.14	60610.51
543.31	60584.77
543.48	61378.21
543.64	61958.66
543.81	62073.35
543.98	61993.77
544.15	61429.70
544.32	60776.69
544.48	60938.19
544.65	61312.67
544.82	61764.40
544.99	61605.24
545.16	61071.60
545.32	60725.20
545.49	61535.02
545.66	61895.47
545.83	61652.05
546.00	60996.70
546.16	60856.27
546.33	60816.48
546.50	61034.15
546.67	61474.17
546.83	61116.07
547.00	60917.12
547.17	60587.11
547.34	59931.76
547.50	59737.49
547.67	60191.56
547.84	60203.26
548.00	60769.67
548.17	61099.68
548.34	60982.66
548.51	61052.87
548.67	61062.24
548.84	61080.96
549.01	61212.03
549.18	60961.59
549.34	60870.31
549.51	61038.83
549.68	60907.76
549.84	60633.92
550.01	60526.25
550.18	60294.54
550.34	60582.43
550.51	60647.96
550.68	60746.26
550.84	60221.98
551.01	60329.65
551.18	60334.33
551.34	60547.32
551.51	60807.12
551.68	61118.41
551.84	61368.85
552.01	60853.93
552.18	60874.99
552.34	60135.38
552.51	59681.32
552.68	59639.19
552.84	60116.66
553.01	60327.31
553.18	60243.05
553.34	60397.52
553.51	60441.99
553.67	60589.45
553.84	60846.91
554.01	60652.64
554.17	60378.80
554.34	60673.71
554.51	60659.66
554.67	60797.76
554.84	60879.67
555.00	60498.17
555.17	60224.32
555.33	60327.31
555.50	60172.83
555.67	60327.31
555.83	60086.23
556.00	59976.23
556.16	59868.56
556.33	59407.48
556.50	59288.11
556.66	59409.82
556.83	59189.81
556.99	58997.88
557.16	59353.65
557.32	59564.29
557.49	60053.47
557.65	59657.91
557.82	59901.33
557.98	59505.78
558.15	59236.62
558.32	58578.93
558.48	57633.35
558.65	57811.23
558.81	58145.93
558.98	58560.20
559.14	58731.06
559.31	58841.07
559.47	58782.55
559.64	58440.84
559.80	58246.57
559.97	58110.82
560.13	58604.67
560.30	59456.63
560.46	60032.40
560.63	59957.50
560.79	60048.78
560.96	59730.47
561.12	58735.74
561.29	58035.92
561.45	58010.18
561.61	58377.64
561.78	58969.80
561.94	58775.53
562.11	58782.55
562.27	58583.61
562.44	58857.45
562.60	59180.45
562.77	59304.49
562.93	59023.63
563.10	59222.58
563.26	58541.48
563.42	58796.60
563.59	58515.73
563.75	58583.61
563.92	58492.33
564.08	58480.63
564.24	58695.95
564.41	58803.62
564.57	58738.08
564.74	58628.08
564.90	58394.03
565.07	58197.42
565.23	58061.67
565.39	57488.24
565.56	57322.06
565.72	56900.76
565.88	57532.71
566.05	57535.05
566.21	57631.01
566.38	57836.98
566.54	57836.98
566.70	58155.29
566.87	58602.33
567.03	58541.48
567.19	58707.66
567.36	58141.25
567.52	58307.43
567.68	58218.49
567.85	57403.98
568.01	57174.61
568.17	56811.82
568.34	56963.96
568.50	56931.19
568.66	56877.36
568.83	57256.53
568.99	57279.93
569.15	57687.18
569.32	57602.92
569.48	57272.91
569.64	57006.09
569.81	56776.72
569.97	56619.90
570.13	56587.13
570.30	56097.96
570.46	56004.34
570.62	55421.55
570.78	55189.83
570.95	55648.58
571.11	56074.55
571.27	56243.07
571.43	56570.75
571.60	57027.15
571.76	57050.56
571.92	57125.46
572.09	57420.36
572.25	57137.16
572.41	57286.95
572.57	57228.44
572.74	57434.41
572.90	56865.66
573.06	56690.12
573.22	56736.93
573.38	56821.19
573.55	56825.87
573.71	57092.69
573.87	56713.52
574.03	56856.29
574.20	56697.14
574.36	56449.04
574.52	56446.70
574.68	56093.28
574.84	56020.72
575.01	55667.30
575.17	55341.97
575.33	55522.19
575.49	55606.45
575.65	55973.91
575.82	55877.95
575.98	55664.96
576.14	55971.57
576.30	55999.66
576.46	56222.01
576.62	55955.19
576.79	55817.10
576.95	55669.64
577.11	55674.32
577.27	55803.05
577.43	55721.13
577.59	55559.64
577.75	55023.65
577.92	54681.94
578.08	54120.21
578.24	54536.82
578.40	54740.45
578.56	55112.59
578.72	55082.17
578.88	55363.03
579.04	55318.56
579.21	55295.16
579.37	55318.56
579.53	55718.79
579.69	55482.40
579.85	55695.39
580.01	55594.74
580.17	55143.02
580.33	55009.61
580.49	55091.53
580.65	55323.24
580.82	55484.74
580.98	55592.40
581.14	55320.90
581.30	55283.45
581.46	55274.09
581.62	55367.71
581.78	55641.56
581.94	55571.34
582.10	55482.40
582.26	55585.38
582.42	55543.25
582.58	55742.20
582.74	55482.40
582.90	55482.40
583.06	55592.40
583.22	55381.76
583.38	55192.17
583.54	55470.70
583.70	55253.03
583.86	55075.15
584.02	55157.06
584.18	55128.98
584.34	55414.52
584.50	54810.67
584.66	54915.99
584.82	54623.42
584.98	54457.24
585.14	54169.36
