SpectraSuite Data File
++++++++++++++++++++++++++++++++++++
Date: Mon Oct 07 14:53:51 GMT-05:00 2013
User: price-jones
Dark Spectrum Present: No
Reference Spectrum Present: No
Number of Sampled Component Spectra: 1
Spectrometers: USB2+H05261
Integration Time (usec): 100000 (USB2+H05261)
Spectra Averaged: 1 (USB2+H05261)
Boxcar Smoothing: 0 (USB2+H05261)
Correct for Electrical Dark: No (USB2+H05261)
Strobe/Lamp Enabled: No (USB2+H05261)
Correct for Detector Non-linearity: No (USB2+H05261)
Correct for Stray Light: No (USB2+H05261)
Number of Pixels in Processed Spectrum: 2048
>>>>>Begin Processed Spectral Data<<<<<
365.73	0.00
365.92	0.00
366.12	0.00
366.32	0.00
366.52	0.00
366.72	0.00
366.91	0.00
367.11	0.00
367.31	0.00
367.51	0.00
367.70	0.00
367.90	0.00
368.10	0.00
368.30	0.00
368.49	0.00
368.69	0.00
368.89	0.00
369.09	0.00
369.28	0.00
369.48	0.00
369.68	0.00
369.87	0.00
370.07	0.00
370.27	0.00
370.47	533.64
370.66	2953.76
370.86	3496.76
371.06	3911.04
371.25	3873.59
371.45	3391.44
371.65	3129.30
371.84	2939.71
372.04	3169.09
372.24	3543.57
372.44	3604.42
372.63	3445.27
372.83	3410.16
373.03	2972.48
373.22	2712.68
373.42	2925.67
373.62	3365.69
373.81	3658.26
374.01	3480.38
374.21	3236.96
374.40	2916.31
374.60	3096.53
374.79	3417.18
374.99	3889.97
375.19	4468.08
375.38	4444.68
375.58	3995.29
375.78	4093.60
375.97	4145.09
376.17	4241.05
376.37	4079.55
376.56	4491.49
376.76	4592.13
376.95	4994.70
377.15	5366.85
377.35	5392.59
377.54	5743.67
377.74	5790.49
377.93	5846.66
378.13	5582.18
378.33	5547.07
378.52	4964.28
378.72	4847.25
378.91	4760.65
379.11	4540.64
379.31	4430.63
379.50	4400.21
379.70	4851.93
379.89	5378.55
380.09	5523.66
380.28	5689.84
380.48	5720.27
380.68	5624.31
380.87	5628.99
381.07	5083.64
381.26	4793.42
381.46	4386.16
381.65	4360.42
381.85	4320.63
382.04	3833.80
382.24	3700.39
382.43	3473.36
382.63	3531.87
382.83	3480.38
383.02	3496.76
383.22	3407.82
383.41	3442.93
383.61	3786.99
383.80	4255.09
384.00	4706.82
384.19	5430.04
384.39	5638.35
384.58	5633.67
384.78	5589.20
384.97	5486.22
385.17	5256.84
385.36	5011.09
385.56	4725.54
385.75	4870.65
385.95	5533.03
386.14	5811.55
386.34	5881.77
386.53	5682.82
386.72	5221.74
386.92	5423.02
387.11	5486.22
387.31	5849.00
387.50	5874.74
387.70	5610.26
387.89	5526.00
388.09	5504.94
388.28	5558.77
388.48	5708.57
388.67	6113.48
388.86	6705.63
389.06	7073.10
389.25	7541.21
389.45	7733.13
389.64	7707.38
389.84	7384.39
390.03	7480.35
390.22	7478.01
390.42	7578.65
390.61	7850.16
390.81	8784.03
391.00	8718.50
391.19	8755.94
391.39	8444.65
391.58	8006.97
391.78	7372.69
391.97	7365.67
392.16	6740.74
392.36	6150.93
392.55	5025.13
392.75	3913.38
392.94	3215.90
393.13	3215.90
393.33	3595.06
393.52	4891.72
393.71	5778.78
393.91	6682.23
394.10	7152.68
394.29	7873.56
394.49	8442.31
394.68	9268.52
394.88	9205.33
395.07	9458.10
395.26	9418.32
395.46	9193.62
395.65	8716.16
395.84	7651.21
396.04	6590.95
396.23	5455.79
396.42	4257.43
396.62	4208.28
396.81	4823.84
397.00	5975.39
397.19	7903.99
397.39	9249.80
397.58	10492.62
397.77	11241.59
397.97	11367.98
398.16	11751.83
398.35	11967.16
398.55	12219.94
398.74	12877.63
398.93	13195.94
399.12	12912.74
399.32	12123.98
399.51	12912.74
399.70	13558.72
399.90	13369.14
400.09	13495.53
400.28	13434.68
400.47	13467.44
400.67	14106.41
400.86	14541.75
401.05	14487.92
401.24	14581.54
401.44	14892.83
401.63	14867.08
401.82	15152.63
402.01	15009.86
402.21	15166.67
402.40	15276.68
402.59	14686.86
402.78	13783.41
402.97	13439.36
403.17	14293.65
403.36	14958.36
403.55	15552.86
403.74	15686.27
403.93	14956.02
404.13	14068.96
404.32	13561.06
404.51	14141.52
404.70	15389.02
404.89	15396.04
405.09	15044.96
405.28	14963.04
405.47	14822.61
405.66	14452.81
405.85	14361.53
406.05	13961.30
406.24	13851.29
406.43	14508.98
406.62	15208.80
406.81	15213.48
407.00	14651.75
407.20	14373.23
407.39	14607.28
407.58	14981.77
407.77	15927.35
407.96	16287.79
408.15	16582.70
408.34	16491.41
408.54	17444.01
408.73	17425.29
408.92	17137.40
409.11	16774.62
409.30	15896.92
409.49	15082.41
409.68	13930.87
409.87	13371.48
410.07	14408.34
410.26	15435.83
410.45	16545.25
410.64	16961.86
410.83	17280.18
411.02	17781.05
411.21	18679.82
411.40	18284.26
411.59	18321.71
411.78	18139.15
411.98	17781.05
412.17	18331.08
412.36	18033.83
412.55	18239.79
412.74	17729.56
412.93	17280.18
413.12	17399.54
413.31	18991.11
413.50	19396.02
413.69	19555.18
413.88	18724.29
414.07	18441.08
414.26	18628.32
414.45	19269.63
414.64	19190.05
414.83	19454.53
415.02	18944.30
415.22	19077.71
415.41	19304.74
415.60	19819.66
415.79	20643.52
415.98	21139.72
416.17	20819.07
416.36	20503.09
416.55	20390.75
416.74	19838.38
416.93	18918.55
417.12	19213.46
417.31	19517.73
417.50	19634.75
417.69	20439.90
417.88	20336.91
418.07	20133.29
418.26	19702.63
418.45	19824.34
418.64	20673.95
418.83	21500.16
419.02	20994.61
419.21	21008.65
419.39	19941.36
419.58	19061.32
419.77	19154.94
419.96	20042.01
420.15	21261.43
420.34	21804.43
420.53	22401.27
420.72	22548.72
420.91	22478.50
421.10	22211.68
421.29	22017.42
421.48	21357.39
421.67	22569.79
421.86	22073.59
422.05	20269.04
422.24	17994.04
422.43	18054.89
422.61	20093.50
422.80	21366.75
422.99	21809.11
423.18	20664.59
423.37	20538.20
423.56	20493.73
423.75	20732.47
423.94	21247.38
424.13	19733.06
424.32	20166.06
424.50	20126.27
424.69	20250.32
424.88	20491.39
425.07	20173.08
425.26	19871.15
425.45	20161.37
425.64	19573.90
425.83	19339.85
426.01	20549.90
426.20	21106.95
426.39	21209.93
426.58	19564.54
426.77	17811.48
426.96	17219.32
427.15	18047.87
427.33	19475.60
427.52	20231.59
427.71	20334.57
427.90	20222.23
428.09	20367.34
428.28	19744.76
428.46	19267.29
428.65	18410.65
428.84	18981.74
429.03	19417.08
429.22	18218.73
429.40	17329.33
429.59	15679.25
429.78	13837.25
429.97	13877.04
430.16	14181.31
430.34	14242.16
430.53	14125.13
430.72	14125.13
430.91	15985.86
431.10	19042.60
431.28	22288.92
431.47	23803.25
431.66	24474.98
431.85	22363.82
432.03	20311.17
432.22	19431.13
432.41	20589.69
432.60	22515.95
432.79	23571.54
432.97	23847.72
433.16	23733.03
433.35	21341.00
433.54	19386.66
433.72	18036.17
433.91	18281.92
434.10	20641.18
434.28	22438.72
434.47	23360.89
434.66	23087.04
434.85	22497.23
435.03	22593.19
435.22	23019.17
435.41	24318.17
435.59	24467.96
435.78	24767.55
435.97	25319.92
436.16	25642.91
436.34	24917.34
436.53	23999.85
436.72	24313.48
436.90	23496.64
437.09	23545.79
437.28	22881.08
437.46	23419.40
437.65	23606.64
437.84	21914.44
438.02	20189.46
438.21	19833.70
438.40	21249.72
438.58	23145.56
438.77	23630.05
438.96	23964.75
439.14	25081.18
439.33	25146.72
439.52	25509.50
439.70	25158.42
439.89	24390.72
440.08	24168.37
440.26	23810.27
440.45	24673.93
440.63	26178.89
440.82	27513.00
441.01	26965.31
441.19	26852.97
441.38	27356.18
441.57	28641.14
441.75	28842.42
441.94	29259.04
442.12	28706.67
442.31	29205.20
442.50	28978.17
442.68	29116.26
442.87	28720.71
443.05	27817.27
443.24	28355.59
443.43	28919.66
443.61	29682.67
443.80	30155.46
443.98	28580.28
444.17	28596.67
444.35	29621.82
444.54	30759.32
444.73	30295.89
444.91	28994.56
445.10	27826.63
445.28	26525.29
445.47	26012.71
445.65	26462.10
445.84	26953.61
446.02	28034.94
446.21	28393.04
446.39	28709.01
446.58	28900.94
446.77	29275.42
446.95	29783.32
447.14	30298.23
447.32	31019.12
447.51	30031.41
447.69	28772.21
447.88	28666.88
448.06	28765.18
448.25	29898.00
448.43	30408.24
448.62	28795.61
448.80	29123.29
448.99	29771.61
449.17	29490.75
449.36	30141.42
449.54	30656.34
449.73	31030.82
449.91	31728.30
450.10	32589.62
450.28	32968.79
450.46	32559.19
450.65	32959.42
450.83	32629.41
451.02	31859.37
451.20	31941.29
451.39	31819.58
451.57	31433.39
451.76	31812.56
451.94	31229.77
452.13	30499.52
452.31	29235.63
452.49	27765.78
452.68	28390.70
452.86	28287.71
453.05	28898.59
453.23	29425.22
453.42	30071.20
453.60	30944.22
453.78	31337.43
453.97	31019.12
454.15	31505.95
454.34	30361.43
454.52	30249.08
454.70	30010.35
454.89	30087.59
455.07	30312.28
455.26	30497.18
455.44	31592.55
455.62	32371.95
455.81	32933.68
455.99	32297.05
456.17	32027.89
456.36	31681.49
456.54	33163.05
456.73	33160.71
456.91	33507.11
457.09	33404.13
457.28	34448.00
457.46	32847.08
457.64	32708.99
457.83	31332.75
458.01	30902.09
458.19	31920.23
458.38	32357.91
458.56	33125.60
458.74	32463.23
458.93	32130.87
459.11	32306.41
459.29	31749.37
459.48	32055.98
459.66	31852.35
459.84	32432.80
460.03	32739.41
460.21	32613.02
460.39	33446.26
460.57	33687.33
460.76	34263.10
460.94	33724.78
461.12	33661.58
461.31	33666.27
461.49	33603.07
461.67	33652.22
461.85	34794.40
462.04	34136.71
462.22	34649.29
462.40	34546.31
462.59	34377.79
462.77	34218.63
462.95	34363.75
463.13	34239.70
463.32	33970.54
463.50	33401.79
463.68	33153.69
463.86	33902.66
464.05	32994.53
464.23	32121.51
464.41	32151.94
464.59	31527.02
464.78	33331.57
464.96	33251.99
465.14	32870.48
465.32	33221.56
465.50	34558.01
465.69	34527.58
465.87	34511.20
466.05	33088.15
466.23	31969.38
466.41	31295.30
466.60	31737.66
466.78	31805.54
466.96	32283.01
467.14	32884.53
467.32	33654.56
467.51	33457.96
467.69	32091.09
467.87	32711.33
468.05	33486.04
468.23	33088.15
468.41	32919.63
468.60	33425.19
468.78	33722.44
468.96	33322.21
469.14	34235.02
469.32	33593.71
469.50	32739.41
469.69	32648.13
469.87	32554.51
470.05	32112.15
470.23	32070.02
470.41	32519.40
470.59	33085.81
470.77	32769.84
470.95	33326.89
471.14	34141.39
471.32	33900.32
471.50	36006.80
471.68	35737.64
471.86	36495.97
472.04	36570.87
472.22	36783.86
472.40	34466.73
472.58	34689.08
472.77	33825.42
472.95	34869.30
473.13	35887.43
473.31	34927.81
473.49	34859.94
473.67	35515.29
473.85	35613.59
474.03	36556.83
474.21	36510.02
474.39	36694.92
474.57	37109.19
474.75	37074.09
474.93	36842.37
475.12	36411.71
475.30	36311.07
475.48	36147.23
475.66	36573.21
475.84	36418.74
476.02	36105.10
476.20	35587.85
476.38	36407.03
476.56	37371.33
476.74	38066.47
476.92	38127.33
477.10	38967.58
477.28	39845.28
477.46	39634.63
477.64	40067.63
477.82	40147.21
478.00	40446.80
478.18	39990.39
478.36	40264.24
478.54	39402.92
478.72	39711.87
478.90	40732.34
479.08	42050.06
479.26	42239.65
479.44	42286.46
479.62	42080.49
479.80	42366.04
479.98	42120.28
480.16	42639.88
480.34	41851.12
480.52	42213.90
480.70	42747.54
480.88	42674.99
481.06	43159.48
481.24	43292.89
481.41	44683.17
481.59	45457.88
481.77	45099.78
481.95	44032.50
482.13	44371.88
482.31	43709.50
482.49	44999.14
482.67	44619.97
482.85	45106.80
483.03	45478.95
483.21	46272.39
483.39	45956.42
483.57	45287.03
483.74	45045.95
483.92	45116.17
484.10	45556.19
484.28	46333.24
484.46	46780.29
484.64	47398.19
484.82	46080.47
485.00	45839.39
485.18	44994.46
485.35	43559.71
485.53	40603.61
485.71	37097.49
485.89	36748.75
486.07	38302.87
486.25	41612.38
486.43	44151.87
486.61	44851.69
486.78	44830.62
486.96	44793.17
487.14	46787.31
487.32	47304.57
487.50	48381.21
487.68	49221.47
487.85	49818.30
488.03	49869.79
488.21	49485.95
488.39	48854.00
488.57	47927.15
488.75	47484.79
488.92	49085.72
489.10	50862.18
489.28	52294.59
489.46	53134.84
489.64	52732.27
489.81	52938.24
489.99	52488.85
490.17	52715.89
490.35	53106.76
490.53	52587.16
490.70	52336.72
490.88	52154.16
491.06	53315.06
491.24	53205.06
491.41	51929.47
491.59	50365.99
491.77	49436.80
491.95	50590.68
492.13	52158.84
492.30	53223.78
492.48	53958.71
492.66	54518.10
492.84	54494.69
493.01	54473.63
493.19	53485.92
493.37	53343.15
493.54	53059.94
493.72	53719.98
493.90	54841.09
494.08	55440.27
494.25	55779.65
494.43	56006.68
494.61	56214.99
494.79	56552.02
494.96	56205.62
495.14	55547.93
495.32	54585.97
495.49	54010.20
495.67	55250.69
495.85	56353.08
496.02	56804.80
496.20	56685.43
496.38	56214.99
496.55	56135.41
496.73	56928.85
496.91	56479.47
497.09	57109.07
497.26	57415.68
497.44	56729.90
497.62	56409.25
497.79	55725.81
497.97	54616.40
498.14	54536.82
498.32	55746.88
498.50	56528.62
498.67	57078.64
498.85	57006.09
499.03	57162.90
499.20	57492.92
499.38	57380.57
499.56	57188.65
499.73	56680.75
499.91	56554.36
500.08	55950.51
500.26	55196.85
500.44	55714.11
500.61	56456.06
500.79	56154.13
500.97	55826.46
501.14	55669.64
501.32	55374.73
501.49	55428.57
501.67	55751.56
501.84	55997.32
502.02	56324.99
502.20	57003.75
502.37	57097.37
502.55	57078.64
502.72	57614.63
502.90	57932.94
503.07	57738.68
503.25	57249.50
503.43	56530.96
503.60	55852.20
503.78	55110.25
503.95	55639.22
504.13	57024.81
504.30	57612.29
504.48	57359.51
504.65	57228.44
504.83	57167.58
505.01	57776.12
505.18	58274.66
505.36	58827.02
505.53	58805.96
505.71	59028.31
505.88	58941.71
506.06	58337.85
506.23	58047.63
506.41	57755.06
506.58	57708.25
506.76	57790.17
506.93	57935.28
507.11	57673.14
507.28	57853.36
507.46	57256.53
507.63	56830.55
507.81	56533.30
507.98	56769.69
508.16	57343.12
508.33	57923.58
508.50	58295.72
508.68	58576.59
508.85	59004.91
509.03	59093.85
509.20	58974.48
509.38	58349.56
509.55	57474.20
509.73	57537.39
509.90	58218.49
510.08	58419.77
510.25	58265.30
510.42	58066.35
510.60	58101.46
510.77	58300.40
510.95	59056.40
511.12	58894.90
511.30	59327.90
511.47	59449.61
511.64	59416.84
511.82	59496.42
511.99	58335.51
512.17	57806.55
512.34	57633.35
512.51	57804.21
512.69	57954.00
512.86	58005.50
513.04	58351.90
513.21	58562.54
513.38	58045.29
513.56	57542.07
513.73	56884.38
513.90	57174.61
514.08	57481.22
514.25	57691.86
514.43	57670.80
514.60	57762.08
514.77	57907.19
514.95	58302.74
515.12	58024.22
515.29	58267.64
515.47	58590.63
515.64	58932.35
515.81	58576.59
515.99	58145.93
516.16	56732.25
516.33	54464.27
516.51	52985.05
516.68	51992.66
516.85	51288.16
517.03	51800.74
517.20	54621.08
517.37	57188.65
517.54	58328.49
517.72	57680.16
517.89	55430.91
518.06	52678.44
518.24	52952.28
518.41	55402.82
518.58	56612.88
518.75	56676.07
518.93	56879.70
519.10	56968.64
519.27	57649.74
519.45	57588.88
519.62	58305.09
519.79	58693.61
519.96	58684.25
520.14	57935.28
520.31	57137.16
520.48	57254.18
520.65	57275.25
520.83	58440.84
521.00	58759.15
521.17	58534.46
521.34	58155.29
521.52	58614.04
521.69	58915.96
521.86	59430.88
522.03	59283.43
522.20	57872.09
522.38	56566.07
522.55	56753.31
522.72	57340.78
522.89	57757.40
523.07	57792.51
523.24	57993.79
523.41	58995.54
523.58	59377.05
523.75	59700.04
523.92	59468.33
524.10	59405.14
524.27	59391.09
524.44	59072.78
524.61	59028.31
524.78	58969.80
524.96	58695.95
525.13	58777.87
525.30	59161.72
525.47	59634.51
525.64	59566.63
525.81	58878.52
525.98	57209.71
526.16	56034.77
526.33	55316.22
526.50	54955.78
526.67	54412.77
526.84	55119.62
527.01	56261.80
527.18	56772.03
527.36	57682.50
527.53	58370.62
527.70	58862.13
527.87	58356.58
528.04	57888.47
528.21	58443.18
528.38	59000.22
528.55	59632.17
528.72	59824.09
528.89	60189.22
529.07	59573.66
529.24	59000.22
529.41	58344.87
529.58	57951.66
529.75	58068.69
529.92	58457.22
530.09	58894.90
530.26	59269.39
530.43	59686.00
530.60	59515.14
530.77	59957.50
530.94	60041.76
531.11	59536.21
531.28	59131.29
531.46	58871.49
531.63	59009.59
531.80	58834.05
531.97	58656.17
532.14	57900.17
532.31	56683.09
532.48	56189.24
532.65	56107.32
532.82	56938.21
532.99	58372.96
533.16	58583.61
533.33	59070.44
533.50	58817.66
533.67	58110.82
533.84	57752.72
534.01	58010.18
534.18	58115.50
534.35	58241.89
534.52	58106.14
534.69	58546.16
534.86	58897.24
535.03	59093.85
535.20	59498.76
535.37	59671.96
535.54	59929.42
535.71	59552.59
535.88	59131.29
536.05	58445.52
536.22	58166.99
536.38	57972.73
536.55	57598.24
536.72	56879.70
536.89	56823.53
537.06	57752.72
537.23	58452.54
537.40	58815.32
537.57	58738.08
537.74	58541.48
537.91	58262.96
538.08	58394.03
538.25	58340.19
538.42	58726.38
538.59	58459.56
538.75	57865.06
538.92	57359.51
539.09	57467.17
539.26	57223.76
539.43	56999.07
539.60	57167.58
539.77	57705.91
539.94	57120.77
540.11	56374.14
540.28	55971.57
540.44	56119.02
540.61	56598.83
540.78	56413.93
540.95	56994.39
541.12	57467.17
541.29	57668.46
541.46	57951.66
541.62	57954.00
541.79	57724.63
541.96	57258.87
542.13	56849.27
542.30	57565.48
542.47	57556.11
542.63	57190.99
542.80	57179.29
542.97	57375.89
543.14	57193.33
543.31	57111.41
543.48	57528.03
543.64	58595.31
543.81	58726.38
543.98	58614.04
544.15	57759.74
544.32	57462.49
544.48	57305.68
544.65	58049.97
544.82	58293.38
544.99	58202.10
545.16	57560.79
545.32	57052.90
545.49	57841.66
545.66	58578.93
545.83	58056.99
546.00	57780.81
546.16	57254.18
546.33	57401.64
546.50	57403.98
546.67	57958.69
546.83	57439.09
547.00	57436.75
547.17	56886.72
547.34	56406.91
547.50	56486.49
547.67	56886.72
547.84	56444.36
548.00	57172.27
548.17	57790.17
548.34	57446.11
548.51	57488.24
548.67	57570.16
548.84	57581.86
549.01	57504.62
549.18	57567.82
549.34	57263.55
549.51	57439.09
549.68	57293.97
549.84	57130.14
550.01	56757.99
550.18	56687.78
550.34	56935.87
550.51	57059.92
550.68	56994.39
550.84	56638.62
551.01	56706.50
551.18	56652.67
551.34	56617.56
551.51	57027.15
551.68	57347.81
551.84	57581.86
552.01	57336.10
552.18	57162.90
552.34	56334.35
552.51	56100.30
552.68	55655.60
552.84	56364.78
553.01	56701.82
553.18	56678.41
553.34	56743.95
553.51	56835.23
553.67	57050.56
553.84	57132.48
554.01	57099.71
554.17	56816.50
554.34	56734.59
554.51	57160.56
554.67	57443.77
554.84	57106.73
555.00	56708.84
555.17	56493.51
555.33	56409.25
555.50	56435.00
555.67	56556.70
555.83	56327.33
556.00	56243.07
556.16	56140.09
556.33	55515.17
556.50	55728.16
556.66	55700.07
556.83	55356.01
556.99	55257.71
557.16	55648.58
557.32	55929.44
557.49	56142.43
557.65	56196.26
557.82	55859.23
557.98	55901.36
558.15	55255.37
558.32	54639.81
558.48	53532.73
558.65	54167.02
558.81	54340.22
558.98	54583.63
559.14	54974.50
559.31	54911.31
559.47	54911.31
559.64	54394.05
559.80	54185.74
559.97	54040.63
560.13	54546.18
560.30	55812.41
560.46	56102.64
560.63	56329.67
560.79	56320.31
560.96	55891.99
561.12	54712.36
561.29	53841.68
561.45	53731.68
561.61	54426.82
561.78	54700.66
561.94	54951.10
562.11	54820.03
562.27	54309.79
562.44	54850.45
562.60	55264.73
562.77	55463.67
562.93	55180.47
563.10	55124.30
563.26	54611.72
563.42	54740.45
563.59	54270.00
563.75	54478.31
563.92	54649.17
564.08	54520.44
564.24	54918.33
564.41	54885.56
564.57	54384.69
564.74	54583.63
564.90	54415.11
565.07	54588.31
565.23	53914.24
565.39	53441.45
565.56	52940.58
565.72	52580.13
565.88	53310.38
566.05	53434.43
566.21	53670.82
566.38	53642.74
566.54	53975.09
566.70	53982.12
566.87	54588.31
567.03	54288.73
567.19	54539.16
567.36	54216.17
567.52	54298.09
567.68	53947.01
567.85	53549.12
568.01	53146.54
568.17	52559.07
568.34	52629.29
568.50	52310.97
568.66	52734.61
568.83	53233.14
568.99	53006.11
569.15	53303.36
569.32	53167.61
569.48	53106.76
569.64	52432.68
569.81	52790.78
569.97	52252.46
570.13	52332.04
570.30	52011.38
570.46	51206.24
570.62	50363.65
570.78	50562.59
570.95	50735.79
571.11	51634.56
571.27	52121.39
571.43	52184.58
571.60	52594.18
571.76	52575.45
571.92	52718.23
572.09	53064.63
572.25	53153.57
572.41	53165.27
572.57	52863.34
572.74	53064.63
572.90	52264.16
573.06	52505.24
573.22	52559.07
573.38	52566.09
573.55	52397.57
573.71	52545.03
573.87	52570.77
574.03	52046.49
574.20	52086.28
574.36	52046.49
574.52	51826.48
574.68	51683.71
574.84	51093.89
575.01	50291.09
575.17	50394.07
575.33	50759.20
575.49	51208.58
575.65	51803.08
575.82	50754.52
575.98	50887.93
576.14	51449.66
576.30	51377.10
576.46	51765.63
576.62	51388.80
576.79	51639.24
576.95	51124.32
577.11	51231.99
577.27	51292.84
577.43	51243.69
577.59	51004.95
577.75	50389.39
577.92	49272.96
578.08	49762.13
578.24	49258.91
578.40	49963.42
578.56	50272.37
578.72	50087.46
578.88	50330.88
579.04	50550.89
579.21	50684.30
579.37	50468.97
579.53	50653.87
579.69	50623.45
579.85	50859.84
580.01	50791.97
580.17	50026.61
580.33	50155.34
580.49	50117.89
580.65	50473.65
580.82	50567.27
580.98	50529.83
581.14	50609.40
581.30	50894.95
581.46	50358.97
581.62	50747.50
581.78	50852.82
581.94	50768.56
582.10	50548.55
582.26	50696.00
582.42	50642.17
582.58	51019.00
582.74	50948.78
582.90	50508.76
583.06	50773.24
583.22	50277.05
583.38	50625.79
583.54	50087.46
583.70	50309.82
583.86	50373.01
584.02	50389.39
584.18	50464.29
584.34	50178.75
584.50	49867.45
584.66	49741.06
584.82	49605.31
584.98	49340.83
585.14	49095.08
585.30	48669.10
