SpectraSuite Data File
++++++++++++++++++++++++++++++++++++
Date: Mon Oct 07 14:52:57 GMT-05:00 2013
User: price-jones
Dark Spectrum Present: No
Reference Spectrum Present: No
Number of Sampled Component Spectra: 1
Spectrometers: USB2+H05261
Integration Time (usec): 100000 (USB2+H05261)
Spectra Averaged: 1 (USB2+H05261)
Boxcar Smoothing: 0 (USB2+H05261)
Correct for Electrical Dark: No (USB2+H05261)
Strobe/Lamp Enabled: No (USB2+H05261)
Correct for Detector Non-linearity: No (USB2+H05261)
Correct for Stray Light: No (USB2+H05261)
Number of Pixels in Processed Spectrum: 2048
>>>>>Begin Processed Spectral Data<<<<<
365.73	0.00
365.92	0.00
366.12	0.00
366.32	0.00
366.52	0.00
366.72	0.00
366.91	0.00
367.11	0.00
367.31	0.00
367.51	0.00
367.70	0.00
367.90	0.00
368.10	0.00
368.30	0.00
368.49	0.00
368.69	0.00
368.89	0.00
369.09	0.00
369.28	0.00
369.48	0.00
369.68	0.00
369.87	0.00
370.07	0.00
370.27	0.00
370.47	496.19
370.66	2523.10
370.86	3021.63
371.06	3407.82
371.25	3351.65
371.45	2998.23
371.65	2778.22
371.84	2427.14
372.04	2597.99
372.24	3000.57
372.44	3192.49
372.63	3112.91
372.83	2902.26
373.03	2504.37
373.22	2270.32
373.42	2413.09
373.62	2935.03
373.81	3148.02
374.01	3087.17
374.21	2843.75
374.40	2534.80
374.60	2703.32
374.79	3021.63
374.99	3571.66
375.19	3831.46
375.38	3751.88
375.58	3545.91
375.78	3550.59
375.97	3576.34
376.17	3693.37
376.37	3651.24
376.56	3929.76
376.76	3920.40
376.95	4337.01
377.15	4685.75
377.35	4795.76
377.54	4966.62
377.74	5088.32
377.93	5214.71
378.13	4856.61
378.33	4793.42
378.52	4376.80
378.72	4140.41
378.91	4119.34
379.11	3843.16
379.31	3847.84
379.50	3969.55
379.70	4198.92
379.89	4690.43
380.09	4868.31
380.28	4943.21
380.48	5029.81
380.68	4861.29
380.87	4861.29
381.07	4421.27
381.26	4074.87
381.46	3976.57
381.65	3744.86
381.85	3648.90
382.04	3494.42
382.24	3150.36
382.43	3056.74
382.63	3028.65
382.83	2981.84
383.02	2925.67
383.22	3045.04
383.41	3150.36
383.61	3246.32
383.80	3728.47
384.00	4182.54
384.19	4732.56
384.39	5015.77
384.58	4880.02
384.78	4762.99
384.97	4751.29
385.17	4486.81
385.36	4290.20
385.56	4243.39
385.75	4346.37
385.95	4741.93
386.14	4992.36
386.34	5015.77
386.53	4758.31
386.72	4585.11
386.92	4550.00
387.11	4854.27
387.31	5219.39
387.50	5090.67
387.70	4774.69
387.89	4821.50
388.09	4842.57
388.28	4954.91
388.48	4910.44
388.67	5324.72
388.86	5776.44
389.06	6408.39
389.25	6623.72
389.45	6630.74
389.64	6609.67
389.84	6516.05
390.03	6307.74
390.22	6490.31
390.42	6717.34
390.61	7007.56
390.81	7676.96
391.00	7576.31
391.19	7698.02
391.39	7346.94
391.58	7173.74
391.78	6518.39
391.97	6382.64
392.16	5937.94
392.36	5455.79
392.55	4250.41
392.75	3386.76
392.94	2759.49
393.13	2761.83
393.33	3255.69
393.52	4100.62
393.71	5116.41
393.91	5944.96
394.10	6244.55
394.29	6981.82
394.49	7569.29
394.68	8116.98
394.88	8133.36
395.07	8475.08
395.26	8329.97
395.46	8049.10
395.65	7503.76
395.84	6640.10
396.04	5636.01
396.23	4440.00
396.42	3794.01
396.62	3618.47
396.81	4252.75
397.00	5675.80
397.19	6911.60
397.39	8201.24
397.58	9352.78
397.77	9568.11
397.97	10115.80
398.16	10284.31
398.35	10848.38
398.55	10862.43
398.74	11246.27
398.93	11698.00
399.12	11419.47
399.32	10991.16
399.51	11173.72
399.70	12002.27
399.90	11950.78
400.09	12063.12
400.28	11819.71
400.47	11906.31
400.67	12582.72
400.86	12830.82
401.05	12798.05
401.24	12901.03
401.44	12940.82
401.63	13055.51
401.82	13163.17
402.01	13221.69
402.21	13301.26
402.40	13013.38
402.59	12734.85
402.78	12250.36
402.97	11967.16
403.17	12294.83
403.36	13048.49
403.55	13493.19
403.74	14036.19
403.93	13191.26
404.13	12224.62
404.32	11983.54
404.51	12781.67
404.70	13652.34
404.89	13577.45
405.09	13280.20
405.28	12980.61
405.47	12978.27
405.66	13015.72
405.85	12575.70
406.05	12367.39
406.24	12446.97
406.43	13099.98
406.62	13525.96
406.81	13631.28
407.00	13111.68
407.20	12830.82
407.39	12814.43
407.58	13343.39
407.77	14223.44
407.96	14551.11
408.15	14686.86
408.34	14668.14
408.54	15412.43
408.73	15529.45
408.92	15363.28
409.11	14633.03
409.30	13830.23
409.49	13104.66
409.68	12418.88
409.87	12196.53
410.07	12929.12
410.26	13834.91
410.45	14523.02
410.64	14934.96
410.83	15243.91
411.02	15866.49
411.21	16533.54
411.40	16395.45
411.59	16493.76
411.78	16081.82
411.98	15964.79
412.17	16446.94
412.36	15939.05
412.55	16177.78
412.74	15555.20
412.93	15314.13
413.12	15365.62
413.31	17034.42
413.50	17118.68
413.69	17432.31
413.88	16451.63
414.07	16278.43
414.26	16439.92
414.45	16931.44
414.64	17106.98
414.83	17231.02
415.02	16783.98
415.22	16964.20
415.41	17102.29
415.60	17692.11
415.79	18642.37
415.98	18803.86
416.17	18656.41
416.36	18190.64
416.55	18097.02
416.74	17516.57
416.93	16947.82
417.12	17195.92
417.31	17345.71
417.50	17467.42
417.69	17982.34
417.88	18141.49
418.07	17617.21
418.26	17554.02
418.45	17781.05
418.64	18359.16
418.83	19157.28
419.02	18710.24
419.21	18689.18
419.39	17727.22
419.58	16828.45
419.77	17034.42
419.96	17500.19
420.15	18696.20
420.34	19337.51
420.53	19779.87
420.72	20404.79
420.91	20159.03
421.10	19878.17
421.29	19836.04
421.48	19096.43
421.67	19840.72
421.86	19550.49
422.05	17900.42
422.24	16449.28
422.43	16423.54
422.61	17771.69
422.80	19452.19
422.99	19302.40
423.18	18562.79
423.37	18029.15
423.56	18221.07
423.75	18537.04
423.94	19183.03
424.13	17809.14
424.32	18546.40
424.50	18036.17
424.69	17834.88
424.88	18050.21
425.07	17916.80
425.26	17994.04
425.45	17745.94
425.64	17128.04
425.83	17661.68
426.01	18759.39
426.20	18792.16
426.39	18691.52
426.58	17549.34
426.77	16084.16
426.96	15459.24
427.15	16133.31
427.33	17703.81
427.52	18361.50
427.71	18256.18
427.90	17956.59
428.09	17898.08
428.28	17624.23
428.46	16842.50
428.65	16929.09
428.84	17160.81
429.03	17338.69
429.22	16283.11
429.40	15400.72
429.59	14141.52
429.78	12566.34
429.97	12475.06
430.16	12592.08
430.34	12886.99
430.53	12657.62
430.72	13184.24
430.91	14340.46
431.10	17228.68
431.28	20119.24
431.47	21682.72
431.66	21647.61
431.85	20030.30
432.03	18321.71
432.22	17446.35
432.41	18363.84
432.60	20180.10
432.79	21008.65
432.97	21930.82
433.16	20812.04
433.35	19000.47
433.54	17301.24
433.72	16098.20
433.91	16798.02
434.10	18855.36
434.28	20119.24
434.47	21392.50
434.66	20877.58
434.85	20233.93
435.03	20219.89
435.22	20678.63
435.41	22115.72
435.59	21706.13
435.78	22270.20
435.97	22904.48
436.16	22670.43
436.34	22441.06
436.53	21799.75
436.72	22359.14
436.90	20999.29
437.09	20922.05
437.28	20800.34
437.46	21235.68
437.65	21280.15
437.84	19665.18
438.02	18403.63
438.21	18164.90
438.40	19211.12
438.58	20774.60
438.77	21158.44
438.96	21462.71
439.14	22469.14
439.33	23122.15
439.52	23058.96
439.70	22904.48
439.89	22022.10
440.08	21575.06
440.26	21561.02
440.45	22630.64
440.63	23805.59
440.82	24945.43
441.01	24643.50
441.19	24381.36
441.38	25041.39
441.57	25771.64
441.75	26132.08
441.94	26717.22
442.12	25923.77
442.31	26834.24
442.50	26869.35
442.68	26260.81
442.87	26038.46
443.05	25312.89
443.24	25919.09
443.43	26527.63
443.61	26984.04
443.80	27447.46
443.98	25790.36
444.17	26052.50
444.35	26981.70
444.54	27555.13
444.73	27417.04
444.91	26125.06
445.10	25181.82
445.28	24524.13
445.47	23793.89
445.65	24362.64
445.84	24938.41
446.02	25530.56
446.21	26148.46
446.39	25865.26
446.58	26071.23
446.77	26698.49
446.95	26747.64
447.14	27674.49
447.32	28224.52
447.51	27637.05
447.69	26583.80
447.88	26508.91
448.06	26607.21
448.25	27365.54
448.43	27370.22
448.62	26883.39
448.80	26700.83
448.99	26834.24
449.17	27269.58
449.36	27250.86
449.54	28388.36
449.73	28128.56
449.91	28844.76
450.10	29692.04
450.28	30223.34
450.46	29722.46
450.65	29900.34
450.83	29982.26
451.02	29039.03
451.20	29055.41
451.39	28971.15
451.57	28760.50
451.76	28671.56
451.94	28514.75
452.13	28025.57
452.31	26499.55
452.49	25413.54
452.68	25766.96
452.86	25804.41
453.05	26431.67
453.23	27147.87
453.42	27831.31
453.60	28147.28
453.78	28638.80
453.97	28144.94
454.15	28144.94
454.34	27576.19
454.52	28067.70
454.70	27440.44
454.89	27821.95
455.07	27578.53
455.26	28194.09
455.44	28933.70
455.62	29628.84
455.81	29853.53
455.99	29811.40
456.17	29287.12
456.36	29261.38
456.54	30494.84
456.73	30419.94
456.91	30646.97
457.09	30904.43
457.28	31498.93
457.46	30082.91
457.64	29703.74
457.83	28940.72
458.01	28425.81
458.19	29242.65
458.38	29244.99
458.56	30525.27
458.74	30370.79
458.93	29591.39
459.11	29560.97
459.29	29032.00
459.48	29600.76
459.66	29586.71
459.84	29795.02
460.03	30532.29
460.21	30127.38
460.39	30918.48
460.57	31040.18
460.76	31569.15
460.94	31503.61
461.12	30630.59
461.31	31339.77
461.49	30829.54
461.67	30852.94
461.85	31995.12
462.04	31637.02
462.22	32620.05
462.40	31622.98
462.59	31622.98
462.77	31807.88
462.95	31772.77
463.13	31632.34
463.32	31026.14
463.50	30710.17
463.68	31098.70
463.86	31147.85
464.05	30553.35
464.23	29769.27
464.41	29631.18
464.59	29432.24
464.78	30803.79
464.96	30412.92
465.14	30101.63
465.32	31232.11
465.50	32119.17
465.69	31880.44
465.87	31489.57
466.05	30874.01
466.23	29383.09
466.41	28971.15
466.60	29813.74
466.78	29736.51
466.96	30033.75
467.14	30302.92
467.32	31353.82
467.51	31278.92
467.69	29757.57
467.87	30363.77
468.05	30944.22
468.23	30553.35
468.41	30895.07
468.60	31328.07
468.78	31292.96
468.96	30604.84
469.14	31402.97
469.32	31807.88
469.50	30429.30
469.69	30574.42
469.87	29928.43
470.05	30054.82
470.23	29673.31
470.41	30253.76
470.59	30632.93
470.77	30806.13
470.95	30958.27
471.14	31550.42
471.32	31651.06
471.50	33296.46
471.68	33518.81
471.86	33659.24
472.04	33748.18
472.22	33708.40
472.40	32257.26
472.58	32030.23
472.77	31765.75
472.95	32687.92
473.13	33043.68
473.31	32393.01
473.49	32240.88
473.67	33308.16
473.85	33530.51
474.03	34380.13
474.21	34424.60
474.39	34789.72
474.57	34848.24
474.75	34888.03
474.93	34232.68
475.12	33668.61
475.30	33497.75
475.48	34338.00
475.66	34586.10
475.84	34089.90
476.02	33757.55
476.20	33371.36
476.38	33841.81
476.56	34925.47
476.74	35744.66
476.92	35779.77
477.10	36236.17
477.28	37137.28
477.46	37476.66
477.64	36996.85
477.82	37572.62
478.00	37944.76
478.18	37205.16
478.36	37102.17
478.54	37116.22
478.72	37631.13
478.90	38286.48
479.08	39012.05
479.26	39697.83
479.44	39906.13
479.62	39335.04
479.80	39262.49
479.98	39433.35
480.16	39952.94
480.34	39468.45
480.52	39716.55
480.70	39667.40
480.88	40423.39
481.06	40818.94
481.24	41155.98
481.41	42347.31
481.59	42780.31
481.77	42483.06
481.95	41858.14
482.13	41860.48
482.31	41911.97
482.49	42562.64
482.67	42712.44
482.85	42546.26
483.03	43105.65
483.21	43662.69
483.39	43438.00
483.57	42291.14
483.74	42469.02
483.92	43328.00
484.10	43459.07
484.28	44266.55
484.46	43945.90
484.64	44776.79
484.82	44222.08
485.00	43093.94
485.18	42206.88
485.35	40900.86
485.53	37881.57
485.71	35061.22
485.89	34817.81
486.07	36385.97
486.25	39466.11
486.43	41579.62
486.61	42319.23
486.78	42176.45
486.96	42497.11
487.14	44472.52
487.32	45500.01
487.50	46277.07
487.68	47227.33
487.85	47636.92
488.03	47608.84
488.21	47159.45
488.39	46143.66
488.57	45713.00
488.75	45301.07
488.92	46934.76
489.10	49109.12
489.28	50335.56
489.46	50979.21
489.64	50838.78
489.81	51215.60
489.99	50979.21
490.17	51014.32
490.35	51121.98
490.53	50398.76
490.70	50148.32
490.88	50150.66
491.06	51133.68
491.24	51152.41
491.41	50052.36
491.59	48023.11
491.77	47650.97
491.95	48781.45
492.13	50138.96
492.30	51540.94
492.48	52315.65
492.66	52900.79
492.84	52844.62
493.01	52521.62
493.19	52006.70
493.37	51452.00
493.54	51203.90
493.72	52147.14
493.90	53359.53
494.08	53752.74
494.25	54122.55
494.43	54513.42
494.61	54714.70
494.79	54981.52
494.96	54583.63
495.14	54092.12
495.32	52992.07
495.49	52559.07
495.67	53645.08
495.85	54831.73
496.02	55557.30
496.20	55138.34
496.38	54679.60
496.55	54534.48
496.73	55105.57
496.91	55348.99
497.09	55751.56
497.26	56104.98
497.44	55557.30
497.62	54735.77
497.79	53996.16
497.97	52835.25
498.14	52938.24
498.32	54295.75
498.50	54997.91
498.67	55686.03
498.85	55564.32
499.03	55723.47
499.20	56109.66
499.38	55859.23
499.56	55824.12
499.73	55231.96
499.91	55136.00
500.08	54267.66
500.26	53909.56
500.44	54454.90
500.61	55009.61
500.79	54822.37
500.97	54225.53
501.14	54160.00
501.32	54024.25
501.49	54089.78
501.67	54436.18
501.84	54904.29
502.02	55318.56
502.20	55505.80
502.37	55681.34
502.55	55456.65
502.72	56280.52
502.90	56776.72
503.07	56243.07
503.25	56013.70
503.43	54974.50
503.60	54293.41
503.78	53673.16
503.95	54230.21
504.13	55779.65
504.30	56502.87
504.48	56285.20
504.65	56116.68
504.83	56144.77
505.01	56580.11
505.18	56921.83
505.36	57595.90
505.53	57406.32
505.71	57726.97
505.88	57883.79
506.06	57120.77
506.23	56750.97
506.41	56198.60
506.58	56662.03
506.76	56839.91
506.93	56821.19
507.11	56493.51
507.28	56505.21
507.46	55950.51
507.63	55482.40
507.81	55554.96
507.98	55491.76
508.16	56617.56
508.33	56835.23
508.50	57080.98
508.68	57619.31
508.85	58092.10
509.03	57876.77
509.20	57839.32
509.38	57176.95
509.55	56535.64
509.73	56439.68
509.90	57036.51
510.08	57118.43
510.25	57106.73
510.42	57181.63
510.60	56954.60
510.77	57427.38
510.95	57626.33
511.12	58110.82
511.30	58169.33
511.47	58468.92
511.64	58382.32
511.82	57893.15
511.99	57228.44
512.17	56851.61
512.34	56741.61
512.51	56566.07
512.69	57041.20
512.86	57013.11
513.04	57216.74
513.21	57338.44
513.38	56835.23
513.56	56444.36
513.73	55849.86
513.90	56336.69
514.08	56093.28
514.25	56362.44
514.43	56924.17
514.60	56851.61
514.77	56931.19
514.95	57017.79
515.12	56994.39
515.29	57097.37
515.47	57553.77
515.64	57951.66
515.81	57551.43
515.99	56940.55
516.16	55519.85
516.33	53041.22
516.51	51674.35
516.68	50574.30
516.85	50143.64
517.03	51014.32
517.20	53715.29
517.37	56271.16
517.54	57080.98
517.72	56662.03
517.89	53975.09
518.06	51716.48
518.24	52205.65
518.41	54265.32
518.58	55700.07
518.75	55945.83
518.93	55990.30
519.10	55962.21
519.27	56432.66
519.45	56767.35
519.62	57478.88
519.79	57759.74
519.96	57478.88
520.14	57127.80
520.31	56135.41
520.48	56348.40
520.65	56568.41
520.83	57420.36
521.00	57598.24
521.17	57532.71
521.34	57219.08
521.52	57584.20
521.69	58129.54
521.86	58445.52
522.03	58159.97
522.20	56975.66
522.38	56006.68
522.55	55987.95
522.72	56549.68
522.89	56779.06
523.07	56818.84
523.24	57366.53
523.41	58216.14
523.58	58251.25
523.75	58679.57
523.92	58471.26
524.10	58632.76
524.27	58379.98
524.44	58262.96
524.61	58188.06
524.78	58024.22
524.96	57820.59
525.13	58033.58
525.30	58302.74
525.47	58658.51
525.64	58578.93
525.81	57701.23
525.98	56479.47
526.16	54859.82
526.33	54447.88
526.50	53879.13
526.67	53652.10
526.84	54452.56
527.01	55166.43
527.18	56165.84
527.36	57195.67
527.53	57865.06
527.70	58014.86
527.87	57513.98
528.04	57066.94
528.21	57661.44
528.38	58408.07
528.55	58714.68
528.72	59107.89
528.89	59119.59
529.07	58862.13
529.24	58188.06
529.41	57684.84
529.58	57043.54
529.75	57158.22
529.92	57602.92
530.09	58171.67
530.26	58429.13
530.43	58754.47
530.60	58930.01
530.77	59269.39
530.94	59145.34
531.11	58681.91
531.28	58595.31
531.46	58288.70
531.63	58286.36
531.80	58082.73
531.97	57689.52
532.14	57071.62
532.31	55924.76
532.48	55257.71
532.65	55522.19
532.82	56435.00
532.99	57181.63
533.16	57598.24
533.33	58234.87
533.50	58183.38
533.67	57708.25
533.84	57331.42
534.01	57303.34
534.18	57249.50
534.35	57666.12
534.52	57221.42
534.69	57827.62
534.86	58281.68
535.03	58347.21
535.20	58841.07
535.37	59217.89
535.54	59192.15
535.71	58791.92
535.88	58501.69
536.05	57822.93
536.22	57237.80
536.38	57176.95
536.55	56676.07
536.72	56280.52
536.89	56165.84
537.06	56952.26
537.23	58007.84
537.40	58230.19
537.57	58260.62
537.74	58007.84
537.91	57783.15
538.08	57869.75
538.25	57748.04
538.42	58195.08
538.59	57764.42
538.75	57120.77
538.92	57139.50
539.09	56889.06
539.26	56718.20
539.43	56537.98
539.60	56790.76
539.77	56760.33
539.94	56549.68
540.11	55845.18
540.28	55145.36
540.44	55421.55
540.61	55650.92
540.78	55950.51
540.95	56336.69
541.12	56989.70
541.29	57169.93
541.46	57331.42
541.62	57532.71
541.79	57102.05
541.96	56303.93
542.13	56680.75
542.30	57006.09
542.47	57006.09
542.63	56945.23
542.80	56507.55
542.97	56832.89
543.14	56556.70
543.31	56573.09
543.48	57249.50
543.64	58085.07
543.81	58080.39
543.98	58096.78
544.15	57392.28
544.32	56940.55
544.48	56793.10
544.65	57336.10
544.82	57846.34
544.99	57457.81
545.16	56935.87
545.32	56830.55
545.49	57708.25
545.66	58045.29
545.83	57598.24
546.00	57078.64
546.16	56868.00
546.33	57027.15
546.50	56835.23
546.67	57415.68
546.83	57106.73
547.00	57006.09
547.17	56303.93
547.34	55941.14
547.50	55814.76
547.67	56182.22
547.84	56191.58
548.00	56865.66
548.17	57141.84
548.34	57144.18
548.51	57111.41
548.67	57090.35
548.84	56994.39
549.01	56746.29
549.18	56818.84
549.34	56619.90
549.51	56865.66
549.68	56659.69
549.84	56720.54
550.01	56704.16
550.18	56114.34
550.34	56612.88
550.51	56493.51
550.68	56563.73
550.84	56137.75
551.01	56163.50
551.18	56207.97
551.34	56566.07
551.51	56790.76
551.68	57202.69
551.84	56917.15
552.01	56746.29
552.18	56526.28
552.34	55739.86
552.51	55554.96
552.68	55737.52
552.84	55959.87
553.01	56341.38
553.18	56186.90
553.34	56280.52
553.51	56371.80
553.67	56746.29
553.84	56601.18
554.01	56580.11
554.17	56425.64
554.34	56521.60
554.51	56807.14
554.67	57041.20
554.84	56676.07
555.00	56442.02
555.17	56282.86
555.33	56156.47
555.50	56147.11
555.67	56301.59
555.83	55924.76
556.00	55917.74
556.16	55831.14
556.33	55086.85
556.50	55220.26
556.66	55313.88
556.83	54892.58
556.99	55531.55
557.16	55625.17
557.32	55515.17
557.49	55971.57
557.65	55639.22
557.82	55309.20
557.98	55449.63
558.15	54632.78
558.32	54237.23
558.48	53249.53
558.65	53755.08
558.81	54031.27
558.98	54239.57
559.14	54520.44
559.31	54482.99
559.47	54585.97
559.64	53965.73
559.80	53759.76
559.97	54052.33
560.13	54478.31
560.30	55388.78
560.46	55702.41
560.63	56109.66
560.79	55931.78
560.96	55454.31
561.12	54546.18
561.29	53455.50
561.45	53717.64
561.61	54429.16
561.78	54749.81
561.94	54461.93
562.11	54433.84
562.27	54450.22
562.44	54490.01
562.60	54976.84
562.77	55199.19
562.93	55351.33
563.10	54768.54
563.26	54298.09
563.42	54494.69
563.59	54284.04
563.75	54370.64
563.92	54361.28
564.08	54307.45
564.24	54684.28
564.41	54412.77
564.57	54550.87
564.74	54356.60
564.90	54419.80
565.07	53883.81
565.23	53539.75
565.39	52992.07
565.56	52753.33
565.72	52762.70
565.88	53118.46
566.05	53069.31
566.21	53616.99
566.38	53640.40
566.54	53506.99
566.70	54024.25
566.87	54316.81
567.03	54358.94
567.19	54485.33
567.36	53970.41
567.52	54059.35
567.68	53488.26
567.85	53050.58
568.01	52570.77
568.17	52067.56
568.34	52477.15
568.50	52397.57
568.66	52266.50
568.83	52568.43
568.99	52636.31
569.15	53233.14
569.32	53031.86
569.48	52699.50
569.64	52563.75
569.81	52203.31
569.97	52383.53
570.13	51828.82
570.30	51508.17
570.46	51309.22
570.62	50408.12
570.78	50422.16
570.95	50752.18
571.11	51498.81
571.27	52046.49
571.43	52114.37
571.60	52430.34
571.76	52823.55
571.92	53123.14
572.09	53066.97
572.25	53352.51
572.41	52968.66
572.57	52893.77
572.74	52699.50
572.90	52533.32
573.06	52437.36
573.22	52465.45
573.38	52470.13
573.55	52472.47
573.71	52727.59
573.87	52519.28
574.03	52200.97
574.20	52186.92
574.36	51718.82
574.52	51903.72
574.68	51262.41
574.84	50803.67
575.01	50440.89
575.17	50555.57
575.33	51040.06
575.49	51414.55
575.65	51346.67
575.82	51054.11
575.98	50862.18
576.14	51136.02
576.30	51292.84
576.46	51660.30
576.62	51255.39
576.79	51274.12
576.95	51136.02
577.11	50836.44
577.27	51077.51
577.43	51129.00
577.59	50567.27
577.75	50167.04
577.92	49642.76
578.08	49439.14
578.24	49216.78
578.40	49879.16
578.56	50124.91
578.72	49923.63
578.88	50501.74
579.04	50829.41
579.21	50670.26
579.37	50791.97
579.53	50688.98
579.69	50803.67
579.85	51124.32
580.01	50492.38
580.17	50160.02
580.33	50094.49
580.49	50541.53
580.65	50576.64
580.82	51049.42
580.98	50468.97
581.14	50621.11
581.30	50759.20
581.46	50515.78
581.62	50855.16
581.78	50663.24
581.94	51152.41
582.10	51026.02
582.26	51049.42
582.42	51096.24
582.58	51063.47
582.74	50934.74
582.90	51152.41
583.06	51019.00
583.22	50679.62
583.38	50740.47
583.54	50576.64
583.70	50344.92
583.86	50815.37
584.02	50520.46
584.18	50525.14
584.34	50583.66
584.50	50195.13
584.66	50363.65
584.82	49516.37
584.98	49982.14
585.14	49279.98
585.30	48198.65
