SpectraSuite Data File
++++++++++++++++++++++++++++++++++++
Date: Mon Oct 07 14:54:00 GMT-05:00 2013
User: price-jones
Dark Spectrum Present: No
Reference Spectrum Present: No
Number of Sampled Component Spectra: 1
Spectrometers: USB2+H05261
Integration Time (usec): 100000 (USB2+H05261)
Spectra Averaged: 1 (USB2+H05261)
Boxcar Smoothing: 0 (USB2+H05261)
Correct for Electrical Dark: No (USB2+H05261)
Strobe/Lamp Enabled: No (USB2+H05261)
Correct for Detector Non-linearity: No (USB2+H05261)
Correct for Stray Light: No (USB2+H05261)
Number of Pixels in Processed Spectrum: 2048
>>>>>Begin Processed Spectral Data<<<<<
365.73	0.00
365.92	0.00
366.12	0.00
366.32	0.00
366.52	0.00
366.72	0.00
366.91	0.00
367.11	0.00
367.31	0.00
367.51	0.00
367.70	0.00
367.90	0.00
368.10	0.00
368.30	0.00
368.49	0.00
368.69	0.00
368.89	0.00
369.09	0.00
369.28	0.00
369.48	0.00
369.68	0.00
369.87	0.00
370.07	0.00
370.27	0.00
370.47	734.93
370.66	3384.41
370.86	3985.93
371.06	4299.56
371.25	4346.37
371.45	4112.32
371.65	3679.32
371.84	3482.72
372.04	3653.58
372.24	4002.32
372.44	4072.53
372.63	4074.87
372.83	3770.60
373.03	3475.70
373.22	3096.53
373.42	3288.45
373.62	3768.26
373.81	4135.73
374.01	3901.67
374.21	3763.58
374.40	3321.22
374.60	3393.78
374.79	3920.40
374.99	4638.94
375.19	4865.97
375.38	5062.58
375.58	4744.27
375.78	4695.11
375.97	4723.20
376.17	4915.12
376.37	4821.50
376.56	5041.51
376.76	5280.25
376.95	5561.11
377.15	6040.92
377.35	6101.78
377.54	6612.01
377.74	6693.93
377.93	6658.82
378.13	6600.31
378.33	6181.35
378.52	5556.43
378.72	5430.04
378.91	5394.93
379.11	5355.15
379.31	5116.41
379.50	5135.14
379.70	5446.43
379.89	6064.33
380.09	6380.30
380.28	6679.89
380.48	6560.52
380.68	6377.96
380.87	6265.61
381.07	5818.57
381.26	5350.46
381.46	5193.65
381.65	4753.63
381.85	4692.77
382.04	4503.19
382.24	4133.39
382.43	3967.21
382.63	3927.42
382.83	4056.15
383.02	3981.25
383.22	3873.59
383.41	3960.19
383.61	4276.16
383.80	4849.59
384.00	5521.32
384.19	6207.10
384.39	6471.58
384.58	6392.00
384.78	6293.70
384.97	6377.96
385.17	6008.16
385.36	5673.46
385.56	5418.34
385.75	5657.07
385.95	6139.23
386.14	6726.70
386.34	6731.38
386.53	6363.92
386.72	5921.56
386.92	5877.09
387.11	6237.53
387.31	6663.51
387.50	6644.78
387.70	6296.04
387.89	6263.27
388.09	6300.72
388.28	6473.92
388.48	6441.15
388.67	6855.43
388.86	7623.12
389.06	8023.36
389.25	8615.51
389.45	8465.72
389.64	8428.27
389.84	8421.25
390.03	8229.32
390.22	8475.08
390.42	8458.70
390.61	9132.77
390.81	9977.70
391.00	9863.02
391.19	10024.51
391.39	9425.34
391.58	9043.83
391.78	8519.55
391.97	8245.71
392.16	7740.15
392.36	7077.78
392.55	5603.24
392.75	4458.72
392.94	3552.93
393.13	3562.30
393.33	4313.61
393.52	5500.26
393.71	6588.61
393.91	7662.91
394.10	7882.92
394.29	8856.59
394.49	9661.73
394.68	10401.34
394.88	10422.41
395.07	10909.24
395.26	10726.68
395.46	10312.40
395.65	9767.06
395.84	8617.85
396.04	7368.01
396.23	5867.72
396.42	4889.38
396.62	4648.30
396.81	5530.69
397.00	7077.78
397.19	8940.85
397.39	10389.64
397.58	11749.49
397.77	12695.07
397.97	13226.37
398.16	13095.30
398.35	13729.58
398.55	13872.36
398.74	14583.88
398.93	14822.61
399.12	14272.59
399.32	14005.77
399.51	14384.93
399.70	15159.65
399.90	15199.44
400.09	15232.21
400.28	14848.36
400.47	15112.84
400.67	16042.03
400.86	16290.13
401.05	16493.76
401.24	16339.28
401.44	16561.63
401.63	16486.73
401.82	16840.15
402.01	16774.62
402.21	16954.84
402.40	16936.12
402.59	16596.74
402.78	15770.53
402.97	15473.28
403.17	15683.93
403.36	16901.01
403.55	17570.40
403.74	17989.36
403.93	17081.23
404.13	15634.78
404.32	15250.93
404.51	15847.77
404.70	17441.67
404.89	17055.48
405.09	16840.15
405.28	16276.09
405.47	16594.40
405.66	16269.06
405.85	16170.76
406.05	15655.84
406.24	15770.53
406.43	16620.14
406.62	17036.76
406.81	17057.82
407.00	16269.06
407.20	16025.65
407.39	16346.30
407.58	16746.53
407.77	17825.52
407.96	18281.92
408.15	18562.79
408.34	18700.88
408.54	19192.39
408.73	19562.20
408.92	19166.65
409.11	18822.59
409.30	17809.14
409.49	16650.57
409.68	15875.85
409.87	15014.54
410.07	15964.79
410.26	17516.57
410.45	18579.17
410.64	18750.03
410.83	19730.72
411.02	19829.02
411.21	20753.53
411.40	20608.42
411.59	20362.66
411.78	20348.62
411.98	19903.92
412.17	20540.54
412.36	20081.80
412.55	20095.84
412.74	19711.99
412.93	19288.35
413.12	19325.80
413.31	21289.51
413.50	21488.46
413.69	21661.66
413.88	20961.84
414.07	20414.15
414.26	20723.10
414.45	21102.27
414.64	21752.94
414.83	21600.80
415.02	20790.98
415.22	20999.29
415.41	21474.42
415.60	22417.65
415.79	22951.29
415.98	23374.93
416.17	23655.79
416.36	23124.49
416.55	22977.04
416.74	22171.89
416.93	21399.52
417.12	21263.77
417.31	21525.91
417.50	21935.50
417.69	22284.24
417.88	22251.47
418.07	22408.29
418.26	22120.40
418.45	22188.28
418.64	23183.01
418.83	23807.93
419.02	23470.89
419.21	23438.12
419.39	22199.98
419.58	21291.85
419.77	21198.23
419.96	22024.44
420.15	23398.34
420.34	24119.22
420.53	24732.44
420.72	25310.55
420.91	25076.50
421.10	25010.96
421.29	24526.47
421.48	23660.48
421.67	24910.32
421.86	24023.26
422.05	22747.67
422.24	20100.52
422.43	19939.02
422.61	22169.55
422.80	24140.29
422.99	23974.11
423.18	23080.02
423.37	22614.26
423.56	22616.60
423.75	23124.49
423.94	23393.65
424.13	22097.00
424.32	22511.27
424.50	23040.23
424.69	22520.63
424.88	22302.96
425.07	22134.45
425.26	22551.06
425.45	22195.30
425.64	21741.24
425.83	21710.81
426.01	22979.38
426.20	23250.88
426.39	23257.90
426.58	21626.55
426.77	20184.78
426.96	19323.46
427.15	20114.56
427.33	21460.37
427.52	22501.91
427.71	22506.59
427.90	22497.23
428.09	22338.07
428.28	21846.56
428.46	21261.43
428.65	20629.48
428.84	21202.91
429.03	21687.40
429.22	20446.92
429.40	19616.03
429.59	17788.07
429.78	15339.87
429.97	15309.44
430.16	15779.89
430.34	15845.43
430.53	15744.78
430.72	16187.14
430.91	17860.63
431.10	20725.44
431.28	24524.13
431.47	26391.88
431.66	26773.39
431.85	24231.57
432.03	22747.67
432.22	21502.50
432.41	22506.59
432.60	24849.47
432.79	26031.44
432.97	26513.59
433.16	25729.51
433.35	23796.23
433.54	21434.63
433.72	19915.62
433.91	20716.08
434.10	22679.79
434.28	24451.58
434.47	26139.10
434.66	25792.70
434.85	24868.19
435.03	24760.53
435.22	25467.37
435.41	27023.83
435.59	26686.79
435.78	27372.57
435.97	28093.45
436.16	27868.76
436.34	28180.05
436.53	27452.14
436.72	27498.95
436.90	25919.09
437.09	25605.46
437.28	25429.92
437.46	25846.54
437.65	26085.27
437.84	24474.98
438.02	22249.13
438.21	22050.19
438.40	23424.08
438.58	25310.55
438.77	25958.88
438.96	26312.30
439.14	27538.74
439.33	28149.62
439.52	28414.10
439.70	27758.75
439.89	27044.89
440.08	26457.42
440.26	26347.41
440.45	27002.76
440.63	29046.05
440.82	30639.95
441.01	29706.08
441.19	29806.72
441.38	30040.78
441.57	31274.24
441.75	31885.12
441.94	31969.38
442.12	31573.83
442.31	32119.17
442.50	32210.45
442.68	31948.31
442.87	31140.83
443.05	30747.62
443.24	31569.15
443.43	32180.03
443.61	32643.45
443.80	33188.80
443.98	31161.89
444.17	30881.03
444.35	33111.56
444.54	33626.48
444.73	32804.95
444.91	31831.29
445.10	30450.37
445.28	29102.22
445.47	28561.56
445.65	28896.25
445.84	29876.94
446.02	30822.51
446.21	31374.88
446.39	31122.10
446.58	32044.27
446.77	32023.21
446.95	32306.41
447.14	33460.30
447.32	33741.16
447.51	32971.13
447.69	31983.42
447.88	31618.30
448.06	32149.60
448.25	33015.60
448.43	32844.74
448.62	32411.74
448.80	32053.64
448.99	32531.11
449.17	32919.63
449.36	32444.51
449.54	33731.80
449.73	34321.62
449.91	34721.85
450.10	35634.66
450.28	35990.42
450.46	36074.68
450.65	35948.29
450.83	35597.21
451.02	34621.20
451.20	34426.94
451.39	34426.94
451.57	34469.07
451.76	34459.71
451.94	34087.56
452.13	34017.35
452.31	32133.21
452.49	30508.88
452.68	30852.94
452.86	31014.44
453.05	31253.17
453.23	32378.97
453.42	33064.75
453.60	34281.83
453.78	34263.10
453.97	33621.80
454.15	33792.65
454.34	33329.23
454.52	32996.87
454.70	32706.65
454.89	32837.72
455.07	33151.35
455.26	33333.91
455.44	35002.71
455.62	35653.38
455.81	35777.43
455.99	35482.52
456.17	34768.66
456.36	35297.62
456.54	35922.54
456.73	36308.73
456.91	36486.61
457.09	36388.31
457.28	37680.28
457.46	35875.73
457.64	35449.75
457.83	34445.66
458.01	33626.48
458.19	34824.83
458.38	34991.01
458.56	36093.40
458.74	36065.31
458.93	34876.32
459.11	35185.27
459.29	34913.77
459.48	35283.58
459.66	34817.81
459.84	35468.48
460.03	35428.69
460.21	35714.23
460.39	36737.05
460.57	36439.80
460.76	36891.52
460.94	37284.73
461.12	36376.61
461.31	36769.82
461.49	36603.64
461.67	36573.21
461.85	38122.65
462.04	37687.31
462.22	38000.94
462.40	37703.69
462.59	37436.87
462.77	37457.93
462.95	37628.79
463.13	37315.16
463.32	36650.45
463.50	36247.88
463.68	36430.44
463.86	36954.72
464.05	36154.26
464.23	35424.01
464.41	35318.68
464.59	34866.96
464.78	36252.56
464.96	36114.47
465.14	35976.37
465.32	36503.00
465.50	37394.74
465.69	37525.81
465.87	36893.86
466.05	35959.99
466.23	34686.74
466.41	33916.70
466.60	34565.03
466.78	34969.94
466.96	35374.86
467.14	35842.96
467.32	36561.51
467.51	36659.81
467.69	34998.03
467.87	35608.91
468.05	36449.16
468.23	35861.69
468.41	36079.36
468.60	36322.77
468.78	36418.74
468.96	35658.06
469.14	36996.85
469.32	37113.87
469.50	35271.87
469.69	35721.26
469.87	35201.66
470.05	35115.06
470.23	35344.43
470.41	35201.66
470.59	35913.18
470.77	35967.01
470.95	36739.39
471.14	37036.64
471.32	36921.95
471.50	39321.00
471.68	39037.80
471.86	39199.29
472.04	39674.42
472.22	39786.77
472.40	37656.88
472.58	37273.03
472.77	37046.00
472.95	37635.81
473.13	38478.41
473.31	37745.82
473.49	38003.28
473.67	38525.22
473.85	38780.34
474.03	39704.85
474.21	39658.04
474.39	40645.74
474.57	40662.13
474.75	40231.47
474.93	40453.82
475.12	38920.77
475.30	38911.41
475.48	39395.90
475.66	40238.49
475.84	39330.36
476.02	39201.63
476.20	38249.03
476.38	39648.68
476.56	40407.01
476.74	41254.28
476.92	41235.56
477.10	41532.81
477.28	43234.38
477.46	43206.29
477.64	43220.33
477.82	43463.75
478.00	43662.69
478.18	42628.18
478.36	42946.49
478.54	42829.46
478.72	42951.17
478.90	44004.41
479.08	45237.87
479.26	45815.99
479.44	45572.57
479.62	45099.78
479.80	45556.19
479.98	45560.87
480.16	45729.39
480.34	45223.83
480.52	45930.67
480.70	45397.03
480.88	45893.22
481.06	46600.07
481.24	47028.38
481.41	47643.94
481.59	48390.58
481.77	48203.33
481.95	47536.28
482.13	47089.24
482.31	47519.90
482.49	47908.43
482.67	47910.77
482.85	47959.92
483.03	49081.03
483.21	49696.59
483.39	49219.13
483.57	48308.66
483.74	47990.34
483.92	48666.76
484.10	48626.97
484.28	49380.62
484.46	49907.24
484.64	49989.16
484.82	49436.80
485.00	48830.60
485.18	48383.55
485.35	46761.56
485.53	43658.01
485.71	40191.68
485.89	39636.97
486.07	41406.42
486.25	44524.01
486.43	47543.30
486.61	47990.34
486.78	47885.02
486.96	48226.74
487.14	49581.91
487.32	50536.85
487.50	51306.88
487.68	52130.75
487.85	52418.64
488.03	52378.85
488.21	52207.99
488.39	51341.99
488.57	51040.06
488.75	50277.05
488.92	51419.23
489.10	53701.25
489.28	54759.17
489.46	55311.54
489.64	55121.96
489.81	55395.80
489.99	54932.37
490.17	55056.42
490.35	55360.69
490.53	54791.94
490.70	54583.63
490.88	54548.53
491.06	55833.48
491.24	55681.34
491.41	54518.10
491.59	53221.44
491.77	51765.63
491.95	53270.59
492.13	54506.40
492.30	55533.89
492.48	56266.48
492.66	56598.83
492.84	56561.39
493.01	56402.23
493.19	56020.72
493.37	55547.93
493.54	55100.89
493.72	55758.58
493.90	56921.83
494.08	57691.86
494.25	57977.41
494.43	57888.47
494.61	58272.32
494.79	58351.90
494.96	58042.95
495.14	57801.87
495.32	56769.69
495.49	56238.39
495.67	57125.46
495.85	58653.82
496.02	59030.65
496.20	58857.45
496.38	58328.49
496.55	58253.59
496.73	58581.27
496.91	58710.00
497.09	59269.39
497.26	59341.94
497.44	58864.47
497.62	58391.68
497.79	57836.98
497.97	56587.13
498.14	56879.70
498.32	57649.74
498.50	58822.34
498.67	59173.42
498.85	58955.75
499.03	58934.69
499.20	59267.05
499.38	59213.21
499.56	59166.40
499.73	58754.47
499.91	58368.28
500.08	57993.79
500.26	57289.29
500.44	57464.83
500.61	58379.98
500.79	58117.84
500.97	57855.70
501.14	57907.19
501.32	57584.20
501.49	57460.15
501.67	57560.79
501.84	58078.05
502.02	58534.46
502.20	58777.87
502.37	58951.07
502.55	58993.20
502.72	59554.93
502.90	59744.51
503.07	59536.21
503.25	59110.23
503.43	58335.51
503.60	57909.53
503.78	57275.25
503.95	57591.22
504.13	58885.54
504.30	59552.59
504.48	59519.82
504.65	59236.62
504.83	58981.50
505.01	59746.86
505.18	60009.00
505.36	60631.58
505.53	60523.91
505.71	60870.31
505.88	60980.32
506.06	60362.42
506.23	60114.32
506.41	59697.70
506.58	59791.33
506.76	59826.43
506.93	59896.65
507.11	59671.96
507.28	59718.77
507.46	59346.62
507.63	58684.25
507.81	58644.46
507.98	58735.74
508.16	59381.73
508.33	59826.43
508.50	60196.24
508.68	60542.64
508.85	60839.89
509.03	60889.04
509.20	60757.97
509.38	60128.36
509.55	59437.90
509.73	59419.18
509.90	59948.14
510.08	60430.29
510.25	60051.12
510.42	60072.19
510.60	59826.43
510.77	60126.02
510.95	60596.47
511.12	60748.60
511.30	61174.58
511.47	61286.93
511.64	61361.82
511.82	60940.53
511.99	60030.06
512.17	59835.80
512.34	59395.77
512.51	59690.68
512.69	59676.64
512.86	59880.27
513.04	60184.54
513.21	60275.82
513.38	59962.18
513.56	59442.59
513.73	58976.82
513.90	59061.08
514.08	59171.08
514.25	59498.76
514.43	59531.53
514.60	59503.44
514.77	59753.88
514.95	59880.27
515.12	59868.56
515.29	59922.40
515.47	60559.02
515.64	60748.60
515.81	60430.29
515.99	59896.65
516.16	58464.24
516.33	56252.44
516.51	54967.48
516.68	54255.96
516.85	53677.85
517.03	54389.37
517.20	56790.76
517.37	59037.67
517.54	59742.17
517.72	59421.52
517.89	57270.57
518.06	55070.46
518.24	55175.79
518.41	57118.43
518.58	58541.48
518.75	58733.40
518.93	59028.31
519.10	58618.72
519.27	59131.29
519.45	59341.94
519.62	59997.29
519.79	60505.19
519.96	60196.24
520.14	59683.66
520.31	59025.97
520.48	58958.09
520.65	59386.41
520.83	60168.15
521.00	60498.17
521.17	60397.52
521.34	59891.97
521.52	60030.06
521.69	60533.28
521.86	61200.33
522.03	60877.33
522.20	59676.64
522.38	58677.23
522.55	58672.55
522.72	59210.87
522.89	59463.65
523.07	59536.21
523.24	59994.95
523.41	60413.91
523.58	60732.22
523.75	61230.75
523.92	61045.85
524.10	61109.05
524.27	61167.56
524.44	60732.22
524.61	60774.35
524.78	60638.60
524.96	60540.30
525.13	60629.24
525.30	60582.43
525.47	61146.50
525.64	60987.34
525.81	60331.99
525.98	59128.95
526.16	57813.57
526.33	57052.90
526.50	56617.56
526.67	56486.49
526.84	56931.19
527.01	57804.21
527.18	58735.74
527.36	59407.48
527.53	60470.08
527.70	60423.27
527.87	60104.96
528.04	59793.67
528.21	60161.13
528.38	60537.96
528.55	61013.08
528.72	61542.05
528.89	61588.86
529.07	61307.99
529.24	60865.63
529.41	59985.59
529.58	59700.04
529.75	59774.94
529.92	59994.95
530.09	60470.08
530.26	61041.17
530.43	61092.66
530.60	61366.51
530.77	61371.19
530.94	61464.81
531.11	61095.00
531.28	60760.31
531.46	60493.49
531.63	60818.82
531.80	60479.44
531.97	60097.94
532.14	59674.30
532.31	58628.08
532.48	57682.50
532.65	57972.73
532.82	58784.90
532.99	59814.73
533.16	60147.09
533.33	60694.77
533.50	60477.10
533.67	59941.12
533.84	59470.67
534.01	59639.19
534.18	59894.31
534.35	60032.40
534.52	59924.74
534.69	59962.18
534.86	60390.50
535.03	60814.14
535.20	61116.07
535.37	61425.02
535.54	61324.38
535.71	60985.00
535.88	60844.57
536.05	60210.28
536.22	59971.55
536.38	59714.09
536.55	58773.19
536.72	58663.19
536.89	58588.29
537.06	59285.77
537.23	60271.14
537.40	60383.48
537.57	60364.76
537.74	60069.85
537.91	60093.25
538.08	60030.06
538.25	60107.30
538.42	60353.05
538.59	59983.25
538.75	59622.81
538.92	59215.55
539.09	59285.77
539.26	59096.19
539.43	58721.70
539.60	58932.35
539.77	59194.49
539.94	58934.69
540.11	58143.59
540.28	57750.38
540.44	57549.09
540.61	57797.19
540.78	58155.29
540.95	58798.94
541.12	59072.78
541.29	59365.35
541.46	59503.44
541.62	59653.23
541.79	59489.40
541.96	58850.43
542.13	58789.58
542.30	59089.16
542.47	59213.21
542.63	58941.71
542.80	58688.93
542.97	59213.21
543.14	58831.71
543.31	58805.96
543.48	59288.11
543.64	60069.85
543.81	60327.31
543.98	59983.25
544.15	59398.12
544.32	58871.49
544.48	58855.11
544.65	59400.46
544.82	59674.30
544.99	59288.11
545.16	58951.07
545.32	58780.21
545.49	59487.06
545.66	59999.63
545.83	59505.78
546.00	59096.19
546.16	58843.41
546.33	59065.76
546.50	59157.04
546.67	59461.31
546.83	59032.99
547.00	59002.56
547.17	58522.76
547.34	57979.75
547.50	57977.41
547.67	58335.51
547.84	58288.70
548.00	58857.45
548.17	58927.67
548.34	59199.17
548.51	58972.14
548.67	58972.14
548.84	58976.82
549.01	59051.72
549.18	59042.35
549.34	58953.41
549.51	59040.01
549.68	58763.83
549.84	58686.59
550.01	58539.14
550.18	58255.93
550.34	58408.07
550.51	58611.70
550.68	58663.19
550.84	58064.01
551.01	58422.11
551.18	58056.99
551.34	58454.88
551.51	58773.19
551.68	58724.04
551.84	58939.37
552.01	58812.98
552.18	58644.46
552.34	57949.32
552.51	57574.84
552.68	57392.28
552.84	57984.43
553.01	58251.25
553.18	58042.95
553.34	58255.93
553.51	58286.36
553.67	58426.79
553.84	58677.23
554.01	58628.08
554.17	58323.81
554.34	58323.81
554.51	58529.78
554.67	58995.54
554.84	58754.47
555.00	58494.67
555.17	58286.36
555.33	58120.18
555.50	58113.16
555.67	58115.50
555.83	58005.50
556.00	57698.89
556.16	57682.50
556.33	57312.70
556.50	57003.75
556.66	57446.11
556.83	56933.53
556.99	57099.71
557.16	56996.73
557.32	57366.53
557.49	57652.08
557.65	57579.52
557.82	57432.07
557.98	57532.71
558.15	56959.28
558.32	56198.60
558.48	55468.36
558.65	55723.47
558.81	55913.06
558.98	56177.54
559.14	56423.29
559.31	56493.51
559.47	56781.40
559.64	56161.15
559.80	55849.86
559.97	55896.67
560.13	56268.82
560.30	57230.78
560.46	57581.86
560.63	57867.40
560.79	57813.57
560.96	57537.39
561.12	56126.05
561.29	55597.09
561.45	55725.81
561.61	56308.61
561.78	56552.02
561.94	56243.07
562.11	56254.78
562.27	56086.26
562.44	56526.28
562.60	56676.07
562.77	56886.72
562.93	56917.15
563.10	56882.04
563.26	56161.15
563.42	56456.06
563.59	56168.18
563.75	56069.87
563.92	56088.60
564.08	55929.44
564.24	56390.53
564.41	56381.16
564.57	56229.03
564.74	56161.15
564.90	56112.00
565.07	55917.74
565.23	55311.54
565.39	54876.20
565.56	54773.22
565.72	54550.87
565.88	54805.98
566.05	55051.74
566.21	55164.09
566.38	55470.70
566.54	55313.88
566.70	55866.25
566.87	56044.13
567.03	55936.46
567.19	56196.26
567.36	56034.77
567.52	55784.33
567.68	55433.25
567.85	55105.57
568.01	54536.82
568.17	54169.36
568.34	54312.13
568.50	54265.32
568.66	54031.27
568.83	54494.69
568.99	54810.67
569.15	54700.66
569.32	54993.23
569.48	54349.58
569.64	54478.31
569.81	54270.00
569.97	53827.64
570.13	54115.53
570.30	53626.35
570.46	53345.49
570.62	52804.83
570.78	52339.06
570.95	53071.65
571.11	53382.94
571.27	53722.32
571.43	53918.92
571.60	53741.04
571.76	54387.03
571.92	54600.02
572.09	54988.55
572.25	54475.97
572.41	54405.75
572.57	54454.90
572.74	54452.56
572.90	54087.44
573.06	54321.49
573.22	54260.64
573.38	54080.42
573.55	54213.83
573.71	54466.61
573.87	54443.20
574.03	53939.99
574.20	54019.56
574.36	53682.53
574.52	53771.47
574.68	53483.58
574.84	52795.46
575.01	52575.45
575.17	52479.49
575.33	52917.17
575.49	53137.18
575.65	52713.55
575.82	52797.80
575.98	52802.49
576.14	52638.65
576.30	53336.13
576.46	53439.11
576.62	53038.88
576.79	53191.01
576.95	52758.02
577.11	52699.50
577.27	52790.78
577.43	52828.23
577.59	52481.83
577.75	52238.42
577.92	51648.60
578.08	51285.82
578.24	51587.75
578.40	51267.09
578.56	51817.12
578.72	51728.18
578.88	52112.03
579.04	52193.95
579.21	52376.51
579.37	52374.17
579.53	52409.28
579.69	52720.57
579.85	52596.52
580.01	52425.66
580.17	51938.83
580.33	51824.14
580.49	52102.67
580.65	52233.74
580.82	52355.44
580.98	52303.95
581.14	52299.27
581.30	52266.50
581.46	52360.12
581.62	52329.70
581.78	52430.34
581.94	52793.12
582.10	52423.32
582.26	52594.18
582.42	52378.85
582.58	52519.28
582.74	52715.89
582.90	52411.62
583.06	52402.25
583.22	52144.80
583.38	52360.12
583.54	52278.21
583.70	51913.08
583.86	52229.05
584.02	52226.71
584.18	51807.76
584.34	51824.14
584.50	51990.32
584.66	51826.48
584.82	51157.09
584.98	51477.74
585.14	50843.46
