SpectraSuite Data File
++++++++++++++++++++++++++++++++++++
Date: Mon Oct 07 14:53:37 GMT-05:00 2013
User: price-jones
Dark Spectrum Present: No
Reference Spectrum Present: No
Number of Sampled Component Spectra: 1
Spectrometers: USB2+H05261
Integration Time (usec): 100000 (USB2+H05261)
Spectra Averaged: 1 (USB2+H05261)
Boxcar Smoothing: 0 (USB2+H05261)
Correct for Electrical Dark: No (USB2+H05261)
Strobe/Lamp Enabled: No (USB2+H05261)
Correct for Detector Non-linearity: No (USB2+H05261)
Correct for Stray Light: No (USB2+H05261)
Number of Pixels in Processed Spectrum: 2048
>>>>>Begin Processed Spectral Data<<<<<
365.73	0.00
365.92	0.00
366.12	0.00
366.32	0.00
366.52	0.00
366.72	0.00
366.91	0.00
367.11	0.00
367.31	0.00
367.51	0.00
367.70	0.00
367.90	0.00
368.10	0.00
368.30	0.00
368.49	0.00
368.69	0.00
368.89	0.00
369.09	0.00
369.28	0.00
369.48	0.00
369.68	0.00
369.87	0.00
370.07	0.00
370.27	0.00
370.47	608.54
370.66	3267.39
370.86	3913.38
371.06	4285.52
371.25	4161.47
371.45	3911.04
371.65	3510.80
371.84	3274.41
372.04	3391.44
372.24	3826.78
372.44	3992.95
372.63	3845.50
372.83	3660.60
373.03	3204.19
373.22	2860.13
373.42	3229.94
373.62	3527.19
373.81	3847.84
374.01	4007.00
374.21	3599.74
374.40	3246.32
374.60	3379.73
374.79	3868.91
374.99	4423.61
375.19	4688.09
375.38	4884.70
375.58	4662.35
375.78	4351.06
375.97	4505.53
376.17	4809.80
376.37	4652.98
376.56	4875.34
376.76	5062.58
376.95	5451.11
377.15	5994.11
377.35	6143.91
377.54	6230.51
377.74	6420.09
377.93	6485.62
378.13	6232.85
378.33	6045.60
378.52	5675.80
378.72	5242.80
378.91	5310.68
379.11	5015.77
379.31	4870.65
379.50	4931.51
379.70	5111.73
379.89	5701.54
380.09	6193.06
380.28	6504.35
380.48	6246.89
380.68	6200.08
380.87	6235.19
381.07	5696.86
381.26	5102.37
381.46	4877.68
381.65	4606.17
381.85	4629.58
382.04	4526.60
382.24	4252.75
382.43	4063.17
382.63	3714.43
382.83	3885.29
383.02	3887.63
383.22	3892.31
383.41	3978.91
383.61	4313.61
383.80	4674.05
384.00	5233.44
384.19	6090.07
384.39	6347.53
384.58	6349.87
384.78	6155.61
384.97	6267.95
385.17	5996.45
385.36	5809.21
385.56	5277.91
385.75	5366.85
385.95	5989.43
386.14	6429.45
386.34	6609.67
386.53	6277.32
386.72	5830.27
386.92	5956.66
387.11	6136.88
387.31	6537.12
387.50	6380.30
387.70	6370.94
387.89	6099.44
388.09	6235.19
388.28	6303.06
388.48	6429.45
388.67	6731.38
388.86	7360.98
389.06	8004.63
389.25	8557.00
389.45	8643.60
389.64	8524.23
389.84	8278.47
390.03	8177.83
390.22	8336.99
390.42	8496.14
390.61	9315.33
390.81	9664.07
391.00	9919.19
391.19	9673.43
391.39	9441.72
391.58	8922.12
391.78	8454.02
391.97	8187.19
392.16	7597.38
392.36	6775.85
392.55	5671.12
392.75	4355.74
392.94	3756.56
393.13	3473.36
393.33	4196.58
393.52	5514.30
393.71	6626.06
393.91	7400.77
394.10	8006.97
394.29	8823.82
394.49	9441.72
394.68	10590.92
394.88	10298.36
395.07	10740.72
395.26	10628.37
395.46	10317.08
395.65	9851.31
395.84	8664.66
396.04	7176.08
396.23	6022.20
396.42	4844.91
396.62	4748.95
396.81	5556.43
397.00	6958.41
397.19	8795.73
397.39	10370.91
397.58	11655.87
397.77	12468.03
397.97	12933.80
398.16	13104.66
398.35	13563.40
398.55	13853.63
398.74	14288.97
398.93	14808.57
399.12	14429.40
399.32	13858.31
399.51	14450.47
399.70	14965.39
399.90	15213.48
400.09	15405.41
400.28	14902.19
400.47	15047.30
400.67	15861.81
400.86	16381.41
401.05	16425.88
401.24	16208.21
401.44	16730.15
401.63	16699.72
401.82	16849.52
402.01	16666.95
402.21	16915.05
402.40	17088.25
402.59	16435.24
402.78	15871.17
402.97	15260.29
403.17	16035.01
403.36	17001.65
403.55	17460.40
403.74	17944.89
403.93	17011.01
404.13	15496.69
404.32	15363.28
404.51	15786.91
404.70	17336.35
404.89	17076.55
405.09	16910.37
405.28	16863.56
405.47	16617.80
405.66	16542.91
405.85	16116.93
406.05	15693.29
406.24	15983.52
406.43	16425.88
406.62	17329.33
406.81	17544.66
407.00	16690.36
407.20	16311.19
407.39	16439.92
407.58	17039.10
407.77	17781.05
407.96	18420.02
408.15	18754.71
408.34	18431.72
408.54	19716.67
408.73	19662.84
408.92	19566.88
409.11	18815.57
409.30	17900.42
409.49	16950.16
409.68	15852.45
409.87	15339.87
410.07	16231.62
410.26	17706.15
410.45	18808.54
410.64	19468.58
410.83	19672.20
411.02	20058.39
411.21	21003.97
411.40	21095.25
411.59	20671.61
411.78	20386.07
411.98	20215.21
412.17	20971.20
412.36	20376.70
412.55	20056.05
412.74	20203.50
412.93	19470.92
413.12	19955.41
413.31	21701.45
413.50	21804.43
413.69	22113.38
413.88	21502.50
414.07	20755.87
414.26	20978.22
414.45	21633.57
414.64	22136.79
414.83	21813.79
415.02	21535.27
415.22	21418.24
415.41	21860.60
415.60	22843.63
415.79	23669.84
415.98	23761.12
416.17	23880.49
416.36	23491.96
416.55	23094.07
416.74	22513.61
416.93	21853.58
417.12	21502.50
417.31	22134.45
417.50	22422.33
417.69	22953.63
417.88	22827.24
418.07	22661.07
418.26	22328.71
418.45	22827.24
418.64	23288.33
418.83	24142.63
419.02	23917.93
419.21	24215.18
419.39	22544.04
419.58	21486.12
419.77	21715.49
419.96	22876.40
420.15	23906.23
420.34	24634.14
420.53	25401.83
420.72	25551.63
420.91	25212.25
421.10	25113.95
421.29	25137.35
421.48	23976.45
421.67	25284.81
421.86	24699.67
422.05	23496.64
422.24	20982.90
422.43	20542.88
422.61	22483.19
422.80	24367.32
422.99	24610.73
423.18	23892.19
423.37	22991.08
423.56	23356.21
423.75	23758.78
423.94	24229.23
424.13	22700.86
424.32	23185.35
424.50	23356.21
424.69	22761.71
424.88	22764.05
425.07	23056.62
425.26	22778.09
425.45	22869.37
425.64	22382.54
425.83	22078.27
426.01	23730.69
426.20	24056.03
426.39	23936.66
426.58	22427.01
426.77	20641.18
426.96	19719.01
427.15	20407.13
427.33	22127.42
427.52	22897.46
427.71	22955.97
427.90	23065.98
428.09	22780.43
428.28	22471.48
428.46	21488.46
428.65	21399.52
428.84	21593.78
429.03	22197.64
429.22	20875.24
429.40	20194.14
429.59	18005.74
429.78	15946.07
429.97	15882.88
430.16	16121.61
430.34	16093.52
430.53	16042.03
430.72	16699.72
430.91	18312.35
431.10	21415.90
431.28	25530.56
431.47	27431.08
431.66	28135.58
431.85	25352.68
432.03	23239.18
432.22	22001.04
432.41	22955.97
432.60	25120.97
432.79	26569.76
432.97	27281.28
433.16	26874.03
433.35	24758.19
433.54	22085.30
433.72	20561.61
433.91	21228.66
434.10	23520.04
434.28	25284.81
434.47	26806.16
434.66	26632.96
434.85	25968.24
435.03	25458.01
435.22	26441.03
435.41	27906.21
435.59	27908.55
435.78	28411.76
435.97	28606.03
436.16	29039.03
436.34	28879.87
436.53	27974.08
436.72	28322.82
436.90	26710.19
437.09	26644.66
437.28	25881.64
437.46	26874.03
437.65	26878.71
437.84	25158.42
438.02	23363.23
438.21	23084.70
438.40	24393.06
438.58	26487.84
438.77	27021.48
438.96	27473.21
439.14	28137.92
439.33	29156.05
439.52	29483.73
439.70	28627.09
439.89	28048.98
440.08	27653.43
440.26	27323.41
440.45	28393.04
440.63	29752.89
440.82	31749.37
441.01	31527.02
441.19	30789.75
441.38	31496.59
441.57	32140.24
441.75	33149.01
441.94	33495.41
442.12	33078.79
442.31	33734.14
442.50	33886.28
442.68	32828.35
442.87	33092.83
443.05	31988.10
443.24	32762.82
443.43	33137.30
443.61	34085.22
443.80	34265.44
443.98	32460.89
444.17	32353.23
444.35	34756.96
444.54	35012.07
444.73	35009.73
444.91	32872.82
445.10	31978.74
445.28	30724.21
445.47	30054.82
445.65	30349.73
445.84	31501.27
446.02	32355.57
446.21	32767.50
446.39	32758.14
446.58	33383.06
446.77	33914.36
446.95	33645.20
447.14	34836.53
447.32	35849.99
447.51	34937.18
447.69	33490.73
447.88	32943.04
448.06	33383.06
448.25	34490.13
448.43	34733.55
448.62	33813.72
448.80	33563.28
448.99	33607.75
449.17	34209.27
449.36	34249.06
449.54	36126.17
449.73	35725.94
449.91	36584.91
450.10	37298.78
450.28	37860.51
450.46	37668.58
450.65	37525.81
450.83	37046.00
451.02	36252.56
451.20	36528.74
451.39	36507.68
451.57	36423.42
451.76	36299.37
451.94	36046.59
452.13	35634.66
452.31	34005.64
452.49	31960.02
452.68	32584.94
452.86	32613.02
453.05	33076.45
453.23	33818.40
453.42	35159.53
453.60	35847.64
453.78	35711.89
453.97	35564.44
454.15	35754.02
454.34	35021.44
454.52	35150.17
454.70	34384.81
454.89	34953.56
455.07	35021.44
455.26	35442.73
455.44	36816.63
455.62	37820.72
455.81	37366.65
455.99	37399.42
456.17	36734.71
456.36	36802.58
456.54	38307.55
456.73	37811.35
456.91	38581.39
457.09	38675.01
457.28	39798.47
457.46	38087.54
457.64	37670.92
457.83	36772.16
458.01	35803.17
458.19	36943.02
458.38	36940.68
458.56	37954.13
458.74	38066.47
458.93	37280.05
459.11	37088.13
459.29	36964.08
459.48	37177.07
459.66	36830.67
459.84	37626.45
460.03	37872.21
460.21	37722.41
460.39	38955.88
460.57	38909.07
460.76	39391.22
460.94	39171.21
461.12	38969.92
461.31	38785.02
461.49	38735.87
461.67	38967.58
461.85	39880.39
462.04	39971.67
462.22	40109.76
462.40	39681.44
462.59	39688.46
462.77	39796.13
462.95	39669.74
463.13	39658.04
463.32	38527.56
463.50	38675.01
463.68	38822.47
463.86	39115.03
464.05	38480.75
464.23	37453.25
464.41	37380.70
464.59	36814.29
464.78	38417.55
464.96	38223.29
465.14	38103.92
465.32	39077.58
465.50	39964.65
465.69	40308.71
465.87	39702.51
466.05	38665.65
466.23	37015.57
466.41	35959.99
466.60	36987.49
466.78	37067.06
466.96	37750.50
467.14	38546.28
467.32	38960.56
467.51	39002.69
467.69	37113.87
467.87	37876.89
468.05	38583.73
468.23	38763.95
468.41	38415.21
468.60	38539.26
468.78	39030.77
468.96	38291.16
469.14	39122.05
469.32	39564.42
469.50	38007.96
469.69	38284.14
469.87	37621.77
470.05	37570.28
470.23	37511.77
470.41	38038.39
470.59	38347.34
470.77	38305.21
470.95	38770.97
471.14	39335.04
471.32	39349.09
471.50	41326.84
471.68	41853.46
471.86	42050.06
472.04	42127.30
472.22	42398.80
472.40	40608.29
472.58	39655.70
472.77	39459.09
472.95	40304.02
473.13	41640.47
473.31	40273.60
473.49	40381.26
473.67	41392.37
473.85	41621.75
474.03	42436.25
474.21	42801.38
474.39	42967.55
474.57	43407.58
474.75	43412.26
474.93	42967.55
475.12	42038.36
475.30	42183.48
475.48	42684.35
475.66	43295.23
475.84	42616.47
476.02	41862.82
476.20	41228.54
476.38	42068.79
476.56	43632.27
476.74	44105.06
476.92	44044.20
477.10	44706.57
477.28	45977.48
477.46	46038.34
477.64	46637.51
477.82	46494.74
478.00	46983.91
478.18	46438.57
478.36	45911.95
478.54	46038.34
478.72	46150.68
478.90	47236.69
479.08	48165.88
479.26	48736.98
479.44	48058.22
479.62	48151.84
479.80	48247.80
479.98	48341.42
480.16	48933.58
480.34	48275.89
480.52	48713.57
480.70	48610.59
480.88	48926.56
481.06	49544.46
481.24	49741.06
481.41	50712.39
481.59	51531.57
481.77	51152.41
481.95	50534.51
482.13	50241.94
482.31	50478.33
482.49	51173.47
482.67	50480.67
482.85	50962.82
483.03	51515.19
483.21	52074.58
483.39	52051.17
483.57	51442.63
483.74	51281.14
483.92	51388.80
484.10	51440.29
484.28	52032.45
484.46	52538.01
484.64	52893.77
484.82	51990.32
485.00	51667.33
485.18	51152.41
485.35	50127.25
485.53	47173.50
485.71	42983.94
485.89	42822.44
486.07	44697.21
486.25	47927.15
486.43	49996.18
486.61	50731.11
486.78	51000.27
486.96	50878.57
487.14	52437.36
487.32	53160.59
487.50	54019.56
487.68	54850.45
487.85	54986.21
488.03	54885.56
488.21	54967.48
488.39	54206.81
488.57	53687.21
488.75	53436.77
488.92	54468.95
489.10	56032.42
489.28	57153.54
489.46	57733.99
489.64	57375.89
489.81	57691.86
489.99	57258.87
490.17	57570.16
490.35	57717.61
490.53	57251.84
490.70	56980.34
490.88	56830.55
491.06	57656.76
491.24	57743.36
491.41	57045.88
491.59	55381.76
491.77	54820.03
491.95	55842.84
492.13	56729.90
492.30	57741.02
492.48	58539.14
492.66	58843.41
492.84	58836.39
493.01	58574.25
493.19	58246.57
493.37	58042.95
493.54	57701.23
493.72	58155.29
493.90	59288.11
494.08	59674.30
494.25	60154.11
494.43	60142.41
494.61	60753.29
494.79	60729.88
494.96	60404.55
495.14	59859.20
495.32	59084.48
495.49	58719.36
495.67	59444.93
495.85	60671.37
496.02	61013.08
496.20	60807.12
496.38	60308.58
496.55	60294.54
496.73	60729.88
496.91	60786.05
497.09	61738.65
497.26	61731.63
497.44	61073.94
497.62	60739.24
497.79	59992.61
497.97	59025.97
498.14	58951.07
498.32	59941.12
498.50	60741.58
498.67	61399.27
498.85	61146.50
499.03	61563.11
499.20	61359.48
499.38	61450.77
499.56	61483.53
499.73	60945.21
499.91	60680.73
500.08	60282.84
500.26	59440.24
500.44	59920.05
500.61	60523.91
500.79	60507.53
500.97	60154.11
501.14	60114.32
501.32	59781.96
501.49	59821.75
501.67	60079.21
501.84	60439.65
502.02	60828.18
502.20	61069.26
502.37	61219.05
502.55	61102.03
502.72	61572.47
502.90	62199.74
503.07	61815.89
503.25	61410.98
503.43	60910.10
503.60	60339.01
503.78	59494.08
503.95	59929.42
504.13	61095.00
504.30	62127.18
504.48	62024.20
504.65	61509.28
504.83	61403.95
505.01	62073.35
505.18	62302.72
505.36	62913.60
505.53	62838.70
505.71	63332.56
505.88	63250.64
506.06	62845.72
506.23	62316.76
506.41	61869.72
506.58	62244.21
506.76	62164.63
506.93	62141.22
507.11	61914.19
507.28	62049.94
507.46	61614.60
507.63	61137.13
507.81	61123.09
507.98	61212.03
508.16	61750.35
508.33	62298.04
508.50	62735.72
508.68	62754.44
508.85	63330.22
509.03	63295.11
509.20	63332.56
509.38	62562.52
509.55	61755.03
509.73	61825.25
509.90	62590.61
510.08	62609.33
510.25	62508.69
510.42	62340.17
510.60	62396.34
510.77	62356.55
510.95	63025.95
511.12	63224.89
511.30	63203.83
511.47	63650.87
511.64	63590.01
511.82	63449.58
511.99	62780.19
512.17	62316.76
512.34	61989.09
512.51	61975.05
512.69	62141.22
512.86	62335.49
513.04	62808.28
513.21	62721.68
513.38	62405.70
513.56	61869.72
513.73	61326.72
513.90	61642.69
514.08	61497.58
514.25	61879.08
514.43	62085.05
514.60	62246.55
514.77	62358.89
514.95	62473.58
515.12	62363.57
515.29	62485.28
515.47	62911.26
515.64	63117.23
515.81	62862.11
515.99	62337.83
516.16	61148.84
516.33	58904.26
516.51	57717.61
516.68	57052.90
516.85	56882.04
517.03	57038.86
517.20	59248.32
517.37	61518.64
517.54	62508.69
517.72	61858.02
517.89	59910.69
518.06	57890.81
518.24	57979.75
518.41	59941.12
518.58	61244.80
518.75	61549.07
518.93	61680.14
519.10	61368.85
519.27	61813.55
519.45	61930.58
519.62	62574.22
519.79	62939.35
519.96	62733.38
520.14	62281.66
520.31	61654.39
520.48	61647.37
520.65	61900.15
520.83	62618.69
521.00	63077.44
521.17	62843.38
521.34	62485.28
521.52	62642.10
521.69	63262.34
521.86	63575.97
522.03	63379.37
522.20	62429.11
522.38	61286.93
522.55	61305.65
522.72	61893.13
522.89	61942.28
523.07	62099.09
523.24	62426.77
523.41	63157.02
523.58	63531.50
523.75	63903.65
523.92	63767.90
524.10	63805.34
524.27	63714.06
524.44	63412.13
524.61	63337.24
524.78	63164.04
524.96	63168.72
525.13	63114.89
525.30	63554.91
525.47	63833.43
525.64	63550.23
525.81	63004.88
525.98	61897.81
526.16	60575.40
526.33	59781.96
526.50	59749.20
526.67	59449.61
526.84	59772.60
527.01	60706.47
527.18	61382.89
527.36	62293.36
527.53	63100.84
527.70	63208.51
527.87	62873.81
528.04	62300.38
528.21	62719.34
528.38	63426.18
528.55	63894.28
528.72	63983.22
528.89	64292.18
529.07	64051.10
529.24	63707.04
529.41	62939.35
529.58	62258.25
529.75	62363.57
529.92	62885.51
530.09	63210.85
530.26	63611.08
530.43	63875.56
530.60	63870.88
530.77	64184.51
530.94	64231.32
531.11	63828.75
531.28	63601.72
531.46	63370.00
531.63	63519.80
531.80	63318.51
531.97	63100.84
532.14	62323.78
532.31	61450.77
532.48	60846.91
532.65	60856.27
532.82	61593.54
532.99	62731.04
533.16	62983.82
533.33	63374.69
533.50	63288.09
533.67	62625.71
533.84	62457.20
534.01	62651.46
534.18	62672.52
534.35	62857.43
534.52	62819.98
534.69	63093.82
534.86	63220.21
535.03	63353.62
535.20	63831.09
535.37	64147.06
535.54	64353.03
535.71	64072.17
535.88	63618.10
536.05	63171.06
536.22	62670.18
536.38	62651.46
536.55	61918.87
536.72	61677.80
536.89	61509.28
537.06	62253.57
537.23	63147.65
537.40	63149.99
537.57	63164.04
537.74	62864.45
537.91	63004.88
538.08	62827.00
538.25	62904.24
538.42	63189.78
538.59	62979.14
538.75	62468.90
538.92	62248.89
539.09	62106.12
539.26	61930.58
539.43	61890.79
539.60	61946.96
539.77	61895.47
539.94	61975.05
540.11	61324.38
540.28	60505.19
540.44	60844.57
540.61	60961.59
540.78	61289.27
540.95	61755.03
541.12	61886.10
541.29	62143.56
541.46	62410.38
541.62	62562.52
541.79	62438.47
541.96	61787.80
542.13	61726.95
542.30	62068.67
542.47	62447.83
542.63	62169.31
542.80	61881.42
542.97	61961.00
543.14	61836.95
543.31	61918.87
543.48	62379.96
543.64	63054.03
543.81	63257.66
543.98	63121.91
544.15	62508.69
544.32	62061.64
544.48	61925.89
544.65	62417.41
544.82	62925.30
544.99	62440.81
545.16	62115.48
545.32	62003.13
545.49	62433.79
545.66	62997.86
545.83	62698.27
546.00	62288.68
546.16	62094.41
546.33	62106.12
546.50	62038.24
546.67	62468.90
546.83	62190.37
547.00	62216.12
547.17	61464.81
547.34	61116.07
547.50	61141.81
547.67	61357.14
547.84	61317.35
548.00	61829.93
548.17	62349.53
548.34	62199.74
548.51	62141.22
548.67	62248.89
548.84	62150.59
549.01	62106.12
549.18	62063.99
549.34	62101.43
549.51	61984.41
549.68	61829.93
549.84	61605.24
550.01	61600.56
550.18	61577.15
550.34	61680.14
550.51	61635.67
550.68	61865.04
550.84	61310.33
551.01	61652.05
551.18	61427.36
551.34	61724.61
551.51	62075.69
551.68	62108.46
551.84	62136.54
552.01	62059.30
552.18	61832.27
552.34	61197.99
552.51	60919.46
552.68	60746.26
552.84	61338.42
553.01	61499.92
553.18	61441.40
553.34	61441.40
553.51	61551.41
553.67	61928.23
553.84	61872.06
554.01	61759.72
554.17	61553.75
554.34	61813.55
554.51	61851.00
554.67	62059.30
554.84	61897.81
555.00	61516.30
555.17	61331.40
555.33	61399.27
555.50	61549.07
555.67	61401.61
555.83	61130.11
556.00	61050.53
556.16	60987.34
556.33	60743.92
556.50	60580.09
556.66	60669.03
556.83	60151.77
556.99	60669.03
557.16	60643.28
557.32	60884.36
557.49	61027.13
557.65	60891.38
557.82	61097.34
557.98	60870.31
558.15	60418.59
558.32	59735.15
558.48	58815.32
558.65	58986.18
558.81	59475.35
558.98	59702.38
559.14	59882.61
559.31	59938.78
559.47	60107.30
559.64	59700.04
559.80	59458.97
559.97	59611.10
560.13	59835.80
560.30	60526.25
560.46	61186.28
560.63	61282.25
560.79	61326.72
560.96	61155.86
561.12	59828.77
561.29	59276.41
561.45	59351.30
561.61	59786.64
561.78	60020.70
561.94	60214.96
562.11	60065.17
562.27	59707.07
562.44	60095.60
562.60	60399.86
562.77	60516.89
562.93	60324.97
563.10	60308.58
563.26	59817.07
563.42	60053.47
563.59	59772.60
563.75	59648.55
563.92	59718.77
564.08	59643.87
564.24	59964.52
564.41	60231.35
564.57	60018.36
564.74	59721.11
564.90	59884.95
565.07	59384.07
565.23	59316.20
565.39	58747.45
565.56	58543.82
565.72	58375.30
565.88	58585.95
566.05	58857.45
566.21	59002.56
566.38	59075.12
566.54	58962.78
566.70	59412.16
566.87	59964.52
567.03	59749.20
567.19	59941.12
567.36	59678.98
567.52	59524.50
567.68	59194.49
567.85	58667.87
568.01	58534.46
568.17	58028.90
568.34	58056.99
568.50	58080.39
568.66	58155.29
568.83	58656.17
568.99	58576.59
569.15	58597.65
569.32	58726.38
569.48	58497.01
569.64	58251.25
569.81	58197.42
569.97	58024.22
570.13	58131.89
570.30	57731.65
570.46	57207.37
570.62	56533.30
570.78	56516.92
570.95	57043.54
571.11	57476.54
571.27	57827.62
571.43	57820.59
571.60	58230.19
571.76	58305.09
571.92	58618.72
572.09	58576.59
572.25	58618.72
572.41	58670.21
572.57	58361.26
572.74	58335.51
572.90	58192.74
573.06	58204.44
573.22	58251.25
573.38	58045.29
573.55	58248.91
573.71	58394.03
573.87	58298.06
574.03	58192.74
574.20	58197.42
574.36	57696.55
574.52	57460.15
574.68	57455.47
574.84	57258.87
575.01	56914.81
575.17	56853.95
575.33	56776.72
575.49	57095.03
575.65	57312.70
575.82	57120.77
575.98	56837.57
576.14	57146.52
576.30	57293.97
576.46	57401.64
576.62	57572.50
576.79	57427.38
576.95	57038.86
577.11	57181.63
577.27	56975.66
577.43	57258.87
577.59	56853.95
577.75	56493.51
577.92	56147.11
578.08	55873.27
578.24	55763.26
578.40	56086.26
578.56	56449.04
578.72	56137.75
578.88	56584.79
579.04	56797.78
579.21	56797.78
579.37	56884.38
579.53	56856.29
579.69	56945.23
579.85	57132.48
580.01	57043.54
580.17	56278.18
580.33	56217.33
580.49	56453.72
580.65	56790.76
580.82	56973.32
580.98	56734.59
581.14	56626.92
581.30	56680.75
581.46	56470.11
581.62	56769.69
581.78	56837.57
581.94	56975.66
582.10	56823.53
582.26	56804.80
582.42	56882.04
582.58	57113.75
582.74	56921.83
582.90	56945.23
583.06	56996.73
583.22	56507.55
583.38	56514.58
583.54	56596.49
583.70	56633.94
583.86	56554.36
584.02	56505.21
584.18	56460.74
584.34	56603.52
584.50	56397.55
584.66	56371.80
584.82	55936.46
584.98	55969.23
585.14	55363.03
