SpectraSuite Data File
++++++++++++++++++++++++++++++++++++
Date: Mon Oct 07 14:53:15 GMT-05:00 2013
User: price-jones
Dark Spectrum Present: No
Reference Spectrum Present: No
Number of Sampled Component Spectra: 1
Spectrometers: USB2+H05261
Integration Time (usec): 100000 (USB2+H05261)
Spectra Averaged: 1 (USB2+H05261)
Boxcar Smoothing: 0 (USB2+H05261)
Correct for Electrical Dark: No (USB2+H05261)
Strobe/Lamp Enabled: No (USB2+H05261)
Correct for Detector Non-linearity: No (USB2+H05261)
Correct for Stray Light: No (USB2+H05261)
Number of Pixels in Processed Spectrum: 2048
>>>>>Begin Processed Spectral Data<<<<<
365.73	0.00
365.92	0.00
366.12	0.00
366.32	0.00
366.52	0.00
366.72	0.00
366.91	0.00
367.11	0.00
367.31	0.00
367.51	0.00
367.70	0.00
367.90	0.00
368.10	0.00
368.30	0.00
368.49	0.00
368.69	0.00
368.89	0.00
369.09	0.00
369.28	0.00
369.48	0.00
369.68	0.00
369.87	0.00
370.07	0.00
370.27	0.00
370.47	2588.63
370.66	11101.16
370.86	12439.95
371.06	13298.92
371.25	13102.32
371.45	11683.95
371.65	10469.22
371.84	10232.82
372.04	10820.30
372.24	12231.64
372.44	12622.51
372.63	11878.22
372.83	10965.41
373.03	9886.42
373.22	9507.26
373.42	10071.33
373.62	11302.45
373.81	11815.02
374.01	11548.20
374.21	10551.14
374.40	10066.64
374.60	10754.76
374.79	12205.89
374.99	14141.52
375.19	14590.90
375.38	14668.14
375.58	13743.63
375.78	13795.12
375.97	13687.45
376.17	14017.47
376.37	14260.88
376.56	14815.59
376.76	15985.86
376.95	16563.97
377.15	18029.15
377.35	18815.57
377.54	19234.52
377.74	19845.40
377.93	19641.78
378.13	18630.66
378.33	17984.68
378.52	16503.12
378.72	16238.64
378.91	15690.95
379.11	15147.95
379.31	14656.43
379.50	14862.40
379.70	16404.81
379.89	18246.82
380.09	18785.14
380.28	18944.30
380.48	19356.23
380.68	18312.35
380.87	17811.48
381.07	16374.39
381.26	15393.70
381.46	14286.63
381.65	14001.08
381.85	13909.80
382.04	12865.92
382.24	12116.95
382.43	11822.05
382.63	11627.78
382.83	11447.56
383.02	11548.20
383.22	11365.64
383.41	11674.59
383.61	12800.39
383.80	14883.47
384.00	16854.20
384.19	18090.00
384.39	18743.01
384.58	19122.18
384.78	18574.49
384.97	18347.46
385.17	17095.27
385.36	16056.08
385.56	15894.58
385.75	16835.47
385.95	18141.49
386.14	19400.70
386.34	18853.02
386.53	18228.09
386.72	17263.79
386.92	17867.65
387.11	18771.10
387.31	19087.07
387.50	18733.65
387.70	18621.30
387.89	18546.40
388.09	18565.13
388.28	18476.19
388.48	19033.24
388.67	20570.97
388.86	22604.89
389.06	23728.35
389.25	24645.84
389.45	25057.78
389.64	24254.97
389.84	24205.82
390.03	24156.67
390.22	24709.04
390.42	25254.38
390.61	27173.62
390.81	28535.81
391.00	29212.23
391.19	28538.15
391.39	27307.03
391.58	25572.69
391.78	24362.64
391.97	23269.61
392.16	21413.56
392.36	19026.21
392.55	14998.15
392.75	12074.82
392.94	10527.73
393.13	11194.78
393.33	13579.79
393.52	17174.85
393.71	20290.10
393.91	22520.63
394.10	24615.41
394.29	27056.59
394.49	28421.13
394.68	30490.16
394.88	30539.31
395.07	31386.58
395.26	31400.63
395.46	29582.03
395.65	27751.73
395.84	23775.16
396.04	19751.78
396.23	15889.90
396.42	13844.27
396.62	14216.41
396.81	17254.43
397.00	22005.72
397.19	27009.78
397.39	31140.83
397.58	34565.03
397.77	36180.00
397.97	37270.69
398.16	37813.70
398.35	39491.86
398.55	40137.85
398.74	41504.72
398.93	42258.37
399.12	41331.52
399.32	40385.94
399.51	41879.21
399.70	43821.85
399.90	43126.71
400.09	42789.67
400.28	42485.40
400.47	43096.28
400.67	45137.23
400.86	45581.93
401.05	45893.22
401.24	46066.42
401.44	46499.42
401.63	46988.60
401.82	47545.64
402.01	46958.17
402.21	47517.56
402.40	47655.65
402.59	46284.09
402.78	44371.88
402.97	44421.03
403.17	45663.85
403.36	47859.27
403.55	48905.49
403.74	49055.29
403.93	46927.74
404.13	44156.55
404.32	44243.15
404.51	46277.07
404.70	48430.36
404.89	47948.21
405.09	47430.96
405.28	46515.81
405.47	46672.62
405.66	45687.26
405.85	44680.83
406.05	43817.17
406.24	44776.79
406.43	46820.08
406.62	47767.99
406.81	47657.99
407.00	46689.01
407.20	45420.44
407.39	46031.32
407.58	48374.19
407.77	49062.31
407.96	50302.79
408.15	50452.59
408.34	50864.52
408.54	52126.07
408.73	52090.96
408.92	51583.07
409.11	50539.19
409.30	48980.39
409.49	46064.08
409.68	43868.66
409.87	43243.74
410.07	45942.38
410.26	48657.40
410.45	50880.91
410.64	51704.77
410.83	52697.16
411.02	53111.44
411.21	53834.66
411.40	53616.99
411.59	53724.66
411.78	53616.99
411.98	53727.00
412.17	54040.63
412.36	53158.25
412.55	53186.33
412.74	52851.64
412.93	51973.94
413.12	52835.25
413.31	55519.85
413.50	55536.23
413.69	55587.72
413.88	54452.56
414.07	54120.21
414.26	54630.44
414.45	55428.57
414.64	55140.68
414.83	55056.42
415.02	55180.47
415.22	55292.82
415.41	55765.60
415.60	56624.58
415.79	57509.30
415.98	57605.26
416.17	57811.23
416.36	56900.76
416.55	56767.35
416.74	55978.59
416.93	55143.02
417.12	55381.76
417.31	55400.48
417.50	55433.25
417.69	56385.85
417.88	56858.63
418.07	56385.85
418.26	55938.80
418.45	56549.68
418.64	57450.79
418.83	58284.02
419.02	57712.93
419.21	57088.01
419.39	56041.79
419.58	55356.01
419.77	55739.86
419.96	56903.10
420.15	58089.76
420.34	58508.71
420.53	59517.48
420.72	59669.62
420.91	59531.53
421.10	59086.82
421.29	59119.59
421.48	58227.85
421.67	58787.24
421.86	57778.46
422.05	55803.05
422.24	53851.05
422.43	54035.95
422.61	56704.16
422.80	58326.15
422.99	58401.05
423.18	57490.58
423.37	57076.30
423.56	57212.06
423.75	57663.78
423.94	58394.03
424.13	56268.82
424.32	56839.91
424.50	56851.61
424.69	56690.12
424.88	56760.33
425.07	56898.42
425.26	56673.73
425.45	56081.58
425.64	55941.14
425.83	56170.52
426.01	57549.09
426.20	57879.11
426.39	57499.94
426.58	55346.65
426.77	53127.82
426.96	52823.55
427.15	54237.23
427.33	56416.27
427.52	56596.49
427.71	56814.16
427.90	56479.47
428.09	55948.17
428.28	55812.41
428.46	54850.45
428.65	54691.30
428.84	55501.12
429.03	55192.17
429.22	53165.27
429.40	51267.09
429.59	48465.47
429.78	44163.57
429.97	45057.65
430.16	45226.17
430.34	45045.95
430.53	45923.65
430.72	47264.78
430.91	51489.45
431.10	56219.67
431.28	59847.50
431.47	61183.94
431.66	61071.60
431.85	58578.93
432.03	56685.43
432.22	56310.95
432.41	57235.46
432.60	59306.83
432.79	60753.29
432.97	60989.68
433.16	59760.90
433.35	57256.53
433.54	54976.84
433.72	53607.63
433.91	55217.92
434.10	57925.92
434.28	59355.99
434.47	60189.22
434.66	59597.06
434.85	59274.07
435.03	59760.90
435.22	59962.18
435.41	61326.72
435.59	61263.52
435.78	61563.11
435.97	62330.81
436.16	61822.91
436.34	61694.18
436.53	61361.82
436.72	61661.41
436.90	60584.77
437.09	60156.45
437.28	60149.43
437.46	60509.87
437.65	60044.10
437.84	58188.06
438.02	56942.89
438.21	57130.14
438.40	58206.78
438.58	60065.17
438.77	60832.86
438.96	60846.91
439.14	62073.35
439.33	62391.66
439.52	62326.13
439.70	62003.13
439.89	61614.60
440.08	60999.04
440.26	61050.53
440.45	62061.64
440.63	63456.60
440.82	64437.29
441.01	64023.01
441.19	64221.96
441.38	64664.32
441.57	65125.41
441.75	65155.83
441.94	65336.05
442.12	65375.84
442.31	65535.00
442.50	65535.00
442.68	65535.00
442.87	65036.47
443.05	64769.64
443.24	65535.00
443.43	65535.00
443.61	65535.00
443.80	65535.00
443.98	65134.77
444.17	65062.21
444.35	65535.00
444.54	65535.00
444.73	65535.00
444.91	65279.88
445.10	64296.86
445.28	63444.90
445.47	63124.25
445.65	63426.18
445.84	64191.53
446.02	64835.18
446.21	65146.47
446.39	65305.63
446.58	65406.27
446.77	65535.00
446.95	65535.00
447.14	65535.00
447.32	65535.00
447.51	65535.00
447.69	65535.00
447.88	65535.00
448.06	65535.00
448.25	65535.00
448.43	65535.00
448.62	65535.00
448.80	65535.00
448.99	65535.00
449.17	65535.00
449.36	65535.00
449.54	65535.00
449.73	65535.00
449.91	65535.00
450.10	65535.00
450.28	65535.00
450.46	65535.00
450.65	65535.00
450.83	65535.00
451.02	65535.00
451.20	65535.00
451.39	65535.00
451.57	65535.00
451.76	65535.00
451.94	65535.00
452.13	65535.00
452.31	65535.00
452.49	65160.51
452.68	64947.53
452.86	64832.84
453.05	65535.00
453.23	65535.00
453.42	65535.00
453.60	65535.00
453.78	65535.00
453.97	65535.00
454.15	65535.00
454.34	65535.00
454.52	65535.00
454.70	65535.00
454.89	65535.00
455.07	65535.00
455.26	65535.00
455.44	65535.00
455.62	65535.00
455.81	65535.00
455.99	65535.00
456.17	65535.00
456.36	65535.00
456.54	65535.00
456.73	65535.00
456.91	65535.00
457.09	65535.00
457.28	65535.00
457.46	65535.00
457.64	65535.00
457.83	65535.00
458.01	65535.00
458.19	65535.00
458.38	65535.00
458.56	65535.00
458.74	65535.00
458.93	65535.00
459.11	65535.00
459.29	65535.00
459.48	65535.00
459.66	65535.00
459.84	65535.00
460.03	65535.00
460.21	65535.00
460.39	65535.00
460.57	65535.00
460.76	65535.00
460.94	65535.00
461.12	65535.00
461.31	65535.00
461.49	65535.00
461.67	65535.00
461.85	65535.00
462.04	65535.00
462.22	65535.00
462.40	65535.00
462.59	65535.00
462.77	65535.00
462.95	65535.00
463.13	65535.00
463.32	65535.00
463.50	65535.00
463.68	65535.00
463.86	65535.00
464.05	65535.00
464.23	65535.00
464.41	65535.00
464.59	65535.00
464.78	65535.00
464.96	65535.00
465.14	65535.00
465.32	65535.00
465.50	65535.00
465.69	65535.00
465.87	65535.00
466.05	65535.00
466.23	65535.00
466.41	65535.00
466.60	65535.00
466.78	65535.00
466.96	65535.00
467.14	65535.00
467.32	65535.00
467.51	65535.00
467.69	65535.00
467.87	65535.00
468.05	65535.00
468.23	65535.00
468.41	65535.00
468.60	65535.00
468.78	65535.00
468.96	65535.00
469.14	65535.00
469.32	65535.00
469.50	65535.00
469.69	65535.00
469.87	65535.00
470.05	65535.00
470.23	65535.00
470.41	65535.00
470.59	65535.00
470.77	65535.00
470.95	65535.00
471.14	65535.00
471.32	65535.00
471.50	65535.00
471.68	65535.00
471.86	65535.00
472.04	65535.00
472.22	65535.00
472.40	65535.00
472.58	65535.00
472.77	65535.00
472.95	65535.00
473.13	65535.00
473.31	65535.00
473.49	65535.00
473.67	65535.00
473.85	65535.00
474.03	65535.00
474.21	65535.00
474.39	65535.00
474.57	65535.00
474.75	65535.00
474.93	65535.00
475.12	65535.00
475.30	65535.00
475.48	65535.00
475.66	65535.00
475.84	65535.00
476.02	65535.00
476.20	65535.00
476.38	65535.00
476.56	65535.00
476.74	65535.00
476.92	65535.00
477.10	65535.00
477.28	65535.00
477.46	65535.00
477.64	65535.00
477.82	65535.00
478.00	65535.00
478.18	65535.00
478.36	65535.00
478.54	65535.00
478.72	65535.00
478.90	65535.00
479.08	65535.00
479.26	65535.00
479.44	65535.00
479.62	65535.00
479.80	65535.00
479.98	65535.00
480.16	65535.00
480.34	65535.00
480.52	65535.00
480.70	65535.00
480.88	65535.00
481.06	65535.00
481.24	65535.00
481.41	65535.00
481.59	65535.00
481.77	65535.00
481.95	65535.00
482.13	65535.00
482.31	65535.00
482.49	65535.00
482.67	65535.00
482.85	65535.00
483.03	65535.00
483.21	65535.00
483.39	65535.00
483.57	65535.00
483.74	65535.00
483.92	65535.00
484.10	65535.00
484.28	65535.00
484.46	65535.00
484.64	65535.00
484.82	65535.00
485.00	65535.00
485.18	65535.00
485.35	65535.00
485.53	65535.00
485.71	65535.00
485.89	65535.00
486.07	65535.00
486.25	65535.00
486.43	65535.00
486.61	65535.00
486.78	65535.00
486.96	65535.00
487.14	65535.00
487.32	65535.00
487.50	65535.00
487.68	65535.00
487.85	65535.00
488.03	65535.00
488.21	65535.00
488.39	65535.00
488.57	65535.00
488.75	65535.00
488.92	65535.00
489.10	65535.00
489.28	65535.00
489.46	65535.00
489.64	65535.00
489.81	65535.00
489.99	65535.00
490.17	65535.00
490.35	65535.00
490.53	65535.00
490.70	65535.00
490.88	65535.00
491.06	65535.00
491.24	65535.00
491.41	65535.00
491.59	65535.00
491.77	65535.00
491.95	65535.00
492.13	65535.00
492.30	65535.00
492.48	65535.00
492.66	65535.00
492.84	65535.00
493.01	65535.00
493.19	65535.00
493.37	65535.00
493.54	65535.00
493.72	65535.00
493.90	65535.00
494.08	65535.00
494.25	65535.00
494.43	65535.00
494.61	65535.00
494.79	65535.00
494.96	65535.00
495.14	65535.00
495.32	65535.00
495.49	65535.00
495.67	65535.00
495.85	65535.00
496.02	65535.00
496.20	65535.00
496.38	65535.00
496.55	65535.00
496.73	65535.00
496.91	65535.00
497.09	65535.00
497.26	65535.00
497.44	65535.00
497.62	65535.00
497.79	65535.00
497.97	65535.00
498.14	65535.00
498.32	65535.00
498.50	65535.00
498.67	65535.00
498.85	65535.00
499.03	65535.00
499.20	65535.00
499.38	65535.00
499.56	65535.00
499.73	65535.00
499.91	65535.00
500.08	65535.00
500.26	65535.00
500.44	65535.00
500.61	65535.00
500.79	65535.00
500.97	65535.00
501.14	65535.00
501.32	65535.00
501.49	65535.00
501.67	65535.00
501.84	65535.00
502.02	65535.00
502.20	65535.00
502.37	65535.00
502.55	65535.00
502.72	65535.00
502.90	65535.00
503.07	65535.00
503.25	65535.00
503.43	65535.00
503.60	65535.00
503.78	65535.00
503.95	65535.00
504.13	65535.00
504.30	65535.00
504.48	65535.00
504.65	65535.00
504.83	65535.00
505.01	65535.00
505.18	65535.00
505.36	65535.00
505.53	65535.00
505.71	65535.00
505.88	65535.00
506.06	65535.00
506.23	65535.00
506.41	65535.00
506.58	65535.00
506.76	65535.00
506.93	65535.00
507.11	65535.00
507.28	65535.00
507.46	65535.00
507.63	65535.00
507.81	65535.00
507.98	65535.00
508.16	65535.00
508.33	65535.00
508.50	65535.00
508.68	65535.00
508.85	65535.00
509.03	65535.00
509.20	65535.00
509.38	65535.00
509.55	65535.00
509.73	65535.00
509.90	65535.00
510.08	65535.00
510.25	65535.00
510.42	65535.00
510.60	65535.00
510.77	65535.00
510.95	65535.00
511.12	65535.00
511.30	65535.00
511.47	65535.00
511.64	65535.00
511.82	65535.00
511.99	65535.00
512.17	65535.00
512.34	65535.00
512.51	65535.00
512.69	65535.00
512.86	65535.00
513.04	65535.00
513.21	65535.00
513.38	65535.00
513.56	65535.00
513.73	65535.00
513.90	65535.00
514.08	65535.00
514.25	65535.00
514.43	65535.00
514.60	65535.00
514.77	65535.00
514.95	65535.00
515.12	65535.00
515.29	65535.00
515.47	65535.00
515.64	65535.00
515.81	65535.00
515.99	65535.00
516.16	65535.00
516.33	65535.00
516.51	65535.00
516.68	65535.00
516.85	65535.00
517.03	65535.00
517.20	65535.00
517.37	65535.00
517.54	65535.00
517.72	65535.00
517.89	65535.00
518.06	65535.00
518.24	65535.00
518.41	65535.00
518.58	65535.00
518.75	65535.00
518.93	65535.00
519.10	65535.00
519.27	65535.00
519.45	65535.00
519.62	65535.00
519.79	65535.00
519.96	65535.00
520.14	65535.00
520.31	65535.00
520.48	65535.00
520.65	65535.00
520.83	65535.00
521.00	65535.00
521.17	65535.00
521.34	65535.00
521.52	65535.00
521.69	65535.00
521.86	65535.00
522.03	65535.00
522.20	65535.00
522.38	65535.00
522.55	65535.00
522.72	65535.00
522.89	65535.00
523.07	65535.00
523.24	65535.00
523.41	65535.00
523.58	65535.00
523.75	65535.00
523.92	65535.00
524.10	65535.00
524.27	65535.00
524.44	65535.00
524.61	65535.00
524.78	65535.00
524.96	65535.00
525.13	65535.00
525.30	65535.00
525.47	65535.00
525.64	65535.00
525.81	65535.00
525.98	65535.00
526.16	65535.00
526.33	65535.00
526.50	65535.00
526.67	65535.00
526.84	65535.00
527.01	65535.00
527.18	65535.00
527.36	65535.00
527.53	65535.00
527.70	65535.00
527.87	65535.00
528.04	65535.00
528.21	65535.00
528.38	65535.00
528.55	65535.00
528.72	65535.00
528.89	65535.00
529.07	65535.00
529.24	65535.00
529.41	65535.00
529.58	65535.00
529.75	65535.00
529.92	65535.00
530.09	65535.00
530.26	65535.00
530.43	65535.00
530.60	65535.00
530.77	65535.00
530.94	65535.00
531.11	65535.00
531.28	65535.00
531.46	65535.00
531.63	65535.00
531.80	65535.00
531.97	65535.00
532.14	65535.00
532.31	65535.00
532.48	65535.00
532.65	65535.00
532.82	65535.00
532.99	65535.00
533.16	65535.00
533.33	65535.00
533.50	65535.00
533.67	65535.00
533.84	65535.00
534.01	65535.00
534.18	65535.00
534.35	65535.00
534.52	65535.00
534.69	65535.00
534.86	65535.00
535.03	65535.00
535.20	65535.00
535.37	65535.00
535.54	65535.00
535.71	65535.00
535.88	65535.00
536.05	65535.00
536.22	65535.00
536.38	65535.00
536.55	65535.00
536.72	65535.00
536.89	65535.00
537.06	65535.00
537.23	65535.00
537.40	65535.00
537.57	65535.00
537.74	65535.00
537.91	65535.00
538.08	65535.00
538.25	65535.00
538.42	65535.00
538.59	65535.00
538.75	65535.00
538.92	65535.00
539.09	65535.00
539.26	65535.00
539.43	65535.00
539.60	65535.00
539.77	65535.00
539.94	65535.00
540.11	65535.00
540.28	65535.00
540.44	65535.00
540.61	65535.00
540.78	65535.00
540.95	65535.00
541.12	65535.00
541.29	65535.00
541.46	65535.00
541.62	65535.00
541.79	65535.00
541.96	65535.00
542.13	65535.00
542.30	65535.00
542.47	65535.00
542.63	65535.00
542.80	65535.00
542.97	65535.00
543.14	65535.00
543.31	65535.00
543.48	65535.00
543.64	65535.00
543.81	65535.00
543.98	65535.00
544.15	65535.00
544.32	65535.00
544.48	65535.00
544.65	65535.00
544.82	65535.00
544.99	65535.00
545.16	65535.00
545.32	65535.00
545.49	65535.00
545.66	65535.00
545.83	65535.00
546.00	65535.00
546.16	65535.00
546.33	65535.00
546.50	65535.00
546.67	65535.00
546.83	65535.00
547.00	65535.00
547.17	65535.00
547.34	65535.00
547.50	65535.00
547.67	65535.00
547.84	65535.00
548.00	65535.00
548.17	65535.00
548.34	65535.00
548.51	65535.00
548.67	65535.00
548.84	65535.00
549.01	65535.00
549.18	65535.00
549.34	65535.00
549.51	65535.00
549.68	65535.00
549.84	65535.00
550.01	65535.00
550.18	65535.00
550.34	65535.00
550.51	65535.00
550.68	65535.00
550.84	65535.00
551.01	65535.00
551.18	65535.00
551.34	65535.00
551.51	65535.00
551.68	65535.00
551.84	65535.00
552.01	65535.00
552.18	65535.00
552.34	65535.00
552.51	65535.00
552.68	65535.00
552.84	65535.00
553.01	65535.00
553.18	65535.00
553.34	65535.00
553.51	65535.00
553.67	65535.00
553.84	65535.00
554.01	65535.00
554.17	65535.00
554.34	65535.00
554.51	65535.00
554.67	65535.00
554.84	65535.00
555.00	65535.00
555.17	65535.00
555.33	65535.00
555.50	65535.00
555.67	65535.00
555.83	65535.00
556.00	65535.00
556.16	65535.00
556.33	65535.00
556.50	65535.00
556.66	65535.00
556.83	65535.00
556.99	65535.00
557.16	65535.00
557.32	65535.00
557.49	65535.00
557.65	65535.00
557.82	65535.00
557.98	65535.00
558.15	65535.00
558.32	65535.00
558.48	65535.00
558.65	65535.00
558.81	65535.00
558.98	65535.00
559.14	65535.00
559.31	65535.00
559.47	65535.00
559.64	65535.00
559.80	65535.00
559.97	65535.00
560.13	65535.00
560.30	65535.00
560.46	65535.00
560.63	65535.00
560.79	65535.00
560.96	65535.00
561.12	65535.00
561.29	65535.00
561.45	65535.00
561.61	65535.00
561.78	65535.00
561.94	65535.00
562.11	65535.00
562.27	65535.00
562.44	65535.00
562.60	65535.00
562.77	65535.00
562.93	65535.00
563.10	65535.00
563.26	65535.00
563.42	65535.00
563.59	65535.00
563.75	65535.00
563.92	65535.00
564.08	65535.00
564.24	65535.00
564.41	65535.00
564.57	65535.00
564.74	65535.00
564.90	65535.00
565.07	65535.00
565.23	65535.00
565.39	65535.00
565.56	65535.00
565.72	65535.00
565.88	65535.00
566.05	65535.00
566.21	65535.00
566.38	65535.00
566.54	65535.00
566.70	65535.00
566.87	65535.00
567.03	65535.00
567.19	65535.00
567.36	65535.00
567.52	65535.00
567.68	65535.00
567.85	65535.00
568.01	65535.00
568.17	65535.00
568.34	65535.00
568.50	65535.00
568.66	65535.00
568.83	65535.00
568.99	65535.00
569.15	65535.00
569.32	65535.00
569.48	65535.00
569.64	65535.00
569.81	65535.00
569.97	65535.00
570.13	65535.00
570.30	65535.00
570.46	65535.00
570.62	65535.00
570.78	65535.00
570.95	65535.00
571.11	65535.00
571.27	65535.00
571.43	65535.00
571.60	65535.00
571.76	65535.00
571.92	65535.00
572.09	65535.00
572.25	65535.00
572.41	65535.00
572.57	65535.00
572.74	65535.00
572.90	65535.00
573.06	65535.00
573.22	65535.00
573.38	65535.00
573.55	65535.00
573.71	65535.00
573.87	65535.00
574.03	65535.00
574.20	65535.00
574.36	65535.00
574.52	65535.00
574.68	65535.00
574.84	65535.00
575.01	65535.00
575.17	65535.00
575.33	65535.00
575.49	65535.00
575.65	65535.00
575.82	65535.00
575.98	65535.00
576.14	65535.00
576.30	65535.00
576.46	65535.00
576.62	65535.00
576.79	65535.00
576.95	65535.00
577.11	65535.00
577.27	65535.00
577.43	65535.00
577.59	65535.00
577.75	65535.00
577.92	65535.00
578.08	65535.00
578.24	65535.00
578.40	65535.00
578.56	65535.00
578.72	65535.00
578.88	65535.00
579.04	65535.00
579.21	65535.00
579.37	65535.00
579.53	65535.00
579.69	65535.00
579.85	65535.00
580.01	65535.00
580.17	65535.00
580.33	65535.00
580.49	65535.00
580.65	65535.00
580.82	65535.00
580.98	65535.00
581.14	65535.00
581.30	65535.00
581.46	65535.00
581.62	65535.00
581.78	65535.00
581.94	65535.00
582.10	65535.00
582.26	65535.00
582.42	65535.00
582.58	65535.00
582.74	65535.00
582.90	65535.00
583.06	65535.00
583.22	65535.00
583.38	65535.00
583.54	65535.00
583.70	65535.00
583.86	65535.00
