SpectraSuite Data File
++++++++++++++++++++++++++++++++++++
Date: Mon Oct 07 14:53:37 GMT-05:00 2013
User: price-jones
Dark Spectrum Present: No
Reference Spectrum Present: No
Number of Sampled Component Spectra: 1
Spectrometers: USB2+H05261
Integration Time (usec): 100000 (USB2+H05261)
Spectra Averaged: 1 (USB2+H05261)
Boxcar Smoothing: 0 (USB2+H05261)
Correct for Electrical Dark: No (USB2+H05261)
Strobe/Lamp Enabled: No (USB2+H05261)
Correct for Detector Non-linearity: No (USB2+H05261)
Correct for Stray Light: No (USB2+H05261)
Number of Pixels in Processed Spectrum: 2048
>>>>>Begin Processed Spectral Data<<<<<
365.73	0.00
365.92	0.00
366.12	0.00
366.32	0.00
366.52	0.00
366.72	0.00
366.91	0.00
367.11	0.00
367.31	0.00
367.51	0.00
367.70	0.00
367.90	0.00
368.10	0.00
368.30	0.00
368.49	0.00
368.69	0.00
368.89	0.00
369.09	0.00
369.28	0.00
369.48	0.00
369.68	0.00
369.87	0.00
370.07	0.00
370.27	0.00
370.47	737.27
370.66	3478.04
370.86	4161.47
371.06	4585.11
371.25	4505.53
371.45	4142.75
371.65	3810.39
371.84	3382.07
372.04	3574.00
372.24	4049.13
372.44	4278.50
372.63	4205.94
372.83	3999.98
373.03	3524.85
373.22	3269.73
373.42	3400.80
373.62	3915.72
373.81	4212.96
374.01	4205.94
374.21	3794.01
374.40	3506.12
374.60	3655.92
374.79	4056.15
374.99	4795.76
375.19	5186.63
375.38	5242.80
375.58	4945.55
375.78	4940.87
375.97	4856.61
376.17	5160.88
376.37	5107.05
376.56	5350.46
376.76	5617.29
376.95	5994.11
377.15	6349.87
377.35	6670.53
377.54	6864.79
377.74	6935.01
377.93	6977.14
378.13	6817.98
378.33	6537.12
378.52	5947.30
378.72	5778.78
378.91	5652.39
379.11	5502.60
379.31	5266.21
379.50	5298.97
379.70	5657.07
379.89	6373.28
380.09	6773.51
380.28	6878.83
380.48	6768.83
380.68	6722.02
380.87	6707.98
381.07	6092.41
381.26	5633.67
381.46	5392.59
381.65	5102.37
381.85	5001.72
382.04	4629.58
382.24	4608.51
382.43	4173.18
382.63	4112.32
382.83	4184.88
383.02	4011.68
383.22	4208.28
383.41	4241.05
383.61	4528.94
383.80	4994.70
384.00	5797.51
384.19	6408.39
384.39	6843.73
384.58	6843.73
384.78	6731.38
384.97	6588.61
385.17	6239.87
385.36	6090.07
385.56	5912.19
385.75	5973.05
385.95	6363.92
386.14	6970.12
386.34	6979.48
386.53	6654.14
386.72	6291.36
386.92	6384.98
387.11	6633.08
387.31	7061.40
387.50	6881.18
387.70	6600.31
387.89	6677.55
388.09	6651.80
388.28	6502.01
388.48	6768.83
388.67	7241.62
388.86	7772.92
389.06	8526.57
389.25	9158.52
389.45	9160.86
389.64	9050.85
389.84	8812.12
390.03	8557.00
390.22	8849.57
390.42	9121.07
390.61	9834.93
390.81	10338.15
391.00	10593.26
391.19	10298.36
391.39	10312.40
391.58	9467.47
391.78	8847.22
391.97	8547.64
392.16	8308.90
392.36	7475.67
392.55	6099.44
392.75	4741.93
392.94	3920.40
393.13	3904.01
393.33	4465.74
393.52	5879.43
393.71	7033.31
393.91	8079.53
394.10	8573.38
394.29	9383.21
394.49	10068.98
394.68	11028.60
394.88	11169.04
395.07	11304.79
395.26	11386.71
395.46	11094.14
395.65	10356.87
395.84	9179.58
396.04	7777.60
396.23	6179.01
396.42	5240.46
396.62	4947.89
396.81	5942.62
397.00	7487.37
397.19	9439.38
397.39	11257.98
397.58	12652.94
397.77	13462.76
397.97	13591.49
398.16	13783.41
398.35	14415.36
398.55	14941.98
398.74	15602.01
398.93	15861.81
399.12	15246.25
399.32	14988.79
399.51	15297.74
399.70	16666.95
399.90	15833.72
400.09	16191.83
400.28	15864.15
400.47	16126.29
400.67	16844.84
400.86	17518.91
401.05	17511.89
401.24	17579.76
401.44	17678.07
401.63	17626.57
401.82	17877.01
402.01	18108.72
402.21	17846.58
402.40	18221.07
402.59	17593.81
402.78	16938.46
402.97	16444.60
403.17	16968.88
403.36	17923.82
403.55	18679.82
403.74	19293.04
403.93	18216.39
404.13	16891.65
404.32	16613.12
404.51	17181.87
404.70	18836.63
404.89	18546.40
405.09	18420.02
405.28	17818.50
405.47	17745.94
405.66	17518.91
405.85	17231.02
406.05	16589.72
406.24	17020.38
406.43	17612.53
406.62	18780.46
406.81	18473.85
407.00	17881.69
407.20	17282.52
407.39	17811.48
407.58	18485.55
407.77	19115.16
407.96	19871.15
408.15	20187.12
408.34	20121.59
408.54	20987.58
408.73	20933.75
408.92	20769.91
409.11	20130.95
409.30	19381.98
409.49	18015.10
409.68	16959.52
409.87	16126.29
410.07	17329.33
410.26	18764.07
410.45	19915.62
410.64	20229.25
410.83	20732.47
411.02	21422.92
411.21	22506.59
411.40	21886.35
411.59	22487.87
411.78	21996.35
411.98	21549.31
412.17	21963.59
412.36	21605.49
412.55	21647.61
412.74	21408.88
412.93	20704.38
413.12	21067.16
413.31	22750.01
413.50	23328.12
413.69	23442.81
413.88	22700.86
414.07	21867.63
414.26	22274.88
414.45	22941.93
414.64	23227.48
414.83	23185.35
415.02	22930.23
415.22	22649.36
415.41	23667.50
415.60	23962.40
415.79	25139.69
415.98	25682.70
416.17	25680.36
416.36	24697.33
416.55	24521.79
416.74	23850.06
416.93	23019.17
417.12	23173.64
417.31	23592.60
417.50	23779.84
417.69	24421.15
417.88	24320.51
418.07	24334.55
418.26	24037.30
418.45	24313.48
418.64	25135.01
418.83	25591.42
419.02	25757.60
419.21	25418.22
419.39	24056.03
419.58	22780.43
419.77	23110.45
419.96	23974.11
420.15	25418.22
420.34	26169.53
420.53	27267.24
420.72	27573.85
420.91	27491.93
421.10	27435.76
421.29	26654.02
421.48	25537.59
421.67	27122.13
421.86	26831.90
422.05	25050.75
422.24	22232.75
422.43	21837.20
422.61	24079.43
422.80	26103.99
422.99	26476.14
423.18	25380.77
423.37	24987.56
423.56	24549.88
423.75	25053.09
423.94	25413.54
424.13	24430.51
424.32	24451.58
424.50	24563.92
424.69	24465.62
424.88	24531.15
425.07	24278.38
425.26	24346.25
425.45	24341.57
425.64	23784.52
425.83	23868.78
426.01	25422.90
426.20	25570.35
426.39	25343.32
426.58	23864.10
426.77	22312.33
426.96	21022.69
427.15	22099.34
427.33	23988.15
427.52	24865.85
427.71	24978.20
427.90	24222.20
428.09	24479.66
428.28	23466.21
428.46	23283.65
428.65	22714.90
428.84	23218.11
429.03	23424.08
429.22	22436.38
429.40	21455.69
429.59	19562.20
429.78	16802.71
429.97	17043.78
430.16	17392.52
430.34	17495.50
430.53	17542.32
430.72	17535.29
430.91	19655.82
431.10	22862.35
431.28	26850.63
431.47	29373.72
431.66	29734.17
431.85	26972.33
432.03	24774.57
432.22	23470.89
432.41	24842.45
432.60	27505.98
432.79	28301.76
432.97	29237.97
433.16	28561.56
433.35	26178.89
433.54	23627.71
433.72	21865.28
433.91	22555.74
434.10	25221.61
434.28	27246.18
434.47	28341.55
434.66	28098.13
434.85	27475.55
435.03	27161.92
435.22	28163.67
435.41	29589.05
435.59	29734.17
435.78	30122.69
435.97	30703.15
436.16	30981.67
436.34	30319.30
436.53	29710.76
436.72	30085.25
436.90	28451.55
437.09	28070.04
437.28	27826.63
437.46	28973.49
437.65	28739.44
437.84	26806.16
438.02	24863.51
438.21	24449.24
438.40	25912.07
438.58	28002.17
438.77	28699.65
438.96	28800.29
439.14	30328.66
439.33	30831.88
439.52	31447.44
439.70	30675.06
439.89	30167.16
440.08	29142.01
440.26	28922.00
440.45	29961.20
440.63	32133.21
440.82	33668.61
441.01	33530.51
441.19	33291.78
441.38	33621.80
441.57	34520.56
441.75	35522.31
441.94	35037.82
442.12	34881.00
442.31	35658.06
442.50	35835.94
442.68	35318.68
442.87	34995.69
443.05	34602.48
443.24	34944.20
443.43	35395.92
443.61	36299.37
443.80	36765.14
443.98	34728.87
444.17	34478.43
444.35	36339.16
444.54	37055.36
444.73	36629.38
444.91	35697.85
445.10	33759.89
445.28	32378.97
445.47	31922.57
445.65	32217.47
445.84	33050.70
446.02	34298.21
446.21	34679.72
446.39	34824.83
446.58	35407.62
446.77	35854.67
446.95	36011.48
447.14	36957.06
447.32	37495.38
447.51	37067.06
447.69	35866.37
447.88	35103.35
448.06	35379.54
448.25	36769.82
448.43	36781.52
448.62	36060.63
448.80	35452.09
448.99	36158.94
449.17	36755.77
449.36	36184.68
449.54	37888.59
449.73	38316.91
449.91	38740.55
450.10	39950.60
450.28	40294.66
450.46	40453.82
450.65	40320.41
450.83	39604.20
451.02	38417.55
451.20	38321.59
451.39	38745.23
451.57	38466.70
451.76	38527.56
451.94	38309.89
452.13	37581.98
452.31	36077.02
452.49	34291.19
452.68	34391.83
452.86	34937.18
453.05	35393.58
453.23	36100.42
453.42	37214.52
453.60	38136.69
453.78	38256.06
453.97	37876.89
454.15	38242.01
454.34	37113.87
454.52	37043.66
454.70	36371.92
454.89	36854.08
455.07	37298.78
455.26	37865.19
455.44	39112.69
455.62	39880.39
455.81	39983.37
455.99	39796.13
456.17	38782.68
456.36	39295.25
456.54	40175.30
456.73	40837.67
456.91	40989.80
457.09	41031.93
457.28	41883.89
457.46	40421.05
457.64	40411.69
457.83	39035.45
458.01	37823.06
458.19	39152.48
458.38	39278.87
458.56	40865.75
458.74	40268.92
458.93	39627.61
459.11	39831.24
459.29	39477.82
459.48	39276.53
459.66	39201.63
459.84	39803.15
460.03	40020.82
460.21	40416.37
460.39	41205.13
460.57	41113.85
460.76	41446.21
460.94	42082.83
461.12	41198.11
461.31	41666.22
461.49	41074.06
461.67	40966.40
461.85	42426.89
462.04	42185.82
462.22	42579.03
462.40	42014.96
462.59	42508.81
462.77	41832.39
462.95	42450.30
463.13	41895.59
463.32	41488.34
463.50	40933.63
463.68	41177.04
463.86	41331.52
464.05	40610.64
464.23	40198.70
464.41	39901.45
464.59	38579.05
464.78	40917.25
464.96	41090.44
465.14	40521.69
465.32	41418.12
465.50	42560.30
465.69	42454.98
465.87	41715.37
466.05	40542.76
466.23	39079.92
466.41	38803.74
466.60	39447.39
466.78	39426.32
466.96	39777.40
467.14	40493.61
467.32	41228.54
467.51	41317.48
467.69	39629.95
467.87	40414.03
468.05	41177.04
468.23	41092.79
468.41	40938.31
468.60	40992.14
468.78	41659.20
468.96	40634.04
469.14	41605.36
469.32	41663.88
469.50	40528.72
469.69	40465.52
469.87	39786.77
470.05	39428.66
470.23	39639.31
470.41	39793.79
470.59	40966.40
470.77	40582.55
470.95	41446.21
471.14	42136.66
471.32	41640.47
471.50	44472.52
471.68	44142.50
471.86	44713.59
472.04	44968.71
472.22	44931.26
472.40	42639.88
472.58	42476.04
472.77	42373.06
472.95	43255.44
473.13	44177.61
473.31	42780.31
473.49	43276.51
473.67	43697.80
473.85	43744.61
474.03	44964.03
474.21	45158.30
474.39	45345.54
474.57	45649.81
474.75	45858.12
474.93	45357.24
475.12	44280.60
475.30	44900.84
475.48	44706.57
475.66	45340.86
475.84	44552.10
476.02	44266.55
476.20	43454.39
476.38	44760.40
476.56	45553.85
476.74	46211.54
476.92	46876.25
477.10	46958.17
477.28	48545.05
477.46	48233.76
477.64	48975.71
477.82	48645.69
478.00	48636.33
478.18	48311.00
478.36	48458.45
478.54	48072.26
478.72	48486.54
478.90	49375.94
479.08	50452.59
479.26	50806.01
479.44	50775.58
479.62	50211.51
479.80	50539.19
479.98	50684.30
480.16	51100.92
480.34	50728.77
480.52	51124.32
480.70	50960.48
480.88	51033.04
481.06	51721.16
481.24	52243.10
481.41	52598.86
481.59	53216.76
481.77	52987.39
481.95	52465.45
482.13	52086.28
482.31	52420.98
482.49	53169.95
482.67	52774.40
482.85	53034.20
483.03	53198.04
483.21	53794.87
483.39	53703.59
483.57	53195.70
483.74	52926.53
483.92	53560.82
484.10	53305.70
484.28	54031.27
484.46	54438.52
484.64	54698.32
484.82	54115.53
485.00	53605.29
485.18	53130.16
485.35	51908.40
485.53	49329.13
485.71	45694.28
485.89	44891.48
486.07	46927.74
486.25	50202.15
486.43	52451.41
486.61	52886.74
486.78	52947.60
486.96	52982.71
487.14	54494.69
487.32	54894.92
487.50	55674.32
487.68	56308.61
487.85	56807.14
488.03	56718.20
488.21	56336.69
488.39	55716.45
488.57	55428.57
488.75	55033.02
488.92	55849.86
489.10	57485.90
489.28	58834.05
489.46	59084.48
489.64	59009.59
489.81	59299.81
489.99	58859.79
490.17	59002.56
490.35	59334.92
490.53	58834.05
490.70	58546.16
490.88	58497.01
491.06	59243.64
491.24	59304.49
491.41	58342.53
491.59	57228.44
491.77	56589.47
491.95	57436.75
492.13	58347.21
492.30	59374.71
492.48	60046.44
492.66	60486.46
492.84	60505.19
493.01	60395.18
493.19	59763.24
493.37	59395.77
493.54	59180.45
493.72	59903.67
493.90	60711.16
494.08	61209.69
494.25	61549.07
494.43	61656.73
494.61	61916.53
494.79	62042.92
494.96	61982.07
495.14	61373.53
495.32	60701.79
495.49	59955.16
495.67	60823.50
495.85	61949.30
496.02	62440.81
496.20	62386.98
496.38	61818.23
496.55	61799.50
496.73	62349.53
496.91	62501.67
497.09	62920.62
497.26	62892.54
497.44	62646.78
497.62	62321.44
497.79	61343.10
497.97	60472.42
498.14	60502.85
498.32	61593.54
498.50	62209.10
498.67	62873.81
498.85	62599.97
499.03	62749.76
499.20	63140.63
499.38	62836.36
499.56	62798.91
499.73	62454.86
499.91	62241.87
500.08	61654.39
500.26	61057.56
500.44	61666.09
500.61	62143.56
500.79	61752.69
500.97	61450.77
501.14	61385.23
501.32	61343.10
501.49	61427.36
501.67	61418.00
501.84	61879.08
502.02	62314.42
502.20	62475.92
502.37	62602.31
502.55	62606.99
502.72	62955.73
502.90	63587.67
503.07	63362.98
503.25	62817.64
503.43	62113.14
503.60	61588.86
503.78	61270.54
503.95	61525.66
504.13	62599.97
504.30	63393.41
504.48	63292.77
504.65	63000.20
504.83	62951.05
505.01	63377.03
505.18	63812.37
505.36	64228.98
505.53	64526.23
505.71	64533.25
505.88	64521.55
506.06	64130.68
506.23	63835.77
506.41	63538.52
506.58	63566.61
506.76	63533.84
506.93	63697.68
507.11	63339.58
507.28	63667.25
507.46	63039.99
507.63	62714.65
507.81	62265.27
507.98	62609.33
508.16	63185.10
508.33	63660.23
508.50	63978.54
508.68	64287.49
508.85	64739.22
509.03	64673.68
509.20	64605.81
509.38	64001.95
509.55	63278.72
509.73	63372.34
509.90	63758.53
510.08	64179.83
510.25	63824.07
510.42	63877.90
510.60	63669.59
510.77	63964.50
510.95	64460.69
511.12	64671.34
511.30	64771.99
511.47	65057.53
511.64	65087.96
511.82	64844.54
511.99	64062.80
512.17	63674.27
512.34	63444.90
512.51	63639.17
512.69	63470.65
512.86	63667.25
513.04	64147.06
513.21	63945.78
513.38	63767.90
513.56	63344.26
513.73	62862.11
513.90	63072.76
514.08	62979.14
514.25	63489.37
514.43	63505.76
514.60	63611.08
514.77	63676.61
514.95	63959.82
515.12	63721.08
515.29	63910.67
515.47	64404.52
515.64	64528.57
515.81	64236.00
515.99	63707.04
516.16	62611.67
516.33	60458.38
516.51	59367.69
516.68	58616.38
516.85	58499.35
517.03	58637.44
517.20	60954.57
517.37	63007.22
517.54	63884.92
517.72	63568.95
517.89	61553.75
518.06	59187.47
518.24	59253.00
518.41	61361.82
518.58	62576.56
518.75	62691.25
518.93	63051.69
519.10	62911.26
519.27	63468.31
519.45	63636.83
519.62	64144.72
519.79	64313.24
519.96	64334.31
520.14	63915.35
520.31	63051.69
520.48	63147.65
520.65	63419.16
520.83	64123.66
521.00	64505.16
521.17	64198.55
521.34	63821.73
521.52	64198.55
521.69	64521.55
521.86	65062.21
522.03	64683.04
522.20	63613.42
522.38	62691.25
522.55	62614.01
522.72	63271.70
522.89	63496.39
523.07	63477.67
523.24	63788.96
523.41	64556.66
523.58	64800.07
523.75	65162.85
523.92	65291.58
524.10	65207.32
524.27	65078.60
524.44	65066.89
524.61	64713.47
524.78	64624.53
524.96	64411.54
525.13	64460.69
525.30	64830.50
525.47	65235.41
525.64	65057.53
525.81	64467.72
525.98	63299.79
526.16	62195.06
526.33	61331.40
526.50	61085.64
526.67	60748.60
526.84	61347.78
527.01	62209.10
527.18	62937.01
527.36	63510.44
527.53	64381.12
527.70	64720.49
527.87	64275.79
528.04	63702.36
528.21	64320.26
528.38	64849.22
528.55	65176.90
528.72	65535.00
528.89	65535.00
529.07	65441.38
529.24	65020.08
529.41	64294.52
529.58	63620.44
529.75	63880.24
529.92	64331.96
530.09	64767.30
530.26	65165.20
530.43	65305.63
530.60	65361.80
530.77	65347.76
530.94	65535.00
531.11	65307.97
531.28	64963.91
531.46	64732.20
531.63	64900.71
531.80	64867.95
531.97	64388.14
532.14	63681.30
532.31	62932.32
532.48	62288.68
532.65	62204.42
532.82	62901.90
532.99	64039.40
533.16	64362.39
533.33	64917.10
533.50	64601.13
533.67	63980.88
533.84	63744.49
534.01	63814.71
534.18	64151.74
534.35	64338.99
534.52	64292.18
534.69	64474.74
534.86	64678.36
535.03	64917.10
535.20	65125.41
535.37	65535.00
535.54	65535.00
535.71	65399.25
535.88	65111.36
536.05	64416.22
536.22	64299.20
536.38	63983.22
536.55	63582.99
536.72	62801.25
536.89	62939.35
537.06	63674.27
537.23	64434.95
537.40	64540.27
537.57	64643.26
537.74	64383.46
537.91	64395.16
538.08	64392.82
538.25	64268.77
538.42	64486.44
538.59	64402.18
538.75	63786.62
538.92	63543.20
539.09	63545.54
539.26	63154.68
539.43	63119.57
539.60	63245.96
539.77	63606.40
539.94	63470.65
540.11	62719.34
540.28	62045.26
540.44	62251.23
540.61	62419.75
540.78	62649.12
540.95	63021.26
541.12	63529.16
541.29	63573.63
541.46	63877.90
541.62	63957.48
541.79	63875.56
541.96	63316.17
542.13	63154.68
542.30	63260.00
542.47	63711.72
542.63	63358.30
542.80	63304.47
542.97	63255.32
543.14	63295.11
543.31	63297.45
543.48	63765.56
543.64	64587.08
543.81	64619.85
543.98	64495.80
544.15	64048.76
544.32	63367.66
544.48	63409.79
544.65	63859.18
544.82	64149.40
544.99	63959.82
545.16	63590.01
545.32	63229.57
545.49	63772.58
545.66	64299.20
545.83	64032.38
546.00	63868.54
546.16	63360.64
546.33	63540.86
546.50	63412.13
546.67	64046.42
546.83	63440.22
547.00	63601.72
547.17	63021.26
547.34	62604.65
547.50	62433.79
547.67	62801.25
547.84	62965.09
548.00	63220.21
548.17	63716.40
548.34	63480.01
548.51	63568.95
548.67	63707.04
548.84	63777.26
549.01	63564.27
549.18	63447.24
549.34	63531.50
549.51	63405.11
549.68	63348.94
549.84	63168.72
550.01	63164.04
550.18	62796.57
550.34	63009.56
550.51	63100.84
550.68	63213.19
550.84	62848.06
551.01	62728.70
551.18	62787.21
551.34	62955.73
551.51	63386.39
551.68	63496.39
551.84	63730.45
552.01	63482.35
552.18	63365.32
552.34	62567.20
552.51	62227.82
552.68	62159.95
552.84	62794.23
553.01	62850.41
553.18	62848.06
553.34	62801.25
553.51	63009.56
553.67	63138.29
553.84	63398.09
554.01	63173.40
554.17	63117.23
554.34	63196.80
554.51	63105.52
554.67	63409.79
554.84	63297.45
555.00	63007.22
555.17	62841.04
555.33	62915.94
555.50	62932.32
555.67	62988.50
555.83	62777.85
556.00	62592.95
556.16	62262.93
556.33	62040.58
556.50	62197.40
556.66	62021.86
556.83	61778.44
556.99	61860.36
557.16	62040.58
557.32	62323.78
557.49	62396.34
557.65	62475.92
557.82	62445.49
557.98	62391.66
558.15	62061.64
558.32	61169.90
558.48	60423.27
558.65	60638.60
558.81	61001.38
558.98	61137.13
559.14	61364.17
559.31	61324.38
559.47	61453.11
559.64	61022.45
559.80	60970.96
559.97	60985.00
560.13	61429.70
560.30	61883.76
560.46	62569.54
560.63	62770.83
560.79	62728.70
560.96	62274.63
561.12	61403.95
561.29	60516.89
561.45	60519.23
561.61	61387.57
561.78	61759.72
561.94	61579.49
562.11	61439.06
562.27	61305.65
562.44	61371.19
562.60	61989.09
562.77	61902.49
562.93	61829.93
563.10	61851.00
563.26	61258.84
563.42	61350.12
563.59	61169.90
563.75	61010.74
563.92	61315.01
564.08	61123.09
564.24	61429.70
564.41	61418.00
564.57	61413.32
564.74	61160.54
564.90	61036.49
565.07	60935.85
565.23	60603.49
565.39	60287.52
565.56	59884.95
565.72	59772.60
565.88	60245.39
566.05	60245.39
566.21	60603.49
566.38	60598.81
566.54	60809.46
566.70	60849.25
566.87	61169.90
567.03	61118.41
567.19	61282.25
567.36	60980.32
567.52	61024.79
567.68	60851.59
567.85	60205.60
568.01	59924.74
568.17	59686.00
568.34	59653.23
568.50	59510.46
568.66	59571.32
568.83	60044.10
568.99	60060.49
569.15	60243.05
569.32	60254.75
569.48	60161.13
569.64	60020.70
569.81	59480.03
569.97	59351.30
570.13	59629.83
570.30	59016.61
570.46	58726.38
570.62	58312.11
570.78	58213.80
570.95	58426.79
571.11	58939.37
571.27	59304.49
571.43	59454.29
571.60	59723.45
571.76	59833.46
571.92	59997.29
572.09	60102.62
572.25	60168.15
572.41	60072.19
572.57	60039.42
572.74	59859.20
572.90	59599.40
573.06	59531.53
573.22	59767.92
573.38	59636.85
573.55	59646.21
573.71	59688.34
573.87	59791.33
574.03	59671.96
574.20	59430.88
574.36	59309.18
574.52	59278.75
574.68	59007.25
574.84	58824.68
575.01	58335.51
575.17	58328.49
575.33	58492.33
575.49	58658.51
575.65	58742.77
575.82	58780.21
575.98	58431.47
576.14	58850.43
576.30	58794.26
576.46	59079.80
576.62	58866.81
576.79	58990.86
576.95	58501.69
577.11	58433.81
577.27	58707.66
577.43	58805.96
577.59	58417.43
577.75	58010.18
577.92	57633.35
578.08	57389.94
578.24	57172.27
578.40	57858.04
578.56	57951.66
578.72	57652.08
578.88	58124.86
579.04	58178.70
579.21	58277.00
579.37	58066.35
579.53	58417.43
579.69	58389.34
579.85	58529.78
580.01	58440.84
580.17	58092.10
580.33	58024.22
580.49	58014.86
580.65	58181.04
580.82	58361.26
580.98	58365.94
581.14	58204.44
581.30	58295.72
581.46	58124.86
581.62	58436.16
581.78	58316.79
581.94	58473.60
582.10	58429.13
582.26	58445.52
582.42	58578.93
582.58	58497.01
582.74	58473.60
582.90	58522.76
583.06	58431.47
583.22	58251.25
583.38	58068.69
583.54	57839.32
583.70	58106.14
583.86	58101.46
584.02	58028.90
584.18	58328.49
584.34	58085.07
584.50	58071.03
584.66	57846.34
584.82	57570.16
584.98	57490.58
585.14	57219.08
