SpectraSuite Data File
++++++++++++++++++++++++++++++++++++
Date: Mon Oct 07 14:54:55 GMT-05:00 2013
User: price-jones
Dark Spectrum Present: No
Reference Spectrum Present: No
Number of Sampled Component Spectra: 1
Spectrometers: USB2+H05261
Integration Time (usec): 10000 (USB2+H05261)
Spectra Averaged: 1 (USB2+H05261)
Boxcar Smoothing: 0 (USB2+H05261)
Correct for Electrical Dark: No (USB2+H05261)
Strobe/Lamp Enabled: No (USB2+H05261)
Correct for Detector Non-linearity: No (USB2+H05261)
Correct for Stray Light: No (USB2+H05261)
Number of Pixels in Processed Spectrum: 2048
>>>>>Begin Processed Spectral Data<<<<<
365.73	0.00
365.92	0.00
366.12	0.00
366.32	0.00
366.52	0.00
366.72	0.00
366.91	0.00
367.11	0.00
367.31	0.00
367.51	0.00
367.70	0.00
367.90	0.00
368.10	0.00
368.30	0.00
368.49	0.00
368.69	0.00
368.89	0.00
369.09	0.00
369.28	0.00
369.48	0.00
369.68	0.00
369.87	0.00
370.07	0.00
370.27	0.00
370.47	0.00
370.66	0.00
370.86	51.49
371.06	189.58
371.25	154.48
371.45	131.07
371.65	170.86
371.84	72.56
372.04	58.51
372.24	93.62
372.44	114.69
372.63	138.09
372.83	126.39
373.03	67.88
373.22	37.45
373.42	98.30
373.62	114.69
373.81	149.79
374.01	243.42
374.21	81.92
374.40	142.77
374.60	131.07
374.79	252.78
374.99	255.12
375.19	306.61
375.38	269.16
375.58	252.78
375.78	175.54
375.97	182.56
376.17	236.39
376.37	227.03
376.56	241.08
376.76	294.91
376.95	325.33
377.15	344.06
377.35	379.17
377.54	383.85
377.74	407.25
377.93	402.57
378.13	367.46
378.33	330.02
378.52	271.50
378.72	301.93
378.91	301.93
379.11	276.18
379.31	299.59
379.50	222.35
379.70	327.68
379.89	308.95
380.09	409.59
380.28	346.40
380.48	386.19
380.68	369.80
380.87	337.04
381.07	278.52
381.26	194.26
381.46	220.01
381.65	224.69
381.85	168.52
382.04	255.12
382.24	280.86
382.43	102.98
382.63	119.37
382.83	187.24
383.02	201.29
383.22	98.30
383.41	77.24
383.61	234.05
383.80	276.18
384.00	264.48
384.19	299.59
384.39	269.16
384.58	344.06
384.78	379.17
384.97	355.76
385.17	271.50
385.36	325.33
385.56	283.20
385.75	280.86
385.95	315.97
386.14	315.97
386.34	407.25
386.53	372.15
386.72	301.93
386.92	355.76
387.11	383.85
387.31	458.74
387.50	423.64
387.70	404.91
387.89	381.51
388.09	299.59
388.28	369.80
388.48	337.04
388.67	440.02
388.86	510.24
389.06	528.96
389.25	552.37
389.45	472.79
389.64	566.41
389.84	545.34
390.03	496.19
390.22	498.53
390.42	566.41
390.61	645.99
390.81	638.97
391.00	613.22
391.19	695.14
391.39	678.76
391.58	664.71
391.78	550.03
391.97	493.85
392.16	447.04
392.36	437.68
392.55	369.80
392.75	166.18
392.94	74.90
393.13	77.24
393.33	163.84
393.52	273.84
393.71	355.76
393.91	512.58
394.10	517.26
394.29	559.39
394.49	629.60
394.68	763.01
394.88	753.65
395.07	805.14
395.26	823.87
395.46	800.46
395.65	678.76
395.84	524.28
396.04	414.27
396.23	411.93
396.42	238.73
396.62	210.65
396.81	217.67
397.00	458.74
397.19	624.92
397.39	746.63
397.58	791.10
397.77	896.43
397.97	917.49
398.16	901.11
398.35	1102.39
398.55	990.05
398.74	1013.45
398.93	1090.69
399.12	1093.03
399.32	1067.28
399.51	1100.05
399.70	1111.75
399.90	1144.52
400.09	1198.35
400.28	1205.38
400.47	1242.82
400.67	1196.01
400.86	1254.53
401.05	1275.59
401.24	1329.42
401.44	1329.42
401.63	1308.36
401.82	1310.70
402.01	1380.92
402.21	1324.74
402.40	1313.04
402.59	1287.29
402.78	1167.93
402.97	1160.91
403.17	1221.76
403.36	1301.34
403.55	1366.87
403.74	1345.81
403.93	1221.76
404.13	1193.67
404.32	1172.61
404.51	1357.51
404.70	1341.13
404.89	1359.85
405.09	1355.17
405.28	1259.21
405.47	1320.06
405.66	1266.23
405.85	1142.18
406.05	1221.76
406.24	1198.35
406.43	1268.57
406.62	1217.08
406.81	1476.88
407.00	1266.23
407.20	1275.59
407.39	1219.42
407.58	1303.68
407.77	1380.92
407.96	1427.73
408.15	1394.96
408.34	1411.34
408.54	1544.75
408.73	1448.79
408.92	1633.69
409.11	1479.22
409.30	1448.79
409.49	1228.78
409.68	1270.91
409.87	1186.65
410.07	1231.12
410.26	1416.02
410.45	1352.83
410.64	1481.56
410.83	1486.24
411.02	1474.54
411.21	1561.14
411.40	1577.52
411.59	1629.01
411.78	1514.33
411.98	1640.72
412.17	1652.42
412.36	1584.54
412.55	1521.35
412.74	1551.78
412.93	1624.33
413.12	1523.69
413.31	1565.82
413.50	1633.69
413.69	1652.42
413.88	1647.74
414.07	1598.59
414.26	1605.61
414.45	1678.16
414.64	1664.12
414.83	1781.15
415.02	1600.93
415.22	1619.65
415.41	1732.00
415.60	1884.13
415.79	1769.44
415.98	1724.97
416.17	1881.79
416.36	1865.41
416.55	1930.94
416.74	1762.42
416.93	1647.74
417.12	1584.54
417.31	1647.74
417.50	1741.36
417.69	1750.72
417.88	1778.81
418.07	1788.17
418.26	1720.29
418.45	1832.64
418.64	1818.60
418.83	1952.01
419.02	1827.96
419.21	1858.39
419.39	1771.79
419.58	1659.44
419.77	1675.82
419.96	1722.63
420.15	1823.28
420.34	1858.39
420.53	1858.39
420.72	2106.48
420.91	2036.27
421.10	1898.17
421.29	1947.33
421.48	1888.81
421.67	1935.62
421.86	1837.32
422.05	1811.57
422.24	1528.37
422.43	1591.56
422.61	1851.36
422.80	1870.09
422.99	1905.20
423.18	1771.79
423.37	1739.02
423.56	1710.93
423.75	1760.08
423.94	1816.26
424.13	1708.59
424.32	1696.89
424.50	1781.15
424.69	1834.98
424.88	1743.70
425.07	1617.31
425.26	1668.80
425.45	1813.92
425.64	1788.17
425.83	1750.72
426.01	1671.14
426.20	1853.70
426.39	1842.00
426.58	1743.70
426.77	1551.78
426.96	1591.56
427.15	1486.24
427.33	1717.95
427.52	1762.42
427.71	1856.04
427.90	1753.06
428.09	1724.97
428.28	1678.16
428.46	1636.03
428.65	1596.25
428.84	1607.95
429.03	1774.13
429.22	1654.76
429.40	1568.16
429.59	1275.59
429.78	1165.59
429.97	1107.07
430.16	1142.18
430.34	1207.72
430.53	1252.19
430.72	1156.22
430.91	1369.21
431.10	1570.50
431.28	2029.24
431.47	2092.44
431.66	2146.27
431.85	1994.14
432.03	1753.06
432.22	1678.16
432.41	1846.68
432.60	1959.03
432.79	1893.49
432.97	2101.80
433.16	1935.62
433.35	1839.66
433.54	1701.57
433.72	1493.26
433.91	1605.61
434.10	1661.78
434.28	1952.01
434.47	1970.73
434.66	2069.03
434.85	1970.73
435.03	1905.20
435.22	1912.22
435.41	2148.61
435.59	2085.42
435.78	2071.37
435.97	2167.34
436.16	2275.00
436.34	2127.55
436.53	2094.78
436.72	2150.95
436.90	2038.61
437.09	1942.64
437.28	1839.66
437.46	2043.29
437.65	1949.67
437.84	2008.18
438.02	1785.83
438.21	1675.82
438.40	1839.66
438.58	1900.52
438.77	2150.95
438.96	2108.82
439.14	2080.74
439.33	2265.64
439.52	2157.97
439.70	2115.84
439.89	2167.34
440.08	2045.63
440.26	2045.63
440.45	2179.04
440.63	2230.53
440.82	2452.88
441.01	2382.67
441.19	2464.58
441.38	2438.84
441.57	2422.45
441.75	2593.31
441.94	2562.89
442.12	2410.75
442.31	2574.59
442.50	2448.20
442.68	2504.37
442.87	2525.44
443.05	2366.28
443.24	2509.05
443.43	2476.29
443.61	2682.25
443.80	2576.93
443.98	2401.39
444.17	2356.92
444.35	2541.82
444.54	2574.59
444.73	2651.83
444.91	2605.02
445.10	2363.94
445.28	2312.45
445.47	2406.07
445.65	2272.66
445.84	2331.17
446.02	2509.05
446.21	2459.90
446.39	2382.67
446.58	2438.84
446.77	2551.18
446.95	2654.17
447.14	2747.79
447.32	2672.89
447.51	2682.25
447.69	2506.71
447.88	2359.26
448.06	2495.01
448.25	2581.61
448.43	2649.49
448.62	2576.93
448.80	2513.74
448.99	2555.86
449.17	2483.31
449.36	2642.46
449.54	2771.19
449.73	2794.60
449.91	2736.09
450.10	2827.37
450.28	2792.26
450.46	2904.60
450.65	2885.88
450.83	2813.32
451.02	2761.83
451.20	2780.56
451.39	2782.90
451.57	2792.26
451.76	2729.06
451.94	2663.53
452.13	2628.42
452.31	2431.82
452.49	2441.18
452.68	2483.31
452.86	2363.94
453.05	2513.74
453.23	2590.97
453.42	2633.10
453.60	2581.61
453.78	2670.55
453.97	2743.11
454.15	2705.66
454.34	2436.50
454.52	2593.31
454.70	2541.82
454.89	2532.46
455.07	2658.85
455.26	2574.59
455.44	2663.53
455.62	2818.00
455.81	2754.81
455.99	2724.38
456.17	2693.96
456.36	2757.15
456.54	2729.06
456.73	2860.13
456.91	2890.56
457.09	2911.63
457.28	2881.20
457.46	2813.32
457.64	2810.98
457.83	2668.21
458.01	2696.30
458.19	2745.45
458.38	2775.88
458.56	3047.38
458.74	2892.90
458.93	2827.37
459.11	2820.35
459.29	2736.09
459.48	2719.70
459.66	2686.94
459.84	2736.09
460.03	2715.02
460.21	2862.48
460.39	2857.79
460.57	2855.45
460.76	2764.17
460.94	2993.55
461.12	2965.46
461.31	2841.41
461.49	2848.43
461.67	2937.37
461.85	3038.02
462.04	2925.67
462.22	2993.55
462.40	3087.17
462.59	2916.31
462.77	2904.60
462.95	2841.41
463.13	2906.95
463.32	2920.99
463.50	2853.11
463.68	2778.22
463.86	2820.35
464.05	2771.19
464.23	2708.00
464.41	2775.88
464.59	2743.11
464.78	2813.32
464.96	2888.22
465.14	2759.49
465.32	2841.41
465.50	2942.05
465.69	3026.31
465.87	2916.31
466.05	2850.77
466.23	2825.03
466.41	2537.14
466.60	2654.17
466.78	2642.46
466.96	2782.90
467.14	2745.45
467.32	2963.12
467.51	2719.70
467.69	2684.59
467.87	2834.39
468.05	2757.15
468.23	2803.96
468.41	2836.73
468.60	2923.33
468.78	2785.24
468.96	2841.41
469.14	2832.05
469.32	2944.39
469.50	2780.56
469.69	2820.35
469.87	2722.04
470.05	2712.68
470.23	2647.15
470.41	2740.77
470.59	2766.51
470.77	2731.41
470.95	2822.69
471.14	2846.09
471.32	2881.20
471.50	3045.04
471.68	2956.10
471.86	3066.10
472.04	3026.31
472.22	3105.89
472.40	2923.33
472.58	2888.22
472.77	2878.86
472.95	2923.33
473.13	2937.37
473.31	2860.13
473.49	3028.65
473.67	2946.73
473.85	2993.55
474.03	3211.22
474.21	3066.10
474.39	3096.53
474.57	3162.06
474.75	3243.98
474.93	3220.58
475.12	3145.68
475.30	3084.83
475.48	3105.89
475.66	3131.64
475.84	3059.08
476.02	3061.42
476.20	3005.25
476.38	3112.91
476.56	3190.15
476.74	3201.85
476.92	3253.34
477.10	3300.16
477.28	3391.44
477.46	3503.78
477.64	3356.33
477.82	3461.65
478.00	3424.20
478.18	3353.99
478.36	3293.13
478.54	3316.54
478.72	3311.86
478.90	3494.42
479.08	3557.61
479.26	3531.87
479.44	3648.90
479.62	3506.12
479.80	3517.83
479.98	3548.25
480.16	3618.47
480.34	3471.01
480.52	3576.34
480.70	3508.46
480.88	3655.92
481.06	3660.60
481.24	3801.03
481.41	3777.62
481.59	3786.99
481.77	3761.24
481.95	3716.77
482.13	3742.52
482.31	3810.39
482.49	3925.08
482.67	3721.45
482.85	3852.52
483.03	3985.93
483.21	3817.41
483.39	3971.89
483.57	3971.89
483.74	3817.41
483.92	3850.18
484.10	3815.07
484.28	4004.66
484.46	4051.47
484.64	3990.61
484.82	3999.98
485.00	3946.14
485.18	3868.91
485.35	3590.38
485.53	3363.35
485.71	3187.81
485.89	2958.44
486.07	3304.84
486.25	3583.36
486.43	3810.39
486.61	3815.07
486.78	3756.56
486.96	3705.07
487.14	4086.58
487.32	4135.73
487.50	4304.25
487.68	4341.69
487.85	4430.63
488.03	4315.95
488.21	4285.52
488.39	4315.95
488.57	4117.00
488.75	3967.21
488.92	4231.69
489.10	4437.66
489.28	4578.09
489.46	4938.53
489.64	4692.77
489.81	4823.84
489.99	4671.71
490.17	4765.33
490.35	4772.35
490.53	4704.48
490.70	4615.54
490.88	4741.93
491.06	4676.39
491.24	4849.59
491.41	4641.28
491.59	4407.23
491.77	4306.59
491.95	4325.31
492.13	4657.67
492.30	4781.71
492.48	4997.04
492.66	4931.51
492.84	5055.56
493.01	4929.17
493.19	5050.88
493.37	4702.14
493.54	4858.95
493.72	4865.97
493.90	5158.54
494.08	5291.95
494.25	5317.70
494.43	5200.67
494.61	5467.49
494.79	5355.15
494.96	5376.21
495.14	5387.91
495.32	5048.54
495.49	4915.12
495.67	5076.62
495.85	5247.48
496.02	5453.45
496.20	5352.81
496.38	5308.34
496.55	5303.65
496.73	5282.59
496.91	5345.78
497.09	5572.82
497.26	5579.84
497.44	5366.85
497.62	5434.72
497.79	5121.09
497.97	5020.45
498.14	5062.58
498.32	5214.71
498.50	5322.38
498.67	5511.96
498.85	5511.96
499.03	5526.00
499.20	5645.37
499.38	5521.32
499.56	5458.13
499.73	5369.19
499.91	5322.38
500.08	5062.58
500.26	5144.50
500.44	5137.48
500.61	5214.71
500.79	5280.25
500.97	5109.39
501.14	5203.01
501.32	5076.62
501.49	5123.43
501.67	5132.79
501.84	5188.97
502.02	5341.10
502.20	5469.83
502.37	5523.66
502.55	5308.34
502.72	5666.44
502.90	5767.08
503.07	5652.39
503.25	5404.30
503.43	5331.74
503.60	5256.84
503.78	5191.31
503.95	5167.90
504.13	5394.93
504.30	5589.20
504.48	5603.24
504.65	5533.03
504.83	5495.58
505.01	5556.43
505.18	5596.22
505.36	5776.44
505.53	5916.87
505.71	5884.11
505.88	6038.58
506.06	5881.77
506.23	5720.27
506.41	5598.56
506.58	5654.73
506.76	5701.54
506.93	5621.97
507.11	5593.88
507.28	5568.13
507.46	5481.53
507.63	5430.04
507.81	5385.57
507.98	5362.17
508.16	5497.92
508.33	5617.29
508.50	5806.87
508.68	5891.13
508.85	5912.19
509.03	6005.81
509.20	5774.10
509.38	5668.78
509.55	5565.79
509.73	5514.30
509.90	5584.52
510.08	5628.99
510.25	5757.72
510.42	5753.04
510.60	5682.82
510.77	5708.57
510.95	5930.92
511.12	5790.49
511.30	5926.24
511.47	5994.11
511.64	5930.92
511.82	5804.53
511.99	5694.52
512.17	5668.78
512.34	5479.19
512.51	5430.04
512.69	5785.80
512.86	5483.88
513.04	5818.57
513.21	5729.63
513.38	5678.14
513.56	5603.24
513.73	5305.99
513.90	5488.56
514.08	5542.39
514.25	5511.96
514.43	5570.48
514.60	5638.35
514.77	5713.25
514.95	5493.24
515.12	5565.79
515.29	5628.99
515.47	5708.57
515.64	5781.12
515.81	5867.72
515.99	5483.88
516.16	5252.16
516.33	4954.91
516.51	4645.96
516.68	4428.29
516.85	4491.49
517.03	4475.10
517.20	5036.83
517.37	5200.67
517.54	5413.66
517.72	5514.30
517.89	5008.75
518.06	4568.73
518.24	4636.60
518.41	5067.26
518.58	5324.72
518.75	5430.04
518.93	5341.10
519.10	5305.99
519.27	5320.04
519.45	5462.81
519.62	5699.20
519.79	5598.56
519.96	5682.82
520.14	5703.89
520.31	5341.10
520.48	5343.44
520.65	5460.47
520.83	5455.79
521.00	5607.92
521.17	5804.53
521.34	5565.79
521.52	5565.79
521.69	5738.99
521.86	5872.40
522.03	5643.03
522.20	5535.37
522.38	5451.11
522.55	5376.21
522.72	5401.96
522.89	5472.17
523.07	5533.03
523.24	5540.05
523.41	5827.93
523.58	5849.00
523.75	5991.77
523.92	5928.58
524.10	5818.57
524.27	6083.05
524.44	5802.19
524.61	5696.86
524.78	5832.62
524.96	5706.23
525.13	5621.97
525.30	5846.66
525.47	5781.12
525.64	5893.47
525.81	5757.72
525.98	5481.53
526.16	5055.56
526.33	4856.61
526.50	5060.24
526.67	4875.34
526.84	5076.62
527.01	5219.39
527.18	5193.65
527.36	5460.47
527.53	5640.69
527.70	5706.23
527.87	5556.43
528.04	5657.07
528.21	5636.01
528.38	5720.27
528.55	5823.25
528.72	6094.76
528.89	6216.46
529.07	5970.71
529.24	5797.51
529.41	5453.45
529.58	5458.13
529.75	5472.17
529.92	5699.20
530.09	5839.64
530.26	5930.92
530.43	5928.58
530.60	5722.61
530.77	5916.87
530.94	5778.78
531.11	5851.34
531.28	5841.98
531.46	5741.33
531.63	5607.92
531.80	5696.86
531.97	5664.10
532.14	5514.30
532.31	5334.08
532.48	5130.45
532.65	5135.14
532.82	5252.16
532.99	5516.64
533.16	5535.37
533.33	5823.25
533.50	5586.86
533.67	5486.22
533.84	5493.24
534.01	5577.50
534.18	5638.35
534.35	5605.58
534.52	5554.09
534.69	5430.04
534.86	5575.16
535.03	5591.54
535.20	5774.10
535.37	5795.17
535.54	5928.58
535.71	5902.83
535.88	5703.89
536.05	5682.82
536.22	5514.30
536.38	5324.72
536.55	5362.17
536.72	5331.74
536.89	5123.43
537.06	5291.95
537.23	5680.48
537.40	5565.79
537.57	5617.29
537.74	5511.96
537.91	5607.92
538.08	5387.91
538.25	5575.16
538.42	5802.19
538.59	5516.64
538.75	5387.91
538.92	5305.99
539.09	5291.95
539.26	5280.25
539.43	5214.71
539.60	5268.55
539.77	5273.23
539.94	5284.93
540.11	5111.73
540.28	5036.83
540.44	5231.10
540.61	5053.22
540.78	5144.50
540.95	5231.10
541.12	5303.65
541.29	5437.06
541.46	5502.60
541.62	5600.90
541.79	5526.00
541.96	5294.29
542.13	5315.36
542.30	5256.84
542.47	5394.93
542.63	5191.31
542.80	5121.09
542.97	5380.89
543.14	5231.10
543.31	5270.89
543.48	5439.40
543.64	5526.00
543.81	5617.29
543.98	5488.56
544.15	5467.49
544.32	5364.51
544.48	5355.15
544.65	5444.09
544.82	5488.56
544.99	5310.68
545.16	5303.65
545.32	5277.91
545.49	5537.71
545.66	5528.35
545.83	5614.95
546.00	5500.26
546.16	5135.14
546.33	5207.69
546.50	5242.80
546.67	5385.57
546.83	5352.81
547.00	5355.15
547.17	5153.86
547.34	5041.51
547.50	5151.52
547.67	5210.03
547.84	5107.05
548.00	5078.96
548.17	5481.53
548.34	5284.93
548.51	5280.25
548.67	5217.05
548.84	5259.18
549.01	5336.42
549.18	5373.87
549.34	5357.49
549.51	5228.76
549.68	5322.38
549.84	5247.48
550.01	5270.89
550.18	5158.54
550.34	5114.07
550.51	5186.63
550.68	5315.36
550.84	5025.13
551.01	5121.09
551.18	5228.76
551.34	5228.76
551.51	5320.04
551.68	5338.76
551.84	5336.42
552.01	5408.98
552.18	5174.92
552.34	5203.01
552.51	5097.69
552.68	4936.19
552.84	5123.43
553.01	5114.07
553.18	5057.90
553.34	5275.57
553.51	5198.33
553.67	5128.11
553.84	5149.18
554.01	5186.63
554.17	5268.55
554.34	5142.16
554.51	5329.40
554.67	5331.74
554.84	5203.01
555.00	5313.02
555.17	5165.56
555.33	5188.97
555.50	4990.02
555.67	5205.35
555.83	5043.85
556.00	4943.21
556.16	5020.45
556.33	4837.89
556.50	4994.70
556.66	4959.60
556.83	4758.31
556.99	4987.68
557.16	4992.36
557.32	4826.18
557.49	4901.08
557.65	4975.98
557.82	4975.98
557.98	5132.79
558.15	4777.03
558.32	4652.98
558.48	4620.22
558.65	4526.60
558.81	4667.03
558.98	4603.83
559.14	4692.77
559.31	4650.64
559.47	4856.61
559.64	4629.58
559.80	4638.94
559.97	4620.22
560.13	4788.74
560.30	4905.76
560.46	4880.02
560.63	5062.58
560.79	4945.55
560.96	4884.70
561.12	4830.87
561.29	4676.39
561.45	4641.28
561.61	4788.74
561.78	4823.84
561.94	4571.07
562.11	4645.96
562.27	4877.68
562.44	4636.60
562.60	4741.93
562.77	4903.42
562.93	4753.63
563.10	4816.82
563.26	4751.29
563.42	4730.22
563.59	4718.52
563.75	4706.82
563.92	4690.43
564.08	4709.16
564.24	4709.16
564.41	4629.58
564.57	4660.01
564.74	4645.96
564.90	4566.39
565.07	4601.49
565.23	4601.49
565.39	4477.44
565.56	4557.02
565.72	4486.81
565.88	4477.44
566.05	4521.92
566.21	4554.68
566.38	4535.96
566.54	4482.13
566.70	4650.64
566.87	4741.93
567.03	4627.24
567.19	4706.82
567.36	4603.83
567.52	4545.32
567.68	4519.57
567.85	4404.89
568.01	4327.65
568.17	4348.72
568.34	4397.87
568.50	4341.69
568.66	4437.66
568.83	4351.06
568.99	4393.19
569.15	4484.47
569.32	4542.98
569.48	4411.91
569.64	4505.53
569.81	4337.01
569.97	4327.65
570.13	4271.48
570.30	4119.34
570.46	4234.03
570.62	4159.13
570.78	4126.36
570.95	4126.36
571.11	4285.52
571.27	4454.04
571.43	4341.69
571.60	4308.93
571.76	4390.84
571.92	4379.14
572.09	4542.98
572.25	4451.70
572.41	4362.76
572.57	4400.21
572.74	4425.95
572.90	4337.01
573.06	4339.35
573.22	4440.00
573.38	4461.06
573.55	4280.84
573.71	4425.95
573.87	4308.93
574.03	4393.19
574.20	4332.33
574.36	4203.60
574.52	4191.90
574.68	4283.18
574.84	4194.24
575.01	4093.60
575.17	3943.80
575.33	4028.06
575.49	4161.47
575.65	4308.93
575.82	4156.79
575.98	4032.74
576.14	4250.41
576.30	4231.69
576.46	4133.39
576.62	4203.60
576.79	4208.28
576.95	4189.56
577.11	4095.94
577.27	4021.04
577.43	4114.66
577.59	4056.15
577.75	4018.70
577.92	3985.93
578.08	4053.81
578.24	3866.56
578.40	4002.32
578.56	4070.19
578.72	3971.89
578.88	3985.93
579.04	4086.58
579.21	4184.88
579.37	4002.32
579.53	4177.86
579.69	3983.59
579.85	4236.37
580.01	4124.02
580.17	3929.76
580.33	3889.97
580.49	4095.94
580.65	3953.16
580.82	4098.28
580.98	3906.35
581.14	3978.91
581.30	4018.70
581.46	4016.36
581.62	4016.36
581.78	4018.70
581.94	4070.19
582.10	4114.66
582.26	4049.13
582.42	4126.36
582.58	4100.62
582.74	3969.55
582.90	4105.30
583.06	4154.45
583.22	4138.07
583.38	4170.83
583.54	3925.08
583.70	3946.14
583.86	4018.70
584.02	4065.51
584.18	4114.66
584.34	4112.32
584.50	4030.40
584.66	4016.36
584.82	3939.12
584.98	3999.98
585.14	3803.37
585.30	3742.52
585.46	3707.41
585.62	3578.68
585.78	3651.24
585.94	3845.50
586.10	3808.05
586.26	3765.92
586.42	3805.71
586.58	3920.40
586.74	3899.33
586.90	3815.07
587.06	3904.01
587.22	3775.28
587.38	3756.56
587.54	3749.54
587.70	3648.90
587.86	3777.62
588.02	3667.62
588.18	3576.34
588.34	3691.02
588.49	3236.96
588.65	3052.06
588.81	3201.85
588.97	3204.19
589.13	3199.51
589.29	3318.88
589.45	3173.77
589.61	3304.84
589.77	3463.99
589.93	3541.23
590.08	3747.20
590.24	3559.95
590.40	3520.17
590.56	3730.81
590.72	3632.51
590.88	3524.85
591.04	3529.53
591.20	3445.27
591.35	3428.88
591.51	3435.91
591.67	3485.06
591.83	3527.19
591.99	3564.64
592.15	3517.83
592.31	3676.98
592.46	3506.12
592.62	3538.89
592.78	3578.68
592.94	3566.98
593.10	3513.14
593.26	3604.42
593.41	3660.60
593.57	3559.95
593.73	3463.99
593.89	3578.68
594.05	3405.48
594.20	3363.35
594.36	3370.37
594.52	3384.41
594.68	3279.09
594.84	3372.71
594.99	3520.17
595.15	3328.24
595.31	3487.40
595.47	3496.76
595.62	3522.51
595.78	3344.63
595.94	3499.10
596.10	3571.66
596.25	3438.25
596.41	3428.88
596.57	3365.69
596.73	3419.52
596.88	3379.73
597.04	3557.61
597.20	3485.06
597.36	3454.63
597.51	3459.31
597.67	3412.50
597.83	3433.57
597.99	3349.31
598.14	3414.84
