SpectraSuite Data File
++++++++++++++++++++++++++++++++++++
Date: Mon Oct 07 14:54:59 GMT-05:00 2013
User: price-jones
Dark Spectrum Present: No
Reference Spectrum Present: No
Number of Sampled Component Spectra: 1
Spectrometers: USB2+H05261
Integration Time (usec): 10000 (USB2+H05261)
Spectra Averaged: 1 (USB2+H05261)
Boxcar Smoothing: 0 (USB2+H05261)
Correct for Electrical Dark: No (USB2+H05261)
Strobe/Lamp Enabled: No (USB2+H05261)
Correct for Detector Non-linearity: No (USB2+H05261)
Correct for Stray Light: No (USB2+H05261)
Number of Pixels in Processed Spectrum: 2048
>>>>>Begin Processed Spectral Data<<<<<
365.73	0.00
365.92	0.00
366.12	0.00
366.32	0.00
366.52	0.00
366.72	0.00
366.91	0.00
367.11	0.00
367.31	0.00
367.51	0.00
367.70	0.00
367.90	0.00
368.10	0.00
368.30	0.00
368.49	0.00
368.69	0.00
368.89	0.00
369.09	0.00
369.28	0.00
369.48	0.00
369.68	0.00
369.87	0.00
370.07	0.00
370.27	0.00
370.47	0.00
370.66	952.60
370.86	1123.46
371.06	1093.03
371.25	1146.86
371.45	966.64
371.65	877.70
371.84	880.04
372.04	1001.75
372.24	1146.86
372.44	1125.80
372.63	990.05
372.83	954.94
373.03	809.83
373.22	702.16
373.42	809.83
373.62	1004.09
373.81	1083.67
374.01	1057.92
374.21	863.66
374.40	842.59
374.60	938.55
374.79	1093.03
374.99	1364.53
375.19	1345.81
375.38	1378.58
375.58	1242.82
375.78	1296.66
375.97	1203.04
376.17	1315.38
376.37	1369.21
376.56	1387.94
376.76	1437.09
376.95	1551.78
377.15	1722.63
377.35	1706.25
377.54	1933.28
377.74	1834.98
377.93	1916.90
378.13	1696.89
378.33	1680.50
378.52	1502.62
378.72	1549.43
378.91	1413.68
379.11	1331.76
379.31	1289.64
379.50	1364.53
379.70	1540.07
379.89	1755.40
380.09	1748.38
380.28	1760.08
380.48	1760.08
380.68	1715.61
380.87	1717.95
381.07	1446.45
381.26	1378.58
381.46	1329.42
381.65	1261.55
381.85	1329.42
382.04	1116.44
382.24	966.64
382.43	1034.52
382.63	905.79
382.83	999.41
383.02	980.68
383.22	894.08
383.41	1004.09
383.61	1172.61
383.80	1362.19
384.00	1523.69
384.19	1776.47
384.39	1750.72
384.58	1849.02
384.78	1827.96
384.97	1703.91
385.17	1619.65
385.36	1502.62
385.56	1465.18
385.75	1528.37
385.95	1647.74
386.14	1888.81
386.34	1893.49
386.53	1682.85
386.72	1624.33
386.92	1673.48
387.11	1694.55
387.31	1846.68
387.50	1832.64
387.70	1659.44
387.89	1736.68
388.09	1668.80
388.28	1668.80
388.48	1886.47
388.67	1991.80
388.86	2066.69
389.06	2275.00
389.25	2218.83
389.45	2387.35
389.64	2420.11
389.84	2314.79
390.03	2345.22
390.22	2349.90
390.42	2495.01
390.61	2633.10
390.81	2860.13
391.00	2654.17
391.19	2785.24
391.39	2590.97
391.58	2483.31
391.78	2326.49
391.97	2232.87
392.16	1940.30
392.36	1795.19
392.55	1446.45
392.75	1064.94
392.94	894.08
393.13	961.96
393.33	1219.42
393.52	1493.26
393.71	1914.56
393.91	2209.47
394.10	2211.81
394.29	2576.93
394.49	2813.32
394.68	3016.95
394.88	2839.07
395.07	3049.72
395.26	2850.77
395.46	2843.75
395.65	2548.84
395.84	2188.40
396.04	1818.60
396.23	1479.22
396.42	1212.40
396.62	1369.21
396.81	1554.12
397.00	2118.18
397.19	2675.23
397.39	3040.36
397.58	3253.34
397.77	3522.51
397.97	3618.47
398.16	3662.94
398.35	3885.29
398.55	4067.85
398.74	4250.41
398.93	4219.99
399.12	4060.83
399.32	4025.72
399.51	4184.88
399.70	4381.48
399.90	4304.25
400.09	4355.74
400.28	4381.48
400.47	4358.08
400.67	4461.06
400.86	4699.80
401.05	4727.88
401.24	4760.65
401.44	4550.00
401.63	4781.71
401.82	4826.18
402.01	4650.64
402.21	4880.02
402.40	4812.14
402.59	4489.15
402.78	4472.76
402.97	4337.01
403.17	4479.79
403.36	4723.20
403.55	4940.87
403.74	4791.08
403.93	4807.46
404.13	4482.13
404.32	4601.49
404.51	4725.54
404.70	4891.72
404.89	4992.36
405.09	4723.20
405.28	4652.98
405.47	4734.90
405.66	4550.00
405.85	4365.10
406.05	4348.72
406.24	4526.60
406.43	4718.52
406.62	4856.61
406.81	5102.37
407.00	4720.86
407.20	4650.64
407.39	4706.82
407.58	5057.90
407.77	4910.44
407.96	5212.37
408.15	5149.18
408.34	5366.85
408.54	5448.77
408.73	5373.87
408.92	5343.44
409.11	5029.81
409.30	4985.34
409.49	4447.02
409.68	4400.21
409.87	4327.65
410.07	4706.82
410.26	5034.49
410.45	5076.62
410.64	5390.25
410.83	5724.95
411.02	5645.37
411.21	5771.76
411.40	5533.03
411.59	5762.40
411.78	5781.12
411.98	5825.59
412.17	5837.30
412.36	5345.78
412.55	5687.50
412.74	5612.60
412.93	5399.62
413.12	5547.07
413.31	6141.57
413.50	5942.62
413.69	5933.26
413.88	5746.02
414.07	5643.03
414.26	5914.53
414.45	6029.22
414.64	5912.19
414.83	6012.84
415.02	5954.32
415.22	5792.83
415.41	6015.18
415.60	6312.42
415.79	6686.91
415.98	6619.04
416.17	6464.56
416.36	6218.80
416.55	6317.11
416.74	6059.65
416.93	5825.59
417.12	5977.73
417.31	6258.59
417.50	6258.59
417.69	6457.54
417.88	6242.21
418.07	6183.70
418.26	6076.03
418.45	6380.30
418.64	6626.06
418.83	6869.47
419.02	6801.60
419.21	6202.42
419.39	6043.26
419.58	5753.04
419.77	5872.40
419.96	6125.18
420.15	6586.27
420.34	6700.95
420.53	6874.15
420.72	7136.29
420.91	6974.80
421.10	6815.64
421.29	6864.79
421.48	6846.07
421.67	7173.74
421.86	6665.85
422.05	6078.37
422.24	5738.99
422.43	5774.10
422.61	6312.42
422.80	6590.95
422.99	6670.53
423.18	6420.09
423.37	6342.85
423.56	6434.13
423.75	6597.97
423.94	6537.12
424.13	6293.70
424.32	6195.40
424.50	6200.08
424.69	6289.02
424.88	6253.91
425.07	6155.61
425.26	6277.32
425.45	5877.09
425.64	6073.69
425.83	6244.55
426.01	6494.99
426.20	6469.24
426.39	6476.26
426.58	5727.29
426.77	5481.53
426.96	5540.05
427.15	5558.77
427.33	5837.30
427.52	6155.61
427.71	6150.93
427.90	6101.78
428.09	6132.20
428.28	5930.92
428.46	5760.06
428.65	5837.30
428.84	5776.44
429.03	5778.78
429.22	5577.50
429.40	5231.10
429.59	4837.89
429.78	4299.56
429.97	4184.88
430.16	4224.67
430.34	4306.59
430.53	4367.44
430.72	4575.75
430.91	5214.71
431.10	6066.67
431.28	6951.39
431.47	7503.76
431.66	7344.60
431.85	6569.88
432.03	6017.52
432.22	6017.52
432.41	6497.33
432.60	7208.85
432.79	7211.19
432.97	7293.11
433.16	6944.37
433.35	6183.70
433.54	5804.53
433.72	5474.51
433.91	5771.76
434.10	6396.68
434.28	6815.64
434.47	7112.89
434.66	6963.09
434.85	6892.88
435.03	6911.60
435.22	7119.91
435.41	7316.51
435.59	7358.64
435.78	7630.15
435.97	7859.52
436.16	7602.06
436.34	7559.93
436.53	7403.11
436.72	7489.71
436.90	7082.46
437.09	7122.25
437.28	7112.89
437.46	7204.17
437.65	7094.16
437.84	6345.19
438.02	6274.98
438.21	6160.29
438.40	6469.24
438.58	6970.12
438.77	7183.10
438.96	7276.73
439.14	7782.28
439.33	7641.85
439.52	7655.89
439.70	7424.18
439.89	7232.26
440.08	7087.14
440.26	7115.23
440.45	7353.96
440.63	8004.63
440.82	8395.50
441.01	8159.11
441.19	8241.03
441.38	8383.80
441.57	8477.42
441.75	8690.41
441.94	8842.54
442.12	8718.50
442.31	8823.82
442.50	8875.31
442.68	8702.11
442.87	8465.72
443.05	8362.73
443.24	8786.37
443.43	8931.48
443.61	8884.67
443.80	8830.84
443.98	8587.43
444.17	8690.41
444.35	9076.60
444.54	8973.61
444.73	9067.24
444.91	8777.01
445.10	8301.88
445.28	7950.80
445.47	7798.66
445.65	7707.38
445.84	8100.59
446.02	8159.11
446.21	8629.56
446.39	8493.80
446.58	8692.75
446.77	8608.49
446.95	8751.26
447.14	9277.88
447.32	9135.11
447.51	8627.21
447.69	8514.87
447.88	8348.69
448.06	8835.52
448.25	8828.50
448.43	8695.09
448.62	8891.70
448.80	8608.49
448.99	8835.52
449.17	8919.78
449.36	8821.48
449.54	9156.18
449.73	9425.34
449.91	9643.01
450.10	9600.88
450.28	9654.71
450.46	9727.27
450.65	9619.60
450.83	9280.22
451.02	9312.99
451.20	9294.27
451.39	9301.29
451.57	9315.33
451.76	9336.40
451.94	9231.07
452.13	8823.82
452.31	8603.81
452.49	8201.24
452.68	8313.58
452.86	8334.65
453.05	8381.46
453.23	8631.90
453.42	9107.02
453.60	9341.08
453.78	8882.33
453.97	9036.81
454.15	8877.65
454.34	8903.40
454.52	8896.38
454.70	8608.49
454.89	8702.11
455.07	8875.31
455.26	9015.74
455.44	9359.80
455.62	9628.96
455.81	9708.54
455.99	9423.00
456.17	9359.80
456.36	9572.79
456.54	9525.98
456.73	9355.12
456.91	9537.68
457.09	9776.42
457.28	9881.74
457.46	9357.46
457.64	9359.80
457.83	9100.00
458.01	9135.11
458.19	9329.38
458.38	9305.97
458.56	9350.44
458.74	9380.87
458.93	9263.84
459.11	9097.66
459.29	9291.93
459.48	9217.03
459.66	9212.35
459.84	9156.18
460.03	9263.84
460.21	9226.39
460.39	9619.60
460.57	9863.02
460.76	10050.26
460.94	9806.84
461.12	9352.78
461.31	9568.11
461.49	9870.04
461.67	9465.13
461.85	9888.76
462.04	9673.43
462.22	9511.94
462.40	9940.26
462.59	9804.50
462.77	9799.82
462.95	9816.21
463.13	9776.42
463.32	9219.37
463.50	9254.48
463.68	9315.33
463.86	9462.79
464.05	9233.41
464.23	9202.99
464.41	9277.88
464.59	9067.24
464.78	9614.92
464.96	9453.42
465.14	9254.48
465.32	9565.77
465.50	9755.35
465.69	9841.95
465.87	9563.43
466.05	9137.45
466.23	8830.84
466.41	8748.92
466.60	9057.87
466.78	8943.19
466.96	9167.88
467.14	9128.09
467.32	9327.03
467.51	9455.76
467.69	8999.36
467.87	9022.77
468.05	9249.80
468.23	9329.38
468.41	9235.75
468.60	9235.75
468.78	9132.77
468.96	9193.62
469.14	9376.19
469.32	9385.55
469.50	9039.15
469.69	9174.90
469.87	8812.12
470.05	8868.29
470.23	8809.78
470.41	8933.82
470.59	9111.71
470.77	9156.18
470.95	9284.91
471.14	9404.27
471.32	9437.04
471.50	9980.04
471.68	10057.28
471.86	10092.39
472.04	10054.94
472.22	10307.72
472.40	9542.36
472.58	9530.66
472.77	9394.91
472.95	9652.37
473.13	9666.41
473.31	9516.62
473.49	9647.69
473.67	10005.79
473.85	10125.16
474.03	10239.84
474.21	10047.92
474.39	10328.78
474.57	10387.30
474.75	10132.18
474.93	10122.82
475.12	9916.85
475.30	9778.76
475.48	9977.70
475.66	9832.59
475.84	9767.06
476.02	9891.10
476.20	9771.74
476.38	9874.72
476.56	10059.62
476.74	10445.81
476.92	10466.88
477.10	10401.34
477.28	10810.93
477.46	10750.08
477.64	11197.12
477.82	10832.00
478.00	11150.31
478.18	10792.21
478.36	10490.28
478.54	10682.20
478.72	10700.93
478.90	11276.70
479.08	11398.41
479.26	11688.64
479.44	11576.29
479.62	11047.33
479.80	11288.40
479.98	11335.21
480.16	11236.91
480.34	11253.30
480.52	11297.77
480.70	11618.42
480.88	11384.37
481.06	11995.25
481.24	12051.42
481.41	12320.58
481.59	12231.64
481.77	11866.52
481.95	11770.55
482.13	11929.71
482.31	11957.80
482.49	12114.61
482.67	12095.89
482.85	11964.82
483.03	12271.43
483.21	12486.76
483.39	12435.27
483.57	12290.15
483.74	12084.19
483.92	12170.79
484.10	12329.94
484.28	12421.22
484.46	12671.66
484.64	12629.53
484.82	12135.68
485.00	11962.48
485.18	11852.47
485.35	11742.47
485.53	10532.41
485.71	9645.35
485.89	9984.73
486.07	10459.85
486.25	11009.88
486.43	11798.64
486.61	12152.06
486.78	11955.46
486.96	11730.76
487.14	12355.69
487.32	12840.18
487.50	12961.89
487.68	13401.91
487.85	13549.36
488.03	13149.13
488.21	13275.52
488.39	12835.50
488.57	12704.43
488.75	13153.81
488.92	13558.72
489.10	14244.50
489.28	14604.94
489.46	14497.28
489.64	14345.14
489.81	14780.48
489.99	14431.74
490.17	14532.39
490.35	14534.73
490.53	14537.07
490.70	14073.64
490.88	14373.23
491.06	15119.86
491.24	14714.95
491.41	13949.59
491.59	13455.74
491.77	13088.28
491.95	13664.05
492.13	13790.44
492.30	14555.79
492.48	15049.64
492.66	15613.71
492.84	15541.16
493.01	14869.42
493.19	14897.51
493.37	14317.06
493.54	14380.25
493.72	15002.83
493.90	15428.81
494.08	15854.79
494.25	15803.30
494.43	16088.84
494.61	16765.26
494.79	16271.40
494.96	16535.88
495.14	15150.29
495.32	15204.12
495.49	15002.83
495.67	15541.16
495.85	16507.80
496.02	16652.91
496.20	16114.59
496.38	16163.74
496.55	15915.64
496.73	16191.83
496.91	16610.78
497.09	16908.03
497.26	16510.14
497.44	16538.23
497.62	16030.33
497.79	15431.15
497.97	15208.80
498.14	15564.56
498.32	16060.76
498.50	16184.80
498.67	16690.36
498.85	16636.53
499.03	16505.46
499.20	16905.69
499.38	16472.69
499.56	16779.30
499.73	16095.86
499.91	16161.40
500.08	15754.15
500.26	15569.24
500.44	15609.03
500.61	16035.01
500.79	15480.30
500.97	15426.47
501.14	15421.79
501.32	15391.36
501.49	16063.10
501.67	15932.03
501.84	16077.14
502.02	16044.37
502.20	16271.40
502.37	16102.89
502.55	16262.04
502.72	16432.90
502.90	16828.45
503.07	16362.69
503.25	16299.49
503.43	15499.03
503.60	14768.78
503.78	15033.26
503.95	15157.31
504.13	15791.59
504.30	16482.05
504.48	16273.74
504.65	15997.56
504.83	16053.73
505.01	16931.44
505.18	17221.66
505.36	17745.94
505.53	17577.42
505.71	17500.19
505.88	17163.15
506.06	16854.20
506.23	16463.33
506.41	16613.12
506.58	16676.32
506.76	16355.66
506.93	16517.16
507.11	16482.05
507.28	16393.11
507.46	15943.73
507.63	15466.26
507.81	15557.54
507.98	16020.97
508.16	16292.47
508.33	16051.39
508.50	17041.44
508.68	17078.89
508.85	17448.69
509.03	17193.58
509.20	16992.29
509.38	16184.80
509.55	16109.91
509.73	16065.44
509.90	16414.18
510.08	16187.14
510.25	16208.21
510.42	15920.32
510.60	16503.12
510.77	16751.21
510.95	17036.76
511.12	16580.36
511.30	16882.28
511.47	17132.72
511.64	17238.05
511.82	16634.19
511.99	16060.76
512.17	16035.01
512.34	16128.63
512.51	15953.09
512.69	15845.43
512.86	15810.32
513.04	16283.11
513.21	16187.14
513.38	16018.63
513.56	15602.01
513.73	15566.90
513.90	15791.59
514.08	15531.80
514.25	15520.09
514.43	16074.80
514.60	16428.22
514.77	16013.95
514.95	16238.64
515.12	15826.70
515.29	15969.48
515.47	16315.87
515.64	16898.67
515.81	16690.36
515.99	15927.35
516.16	14981.77
516.33	13895.76
516.51	13055.51
516.68	12608.47
516.85	12444.63
517.03	12957.21
517.20	13846.61
517.37	15501.37
517.54	15611.37
517.72	15166.67
517.89	13530.64
518.06	13025.08
518.24	13437.02
518.41	14637.71
518.58	15225.18
518.75	15255.61
518.93	15091.77
519.10	15201.78
519.27	15934.37
519.45	15658.18
519.62	15407.75
519.79	15637.12
519.96	15967.13
520.14	15576.27
520.31	14841.34
520.48	14930.28
520.65	15428.81
520.83	15953.09
521.00	16423.54
521.17	15971.82
521.34	15749.46
521.52	15887.56
521.69	16334.60
521.86	16077.14
522.03	15892.24
522.20	15178.37
522.38	15094.11
522.55	15073.05
522.72	15068.37
522.89	14913.89
523.07	15803.30
523.24	16219.91
523.41	15768.19
523.58	16105.23
523.75	16231.62
523.92	16283.11
524.10	16559.29
524.27	16191.83
524.44	16072.46
524.61	15800.96
524.78	16020.97
524.96	15641.80
525.13	15658.18
525.30	16109.91
525.47	16006.92
525.64	15751.81
525.81	15543.50
525.98	14232.80
526.16	13668.73
526.33	13706.18
526.50	13493.19
526.67	13582.13
526.84	13848.95
527.01	14403.66
527.18	14827.29
527.36	15442.85
527.53	15880.53
527.70	15620.74
527.87	15349.23
528.04	15089.43
528.21	15393.70
528.38	15683.93
528.55	16500.78
528.72	16287.79
528.89	16524.18
529.07	16114.59
529.24	15669.89
529.41	15545.84
529.58	15122.20
529.75	15187.74
529.92	15522.43
530.09	15707.34
530.26	15859.47
530.43	15428.81
530.60	15662.86
530.77	16397.79
530.94	15445.20
531.11	15466.26
531.28	15515.41
531.46	15550.52
531.63	15281.36
531.80	15410.09
531.97	15337.53
532.14	14745.38
532.31	14036.19
532.48	13879.38
532.65	14242.16
532.82	14630.69
532.99	15489.67
533.16	15082.41
533.33	15550.52
533.50	15241.57
533.67	14508.98
533.84	14628.35
534.01	14602.60
534.18	14904.53
534.35	14874.10
534.52	14654.09
534.69	15051.99
534.86	15405.41
535.03	15730.74
535.20	15475.62
535.37	15496.69
535.54	15672.23
535.71	15688.61
535.88	15468.60
536.05	15276.68
536.22	15140.93
536.38	14834.32
536.55	14389.61
536.72	14415.36
536.89	14541.75
537.06	14595.58
537.23	14370.89
537.40	14829.63
537.57	14995.81
537.74	14532.39
537.91	14747.72
538.08	14941.98
538.25	14661.12
538.42	14871.76
538.59	14705.59
538.75	14422.38
538.92	14354.51
539.09	13891.08
539.26	13692.13
539.43	13666.39
539.60	13635.96
539.77	13886.40
539.94	13877.04
540.11	13504.89
540.28	13331.69
540.44	13011.04
540.61	13399.57
540.78	13781.07
540.95	14478.55
541.12	14073.64
541.29	14157.90
541.46	13862.99
541.62	14118.11
541.79	13858.31
541.96	13809.16
542.13	13806.82
542.30	13715.54
542.47	13783.41
542.63	13839.59
542.80	13495.53
542.97	13678.09
543.14	13549.36
543.31	13661.71
543.48	13923.85
543.64	14630.69
543.81	14284.29
543.98	14314.72
544.15	14036.19
544.32	13334.03
544.48	14047.90
544.65	13764.69
544.82	13661.71
544.99	13696.82
545.16	13781.07
545.32	13902.78
545.49	13888.74
545.66	14115.77
545.83	14279.61
546.00	13844.27
546.16	13853.63
546.33	14036.19
546.50	13762.35
546.67	14305.35
546.83	13951.93
547.00	13804.48
547.17	13755.33
547.34	13413.61
547.50	13296.58
547.67	13373.82
547.84	13240.41
548.00	13664.05
548.17	13720.22
548.34	13621.92
548.51	13530.64
548.67	13694.47
548.84	13989.38
549.01	14029.17
549.18	13437.02
549.34	13385.52
549.51	13525.96
549.68	13390.20
549.84	13722.56
550.01	13650.00
550.18	13380.84
550.34	13345.73
550.51	13202.96
550.68	13181.90
550.84	12910.40
551.01	13238.07
551.18	13514.25
551.34	13228.71
551.51	13331.69
551.68	13774.05
551.84	13247.43
552.01	13392.55
552.18	12781.67
552.34	12610.81
552.51	12638.89
552.68	12739.54
552.84	12865.92
553.01	13097.64
553.18	13020.40
553.34	13331.69
553.51	13181.90
553.67	12957.21
553.84	12840.18
554.01	13158.49
554.17	13294.24
554.34	13362.12
554.51	13415.95
554.67	13540.00
554.84	13160.83
555.00	13469.78
555.17	13160.83
555.33	13418.29
555.50	13399.57
555.67	12933.80
555.83	12926.78
556.00	12549.95
556.16	12468.03
556.33	12432.93
556.50	12446.97
556.66	12159.08
556.83	11974.18
556.99	12126.32
557.16	12681.02
557.32	12559.31
557.49	12961.89
557.65	12521.87
557.82	12463.35
557.98	12484.42
558.15	12346.33
558.32	11894.60
558.48	11864.18
558.65	11899.28
558.81	11700.34
558.98	12030.35
559.14	11962.48
559.31	12091.21
559.47	12187.17
559.64	11648.85
559.80	11517.78
559.97	11786.94
560.13	12140.36
560.30	12755.92
560.46	13121.04
560.63	12987.63
560.79	12760.60
560.96	12587.40
561.12	12147.38
561.29	11475.65
561.45	11705.02
561.61	11824.39
561.78	11644.17
561.94	12002.27
562.11	11882.90
562.27	12023.33
562.44	12255.04
562.60	12325.26
562.77	12287.81
562.93	12177.81
563.10	12133.34
563.26	11782.26
563.42	11655.87
563.59	11712.04
563.75	11768.21
563.92	11714.38
564.08	11550.54
564.24	11819.71
564.41	11290.74
564.57	11604.38
564.74	11730.76
564.90	11583.31
565.07	11480.33
565.23	11414.79
565.39	11250.96
565.56	11250.96
565.72	10867.11
565.88	11157.33
566.05	11342.24
566.21	11124.57
566.38	11002.86
566.54	11339.90
566.70	11569.27
566.87	11384.37
567.03	11786.94
567.19	11456.92
567.36	11215.85
567.52	11482.67
567.68	11218.19
567.85	10932.64
568.01	10628.37
568.17	10616.67
568.34	10389.64
568.50	10789.87
568.66	10850.72
568.83	10794.55
568.99	10958.39
569.15	10719.65
569.32	10775.83
569.48	11131.59
569.64	10904.56
569.81	10846.04
569.97	10693.91
570.13	10904.56
570.30	10534.75
570.46	10604.97
570.62	10232.82
570.78	10061.96
570.95	10349.85
571.11	10682.20
571.27	10679.86
571.43	10668.16
571.60	10789.87
571.76	10672.84
571.92	10764.12
572.09	10803.91
572.25	10710.29
572.41	11077.76
572.57	10829.66
572.74	10717.31
572.90	10611.99
573.06	10773.49
573.22	10604.97
573.38	10939.66
573.55	10796.89
573.71	10583.90
573.87	10675.18
574.03	10836.68
574.20	10516.03
574.36	10436.45
574.52	10459.85
574.68	10558.16
574.84	10092.39
575.01	9886.42
575.17	9619.60
575.33	9987.07
575.49	10160.27
575.65	10073.67
575.82	10146.22
575.98	10214.10
576.14	9886.42
576.30	9823.23
576.46	10064.30
576.62	10094.73
576.79	10104.09
576.95	9891.10
577.11	10076.01
577.27	9954.30
577.43	10094.73
577.59	10160.27
577.75	10015.15
577.92	9998.77
578.08	9678.12
578.24	9624.28
578.40	9554.07
578.56	9439.38
578.72	9474.49
578.88	9500.23
579.04	9703.86
579.21	9937.91
579.37	9853.66
579.53	9755.35
579.69	9687.48
579.85	9378.53
580.01	9500.23
580.17	9565.77
580.33	9799.82
580.49	9734.29
580.65	9764.72
580.82	9853.66
580.98	9764.72
581.14	9717.90
581.30	9767.06
581.46	10024.51
581.62	10083.03
581.78	10195.37
581.94	10368.57
582.10	9940.26
582.26	9867.70
582.42	9771.74
582.58	9940.26
582.74	9753.01
582.90	9865.36
583.06	10115.80
583.22	10101.75
583.38	9757.69
583.54	9673.43
583.70	9834.93
583.86	9865.36
584.02	9841.95
584.18	9919.19
584.34	9776.42
584.50	10015.15
584.66	9879.40
584.82	9631.30
584.98	9703.86
585.14	9324.69
585.30	9266.18
585.46	9245.12
585.62	8924.46
585.78	9153.84
585.94	9111.71
586.10	9298.95
586.26	9425.34
586.42	9432.36
586.58	9549.39
586.74	9399.59
586.90	9320.01
587.06	9060.21
587.22	8938.51
587.38	8833.18
587.54	8933.82
587.70	8901.06
587.86	8950.21
588.02	8990.00
588.18	8519.55
588.34	8517.21
588.49	7999.95
588.65	7440.56
588.81	7412.48
588.97	7822.07
589.13	7590.36
589.29	7623.12
589.45	7999.95
589.61	8126.34
589.77	8234.00
589.93	8454.02
590.08	8681.05
590.24	8788.71
590.40	8762.97
