SpectraSuite Data File
++++++++++++++++++++++++++++++++++++
Date: Mon Oct 07 14:52:59 GMT-05:00 2013
User: price-jones
Dark Spectrum Present: No
Reference Spectrum Present: No
Number of Sampled Component Spectra: 1
Spectrometers: USB2+H05261
Integration Time (usec): 100000 (USB2+H05261)
Spectra Averaged: 1 (USB2+H05261)
Boxcar Smoothing: 0 (USB2+H05261)
Correct for Electrical Dark: No (USB2+H05261)
Strobe/Lamp Enabled: No (USB2+H05261)
Correct for Detector Non-linearity: No (USB2+H05261)
Correct for Stray Light: No (USB2+H05261)
Number of Pixels in Processed Spectrum: 2048
>>>>>Begin Processed Spectral Data<<<<<
365.73	0.00
365.92	0.00
366.12	0.00
366.32	0.00
366.52	0.00
366.72	0.00
366.91	0.00
367.11	0.00
367.31	0.00
367.51	0.00
367.70	0.00
367.90	0.00
368.10	0.00
368.30	0.00
368.49	0.00
368.69	0.00
368.89	0.00
369.09	0.00
369.28	0.00
369.48	0.00
369.68	0.00
369.87	0.00
370.07	0.00
370.27	0.00
370.47	477.47
370.66	2726.72
370.86	3176.11
371.06	3494.42
371.25	3353.99
371.45	3094.19
371.65	2799.28
371.84	2700.98
372.04	2738.43
372.24	3068.44
372.44	3302.50
372.63	3180.79
372.83	3042.70
373.03	2731.41
373.22	2534.80
373.42	2602.68
373.62	2909.29
373.81	3213.56
374.01	3279.09
374.21	2867.16
374.40	2738.43
374.60	2909.29
374.79	3178.45
374.99	3868.91
375.19	3997.64
375.38	4009.34
375.58	3660.60
375.78	3684.00
375.97	3808.05
376.17	3735.50
376.37	3845.50
376.56	4025.72
376.76	4072.53
376.95	4528.94
377.15	4821.50
377.35	4854.27
377.54	5219.39
377.74	5327.06
377.93	5275.57
378.13	5081.30
378.33	4898.74
378.52	4435.32
378.72	4241.05
378.91	4306.59
379.11	4194.24
379.31	3995.29
379.50	4058.49
379.70	4456.38
379.89	4896.40
380.09	5034.49
380.28	5130.45
380.48	5249.82
380.68	5020.45
380.87	4833.21
381.07	4620.22
381.26	4177.86
381.46	4074.87
381.65	3889.97
381.85	3911.04
382.04	3522.51
382.24	3370.37
382.43	3126.96
382.63	3028.65
382.83	3176.11
383.02	3129.30
383.22	3096.53
383.41	3232.28
383.61	3332.92
383.80	3995.29
384.00	4346.37
384.19	4863.63
384.39	5217.05
384.58	5097.69
384.78	5109.39
384.97	4940.87
385.17	4603.83
385.36	4507.87
385.56	4337.01
385.75	4564.04
385.95	5025.13
386.14	5266.21
386.34	5383.23
386.53	5125.77
386.72	4765.33
386.92	4865.97
387.11	5144.50
387.31	5364.51
387.50	5233.44
387.70	5043.85
387.89	4978.32
388.09	4968.96
388.28	5102.37
388.48	5298.97
388.67	5514.30
388.86	6139.23
389.06	6492.65
389.25	7042.67
389.45	7047.35
389.64	6913.94
389.84	6778.19
390.03	6654.14
390.22	6768.83
390.42	7019.27
390.61	7332.90
390.81	7878.24
391.00	8145.06
391.19	7950.80
391.39	7735.47
391.58	7075.44
391.78	6789.89
391.97	6534.78
392.16	6132.20
392.36	5523.66
392.55	4486.81
392.75	3417.18
392.94	2871.84
393.13	2909.29
393.33	3461.65
393.52	4329.99
393.71	5432.38
393.91	6097.10
394.10	6579.25
394.29	7403.11
394.49	7637.17
394.68	8702.11
394.88	8376.78
395.07	8870.63
395.26	8496.14
395.46	8388.48
395.65	7885.26
395.84	6876.49
396.04	5799.85
396.23	4648.30
396.42	3887.63
396.62	3878.27
396.81	4589.79
397.00	5694.52
397.19	7091.82
397.39	8486.78
397.58	9605.56
397.77	10305.38
397.97	10551.14
398.16	10534.75
398.35	11082.44
398.55	11323.51
398.74	11744.81
398.93	12194.19
399.12	11686.29
399.32	11424.15
399.51	11721.40
399.70	12360.37
399.90	12123.98
400.09	12116.95
400.28	12243.34
400.47	12346.33
400.67	12938.48
400.86	13298.92
401.05	13289.56
401.24	13132.75
401.44	13495.53
401.63	13427.65
401.82	13846.61
402.01	13762.35
402.21	13844.27
402.40	13968.32
402.59	13181.90
402.78	12795.71
402.97	12477.40
403.17	13095.30
403.36	13448.72
403.55	14218.75
403.74	14567.49
403.93	13631.28
404.13	12674.00
404.32	12620.17
404.51	13085.94
404.70	14347.48
404.89	14118.11
405.09	13755.33
405.28	13322.33
405.47	13547.02
405.66	13343.39
405.85	13107.00
406.05	12751.24
406.24	13001.68
406.43	13488.51
406.62	14052.58
406.81	14267.91
407.00	13584.47
407.20	13034.44
407.39	13432.33
407.58	13881.72
407.77	14541.75
407.96	14850.70
408.15	15037.94
408.34	15440.51
408.54	15992.88
408.73	15908.62
408.92	15953.09
409.11	15428.81
409.30	14539.41
409.49	13530.64
409.68	12699.75
409.87	12283.13
410.07	13078.91
410.26	14501.96
410.45	15267.31
410.64	15896.92
410.83	16210.55
411.02	16360.34
411.21	16952.50
411.40	16809.73
411.59	16833.13
411.78	16650.57
411.98	16673.98
412.17	16776.96
412.36	16610.78
412.55	16456.31
412.74	16203.53
412.93	16070.12
413.12	16147.36
413.31	17645.30
413.50	17785.73
413.69	17895.74
413.88	17266.13
414.07	16875.26
414.26	16945.48
414.45	17855.95
414.64	17486.14
414.83	17802.11
415.02	17036.76
415.22	17366.78
415.41	17891.06
415.60	18438.74
415.79	19070.68
415.98	19714.33
416.17	19363.25
416.36	19236.86
416.55	18824.93
416.74	18139.15
416.93	17429.97
417.12	17642.96
417.31	17820.84
417.50	18066.60
417.69	18663.43
417.88	18939.62
418.07	18642.37
418.26	18242.14
418.45	18267.88
418.64	19087.07
418.83	19927.32
419.02	19278.99
419.21	19365.59
419.39	18380.23
419.58	17493.16
419.77	17680.41
419.96	18473.85
420.15	19749.44
420.34	20219.89
420.53	20706.72
420.72	20975.88
420.91	20898.64
421.10	20582.67
421.29	20568.63
421.48	20081.80
421.67	20645.87
421.86	20058.39
422.05	18806.20
422.24	16599.08
422.43	16730.15
422.61	18658.75
422.80	19962.43
422.99	19829.02
423.18	19150.26
423.37	18850.67
423.56	19440.49
423.75	19534.11
423.94	19817.32
424.13	18761.73
424.32	18560.45
424.50	18668.11
424.69	18733.65
424.88	19014.51
425.07	18462.15
425.26	18721.95
425.45	18279.58
425.64	18106.38
425.83	18424.70
426.01	19424.11
426.20	19578.58
426.39	19278.99
426.58	18024.47
426.77	16580.36
426.96	15873.51
427.15	16896.33
427.33	18223.41
427.52	18827.27
427.71	18785.14
427.90	18569.81
428.09	18675.13
428.28	17961.27
428.46	17453.37
428.65	17322.30
428.84	17371.46
429.03	17989.36
429.22	17083.57
429.40	15913.30
429.59	14530.05
429.78	12924.44
429.97	13060.19
430.16	13041.46
430.34	13188.92
430.53	13263.82
430.72	13425.31
430.91	15005.17
431.10	17797.43
431.28	20793.32
431.47	22480.85
431.66	22726.60
431.85	20313.51
432.03	18977.06
432.22	18125.11
432.41	18698.54
432.60	20889.28
432.79	21589.10
432.97	22139.13
433.16	21474.42
433.35	19924.98
433.54	17888.71
433.72	16732.49
433.91	17759.98
434.10	19487.30
434.28	20758.21
434.47	22022.10
434.66	21355.05
434.85	21113.97
435.03	21046.10
435.22	21523.57
435.41	22656.39
435.59	22794.48
435.78	23140.88
435.97	23903.89
436.16	23541.11
436.34	23501.32
436.53	22867.03
436.72	23033.21
436.90	21809.11
437.09	21556.33
437.28	21193.55
437.46	22162.53
437.65	22150.83
437.84	20102.86
438.02	18857.70
438.21	19328.14
438.40	20107.54
438.58	21776.34
438.77	22134.45
438.96	22225.73
439.14	22885.76
439.33	23690.90
439.52	23981.13
439.70	23456.85
439.89	22988.74
440.08	22621.28
440.26	22293.60
440.45	23229.82
440.63	24863.51
440.82	26139.10
441.01	25818.45
441.19	25603.12
441.38	25834.83
441.57	26403.58
441.75	27192.34
441.94	26991.06
442.12	26911.48
442.31	27564.49
442.50	27103.40
442.68	27051.91
442.87	26595.51
443.05	26277.19
443.24	26803.82
443.43	27431.08
443.61	27857.06
443.80	27814.93
443.98	26597.85
444.17	26588.49
444.35	27992.81
444.54	28500.70
444.73	28463.25
444.91	26883.39
445.10	25944.84
445.28	25287.15
445.47	24533.50
445.65	24830.74
445.84	25364.39
446.02	26162.51
446.21	26574.44
446.39	26878.71
446.58	27285.97
446.77	27929.61
446.95	27864.08
447.14	28718.37
447.32	29366.70
447.51	28538.15
447.69	27365.54
447.88	27239.15
448.06	27377.25
448.25	28418.78
448.43	28397.72
448.62	27669.81
448.80	27641.73
448.99	27821.95
449.17	28327.50
449.36	28226.86
449.54	28999.24
449.73	29247.33
449.91	29422.87
450.10	30726.55
450.28	31138.49
450.46	30885.71
450.65	30845.92
450.83	30724.21
451.02	29888.64
451.20	30139.08
451.39	29811.40
451.57	29537.56
451.76	29743.53
451.94	29476.71
452.13	28933.70
452.31	27861.74
452.49	26087.61
452.68	27070.64
452.86	26817.86
453.05	27311.71
453.23	28224.52
453.42	28538.15
453.60	29448.62
453.78	29600.76
453.97	29151.37
454.15	29111.58
454.34	28624.75
454.52	28694.97
454.70	28023.23
454.89	28776.89
455.07	28730.08
455.26	29223.93
455.44	30569.74
455.62	30782.73
455.81	30735.92
455.99	31044.87
456.17	30373.13
456.36	30551.01
456.54	31117.42
456.73	31040.18
456.91	32112.15
457.09	32119.17
457.28	32652.81
457.46	31295.30
457.64	31082.31
457.83	29933.11
458.01	29373.72
458.19	30228.02
458.38	30352.07
458.56	31367.86
458.74	31332.75
458.93	30850.60
459.11	30845.92
459.29	30412.92
459.48	30747.62
459.66	30630.59
459.84	30649.32
460.03	31215.72
460.21	31337.43
460.39	32114.49
460.57	31779.79
460.76	32395.35
460.94	32507.70
461.12	32074.70
461.31	32208.11
461.49	32439.82
461.67	32147.26
461.85	33041.34
462.04	32966.45
462.22	33479.02
462.40	32671.54
462.59	32596.64
462.77	32676.22
462.95	32734.73
463.13	32163.64
463.32	32547.49
463.50	32009.17
463.68	31892.14
463.86	32500.68
464.05	31576.17
464.23	31161.89
464.41	30817.83
464.59	30672.72
464.78	32032.57
464.96	31426.37
465.14	31445.10
465.32	32030.23
465.50	33111.56
465.69	33324.55
465.87	32456.21
466.05	31831.29
466.23	30223.34
466.41	29677.99
466.60	30569.74
466.78	30368.45
466.96	31229.77
467.14	31697.88
467.32	32011.51
467.51	32147.26
467.69	30780.39
467.87	31363.18
468.05	31740.00
468.23	31611.28
468.41	31882.78
468.60	31697.88
468.78	32058.32
468.96	31754.05
469.14	32385.99
469.32	32196.41
469.50	31302.32
469.69	31393.61
469.87	31054.23
470.05	30951.24
470.23	30822.51
470.41	31218.07
470.59	31477.86
470.77	31749.37
470.95	32514.72
471.14	32280.67
471.32	32304.07
471.50	34277.15
471.68	34314.59
471.86	34656.31
472.04	34913.77
472.22	35201.66
472.40	33507.11
472.58	33305.82
472.77	32596.64
472.95	33570.30
473.13	34204.59
473.31	33460.30
473.49	33275.40
473.67	34178.84
473.85	34852.92
474.03	35482.52
474.21	35498.91
474.39	35817.22
474.57	35779.77
474.75	35531.67
474.93	35842.96
475.12	34859.94
475.30	34789.72
475.48	35033.14
475.66	35601.89
475.84	34962.92
476.02	34735.89
476.20	34511.20
476.38	35402.94
476.56	35887.43
476.74	36353.20
476.92	36842.37
477.10	37422.83
477.28	38497.13
477.46	38139.03
477.64	38593.09
477.82	38948.85
478.00	38944.17
478.18	38607.14
478.36	38000.94
478.54	38251.38
478.72	38820.13
478.90	39360.79
479.08	40755.75
479.26	41015.55
479.44	41104.49
479.62	40561.48
479.80	40334.45
479.98	40570.85
480.16	40928.95
480.34	40545.10
480.52	41088.10
480.70	41804.31
480.88	41291.73
481.06	42433.91
481.24	42277.10
481.41	43646.31
481.59	43927.17
481.77	43625.25
481.95	43075.22
482.13	42593.07
482.31	42756.91
482.49	43342.04
482.67	43316.29
482.85	43466.09
483.03	44526.35
483.21	44406.98
483.39	44781.47
483.57	43981.01
483.74	43604.18
483.92	44095.69
484.10	44205.70
484.28	45162.98
484.46	45294.05
484.64	46248.99
484.82	45055.31
485.00	44708.91
485.18	43447.36
485.35	42295.82
485.53	38927.79
485.71	35534.01
485.89	35606.57
486.07	37743.48
486.25	40683.19
486.43	42574.34
486.61	43522.26
486.78	43629.93
486.96	43728.23
487.14	45689.60
487.32	46705.39
487.50	47330.31
487.68	48334.40
487.85	48954.64
488.03	48608.25
488.21	47899.06
488.39	47845.23
488.57	46534.53
488.75	46742.84
488.92	48025.45
489.10	50117.89
489.28	51774.99
489.46	52229.05
489.64	52060.54
489.81	52250.12
489.99	51847.55
490.17	52006.70
490.35	52285.23
490.53	51702.43
490.70	51358.38
490.88	51168.79
491.06	52369.49
491.24	52058.20
491.41	50810.69
491.59	49722.34
491.77	48500.58
491.95	49996.18
492.13	51229.65
492.30	52533.32
492.48	53474.22
492.66	53755.08
492.84	53858.07
493.01	53425.07
493.19	52884.40
493.37	52306.29
493.54	52348.42
493.72	52774.40
493.90	54110.85
494.08	54625.76
494.25	54962.80
494.43	55243.66
494.61	55643.90
494.79	55763.26
494.96	55421.55
495.14	54815.35
495.32	53970.41
495.49	53279.96
495.67	54328.52
495.85	55821.78
496.02	56126.05
496.20	56217.33
496.38	55461.33
496.55	55363.03
496.73	55971.57
496.91	56072.21
497.09	56779.06
497.26	56790.76
497.44	56273.50
497.62	55756.24
497.79	55075.15
497.97	53240.17
498.14	53865.09
498.32	55217.92
498.50	56055.83
498.67	56275.84
498.85	56411.59
499.03	56690.12
499.20	56858.63
499.38	56804.80
499.56	56631.60
499.73	56158.81
499.91	55554.96
500.08	55318.56
500.26	54475.97
500.44	54955.78
500.61	55833.48
500.79	55753.90
500.97	55011.95
501.14	55255.37
501.32	54808.32
501.49	54827.05
501.67	55117.28
501.84	55444.95
502.02	55781.99
502.20	56247.75
502.37	56341.38
502.55	56453.72
502.72	57041.20
502.90	57523.35
503.07	56994.39
503.25	56769.69
503.43	55690.71
503.60	54946.42
503.78	54539.16
503.95	55072.81
504.13	56643.30
504.30	57088.01
504.48	57174.61
504.65	56720.54
504.83	56830.55
505.01	57476.54
505.18	57694.21
505.36	58202.10
505.53	58169.33
505.71	58485.31
505.88	58550.84
506.06	57874.43
506.23	57771.44
506.41	57542.07
506.58	57638.03
506.76	57345.47
506.93	57521.01
507.11	57127.80
507.28	57556.11
507.46	56949.92
507.63	56076.90
507.81	56156.47
507.98	56491.17
508.16	57003.75
508.33	57612.29
508.50	57972.73
508.68	58073.37
508.85	58726.38
509.03	58866.81
509.20	58473.60
509.38	57822.93
509.55	56996.73
509.73	57499.94
509.90	57804.21
510.08	58078.05
510.25	57956.35
510.42	57886.13
510.60	57741.02
510.77	58014.86
510.95	58616.38
511.12	58450.20
511.30	58852.77
511.47	59075.12
511.64	59091.51
511.82	58663.19
511.99	57832.30
512.17	57769.10
512.34	57193.33
512.51	57420.36
512.69	57794.85
512.86	57635.69
513.04	58064.01
513.21	58054.65
513.38	57752.72
513.56	57357.17
513.73	56687.78
513.90	56872.68
514.08	56907.79
514.25	57303.34
514.43	57696.55
514.60	57865.06
514.77	57710.59
514.95	57689.52
515.12	57776.12
515.29	58108.48
515.47	58494.67
515.64	58494.67
515.81	58178.70
515.99	57694.21
516.16	55966.89
516.33	53626.35
516.51	52648.01
516.68	51730.52
516.85	51208.58
517.03	52142.45
517.20	54482.99
517.37	56713.52
517.54	57748.04
517.72	57478.88
517.89	54688.96
518.06	52605.88
518.24	53153.57
518.41	55107.91
518.58	56617.56
518.75	56858.63
518.93	56793.10
519.10	56727.56
519.27	57279.93
519.45	57602.92
519.62	58120.18
519.79	58377.64
519.96	58232.53
520.14	57757.40
520.31	56821.19
520.48	56830.55
520.65	57268.23
520.83	58375.30
521.00	58595.31
521.17	58284.02
521.34	58014.86
521.52	58209.12
521.69	58752.13
521.86	59283.43
522.03	58784.90
522.20	57738.68
522.38	56741.61
522.55	56842.25
522.72	57329.08
522.89	57387.60
523.07	57577.18
523.24	57888.47
523.41	58801.28
523.58	59119.59
523.75	59531.53
523.92	59428.54
524.10	59255.34
524.27	59014.27
524.44	59159.38
524.61	58988.52
524.78	58585.95
524.96	58747.45
525.13	58635.10
525.30	59025.97
525.47	59297.47
525.64	59227.26
525.81	58335.51
525.98	57134.82
526.16	55674.32
526.33	55150.04
526.50	54536.82
526.67	54726.41
526.84	55189.83
527.01	55983.27
527.18	56917.15
527.36	57958.69
527.53	58784.90
527.70	58773.19
527.87	58159.97
528.04	57827.62
528.21	58356.58
528.38	59040.01
528.55	59742.17
528.72	59749.20
528.89	60046.44
529.07	59669.62
529.24	58714.68
529.41	58438.50
529.58	57888.47
529.75	58064.01
529.92	58466.58
530.09	58693.61
530.26	59194.49
530.43	59426.20
530.60	59337.26
530.77	59817.07
530.94	59728.13
531.11	59405.14
531.28	59091.51
531.46	58932.35
531.63	58972.14
531.80	58712.34
531.97	58347.21
532.14	57715.27
532.31	56732.25
532.48	56161.15
532.65	56332.01
532.82	57102.05
532.99	58115.50
533.16	58546.16
533.33	58997.88
533.50	58843.41
533.67	58230.19
533.84	57663.78
534.01	58262.96
534.18	58190.40
534.35	58108.48
534.52	58092.10
534.69	58473.60
534.86	58642.12
535.03	59110.23
535.20	59522.16
535.37	59728.13
535.54	60025.38
535.71	59351.30
535.88	59250.66
536.05	58618.72
536.22	58145.93
536.38	57935.28
536.55	57371.21
536.72	56783.74
536.89	56903.10
537.06	57769.10
537.23	58609.35
537.40	58794.26
537.57	58775.53
537.74	58618.72
537.91	58695.95
538.08	58440.84
538.25	58604.67
538.42	58773.19
538.59	58466.58
538.75	57872.09
538.92	57865.06
539.09	57427.38
539.26	57350.15
539.43	57207.37
539.60	57675.48
539.77	57708.25
539.94	57654.42
540.11	56563.73
540.28	56121.37
540.44	56299.25
540.61	56650.33
540.78	56711.18
540.95	57020.13
541.12	57422.70
541.29	57820.59
541.46	58071.03
541.62	58195.08
541.79	57946.98
541.96	57282.27
542.13	57399.30
542.30	57642.71
542.47	57820.59
542.63	57696.55
542.80	57523.35
542.97	57563.14
543.14	56994.39
543.31	57441.43
543.48	57792.51
543.64	58740.42
543.81	58927.67
543.98	58656.17
544.15	58110.82
544.32	57567.82
544.48	57565.48
544.65	58188.06
544.82	58398.71
544.99	57996.13
545.16	57773.78
545.32	57439.09
545.49	58260.62
545.66	58564.88
545.83	58171.67
546.00	57670.80
546.16	57654.42
546.33	57609.95
546.50	57614.63
546.67	58225.51
546.83	57638.03
547.00	57780.81
547.17	57109.07
547.34	56528.62
547.50	56580.11
547.67	57090.35
547.84	56949.92
548.00	57626.33
548.17	57684.84
548.34	57738.68
548.51	57602.92
548.67	57682.50
548.84	57827.62
549.01	57745.70
549.18	57647.39
549.34	57584.20
549.51	57626.33
549.68	57483.56
549.84	57205.03
550.01	57216.74
550.18	57183.97
550.34	57251.84
550.51	57406.32
550.68	57296.31
550.84	56697.14
551.01	56912.47
551.18	57010.77
551.34	57181.63
551.51	57443.77
551.68	57741.02
551.84	58017.20
552.01	57614.63
552.18	57366.53
552.34	56488.83
552.51	56294.56
552.68	56257.12
552.84	56816.50
553.01	56818.84
553.18	56598.83
553.34	57029.49
553.51	57006.09
553.67	57270.57
553.84	57319.72
554.01	57305.68
554.17	57296.31
554.34	57329.08
554.51	57481.22
554.67	57733.99
554.84	57382.91
555.00	56952.26
555.17	56898.42
555.33	56954.60
555.50	56940.55
555.67	57123.11
555.83	56907.79
556.00	56430.32
556.16	56477.13
556.33	55920.08
556.50	55992.64
556.66	55973.91
556.83	55758.58
556.99	55824.12
557.16	56135.41
557.32	56554.36
557.49	56636.28
557.65	56430.32
557.82	56332.01
557.98	55999.66
558.15	55585.38
558.32	55042.38
558.48	54197.44
558.65	54660.87
558.81	54859.82
558.98	55082.17
559.14	55356.01
559.31	55388.78
559.47	55295.16
559.64	55044.72
559.80	54761.51
559.97	54901.95
560.13	55285.79
560.30	56093.28
560.46	56596.49
560.63	57006.09
560.79	56743.95
560.96	56301.59
561.12	55086.85
561.29	54466.61
561.45	54677.25
561.61	55040.04
561.78	55620.49
561.94	55440.27
562.11	55454.31
562.27	55318.56
562.44	55547.93
562.60	55838.16
562.77	56002.00
562.93	55978.59
563.10	55622.83
563.26	55035.36
563.42	55152.38
563.59	55117.28
563.75	54915.99
563.92	55332.60
564.08	55089.19
564.24	55304.52
564.41	55524.53
564.57	55241.32
564.74	55196.85
564.90	54855.14
565.07	54967.48
565.23	54288.73
565.39	53954.03
565.56	53935.30
565.72	53492.94
565.88	53876.79
566.05	54101.48
566.21	54190.42
566.38	54319.15
566.54	54445.54
566.70	54726.41
566.87	55014.29
567.03	55016.63
567.19	55250.69
567.36	54852.80
567.52	54803.64
567.68	54501.71
567.85	53991.48
568.01	53565.50
568.17	53230.80
568.34	53298.68
568.50	53076.33
568.66	53118.46
568.83	53701.25
568.99	53677.85
569.15	53991.48
569.32	54014.88
569.48	53822.96
569.64	53502.31
569.81	53183.99
569.97	53305.70
570.13	53160.59
570.30	52584.82
570.46	51929.47
570.62	51416.89
570.78	51489.45
570.95	51945.85
571.11	52509.92
571.27	52685.46
571.43	52968.66
571.60	53371.24
571.76	53537.41
571.92	53563.16
572.09	53851.05
572.25	53787.85
572.41	53661.46
572.57	53727.00
572.74	53497.62
572.90	53291.66
573.06	53265.91
573.22	53574.86
573.38	53394.64
573.55	53059.94
573.71	53392.30
573.87	53375.92
574.03	53097.39
574.20	52968.66
574.36	52853.98
574.52	52322.68
574.68	52308.63
574.84	52182.24
575.01	51618.17
575.17	51882.66
575.33	51922.44
575.49	51943.51
575.65	52325.02
575.82	51948.19
575.98	51856.91
576.14	52191.61
576.30	52559.07
576.46	52409.28
576.62	52289.91
576.79	52292.25
576.95	52116.71
577.11	52072.24
577.27	51889.68
577.43	51894.36
577.59	51587.75
577.75	50995.59
577.92	50408.12
578.08	50696.00
578.24	50649.19
578.40	50707.71
578.56	51332.63
578.72	51117.30
578.88	51419.23
579.04	51573.70
579.21	51688.39
579.37	51466.04
579.53	51952.87
579.69	51618.17
579.85	51973.94
580.01	51819.46
580.17	51145.39
580.33	51243.69
580.49	51037.72
580.65	51255.39
580.82	51927.13
580.98	51454.34
581.14	51393.48
581.30	51728.18
581.46	51580.73
581.62	51810.10
581.78	51803.08
581.94	52109.69
582.10	51868.61
582.26	51845.21
582.42	52051.17
582.58	51931.81
582.74	51751.59
582.90	51849.89
583.06	51929.47
583.22	51554.98
583.38	51613.49
583.54	51423.91
583.70	51351.35
583.86	51746.90
584.02	51147.73
584.18	51412.21
584.34	51440.29
584.50	51267.09
584.66	51283.48
584.82	50745.15
584.98	50728.77
585.14	50164.70
585.30	49109.12
