SpectraSuite Data File
++++++++++++++++++++++++++++++++++++
Date: Mon Oct 07 14:53:53 GMT-05:00 2013
User: price-jones
Dark Spectrum Present: No
Reference Spectrum Present: No
Number of Sampled Component Spectra: 1
Spectrometers: USB2+H05261
Integration Time (usec): 100000 (USB2+H05261)
Spectra Averaged: 1 (USB2+H05261)
Boxcar Smoothing: 0 (USB2+H05261)
Correct for Electrical Dark: No (USB2+H05261)
Strobe/Lamp Enabled: No (USB2+H05261)
Correct for Detector Non-linearity: No (USB2+H05261)
Correct for Stray Light: No (USB2+H05261)
Number of Pixels in Processed Spectrum: 2048
>>>>>Begin Processed Spectral Data<<<<<
365.73	0.00
365.92	0.00
366.12	0.00
366.32	0.00
366.52	0.00
366.72	0.00
366.91	0.00
367.11	0.00
367.31	0.00
367.51	0.00
367.70	0.00
367.90	0.00
368.10	0.00
368.30	0.00
368.49	0.00
368.69	0.00
368.89	0.00
369.09	0.00
369.28	0.00
369.48	0.00
369.68	0.00
369.87	0.00
370.07	0.00
370.27	0.00
370.47	582.79
370.66	2792.26
370.86	3487.40
371.06	3733.15
371.25	3758.90
371.45	3414.84
371.65	2984.18
371.84	2796.94
372.04	2974.82
372.24	3314.20
372.44	3550.59
372.63	3583.36
372.83	3253.34
373.03	2906.95
373.22	2635.44
373.42	2757.15
373.62	3180.79
373.81	3538.89
374.01	3384.41
374.21	3115.25
374.40	2895.24
374.60	2953.76
374.79	3410.16
374.99	3857.20
375.19	4290.20
375.38	4301.90
375.58	3943.80
375.78	3808.05
375.97	4147.43
376.17	4053.81
376.37	4109.98
376.56	4238.71
376.76	4489.15
376.95	4887.04
377.15	5268.55
377.35	5331.74
377.54	5455.79
377.74	5673.46
377.93	5760.06
378.13	5514.30
378.33	5135.14
378.52	4898.74
378.72	4542.98
378.91	4711.50
379.11	4423.61
379.31	4262.12
379.50	4318.29
379.70	4643.62
379.89	5139.82
380.09	5401.96
380.28	5621.97
380.48	5607.92
380.68	5444.09
380.87	5313.02
381.07	4840.23
381.26	4552.34
381.46	4152.11
381.65	4065.51
381.85	3920.40
382.04	3803.37
382.24	3538.89
382.43	3494.42
382.63	3311.86
382.83	3405.48
383.02	3311.86
383.22	3538.89
383.41	3356.33
383.61	3777.62
383.80	4107.64
384.00	4615.54
384.19	5287.27
384.39	5448.77
384.58	5664.10
384.78	5408.98
384.97	5313.02
385.17	5043.85
385.36	4898.74
385.56	4683.41
385.75	4812.14
385.95	5139.82
386.14	5535.37
386.34	5729.63
386.53	5430.04
386.72	5226.42
386.92	5177.26
387.11	5270.89
387.31	5593.88
387.50	5575.16
387.70	5352.81
387.89	5329.40
388.09	5338.76
388.28	5502.60
388.48	5483.88
388.67	5825.59
388.86	6445.84
389.06	6871.81
389.25	7192.47
389.45	7281.41
389.64	7428.86
389.84	7267.36
390.03	7133.95
390.22	7070.76
390.42	7478.01
390.61	7833.77
390.81	8458.70
391.00	8652.96
391.19	8454.02
391.39	8175.49
391.58	7693.34
391.78	7274.38
391.97	6991.18
392.16	6483.28
392.36	5998.79
392.55	4823.84
392.75	3934.44
392.94	3145.68
393.13	2988.86
393.33	3772.94
393.52	4550.00
393.71	5830.27
393.91	6399.02
394.10	6935.01
394.29	7775.26
394.49	8273.79
394.68	8762.97
394.88	8980.64
395.07	9427.68
395.26	9151.49
395.46	8947.87
395.65	8575.72
395.84	7419.50
396.04	6253.91
396.23	5039.17
396.42	4196.58
396.62	3878.27
396.81	4741.93
397.00	5987.09
397.19	7541.21
397.39	9132.77
397.58	10066.64
397.77	10693.91
397.97	11267.34
398.16	11328.19
398.35	11632.46
398.55	11969.50
398.74	12446.97
398.93	12631.87
399.12	12348.67
399.32	11826.73
399.51	12255.04
399.70	13317.65
399.90	13027.42
400.09	13132.75
400.28	13130.41
400.47	13092.96
400.67	13888.74
400.86	14176.62
401.05	14141.52
401.24	14174.28
401.44	14501.96
401.63	14024.49
401.82	14288.97
402.01	14427.06
402.21	14785.16
402.40	14707.93
402.59	14127.47
402.78	13465.10
402.97	13149.13
403.17	13743.63
403.36	14396.64
403.55	14876.44
403.74	15431.15
403.93	14443.45
404.13	13593.83
404.32	12865.92
404.51	13764.69
404.70	14930.28
404.89	14890.49
405.09	14703.25
405.28	14260.88
405.47	14174.28
405.66	14183.65
405.85	13645.32
406.05	13392.55
406.24	13689.79
406.43	14068.96
406.62	14752.40
406.81	14977.09
407.00	14377.91
407.20	14015.13
407.39	13975.34
407.58	14661.12
407.77	15276.68
407.96	15618.39
408.15	16170.76
408.34	15983.52
408.54	16657.59
408.73	17025.06
408.92	16622.48
409.11	16411.84
409.30	15138.58
409.49	14527.71
409.68	13511.91
409.87	12901.03
410.07	13884.06
410.26	14993.47
410.45	16053.73
410.64	16428.22
410.83	17039.10
411.02	17724.88
411.21	17900.42
411.40	17362.09
411.59	17855.95
411.78	17551.68
411.98	17331.67
412.17	17736.58
412.36	17118.68
412.55	17334.01
412.74	17165.49
412.93	16645.89
413.12	16645.89
413.31	18485.55
413.50	18560.45
413.69	18979.40
413.88	18256.18
414.07	17575.08
414.26	17813.82
414.45	18515.98
414.64	18513.64
414.83	18663.43
415.02	18169.58
415.22	17984.68
415.41	18670.45
415.60	19496.66
415.79	19955.41
415.98	20304.15
416.17	20250.32
416.36	19845.40
416.55	19506.02
416.74	19028.56
416.93	18675.13
417.12	18302.99
417.31	18448.10
417.50	18946.64
417.69	19578.58
417.88	19639.44
418.07	19262.61
418.26	18906.85
418.45	19112.81
418.64	20063.07
418.83	20610.76
419.02	20201.16
419.21	20301.81
419.39	19278.99
419.58	18537.04
419.77	18022.12
419.96	19063.66
420.15	20549.90
420.34	20788.64
420.53	21544.63
420.72	21874.65
420.91	21628.89
421.10	21504.84
421.29	21371.43
421.48	20556.93
421.67	21893.37
421.86	21156.10
422.05	19456.87
422.24	17509.55
422.43	17591.47
422.61	19208.78
422.80	20877.58
422.99	21010.99
423.18	19847.74
423.37	19594.96
423.56	19707.31
423.75	20283.08
423.94	20386.07
424.13	19239.20
424.32	19660.50
424.50	19775.19
424.69	19510.71
424.88	19091.75
425.07	19412.40
425.26	19393.68
425.45	19360.91
425.64	18775.78
425.83	18836.63
426.01	20006.90
426.20	20315.85
426.39	20095.84
426.58	18689.18
426.77	17326.99
426.96	16411.84
427.15	17371.46
427.33	18998.13
427.52	19529.43
427.71	19702.63
427.90	19433.47
428.09	19243.88
428.28	18757.05
428.46	18218.73
428.65	17788.07
428.84	18518.32
429.03	18431.72
429.22	17972.97
429.40	16704.40
429.59	14988.79
429.78	13523.62
429.97	13432.33
430.16	13727.24
430.34	13933.21
430.53	13523.62
430.72	14022.15
430.91	15426.47
431.10	18043.19
431.28	21219.30
431.47	22963.00
431.66	23363.23
431.85	21486.12
432.03	19618.37
432.22	18813.23
432.41	19487.30
432.60	21532.93
432.79	22307.65
432.97	23087.04
433.16	22298.28
433.35	20999.29
433.54	18363.84
433.72	17422.95
433.91	17783.39
434.10	19878.17
434.28	21219.30
434.47	22396.59
434.66	22122.74
434.85	21626.55
435.03	21628.89
435.22	21834.86
435.41	23250.88
435.59	23653.45
435.78	23742.39
435.97	24364.98
436.16	24449.24
436.34	23920.28
436.53	23634.73
436.72	23417.06
436.90	22066.57
437.09	22490.21
437.28	22045.51
437.46	22757.03
437.65	22441.06
437.84	21081.21
438.02	19709.65
438.21	19016.85
438.40	20191.80
438.58	21905.07
438.77	22419.99
438.96	22689.15
439.14	23536.43
439.33	24423.49
439.52	24802.66
439.70	24226.89
439.89	23529.41
440.08	22728.94
440.26	23068.32
440.45	23880.49
440.63	24903.30
440.82	26902.12
441.01	26225.70
441.19	25525.88
441.38	26382.52
441.57	27374.91
441.75	27854.72
441.94	27857.06
442.12	27292.99
442.31	28254.95
442.50	28079.41
442.68	27674.49
442.87	27498.95
443.05	26874.03
443.24	27374.91
443.43	27878.12
443.61	28425.81
443.80	28975.83
443.98	27325.75
444.17	26977.01
444.35	28992.22
444.54	29221.59
444.73	28929.02
444.91	28201.11
445.10	26836.58
445.28	25450.99
445.47	24837.76
445.65	25212.25
445.84	26150.81
446.02	26939.57
446.21	27241.50
446.39	27445.12
446.58	27608.96
446.77	28147.28
446.95	28322.82
447.14	29439.26
447.32	29397.13
447.51	28961.79
447.69	28095.79
447.88	27749.39
448.06	27871.10
448.25	28610.71
448.43	28706.67
448.62	28322.82
448.80	27878.12
448.99	28093.45
449.17	28496.02
449.36	28481.98
449.54	29736.51
449.73	30342.70
449.91	30742.94
450.10	31222.75
450.28	31541.06
450.46	31250.83
450.65	31285.94
450.83	31379.56
451.02	30419.94
451.20	30345.05
451.39	29888.64
451.57	29788.00
451.76	29940.13
451.94	29797.36
452.13	29315.21
452.31	28325.16
452.49	26906.80
452.68	27049.57
452.86	27395.97
453.05	27473.21
453.23	28397.72
453.42	28912.64
453.60	29640.54
453.78	30082.91
453.97	29298.83
454.15	29886.30
454.34	28793.27
454.52	29390.11
454.70	28472.62
454.89	28673.90
455.07	28917.32
455.26	29628.84
455.44	30361.43
455.62	31330.41
455.81	31700.22
455.99	31409.99
456.17	30731.23
456.36	30822.51
456.54	31400.63
456.73	32020.87
456.91	32102.79
457.09	32182.37
457.28	33329.23
457.46	31501.27
457.64	31573.83
457.83	30508.88
458.01	29949.50
458.19	30609.53
458.38	30441.01
458.56	31648.72
458.74	31765.75
458.93	31323.39
459.11	30951.24
459.29	30235.04
459.48	31014.44
459.66	30536.97
459.84	31360.84
460.03	31522.34
460.21	31337.43
460.39	32034.91
460.57	32512.38
460.76	32549.83
460.94	32746.44
461.12	31793.84
461.31	32273.65
461.49	32313.44
461.67	31894.48
461.85	33249.65
462.04	32868.14
462.22	33736.48
462.40	33237.95
462.59	32999.21
462.77	32861.12
462.95	32830.69
463.13	32217.47
463.32	32280.67
463.50	31765.75
463.68	32032.57
463.86	32236.20
464.05	31852.35
464.23	31295.30
464.41	31166.57
464.59	30391.86
464.78	32191.73
464.96	31637.02
465.14	31372.54
465.32	32566.21
465.50	33251.99
465.69	33354.97
465.87	32395.35
466.05	31646.38
466.23	30576.76
466.41	29509.47
466.60	30359.09
466.78	30953.58
466.96	31269.56
467.14	31489.57
467.32	32177.68
467.51	32231.52
467.69	30761.66
467.87	31239.13
468.05	31702.56
468.23	31826.60
468.41	31957.67
468.60	32065.34
468.78	32465.57
468.96	31667.45
469.14	32648.13
469.32	32608.34
469.50	31222.75
469.69	31213.38
469.87	31152.53
470.05	30590.80
470.23	30923.16
470.41	31227.43
470.59	31049.55
470.77	31824.26
470.95	32093.43
471.14	32655.15
471.32	32540.47
471.50	34211.61
471.68	34476.09
471.86	34817.81
472.04	34705.46
472.22	34916.11
472.40	33099.86
472.58	33064.75
472.77	32680.90
472.95	33205.18
473.13	34005.64
473.31	33046.02
473.49	33296.46
473.67	33998.62
473.85	34267.78
474.03	35318.68
474.21	34925.47
474.39	35688.49
474.57	35660.40
474.75	36011.48
474.93	35594.87
475.12	34590.78
475.30	34689.08
475.48	35028.46
475.66	35452.09
475.84	35126.76
476.02	34415.24
476.20	34061.82
476.38	35115.06
476.56	35875.73
476.74	36421.08
476.92	36154.26
477.10	37453.25
477.28	38232.65
477.46	38057.11
477.64	38574.37
477.82	38679.69
478.00	38426.92
478.18	38284.14
478.36	37830.08
478.54	37579.64
478.72	38361.38
478.90	39260.15
479.08	40023.16
479.26	40992.14
479.44	40282.96
479.62	40292.32
479.80	40158.91
479.98	40502.97
480.16	41029.59
480.34	39885.07
480.52	40966.40
480.70	40758.09
480.88	40950.01
481.06	41668.56
481.24	42366.04
481.41	42850.53
481.59	43433.32
481.77	43405.23
481.95	42604.77
482.13	42499.45
482.31	42534.56
482.49	43524.60
482.67	42747.54
482.85	43405.23
483.03	43683.76
483.21	44189.31
483.39	44650.40
483.57	43498.86
483.74	42801.38
483.92	43070.54
484.10	43491.83
484.28	44435.07
484.46	45174.68
484.64	45188.72
484.82	44626.99
485.00	44231.44
485.18	43445.02
485.35	41846.44
485.53	38806.08
485.71	35344.43
485.89	35346.77
486.07	36458.52
486.25	40098.06
486.43	41918.99
486.61	43131.39
486.78	42520.51
486.96	43136.07
487.14	44877.43
487.32	45792.58
487.50	46995.62
487.68	47590.11
487.85	48421.00
488.03	48275.89
488.21	47524.58
488.39	46930.08
488.57	46190.47
488.75	45963.44
488.92	46974.55
489.10	49743.41
489.28	50810.69
489.46	51660.30
489.64	51269.43
489.81	51793.71
489.99	51234.33
490.17	51346.67
490.35	51482.42
490.53	51157.09
490.70	50845.80
490.88	50377.69
491.06	51679.03
491.24	51641.58
491.41	50508.76
491.59	48971.03
491.77	47854.59
491.95	49322.11
492.13	50265.34
492.30	51735.20
492.48	52715.89
492.66	53118.46
492.84	53038.88
493.01	52676.10
493.19	52224.37
493.37	51941.17
493.54	51576.04
493.72	52247.78
493.90	53425.07
494.08	53907.22
494.25	54459.58
494.43	54752.15
494.61	55220.26
494.79	55234.30
494.96	54724.07
495.14	54323.83
495.32	53289.32
495.49	52926.53
495.67	53703.59
495.85	55002.59
496.02	55636.87
496.20	55402.82
496.38	54852.80
496.55	54506.40
496.73	55318.56
496.91	55597.09
497.09	56072.21
497.26	56121.37
497.44	55498.78
497.62	55100.89
497.79	54134.25
497.97	52952.28
498.14	53090.37
498.32	54403.41
498.50	55028.34
498.67	55477.72
498.85	55531.55
499.03	55707.09
499.20	56273.50
499.38	56289.88
499.56	55917.74
499.73	55583.04
499.91	55025.99
500.08	54569.59
500.26	53387.62
500.44	54258.30
500.61	55093.87
500.79	54735.77
500.97	54267.66
501.14	53961.05
501.32	54225.53
501.49	54087.44
501.67	54225.53
501.84	54752.15
502.02	55147.70
502.20	55496.44
502.37	55627.51
502.55	55524.53
502.72	56315.63
502.90	56753.31
503.07	56694.80
503.25	56032.42
503.43	55236.64
503.60	54663.21
503.78	53794.87
503.95	54319.15
504.13	55505.80
504.30	56554.36
504.48	56219.67
504.65	56186.90
504.83	56233.71
505.01	56554.36
505.18	56987.36
505.36	57677.82
505.53	57628.67
505.71	57755.06
505.88	58012.52
506.06	57284.61
506.23	56954.60
506.41	56264.14
506.58	56559.05
506.76	56818.84
506.93	56736.93
507.11	56420.95
507.28	56657.35
507.46	56179.88
507.63	55421.55
507.81	55224.94
507.98	55627.51
508.16	56203.28
508.33	56790.76
508.50	57130.14
508.68	57542.07
508.85	58038.26
509.03	57867.40
509.20	57616.97
509.38	56959.28
509.55	56383.51
509.73	56250.09
509.90	56945.23
510.08	57080.98
510.25	56891.40
510.42	57127.80
510.60	56741.61
510.77	57181.63
510.95	57371.21
511.12	57595.90
511.30	57991.45
511.47	58159.97
511.64	58239.55
511.82	57979.75
511.99	57158.22
512.17	56594.15
512.34	56397.55
512.51	56357.76
512.69	56432.66
512.86	56715.86
513.04	57190.99
513.21	57193.33
513.38	56898.42
513.56	56217.33
513.73	55800.71
513.90	55863.91
514.08	55889.65
514.25	56369.46
514.43	56692.46
514.60	56573.09
514.77	56781.40
514.95	56926.51
515.12	56856.29
515.29	57059.92
515.47	57382.91
515.64	57343.12
515.81	57277.59
515.99	56542.66
516.16	55208.56
516.33	53146.54
516.51	51311.56
516.68	50403.44
516.85	49783.19
517.03	50244.28
517.20	53137.18
517.37	55899.01
517.54	57015.45
517.72	56413.93
517.89	53727.00
518.06	51014.32
518.24	51613.49
518.41	53895.52
518.58	55288.13
518.75	55758.58
518.93	55873.27
519.10	55669.64
519.27	56163.50
519.45	56336.69
519.62	57165.24
519.79	57378.23
519.96	57055.24
520.14	56528.62
520.31	55955.19
520.48	56051.15
520.65	56144.77
520.83	57183.97
521.00	57504.62
521.17	57401.64
521.34	56664.37
521.52	57139.50
521.69	57631.01
521.86	58152.95
522.03	57614.63
522.20	56479.47
522.38	55543.25
522.55	55608.79
522.72	56128.39
522.89	56177.54
523.07	56427.98
523.24	56659.69
523.41	57607.61
523.58	58045.29
523.75	58312.11
523.92	58145.93
524.10	58281.68
524.27	58120.18
524.44	57902.51
524.61	57872.09
524.78	57631.01
524.96	57434.41
525.13	57488.24
525.30	57869.75
525.47	58218.49
525.64	58038.26
525.81	57336.10
525.98	56161.15
526.16	54497.03
526.33	53745.72
526.50	53537.41
526.67	52989.73
526.84	53614.65
527.01	54731.09
527.18	55580.70
527.36	56554.36
527.53	57331.42
527.70	57715.27
527.87	57174.61
528.04	56633.94
528.21	57015.45
528.38	57881.45
528.55	58419.77
528.72	58468.92
528.89	58911.28
529.07	58576.59
529.24	57799.53
529.41	57193.33
529.58	56650.33
529.75	56676.07
529.92	57080.98
530.09	57546.75
530.26	57993.79
530.43	58349.56
530.60	58504.03
530.77	58646.80
530.94	58656.17
531.11	58171.67
531.28	57783.15
531.46	57654.42
531.63	57822.93
531.80	57544.41
531.97	56994.39
532.14	56500.53
532.31	55669.64
532.48	54644.49
532.65	54820.03
532.82	55856.88
532.99	56917.15
533.16	57123.11
533.33	57764.42
533.50	57396.96
533.67	56804.80
533.84	56708.84
534.01	56837.57
534.18	57013.11
534.35	57015.45
534.52	57022.47
534.69	57118.43
534.86	57586.54
535.03	57532.71
535.20	58157.63
535.37	58651.48
535.54	58431.47
535.71	58347.21
535.88	57900.17
536.05	57293.97
536.22	57017.79
536.38	56566.07
536.55	56376.48
536.72	55608.79
536.89	55358.35
537.06	56530.96
537.23	57073.96
537.40	57551.43
537.57	57457.81
537.74	57223.76
537.91	57268.23
538.08	57034.17
538.25	56999.07
538.42	57132.48
538.59	57301.00
538.75	56750.97
538.92	56135.41
539.09	56317.97
539.26	55866.25
539.43	55810.07
539.60	56088.60
539.77	55969.23
539.94	55980.93
540.11	55007.27
540.28	54569.59
540.44	54941.74
540.61	55011.95
540.78	55023.65
540.95	55435.59
541.12	56020.72
541.29	56016.04
541.46	56617.56
541.62	56484.15
541.79	56406.91
541.96	55784.33
542.13	55730.50
542.30	56032.42
542.47	56259.46
542.63	55814.76
542.80	55903.70
542.97	55810.07
543.14	55660.28
543.31	56062.85
543.48	56339.04
543.64	57038.86
543.81	57406.32
543.98	57371.21
544.15	56463.08
544.32	55842.84
544.48	55805.39
544.65	56399.89
544.82	56891.40
544.99	56470.11
545.16	56147.11
545.32	55611.13
545.49	56678.41
545.66	57095.03
545.83	56559.05
546.00	56278.18
546.16	55849.86
546.33	55999.66
546.50	56109.66
546.67	56477.13
546.83	56004.34
547.00	55840.50
547.17	55407.50
547.34	54824.71
547.50	54742.79
547.67	55164.09
547.84	55246.00
548.00	55854.54
548.17	56470.11
548.34	55861.57
548.51	56109.66
548.67	55817.10
548.84	56203.28
549.01	56179.88
549.18	55922.42
549.34	55915.40
549.51	55657.94
549.68	55569.00
549.84	55714.11
550.01	55491.76
550.18	55323.24
550.34	55688.37
550.51	55709.43
550.68	55583.04
550.84	55077.49
551.01	55112.59
551.18	55103.23
551.34	55327.92
551.51	55742.20
551.68	56184.56
551.84	56067.53
552.01	55842.84
552.18	55613.47
552.34	54976.84
552.51	54529.80
552.68	54164.68
552.84	54784.92
553.01	55201.53
553.18	55285.79
553.34	55143.02
553.51	55367.71
553.67	55515.17
553.84	55667.30
554.01	55412.18
554.17	55377.08
554.34	55416.86
554.51	55655.60
554.67	55854.54
554.84	55501.12
555.00	55269.41
555.17	55068.12
555.33	55250.69
555.50	54995.57
555.67	55206.22
555.83	54801.30
556.00	54665.55
556.16	54342.56
556.33	54075.74
556.50	54066.38
556.66	53958.71
556.83	53495.28
556.99	53968.07
557.16	53956.37
557.32	54316.81
557.49	54934.71
557.65	54485.33
557.82	54433.84
557.98	54277.02
558.15	53689.55
558.32	52893.77
558.48	51751.59
558.65	52184.58
558.81	52633.97
558.98	52835.25
559.14	53382.94
559.31	53221.44
559.47	53389.96
559.64	52683.12
559.80	52542.69
559.97	52624.60
560.13	52795.46
560.30	54045.31
560.46	54548.53
560.63	54941.74
560.79	54883.22
560.96	54541.50
561.12	53076.33
561.29	52217.35
561.45	52332.04
561.61	53031.86
561.78	53546.78
561.94	53219.10
562.11	53022.50
562.27	53008.45
562.44	53408.68
562.60	53649.76
562.77	53729.34
562.93	54026.59
563.10	53652.10
563.26	53031.86
563.42	53282.30
563.59	52655.03
563.75	53001.43
563.92	52982.71
564.08	52802.49
564.24	53200.38
564.41	53130.16
564.57	52942.92
564.74	52912.49
564.90	52877.38
565.07	52355.44
565.23	51826.48
565.39	51393.48
565.56	51414.55
565.72	50852.82
565.88	51367.74
566.05	51599.45
566.21	51955.21
566.38	51910.74
566.54	52418.64
566.70	52488.85
566.87	52498.22
567.03	52694.82
567.19	53354.85
567.36	52582.48
567.52	52444.38
567.68	52341.40
567.85	51571.36
568.01	50869.20
568.17	50660.90
568.34	50681.96
568.50	50553.23
568.66	50773.24
568.83	51377.10
568.99	51229.65
569.15	51353.69
569.32	51515.19
569.48	51234.33
569.64	50918.35
569.81	50906.65
569.97	50845.80
570.13	50490.04
570.30	49935.33
570.46	49619.36
570.62	48793.15
570.78	48617.61
570.95	48896.13
571.11	50094.49
571.27	50021.93
571.43	50258.32
571.60	50717.07
571.76	50553.23
571.92	51119.64
572.09	51276.46
572.25	51407.53
572.41	51138.36
572.57	51112.62
572.74	51119.64
572.90	50485.36
573.06	50532.17
573.22	50604.72
573.38	50787.28
573.55	50773.24
573.71	50745.15
573.87	50810.69
574.03	50475.99
574.20	50590.68
574.36	50246.62
574.52	49991.50
574.68	49670.85
574.84	49219.13
575.01	48872.73
575.17	48285.25
575.33	48744.00
575.49	49329.13
575.65	49195.72
575.82	49148.91
575.98	48769.74
576.14	48985.07
576.30	49565.52
576.46	49661.49
576.62	49514.03
576.79	49052.95
576.95	49310.41
577.11	49382.96
577.27	49167.63
577.43	49207.42
577.59	48451.43
577.75	48151.84
577.92	47555.00
578.08	47016.68
578.24	47356.06
578.40	47536.28
578.56	47744.59
578.72	47887.36
578.88	48645.69
579.04	48601.22
579.21	48561.44
579.37	48891.45
579.53	48872.73
579.69	48619.95
579.85	49078.69
580.01	48722.93
580.17	48095.67
580.33	48252.48
580.49	48254.82
580.65	48563.78
580.82	48486.54
580.98	48428.02
581.14	48683.14
581.30	49127.84
581.46	48116.73
581.62	49097.42
581.78	48907.83
581.94	48563.78
582.10	48612.93
582.26	49057.63
582.42	48748.68
582.58	49162.95
582.74	48898.47
582.90	48708.89
583.06	48493.56
583.22	48603.56
583.38	48531.01
583.54	48449.09
583.70	48205.67
583.86	48432.71
584.02	48350.79
584.18	48109.71
584.34	48107.37
584.50	48044.18
584.66	48149.50
584.82	47299.89
584.98	47306.91
585.14	46719.43
585.30	46218.56
