SpectraSuite Data File
++++++++++++++++++++++++++++++++++++
Date: Mon Oct 07 14:53:47 GMT-05:00 2013
User: price-jones
Dark Spectrum Present: No
Reference Spectrum Present: No
Number of Sampled Component Spectra: 1
Spectrometers: USB2+H05261
Integration Time (usec): 100000 (USB2+H05261)
Spectra Averaged: 1 (USB2+H05261)
Boxcar Smoothing: 0 (USB2+H05261)
Correct for Electrical Dark: No (USB2+H05261)
Strobe/Lamp Enabled: No (USB2+H05261)
Correct for Detector Non-linearity: No (USB2+H05261)
Correct for Stray Light: No (USB2+H05261)
Number of Pixels in Processed Spectrum: 2048
>>>>>Begin Processed Spectral Data<<<<<
365.73	0.00
365.92	0.00
366.12	0.00
366.32	0.00
366.52	0.00
366.72	0.00
366.91	0.00
367.11	0.00
367.31	0.00
367.51	0.00
367.70	0.00
367.90	0.00
368.10	0.00
368.30	0.00
368.49	0.00
368.69	0.00
368.89	0.00
369.09	0.00
369.28	0.00
369.48	0.00
369.68	0.00
369.87	0.00
370.07	0.00
370.27	0.00
370.47	592.16
370.66	3232.28
370.86	3852.52
371.06	4079.55
371.25	4271.48
371.45	3801.03
371.65	3368.03
371.84	3087.17
372.04	3297.81
372.24	3733.15
372.44	3941.46
372.63	3667.62
372.83	3468.67
373.03	3136.32
373.22	2855.45
373.42	2995.89
373.62	3403.14
373.81	3831.46
374.01	3775.28
374.21	3405.48
374.40	3194.83
374.60	3213.56
374.79	3749.54
374.99	4337.01
375.19	4840.23
375.38	4690.43
375.58	4327.65
375.78	4409.57
375.97	4332.33
376.17	4601.49
376.37	4582.77
376.56	4882.36
376.76	4997.04
376.95	5210.03
377.15	5731.97
377.35	5944.96
377.54	6232.85
377.74	6164.97
377.93	6492.65
378.13	6183.70
378.33	5785.80
378.52	5277.91
378.72	5247.48
378.91	5074.28
379.11	4861.29
379.31	4751.29
379.50	4929.17
379.70	5193.65
379.89	5582.18
380.09	5959.00
380.28	6118.16
380.48	6136.88
380.68	5963.68
380.87	6120.50
381.07	5568.13
381.26	5214.71
381.46	4877.68
381.65	4767.67
381.85	4571.07
382.04	4383.82
382.24	3941.46
382.43	3803.37
382.63	3606.77
382.83	3754.22
383.02	3878.27
383.22	3672.30
383.41	3770.60
383.61	3992.95
383.80	4601.49
384.00	5245.14
384.19	5762.40
384.39	6167.31
384.58	6160.29
384.78	5912.19
384.97	5980.07
385.17	5781.12
385.36	5446.43
385.56	5137.48
385.75	5203.01
385.95	5792.83
386.14	6518.39
386.34	6509.03
386.53	6078.37
386.72	5481.53
386.92	5671.12
387.11	5980.07
387.31	6413.07
387.50	6314.77
387.70	6003.47
387.89	5998.79
388.09	6024.54
388.28	5827.93
388.48	6094.76
388.67	6476.26
388.86	7243.96
389.06	7669.94
389.25	8238.69
389.45	8344.01
389.64	8039.74
389.84	7929.74
390.03	7906.33
390.22	8093.57
390.42	8229.32
390.61	8786.37
390.81	9437.04
391.00	9390.23
391.19	9511.94
391.39	9181.92
391.58	8730.20
391.78	8063.15
391.97	7829.09
392.16	7445.24
392.36	6553.50
392.55	5439.40
392.75	4266.80
392.94	3574.00
393.13	3473.36
393.33	4086.58
393.52	5158.54
393.71	6333.49
393.91	7171.40
394.10	7726.11
394.29	8542.96
394.49	9287.25
394.68	10068.98
394.88	10106.43
395.07	10478.58
395.26	10249.21
395.46	10031.54
395.65	9467.47
395.84	8290.18
396.04	6892.88
396.23	5680.48
396.42	4755.97
396.62	4519.57
396.81	5338.76
397.00	6794.58
397.19	8580.40
397.39	9907.49
397.58	11204.14
397.77	11915.67
397.97	12807.41
398.16	12711.45
398.35	13184.24
398.55	13444.04
398.74	13916.83
398.93	14370.89
399.12	14038.53
399.32	13263.82
399.51	13872.36
399.70	14649.41
399.90	14553.45
400.09	14850.70
400.28	14450.47
400.47	14609.62
400.67	15880.53
400.86	15674.57
401.05	15627.76
401.24	15868.83
401.44	16137.99
401.63	15880.53
401.82	16074.80
402.01	16332.26
402.21	16636.53
402.40	16498.44
402.59	15868.83
402.78	15269.66
402.97	14977.09
403.17	15255.61
403.36	16100.55
403.55	17041.44
403.74	17343.37
403.93	16465.67
404.13	15150.29
404.32	14647.07
404.51	15435.83
404.70	16910.37
404.89	17062.51
405.09	16390.77
405.28	16023.31
405.47	16187.14
405.66	15829.04
405.85	15789.25
406.05	15000.49
406.24	15396.04
406.43	16374.39
406.62	16929.09
406.81	16870.58
407.00	16224.59
407.20	15805.64
407.39	15964.79
407.58	16498.44
407.77	17326.99
407.96	17778.71
408.15	18345.12
408.34	18300.65
408.54	18834.29
408.73	19234.52
408.92	18778.12
409.11	18192.98
409.30	17263.79
409.49	16280.77
409.68	15206.46
409.87	14590.90
410.07	15555.20
410.26	16781.64
410.45	17991.70
410.64	18464.49
410.83	19110.47
411.02	19552.84
411.21	20009.24
411.40	19726.04
411.59	19906.26
411.78	20018.60
411.98	19894.55
412.17	20187.12
412.36	19697.95
412.55	19524.75
412.74	19159.63
412.93	18848.33
413.12	18932.59
413.31	21071.84
413.50	21036.74
413.69	21465.05
413.88	20460.96
414.07	19623.05
414.26	20503.09
414.45	20996.95
414.64	20992.26
414.83	20828.43
415.02	20847.15
415.22	20566.29
415.41	21521.23
415.60	21738.90
415.79	22522.98
415.98	23075.34
416.17	23613.66
416.36	22588.51
416.55	22373.18
416.74	21710.81
416.93	20716.08
417.12	20699.70
417.31	21184.19
417.50	21256.75
417.69	22256.15
417.88	22260.84
418.07	21954.22
418.26	21703.79
418.45	22073.59
418.64	22380.20
418.83	23234.50
419.02	23353.87
419.21	22955.97
419.39	21862.94
419.58	20666.93
419.77	20856.51
419.96	21958.91
420.15	22719.58
420.34	23817.29
420.53	24568.60
420.72	24856.49
420.91	24549.88
421.10	24645.84
421.29	24046.66
421.48	23459.19
421.67	24702.01
421.86	24109.86
422.05	22345.09
422.24	20100.52
422.43	19751.78
422.61	21596.12
422.80	23171.30
422.99	23658.14
423.18	22719.58
423.37	22487.87
423.56	22455.10
423.75	22539.36
423.94	23183.01
424.13	22216.36
424.32	22092.32
424.50	22230.41
424.69	22150.83
424.88	22345.09
425.07	22125.08
425.26	21891.03
425.45	21902.73
425.64	21481.44
425.83	21458.03
426.01	22679.79
426.20	23161.94
426.39	23145.56
426.58	21741.24
426.77	19702.63
426.96	19328.14
427.15	19651.14
427.33	21135.04
427.52	22143.81
427.71	22279.56
427.90	22136.79
428.09	21799.75
428.28	21312.92
428.46	20631.82
428.65	20170.74
428.84	20680.97
429.03	21289.51
429.22	20098.18
429.40	18991.11
429.59	17511.89
429.78	15293.06
429.97	15307.10
430.16	15709.68
430.34	15557.54
430.53	15389.02
430.72	16037.35
430.91	17242.73
431.10	20510.11
431.28	24451.58
431.47	26288.90
431.66	26529.97
431.85	24318.17
432.03	22455.10
432.22	21214.62
432.41	22387.22
432.60	24549.88
432.79	26085.27
432.97	26281.88
433.16	25874.62
433.35	23524.72
433.54	20996.95
433.72	19793.91
433.91	20631.82
434.10	22792.14
434.28	24526.47
434.47	25539.93
434.66	25589.08
434.85	24634.14
435.03	24313.48
435.22	25085.86
435.41	26644.66
435.59	26342.73
435.78	26771.05
435.97	27964.72
436.16	27922.59
436.34	27765.78
436.53	26637.64
436.72	26883.39
436.90	25696.74
437.09	25619.50
437.28	24802.66
437.46	26033.78
437.65	26120.38
437.84	24561.58
438.02	22272.54
438.21	21771.66
438.40	23115.13
438.58	25539.93
438.77	25713.13
438.96	26082.93
439.14	27311.71
439.33	27733.01
439.52	28128.56
439.70	27665.13
439.89	26972.33
440.08	26361.45
440.26	26352.09
440.45	27136.17
440.63	28673.90
440.82	30326.32
441.01	29888.64
441.19	29937.79
441.38	29951.84
441.57	31126.78
441.75	31857.03
441.94	31955.33
442.12	31269.56
442.31	32294.71
442.50	31908.52
442.68	31716.60
442.87	31400.63
443.05	30871.67
443.24	31314.03
443.43	32243.22
443.61	32559.19
443.80	32912.61
443.98	31269.56
444.17	31126.78
444.35	32980.49
444.54	33305.82
444.73	33434.55
444.91	32058.32
445.10	30462.07
445.28	29273.08
445.47	28451.55
445.65	28994.56
445.84	29827.79
446.02	30742.94
446.21	31501.27
446.39	31243.81
446.58	31634.68
446.77	32259.60
446.95	32175.34
447.14	33525.83
447.32	33827.76
447.51	32959.42
447.69	32187.05
447.88	31442.76
448.06	31971.72
448.25	32507.70
448.43	32891.55
448.62	32488.98
448.80	32437.48
448.99	32720.69
449.17	32968.79
449.36	32900.91
449.54	33897.98
449.73	34167.14
449.91	34747.59
450.10	35903.82
450.28	35845.30
450.46	35945.95
450.65	36030.21
450.83	35878.07
451.02	34923.13
451.20	35328.05
451.39	34988.67
451.57	34611.84
451.76	34684.40
451.94	34560.35
452.13	34141.39
452.31	32109.81
452.49	30953.58
452.68	31234.45
452.86	31154.87
453.05	31725.96
453.23	32601.32
453.42	33230.93
453.60	34096.92
453.78	34684.40
453.97	33834.78
454.15	34174.16
454.34	33308.16
454.52	33364.34
454.70	33329.23
454.89	33373.70
455.07	33633.50
455.26	34017.35
455.44	34904.41
455.62	35878.07
455.81	35885.09
455.99	35826.58
456.17	35571.46
456.36	35199.32
456.54	36135.53
456.73	36156.60
456.91	36732.37
457.09	37078.77
457.28	37904.98
457.46	36381.29
457.64	35791.47
457.83	35072.93
458.01	34073.52
458.19	35138.46
458.38	35529.33
458.56	36404.69
458.74	36367.24
458.93	35838.28
459.11	35140.80
459.29	35201.66
459.48	35627.63
459.66	35262.51
459.84	35505.93
460.03	36168.30
460.21	36292.35
460.39	36769.82
460.57	36919.61
460.76	37741.14
460.94	37514.11
461.12	36896.20
461.31	37223.88
461.49	37277.71
461.67	37167.71
461.85	38480.75
462.04	37923.70
462.22	38288.82
462.40	37928.38
462.59	37769.22
462.77	37970.51
462.95	38106.26
463.13	37916.68
463.32	37177.07
463.50	37081.11
463.68	37071.75
463.86	37237.92
464.05	36552.15
464.23	35849.99
464.41	35931.90
464.59	35058.88
464.78	36912.59
464.96	36783.86
465.14	36154.26
465.32	37263.67
465.50	38192.86
465.69	38579.05
465.87	37638.15
466.05	36755.77
466.23	35093.99
466.41	34120.33
466.60	34862.28
466.78	35283.58
466.96	35924.88
467.14	36636.41
467.32	36924.29
467.51	36833.01
467.69	35115.06
467.87	36191.70
468.05	36854.08
468.23	36954.72
468.41	36797.90
468.60	36598.96
468.78	37511.77
468.96	36879.82
469.14	37179.41
469.32	37563.26
469.50	35817.22
469.69	36280.64
469.87	35894.46
470.05	35929.56
470.23	35709.55
470.41	35688.49
470.59	36638.75
470.77	36474.91
470.95	37333.89
471.14	37479.00
471.32	37722.41
471.50	39442.71
471.68	39779.74
471.86	40240.83
472.04	40282.96
472.22	40561.48
472.40	38340.32
472.58	38115.62
472.77	37479.00
472.95	38382.45
473.13	39477.82
473.31	38642.24
473.49	38616.50
473.67	39470.79
473.85	39587.82
474.03	40624.68
474.21	40561.48
474.39	41282.37
474.57	41366.63
474.75	41563.23
474.93	41282.37
475.12	39669.74
475.30	39997.41
475.48	40435.10
475.66	41127.89
475.84	40222.11
476.02	39866.34
476.20	39412.28
476.38	40247.85
476.56	41102.15
476.74	41982.19
476.92	42370.72
477.10	42962.87
477.28	43819.51
477.46	43803.13
477.64	44629.34
477.82	44797.85
478.00	44863.39
478.18	43672.06
478.36	44170.59
478.54	43777.38
478.72	44273.57
478.90	45038.93
479.08	46300.48
479.26	46878.59
479.44	46810.71
479.62	46291.12
479.80	46539.21
479.98	46415.16
480.16	46951.15
480.34	46148.34
480.52	46712.41
480.70	46749.86
480.88	46990.94
481.06	48102.69
481.24	47533.94
481.41	48568.46
481.59	49476.58
481.77	48830.60
481.95	48779.10
482.13	48362.49
482.31	48371.85
482.49	49092.74
482.67	49123.16
482.85	49174.66
483.03	49680.21
483.21	50096.83
483.39	50209.17
483.57	49771.49
483.74	49347.86
483.92	49701.28
484.10	49588.93
484.28	50232.58
484.46	50733.45
484.64	51061.13
484.82	50590.68
485.00	49530.42
485.18	49268.28
485.35	47856.93
485.53	45083.40
485.71	40708.94
485.89	40507.65
486.07	42211.56
486.25	45982.16
486.43	48161.20
486.61	49001.46
486.78	49181.68
486.96	48956.99
487.14	50621.11
487.32	51227.31
487.50	52165.86
487.68	52914.83
487.85	53495.28
488.03	53352.51
488.21	53099.73
488.39	52128.41
488.57	51873.29
488.75	51601.79
488.92	52657.37
489.10	54295.75
489.28	55536.23
489.46	56233.71
489.64	56144.77
489.81	56346.06
489.99	55590.06
490.17	56065.19
490.35	56282.86
490.53	55842.84
490.70	55468.36
490.88	55299.84
491.06	56196.26
491.24	56083.92
491.41	55578.36
491.59	53928.28
491.77	52924.19
491.95	54129.57
492.13	55253.03
492.30	56154.13
492.48	57062.26
492.66	57525.69
492.84	57577.18
493.01	57212.06
493.19	56961.62
493.37	56598.83
493.54	56385.85
493.72	56952.26
493.90	57724.63
494.08	58548.50
494.25	58745.11
494.43	58869.15
494.61	59065.76
494.79	59248.32
494.96	59110.23
495.14	58548.50
495.32	57593.56
495.49	56898.42
495.67	57975.07
495.85	59260.02
496.02	59421.52
496.20	59693.02
496.38	59100.87
496.55	58913.62
496.73	59526.84
496.91	59458.97
497.09	59987.93
497.26	60292.20
497.44	59657.91
497.62	59440.24
497.79	58543.82
497.97	57633.35
498.14	57399.30
498.32	58422.11
498.50	59512.80
498.67	59945.80
498.85	59739.83
499.03	59845.16
499.20	60025.38
499.38	60224.32
499.56	59971.55
499.73	59697.70
499.91	59135.98
500.08	58667.87
500.26	57918.90
500.44	58581.27
500.61	59154.70
500.79	58993.20
500.97	58810.64
501.14	58817.66
501.32	58576.59
501.49	58569.57
501.67	58518.07
501.84	58922.99
502.02	59348.96
502.20	59583.02
502.37	59842.82
502.55	59901.33
502.72	60205.60
502.90	60706.47
503.07	60360.08
503.25	60044.10
503.43	59400.46
503.60	58822.34
503.78	58164.65
503.95	58693.61
504.13	59833.46
504.30	60535.62
504.48	60261.77
504.65	60097.94
504.83	60051.12
505.01	60533.28
505.18	60945.21
505.36	61504.60
505.53	61420.34
505.71	61825.25
505.88	61675.46
506.06	61062.24
506.23	60994.36
506.41	60343.69
506.58	60933.51
506.76	60793.07
506.93	60662.00
507.11	60434.97
507.28	60830.52
507.46	60303.90
507.63	59711.75
507.81	59662.60
507.98	59824.09
508.16	60329.65
508.33	60963.93
508.50	61151.18
508.68	61457.79
508.85	61876.74
509.03	61958.66
509.20	61815.89
509.38	61127.77
509.55	60313.26
509.73	60498.17
509.90	61057.56
510.08	61345.44
510.25	61200.33
510.42	60996.70
510.60	60753.29
510.77	61127.77
510.95	61635.67
511.12	61755.03
511.30	62054.62
511.47	62335.49
511.64	62354.21
511.82	62040.58
511.99	61202.67
512.17	60816.48
512.34	60406.89
512.51	60844.57
512.69	60849.25
512.86	61024.79
513.04	61233.10
513.21	61268.20
513.38	60977.98
513.56	60566.04
513.73	59805.37
513.90	60182.19
514.08	60182.19
514.25	60397.52
514.43	60711.16
514.60	60647.96
514.77	60999.04
514.95	61048.19
515.12	60842.23
515.29	61120.75
515.47	61525.66
515.64	61675.46
515.81	61415.66
515.99	60846.91
516.16	59671.96
516.33	57736.34
516.51	56133.07
516.68	55634.53
516.85	55150.04
517.03	55302.18
517.20	57602.92
517.37	59880.27
517.54	60746.26
517.72	60837.54
517.89	58429.13
518.06	56128.39
518.24	56350.74
518.41	58494.67
518.58	59730.47
518.75	59859.20
518.93	60083.89
519.10	59920.05
519.27	60437.31
519.45	60465.40
519.62	61228.41
519.79	61403.95
519.96	61504.60
520.14	60851.59
520.31	60147.09
520.48	59994.95
520.65	60423.27
520.83	61293.95
521.00	61731.63
521.17	61439.06
521.34	61097.34
521.52	61378.21
521.69	61808.87
521.86	62166.97
522.03	61862.70
522.20	60704.13
522.38	59929.42
522.55	59718.77
522.72	60388.16
522.89	60587.11
523.07	60708.82
523.24	60942.87
523.41	61843.98
523.58	62103.77
523.75	62515.71
523.92	62309.74
524.10	62216.12
524.27	62260.59
524.44	62087.39
524.61	61918.87
524.78	61731.63
524.96	61740.99
525.13	61773.76
525.30	61944.62
525.47	62316.76
525.64	62398.68
525.81	61764.40
525.98	60397.52
526.16	58829.37
526.33	58457.22
526.50	58150.61
526.67	57858.04
526.84	58312.11
527.01	59171.08
527.18	60027.72
527.36	60608.17
527.53	61483.53
527.70	61797.16
527.87	61340.76
528.04	60884.36
528.21	61226.07
528.38	61736.31
528.55	62511.03
528.72	62651.46
528.89	62859.77
529.07	62475.92
529.24	62056.96
529.41	61539.71
529.58	60769.67
529.75	60802.44
529.92	61408.64
530.09	61755.03
530.26	62192.72
530.43	62443.15
530.60	62363.57
530.77	62761.47
530.94	62773.17
531.11	62363.57
531.28	62071.01
531.46	61797.16
531.63	61935.26
531.80	61843.98
531.97	61516.30
532.14	60793.07
532.31	59915.37
532.48	59323.22
532.65	59344.28
532.82	60093.25
532.99	61085.64
533.16	61270.54
533.33	61977.39
533.50	61827.59
533.67	61043.51
533.84	60640.94
534.01	60992.02
534.18	61200.33
534.35	61357.14
534.52	61038.83
534.69	61471.83
534.86	61909.51
535.03	61904.83
535.20	62389.32
535.37	62787.21
535.54	62688.91
535.71	62576.56
535.88	62103.77
536.05	61630.99
536.22	61123.09
536.38	60931.17
536.55	60591.79
536.72	59896.65
536.89	59910.69
537.06	60664.35
537.23	61478.85
537.40	61581.84
537.57	61645.03
537.74	61403.95
537.91	61535.02
538.08	61326.72
538.25	61422.68
538.42	61478.85
538.59	61481.19
538.75	60811.80
538.92	60612.85
539.09	60605.83
539.26	60322.63
539.43	60296.88
539.60	60390.50
539.77	60446.68
539.94	60423.27
540.11	59536.21
540.28	59285.77
540.44	59405.14
540.61	59508.12
540.78	59767.92
540.95	60074.53
541.12	60418.59
541.29	60741.58
541.46	60970.96
541.62	60980.32
541.79	60779.03
541.96	60453.70
542.13	60168.15
542.30	60406.89
542.47	60671.37
542.63	60484.12
542.80	60418.59
542.97	60463.06
543.14	60027.72
543.31	60182.19
543.48	60575.40
543.64	61474.17
543.81	61923.55
543.98	61544.39
544.15	60905.42
544.32	60360.08
544.48	60381.14
544.65	60774.35
544.82	61319.70
544.99	60865.63
545.16	60610.51
545.32	60498.17
545.49	61001.38
545.66	61373.53
545.83	61120.75
546.00	60786.05
546.16	60444.33
546.33	60500.51
546.50	60523.91
546.67	60795.42
546.83	60420.93
547.00	60713.50
547.17	60055.81
547.34	59341.94
547.50	59428.54
547.67	59788.98
547.84	59948.14
548.00	60119.00
548.17	60535.62
548.34	60713.50
548.51	60594.13
548.67	60676.05
548.84	60715.84
549.01	60528.59
549.18	60640.94
549.34	60374.12
549.51	60416.25
549.68	60238.37
549.84	60137.72
550.01	60093.25
550.18	59931.76
550.34	59955.16
550.51	60114.32
550.68	60114.32
550.84	59756.22
551.01	59686.00
551.18	59758.56
551.34	59898.99
551.51	60175.17
551.68	60533.28
551.84	60573.06
552.01	60654.98
552.18	60439.65
552.34	59526.84
552.51	59269.39
552.68	59032.99
552.84	59597.06
553.01	59924.74
553.18	59936.44
553.34	59859.20
553.51	59824.09
553.67	60313.26
553.84	60273.48
554.01	60348.37
554.17	60023.04
554.34	60034.74
554.51	60142.41
554.67	60420.93
554.84	60245.39
555.00	60032.40
555.17	59805.37
555.33	59777.28
555.50	59770.26
555.67	60025.38
555.83	59583.02
556.00	59529.19
556.16	59269.39
556.33	58969.80
556.50	58815.32
556.66	58944.05
556.83	58738.08
556.99	58742.77
557.16	58988.52
557.32	59370.03
557.49	59358.33
557.65	59353.65
557.82	59325.56
557.98	58988.52
558.15	58843.41
558.32	57893.15
558.48	57090.35
558.65	57485.90
558.81	57612.29
558.98	57879.11
559.14	58101.46
559.31	58265.30
559.47	58293.38
559.64	57961.03
559.80	57420.36
559.97	57425.04
560.13	58166.99
560.30	59128.95
560.46	59585.36
560.63	59519.82
560.79	59564.29
560.96	59311.52
561.12	58134.23
561.29	57289.29
561.45	57539.73
561.61	57939.96
561.78	58375.30
561.94	58382.32
562.11	58122.52
562.27	58012.52
562.44	58326.15
562.60	58635.10
562.77	58712.34
562.93	58623.40
563.10	58848.09
563.26	57954.00
563.42	58026.56
563.59	57745.70
563.75	57956.35
563.92	57846.34
564.08	57996.13
564.24	58195.08
564.41	58319.13
564.57	58188.06
564.74	58075.71
564.90	57848.68
565.07	57659.10
565.23	57408.66
565.39	56966.30
565.56	56615.22
565.72	56451.38
565.88	56603.52
566.05	57006.09
566.21	57202.69
566.38	57265.89
566.54	57535.05
566.70	57546.75
566.87	57773.78
567.03	57876.77
567.19	57958.69
567.36	57869.75
567.52	57750.38
567.68	57469.51
567.85	56947.57
568.01	56673.73
568.17	56271.16
568.34	56289.88
568.50	56222.01
568.66	56406.91
568.83	56699.48
568.99	56772.03
569.15	56828.21
569.32	57073.96
569.48	56732.25
569.64	56449.04
569.81	56292.22
569.97	56144.77
570.13	56062.85
570.30	55814.76
570.46	55358.35
570.62	54740.45
570.78	54740.45
570.95	55168.77
571.11	55636.87
571.27	55835.82
571.43	55894.33
571.60	56353.08
571.76	56238.39
571.92	56638.62
572.09	56685.43
572.25	56807.14
572.41	56636.28
572.57	56439.68
572.74	56655.01
572.90	56163.50
573.06	56137.75
573.22	56278.18
573.38	56310.95
573.55	56067.53
573.71	56388.19
573.87	56392.87
574.03	55999.66
574.20	56046.47
574.36	55683.69
574.52	55763.26
574.68	55887.31
574.84	55262.39
575.01	54703.00
575.17	54735.77
575.33	54871.52
575.49	55318.56
575.65	55234.30
575.82	55061.10
575.98	54782.58
576.14	55054.08
576.30	55341.97
576.46	55384.10
576.62	55356.01
576.79	55264.73
576.95	55117.28
577.11	55150.04
577.27	54967.48
577.43	55206.22
577.59	54951.10
577.75	54787.26
577.92	54019.56
578.08	53712.95
578.24	53902.54
578.40	54361.28
578.56	54698.32
578.72	54394.05
578.88	54611.72
579.04	54824.71
579.21	54803.64
579.37	54777.90
579.53	54990.89
579.69	54703.00
579.85	55089.19
580.01	54901.95
580.17	54672.57
580.33	54534.48
580.49	54412.77
580.65	54511.08
580.82	54726.41
580.98	54869.18
581.14	54560.23
581.30	54798.96
581.46	54789.60
581.62	54628.10
581.78	54962.80
581.94	55007.27
582.10	54820.03
582.26	55014.29
582.42	54913.65
582.58	55182.81
582.74	54967.48
582.90	55166.43
583.06	55065.78
583.22	54667.89
583.38	54733.43
583.54	54372.99
583.70	54527.46
583.86	54618.74
584.02	54485.33
584.18	54485.33
584.34	54623.42
584.50	54326.17
584.66	54026.59
584.82	53972.75
584.98	53556.14
585.14	53521.03
