SpectraSuite Data File
++++++++++++++++++++++++++++++++++++
Date: Mon Oct 07 14:52:59 GMT-05:00 2013
User: price-jones
Dark Spectrum Present: No
Reference Spectrum Present: No
Number of Sampled Component Spectra: 1
Spectrometers: USB2+H05261
Integration Time (usec): 100000 (USB2+H05261)
Spectra Averaged: 1 (USB2+H05261)
Boxcar Smoothing: 0 (USB2+H05261)
Correct for Electrical Dark: No (USB2+H05261)
Strobe/Lamp Enabled: No (USB2+H05261)
Correct for Detector Non-linearity: No (USB2+H05261)
Correct for Stray Light: No (USB2+H05261)
Number of Pixels in Processed Spectrum: 2048
>>>>>Begin Processed Spectral Data<<<<<
365.73	0.00
365.92	0.00
366.12	0.00
366.32	0.00
366.52	0.00
366.72	0.00
366.91	0.00
367.11	0.00
367.31	0.00
367.51	0.00
367.70	0.00
367.90	0.00
368.10	0.00
368.30	0.00
368.49	0.00
368.69	0.00
368.89	0.00
369.09	0.00
369.28	0.00
369.48	0.00
369.68	0.00
369.87	0.00
370.07	0.00
370.27	0.00
370.47	547.69
370.66	2942.05
370.86	3463.99
371.06	3625.49
371.25	3665.28
371.45	3318.88
371.65	2991.20
371.84	2782.90
372.04	2977.16
372.24	3332.92
372.44	3478.04
372.63	3456.97
372.83	3215.90
373.03	2715.02
373.22	2670.55
373.42	2649.49
373.62	3141.00
373.81	3386.76
374.01	3543.57
374.21	3073.12
374.40	2904.60
374.60	3059.08
374.79	3485.06
374.99	3941.46
375.19	4180.20
375.38	4271.48
375.58	3932.10
375.78	3775.28
375.97	3892.31
376.17	4201.26
376.37	4046.79
376.56	4292.54
376.76	4507.87
376.95	4833.21
377.15	5128.11
377.35	5097.69
377.54	5448.77
377.74	5563.45
377.93	5671.12
378.13	5533.03
378.33	5090.67
378.52	4622.56
378.72	4643.62
378.91	4493.83
379.11	4444.68
379.31	4245.73
379.50	4315.95
379.70	4718.52
379.89	4997.04
380.09	5345.78
380.28	5537.71
380.48	5357.49
380.68	5427.70
380.87	5109.39
381.07	4882.36
381.26	4306.59
381.46	4252.75
381.65	4131.05
381.85	4044.45
382.04	3775.28
382.24	3672.30
382.43	3379.73
382.63	3300.16
382.83	3393.78
383.02	3445.27
383.22	3302.50
383.41	3267.39
383.61	3705.07
383.80	4088.92
384.00	4596.81
384.19	5289.61
384.39	5451.11
384.58	5469.83
384.78	5294.29
384.97	5219.39
385.17	5085.98
385.36	4912.78
385.56	4648.30
385.75	4774.69
385.95	5198.33
386.14	5636.01
386.34	5521.32
386.53	5341.10
386.72	5006.41
386.92	5205.35
387.11	5362.17
387.31	5577.50
387.50	5549.41
387.70	5188.97
387.89	5198.33
388.09	5348.12
388.28	5420.68
388.48	5593.88
388.67	5982.41
388.86	6427.11
389.06	6899.90
389.25	7260.34
389.45	7382.05
389.64	7344.60
389.84	7290.77
390.03	7152.68
390.22	7112.89
390.42	7463.97
390.61	7801.01
390.81	8461.04
391.00	8437.63
391.19	8379.12
391.39	8159.11
391.58	7602.06
391.78	7164.38
391.97	6981.82
392.16	6485.62
392.36	5844.32
392.55	4685.75
392.75	3777.62
392.94	3075.46
393.13	3042.70
393.33	3747.20
393.52	4695.11
393.71	5781.12
393.91	6427.11
394.10	6923.30
394.29	7606.74
394.49	8236.35
394.68	8842.54
394.88	8840.20
395.07	9231.07
395.26	8985.32
395.46	8823.82
395.65	8334.65
395.84	7358.64
396.04	6167.31
396.23	5097.69
396.42	4161.47
396.62	4063.17
396.81	4772.35
397.00	6019.86
397.19	7789.30
397.39	9078.94
397.58	9926.21
397.77	10675.18
397.97	11066.05
398.16	11225.21
398.35	11627.78
398.55	12004.61
398.74	12430.59
398.93	12568.68
399.12	12575.70
399.32	12229.30
399.51	12241.00
399.70	13107.00
399.90	13200.62
400.09	13116.36
400.28	12835.50
400.47	12973.59
400.67	13703.84
400.86	14178.97
401.05	14012.79
401.24	14108.75
401.44	14286.63
401.63	14368.55
401.82	14211.73
402.01	14256.20
402.21	14441.11
402.40	14626.01
402.59	14080.66
402.78	13565.74
402.97	13252.11
403.17	13748.31
403.36	14593.24
403.55	14986.45
403.74	15407.75
403.93	14651.75
404.13	13319.99
404.32	13247.43
404.51	13862.99
404.70	15124.54
404.89	14834.32
405.09	14450.47
405.28	14047.90
405.47	14532.39
405.66	14115.77
405.85	13820.86
406.05	13635.96
406.24	13741.29
406.43	14363.87
406.62	14785.16
406.81	15002.83
407.00	14122.79
407.20	14097.05
407.39	14078.32
407.58	14698.56
407.77	15403.07
407.96	15976.50
408.15	16290.13
408.34	16013.95
408.54	16844.84
408.73	17137.40
408.92	16788.66
409.11	16336.94
409.30	15356.25
409.49	14303.01
409.68	13612.56
409.87	13331.69
410.07	14085.34
410.26	15279.02
410.45	16023.31
410.64	16250.34
410.83	16879.94
411.02	17081.23
411.21	17855.95
411.40	17748.28
411.59	17596.15
411.78	17759.98
411.98	17764.67
412.17	17664.02
412.36	17422.95
412.55	17493.16
412.74	17167.83
412.93	16966.54
413.12	16816.75
413.31	18644.71
413.50	18405.97
413.69	18995.79
413.88	18389.59
414.07	17790.41
414.26	18211.71
414.45	18499.59
414.64	18651.73
414.83	18764.07
415.02	18352.14
415.22	18429.38
415.41	18759.39
415.60	19674.54
415.79	20264.36
415.98	20624.80
416.17	20446.92
416.36	20147.33
416.55	19915.62
416.74	19138.56
416.93	18415.34
417.12	18892.80
417.31	18703.22
417.50	19197.07
417.69	19974.13
417.88	19482.62
418.07	19489.64
418.26	19283.67
418.45	19431.13
418.64	19929.66
418.83	20706.72
419.02	20421.17
419.21	20290.10
419.39	19831.36
419.58	18328.74
419.77	18628.32
419.96	19452.19
420.15	20493.73
420.34	21310.58
420.53	21741.24
420.72	22223.39
420.91	22031.46
421.10	21755.28
421.29	21862.94
421.48	20786.30
421.67	22080.61
421.86	21376.11
422.05	20086.48
422.24	17659.34
422.43	17736.58
422.61	19496.66
422.80	20732.47
422.99	21076.52
423.18	20467.98
423.37	20042.01
423.56	19971.79
423.75	20379.04
423.94	20898.64
424.13	19531.77
424.32	19651.14
424.50	19812.63
424.69	19721.35
424.88	19903.92
425.07	19793.91
425.26	19733.06
425.45	19531.77
425.64	19014.51
425.83	18911.53
426.01	20348.62
426.20	20739.49
426.39	20327.55
426.58	19112.81
426.77	17909.78
426.96	17245.07
427.15	17865.31
427.33	19295.38
427.52	19943.70
427.71	19978.81
427.90	19681.56
428.09	19454.53
428.28	19147.92
428.46	18548.75
428.65	17944.89
428.84	18953.66
429.03	19180.69
429.22	18029.15
429.40	17158.47
429.59	15349.23
429.78	13558.72
429.97	14059.60
430.16	13907.46
430.34	13825.54
430.53	13717.88
430.72	14108.75
430.91	16013.95
431.10	19073.03
431.28	21546.97
431.47	23838.36
431.66	23583.24
431.85	21284.83
432.03	19868.81
432.22	19138.56
432.41	20034.99
432.60	22178.92
432.79	23016.83
432.97	23941.34
433.16	23016.83
433.35	20847.15
433.54	18960.68
433.72	17820.84
433.91	18317.03
434.10	20587.35
434.28	22017.42
434.47	23096.41
434.66	22522.98
434.85	22174.24
435.03	22197.64
435.22	22747.67
435.41	24013.90
435.59	23695.58
435.78	24409.45
435.97	25053.09
436.16	25053.09
436.34	24706.70
436.53	24252.63
436.72	24233.91
436.90	22848.31
437.09	22988.74
437.28	22494.89
437.46	23112.79
437.65	22998.10
437.84	21846.56
438.02	20044.35
438.21	19768.16
438.40	21008.65
438.58	22703.20
438.77	23168.96
438.96	23566.85
439.14	24582.65
439.33	24851.81
439.52	25130.33
439.70	24772.23
439.89	24283.06
440.08	23810.27
440.26	23770.48
440.45	24517.11
440.63	25956.54
440.82	27508.32
441.01	26932.54
441.19	26766.37
441.38	27398.31
441.57	28121.54
441.75	28547.51
441.94	28830.72
442.12	28367.29
442.31	29170.10
442.50	28987.53
442.68	28734.76
442.87	28196.43
443.05	27852.38
443.24	28273.67
443.43	28769.86
443.61	29221.59
443.80	29589.05
443.98	28201.11
444.17	27915.57
444.35	29549.26
444.54	30003.33
444.73	29727.14
444.91	28617.73
445.10	27026.17
445.28	26265.49
445.47	26101.65
445.65	26253.79
445.84	26991.06
446.02	27924.93
446.21	28786.25
446.39	28060.68
446.58	28772.21
446.77	29333.93
446.95	29446.28
447.14	30424.62
447.32	30630.59
447.51	29886.30
447.69	29057.75
447.88	28713.69
448.06	29202.86
448.25	29546.92
448.43	29881.62
448.62	28905.62
448.80	29338.62
448.99	29006.26
449.17	29572.67
449.36	29876.94
449.54	30693.79
449.73	31325.73
449.91	31772.77
450.10	32439.82
450.28	32748.78
450.46	32521.74
450.65	32552.17
450.83	32737.07
451.02	31618.30
451.20	31566.81
451.39	31768.09
451.57	31297.64
451.76	31147.85
451.94	30719.53
452.13	30803.79
452.31	29106.90
452.49	27590.24
452.68	28608.37
452.86	28472.62
453.05	28582.62
453.23	29633.52
453.42	30281.85
453.60	30930.18
453.78	31182.96
453.97	31026.14
454.15	31044.87
454.34	30363.77
454.52	30579.10
454.70	29876.94
454.89	30087.59
455.07	30192.91
455.26	31117.42
455.44	31992.78
455.62	32837.72
455.81	32561.53
455.99	32198.75
456.17	31999.80
456.36	32222.16
456.54	33144.33
456.73	32835.38
456.91	33464.98
457.09	33792.65
457.28	34581.42
457.46	32725.37
457.64	32856.44
457.83	31683.83
458.01	30876.35
458.19	31751.71
458.38	32247.90
458.56	33345.61
458.74	33123.26
458.93	32510.04
459.11	32510.04
459.29	32018.53
459.48	32119.17
459.66	31894.48
459.84	32402.38
460.03	32973.47
460.21	32737.07
460.39	33724.78
460.57	33797.34
460.76	34260.76
460.94	34384.81
461.12	33586.69
461.31	33827.76
461.49	33684.99
461.67	33806.70
461.85	34747.59
462.04	34209.27
462.22	35353.79
462.40	34527.58
462.59	34834.19
462.77	34763.98
462.95	34700.78
463.13	34192.89
463.32	33813.72
463.50	33528.17
463.68	33900.32
463.86	33680.31
464.05	33132.62
464.23	32905.59
464.41	32657.49
464.59	32308.76
464.78	33755.21
464.96	33783.29
465.14	33287.10
465.32	34096.92
465.50	34897.39
465.69	35285.92
465.87	34244.38
466.05	33556.26
466.23	31728.30
466.41	31367.86
466.60	32275.99
466.78	32161.30
466.96	32802.61
467.14	33420.51
467.32	34003.30
467.51	34127.35
467.69	32327.48
467.87	32978.15
468.05	33614.77
468.23	33387.74
468.41	33537.54
468.60	33680.31
468.78	34015.01
468.96	33759.89
469.14	34569.71
469.32	34256.08
469.50	32687.92
469.69	33212.20
469.87	32664.52
470.05	32617.71
470.23	32690.26
470.41	32994.53
470.59	33404.13
470.77	33331.57
470.95	34036.07
471.14	34160.12
471.32	34518.22
471.50	36229.15
471.68	36458.52
471.86	36964.08
472.04	37090.47
472.22	36856.42
472.40	35372.52
472.58	34817.81
472.77	34806.11
472.95	35428.69
473.13	36460.87
473.31	35271.87
473.49	35335.07
473.67	36280.64
473.85	35915.52
474.03	37394.74
474.21	37577.30
474.39	37834.76
474.57	37806.67
474.75	38040.73
474.93	37284.73
475.12	36893.86
475.30	36692.58
475.48	36879.82
475.66	37780.93
475.84	37067.06
476.02	36624.70
476.20	36458.52
476.38	36914.93
476.56	38307.55
476.74	38644.59
476.92	38625.86
477.10	39445.05
477.28	40229.13
477.46	40226.79
477.64	40678.51
477.82	41113.85
478.00	41041.29
478.18	40732.34
478.36	40112.10
478.54	40676.17
478.72	40589.57
478.90	41511.74
479.08	42733.50
479.26	43360.76
479.44	43115.01
479.62	42782.65
479.80	42773.29
479.98	43379.49
480.16	42995.64
480.34	42667.97
480.52	43522.26
480.70	43714.19
480.88	44191.65
481.06	44294.64
481.24	44882.11
481.41	45858.12
481.59	46307.50
481.77	45628.74
481.95	45202.77
482.13	44737.00
482.31	44926.58
482.49	45656.83
482.67	45801.94
482.85	45977.48
483.03	46590.70
483.21	46981.57
483.39	46859.87
483.57	45991.53
483.74	45993.87
483.92	46354.31
484.10	46375.37
484.28	47360.74
484.46	47538.62
484.64	48339.08
484.82	47349.04
485.00	46930.08
485.18	45825.35
485.35	44598.91
485.53	41113.85
485.71	37415.80
485.89	37460.27
486.07	39475.48
486.25	42532.22
486.43	45144.25
486.61	45942.38
486.78	45713.00
486.96	45883.86
487.14	47688.42
487.32	48676.12
487.50	49476.58
487.68	50536.85
487.85	50878.57
488.03	50534.51
488.21	50391.73
488.39	49539.78
488.57	48952.30
488.75	49085.72
488.92	50080.44
489.10	52018.41
489.28	53591.25
489.46	53989.14
489.64	53546.78
489.81	53628.69
489.99	53305.70
490.17	53790.19
490.35	54045.31
490.53	53432.09
490.70	53167.61
490.88	53102.07
491.06	53942.33
491.24	53979.78
491.41	52638.65
491.59	51505.83
491.77	50721.75
491.95	51894.36
492.13	52795.46
492.30	54094.46
492.48	55004.93
492.66	55407.50
492.84	55358.35
493.01	55217.92
493.19	54475.97
493.37	54281.70
493.54	53811.26
493.72	54635.13
493.90	55779.65
494.08	56212.65
494.25	56671.39
494.43	56687.78
494.61	57368.87
494.79	57256.53
494.96	57303.34
495.14	56439.68
495.32	55496.44
495.49	54813.01
495.67	56306.27
495.85	57336.10
496.02	57661.44
496.20	57298.65
496.38	56982.68
496.55	56947.57
496.73	57509.30
496.91	57427.38
497.09	58017.20
497.26	58529.78
497.44	57509.30
497.62	57172.27
497.79	56374.14
497.97	55276.43
498.14	55774.97
498.32	56500.53
498.50	57429.72
498.67	58049.97
498.85	58056.99
499.03	57928.26
499.20	58108.48
499.38	58368.28
499.56	58164.65
499.73	57675.48
499.91	57207.37
500.08	56835.23
500.26	56250.09
500.44	56734.59
500.61	57207.37
500.79	57085.67
500.97	56797.78
501.14	56638.62
501.32	56371.80
501.49	56484.15
501.67	56818.84
501.84	57181.63
502.02	57579.52
502.20	57806.55
502.37	58028.90
502.55	58087.42
502.72	58520.41
502.90	58742.77
503.07	58630.42
503.25	58218.49
503.43	57235.46
503.60	56704.16
503.78	55976.25
503.95	56697.14
504.13	57944.64
504.30	58831.71
504.48	58611.70
504.65	58333.17
504.83	58337.85
505.01	59004.91
505.18	59339.60
505.36	59777.28
505.53	59798.35
505.71	60079.21
505.88	60041.76
506.06	59306.83
506.23	59114.91
506.41	58663.19
506.58	59157.04
506.76	58894.90
506.93	58960.44
507.11	58714.68
507.28	59159.38
507.46	58223.17
507.63	57750.38
507.81	57633.35
507.98	58066.35
508.16	58780.21
508.33	59152.36
508.50	59267.05
508.68	59758.56
508.85	60046.44
509.03	60137.72
509.20	59826.43
509.38	59430.88
509.55	58665.53
509.73	58773.19
509.90	59341.94
510.08	59566.63
510.25	59274.07
510.42	59267.05
510.60	59175.76
510.77	59412.16
510.95	60016.02
511.12	59999.63
511.30	60357.74
511.47	60521.57
511.64	60519.23
511.82	60151.77
511.99	59358.33
512.17	59068.10
512.34	58747.45
512.51	58843.41
512.69	59089.16
512.86	59133.63
513.04	59561.95
513.21	59592.38
513.38	59199.17
513.56	58693.61
513.73	58305.09
513.90	58401.05
514.08	58471.26
514.25	58913.62
514.43	58901.92
514.60	59032.99
514.77	59203.85
514.95	59316.20
515.12	59150.02
515.29	59433.22
515.47	59791.33
515.64	60163.47
515.81	59554.93
515.99	59178.10
516.16	57492.92
516.33	55458.99
516.51	54387.03
516.68	53298.68
516.85	52996.75
517.03	53715.29
517.20	56360.10
517.37	58492.33
517.54	59372.37
517.72	58747.45
517.89	56130.73
518.06	54183.40
518.24	54850.45
518.41	56804.80
518.58	57804.21
518.75	58232.53
518.93	58272.32
519.10	58197.42
519.27	58782.55
519.45	59018.95
519.62	59529.19
519.79	59882.61
519.96	59597.06
520.14	59210.87
520.31	58365.94
520.48	58546.16
520.65	58820.00
520.83	59583.02
521.00	60041.76
521.17	59643.87
521.34	59281.09
521.52	59826.43
521.69	60004.31
521.86	60610.51
522.03	60076.87
522.20	58822.34
522.38	58019.54
522.55	58426.79
522.72	58756.81
522.89	58848.09
523.07	59189.81
523.24	59318.54
523.41	60161.13
523.58	60406.89
523.75	60720.52
523.92	60874.99
524.10	60622.22
524.27	60631.58
524.44	60481.78
524.61	60168.15
524.78	60196.24
524.96	60058.15
525.13	60334.33
525.30	60420.93
525.47	60949.89
525.64	60804.78
525.81	60046.44
525.98	58539.14
526.16	57195.67
526.33	56432.66
526.50	56301.59
526.67	56128.39
526.84	56713.52
527.01	57659.10
527.18	58408.07
527.36	59250.66
527.53	59992.61
527.70	60280.50
527.87	59697.70
528.04	59412.16
528.21	59826.43
528.38	60404.55
528.55	61022.45
528.72	61235.44
528.89	61352.46
529.07	60977.98
529.24	60280.50
529.41	59877.93
529.58	59337.26
529.75	59494.08
529.92	59840.48
530.09	60219.64
530.26	60472.42
530.43	60896.06
530.60	60931.17
530.77	61134.79
530.94	61333.74
531.11	60949.89
531.28	60612.85
531.46	60294.54
531.63	60580.09
531.80	60142.41
531.97	59873.24
532.14	59171.08
532.31	58251.25
532.48	57640.37
532.65	57682.50
532.82	58824.68
532.99	59632.17
533.16	59810.05
533.33	60591.79
533.50	60271.14
533.67	59711.75
533.84	59585.36
534.01	59465.99
534.18	59489.40
534.35	59791.33
534.52	59608.76
534.69	60004.31
534.86	60044.10
535.03	60537.96
535.20	60891.38
535.37	61247.14
535.54	61275.22
535.71	60940.53
535.88	60472.42
536.05	59884.95
536.22	59812.39
536.38	59377.05
536.55	58843.41
536.72	58253.59
536.89	58398.71
537.06	59229.60
537.23	59955.16
537.40	60182.19
537.57	60346.03
537.74	59936.44
537.91	59908.35
538.08	59992.61
538.25	60065.17
538.42	60095.60
538.59	59882.61
538.75	59348.96
538.92	59105.55
539.09	59086.82
539.26	58965.12
539.43	58843.41
539.60	58721.70
539.77	59023.63
539.94	58866.81
540.11	57972.73
540.28	57696.55
540.44	57787.83
540.61	57820.59
540.78	58185.72
540.95	58618.72
541.12	58946.39
541.29	59290.45
541.46	59810.05
541.62	59480.03
541.79	59257.68
541.96	58796.60
542.13	58855.11
542.30	59302.15
542.47	59030.65
542.63	58796.60
542.80	58775.53
542.97	58953.41
543.14	58782.55
543.31	59018.95
543.48	59473.01
543.64	60135.38
543.81	60561.36
543.98	60097.94
544.15	59707.07
544.32	58946.39
544.48	59269.39
544.65	59650.89
544.82	59707.07
544.99	59508.12
545.16	59173.42
545.32	59014.27
545.49	59746.86
545.66	60282.84
545.83	59480.03
546.00	59419.18
546.16	58941.71
546.33	59185.13
546.50	59196.83
546.67	59529.19
546.83	59098.53
547.00	59025.97
547.17	58361.26
547.34	57932.94
547.50	57836.98
547.67	58398.71
547.84	58468.92
548.00	58983.84
548.17	59414.50
548.34	59217.89
548.51	59208.53
548.67	59014.27
548.84	58953.41
549.01	59128.95
549.18	59082.14
549.34	59035.33
549.51	59157.04
549.68	59105.55
549.84	58712.34
550.01	58742.77
550.18	58590.63
550.34	58714.68
550.51	58651.48
550.68	58932.35
550.84	58117.84
551.01	58511.05
551.18	58234.87
551.34	58522.76
551.51	58986.18
551.68	59086.82
551.84	59344.28
552.01	59063.42
552.18	58831.71
552.34	58117.84
552.51	57769.10
552.68	57949.32
552.84	58286.36
553.01	58508.71
553.18	58344.87
553.34	58150.61
553.51	58611.70
553.67	58993.20
553.84	58967.46
554.01	58815.32
554.17	58562.54
554.34	58824.68
554.51	58915.96
554.67	59171.08
554.84	59093.85
555.00	58707.66
555.17	58417.43
555.33	58365.94
555.50	58286.36
555.67	58525.10
555.83	58220.83
556.00	57923.58
556.16	58089.76
556.33	57586.54
556.50	57544.41
556.66	57832.30
556.83	57308.02
556.99	57616.97
557.16	57535.05
557.32	57785.49
557.49	58080.39
557.65	57930.60
557.82	57895.49
557.98	57975.07
558.15	57251.84
558.32	56523.94
558.48	55828.80
558.65	56222.01
558.81	56336.69
558.98	56537.98
559.14	56828.21
559.31	57020.13
559.47	56910.13
559.64	56650.33
559.80	56364.78
559.97	56479.47
560.13	56767.35
560.30	57631.01
560.46	57963.37
560.63	58475.94
560.79	58450.20
560.96	57792.51
561.12	56676.07
561.29	56294.56
561.45	56292.22
561.61	56846.93
561.78	57202.69
561.94	56992.04
562.11	57022.47
562.27	56725.22
562.44	57062.26
562.60	57373.55
562.77	57546.75
562.93	57539.73
563.10	57343.12
563.26	56963.96
563.42	56980.34
563.59	56800.12
563.75	56619.90
563.92	56821.19
564.08	56882.04
564.24	57008.43
564.41	56896.08
564.57	56933.53
564.74	56896.08
564.90	56722.88
565.07	56519.26
565.23	55973.91
565.39	55545.59
565.56	55552.62
565.72	55365.37
565.88	55676.66
566.05	55547.93
566.21	56039.45
566.38	56130.73
566.54	56217.33
566.70	56392.87
566.87	56662.03
567.03	56580.11
567.19	56952.26
567.36	56474.79
567.52	56427.98
567.68	56238.39
567.85	55524.53
568.01	55264.73
568.17	54920.67
568.34	54894.92
568.50	54859.82
568.66	55051.74
568.83	55550.27
568.99	55482.40
569.15	55611.13
569.32	55679.00
569.48	55334.95
569.64	55278.77
569.81	54775.56
569.97	54761.51
570.13	54665.55
570.30	54452.56
570.46	53930.62
570.62	53284.64
570.78	53455.50
570.95	53705.93
571.11	54169.36
571.27	54567.25
571.43	54850.45
571.60	55185.15
571.76	55288.13
571.92	55372.39
572.09	55667.30
572.25	55489.42
572.41	55592.40
572.57	55281.11
572.74	55480.06
572.90	54986.21
573.06	54883.22
573.22	55194.51
573.38	55033.02
573.55	55100.89
573.71	55171.11
573.87	55061.10
574.03	55021.31
574.20	54962.80
574.36	54677.25
574.52	54354.26
574.68	54511.08
574.84	53951.69
575.01	53127.82
575.17	53579.54
575.33	53881.47
575.49	54031.27
575.65	54171.70
575.82	54253.62
575.98	53530.39
576.14	54270.00
576.30	54057.01
576.46	54412.77
576.62	54246.60
576.79	54459.58
576.95	53813.60
577.11	53914.24
577.27	53932.96
577.43	54064.03
577.59	53432.09
577.75	53116.12
577.92	52699.50
578.08	52299.27
578.24	52467.79
578.40	52655.03
578.56	52926.53
578.72	52837.59
578.88	53387.62
579.04	53441.45
579.21	53464.86
579.37	53502.31
579.53	53652.10
579.69	53521.03
579.85	53661.46
580.01	53333.79
580.17	52823.55
580.33	53017.82
580.49	52996.75
580.65	53368.90
580.82	53647.42
580.98	53616.99
581.14	53373.58
581.30	53804.24
581.46	53457.84
581.62	53661.46
581.78	53846.36
581.94	53998.50
582.10	53893.18
582.26	53954.03
582.42	53595.93
582.58	53673.16
582.74	53432.09
582.90	53867.43
583.06	53736.36
583.22	53521.03
583.38	53436.77
583.54	53535.07
583.70	53497.62
583.86	53778.49
584.02	53081.01
584.18	53308.04
584.34	53310.38
584.50	53205.06
584.66	53085.69
584.82	52853.98
584.98	52692.48
585.14	52109.69
585.30	51601.79
