SpectraSuite Data File
++++++++++++++++++++++++++++++++++++
Date: Mon Oct 07 14:53:31 GMT-05:00 2013
User: price-jones
Dark Spectrum Present: No
Reference Spectrum Present: No
Number of Sampled Component Spectra: 1
Spectrometers: USB2+H05261
Integration Time (usec): 100000 (USB2+H05261)
Spectra Averaged: 1 (USB2+H05261)
Boxcar Smoothing: 0 (USB2+H05261)
Correct for Electrical Dark: No (USB2+H05261)
Strobe/Lamp Enabled: No (USB2+H05261)
Correct for Detector Non-linearity: No (USB2+H05261)
Correct for Stray Light: No (USB2+H05261)
Number of Pixels in Processed Spectrum: 2048
>>>>>Begin Processed Spectral Data<<<<<
365.73	0.00
365.92	0.00
366.12	0.00
366.32	0.00
366.52	0.00
366.72	0.00
366.91	0.00
367.11	0.00
367.31	0.00
367.51	0.00
367.70	0.00
367.90	0.00
368.10	0.00
368.30	0.00
368.49	0.00
368.69	0.00
368.89	0.00
369.09	0.00
369.28	0.00
369.48	0.00
369.68	0.00
369.87	0.00
370.07	0.00
370.27	0.00
370.47	521.94
370.66	3040.36
370.86	3391.44
371.06	3756.56
371.25	3824.44
371.45	3550.59
371.65	3019.29
371.84	2993.55
372.04	3063.76
372.24	3471.01
372.44	3581.02
372.63	3641.87
372.83	3171.43
373.03	3059.08
373.22	2726.72
373.42	2899.92
373.62	3349.31
373.81	3482.72
374.01	3604.42
374.21	3176.11
374.40	2993.55
374.60	3005.25
374.79	3478.04
374.99	4042.11
375.19	4430.63
375.38	4388.50
375.58	4159.13
375.78	4084.23
375.97	4051.47
376.17	4332.33
376.37	4276.16
376.56	4428.29
376.76	4643.62
376.95	4854.27
377.15	5446.43
377.35	5547.07
377.54	5715.59
377.74	5942.62
377.93	5811.55
378.13	5738.99
378.33	5432.38
378.52	5053.22
378.72	4887.04
378.91	4777.03
379.11	4540.64
379.31	4287.86
379.50	4292.54
379.70	4699.80
379.89	5123.43
380.09	5598.56
380.28	5820.91
380.48	5682.82
380.68	5682.82
380.87	5514.30
381.07	5139.82
381.26	4751.29
381.46	4348.72
381.65	4372.12
381.85	4227.01
382.04	4088.92
382.24	3733.15
382.43	3637.19
382.63	3473.36
382.83	3478.04
383.02	3393.78
383.22	3447.61
383.41	3623.15
383.61	3639.53
383.80	4318.29
384.00	4828.53
384.19	5465.15
384.39	5738.99
384.58	5827.93
384.78	5607.92
384.97	5673.46
385.17	5284.93
385.36	5111.73
385.56	4624.90
385.75	4908.10
385.95	5275.57
386.14	5884.11
386.34	5898.15
386.53	5703.89
386.72	5315.36
386.92	5406.64
387.11	5607.92
387.31	5781.12
387.50	5844.32
387.70	5596.22
387.89	5476.85
388.09	5542.39
388.28	5717.93
388.48	5753.04
388.67	6066.67
388.86	6757.13
389.06	7101.19
389.25	7597.38
389.45	7733.13
389.64	7562.27
389.84	7475.67
390.03	7372.69
390.22	7466.31
390.42	7686.32
390.61	8107.62
390.81	8711.47
391.00	8856.59
391.19	8744.24
391.39	8475.08
391.58	8018.68
391.78	7440.56
391.97	7211.19
392.16	6860.11
392.36	6204.76
392.55	5114.07
392.75	3983.59
392.94	3353.99
393.13	3131.64
393.33	3749.54
393.52	4861.29
393.71	6019.86
393.91	6878.83
394.10	7199.49
394.29	7969.52
394.49	8800.41
394.68	9245.12
394.88	9394.91
395.07	9771.74
395.26	9472.15
395.46	9378.53
395.65	8793.39
395.84	7632.49
396.04	6455.20
396.23	5350.46
396.42	4386.16
396.62	4117.00
396.81	5104.71
397.00	6399.02
397.19	7765.90
397.39	9350.44
397.58	10422.41
397.77	11332.87
397.97	11559.91
398.16	11627.78
398.35	12306.54
398.55	12699.75
398.74	13095.30
398.93	13153.81
399.12	12938.48
399.32	12512.50
399.51	12978.27
399.70	13944.91
399.90	13666.39
400.09	14066.62
400.28	13692.13
400.47	13540.00
400.67	14464.51
400.86	14810.91
401.05	14476.21
401.24	14925.60
401.44	15124.54
401.63	15211.14
401.82	14972.41
402.01	15220.50
402.21	15243.91
402.40	15286.04
402.59	14700.90
402.78	14361.53
402.97	13764.69
403.17	14195.35
403.36	15105.82
403.55	15903.94
403.74	16367.37
403.93	15592.65
404.13	14471.53
404.32	13619.58
404.51	14324.08
404.70	15697.97
404.89	15653.50
405.09	15548.18
405.28	14815.59
405.47	14796.87
405.66	15033.26
405.85	14455.15
406.05	13881.72
406.24	14001.08
406.43	15059.01
406.62	15473.28
406.81	15625.42
407.00	14883.47
407.20	14658.78
407.39	14780.48
407.58	15557.54
407.77	16086.50
407.96	16570.99
408.15	16877.60
408.34	16730.15
408.54	17483.80
408.73	17869.99
408.92	17336.35
409.11	16945.48
409.30	16049.05
409.49	15133.90
409.68	14085.34
409.87	13989.38
410.07	14565.15
410.26	15840.75
410.45	16915.05
410.64	17053.14
410.83	17359.75
411.02	18200.01
411.21	18771.10
411.40	18609.60
411.59	18993.45
411.78	18356.82
411.98	18415.34
412.17	18824.93
412.36	18256.18
412.55	17895.74
412.74	18031.49
412.93	17458.06
413.12	17664.02
413.31	19421.77
413.50	19604.33
413.69	20198.82
413.88	19321.12
414.07	18595.56
414.26	19274.31
414.45	19585.60
414.64	19653.48
414.83	19737.74
415.02	19248.57
415.22	19075.37
415.41	19772.85
415.60	20383.73
415.79	20830.77
415.98	21589.10
416.17	21495.48
416.36	21015.67
416.55	20500.75
416.74	20271.38
416.93	19349.21
417.12	19487.30
417.31	19489.64
417.50	20294.79
417.69	20821.41
417.88	20842.47
418.07	20538.20
418.26	20240.95
418.45	20123.93
418.64	20933.75
418.83	21561.02
419.02	21460.37
419.21	21305.90
419.39	20554.58
419.58	19482.62
419.77	19325.80
419.96	20004.56
420.15	21446.33
420.34	21687.40
420.53	22733.62
420.72	22902.14
420.91	22848.31
421.10	22494.89
421.29	22450.42
421.48	21495.48
421.67	22726.60
421.86	22232.75
422.05	20650.55
422.24	18883.44
422.43	18492.57
422.61	20402.45
422.80	22171.89
422.99	21888.69
423.18	21238.02
423.37	20409.47
423.56	20592.03
423.75	21245.04
423.94	21310.58
424.13	20283.08
424.32	20528.84
424.50	20723.10
424.69	20346.28
424.88	20421.17
425.07	20465.64
425.26	20322.87
425.45	20121.59
425.64	19744.76
425.83	19950.73
426.01	20915.03
426.20	21596.12
426.39	21500.16
426.58	19845.40
426.77	18354.48
426.96	17825.52
427.15	18195.32
427.33	19637.09
427.52	20622.46
427.71	20781.62
427.90	20690.34
428.09	20547.56
428.28	19962.43
428.46	18998.13
428.65	19171.33
428.84	19452.19
429.03	19859.45
429.22	18731.31
429.40	17869.99
429.59	16273.74
429.78	14366.21
429.97	14321.74
430.16	14555.79
430.34	14361.53
430.53	14263.22
430.72	14700.90
430.91	16489.07
431.10	19171.33
431.28	22567.45
431.47	24503.07
431.66	24877.55
431.85	22658.73
432.03	20718.42
432.22	19829.02
432.41	20594.37
432.60	22796.82
432.79	23751.76
432.97	24477.32
433.16	23892.19
433.35	21958.91
433.54	19578.58
433.72	18490.23
433.91	18916.21
434.10	21191.21
434.28	22937.25
434.47	23927.30
434.66	23700.26
434.85	23002.78
435.03	22895.12
435.22	23583.24
435.41	25081.18
435.59	24931.39
435.78	25184.16
435.97	26017.40
436.16	25902.71
436.34	25617.16
436.53	25191.19
436.72	24978.20
436.90	23887.51
437.09	23655.79
437.28	23318.76
437.46	24217.52
437.65	24224.54
437.84	22574.47
438.02	20512.46
438.21	20552.24
438.40	21647.61
438.58	23545.79
438.77	24226.89
438.96	24521.79
439.14	25654.61
439.33	26029.10
439.52	26441.03
439.70	25619.50
439.89	25378.43
440.08	24545.20
440.26	24264.33
440.45	25221.61
440.63	26630.62
440.82	28432.83
441.01	27999.83
441.19	27838.33
441.38	28507.72
441.57	29373.72
441.75	29680.33
441.94	29628.84
442.12	29228.61
442.31	30272.49
442.50	29741.19
442.68	29514.16
442.87	29799.70
443.05	28608.37
443.24	29046.05
443.43	29905.02
443.61	30249.08
443.80	31108.06
443.98	29371.38
444.17	29397.13
444.35	30764.00
444.54	31089.34
444.73	30792.09
444.91	29720.12
445.10	28528.79
445.28	27285.97
445.47	27061.27
445.65	27005.10
445.84	27597.26
446.02	29125.63
446.21	29221.59
446.39	29071.79
446.58	29724.80
446.77	30211.64
446.95	30431.65
447.14	31349.14
447.32	31803.20
447.51	30796.77
447.69	29605.44
447.88	29556.28
448.06	29867.58
448.25	30595.48
448.43	31019.12
448.62	30270.15
448.80	29853.53
448.99	30799.11
449.17	30684.42
449.36	30651.66
449.54	31707.24
449.73	31793.84
449.91	32739.41
450.10	33226.24
450.28	33708.40
450.46	33490.73
450.65	33787.97
450.83	33226.24
451.02	32360.25
451.20	32704.31
451.39	32318.12
451.57	32360.25
451.76	32285.35
451.94	32107.47
452.13	31292.96
452.31	30288.87
452.49	28929.02
452.68	29118.60
452.86	28978.17
453.05	29441.60
453.23	30499.52
453.42	31108.06
453.60	31473.18
453.78	32123.85
453.97	31697.88
454.15	31709.58
454.34	31232.11
454.52	31538.72
454.70	30590.80
454.89	31482.55
455.07	31138.49
455.26	31360.84
455.44	32636.43
455.62	33415.83
455.81	33652.22
455.99	33493.07
456.17	33125.60
456.36	33303.48
456.54	33979.90
456.73	34022.03
456.91	34504.18
457.09	34265.44
457.28	35615.93
457.46	33949.47
457.64	33483.70
457.83	32968.79
458.01	32067.68
458.19	32842.40
458.38	32884.53
458.56	33956.49
458.74	33708.40
458.93	33469.66
459.11	33090.49
459.29	32816.65
459.48	33261.35
459.66	32779.20
459.84	33497.75
460.03	34108.63
460.21	33961.17
460.39	34808.45
460.57	34576.73
460.76	35098.67
460.94	34831.85
461.12	34960.58
461.31	34808.45
461.49	34881.00
461.67	34649.29
461.85	35838.28
462.04	35632.32
462.22	35997.44
462.40	35721.26
462.59	35496.56
462.77	35548.06
462.95	35566.78
463.13	34855.26
463.32	34974.63
463.50	34522.90
463.68	34995.69
463.86	34508.86
464.05	34377.79
464.23	33614.77
464.41	33359.66
464.59	32910.27
464.78	34473.75
464.96	33895.64
465.14	33914.36
465.32	34902.07
465.50	36030.21
465.69	35948.29
465.87	35517.63
466.05	34305.23
466.23	32849.42
466.41	32236.20
466.60	33050.70
466.78	32840.06
466.96	33504.77
467.14	33963.51
467.32	34263.10
467.51	34974.63
467.69	33186.46
467.87	33738.82
468.05	34752.27
468.23	33935.43
468.41	34558.01
468.60	34288.85
468.78	34831.85
468.96	34342.68
469.14	34873.98
469.32	35079.95
469.50	34024.37
469.69	34281.83
469.87	33600.73
470.05	33333.91
470.23	33254.33
470.41	33357.32
470.59	34139.05
470.77	34082.88
470.95	35124.42
471.14	35096.33
471.32	35072.93
471.50	37158.34
471.68	37308.14
471.86	38120.31
472.04	37858.17
472.22	38384.79
472.40	35999.78
472.58	35693.17
472.77	35365.49
472.95	35814.88
473.13	36914.93
473.31	35971.69
473.49	36051.27
473.67	37062.38
473.85	37127.92
474.03	37916.68
474.21	38017.32
474.39	38450.32
474.57	39023.75
474.75	38459.68
474.93	38508.83
475.12	37223.88
475.30	37855.82
475.48	37750.50
475.66	38284.14
475.84	37965.83
476.02	37425.17
476.20	37221.54
476.38	37549.21
476.56	38724.16
476.74	39136.10
476.92	39606.55
477.10	40018.48
477.28	41230.88
477.46	41179.39
477.64	41436.84
477.82	41696.64
478.00	42373.06
478.18	41294.07
478.36	41053.00
478.54	41280.03
478.72	41163.00
478.90	42459.66
479.08	43714.19
479.26	43943.56
479.44	43250.76
479.62	43372.47
479.80	43428.64
479.98	43679.08
480.16	43985.69
480.34	43346.72
480.52	43943.56
480.70	44425.71
480.88	44430.39
481.06	44910.20
481.24	45352.56
481.41	46101.53
481.59	46801.35
481.77	46433.89
481.95	45834.71
482.13	45790.24
482.31	46157.70
482.49	46707.73
482.67	46010.25
482.85	46546.23
483.03	47533.94
483.21	47264.78
483.39	47636.92
483.57	47124.35
483.74	46239.62
483.92	47021.36
484.10	47023.70
484.28	47852.25
484.46	48250.14
484.64	48554.41
484.82	47931.83
485.00	47473.09
485.18	46822.42
485.35	45153.62
485.53	42246.67
485.71	38590.75
485.89	38209.25
486.07	39945.92
486.25	43559.71
486.43	45579.59
486.61	46480.70
486.78	46040.68
486.96	46518.15
487.14	48121.41
487.32	48893.79
487.50	50038.31
487.68	50607.06
487.85	51510.51
488.03	51136.02
488.21	50787.28
488.39	50136.62
488.57	49631.06
488.75	49048.27
488.92	50124.91
489.10	52535.66
489.28	53652.10
489.46	54389.37
489.64	54066.38
489.81	54494.69
489.99	54021.90
490.17	54085.10
490.35	54487.67
490.53	53918.92
490.70	53340.81
490.88	53528.05
491.06	54525.12
491.24	54607.04
491.41	53427.41
491.59	51887.34
491.77	50801.33
491.95	52062.88
492.13	53336.13
492.30	54372.99
492.48	55267.07
492.66	55798.37
492.84	55854.54
493.01	55468.36
493.19	54838.75
493.37	54719.38
493.54	54347.24
493.72	55105.57
493.90	55950.51
494.08	56617.56
494.25	57146.52
494.43	57055.24
494.61	57511.64
494.79	57509.30
494.96	57357.17
495.14	56851.61
495.32	55997.32
495.49	55143.02
495.67	56189.24
495.85	57546.75
496.02	57972.73
496.20	57745.70
496.38	57235.46
496.55	57088.01
496.73	57656.76
496.91	57748.04
497.09	58354.24
497.26	58583.61
497.44	58141.25
497.62	57729.31
497.79	57036.51
497.97	55552.62
498.14	55812.41
498.32	56905.44
498.50	57682.50
498.67	58284.02
498.85	58056.99
499.03	58227.85
499.20	58674.89
499.38	58412.75
499.56	58351.90
499.73	57745.70
499.91	57516.32
500.08	57109.07
500.26	56470.11
500.44	56767.35
500.61	57282.27
500.79	57411.00
500.97	56786.08
501.14	56687.78
501.32	56743.95
501.49	56542.66
501.67	56973.32
501.84	56999.07
502.02	57537.39
502.20	57930.60
502.37	58134.23
502.55	58251.25
502.72	58740.42
502.90	58934.69
503.07	58646.80
503.25	58560.20
503.43	57523.35
503.60	57275.25
503.78	56442.02
503.95	56765.01
504.13	58110.82
504.30	58890.22
504.48	58791.92
504.65	58379.98
504.83	58504.03
505.01	58904.26
505.18	59447.27
505.36	60037.08
505.53	59852.18
505.71	60081.55
505.88	60413.91
506.06	59742.17
506.23	59210.87
506.41	58969.80
506.58	59077.46
506.76	59009.59
506.93	59241.30
507.11	58958.09
507.28	58997.88
507.46	58546.16
507.63	58195.08
507.81	57773.78
507.98	57935.28
508.16	58639.78
508.33	59255.34
508.50	59583.02
508.68	60004.31
508.85	60371.78
509.03	60212.62
509.20	60154.11
509.38	59449.61
509.55	58796.60
509.73	58824.68
509.90	59229.60
510.08	59756.22
510.25	59510.46
510.42	59325.56
510.60	59377.05
510.77	59561.95
510.95	59917.71
511.12	59922.40
511.30	60425.61
511.47	60816.48
511.64	60612.85
511.82	60336.67
511.99	59590.04
512.17	59145.34
512.34	58726.38
512.51	58890.22
512.69	59047.04
512.86	59152.36
513.04	59807.71
513.21	59608.76
513.38	59283.43
513.56	58871.49
513.73	58216.14
513.90	58468.92
514.08	58518.07
514.25	58883.20
514.43	59044.69
514.60	59334.92
514.77	59018.95
514.95	59463.65
515.12	59168.74
515.29	59470.67
515.47	59927.08
515.64	60175.17
515.81	59725.79
515.99	59178.10
516.16	57902.51
516.33	55826.46
516.51	54295.75
516.68	53418.05
516.85	53345.49
517.03	53558.48
517.20	55915.40
517.37	58504.03
517.54	59440.24
517.72	58724.04
517.89	56741.61
518.06	54396.39
518.24	54342.56
518.41	56760.33
518.58	57918.90
518.75	58199.76
518.93	58433.81
519.10	58269.98
519.27	58803.62
519.45	58974.48
519.62	59533.87
519.79	59821.75
519.96	59859.20
520.14	59173.42
520.31	58419.77
520.48	58466.58
520.65	58782.55
520.83	59660.26
521.00	60196.24
521.17	59557.27
521.34	59203.85
521.52	59817.07
521.69	60020.70
521.86	60643.28
522.03	60327.31
522.20	59208.53
522.38	58239.55
522.55	58199.76
522.72	58726.38
522.89	58857.45
523.07	59061.08
523.24	59344.28
523.41	60172.83
523.58	60477.10
523.75	60954.57
523.92	60748.60
524.10	60563.70
524.27	60802.44
524.44	60540.30
524.61	60317.95
524.78	60147.09
524.96	60226.66
525.13	60065.17
525.30	60418.59
525.47	60734.56
525.64	60619.88
525.81	60175.17
525.98	58756.81
526.16	57109.07
526.33	56781.40
526.50	56397.55
526.67	55990.30
526.84	56362.44
527.01	57513.98
527.18	58213.80
527.36	59243.64
527.53	59924.74
527.70	60259.43
527.87	59793.67
528.04	59229.60
528.21	59576.00
528.38	60427.95
528.55	60860.95
528.72	61034.15
528.89	61282.25
529.07	60893.72
529.24	60416.25
529.41	59742.17
529.58	59405.14
529.75	59419.18
529.92	59817.07
530.09	60140.07
530.26	60739.24
530.43	60905.42
530.60	60949.89
530.77	61080.96
530.94	61340.76
531.11	60779.03
531.28	60317.95
531.46	60378.80
531.63	60322.63
531.80	60299.22
531.97	59629.83
532.14	59241.30
532.31	58202.10
532.48	57598.24
532.65	57687.18
532.82	58431.47
532.99	59489.40
533.16	59744.51
533.33	60430.29
533.50	60273.48
533.67	59599.40
533.84	59100.87
534.01	59229.60
534.18	59573.66
534.35	59756.22
534.52	59545.57
534.69	59952.82
534.86	60046.44
535.03	60336.67
535.20	60683.07
535.37	61102.03
535.54	61038.83
535.71	60687.75
535.88	60570.72
536.05	59978.57
536.22	59597.06
536.38	59393.43
536.55	58927.67
536.72	58368.28
536.89	58159.97
537.06	59210.87
537.23	59966.87
537.40	60250.07
537.57	60034.74
537.74	59945.80
537.91	60037.08
538.08	59840.48
538.25	59807.71
538.42	60086.23
538.59	59711.75
538.75	59189.81
538.92	59089.16
539.09	58969.80
539.26	58841.07
539.43	58375.30
539.60	58679.57
539.77	58869.15
539.94	58646.80
540.11	58141.25
540.28	57511.64
540.44	57509.30
540.61	57916.56
540.78	58028.90
540.95	58431.47
541.12	58728.72
541.29	59089.16
541.46	59318.54
541.62	59386.41
541.79	59363.01
541.96	58754.47
542.13	58618.72
542.30	58829.37
542.47	59133.63
542.63	58897.24
542.80	58761.49
542.97	58766.17
543.14	58642.12
543.31	58445.52
543.48	59030.65
543.64	59990.27
543.81	60130.70
543.98	59866.22
544.15	59302.15
544.32	58965.12
544.48	58834.05
544.65	59281.09
544.82	59826.43
544.99	59330.24
545.16	58955.75
545.32	58642.12
545.49	59503.44
545.66	59746.86
545.83	59370.03
546.00	59145.34
546.16	58660.85
546.33	58934.69
546.50	59035.33
546.67	59400.46
546.83	58787.24
547.00	58944.05
547.17	58356.58
547.34	57797.19
547.50	57691.86
547.67	58251.25
547.84	58166.99
548.00	58501.69
548.17	59124.27
548.34	58649.14
548.51	58831.71
548.67	58976.82
548.84	59061.08
549.01	58969.80
549.18	58787.24
549.34	58780.21
549.51	58845.75
549.68	58908.94
549.84	58637.44
550.01	58581.27
550.18	58305.09
550.34	58354.24
550.51	58422.11
550.68	58621.06
550.84	58337.85
551.01	58237.21
551.18	58059.33
551.34	58504.03
551.51	58742.77
551.68	59035.33
551.84	59004.91
552.01	58623.40
552.18	58864.47
552.34	57773.78
552.51	57724.63
552.68	57488.24
552.84	58007.84
553.01	58405.73
553.18	58277.00
553.34	58347.21
553.51	58321.47
553.67	58693.61
553.84	58590.63
554.01	58522.76
554.17	58466.58
554.34	58405.73
554.51	58468.92
554.67	58845.75
554.84	58719.36
555.00	58260.62
555.17	58117.84
555.33	58075.71
555.50	58330.83
555.67	58262.96
555.83	57846.34
556.00	57780.81
556.16	57488.24
556.33	57411.00
556.50	57331.42
556.66	57305.68
556.83	56914.81
556.99	57162.90
557.16	57120.77
557.32	57675.48
557.49	57939.96
557.65	57577.18
557.82	57609.95
557.98	57305.68
558.15	56989.70
558.32	56324.99
558.48	55332.60
558.65	55695.39
558.81	56112.00
558.98	56207.97
559.14	56554.36
559.31	56444.36
559.47	56669.05
559.64	56339.04
559.80	55753.90
559.97	55863.91
560.13	56605.86
560.30	57319.72
560.46	57869.75
560.63	58094.44
560.79	57839.32
560.96	57425.04
561.12	56598.83
561.29	55730.50
561.45	55613.47
561.61	56467.76
561.78	56697.14
561.94	56765.01
562.11	56568.41
562.27	56470.11
562.44	56750.97
562.60	57106.73
562.77	57179.29
562.93	57013.11
563.10	56898.42
563.26	56458.40
563.42	56467.76
563.59	56399.89
563.75	56390.53
563.92	56339.04
564.08	56198.60
564.24	56264.14
564.41	56514.58
564.57	56652.67
564.74	56310.95
564.90	55997.32
565.07	56039.45
565.23	55639.22
565.39	55136.00
565.56	54850.45
565.72	54679.60
565.88	55077.49
566.05	55171.11
566.21	55402.82
566.38	55561.98
566.54	55959.87
566.70	56233.71
566.87	56083.92
567.03	56102.64
567.19	56542.66
567.36	56016.04
567.52	55945.83
567.68	55791.35
567.85	54908.97
568.01	54845.77
568.17	54305.11
568.34	54433.84
568.50	54293.41
568.66	54677.25
568.83	55194.51
568.99	54822.37
569.15	55281.11
569.32	55229.62
569.48	54794.28
569.64	54515.76
569.81	54628.10
569.97	54405.75
570.13	54555.55
570.30	53813.60
570.46	53439.11
570.62	52741.63
570.78	52814.19
570.95	53261.23
571.11	54042.97
571.27	54134.25
571.43	54178.72
571.60	54244.26
571.76	54731.09
571.92	54894.92
572.09	55105.57
572.25	54953.44
572.41	54944.08
572.57	54637.47
572.74	54988.55
572.90	54391.71
573.06	54419.80
573.22	54321.49
573.38	54410.43
573.55	54478.31
573.71	54660.87
573.87	54628.10
574.03	54415.11
574.20	54305.11
574.36	54087.44
574.52	53972.75
574.68	53876.79
574.84	53176.97
575.01	52910.15
575.17	52793.12
575.33	53212.08
575.49	53509.33
575.65	53734.02
575.82	53481.24
575.98	53162.93
576.14	53251.87
576.30	53591.25
576.46	53705.93
576.62	53474.22
576.79	53607.63
576.95	53099.73
577.11	53148.88
577.27	53312.72
577.43	53572.52
577.59	52954.62
577.75	52673.76
577.92	51980.96
578.08	51739.88
578.24	51639.24
578.40	52271.18
578.56	52423.32
578.72	52687.80
578.88	52563.75
579.04	52776.74
579.21	52973.34
579.37	52765.04
579.53	53205.06
579.69	53057.60
579.85	53240.17
580.01	52624.60
580.17	52556.73
580.33	52406.94
580.49	52491.19
580.65	52718.23
580.82	52954.62
580.98	53127.82
581.14	52659.71
581.30	52690.14
581.46	52706.52
581.62	52900.79
581.78	53027.18
581.94	52945.26
582.10	52772.06
582.26	52966.32
582.42	53066.97
582.58	52879.72
582.74	53052.92
582.90	52931.22
583.06	53010.79
583.22	52758.02
583.38	52795.46
583.54	52715.89
583.70	52715.89
583.86	52605.88
584.02	52893.77
584.18	52528.64
584.34	52699.50
584.50	52463.11
584.66	52193.95
584.82	51966.91
584.98	52011.38
585.14	51456.68
585.30	50677.28
