SpectraSuite Data File
++++++++++++++++++++++++++++++++++++
Date: Mon Oct 07 14:54:59 GMT-05:00 2013
User: price-jones
Dark Spectrum Present: No
Reference Spectrum Present: No
Number of Sampled Component Spectra: 1
Spectrometers: USB2+H05261
Integration Time (usec): 10000 (USB2+H05261)
Spectra Averaged: 1 (USB2+H05261)
Boxcar Smoothing: 0 (USB2+H05261)
Correct for Electrical Dark: No (USB2+H05261)
Strobe/Lamp Enabled: No (USB2+H05261)
Correct for Detector Non-linearity: No (USB2+H05261)
Correct for Stray Light: No (USB2+H05261)
Number of Pixels in Processed Spectrum: 2048
>>>>>Begin Processed Spectral Data<<<<<
365.73	0.00
365.92	0.00
366.12	0.00
366.32	0.00
366.52	0.00
366.72	0.00
366.91	0.00
367.11	0.00
367.31	0.00
367.51	0.00
367.70	0.00
367.90	0.00
368.10	0.00
368.30	0.00
368.49	0.00
368.69	0.00
368.89	0.00
369.09	0.00
369.28	0.00
369.48	0.00
369.68	0.00
369.87	0.00
370.07	0.00
370.27	0.00
370.47	95.96
370.66	1338.79
370.86	1598.59
371.06	1680.50
371.25	1781.15
371.45	1488.58
371.65	1334.11
371.84	1284.95
372.04	1502.62
372.24	1530.71
372.44	1629.01
372.63	1650.08
372.83	1348.15
373.03	1306.02
373.22	1193.67
373.42	1425.39
373.62	1607.95
373.81	1629.01
374.01	1579.86
374.21	1526.03
374.40	1348.15
374.60	1425.39
374.79	1675.82
374.99	1961.37
375.19	2054.99
375.38	1921.58
375.58	1900.52
375.78	1823.28
375.97	1902.86
376.17	1905.20
376.37	1933.28
376.56	1970.73
376.76	2293.72
376.95	2324.15
377.15	2677.57
377.35	2710.34
377.54	2607.36
377.74	2897.58
377.93	2892.90
378.13	2609.70
378.33	2427.14
378.52	2277.34
378.72	2279.68
378.91	2073.71
379.11	2200.10
379.31	2052.65
379.50	2148.61
379.70	2333.51
379.89	2623.74
380.09	2703.32
380.28	2719.70
380.48	2633.10
380.68	2576.93
380.87	2445.86
381.07	2387.35
381.26	2113.50
381.46	1987.11
381.65	1982.43
381.85	1905.20
382.04	1856.04
382.24	1469.86
382.43	1565.82
382.63	1544.75
382.83	1561.14
383.02	1673.48
383.22	1476.88
383.41	1607.95
383.61	1734.34
383.80	2108.82
384.00	2340.54
384.19	2572.25
384.39	2649.49
384.58	2808.64
384.78	2455.22
384.97	2656.51
385.17	2495.01
385.36	2267.98
385.56	2193.08
385.75	2408.41
385.95	2633.10
386.14	2747.79
386.34	2637.78
386.53	2642.46
386.72	2408.41
386.92	2518.42
387.11	2722.04
387.31	2836.73
387.50	2689.28
387.70	2551.18
387.89	2602.68
388.09	2602.68
388.28	2640.12
388.48	2796.94
388.67	3035.67
388.86	3283.77
389.06	3510.80
389.25	3541.23
389.45	3658.26
389.64	3576.34
389.84	3644.21
390.03	3393.78
390.22	3492.08
390.42	3688.68
390.61	4098.28
390.81	4154.45
391.00	4390.84
391.19	4168.49
391.39	4140.41
391.58	3854.86
391.78	3712.09
391.97	3435.91
392.16	3255.69
392.36	2801.62
392.55	2239.89
392.75	1645.40
392.94	1348.15
393.13	1497.94
393.33	1989.46
393.52	2516.08
393.71	3075.46
393.91	3438.25
394.10	3625.49
394.29	3999.98
394.49	4273.82
394.68	4552.34
394.88	4496.17
395.07	4660.01
395.26	4660.01
395.46	4374.46
395.65	4060.83
395.84	3487.40
396.04	2850.77
396.23	2314.79
396.42	2050.31
396.62	2228.19
396.81	2443.52
397.00	3258.03
397.19	4173.18
397.39	4734.90
397.58	5387.91
397.77	5518.98
397.97	5806.87
398.16	5865.38
398.35	5940.28
398.55	6141.57
398.74	6464.56
398.93	6490.31
399.12	6415.41
399.32	6111.14
399.51	6392.00
399.70	6675.21
399.90	6483.28
400.09	6642.44
400.28	6588.61
400.47	6658.82
400.67	7096.50
400.86	7124.59
401.05	7117.57
401.24	7150.34
401.44	7473.33
401.63	7377.37
401.82	7487.37
402.01	7288.43
402.21	7398.43
402.40	7499.08
402.59	7005.22
402.78	6916.28
402.97	6817.98
403.17	7080.12
403.36	7489.71
403.55	7693.34
403.74	7627.81
403.93	7218.21
404.13	6630.74
404.32	6951.39
404.51	7286.09
404.70	7763.56
404.89	7751.85
405.09	7438.22
405.28	7382.05
405.47	7269.70
405.66	7389.07
405.85	7019.27
406.05	6925.65
406.24	7033.31
406.43	7646.53
406.62	7691.00
406.81	7688.66
407.00	7419.50
407.20	7171.40
407.39	7382.05
407.58	7768.24
407.77	8039.74
407.96	8053.78
408.15	8435.29
408.34	8292.52
408.54	8692.75
408.73	8627.21
408.92	8540.61
409.11	8222.30
409.30	7793.98
409.49	7297.79
409.68	6902.24
409.87	7157.36
410.07	7489.71
410.26	7939.10
410.45	8304.22
410.64	8601.47
410.83	8891.70
411.02	9137.45
411.21	9268.52
411.40	9107.02
411.59	9137.45
411.78	9013.40
411.98	9102.34
412.17	9434.70
412.36	9095.32
412.55	9083.62
412.74	8664.66
412.93	8685.73
413.12	8922.12
413.31	9762.37
413.50	9675.77
413.69	9907.49
413.88	9345.76
414.07	9226.39
414.26	9469.81
414.45	9837.27
414.64	9547.05
414.83	9525.98
415.02	9631.30
415.22	9708.54
415.41	9848.97
415.60	10059.62
415.79	10513.69
415.98	10899.87
416.17	10623.69
416.36	10513.69
416.55	10214.10
416.74	9781.10
416.93	9537.68
417.12	9621.94
417.31	9785.78
417.50	10045.58
417.69	10298.36
417.88	10073.67
418.07	10296.02
418.26	10059.62
418.45	10326.44
418.64	10747.74
418.83	10984.13
419.02	10633.05
419.21	10303.04
419.39	10040.90
419.58	9696.84
419.77	9830.25
419.96	10310.06
420.15	10977.11
420.34	11021.58
420.53	11353.94
420.72	11487.35
420.91	11367.98
421.10	11037.97
421.29	11529.48
421.48	10796.89
421.67	11634.80
421.86	10703.27
422.05	9884.08
422.24	9184.26
422.43	9490.87
422.61	11049.67
422.80	11138.61
422.99	10745.40
423.18	10401.34
423.37	10415.38
423.56	10647.10
423.75	10799.23
423.94	10934.98
424.13	10382.62
424.32	10064.30
424.50	10373.25
424.69	10431.77
424.88	10242.18
425.07	10380.28
425.26	10368.57
425.45	10073.67
425.64	9715.56
425.83	10099.41
426.01	10408.36
426.20	10939.66
426.39	10677.52
426.58	9692.16
426.77	9109.36
426.96	8978.30
427.15	9465.13
427.33	10260.91
427.52	10384.96
427.71	10473.90
427.90	10307.72
428.09	9982.38
428.28	9984.73
428.46	9507.26
428.65	9511.94
428.84	9856.00
429.03	9856.00
429.22	9380.87
429.40	8809.78
429.59	8032.72
429.78	7260.34
429.97	7265.02
430.16	7143.32
430.34	7396.09
430.53	7342.26
430.72	7796.32
430.91	8922.12
431.10	10209.42
431.28	11908.65
431.47	12430.59
431.66	12704.43
431.85	10909.24
432.03	10476.24
432.22	10153.24
432.41	10977.11
432.60	11775.24
432.79	12341.64
432.97	12437.61
433.16	11929.71
433.35	10794.55
433.54	9387.89
433.72	9394.91
433.91	10148.56
434.10	11019.24
434.28	11602.04
434.47	12067.80
434.66	11857.15
434.85	11735.45
435.03	11688.64
435.22	11922.69
435.41	12409.52
435.59	12568.68
435.78	12603.78
435.97	13088.28
436.16	13090.62
436.34	12767.62
436.53	12739.54
436.72	12718.47
436.90	11775.24
437.09	11950.78
437.28	12060.78
437.46	12236.32
437.65	12372.07
437.84	11012.22
438.02	10532.41
438.21	10789.87
438.40	11052.01
438.58	12250.36
438.77	12461.01
438.96	12533.57
439.14	13198.28
439.33	13118.70
439.52	13296.58
439.70	12861.24
439.89	12650.60
440.08	12339.30
440.26	12421.22
440.45	12894.01
440.63	13867.67
440.82	14342.80
441.01	14263.22
441.19	14066.62
441.38	14410.68
441.57	14712.61
441.75	14951.34
441.94	15016.88
442.12	15330.51
442.31	15206.46
442.50	15346.89
442.68	14981.77
442.87	14927.94
443.05	14628.35
443.24	14895.17
443.43	15194.76
443.61	15293.06
443.80	15728.40
443.98	14808.57
444.17	14970.07
444.35	15534.14
444.54	15756.49
444.73	15871.17
444.91	15028.58
445.10	13998.74
445.28	13467.44
445.47	13692.13
445.65	13715.54
445.84	14551.11
446.02	14958.36
446.21	15014.54
446.39	14925.60
446.58	14958.36
446.77	15541.16
446.95	15695.63
447.14	15936.71
447.32	16161.40
447.51	15466.26
447.69	15054.33
447.88	15201.78
448.06	15662.86
448.25	15655.84
448.43	15421.79
448.62	15487.32
448.80	15459.24
448.99	15342.21
449.17	15831.38
449.36	15627.76
449.54	16315.87
449.73	16468.01
449.91	16681.00
450.10	17193.58
450.28	17308.26
450.46	17036.76
450.65	17366.78
450.83	16793.34
451.02	16943.14
451.20	16741.85
451.39	16781.64
451.57	16622.48
451.76	16446.94
451.94	16510.14
452.13	16280.77
452.31	15087.09
452.49	14679.84
452.68	14920.92
452.86	14766.44
453.05	15176.03
453.23	16011.60
453.42	16346.30
453.60	16140.33
453.78	16540.57
453.97	15929.69
454.15	16280.77
454.34	15314.13
454.52	16035.01
454.70	15950.75
454.89	15733.08
455.07	15974.16
455.26	16348.64
455.44	16821.43
455.62	17170.17
455.81	17109.32
455.99	17008.67
456.17	16826.11
456.36	17539.97
456.54	17692.11
456.73	17495.50
456.91	17554.02
457.09	17963.61
457.28	18192.98
457.46	17331.67
457.64	17219.32
457.83	16727.81
458.01	16493.76
458.19	17083.57
458.38	16877.60
458.56	17289.54
458.74	17387.84
458.93	17172.51
459.11	17144.42
459.29	16769.94
459.48	17041.44
459.66	16606.10
459.84	17755.30
460.03	17441.67
460.21	17689.77
460.39	18239.79
460.57	18249.16
460.76	17790.41
460.94	17895.74
461.12	17678.07
461.31	17577.42
461.49	17839.56
461.67	17900.42
461.85	18361.50
462.04	18277.24
462.22	18249.16
462.40	18314.69
462.59	18611.94
462.77	18195.32
462.95	18111.07
463.13	17696.79
463.32	17710.83
463.50	18108.72
463.68	17778.71
463.86	17881.69
464.05	17523.59
464.23	17259.11
464.41	17214.64
464.59	17046.12
464.78	17788.07
464.96	17951.91
465.14	17902.76
465.32	17848.93
465.50	18370.86
465.69	18658.75
465.87	18192.98
466.05	17256.77
466.23	16734.83
466.41	16681.00
466.60	17542.32
466.78	17046.12
466.96	17694.45
467.14	17411.25
467.32	17362.09
467.51	17722.54
467.69	16802.71
467.87	17376.14
468.05	17713.17
468.23	17584.44
468.41	17774.03
468.60	17837.22
468.78	17970.63
468.96	17657.00
469.14	17940.21
469.32	18122.77
469.50	17268.47
469.69	17282.52
469.87	16758.24
470.05	17453.37
470.23	16908.03
470.41	17446.35
470.59	17343.37
470.77	17355.07
470.95	17994.04
471.14	17806.80
471.32	18115.75
471.50	19260.27
471.68	19281.33
471.86	19091.75
472.04	19704.97
472.22	19496.66
472.40	18342.78
472.58	18214.05
472.77	18251.50
472.95	18258.52
473.13	18979.40
473.31	18621.30
473.49	18764.07
473.67	18885.78
473.85	18897.49
474.03	19873.49
474.21	19997.54
474.39	20276.06
474.57	20215.21
474.75	20042.01
474.93	19793.91
475.12	19391.34
475.30	19257.93
475.48	19047.28
475.66	19267.29
475.84	19384.32
476.02	19171.33
476.20	18946.64
476.38	19253.25
476.56	20411.81
476.74	20496.07
476.92	20360.32
477.10	20800.34
477.28	21195.89
477.46	21067.16
477.64	21394.84
477.82	21626.55
478.00	21783.37
478.18	21387.82
478.36	20900.98
478.54	21451.01
478.72	21446.33
478.90	22497.23
479.08	22841.29
479.26	22565.10
479.44	22609.58
479.62	22511.27
479.80	22637.66
479.98	23030.87
480.16	23068.32
480.34	22525.32
480.52	23122.15
480.70	23688.56
480.88	23215.77
481.06	23592.60
481.24	23527.06
481.41	24182.42
481.59	24915.00
481.77	24318.17
481.95	24383.70
482.13	24835.42
482.31	24765.21
482.49	25369.07
482.67	24446.90
482.85	25064.80
483.03	25823.13
483.21	25764.62
483.39	25502.48
483.57	24549.88
483.74	24030.28
483.92	24727.76
484.10	24989.90
484.28	25532.90
484.46	25724.83
484.64	25692.06
484.82	25357.36
485.00	25046.07
485.18	24236.25
485.35	23346.84
485.53	21074.18
485.71	19417.08
485.89	19838.38
486.07	20875.24
486.25	22759.37
486.43	23885.17
486.61	24496.05
486.78	24350.93
486.96	25294.17
487.14	25635.89
487.32	25958.88
487.50	26986.38
487.68	27529.38
487.85	28107.49
488.03	28086.43
488.21	27395.97
488.39	26895.10
488.57	26132.08
488.75	26604.87
488.92	27798.54
489.10	29502.45
489.28	30197.59
489.46	30387.18
489.64	30593.14
489.81	31576.17
489.99	30302.92
490.17	31215.72
490.35	30644.63
490.53	30167.16
490.70	29266.06
490.88	29537.56
491.06	30492.50
491.24	30574.42
491.41	29130.31
491.59	27847.69
491.77	27725.99
491.95	28723.05
492.13	30190.57
492.30	31136.15
492.48	32283.01
492.66	32395.35
492.84	31674.47
493.01	32231.52
493.19	31578.51
493.37	31466.16
493.54	31835.97
493.72	32711.33
493.90	32980.49
494.08	32844.74
494.25	34178.84
494.43	33614.77
494.61	34398.85
494.79	34649.29
494.96	33886.28
495.14	32704.31
495.32	32442.17
495.49	32570.90
495.67	33174.75
495.85	35079.95
496.02	35328.05
496.20	34855.26
496.38	34033.73
496.55	34359.06
496.73	34976.97
496.91	34876.32
497.09	36268.94
497.26	35601.89
497.44	35229.74
497.62	34206.93
497.79	33883.94
497.97	32940.70
498.14	32968.79
498.32	34714.83
498.50	35276.55
498.67	35103.35
498.85	35800.83
499.03	35735.30
499.20	36343.84
499.38	36650.45
499.56	35955.31
499.73	35047.18
499.91	33858.19
500.08	33769.25
500.26	32634.09
500.44	33549.24
500.61	34946.54
500.79	34295.87
500.97	33244.97
501.14	33364.34
501.32	33352.63
501.49	33635.84
501.67	33954.15
501.84	34405.88
502.02	35051.86
502.20	34923.13
502.37	35477.84
502.55	35232.08
502.72	36013.82
502.90	36765.14
503.07	35772.75
503.25	34785.04
503.43	33504.77
503.60	33392.42
503.78	33118.58
503.95	34256.08
504.13	35459.12
504.30	36683.22
504.48	35915.52
504.65	35908.50
504.83	35674.45
505.01	36158.94
505.18	36547.47
505.36	36840.03
505.53	37486.02
505.71	38630.54
505.88	39061.20
506.06	37848.80
506.23	37078.77
506.41	36683.22
506.58	37251.97
506.76	36561.51
506.93	36648.11
507.11	35618.27
507.28	35934.24
507.46	35857.01
507.63	35566.78
507.81	34377.79
507.98	35215.70
508.16	36215.11
508.33	37596.03
508.50	37364.31
508.68	37759.86
508.85	38801.40
509.03	38246.69
509.20	37652.20
509.38	35763.39
509.55	35896.80
509.73	36713.64
509.90	37003.87
510.08	36414.05
510.25	36718.32
510.42	35847.64
510.60	37027.28
510.77	37818.38
510.95	38567.35
511.12	38106.26
511.30	39606.55
511.47	38602.46
511.64	38103.92
511.82	37923.70
511.99	36556.83
512.17	36690.24
512.34	36715.98
512.51	36540.44
512.69	35880.41
512.86	35707.21
513.04	37794.97
513.21	37148.98
513.38	35908.50
513.56	34698.44
513.73	34263.10
513.90	35424.01
514.08	35227.40
514.25	36219.79
514.43	36142.55
514.60	36208.09
514.77	35737.64
514.95	37139.62
515.12	36905.57
515.29	36006.80
515.47	37230.90
515.64	37640.50
515.81	37322.18
515.99	36355.54
516.16	33439.23
516.33	30969.97
516.51	30452.71
516.68	29221.59
516.85	29181.80
517.03	30000.99
517.20	33542.22
517.37	36311.07
517.54	36741.73
517.72	35014.41
517.89	32287.69
518.06	31089.34
518.24	31714.26
518.41	33387.74
518.58	35510.61
518.75	36170.64
518.93	34969.94
519.10	35496.56
519.27	35714.23
519.45	36573.21
519.62	36945.36
519.79	36987.49
519.96	37254.31
520.14	36423.42
520.31	35452.09
520.48	35700.19
520.65	36006.80
520.83	37743.48
521.00	37783.27
521.17	36737.05
521.34	37378.36
521.52	37436.87
521.69	37589.00
521.86	37748.16
522.03	37106.85
522.20	35899.14
522.38	34923.13
522.55	35868.71
522.72	35910.84
522.89	35716.58
523.07	36313.41
523.24	36133.19
523.41	37530.49
523.58	37525.81
523.75	38333.29
523.92	38801.40
524.10	38452.66
524.27	38820.13
524.44	38415.21
524.61	37776.25
524.78	37118.56
524.96	37120.90
525.13	36598.96
525.30	37308.14
525.47	37989.24
525.64	38827.15
525.81	36741.73
525.98	34698.44
526.16	34373.11
526.33	32297.05
526.50	31384.24
526.67	31281.26
526.84	33095.18
527.01	34639.93
527.18	35360.81
527.36	36526.40
527.53	36905.57
527.70	36638.75
527.87	35847.64
528.04	36910.25
528.21	36725.35
528.38	38581.39
528.55	39711.87
528.72	39988.05
528.89	39641.65
529.07	38990.98
529.24	36673.85
529.41	36650.45
529.58	36959.40
529.75	36863.44
529.92	38309.89
530.09	38129.67
530.26	38644.59
530.43	39218.02
530.60	39159.50
530.77	38712.46
530.94	38583.73
531.11	37497.72
531.28	36615.34
531.46	37509.43
531.63	37074.09
531.80	37104.51
531.97	35606.57
532.14	34881.00
532.31	33947.13
532.48	34763.98
532.65	34436.30
532.82	35196.98
532.99	37425.17
533.16	37617.09
533.33	37116.22
533.50	35395.92
533.67	36467.89
533.84	37137.28
534.01	36561.51
534.18	36329.80
534.35	37034.30
534.52	36488.95
534.69	38270.10
534.86	37998.60
535.03	36664.49
535.20	38047.75
535.37	39124.40
535.54	39084.61
535.71	38415.21
535.88	38010.30
536.05	36732.37
536.22	36811.95
536.38	36182.34
536.55	34141.39
536.72	34525.24
536.89	34855.26
537.06	35456.78
537.23	37689.65
537.40	37731.78
537.57	37577.30
537.74	37504.74
537.91	37244.94
538.08	36390.65
538.25	36013.82
538.42	36835.35
538.59	36992.17
538.75	35075.27
538.92	35718.92
539.09	36180.00
539.26	35526.99
539.43	35480.18
539.60	35204.00
539.77	36112.13
539.94	35519.97
540.11	33563.28
540.28	33507.11
540.44	33853.51
540.61	34534.60
540.78	35906.16
540.95	36608.32
541.12	35924.88
541.29	36123.83
541.46	36456.18
541.62	36439.80
541.79	37401.76
541.96	36484.27
542.13	34904.41
542.30	34827.17
542.47	35133.78
542.63	35007.39
542.80	34939.52
542.97	35620.61
543.14	34616.52
543.31	35370.18
543.48	36374.27
543.64	36809.61
543.81	37205.16
543.98	37090.47
544.15	36039.57
544.32	35110.38
544.48	35915.52
544.65	36425.76
544.82	36802.58
544.99	35681.47
545.16	35262.51
545.32	35655.72
545.49	36905.57
545.66	35754.02
545.83	35161.87
546.00	35147.82
546.16	35482.52
546.33	35405.28
546.50	34902.07
546.67	36793.22
546.83	35606.57
547.00	34873.98
547.17	34368.43
547.34	33972.88
547.50	34930.16
547.67	34906.75
547.84	35086.97
548.00	35428.69
548.17	35433.37
548.34	35592.53
548.51	35587.85
548.67	35971.69
548.84	36341.50
549.01	36505.34
549.18	36044.25
549.34	35409.96
549.51	35466.14
549.68	36123.83
549.84	35702.53
550.01	35082.29
550.18	35054.20
550.34	34909.09
550.51	34513.54
550.68	34728.87
550.84	34972.28
551.01	34522.90
551.18	34794.40
551.34	35557.42
551.51	34883.34
551.68	35498.91
551.84	35995.10
552.01	36297.03
552.18	35409.96
552.34	34771.00
552.51	34536.94
552.68	34836.53
552.84	35955.31
553.01	34696.10
553.18	34050.11
553.34	34897.39
553.51	35342.09
553.67	35063.57
553.84	34581.42
554.01	34773.34
554.17	34637.59
554.34	35393.58
554.51	34267.78
554.67	34775.68
554.84	35222.72
555.00	34780.36
555.17	34478.43
555.33	34005.64
555.50	34820.15
555.67	34052.45
555.83	33144.33
556.00	32393.01
556.16	33280.08
556.33	32477.27
556.50	33778.61
556.66	33706.05
556.83	34061.82
556.99	33343.27
557.16	33102.20
557.32	33699.03
557.49	34448.00
557.65	34595.46
557.82	34473.75
557.98	34314.59
558.15	34162.46
558.32	33397.10
558.48	32109.81
558.65	31545.74
558.81	30726.55
558.98	31461.48
559.14	32835.38
559.31	33610.09
559.47	32446.85
559.64	30988.69
559.80	30293.55
559.97	31777.45
560.13	33177.09
560.30	33347.95
560.46	34565.03
560.63	35019.10
560.79	35529.33
560.96	33132.62
561.12	31983.42
561.29	31754.05
561.45	30995.71
561.61	31754.05
561.78	31669.79
561.94	33020.28
562.11	32173.00
562.27	32865.80
562.44	33270.72
562.60	33193.48
562.77	33703.71
562.93	33273.06
563.10	31983.42
563.26	31983.42
563.42	32730.05
563.59	31482.55
563.75	31714.26
563.92	31817.24
564.08	32659.84
564.24	31508.29
564.41	31435.74
564.57	32769.84
564.74	31948.31
564.90	31295.30
565.07	31192.32
565.23	30321.64
565.39	30686.76
565.56	30691.44
565.72	30270.15
565.88	29694.38
566.05	30967.63
566.21	31941.29
566.38	30693.79
566.54	31473.18
566.70	31765.75
566.87	32063.00
567.03	31615.96
567.19	31037.84
567.36	31419.35
567.52	31061.25
567.68	31634.68
567.85	30473.78
568.01	29289.46
568.17	29846.51
568.34	31204.02
568.50	30586.12
568.66	32027.89
568.83	31365.52
568.99	30981.67
569.15	31098.70
569.32	31227.43
569.48	30293.55
569.64	29935.45
569.81	30522.93
569.97	30354.41
570.13	30373.13
570.30	29771.61
570.46	29315.21
570.62	28671.56
570.78	28758.16
570.95	29837.15
571.11	29846.51
571.27	30209.29
571.43	30639.95
571.60	30150.78
571.76	30576.76
571.92	30572.08
572.09	30204.61
572.25	30817.83
572.41	31704.90
572.57	32137.90
572.74	32245.56
572.90	30838.90
573.06	30319.30
573.22	29640.54
573.38	28945.41
573.55	30127.38
573.71	29418.19
573.87	29654.59
574.03	30160.14
574.20	29729.48
574.36	30464.41
574.52	30785.07
574.68	29399.47
574.84	28886.89
575.01	28400.06
575.17	28968.81
575.33	29067.11
575.49	28421.13
575.65	29027.32
575.82	29338.62
575.98	28769.86
576.14	28781.57
576.30	28606.03
576.46	28751.14
576.62	29376.06
576.79	29759.91
576.95	28797.95
577.11	27791.52
577.27	28556.88
577.43	29212.23
577.59	28699.65
577.75	28868.17
577.92	28116.86
578.08	27548.11
578.24	28299.42
578.40	27538.74
578.56	27861.74
578.72	28254.95
578.88	27896.85
579.04	28800.29
579.21	28650.50
579.37	28533.47
579.53	29373.72
579.69	30132.06
579.85	28809.65
580.01	28538.15
580.17	28306.44
580.33	28304.10
580.49	28381.34
580.65	27482.57
580.82	27868.76
580.98	28074.73
581.14	28994.56
581.30	28006.85
581.46	28278.35
581.62	27892.16
581.78	28194.09
581.94	28711.35
582.10	29259.04
582.26	28978.17
582.42	28781.57
582.58	28460.91
582.74	28786.25
582.90	28587.30
583.06	29008.60
583.22	28257.29
583.38	28940.72
583.54	28226.86
583.70	28521.77
583.86	28273.67
584.02	28734.76
584.18	28573.26
584.34	28910.30
584.50	28268.99
584.66	28025.57
584.82	27955.36
584.98	28020.89
585.14	27236.81
585.30	27658.11
585.46	27234.47
585.62	26705.51
585.78	27239.15
585.94	27274.26
586.10	26625.93
586.26	26757.00
586.42	27405.33
586.58	27349.16
