SpectraSuite Data File
++++++++++++++++++++++++++++++++++++
Date: Mon Oct 07 14:53:58 GMT-05:00 2013
User: price-jones
Dark Spectrum Present: No
Reference Spectrum Present: No
Number of Sampled Component Spectra: 1
Spectrometers: USB2+H05261
Integration Time (usec): 100000 (USB2+H05261)
Spectra Averaged: 1 (USB2+H05261)
Boxcar Smoothing: 0 (USB2+H05261)
Correct for Electrical Dark: No (USB2+H05261)
Strobe/Lamp Enabled: No (USB2+H05261)
Correct for Detector Non-linearity: No (USB2+H05261)
Correct for Stray Light: No (USB2+H05261)
Number of Pixels in Processed Spectrum: 2048
>>>>>Begin Processed Spectral Data<<<<<
365.73	0.00
365.92	0.00
366.12	0.00
366.32	0.00
366.52	0.00
366.72	0.00
366.91	0.00
367.11	0.00
367.31	0.00
367.51	0.00
367.70	0.00
367.90	0.00
368.10	0.00
368.30	0.00
368.49	0.00
368.69	0.00
368.89	0.00
369.09	0.00
369.28	0.00
369.48	0.00
369.68	0.00
369.87	0.00
370.07	0.00
370.27	0.00
370.47	713.86
370.66	3527.19
370.86	4184.88
371.06	4451.70
371.25	4519.57
371.45	4175.52
371.65	3791.67
371.84	3538.89
372.04	3810.39
372.24	4021.04
372.44	4271.48
372.63	4170.83
372.83	3854.86
373.03	3440.59
373.22	3141.00
373.42	3438.25
373.62	3829.12
373.81	4264.46
374.01	4252.75
374.21	3740.18
374.40	3555.27
374.60	3798.69
374.79	4058.49
374.99	4837.89
375.19	5177.26
375.38	5123.43
375.58	4788.74
375.78	4692.77
375.97	4854.27
376.17	5121.09
376.37	5046.20
376.56	5219.39
376.76	5476.85
376.95	5785.80
377.15	6188.38
377.35	6476.26
377.54	6857.77
377.74	6986.50
377.93	6986.50
378.13	6644.78
378.33	6253.91
378.52	5973.05
378.72	5678.14
378.91	5420.68
379.11	5277.91
379.31	5355.15
379.50	5317.70
379.70	5570.48
379.89	6303.06
380.09	6473.92
380.28	6815.64
380.48	6846.07
380.68	6593.29
380.87	6324.13
381.07	6015.18
381.26	5462.81
381.46	5261.52
381.65	5022.79
381.85	4807.46
382.04	4662.35
382.24	4327.65
382.43	4154.45
382.63	4135.73
382.83	4009.34
383.02	3981.25
383.22	3943.80
383.41	4046.79
383.61	4440.00
383.80	5111.73
384.00	5624.31
384.19	6401.37
384.39	6628.40
384.58	6670.53
384.78	6497.33
384.97	6415.41
385.17	6132.20
385.36	5804.53
385.56	5598.56
385.75	5713.25
385.95	6560.52
386.14	6932.67
386.34	6878.83
386.53	6621.38
386.72	6026.88
386.92	6148.59
387.11	6377.96
387.31	6972.46
387.50	6881.18
387.70	6649.46
387.89	6207.10
388.09	6614.35
388.28	6289.02
388.48	6614.35
388.67	6963.09
388.86	7812.71
389.06	8386.14
389.25	8978.30
389.45	8779.35
389.64	8945.53
389.84	8652.96
390.03	8549.98
390.22	8432.95
390.42	8699.77
390.61	9434.70
390.81	10031.54
391.00	10111.11
391.19	10267.93
391.39	9659.39
391.58	9100.00
391.78	8594.45
391.97	8336.99
392.16	8016.33
392.36	7157.36
392.55	5722.61
392.75	4531.28
392.94	3641.87
393.13	3632.51
393.33	4414.25
393.52	5509.62
393.71	6925.65
393.91	7686.32
394.10	8182.51
394.29	9205.33
394.49	9914.51
394.68	10712.63
394.88	10623.69
395.07	10967.75
395.26	10949.03
395.46	10724.33
395.65	10057.28
395.84	8833.18
396.04	7562.27
396.23	6155.61
396.42	5111.73
396.62	4798.10
396.81	5762.40
397.00	7140.97
397.19	9088.30
397.39	10974.77
397.58	12226.96
397.77	13008.70
397.97	13434.68
398.16	13242.75
398.35	13877.04
398.55	14396.64
398.74	14752.40
398.93	15014.54
399.12	14972.41
399.32	14476.21
399.51	14862.40
399.70	15810.32
399.90	15475.62
400.09	15728.40
400.28	15489.67
400.47	15569.24
400.67	16395.45
400.86	16755.90
401.05	16650.57
401.24	16933.78
401.44	17184.21
401.63	17163.15
401.82	17128.04
402.01	16910.37
402.21	17436.99
402.40	17542.32
402.59	17022.72
402.78	16081.82
402.97	15693.29
403.17	16222.25
403.36	17373.80
403.55	17804.46
403.74	18382.57
403.93	17411.25
404.13	16126.29
404.32	15782.23
404.51	16435.24
404.70	17668.70
404.89	17642.96
405.09	17476.78
405.28	16919.73
405.47	17081.23
405.66	16957.18
405.85	16407.16
406.05	15929.69
406.24	16133.31
406.43	16889.31
406.62	17563.38
406.81	17685.09
407.00	17226.34
407.20	16575.67
407.39	16603.76
407.58	17465.08
407.77	18232.77
407.96	19122.18
408.15	18984.09
408.34	19164.31
408.54	19955.41
408.73	19868.81
408.92	19920.30
409.11	19033.24
409.30	18192.98
409.49	17123.36
409.68	15840.75
409.87	15515.41
410.07	16294.81
410.26	17385.50
410.45	19054.30
410.64	19468.58
410.83	20107.54
411.02	20212.87
411.21	21191.21
411.40	21060.14
411.59	21252.06
411.78	20961.84
411.98	20577.99
412.17	21259.09
412.36	20620.12
412.55	20606.08
412.74	20266.70
412.93	19674.54
413.12	19899.23
413.31	21439.31
413.50	21982.31
413.69	22480.85
413.88	21982.31
414.07	20580.33
414.26	21092.91
414.45	21972.95
414.64	22263.18
414.83	22075.93
415.02	21607.83
415.22	21809.11
415.41	22340.41
415.60	22508.93
415.79	23814.95
415.98	23997.51
416.17	24320.51
416.36	23868.78
416.55	23421.74
416.74	22654.05
416.93	21345.69
417.12	21493.14
417.31	22307.65
417.50	22387.22
417.69	22892.78
417.88	23236.84
418.07	23002.78
418.26	22527.66
418.45	22799.16
418.64	23637.07
418.83	24379.02
419.02	24240.93
419.21	23950.70
419.39	22661.07
419.58	21799.75
419.77	21783.37
419.96	22728.94
420.15	24011.56
420.34	24643.50
420.53	25486.09
420.72	25965.90
420.91	25610.14
421.10	25490.77
421.29	25390.13
421.48	24046.66
421.67	25724.83
421.86	24762.87
422.05	23510.68
422.24	20891.62
422.43	20594.37
422.61	22398.93
422.80	24915.00
422.99	24624.78
423.18	23789.20
423.37	22888.10
423.56	23559.83
423.75	23943.68
423.94	24264.33
424.13	22965.34
424.32	23061.30
424.50	23126.83
424.69	22967.68
424.88	22899.80
425.07	22946.61
425.26	22707.88
425.45	22473.82
425.64	22375.52
425.83	22209.34
426.01	23716.65
426.20	23749.42
426.39	23709.63
426.58	22038.48
426.77	20592.03
426.96	19611.35
427.15	20250.32
427.33	22143.81
427.52	23028.53
427.71	23283.65
427.90	22941.93
428.09	22731.28
428.28	22249.13
428.46	21273.13
428.65	21125.68
428.84	21806.77
429.03	22045.51
429.22	20765.23
429.40	19721.35
429.59	17713.17
429.78	15847.77
429.97	15868.83
430.16	16095.86
430.34	16102.89
430.53	16271.40
430.72	16692.70
430.91	18153.20
431.10	21668.68
431.28	25085.86
431.47	27314.05
431.66	27328.10
431.85	25099.90
432.03	23105.77
432.22	21834.86
432.41	23075.34
432.60	25603.12
432.79	26396.56
432.97	26981.70
433.16	26567.42
433.35	24458.60
433.54	21614.85
433.72	20430.54
433.91	20858.85
434.10	23754.10
434.28	25340.98
434.47	26436.35
434.66	25792.70
434.85	25565.67
435.03	24961.81
435.22	25862.92
435.41	27543.42
435.59	27700.24
435.78	27915.57
435.97	28938.38
436.16	28861.15
436.34	28245.58
436.53	27660.45
436.72	27910.89
436.90	26024.42
437.09	26054.84
437.28	25891.01
437.46	26621.25
437.65	27112.77
437.84	25010.96
438.02	22597.87
438.21	22860.01
438.40	23714.31
438.58	25860.58
438.77	26731.26
438.96	27122.13
439.14	28032.60
439.33	28503.04
439.52	28816.68
439.70	28568.58
439.89	28116.86
440.08	26878.71
440.26	26979.36
440.45	27796.20
440.63	29771.61
440.82	30792.09
441.01	31175.94
441.19	30419.94
441.38	31089.34
441.57	32051.30
441.75	32610.68
441.94	32664.52
442.12	32367.27
442.31	33537.54
442.50	32999.21
442.68	32563.87
442.87	32119.17
443.05	31810.22
443.24	31625.32
443.43	33036.66
443.61	33354.97
443.80	34052.45
443.98	32060.66
444.17	31615.96
444.35	33837.12
444.54	34438.64
444.73	34394.17
444.91	32512.38
445.10	31557.44
445.28	29820.77
445.47	29666.29
445.65	29291.80
445.84	30338.02
446.02	31688.51
446.21	31868.73
446.39	32247.90
446.58	32643.45
446.77	33167.73
446.95	33280.08
447.14	34541.63
447.32	34370.77
447.51	33982.24
447.69	32720.69
447.88	32325.14
448.06	32840.06
448.25	33329.23
448.43	34073.52
448.62	33062.41
448.80	32917.29
448.99	33048.36
449.17	33476.68
449.36	33298.80
449.54	34700.78
449.73	35353.79
449.91	35641.68
450.10	36776.84
450.28	37214.52
450.46	36893.86
450.65	36893.86
450.83	36301.71
451.02	35550.40
451.20	35758.70
451.39	35405.28
451.57	34761.64
451.76	35409.96
451.94	35194.64
452.13	34714.83
452.31	32854.10
452.49	31487.23
452.68	31950.65
452.86	31943.63
453.05	32098.11
453.23	33207.52
453.42	34230.33
453.60	34845.90
453.78	34925.47
453.97	34705.46
454.15	34728.87
454.34	33853.51
454.52	34134.37
454.70	33326.89
454.89	33738.82
455.07	33677.97
455.26	34452.69
455.44	35864.03
455.62	36278.30
455.81	36285.33
455.99	36280.64
456.17	35936.59
456.36	35955.31
456.54	37116.22
456.73	36950.04
456.91	37380.70
457.09	37738.80
457.28	38356.70
457.46	36706.62
457.64	36430.44
457.83	35562.10
458.01	34824.83
458.19	35580.82
458.38	35718.92
458.56	36982.80
458.74	36854.08
458.93	36116.81
459.11	36273.62
459.29	35651.04
459.48	35838.28
459.66	35484.86
459.84	36423.42
460.03	36261.92
460.21	36718.32
460.39	37340.91
460.57	37682.62
460.76	38092.22
460.94	38312.23
461.12	37254.31
461.31	37738.80
461.49	37504.74
461.67	37600.71
461.85	38913.75
462.04	38209.25
462.22	39218.02
462.40	38735.87
462.59	38291.16
462.77	38431.60
462.95	38499.47
463.13	38075.84
463.32	37942.42
463.50	37324.52
463.68	37617.09
463.86	37586.66
464.05	36622.36
464.23	36311.07
464.41	36229.15
464.59	35571.46
464.78	37464.96
464.96	37095.15
465.14	36304.05
465.32	37347.93
465.50	38733.53
465.69	38433.94
465.87	38134.35
466.05	37268.35
466.23	35491.88
466.41	34705.46
466.60	35576.14
466.78	35660.40
466.96	36584.91
467.14	36903.23
467.32	37507.08
467.51	37598.37
467.69	35917.86
467.87	36725.35
468.05	37074.09
468.23	36643.43
468.41	37043.66
468.60	37481.34
468.78	37813.70
468.96	36975.78
469.14	37809.01
469.32	37954.13
469.50	36418.74
469.69	36306.39
469.87	35817.22
470.05	35620.61
470.23	35585.50
470.41	35948.29
470.59	36397.67
470.77	36849.39
470.95	37448.57
471.14	38174.14
471.32	37766.88
471.50	39831.24
471.68	39842.94
471.86	40659.79
472.04	40470.20
472.22	40765.11
472.40	38820.13
472.58	38667.99
472.77	38132.01
472.95	38740.55
473.13	39761.02
473.31	38572.03
473.49	38806.08
473.67	39283.55
473.85	40074.65
474.03	41036.61
474.21	40739.36
474.39	40942.99
474.57	40940.65
474.75	41603.02
474.93	40994.48
475.12	40247.85
475.30	40266.58
475.48	40353.18
475.66	41181.73
475.84	40535.74
476.02	39941.24
476.20	39391.22
476.38	40236.15
476.56	41432.16
476.74	41916.65
476.92	42616.47
477.10	43152.46
477.28	43775.04
477.46	43412.26
477.64	43997.39
477.82	44325.07
478.00	44456.14
478.18	44009.09
478.36	43826.53
478.54	43667.37
478.72	44397.62
478.90	44865.73
479.08	46590.70
479.26	46497.08
479.44	46646.88
479.62	46028.98
479.80	46382.40
479.98	46344.95
480.16	46515.81
480.34	46536.87
480.52	46600.07
480.70	46824.76
480.88	47243.71
481.06	48067.58
481.24	48027.79
481.41	49132.53
481.59	49469.56
481.77	48942.94
481.95	48566.12
482.13	48208.01
482.31	48121.41
482.49	49031.88
482.67	48992.09
482.85	49223.81
483.03	49687.23
483.21	50181.09
483.39	50181.09
483.57	49031.88
483.74	48959.33
483.92	49375.94
484.10	49380.62
484.28	50108.53
484.46	50728.77
484.64	51110.28
484.82	50300.45
485.00	49680.21
485.18	48931.24
485.35	47882.68
485.53	44545.08
485.71	40704.26
485.89	40194.02
486.07	42366.04
486.25	45710.66
486.43	48044.18
486.61	48905.49
486.78	48713.57
486.96	48900.81
487.14	50473.65
487.32	51079.85
487.50	52210.33
487.68	52989.73
487.85	53357.19
488.03	53396.98
488.21	52828.23
488.39	52250.12
488.57	51749.24
488.75	51098.58
488.92	52683.12
489.10	54124.89
489.28	55510.49
489.46	56135.41
489.64	55992.64
489.81	56210.31
489.99	55730.50
490.17	55606.45
490.35	56097.96
490.53	55620.49
490.70	55199.19
490.88	55337.29
491.06	56186.90
491.24	56133.07
491.41	55075.15
491.59	53588.91
491.77	52907.81
491.95	54213.83
492.13	55138.34
492.30	56306.27
492.48	57052.90
492.66	57453.13
492.84	57319.72
493.01	57153.54
493.19	56610.54
493.37	56151.79
493.54	55899.01
493.72	56725.22
493.90	57668.46
494.08	58094.44
494.25	58681.91
494.43	58583.61
494.61	59178.10
494.79	59007.25
494.96	59065.76
495.14	58398.71
495.32	57565.48
495.49	57022.47
495.67	58047.63
495.85	59150.02
496.02	59391.09
496.20	59150.02
496.38	58789.58
496.55	58794.26
496.73	59363.01
496.91	59100.87
497.09	59980.91
497.26	59999.63
497.44	59550.25
497.62	59082.14
497.79	58234.87
497.97	57097.37
498.14	57403.98
498.32	58396.37
498.50	59227.26
498.67	59781.96
498.85	59409.82
499.03	59753.88
499.20	59870.90
499.38	60095.60
499.56	59763.24
499.73	59253.00
499.91	58852.77
500.08	58548.50
500.26	57895.49
500.44	58253.59
500.61	58618.72
500.79	58820.00
500.97	58260.62
501.14	58293.38
501.32	57970.39
501.49	58073.37
501.67	58288.70
501.84	58679.57
502.02	58885.54
502.20	59367.69
502.37	59636.85
502.55	59756.22
502.72	60051.12
502.90	60331.99
503.07	60168.15
503.25	59861.54
503.43	59025.97
503.60	58431.47
503.78	57815.91
503.95	58183.38
504.13	59458.97
504.30	60205.60
504.48	60147.09
504.65	59812.39
504.83	59784.30
505.01	60439.65
505.18	60570.72
505.36	61223.73
505.53	61209.69
505.71	61429.70
505.88	61357.14
506.06	60830.52
506.23	60664.35
506.41	60296.88
506.58	60498.17
506.76	60353.05
506.93	60425.61
507.11	60107.30
507.28	60460.72
507.46	59920.05
507.63	59419.18
507.81	58983.84
507.98	59510.46
508.16	60034.74
508.33	60430.29
508.50	60762.65
508.68	61080.96
508.85	61619.28
509.03	61434.38
509.20	61490.55
509.38	60774.35
509.55	60067.51
509.73	60114.32
509.90	60636.26
510.08	60851.59
510.25	60708.82
510.42	60409.23
510.60	60472.42
510.77	60938.19
510.95	61186.28
511.12	61399.27
511.30	61715.25
511.47	62031.22
511.64	61886.10
511.82	61588.86
511.99	60762.65
512.17	60460.72
512.34	59929.42
512.51	60189.22
512.69	60324.97
512.86	60573.06
513.04	60992.02
513.21	60757.97
513.38	60360.08
513.56	60104.96
513.73	59552.59
513.90	59796.01
514.08	59711.75
514.25	59973.89
514.43	60179.85
514.60	60264.11
514.77	60411.57
514.95	60446.68
515.12	60598.81
515.29	60664.35
515.47	61087.98
515.64	61382.89
515.81	60956.91
515.99	60589.45
516.16	58993.20
516.33	57305.68
516.51	55709.43
516.68	55065.78
516.85	54761.51
517.03	55030.68
517.20	57373.55
517.37	59779.62
517.54	60467.74
517.72	59901.33
517.89	57851.02
518.06	55543.25
518.24	56130.73
518.41	57977.41
518.58	59161.72
518.75	59564.29
518.93	59681.32
519.10	59496.42
519.27	59913.03
519.45	59901.33
519.62	60594.13
519.79	60973.30
519.96	60949.89
520.14	60385.82
520.31	59765.58
520.48	59559.61
520.65	59948.14
520.83	60690.09
521.00	61420.34
521.17	60858.61
521.34	60594.13
521.52	60809.46
521.69	61361.82
521.86	61778.44
522.03	61366.51
522.20	60252.41
522.38	59363.01
522.55	59253.00
522.72	59786.64
522.89	59983.25
523.07	60055.81
523.24	60388.16
523.41	61144.16
523.58	61542.05
523.75	61886.10
523.92	61684.82
524.10	61659.07
524.27	61790.14
524.44	61439.06
524.61	61389.91
524.78	61144.16
524.96	61176.92
525.13	61102.03
525.30	61338.42
525.47	61757.38
525.64	61764.40
525.81	60837.54
525.98	59758.56
526.16	58396.37
526.33	57862.72
526.50	57523.35
526.67	56952.26
526.84	57696.55
527.01	58557.86
527.18	59185.13
527.36	60062.83
527.53	61027.13
527.70	61165.22
527.87	60608.17
528.04	60186.88
528.21	60828.18
528.38	61300.97
528.55	61900.15
528.72	62141.22
528.89	62176.33
529.07	61935.26
529.24	61340.76
529.41	60729.88
529.58	60107.30
529.75	60264.11
529.92	60921.80
530.09	61085.64
530.26	61640.35
530.43	61968.02
530.60	61839.29
530.77	62054.62
530.94	62092.07
531.11	61860.36
531.28	61291.61
531.46	61228.41
531.63	61523.32
531.80	61134.79
531.97	60814.14
532.14	60196.24
532.31	59206.19
532.48	58667.87
532.65	58637.44
532.82	59449.61
532.99	60416.25
533.16	60776.69
533.33	61240.12
533.50	61183.94
533.67	60704.13
533.84	60076.87
534.01	60374.12
534.18	60605.83
534.35	60647.96
534.52	60500.51
534.69	60772.01
534.86	60968.61
535.03	61310.33
535.20	61666.09
535.37	62063.99
535.54	61979.73
535.71	61855.68
535.88	61453.11
536.05	60940.53
536.22	60350.71
536.38	60477.10
536.55	59606.42
536.72	59304.49
536.89	59128.95
537.06	59854.52
537.23	60772.01
537.40	60846.91
537.57	60776.69
537.74	60823.50
537.91	60633.92
538.08	60643.28
538.25	60638.60
538.42	60832.86
538.59	60690.09
538.75	60264.11
538.92	59817.07
539.09	59833.46
539.26	59634.51
539.43	59496.42
539.60	59461.31
539.77	59632.17
539.94	59519.82
540.11	58763.83
540.28	58295.72
540.44	58295.72
540.61	58665.53
540.78	58864.47
540.95	59561.95
541.12	59620.47
541.29	59739.83
541.46	60430.29
541.62	60203.26
541.79	60240.71
541.96	59505.78
542.13	59316.20
542.30	59660.26
542.47	59796.01
542.63	59765.58
542.80	59325.56
542.97	59664.94
543.14	59475.35
543.31	59634.51
543.48	59910.69
543.64	60823.50
543.81	60977.98
543.98	60865.63
544.15	60083.89
544.32	59566.63
544.48	59744.51
544.65	59997.29
544.82	60425.61
544.99	60051.12
545.16	59803.03
545.32	59231.94
545.49	60130.70
545.66	60563.70
545.83	60135.38
546.00	59835.80
546.16	59648.55
546.33	59686.00
546.50	59739.83
546.67	60067.51
546.83	59845.16
547.00	59622.81
547.17	59124.27
547.34	58595.31
547.50	58599.99
547.67	58920.65
547.84	59189.81
548.00	59503.44
548.17	59625.15
548.34	59473.01
548.51	59643.87
548.67	59678.98
548.84	59611.10
549.01	59540.89
549.18	59437.90
549.34	59494.08
549.51	59714.09
549.68	59561.95
549.84	59295.13
550.01	59196.83
550.18	59107.89
550.34	59185.13
550.51	59440.24
550.68	59100.87
550.84	58672.55
551.01	58820.00
551.18	58948.73
551.34	58932.35
551.51	59110.23
551.68	59550.25
551.84	59686.00
552.01	59414.50
552.18	59243.64
552.34	58527.44
552.51	58127.20
552.68	58145.93
552.84	58592.97
553.01	58974.48
553.18	58815.32
553.34	58660.85
553.51	58918.31
553.67	59229.60
553.84	59332.58
554.01	59262.36
554.17	59150.02
554.34	58887.88
554.51	59131.29
554.67	59693.02
554.84	59433.22
555.00	58993.20
555.17	58894.90
555.33	58850.43
555.50	58436.16
555.67	58761.49
555.83	58728.72
556.00	58234.87
556.16	58408.07
556.33	57797.19
556.50	57832.30
556.66	57874.43
556.83	57387.60
556.99	57869.75
557.16	57705.91
557.32	57984.43
557.49	58265.30
557.65	58085.07
557.82	58237.21
557.98	58045.29
558.15	57708.25
558.32	56931.19
558.48	56083.92
558.65	56210.31
558.81	56591.81
558.98	56956.94
559.14	57286.95
559.31	57303.34
559.47	57080.98
559.64	56849.27
559.80	56427.98
559.97	56713.52
560.13	57193.33
560.30	57710.59
560.46	58375.30
560.63	58574.25
560.79	58560.20
560.96	58066.35
561.12	56970.98
561.29	56439.68
561.45	56591.81
561.61	56891.40
561.78	57286.95
561.94	56956.94
562.11	57050.56
562.27	56701.82
562.44	57153.54
562.60	57485.90
562.77	57748.04
562.93	57609.95
563.10	57387.60
563.26	56898.42
563.42	57305.68
563.59	56687.78
563.75	56591.81
563.92	56982.68
564.08	56800.12
564.24	57062.26
564.41	57106.73
564.57	56842.25
564.74	56926.51
564.90	56853.95
565.07	56680.75
565.23	56271.16
565.39	55814.76
565.56	55419.20
565.72	55327.92
565.88	55721.13
566.05	55735.18
566.21	56023.06
566.38	55994.98
566.54	56411.59
566.70	56554.36
566.87	56942.89
567.03	56757.99
567.19	56938.21
567.36	56669.05
567.52	56566.07
567.68	56294.56
567.85	55498.78
568.01	55330.26
568.17	54782.58
568.34	55341.97
568.50	54946.42
568.66	55210.90
568.83	55690.71
568.99	55400.48
569.15	55566.66
569.32	55641.56
569.48	55243.66
569.64	55166.43
569.81	55164.09
569.97	54817.69
570.13	54777.90
570.30	54546.18
570.46	53890.83
570.62	53516.35
570.78	53394.64
570.95	53572.52
571.11	54274.68
571.27	54419.80
571.43	54361.28
571.60	55075.15
571.76	55025.99
571.92	55276.43
572.09	55679.00
572.25	55363.03
572.41	55437.93
572.57	55367.71
572.74	55348.99
572.90	54876.20
573.06	54885.56
573.22	54997.91
573.38	54787.26
573.55	54955.78
573.71	55075.15
573.87	55128.98
574.03	54838.75
574.20	54880.88
574.36	54335.54
574.52	54436.18
574.68	54230.21
574.84	54007.86
575.01	53242.51
575.17	53310.38
575.33	53443.79
575.49	53677.85
575.65	53848.71
575.82	53418.05
575.98	53322.08
576.14	53998.50
576.30	54190.42
576.46	54073.40
576.62	54319.15
576.79	54057.01
576.95	53516.35
577.11	53549.12
577.27	53741.04
577.43	53921.26
577.59	53460.18
577.75	53055.26
577.92	52287.57
578.08	52191.61
578.24	52240.76
578.40	52519.28
578.56	52971.00
578.72	52823.55
578.88	52877.38
579.04	53198.04
579.21	53134.84
579.37	53062.29
579.53	53499.97
579.69	53378.26
579.85	53539.75
580.01	53172.29
580.17	52516.94
580.33	52755.68
580.49	52800.15
580.65	52940.58
580.82	53347.83
580.98	53396.98
581.14	53120.80
581.30	53258.89
581.46	53244.85
581.62	53602.95
581.78	53181.65
581.94	53364.21
582.10	53176.97
582.26	53537.41
582.42	53474.22
582.58	53757.42
582.74	53298.68
582.90	53542.10
583.06	53282.30
583.22	53158.25
583.38	53174.63
583.54	52971.00
583.70	53045.90
583.86	53270.59
584.02	52734.61
584.18	52942.92
584.34	52989.73
584.50	52858.66
584.66	52701.84
584.82	52430.34
584.98	52172.88
585.14	51779.67
