SpectraSuite Data File
++++++++++++++++++++++++++++++++++++
Date: Mon Oct 07 14:55:01 GMT-05:00 2013
User: price-jones
Dark Spectrum Present: No
Reference Spectrum Present: No
Number of Sampled Component Spectra: 1
Spectrometers: USB2+H05261
Integration Time (usec): 10000 (USB2+H05261)
Spectra Averaged: 1 (USB2+H05261)
Boxcar Smoothing: 0 (USB2+H05261)
Correct for Electrical Dark: No (USB2+H05261)
Strobe/Lamp Enabled: No (USB2+H05261)
Correct for Detector Non-linearity: No (USB2+H05261)
Correct for Stray Light: No (USB2+H05261)
Number of Pixels in Processed Spectrum: 2048
>>>>>Begin Processed Spectral Data<<<<<
365.73	0.00
365.92	0.00
366.12	0.00
366.32	0.00
366.52	0.00
366.72	0.00
366.91	0.00
367.11	0.00
367.31	0.00
367.51	0.00
367.70	0.00
367.90	0.00
368.10	0.00
368.30	0.00
368.49	0.00
368.69	0.00
368.89	0.00
369.09	0.00
369.28	0.00
369.48	0.00
369.68	0.00
369.87	0.00
370.07	0.00
370.27	0.00
370.47	332.36
370.66	2225.85
370.86	2773.53
371.06	2906.95
371.25	2827.37
371.45	2679.91
371.65	2396.71
371.84	2427.14
372.04	2537.14
372.24	2679.91
372.44	2729.06
372.63	2647.15
372.83	2497.35
373.03	2188.40
373.22	2038.61
373.42	2197.76
373.62	2534.80
373.81	2799.28
374.01	2623.74
374.21	2401.39
374.40	2242.23
374.60	2410.75
374.79	2722.04
374.99	3183.13
375.19	3356.33
375.38	3297.81
375.58	3110.57
375.78	3094.19
375.97	3159.72
376.17	3136.32
376.37	3213.56
376.56	3375.05
376.76	3609.11
376.95	3833.80
377.15	3985.93
377.35	4278.50
377.54	4327.65
377.74	4589.79
377.93	4510.21
378.13	4393.19
378.33	4203.60
378.52	3712.09
378.72	3693.37
378.91	3609.11
379.11	3391.44
379.31	3236.96
379.50	3414.84
379.70	3831.46
379.89	4348.72
380.09	4299.56
380.28	4535.96
380.48	4545.32
380.68	4201.26
380.87	4236.37
381.07	3815.07
381.26	3597.40
381.46	3295.47
381.65	3211.22
381.85	3183.13
382.04	2958.44
382.24	2818.00
382.43	2740.77
382.63	2672.89
382.83	2715.02
383.02	2583.95
383.22	2640.12
383.41	2745.45
383.61	2925.67
383.80	3286.11
384.00	3981.25
384.19	4252.75
384.39	4493.83
384.58	4355.74
384.78	4283.18
384.97	4266.80
385.17	3990.61
385.36	3786.99
385.56	3726.13
385.75	3765.92
385.95	4292.54
386.14	4421.27
386.34	4575.75
386.53	4348.72
386.72	4063.17
386.92	4194.24
387.11	4531.28
387.31	4540.64
387.50	4458.72
387.70	4355.74
387.89	4304.25
388.09	4461.06
388.28	4423.61
388.48	4503.19
388.67	4788.74
388.86	5507.28
389.06	5708.57
389.25	5830.27
389.45	5982.41
389.64	5895.81
389.84	5916.87
390.03	5935.60
390.22	6001.13
390.42	6181.35
390.61	6504.35
390.81	6864.79
391.00	6960.75
391.19	6951.39
391.39	6621.38
391.58	6169.65
391.78	5912.19
391.97	5699.20
392.16	5308.34
392.36	4517.23
392.55	3665.28
392.75	2967.80
392.94	2537.14
393.13	2612.04
393.33	3363.35
393.52	4016.36
393.71	4983.00
393.91	5472.17
394.10	5956.66
394.29	6382.64
394.49	6937.35
394.68	7557.59
394.88	7269.70
395.07	7789.30
395.26	7655.89
395.46	7295.45
395.65	6623.72
395.84	5755.38
396.04	4816.82
396.23	3775.28
396.42	3405.48
396.62	3382.07
396.81	3990.61
397.00	5394.93
397.19	6743.08
397.39	7639.51
397.58	8802.75
397.77	9195.96
397.97	9308.31
398.16	9334.06
398.35	9734.29
398.55	9720.24
398.74	10480.92
398.93	10635.39
399.12	10406.02
399.32	10003.45
399.51	10457.51
399.70	10972.43
399.90	10794.55
400.09	10974.77
400.28	10977.11
400.47	11042.65
400.67	11557.57
400.86	11826.73
401.05	11751.83
401.24	11819.71
401.44	12035.03
401.63	12224.62
401.82	11941.41
402.01	11962.48
402.21	12360.37
402.40	12194.19
402.59	11721.40
402.78	11250.96
402.97	11178.40
403.17	11857.15
403.36	12264.41
403.55	12732.51
403.74	12837.84
403.93	12086.53
404.13	11052.01
404.32	11342.24
404.51	11932.05
404.70	12215.26
404.89	12283.13
405.09	12355.69
405.28	11908.65
405.47	12224.62
405.66	11871.20
405.85	11555.22
406.05	11630.12
406.24	11868.86
406.43	12149.72
406.62	12475.06
406.81	12648.26
407.00	12053.76
407.20	11777.58
407.39	12058.44
407.58	12879.97
407.77	12994.65
407.96	13626.60
408.15	13872.36
408.34	13678.09
408.54	13991.72
408.73	14136.84
408.92	14122.79
409.11	13579.79
409.30	12940.82
409.49	12016.31
409.68	11587.99
409.87	11190.10
410.07	12114.61
410.26	12903.37
410.45	13446.38
410.64	14015.13
410.83	14497.28
411.02	14874.10
411.21	15026.24
411.40	15232.21
411.59	15379.66
411.78	15136.24
411.98	14848.36
412.17	15463.92
412.36	14932.62
412.55	14892.83
412.74	14193.01
412.93	14380.25
413.12	14792.19
413.31	16166.08
413.50	16161.40
413.69	16346.30
413.88	15428.81
414.07	15234.55
414.26	15896.92
414.45	16173.10
414.64	16173.10
414.83	16123.95
415.02	15840.75
415.22	16023.31
415.41	16475.03
415.60	16959.52
415.79	17170.17
415.98	17462.74
416.17	17811.48
416.36	17081.23
416.55	16996.97
416.74	16009.26
416.93	15609.03
417.12	16233.96
417.31	16109.91
417.50	16575.67
417.69	16856.54
417.88	16776.96
418.07	16585.04
418.26	16814.41
418.45	17020.38
418.64	17490.82
418.83	18185.96
419.02	17401.88
419.21	17235.70
419.39	16585.04
419.58	15978.84
419.77	16266.72
419.96	17322.30
420.15	17802.11
420.34	18665.77
420.53	19066.00
420.72	19234.52
420.91	19005.15
421.10	18743.01
421.29	18710.24
421.48	18340.44
421.67	19108.13
421.86	17947.23
422.05	16528.86
422.24	15056.67
422.43	16205.87
422.61	17631.26
422.80	18452.78
422.99	17851.27
423.18	17310.60
423.37	17280.18
423.56	17720.20
423.75	18033.83
423.94	18366.18
424.13	17149.11
424.32	17350.39
424.50	17245.07
424.69	17291.88
424.88	17745.94
425.07	17584.44
425.26	17310.60
425.45	16704.40
425.64	16540.57
425.83	17259.11
426.01	17701.47
426.20	18092.34
426.39	17675.73
426.58	16140.33
426.77	15442.85
426.96	15262.63
427.15	15845.43
427.33	17202.94
427.52	17305.92
427.71	17664.02
427.90	17399.54
428.09	17188.89
428.28	16959.52
428.46	15995.22
428.65	15990.54
428.84	16776.96
429.03	16865.90
429.22	15538.82
429.40	14574.52
429.59	13224.03
429.78	11815.02
429.97	12107.59
430.16	12077.16
430.34	11981.20
430.53	12561.66
430.72	13116.36
430.91	14611.96
431.10	17348.05
431.28	19318.78
431.47	20650.55
431.66	20690.34
431.85	18429.38
432.03	17029.74
432.22	17137.40
432.41	18251.50
432.60	19569.22
432.79	20620.12
432.97	20695.02
433.16	19833.70
433.35	17715.51
433.54	16112.25
433.72	15646.48
433.91	16767.60
434.10	18874.08
434.28	19838.38
434.47	20659.91
434.66	19403.04
434.85	19178.35
435.03	19538.79
435.22	20060.73
435.41	20947.79
435.59	21362.07
435.78	21207.59
435.97	21673.36
436.16	21921.46
436.34	21551.65
436.53	21378.45
436.72	21366.75
436.90	20245.63
437.09	20348.62
437.28	20182.44
437.46	20837.79
437.65	20107.54
437.84	18485.55
438.02	17465.08
438.21	17987.02
438.40	18356.82
438.58	19693.27
438.77	20755.87
438.96	20922.05
439.14	22185.94
439.33	21841.88
439.52	22221.05
439.70	21645.27
439.89	20919.71
440.08	20912.69
440.26	20379.04
440.45	21806.77
440.63	23482.59
440.82	24383.70
441.01	23644.09
441.19	23501.32
441.38	24278.38
441.57	25090.54
441.75	25345.66
441.94	25556.31
442.12	25088.20
442.31	26045.48
442.50	25336.30
442.68	24996.92
442.87	25069.48
443.05	24470.30
443.24	25294.17
443.43	25380.77
443.61	26036.12
443.80	26373.16
443.98	25127.99
444.17	24889.26
444.35	26665.72
444.54	27337.46
444.73	25998.67
444.91	24898.62
445.10	24020.92
445.28	23154.92
445.47	22836.61
445.65	23175.98
445.84	24180.07
446.02	24783.93
446.21	25511.84
446.39	24861.17
446.58	25769.30
446.77	26096.97
446.95	26288.90
447.14	26749.98
447.32	27264.90
447.51	26661.04
447.69	25851.22
447.88	25422.90
448.06	26265.49
448.25	26307.62
448.43	26052.50
448.62	26544.02
448.80	25678.02
448.99	25773.98
449.17	26462.10
449.36	26581.46
449.54	27538.74
449.73	27798.54
449.91	28039.62
450.10	29111.58
450.28	28709.01
450.46	28882.21
450.65	28723.05
450.83	28631.77
451.02	28002.17
451.20	27992.81
451.39	28371.97
451.57	28369.63
451.76	28088.77
451.94	27374.91
452.13	26892.76
452.31	25305.87
452.49	24236.25
452.68	25263.74
452.86	25862.92
453.05	26061.87
453.23	27098.72
453.42	27353.84
453.60	27899.19
453.78	27960.04
453.97	27447.46
454.15	27314.05
454.34	26148.46
454.52	26649.34
454.70	26443.37
454.89	26719.56
455.07	26958.29
455.26	27110.43
455.44	28233.88
455.62	28968.81
455.81	28334.53
455.99	28652.84
456.17	28870.51
456.36	29521.18
456.54	29586.71
456.73	29287.12
456.91	30005.67
457.09	29668.63
457.28	30806.13
457.46	29055.41
457.64	28673.90
457.83	28500.70
458.01	27763.43
458.19	28690.29
458.38	29486.07
458.56	29823.11
458.74	29099.88
458.93	28910.30
459.11	28709.01
459.29	28409.42
459.48	28701.99
459.66	28716.03
459.84	29060.09
460.03	29362.02
460.21	29687.36
460.39	30110.99
460.57	30157.80
460.76	29991.62
460.94	30551.01
461.12	30029.07
461.31	30246.74
461.49	30696.13
461.67	29956.52
461.85	30986.35
462.04	30642.29
462.22	30916.14
462.40	30913.80
462.59	30553.35
462.77	30588.46
462.95	30511.22
463.13	29762.25
463.32	30092.27
463.50	29455.64
463.68	30038.44
463.86	30745.28
464.05	29378.40
464.23	28582.62
464.41	29142.01
464.59	28238.56
464.78	30103.97
464.96	30096.95
465.14	28781.57
465.32	30623.57
465.50	31077.63
465.69	32126.19
465.87	30684.42
466.05	29841.83
466.23	28446.87
466.41	27782.16
466.60	29446.28
466.78	28959.45
466.96	29488.41
467.14	30017.37
467.32	30176.53
467.51	29930.77
467.69	28470.28
467.87	29340.96
468.05	30295.89
468.23	30052.48
468.41	29579.69
468.60	29888.64
468.78	30562.72
468.96	30260.79
469.14	30347.39
469.32	30609.53
469.50	29010.94
469.69	29586.71
469.87	29338.62
470.05	28978.17
470.23	29308.19
470.41	29156.05
470.59	29883.96
470.77	29677.99
470.95	30838.90
471.14	31297.64
471.32	31115.08
471.50	32606.00
471.68	32690.26
471.86	33116.24
472.04	32247.90
472.22	33256.67
472.40	31622.98
472.58	31445.10
472.77	31342.11
472.95	31723.62
473.13	32353.23
473.31	31187.64
473.49	31372.54
473.67	32467.91
473.85	32596.64
474.03	34218.63
474.21	34410.56
474.39	34506.52
474.57	33956.49
474.75	34220.97
474.93	33734.14
475.12	32992.19
475.30	33455.62
475.48	32723.03
475.66	32531.11
475.84	32329.82
476.02	32507.70
476.20	32395.35
476.38	33156.03
476.56	34022.03
476.74	35129.10
476.92	35058.88
477.10	34934.84
477.28	36353.20
477.46	36191.70
477.64	36409.37
477.82	36928.97
478.00	36842.37
478.18	35835.94
478.36	35328.05
478.54	36472.57
478.72	37186.43
478.90	38309.89
479.08	39880.39
479.26	39431.01
479.44	39353.77
479.62	38426.92
479.80	39126.74
479.98	39079.92
480.16	39915.50
480.34	38696.08
480.52	39765.70
480.70	40268.92
480.88	39620.59
481.06	40734.68
481.24	40353.18
481.41	41876.86
481.59	42866.91
481.77	41120.87
481.95	40671.49
482.13	40161.25
482.31	40807.24
482.49	41661.54
482.67	41291.73
482.85	41336.20
483.03	41607.70
483.21	43133.73
483.39	41869.84
483.57	41202.79
483.74	41755.16
483.92	42171.77
484.10	42246.67
484.28	42480.72
484.46	42089.85
484.64	44573.16
484.82	43026.07
485.00	42019.64
485.18	41673.24
485.35	39503.56
485.53	34979.31
485.71	33240.29
485.89	33544.56
486.07	35674.45
486.25	38277.12
486.43	40825.96
486.61	41064.70
486.78	40701.92
486.96	42164.75
487.14	43449.70
487.32	43917.81
487.50	44776.79
487.68	46686.67
487.85	47124.35
488.03	46153.02
488.21	45813.65
488.39	45600.66
488.57	44561.46
488.75	44147.18
488.92	45504.70
489.10	48231.42
489.28	48683.14
489.46	50766.22
489.64	50092.15
489.81	50436.20
489.99	49354.88
490.17	49532.76
490.35	49958.73
490.53	49221.47
490.70	48931.24
490.88	48608.25
491.06	50244.28
491.24	50562.59
491.41	48587.18
491.59	47498.83
491.77	47248.39
491.95	49088.06
492.13	50370.67
492.30	50808.35
492.48	52123.73
492.66	52547.37
492.84	51779.67
493.01	51344.33
493.19	51545.62
493.37	50656.21
493.54	51349.01
493.72	52236.08
493.90	52409.28
494.08	53162.93
494.25	53125.48
494.43	53586.57
494.61	54031.27
494.79	54319.15
494.96	54525.12
495.14	53984.46
495.32	52289.91
495.49	52715.89
495.67	53537.41
495.85	54506.40
496.02	55000.25
496.20	54878.54
496.38	54454.90
496.55	54368.30
496.73	55224.94
496.91	55114.94
497.09	55070.46
497.26	55384.10
497.44	55121.96
497.62	53710.61
497.79	52886.74
497.97	52083.94
498.14	53277.61
498.32	54176.38
498.50	54319.15
498.67	54267.66
498.85	54665.55
499.03	55484.74
499.20	55877.95
499.38	54939.39
499.56	54410.43
499.73	54213.83
499.91	53975.09
500.08	53389.96
500.26	52963.98
500.44	53654.44
500.61	54298.09
500.79	53677.85
500.97	54120.21
501.14	53015.47
501.32	52914.83
501.49	53249.53
501.67	53219.10
501.84	53497.62
502.02	54169.36
502.20	55262.39
502.37	55494.10
502.55	55477.72
502.72	55700.07
502.90	56060.51
503.07	56254.78
503.25	54656.19
503.43	53450.81
503.60	53223.78
503.78	53146.54
503.95	53492.94
504.13	54948.76
504.30	55356.01
504.48	54894.92
504.65	55138.34
504.83	55248.35
505.01	55973.91
505.18	56397.55
505.36	56392.87
505.53	56636.28
505.71	56956.94
505.88	57092.69
506.06	56612.88
506.23	55992.64
506.41	55915.40
506.58	56360.10
506.76	56168.18
506.93	55435.59
507.11	55587.72
507.28	55781.99
507.46	55456.65
507.63	55159.41
507.81	54213.83
507.98	55334.95
508.16	56329.67
508.33	56362.44
508.50	56444.36
508.68	56959.28
508.85	57275.25
509.03	57513.98
509.20	56662.03
509.38	55641.56
509.55	55618.15
509.73	56079.24
509.90	56371.80
510.08	56388.19
510.25	55901.36
510.42	56067.53
510.60	56488.83
510.77	56657.35
510.95	56917.15
511.12	56912.47
511.30	57694.21
511.47	57869.75
511.64	57939.96
511.82	57769.10
511.99	56608.20
512.17	56547.34
512.34	55906.04
512.51	55840.50
512.69	56655.01
512.86	56212.65
513.04	56589.47
513.21	56030.08
513.38	55035.36
513.56	54834.07
513.73	54585.97
513.90	55121.96
514.08	55318.56
514.25	55004.93
514.43	55772.63
514.60	55985.61
514.77	56282.86
514.95	56425.64
515.12	56128.39
515.29	56683.09
515.47	57254.18
515.64	57066.94
515.81	56526.28
515.99	55533.89
516.16	53399.32
516.33	51143.05
516.51	51107.94
516.68	49167.63
516.85	48406.96
517.03	51016.66
517.20	53593.59
517.37	55318.56
517.54	56493.51
517.72	55042.38
517.89	51854.57
518.06	50237.26
518.24	51690.73
518.41	53890.83
518.58	54731.09
518.75	54932.37
518.93	55199.19
519.10	54274.68
519.27	55550.27
519.45	56086.26
519.62	56582.45
519.79	56622.24
519.96	55849.86
520.14	55718.79
520.31	54616.40
520.48	54841.09
520.65	55927.10
520.83	56563.73
521.00	56797.78
521.17	56158.81
521.34	56240.73
521.52	56769.69
521.69	56652.67
521.86	57148.86
522.03	57315.04
522.20	55536.23
522.38	54820.03
522.55	55393.46
522.72	55922.42
522.89	55774.97
523.07	56303.93
523.24	56397.55
523.41	57607.61
523.58	58024.22
523.75	58244.23
523.92	57656.76
524.10	57364.19
524.27	57333.76
524.44	57148.86
524.61	56954.60
524.78	57151.20
524.96	57155.88
525.13	57214.40
525.30	57668.46
525.47	57598.24
525.64	57478.88
525.81	56809.48
525.98	54857.48
526.16	53609.97
526.33	53886.15
526.50	53045.90
526.67	53333.79
526.84	53694.23
527.01	54677.25
527.18	55327.92
527.36	56505.21
527.53	57448.45
527.70	56556.70
527.87	55119.62
528.04	56463.08
528.21	57254.18
528.38	57425.04
528.55	58408.07
528.72	58099.12
528.89	57553.77
529.07	57485.90
529.24	56399.89
529.41	56287.54
529.58	56025.40
529.75	56910.13
529.92	57137.16
530.09	56954.60
530.26	57773.78
530.43	58464.24
530.60	57605.26
530.77	57949.32
530.94	58309.77
531.11	57586.54
531.28	57411.00
531.46	57799.53
531.63	57345.47
531.80	56603.52
531.97	56093.28
532.14	56292.22
532.31	54726.41
532.48	54415.11
532.65	54614.06
532.82	55318.56
532.99	56882.04
533.16	57169.93
533.33	57064.60
533.50	57389.94
533.67	57265.89
533.84	56182.22
534.01	56767.35
534.18	57097.37
534.35	56814.16
534.52	55962.21
534.69	56898.42
534.86	57312.70
535.03	57415.68
535.20	57186.31
535.37	58099.12
535.54	58326.15
535.71	57996.13
535.88	58300.40
536.05	57181.63
536.22	56088.60
536.38	55833.48
536.55	54827.05
536.72	54965.14
536.89	55725.81
537.06	55903.70
537.23	56633.94
537.40	56697.14
537.57	56449.04
537.74	57017.79
537.91	56884.38
538.08	56542.66
538.25	56381.16
538.42	57038.86
538.59	56591.81
538.75	55421.55
538.92	55217.92
539.09	55283.45
539.26	55458.99
539.43	55433.25
539.60	55716.45
539.77	56371.80
539.94	55554.96
540.11	54871.52
540.28	54520.44
540.44	54129.57
540.61	54244.26
540.78	54843.43
540.95	55611.13
541.12	55842.84
541.29	56545.00
541.46	56594.15
541.62	56451.38
541.79	55791.35
541.96	54667.89
542.13	55000.25
542.30	55306.86
542.47	55828.80
542.63	55529.21
542.80	55679.00
542.97	55037.70
543.14	54810.67
543.31	54878.54
543.48	56383.51
543.64	56582.45
543.81	57771.44
543.98	57256.53
544.15	55758.58
544.32	56439.68
544.48	55779.65
544.65	55899.01
544.82	56425.64
544.99	54866.84
545.16	54192.76
545.32	54775.56
545.49	55700.07
545.66	55901.36
545.83	55494.10
546.00	56090.94
546.16	56229.03
546.33	55870.93
546.50	55735.18
546.67	56306.27
546.83	55325.58
547.00	56041.79
547.17	54623.42
547.34	53846.36
547.50	54052.33
547.67	55559.64
547.84	56074.55
548.00	55941.14
548.17	55636.87
548.34	56069.87
548.51	55908.38
548.67	56659.69
548.84	56355.42
549.01	56294.56
549.18	55618.15
549.34	55828.80
549.51	55622.83
549.68	55753.90
549.84	55583.04
550.01	55079.83
550.18	54454.90
550.34	54686.62
550.51	55217.92
550.68	55744.54
550.84	55199.19
551.01	54817.69
551.18	54274.68
551.34	54302.77
551.51	55173.45
551.68	55238.98
551.84	55110.25
552.01	55407.50
552.18	54801.30
552.34	54099.14
552.51	53970.41
552.68	53572.52
552.84	54178.72
553.01	54405.75
553.18	55475.38
553.34	55475.38
553.51	55316.22
553.67	54932.37
553.84	54525.12
554.01	55222.60
554.17	54597.68
554.34	54784.92
554.51	55295.16
554.67	53841.68
554.84	54026.59
555.00	54293.41
555.17	54106.16
555.33	53773.81
555.50	53389.96
555.67	54295.75
555.83	54401.07
556.00	54129.57
556.16	53677.85
556.33	53284.64
556.50	53717.64
556.66	53970.41
556.83	53750.40
556.99	53298.68
557.16	53542.10
557.32	53394.64
557.49	53378.26
557.65	53041.22
557.82	54281.70
557.98	54131.91
558.15	52994.41
558.32	52151.82
558.48	51419.23
558.65	51412.21
558.81	51971.60
558.98	52603.54
559.14	53198.04
559.31	52776.74
559.47	52428.00
559.64	51913.08
559.80	51234.33
559.97	52615.24
560.13	53914.24
560.30	54578.95
560.46	54721.72
560.63	55234.30
560.79	54988.55
560.96	54157.66
561.12	52495.88
561.29	52289.91
561.45	52210.33
561.61	53822.96
561.78	52687.80
561.94	53762.11
562.11	53815.94
562.27	52713.55
562.44	53595.93
562.60	53490.60
562.77	53731.68
562.93	52713.55
563.10	52626.95
563.26	52884.40
563.42	53708.27
563.59	52640.99
563.75	52720.57
563.92	52425.66
564.08	51405.19
564.24	52736.95
564.41	52142.45
564.57	53247.19
564.74	52767.38
564.90	51430.93
565.07	51966.91
565.23	50934.74
565.39	50721.75
565.56	51072.83
565.72	51482.42
565.88	50080.44
566.05	52165.86
566.21	52917.17
566.38	52027.77
566.54	52193.95
566.70	52814.19
566.87	52652.69
567.03	51454.34
567.19	53198.04
567.36	53839.34
567.52	52002.02
567.68	51461.36
567.85	50667.92
568.01	50658.56
568.17	51341.99
568.34	51700.09
568.50	51339.65
568.66	51725.84
568.83	50403.44
568.99	50153.00
569.15	50719.41
569.32	51234.33
569.48	50370.67
569.64	50279.39
569.81	49958.73
569.97	49621.70
570.13	49139.55
570.30	49282.32
570.46	48507.60
570.62	47264.78
570.78	47913.11
570.95	49272.96
571.11	48846.98
571.27	48863.36
571.43	48678.46
571.60	48470.15
571.76	50438.54
571.92	50473.65
572.09	50925.38
572.25	50862.18
572.41	51641.58
572.57	51187.52
572.74	51231.99
572.90	52500.56
573.06	50981.55
573.22	51316.25
573.38	51009.64
573.55	52449.06
573.71	51264.75
573.87	51063.47
574.03	51140.71
574.20	50356.63
574.36	50763.88
574.52	49720.00
574.68	49169.97
574.84	48582.50
575.01	49207.42
575.17	49148.91
575.33	49226.15
575.49	49766.81
575.65	48538.03
575.82	48971.03
575.98	49059.97
576.14	49652.12
576.30	50136.62
576.46	48465.47
576.62	48758.04
576.79	48889.11
576.95	48863.36
577.11	49696.59
577.27	49450.84
577.43	49614.68
577.59	48371.85
577.75	47529.26
577.92	47262.44
578.08	47688.42
578.24	48470.15
578.40	48409.30
578.56	47629.90
578.72	47470.75
578.88	47533.94
579.04	48381.21
579.21	47112.64
579.37	47852.25
579.53	48409.30
579.69	47878.00
579.85	47985.66
580.01	48016.09
580.17	47248.39
580.33	48776.76
580.49	48779.10
580.65	46543.89
580.82	47330.31
580.98	48704.21
581.14	49020.18
581.30	48264.19
581.46	48032.47
581.62	47861.61
581.78	48973.37
581.94	49066.99
582.10	49441.48
582.26	49497.65
582.42	49469.56
582.58	47587.77
582.74	47220.31
582.90	47704.80
583.06	48200.99
583.22	48067.58
583.38	48168.22
583.54	48371.85
583.70	49034.22
583.86	47990.34
584.02	48095.67
584.18	47313.93
584.34	46866.89
584.50	46586.02
584.66	46770.93
584.82	47281.16
584.98	47295.21
585.14	46588.36
585.30	46902.00
