SpectraSuite Data File
++++++++++++++++++++++++++++++++++++
Date: Mon Oct 07 14:53:50 GMT-05:00 2013
User: price-jones
Dark Spectrum Present: No
Reference Spectrum Present: No
Number of Sampled Component Spectra: 1
Spectrometers: USB2+H05261
Integration Time (usec): 100000 (USB2+H05261)
Spectra Averaged: 1 (USB2+H05261)
Boxcar Smoothing: 0 (USB2+H05261)
Correct for Electrical Dark: No (USB2+H05261)
Strobe/Lamp Enabled: No (USB2+H05261)
Correct for Detector Non-linearity: No (USB2+H05261)
Correct for Stray Light: No (USB2+H05261)
Number of Pixels in Processed Spectrum: 2048
>>>>>Begin Processed Spectral Data<<<<<
365.73	0.00
365.92	0.00
366.12	0.00
366.32	0.00
366.52	0.00
366.72	0.00
366.91	0.00
367.11	0.00
367.31	0.00
367.51	0.00
367.70	0.00
367.90	0.00
368.10	0.00
368.30	0.00
368.49	0.00
368.69	0.00
368.89	0.00
369.09	0.00
369.28	0.00
369.48	0.00
369.68	0.00
369.87	0.00
370.07	0.00
370.27	0.00
370.47	521.94
370.66	2977.16
370.86	3627.83
371.06	4063.17
371.25	4128.70
371.45	3850.18
371.65	3325.90
371.84	3087.17
372.04	3302.50
372.24	3665.28
372.44	3861.88
372.63	3700.39
372.83	3611.45
373.03	3155.04
373.22	2857.79
373.42	3035.67
373.62	3501.44
373.81	3590.38
374.01	3758.90
374.21	3379.73
374.40	3253.34
374.60	3124.62
374.79	3611.45
374.99	4248.07
375.19	4737.24
375.38	4711.50
375.58	4269.14
375.78	4337.01
375.97	4369.78
376.17	4479.79
376.37	4454.04
376.56	4678.73
376.76	4997.04
376.95	5242.80
377.15	5518.98
377.35	5874.74
377.54	5912.19
377.74	6223.48
377.93	6246.89
378.13	6104.12
378.33	5757.72
378.52	5320.04
378.72	5139.82
378.91	5107.05
379.11	4919.81
379.31	4594.47
379.50	4683.41
379.70	4929.17
379.89	5509.62
380.09	5816.23
380.28	5940.28
380.48	6061.99
380.68	6019.86
380.87	5879.43
381.07	5497.92
381.26	4964.28
381.46	4550.00
381.65	4631.92
381.85	4435.32
382.04	4273.82
382.24	3906.35
382.43	3658.26
382.63	3609.11
382.83	3686.34
383.02	3616.13
383.22	3669.96
383.41	3674.64
383.61	3915.72
383.80	4498.51
384.00	5214.71
384.19	5715.59
384.39	6232.85
384.58	6052.63
384.78	5820.91
384.97	6115.82
385.17	5645.37
385.36	5268.55
385.56	4922.15
385.75	5247.48
385.95	5750.70
386.14	6270.30
386.34	6122.84
386.53	5820.91
386.72	5500.26
386.92	5738.99
387.11	5963.68
387.31	6303.06
387.50	6148.59
387.70	5816.23
387.89	5767.08
388.09	5823.25
388.28	6197.74
388.48	5916.87
388.67	6392.00
388.86	7059.06
389.06	7588.02
389.25	8060.80
389.45	7978.89
389.64	7847.82
389.84	7892.29
390.03	7779.94
390.22	7749.51
390.42	8229.32
390.61	8725.52
390.81	9327.03
391.00	9291.93
391.19	9362.14
391.39	9025.11
391.58	8446.99
391.78	8074.85
391.97	7597.38
392.16	7267.36
392.36	6593.29
392.55	5207.69
392.75	4135.73
392.94	3426.54
393.13	3396.12
393.33	4021.04
393.52	5280.25
393.71	6307.74
393.91	6895.22
394.10	7620.78
394.29	8491.46
394.49	9100.00
394.68	9750.67
394.88	9949.62
395.07	10160.27
395.26	10157.92
395.46	9902.81
395.65	9188.94
395.84	8161.45
396.04	6799.26
396.23	5570.48
396.42	4596.81
396.62	4362.76
396.81	5212.37
397.00	6642.44
397.19	8145.06
397.39	9956.64
397.58	11035.63
397.77	11857.15
397.97	11985.88
398.16	12510.16
398.35	12732.51
398.55	13004.02
398.74	13731.92
398.93	14153.22
399.12	13657.03
399.32	13139.77
399.51	13767.03
399.70	14534.73
399.90	14230.46
400.09	14375.57
400.28	14141.52
400.47	14373.23
400.67	15012.20
400.86	15328.17
401.05	15225.18
401.24	15403.07
401.44	15838.41
401.63	15875.85
401.82	15810.32
402.01	15761.17
402.21	15962.45
402.40	15925.00
402.59	15555.20
402.78	14747.72
402.97	14417.70
403.17	14824.95
403.36	15845.43
403.55	16713.77
403.74	16952.50
403.93	15779.89
404.13	14750.06
404.32	14508.98
404.51	15112.84
404.70	16446.94
404.89	16350.98
405.09	15829.04
405.28	15496.69
405.47	15477.96
405.66	16027.99
405.85	15246.25
406.05	14841.34
406.24	15012.20
406.43	15552.86
406.62	16500.78
406.81	15829.04
407.00	15609.03
407.20	15716.70
407.39	15564.56
407.58	16243.32
407.77	16685.68
407.96	17184.21
408.15	17633.60
408.34	17429.97
408.54	18504.28
408.73	18623.64
408.92	18256.18
409.11	17965.95
409.30	17188.89
409.49	15786.91
409.68	14609.62
409.87	14422.38
410.07	15269.66
410.26	16528.86
410.45	17647.64
410.64	17823.18
410.83	18532.36
411.02	19028.56
411.21	19616.03
411.40	19695.61
411.59	19695.61
411.78	19267.29
411.98	19192.39
412.17	19140.90
412.36	19208.78
412.55	19108.13
412.74	18768.76
412.93	18246.82
413.12	18417.68
413.31	20152.01
413.50	20531.18
413.69	21247.38
413.88	20208.19
414.07	19391.34
414.26	19704.97
414.45	20592.03
414.64	20259.68
414.83	20535.86
415.02	20107.54
415.22	19555.18
415.41	20645.87
415.60	21301.22
415.79	21876.99
415.98	22370.84
416.17	22614.26
416.36	21947.20
416.55	21879.33
416.74	21053.12
416.93	20285.42
417.12	20128.61
417.31	20711.40
417.50	20950.14
417.69	21696.77
417.88	21605.49
418.07	21268.45
418.26	20910.35
418.45	21221.64
418.64	21846.56
418.83	22728.94
419.02	22497.23
419.21	22192.96
419.39	21453.35
419.58	20341.60
419.77	20343.94
419.96	21483.78
420.15	22403.61
420.34	22794.48
420.53	23716.65
420.72	24404.77
420.91	24009.22
421.10	23438.12
421.29	23611.32
421.48	22204.66
421.67	23920.28
421.86	23232.16
422.05	21600.80
422.24	19674.54
422.43	19190.05
422.61	21245.04
422.80	23061.30
422.99	23215.77
423.18	22015.08
423.37	21638.25
423.56	21703.79
423.75	21895.71
423.94	22632.98
424.13	21081.21
424.32	21530.59
424.50	21809.11
424.69	21106.95
424.88	21617.19
425.07	21631.23
425.26	21275.47
425.45	20746.51
425.64	20737.15
425.83	20362.66
426.01	21848.90
426.20	22541.70
426.39	22167.21
426.58	20570.97
426.77	19105.79
426.96	18485.55
427.15	19372.61
427.33	20704.38
427.52	21743.58
427.71	21867.63
427.90	21451.01
428.09	21326.96
428.28	21123.33
428.46	20301.81
428.65	19784.55
428.84	20030.30
429.03	20737.15
429.22	19489.64
429.40	18583.85
429.59	16858.88
429.78	14672.82
429.97	15061.35
430.16	15257.95
430.34	15122.20
430.53	14984.11
430.72	15337.53
430.91	16898.67
431.10	20196.48
431.28	23424.08
431.47	25153.74
431.66	25823.13
431.85	23557.49
432.03	21867.63
432.22	20615.44
432.41	21495.48
432.60	23873.46
432.79	24727.76
432.97	25486.09
433.16	24879.89
433.35	22698.52
433.54	20561.61
433.72	19061.32
433.91	19601.99
434.10	21979.97
434.28	23613.66
434.47	24936.07
434.66	24610.73
434.85	24006.87
435.03	23798.57
435.22	24568.60
435.41	25769.30
435.59	25642.91
435.78	26267.83
435.97	27014.46
436.16	27316.39
436.34	26689.13
436.53	25837.17
436.72	26422.31
436.90	24900.96
437.09	24793.29
437.28	24084.11
437.46	25371.41
437.65	25102.25
437.84	23325.78
438.02	21659.32
438.21	21350.37
438.40	22389.56
438.58	24032.62
438.77	24957.13
438.96	25345.66
439.14	26356.77
439.33	27283.62
439.52	27597.26
439.70	26838.92
439.89	26045.48
440.08	25364.39
440.26	25546.95
440.45	26448.05
440.63	27903.87
440.82	29474.37
441.01	29017.96
441.19	28709.01
441.38	29092.86
441.57	30457.39
441.75	30637.61
441.94	30721.87
442.12	30288.87
442.31	31204.02
442.50	31035.50
442.68	30759.32
442.87	30438.67
443.05	29439.26
443.24	30345.05
443.43	31028.48
443.61	31234.45
443.80	32460.89
443.98	29989.28
444.17	30176.53
444.35	31838.31
444.54	32400.04
444.73	32224.50
444.91	30888.05
445.10	29256.70
445.28	28041.96
445.47	27920.25
445.65	28507.72
445.84	29083.50
446.02	29654.59
446.21	30132.06
446.39	30295.89
446.58	30630.59
446.77	31414.67
446.95	31686.17
447.14	32116.83
447.32	32816.65
447.51	32151.94
447.69	30984.01
447.88	30326.32
448.06	30895.07
448.25	31775.11
448.43	32348.54
448.62	31388.92
448.80	30981.67
448.99	31302.32
449.17	31653.40
449.36	31559.78
449.54	33034.32
449.73	33345.61
449.91	33883.94
450.10	34845.90
450.28	34803.77
450.46	34794.40
450.65	34408.22
450.83	34375.45
451.02	33811.38
451.20	33565.62
451.39	33713.08
451.57	33078.79
451.76	33532.86
451.94	32835.38
452.13	32491.32
452.31	30991.03
452.49	30050.14
452.68	30218.66
452.86	30157.80
453.05	30483.14
453.23	31276.58
453.42	32577.92
453.60	32856.44
453.78	33301.14
453.97	33287.10
454.15	32776.86
454.34	31974.06
454.52	32737.07
454.70	31725.96
454.89	32198.75
455.07	32156.62
455.26	32144.92
455.44	33469.66
455.62	34239.70
455.81	34525.24
455.99	34623.54
456.17	34265.44
456.36	34660.99
456.54	34888.03
456.73	34920.79
456.91	35742.32
457.09	35840.62
457.28	36119.15
457.46	35077.61
457.64	34796.74
457.83	33741.16
458.01	33537.54
458.19	33993.94
458.38	34260.76
458.56	35016.75
458.74	34899.73
458.93	34522.90
459.11	34644.61
459.29	33970.54
459.48	34052.45
459.66	33869.89
459.84	35208.68
460.03	34785.04
460.21	34939.52
460.39	35821.90
460.57	35580.82
460.76	35997.44
460.94	36187.02
461.12	35531.67
461.31	35967.01
461.49	36030.21
461.67	35835.94
461.85	36917.27
462.04	36708.96
462.22	36620.02
462.40	36643.43
462.59	36495.97
462.77	36725.35
462.95	36582.57
463.13	36100.42
463.32	35849.99
463.50	36093.40
463.68	35992.76
463.86	35992.76
464.05	35367.84
464.23	34787.38
464.41	34176.50
464.59	33308.16
464.78	35056.54
464.96	35040.16
465.14	34742.91
465.32	35707.21
465.50	36732.37
465.69	36818.97
465.87	36039.57
466.05	35161.87
466.23	33785.63
466.41	32870.48
466.60	33486.04
466.78	34057.14
466.96	34600.14
467.14	35594.87
467.32	35913.18
467.51	35782.11
467.69	33851.17
467.87	34553.33
468.05	35515.29
468.23	35470.82
468.41	35365.49
468.60	35269.53
468.78	35756.36
468.96	35124.42
469.14	35447.41
469.32	36407.03
469.50	34403.53
469.69	34962.92
469.87	34403.53
470.05	34359.06
470.23	34719.51
470.41	34305.23
470.59	34979.31
470.77	35218.04
470.95	35709.55
471.14	36137.87
471.32	36493.63
471.50	37783.27
471.68	38586.07
471.86	38541.60
472.04	38663.31
472.22	38717.14
472.40	37207.50
472.58	36856.42
472.77	36196.38
472.95	37207.50
473.13	38197.54
473.31	36947.70
473.49	37050.68
473.67	37844.12
473.85	38066.47
474.03	39313.98
474.21	39030.77
474.39	39145.46
474.57	39819.53
474.75	39882.73
474.93	39342.06
475.12	38885.66
475.30	38459.68
475.48	38785.02
475.66	39533.99
475.84	39072.90
476.02	37860.51
476.20	37968.17
476.38	38429.26
476.56	39545.69
476.74	40357.86
476.92	40493.61
477.10	41191.09
477.28	41904.95
477.46	42003.25
477.64	42923.08
477.82	42876.27
478.00	43232.04
478.18	42499.45
478.36	42300.50
478.54	42024.32
478.72	42183.48
478.90	43613.54
479.08	44083.99
479.26	44914.88
479.44	44931.26
479.62	44488.90
479.80	44371.88
479.98	44914.88
480.16	45251.92
480.34	44636.36
480.52	45380.65
480.70	45497.67
480.88	45104.46
481.06	45855.78
481.24	46277.07
481.41	47119.66
481.59	47667.35
481.77	47084.56
481.95	47131.37
482.13	46642.20
482.31	46916.04
482.49	47519.90
482.67	47009.66
482.85	47936.51
483.03	48179.93
483.21	48762.72
483.39	48329.72
483.57	47779.70
483.74	47810.12
483.92	47875.66
484.10	48107.37
484.28	49022.52
484.46	49467.22
484.64	49588.93
484.82	48804.85
485.00	48121.41
485.18	47700.12
485.35	46265.37
485.53	43480.13
485.71	39917.84
485.89	38864.60
486.07	40575.53
486.25	44170.59
486.43	46689.01
486.61	47576.07
486.78	47241.37
486.96	47519.90
487.14	49191.04
487.32	49804.26
487.50	51011.98
487.68	51498.81
487.85	52268.84
488.03	51941.17
488.21	51899.04
488.39	51257.73
488.57	50368.33
488.75	49902.56
488.92	51236.67
489.10	53338.47
489.28	54361.28
489.46	54972.16
489.64	55009.61
489.81	55096.21
489.99	54766.20
490.17	54653.85
490.35	55065.78
490.53	54539.16
490.70	54164.68
490.88	54028.93
491.06	55171.11
491.24	54871.52
491.41	54211.49
491.59	52390.55
491.77	51772.65
491.95	52837.59
492.13	53860.41
492.30	55128.98
492.48	55913.06
492.66	56252.44
492.84	56245.41
493.01	55938.80
493.19	55540.91
493.37	55313.88
493.54	55178.13
493.72	55503.46
493.90	56530.96
494.08	57357.17
494.25	57563.14
494.43	57513.98
494.61	58115.50
494.79	57972.73
494.96	57958.69
495.14	57301.00
495.32	56465.42
495.49	55922.42
495.67	56928.85
495.85	58230.19
496.02	58546.16
496.20	58330.83
496.38	57825.28
496.55	57619.31
496.73	58145.93
496.91	58560.20
497.09	58951.07
497.26	59084.48
497.44	58546.16
497.62	57890.81
497.79	57432.07
497.97	56317.97
498.14	56376.48
498.32	57687.18
498.50	58251.25
498.67	58920.65
498.85	58756.81
499.03	58981.50
499.20	59070.44
499.38	59128.95
499.56	58763.83
499.73	58478.28
499.91	58251.25
500.08	57855.70
500.26	56882.04
500.44	57331.42
500.61	58152.95
500.79	57666.12
500.97	57497.60
501.14	57237.80
501.32	57219.08
501.49	57382.91
501.67	57427.38
501.84	57937.62
502.02	58066.35
502.20	58508.71
502.37	58534.46
502.55	58796.60
502.72	59264.70
502.90	59627.49
503.07	59271.73
503.25	58986.18
503.43	58387.00
503.60	57598.24
503.78	56935.87
503.95	57368.87
504.13	58712.34
504.30	59278.75
504.48	59175.76
504.65	59159.38
504.83	59011.93
505.01	59636.85
505.18	59856.86
505.36	60310.92
505.53	60266.45
505.71	60608.17
505.88	60638.60
506.06	60009.00
506.23	59583.02
506.41	59388.75
506.58	59683.66
506.76	59583.02
506.93	59840.48
507.11	59215.55
507.28	59655.57
507.46	59159.38
507.63	58501.69
507.81	58328.49
507.98	58417.43
508.16	59203.85
508.33	59753.88
508.50	59788.98
508.68	60409.23
508.85	60935.85
509.03	60662.00
509.20	60669.03
509.38	59962.18
509.55	59370.03
509.73	59178.10
509.90	60027.72
510.08	60151.77
510.25	60107.30
510.42	59838.14
510.60	59707.07
510.77	60142.41
510.95	60568.38
511.12	60582.43
511.30	60949.89
511.47	61078.62
511.64	61104.37
511.82	60823.50
511.99	60009.00
512.17	59753.88
512.34	59157.04
512.51	59760.90
512.69	59503.44
512.86	59604.08
513.04	60137.72
513.21	60133.04
513.38	59723.45
513.56	59283.43
513.73	58831.71
513.90	59032.99
514.08	58965.12
514.25	59208.53
514.43	59611.10
514.60	59564.29
514.77	59880.27
514.95	59777.28
515.12	59592.38
515.29	59887.29
515.47	60238.37
515.64	60460.72
515.81	60413.91
515.99	59700.04
516.16	58024.22
516.33	56163.50
516.51	54934.71
516.68	54167.02
516.85	53701.25
517.03	54176.38
517.20	56624.58
517.37	58740.42
517.54	59683.66
517.72	59278.75
517.89	56919.49
518.06	54862.16
518.24	54923.01
518.41	57244.82
518.58	58412.75
518.75	58609.35
518.93	58770.85
519.10	58705.32
519.27	59171.08
519.45	59318.54
519.62	59976.23
519.79	60331.99
519.96	60023.04
520.14	59681.32
520.31	58913.62
520.48	59065.76
520.65	59154.70
520.83	60151.77
521.00	60357.74
521.17	60104.96
521.34	59796.01
521.52	60168.15
521.69	60687.75
521.86	60863.29
522.03	60664.35
522.20	59508.12
522.38	58520.41
522.55	58440.84
522.72	59072.78
522.89	59494.08
523.07	59370.03
523.24	59845.16
523.41	60528.59
523.58	60982.66
523.75	61212.03
523.92	61219.05
524.10	60987.34
524.27	61244.80
524.44	60837.54
524.61	60821.16
524.78	60507.53
524.96	60561.36
525.13	60397.52
525.30	60477.10
525.47	61045.85
525.64	60975.64
525.81	60331.99
525.98	59086.82
526.16	57530.37
526.33	56931.19
526.50	56713.52
526.67	56343.72
526.84	56978.00
527.01	57867.40
527.18	58658.51
527.36	59571.32
527.53	60313.26
527.70	60519.23
527.87	60186.88
528.04	59613.44
528.21	60282.84
528.38	60533.28
528.55	61020.11
528.72	61406.30
528.89	61630.99
529.07	61268.20
529.24	60760.31
529.41	60198.58
529.58	59522.16
529.75	59695.36
529.92	60023.04
530.09	60554.34
530.26	61080.96
530.43	61322.04
530.60	61235.44
530.77	61331.40
530.94	61584.18
531.11	61085.64
531.28	60842.23
531.46	60594.13
531.63	60725.20
531.80	60449.02
531.97	60189.22
532.14	59662.60
532.31	58695.95
532.48	57752.72
532.65	58103.80
532.82	58695.95
532.99	59859.20
533.16	60390.50
533.33	60584.77
533.50	60399.86
533.67	59978.57
533.84	59664.94
534.01	59838.14
534.18	59732.81
534.35	60088.57
534.52	59770.26
534.69	60149.43
534.86	60561.36
535.03	60786.05
535.20	61193.31
535.37	61237.78
535.54	61457.79
535.71	61036.49
535.88	60947.55
536.05	60041.76
536.22	60074.53
536.38	59599.40
536.55	58962.78
536.72	58752.13
536.89	58489.99
537.06	59351.30
537.23	60149.43
537.40	60385.82
537.57	60341.35
537.74	60126.02
537.91	60327.31
538.08	60083.89
538.25	60058.15
538.42	60257.09
538.59	60039.42
538.75	59501.10
538.92	59494.08
539.09	59229.60
539.26	59028.31
539.43	58859.79
539.60	58857.45
539.77	59171.08
539.94	59047.04
540.11	58288.70
540.28	57481.22
540.44	57862.72
540.61	58202.10
540.78	58239.55
540.95	58733.40
541.12	59133.63
541.29	59370.03
541.46	59854.52
541.62	59735.15
541.79	59440.24
541.96	59072.78
542.13	58993.20
542.30	59290.45
542.47	59262.36
542.63	59110.23
542.80	58922.99
542.97	59040.01
543.14	58782.55
543.31	58848.09
543.48	59498.76
543.64	60163.47
543.81	60317.95
543.98	60458.38
544.15	59484.72
544.32	58974.48
544.48	59040.01
544.65	59592.38
544.82	59791.33
544.99	59627.49
545.16	59283.43
545.32	58937.03
545.49	59559.61
545.66	60252.41
545.83	59585.36
546.00	59435.56
546.16	59103.21
546.33	59133.63
546.50	59152.36
546.67	59613.44
546.83	59337.26
547.00	59260.02
547.17	58616.38
547.34	57813.57
547.50	58183.38
547.67	58426.79
547.84	58614.04
548.00	58927.67
548.17	59398.12
548.34	59206.19
548.51	59154.70
548.67	59194.49
548.84	59164.06
549.01	59194.49
549.18	59018.95
549.34	58979.16
549.51	59194.49
549.68	58953.41
549.84	59004.91
550.01	58871.49
550.18	58536.80
550.34	58702.98
550.51	58719.36
550.68	58569.57
550.84	58262.96
551.01	58333.17
551.18	58473.60
551.34	58599.99
551.51	58878.52
551.68	59206.19
551.84	59185.13
552.01	59058.74
552.18	59042.35
552.34	58073.37
552.51	57752.72
552.68	57708.25
552.84	58164.65
553.01	58365.94
553.18	58431.47
553.34	58232.53
553.51	58546.16
553.67	58735.74
553.84	58930.01
554.01	58738.08
554.17	58583.61
554.34	58688.93
554.51	58707.66
554.67	59063.42
554.84	58738.08
555.00	58768.51
555.17	58447.86
555.33	58394.03
555.50	58431.47
555.67	58335.51
555.83	58206.78
556.00	57923.58
556.16	57904.85
556.33	57469.51
556.50	57602.92
556.66	57612.29
556.83	57195.67
556.99	57413.34
557.16	57392.28
557.32	57757.40
557.49	57848.68
557.65	57886.13
557.82	57832.30
557.98	57822.93
558.15	57396.96
558.32	56519.26
558.48	55524.53
558.65	55868.59
558.81	56360.10
558.98	56416.27
559.14	56762.67
559.31	56741.61
559.47	56870.34
559.64	56444.36
559.80	56076.90
559.97	56058.17
560.13	56640.96
560.30	57436.75
560.46	57883.79
560.63	58045.29
560.79	58216.14
560.96	57785.49
561.12	56959.28
561.29	56119.02
561.45	56002.00
561.61	56488.83
561.78	56931.19
561.94	56755.65
562.11	56479.47
562.27	56465.42
562.44	56683.09
562.60	57085.67
562.77	57453.13
562.93	57183.97
563.10	56877.36
563.26	56257.12
563.42	56390.53
563.59	56399.89
563.75	56713.52
563.92	56292.22
564.08	56512.23
564.24	56748.63
564.41	56662.03
564.57	56535.64
564.74	56360.10
564.90	56292.22
565.07	56107.32
565.23	55950.51
565.39	55592.40
565.56	55192.17
565.72	54759.17
565.88	55238.98
566.05	55451.97
566.21	55625.17
566.38	55803.05
566.54	55657.94
566.70	56308.61
566.87	56179.88
567.03	56320.31
567.19	56640.96
567.36	56172.86
567.52	56236.05
567.68	55817.10
567.85	55545.59
568.01	54969.82
568.17	54569.59
568.34	54712.36
568.50	54754.49
568.66	54777.90
568.83	55098.55
568.99	55168.77
569.15	55501.12
569.32	55299.84
569.48	54923.01
569.64	54761.51
569.81	54885.56
569.97	54375.33
570.13	54356.60
570.30	53989.14
570.46	53542.10
570.62	52891.43
570.78	52825.89
570.95	53144.20
571.11	53876.79
571.27	54216.17
571.43	54253.62
571.60	54836.41
571.76	54923.01
571.92	55077.49
572.09	55269.41
572.25	55164.09
572.41	55299.84
572.57	54883.22
572.74	55047.06
572.90	54520.44
573.06	54644.49
573.22	54529.80
573.38	54820.03
573.55	54775.56
573.71	54560.23
573.87	54536.82
574.03	54164.68
574.20	54490.01
574.36	54103.82
574.52	54049.99
574.68	53846.36
574.84	53359.53
575.01	52694.82
575.17	52671.42
575.33	52875.04
575.49	53488.26
575.65	53471.88
575.82	53418.05
575.98	52863.34
576.14	53581.88
576.30	53841.68
576.46	53801.89
576.62	53771.47
576.79	53738.70
576.95	53151.23
577.11	53382.94
577.27	53380.60
577.43	53457.84
577.59	53144.20
577.75	52823.55
577.92	52140.11
578.08	51800.74
578.24	51833.50
578.40	52367.15
578.56	52374.17
578.72	52472.47
578.88	52603.54
579.04	52521.62
579.21	52825.89
579.37	52870.36
579.53	52926.53
579.69	52729.93
579.85	53141.86
580.01	52996.75
580.17	52811.85
580.33	52507.58
580.49	52481.83
580.65	52896.11
580.82	52947.60
580.98	52914.83
581.14	52779.08
581.30	53066.97
581.46	52863.34
581.62	52868.02
581.78	52788.44
581.94	53073.99
582.10	53048.24
582.26	52999.09
582.42	52905.47
582.58	53092.71
582.74	52924.19
582.90	52891.43
583.06	53010.79
583.22	52734.61
583.38	52659.71
583.54	52783.76
583.70	52619.92
583.86	52919.51
584.02	52636.31
584.18	52849.30
584.34	52732.27
584.50	52488.85
584.66	52299.27
584.82	52261.82
584.98	52329.70
585.14	51906.06
