SpectraSuite Data File
++++++++++++++++++++++++++++++++++++
Date: Mon Oct 07 14:52:57 GMT-05:00 2013
User: price-jones
Dark Spectrum Present: No
Reference Spectrum Present: No
Number of Sampled Component Spectra: 1
Spectrometers: USB2+H05261
Integration Time (usec): 100000 (USB2+H05261)
Spectra Averaged: 1 (USB2+H05261)
Boxcar Smoothing: 0 (USB2+H05261)
Correct for Electrical Dark: No (USB2+H05261)
Strobe/Lamp Enabled: No (USB2+H05261)
Correct for Detector Non-linearity: No (USB2+H05261)
Correct for Stray Light: No (USB2+H05261)
Number of Pixels in Processed Spectrum: 2048
>>>>>Begin Processed Spectral Data<<<<<
365.73	0.00
365.92	0.00
366.12	0.00
366.32	0.00
366.52	0.00
366.72	0.00
366.91	0.00
367.11	0.00
367.31	0.00
367.51	0.00
367.70	0.00
367.90	0.00
368.10	0.00
368.30	0.00
368.49	0.00
368.69	0.00
368.89	0.00
369.09	0.00
369.28	0.00
369.48	0.00
369.68	0.00
369.87	0.00
370.07	0.00
370.27	0.00
370.47	521.94
370.66	2597.99
370.86	3185.47
371.06	3466.33
371.25	3428.88
371.45	3073.12
371.65	2708.00
371.84	2546.50
372.04	2738.43
372.24	3103.55
372.44	3206.53
372.63	3225.26
372.83	2944.39
373.03	2546.50
373.22	2380.32
373.42	2520.76
373.62	2930.35
373.81	3087.17
374.01	3122.27
374.21	2834.39
374.40	2633.10
374.60	2722.04
374.79	3012.27
374.99	3482.72
375.19	3866.56
375.38	4042.11
375.58	3550.59
375.78	3623.15
375.97	3552.93
376.17	3772.94
376.37	3899.33
376.56	3929.76
376.76	4219.99
376.95	4339.35
377.15	4772.35
377.35	4858.95
377.54	5001.72
377.74	5238.12
377.93	5203.01
378.13	4992.36
378.33	4575.75
378.52	4440.00
378.72	4238.71
378.91	4334.67
379.11	4215.30
379.31	4044.45
379.50	3866.56
379.70	4227.01
379.89	4760.65
380.09	4903.42
380.28	5085.98
380.48	5165.56
380.68	5032.15
380.87	4795.76
381.07	4489.15
381.26	4161.47
381.46	3976.57
381.65	3775.28
381.85	3625.49
382.04	3578.68
382.24	3141.00
382.43	2995.89
382.63	3038.02
382.83	3016.95
383.02	3038.02
383.22	3246.32
383.41	3150.36
383.61	3337.60
383.80	3796.35
384.00	4259.78
384.19	4830.87
384.39	5076.62
384.58	5071.94
384.78	4983.00
384.97	4957.25
385.17	4678.73
385.36	4463.40
385.56	4355.74
385.75	4266.80
385.95	4746.61
386.14	5224.08
386.34	4997.04
386.53	4882.36
386.72	4695.11
386.92	4627.24
387.11	4980.66
387.31	5165.56
387.50	5238.12
387.70	4980.66
387.89	4957.25
388.09	4924.49
388.28	5029.81
388.48	4985.34
388.67	5481.53
388.86	5935.60
389.06	6448.18
389.25	6579.25
389.45	6745.42
389.64	6717.34
389.84	6677.55
390.03	6530.09
390.22	6560.52
390.42	7040.33
390.61	7157.36
390.81	7679.30
391.00	7882.92
391.19	7712.07
391.39	7602.06
391.58	7236.94
391.78	6715.00
391.97	6506.69
392.16	6029.22
392.36	5509.62
392.55	4339.35
392.75	3616.13
392.94	2953.76
393.13	2810.98
393.33	3337.60
393.52	4315.95
393.71	5289.61
393.91	5919.21
394.10	6532.44
394.29	7047.35
394.49	7805.69
394.68	8386.14
394.88	8411.89
395.07	8531.25
395.26	8393.16
395.46	8100.59
395.65	7616.10
395.84	6750.10
396.04	5614.95
396.23	4657.67
396.42	3908.69
396.62	3847.84
396.81	4557.02
397.00	5645.37
397.19	7002.88
397.39	8273.79
397.58	9212.35
397.77	9991.75
397.97	10410.70
398.16	10363.89
398.35	10927.96
398.55	11138.61
398.74	11520.12
398.93	11735.45
399.12	11328.19
399.32	11208.83
399.51	11353.94
399.70	12196.53
399.90	11990.56
400.09	12245.68
400.28	12205.89
400.47	12194.19
400.67	12641.23
400.86	13109.34
401.05	12826.14
401.24	12821.45
401.44	13455.74
401.63	13319.99
401.82	13336.37
402.01	13348.08
402.21	13558.72
402.40	13582.13
402.59	13064.87
402.78	12521.87
402.97	12123.98
403.17	12444.63
403.36	13270.84
403.55	13963.64
403.74	14312.38
403.93	13317.65
404.13	12430.59
404.32	12348.67
404.51	12769.96
404.70	13710.86
404.89	13804.48
405.09	13640.64
405.28	13231.05
405.47	13118.70
405.66	13163.17
405.85	12870.61
406.05	12475.06
406.24	12554.63
406.43	13228.71
406.62	13448.72
406.81	13858.31
407.00	13233.39
407.20	12915.08
407.39	13090.62
407.58	13764.69
407.77	13942.57
407.96	14920.92
408.15	14883.47
408.34	15098.80
408.54	15730.74
408.73	15515.41
408.92	15349.23
409.11	14998.15
409.30	14413.02
409.49	13322.33
409.68	12657.62
409.87	12215.26
410.07	12917.42
410.26	13980.02
410.45	14789.85
410.64	15204.12
410.83	15709.68
411.02	16056.08
411.21	16858.88
411.40	16367.37
411.59	16526.52
411.78	16339.28
411.98	16229.27
412.17	16615.46
412.36	16322.90
412.55	16397.79
412.74	15726.06
412.93	15522.43
413.12	15503.71
413.31	16828.45
413.50	17472.10
413.69	17678.07
413.88	17018.04
414.07	16510.14
414.26	16580.36
414.45	17488.48
414.64	17511.89
414.83	17231.02
415.02	16879.94
415.22	17048.46
415.41	17401.88
415.60	18097.02
415.79	18637.69
415.98	19199.41
416.17	19110.47
416.36	18810.89
416.55	18434.06
416.74	17776.37
416.93	17383.16
417.12	17287.20
417.31	17741.26
417.50	17825.52
417.69	18431.72
417.88	18129.79
418.07	18031.49
418.26	17846.58
418.45	17977.65
418.64	18579.17
418.83	19470.92
419.02	18939.62
419.21	18813.23
419.39	18150.85
419.58	17284.86
419.77	17097.61
419.96	18122.77
420.15	19173.67
420.34	19763.48
420.53	20208.19
420.72	20510.11
420.91	20510.11
421.10	20100.52
421.29	20030.30
421.48	19405.38
421.67	20360.32
421.86	19829.02
422.05	18581.51
422.24	16650.57
422.43	16145.02
422.61	18164.90
422.80	19646.46
422.99	19580.92
423.18	18941.96
423.37	18633.00
423.56	18590.88
423.75	19243.88
423.94	19370.27
424.13	18511.30
424.32	18246.82
424.50	18492.57
424.69	18192.98
424.88	18464.49
425.07	18291.29
425.26	18349.80
425.45	17874.67
425.64	17647.64
425.83	17891.06
426.01	19009.83
426.20	19307.08
426.39	19122.18
426.58	17462.74
426.77	16269.06
426.96	15843.09
427.15	16547.59
427.33	17837.22
427.52	18661.09
427.71	18532.36
427.90	18391.93
428.09	17902.76
428.28	17839.56
428.46	16884.62
428.65	16685.68
428.84	17422.95
429.03	17759.98
429.22	16652.91
429.40	15976.50
429.59	14544.09
429.78	12903.37
429.97	13139.77
430.16	12982.95
430.34	13027.42
430.53	13034.44
430.72	13376.16
430.91	14780.48
431.10	17284.86
431.28	20379.04
431.47	22160.19
431.66	21909.75
431.85	20152.01
432.03	18553.43
432.22	17603.17
432.41	18391.93
432.60	20409.47
432.79	21348.03
432.97	21888.69
433.16	21111.63
433.35	19541.13
433.54	17607.85
433.72	16629.51
433.91	17221.66
434.10	18988.77
434.28	20526.50
434.47	21383.13
434.66	21376.11
434.85	20432.88
435.03	20496.07
435.22	21099.93
435.41	22806.18
435.59	22537.02
435.78	22522.98
435.97	23166.62
436.16	23321.10
436.34	22965.34
436.53	22401.27
436.72	22434.03
436.90	21326.96
437.09	21495.48
437.28	20823.75
437.46	21762.30
437.65	21900.39
437.84	20077.12
438.02	18647.05
438.21	18754.71
438.40	19599.65
438.58	20908.01
438.77	21631.23
438.96	21872.31
439.14	22930.23
439.33	23288.33
439.52	23765.80
439.70	23489.62
439.89	22712.56
440.08	22263.18
440.26	21909.75
440.45	22852.99
440.63	24135.60
440.82	25551.63
441.01	25130.33
441.19	24566.26
441.38	25383.11
441.57	26019.74
441.75	26579.12
441.94	27028.51
442.12	26263.15
442.31	27300.01
442.50	27119.79
442.68	27037.87
442.87	26394.22
443.05	25432.26
443.24	26253.79
443.43	26845.94
443.61	27208.73
443.80	27679.18
443.98	26277.19
444.17	26075.91
444.35	27742.37
444.54	28362.61
444.73	27438.10
444.91	26714.87
445.10	25565.67
445.28	24638.82
445.47	24322.85
445.65	24615.41
445.84	25078.84
446.02	26082.93
446.21	26281.88
446.39	26345.07
446.58	26742.96
446.77	27061.27
446.95	27379.59
447.14	28287.71
447.32	28741.78
447.51	27697.90
447.69	26820.20
447.88	26515.93
448.06	26876.37
448.25	27934.29
448.43	28149.62
448.62	27534.06
448.80	27108.08
448.99	27494.27
449.17	27550.45
449.36	27517.68
449.54	28629.43
449.73	29003.92
449.91	29127.97
450.10	30085.25
450.28	31026.14
450.46	29963.54
450.65	30340.36
450.83	29940.13
451.02	29436.92
451.20	29305.85
451.39	29202.86
451.57	28992.22
451.76	29488.41
451.94	28999.24
452.13	28264.31
452.31	27091.70
452.49	25984.63
452.68	26429.33
452.86	26295.92
453.05	27110.43
453.23	27601.94
453.42	28444.53
453.60	28713.69
453.78	29214.57
453.97	28484.32
454.15	28629.43
454.34	28027.92
454.52	28533.47
454.70	27805.56
454.89	28034.94
455.07	28135.58
455.26	29132.65
455.44	30122.69
455.62	30071.20
455.81	30223.34
455.99	30274.83
456.17	29879.28
456.36	29919.07
456.54	30874.01
456.73	30541.65
456.91	31417.01
457.09	31700.22
457.28	32170.66
457.46	30628.25
457.64	30616.55
457.83	29607.78
458.01	29120.95
458.19	29965.88
458.38	30127.38
458.56	30923.16
458.74	30696.13
458.93	30298.23
459.11	30103.97
459.29	29584.37
459.48	30125.04
459.66	29783.32
459.84	30441.01
460.03	30937.20
460.21	30902.09
460.39	31211.04
460.57	31503.61
460.76	32053.64
460.94	31817.24
461.12	31351.48
461.31	31690.85
461.49	31618.30
461.67	31611.28
461.85	32584.94
462.04	32435.14
462.22	33134.96
462.40	32479.61
462.59	32299.39
462.77	32783.88
462.95	32613.02
463.13	31983.42
463.32	31480.21
463.50	31398.29
463.68	31620.64
463.86	31470.84
464.05	31276.58
464.23	30565.06
464.41	30630.59
464.59	29998.65
464.78	31419.35
464.96	31435.74
465.14	31262.54
465.32	31728.30
465.50	32549.83
465.69	32917.29
465.87	31775.11
466.05	31218.07
466.23	30082.91
466.41	29071.79
466.60	30141.42
466.78	30197.59
466.96	30656.34
467.14	31098.70
467.32	31695.53
467.51	31428.71
467.69	29956.52
467.87	30520.59
468.05	31487.23
468.23	31615.96
468.41	31337.43
468.60	31662.77
468.78	31744.69
468.96	31536.38
469.14	31931.93
469.32	31936.61
469.50	30930.18
469.69	30529.95
469.87	30621.23
470.05	30218.66
470.23	30377.81
470.41	30302.92
470.59	31271.90
470.77	31241.47
470.95	31723.62
471.14	32418.76
471.32	32095.77
471.50	33916.70
471.68	33799.68
471.86	34579.07
472.04	34717.17
472.22	34352.04
472.40	32950.06
472.58	32886.87
472.77	32575.58
472.95	33177.09
473.13	34050.11
473.31	33081.13
473.49	33120.92
473.67	33914.36
473.85	34003.30
474.03	34747.59
474.21	34785.04
474.39	35283.58
474.57	35271.87
474.75	35117.40
474.93	34754.61
475.12	34110.97
475.30	34377.79
475.48	34609.50
475.66	34881.00
475.84	34433.96
476.02	34398.85
476.20	33682.65
476.38	34562.69
476.56	35384.22
476.74	36196.38
476.92	36215.11
477.10	36868.12
477.28	38211.59
477.46	37965.83
477.64	38124.99
477.82	38225.63
478.00	38515.86
478.18	37818.38
478.36	37504.74
478.54	37502.40
478.72	38258.40
478.90	38897.36
479.08	40280.62
479.26	40133.17
479.44	40072.31
479.62	40423.39
479.80	40217.43
479.98	40432.75
480.16	40676.17
480.34	40053.59
480.52	40940.65
480.70	41055.34
480.88	41106.83
481.06	42199.86
481.24	41823.03
481.41	42586.05
481.59	43821.85
481.77	43304.59
481.95	42323.91
482.13	42209.22
482.31	42422.21
482.49	43028.41
482.67	43189.91
482.85	43742.27
483.03	44128.46
483.21	44355.49
483.39	43887.39
483.57	43316.29
483.74	42962.87
483.92	43302.25
484.10	44114.42
484.28	44872.75
484.46	45099.78
484.64	45401.71
484.82	44776.79
485.00	44240.81
485.18	43227.35
485.35	41869.84
485.53	38815.44
485.71	35299.96
485.89	35353.79
486.07	37324.52
486.25	40205.72
486.43	42792.01
486.61	43421.62
486.78	43157.14
486.96	43105.65
487.14	44774.45
487.32	45691.94
487.50	47107.96
487.68	47636.92
487.85	48189.29
488.03	48109.71
488.21	47611.18
488.39	46834.12
488.57	46398.78
488.75	45961.10
488.92	47374.78
489.10	49975.12
489.28	50965.17
489.46	51838.18
489.64	51517.53
489.81	51852.23
489.99	51201.56
490.17	51597.11
490.35	51824.14
490.53	51194.54
490.70	51061.13
490.88	50688.98
491.06	51966.91
491.24	51746.90
491.41	50581.32
491.59	48940.60
491.77	48067.58
491.95	49385.30
492.13	50880.91
492.30	52133.09
492.48	53097.39
492.66	53476.56
492.84	53205.06
493.01	53207.40
493.19	52395.23
493.37	52215.01
493.54	52081.60
493.72	52617.58
493.90	53825.30
494.08	54389.37
494.25	54918.33
494.43	54955.78
494.61	55138.34
494.79	55463.67
494.96	54969.82
495.14	54639.81
495.32	53509.33
495.49	53144.20
495.67	54089.78
495.85	55405.16
496.02	55756.24
496.20	55608.79
496.38	55444.95
496.55	55236.64
496.73	55671.98
496.91	55899.01
497.09	56369.46
497.26	56435.00
497.44	56170.52
497.62	55320.90
497.79	54440.86
497.97	53350.17
498.14	53263.57
498.32	54508.74
498.50	55880.29
498.67	56161.15
498.85	55994.98
499.03	56259.46
499.20	56350.74
499.38	56369.46
499.56	56374.14
499.73	55730.50
499.91	55437.93
500.08	55103.23
500.26	54237.23
500.44	55004.93
500.61	55344.31
500.79	55370.05
500.97	54901.95
501.14	54728.75
501.32	54401.07
501.49	54482.99
501.67	54995.57
501.84	55430.91
502.02	55501.12
502.20	56006.68
502.37	56109.66
502.55	56130.73
502.72	56872.68
502.90	57174.61
503.07	56598.83
503.25	56467.76
503.43	55590.06
503.60	54918.33
503.78	54363.62
503.95	54805.98
504.13	56076.90
504.30	57013.11
504.48	56765.01
504.65	56399.89
504.83	56470.11
505.01	57167.58
505.18	57490.58
505.36	58003.16
505.53	58066.35
505.71	58293.38
505.88	58473.60
506.06	57556.11
506.23	57216.74
506.41	56828.21
506.58	57385.25
506.76	57172.27
506.93	57155.88
507.11	57038.86
507.28	57080.98
507.46	56395.21
507.63	56081.58
507.81	55959.87
507.98	56264.14
508.16	56732.25
508.33	57172.27
508.50	57907.19
508.68	57937.62
508.85	58557.86
509.03	58361.26
509.20	58354.24
509.38	57593.56
509.55	56825.87
509.73	57001.41
509.90	57422.70
510.08	57836.98
510.25	57743.36
510.42	57579.52
510.60	57478.88
510.77	57827.62
510.95	58368.28
511.12	58178.70
511.30	58667.87
511.47	58908.94
511.64	58782.55
511.82	58436.16
511.99	57495.26
512.17	57418.02
512.34	57071.62
512.51	57186.31
512.69	57387.60
512.86	57387.60
513.04	57851.02
513.21	57719.95
513.38	57209.71
513.56	56961.62
513.73	56451.38
513.90	56830.55
514.08	56711.18
514.25	56959.28
514.43	57233.12
514.60	57434.41
514.77	57546.75
514.95	57605.26
515.12	57614.63
515.29	57722.29
515.47	58251.25
515.64	58227.85
515.81	58042.95
515.99	57230.78
516.16	55807.73
516.33	53345.49
516.51	52020.75
516.68	51000.27
516.85	50646.85
517.03	51529.23
517.20	54293.41
517.37	56537.98
517.54	57645.05
517.72	56839.91
517.89	54403.41
518.06	52404.59
518.24	52729.93
518.41	54953.44
518.58	56109.66
518.75	56090.94
518.93	56528.62
519.10	56423.29
519.27	57017.79
519.45	57301.00
519.62	57968.05
519.79	58169.33
519.96	57888.47
520.14	57352.49
520.31	56659.69
520.48	56666.71
520.65	57113.75
520.83	58155.29
521.00	58176.36
521.17	57954.00
521.34	57785.49
521.52	58024.22
521.69	58649.14
521.86	58815.32
522.03	58461.90
522.20	57080.98
522.38	56301.59
522.55	56465.42
522.72	57020.13
522.89	57125.46
523.07	57233.12
523.24	57710.59
523.41	58623.40
523.58	58859.79
523.75	59238.96
523.92	59070.44
524.10	59194.49
524.27	59185.13
524.44	58841.07
524.61	58635.10
524.78	58351.90
524.96	58454.88
525.13	58314.45
525.30	58609.35
525.47	59164.06
525.64	59018.95
525.81	58188.06
525.98	56931.19
526.16	55487.08
526.33	54862.16
526.50	54300.43
526.67	54274.68
526.84	54958.12
527.01	55721.13
527.18	56617.56
527.36	57827.62
527.53	58351.90
527.70	58738.08
527.87	58024.22
528.04	57572.50
528.21	57930.60
528.38	58695.95
528.55	59517.48
528.72	59690.68
528.89	59643.87
529.07	59297.47
529.24	58639.78
529.41	58096.78
529.58	57357.17
529.75	57530.37
529.92	58085.07
530.09	58560.20
530.26	59110.23
530.43	59203.85
530.60	59386.41
530.77	59576.00
530.94	59676.64
531.11	59091.51
531.28	58880.86
531.46	58501.69
531.63	58712.34
531.80	58616.38
531.97	58061.67
532.14	57492.92
532.31	56229.03
532.48	55819.44
532.65	55987.95
532.82	56999.07
532.99	57925.92
533.16	58351.90
533.33	58857.45
533.50	58660.85
533.67	57991.45
533.84	57726.97
534.01	57738.68
534.18	58134.23
534.35	57895.49
534.52	57783.15
534.69	58239.55
534.86	58630.42
535.03	58815.32
535.20	59285.77
535.37	59662.60
535.54	59650.89
535.71	59400.46
535.88	58983.84
536.05	58382.32
536.22	57963.37
536.38	57862.72
536.55	57251.84
536.72	56566.07
536.89	56690.12
537.06	57427.38
537.23	58384.66
537.40	58480.63
537.57	58518.07
537.74	58494.67
537.91	58262.96
538.08	58293.38
538.25	58333.17
538.42	58429.13
538.59	58096.78
538.75	57570.16
538.92	57570.16
539.09	57345.47
539.26	57090.35
539.43	56947.57
539.60	56921.83
539.77	57265.89
539.94	56851.61
540.11	56156.47
540.28	55873.27
540.44	56081.58
540.61	56404.57
540.78	56289.88
540.95	56985.02
541.12	57293.97
541.29	57623.99
541.46	57783.15
541.62	57989.11
541.79	57741.02
541.96	57052.90
542.13	57258.87
542.30	57544.41
542.47	57614.63
542.63	57293.97
542.80	57043.54
542.97	57680.16
543.14	57015.45
543.31	57251.84
543.48	57846.34
543.64	58394.03
543.81	58667.87
543.98	58541.48
544.15	57996.13
544.32	57591.22
544.48	57347.81
544.65	57787.83
544.82	58202.10
544.99	57780.81
545.16	57329.08
545.32	57279.93
545.49	58045.29
545.66	58431.47
545.83	57996.13
546.00	57855.70
546.16	57317.38
546.33	57373.55
546.50	57331.42
546.67	57748.04
546.83	57471.85
547.00	57436.75
547.17	56767.35
547.34	56282.86
547.50	56229.03
547.67	56753.31
547.84	56774.37
548.00	57088.01
548.17	57586.54
548.34	57293.97
548.51	57434.41
548.67	57628.67
548.84	57455.47
549.01	57385.25
549.18	57144.18
549.34	57282.27
549.51	57403.98
549.68	57275.25
549.84	56963.96
550.01	56928.85
550.18	56664.37
550.34	56954.60
550.51	56896.08
550.68	57118.43
550.84	56488.83
551.01	56636.28
551.18	56549.68
551.34	56713.52
551.51	57102.05
551.68	57329.08
551.84	57441.43
552.01	57439.09
552.18	57200.35
552.34	56119.02
552.51	56093.28
552.68	56184.56
552.84	56458.40
553.01	56547.34
553.18	56573.09
553.34	56809.48
553.51	56966.30
553.67	57099.71
553.84	57340.78
554.01	57172.27
554.17	56954.60
554.34	57153.54
554.51	57043.54
554.67	57572.50
554.84	57310.36
555.00	56893.74
555.17	56612.88
555.33	56818.84
555.50	56575.43
555.67	56657.35
555.83	56498.19
556.00	56053.49
556.16	56257.12
556.33	55915.40
556.50	55831.14
556.66	55767.94
556.83	55430.91
556.99	55554.96
557.16	55718.79
557.32	55994.98
557.49	55906.04
557.65	55908.38
557.82	56320.31
557.98	55908.38
558.15	55292.82
558.32	54625.76
558.48	54202.13
558.65	54298.09
558.81	54333.20
558.98	54738.11
559.14	55044.72
559.31	55189.83
559.47	55093.87
559.64	54742.79
559.80	54328.52
559.97	54710.02
560.13	54981.52
560.30	56011.36
560.46	56449.04
560.63	56512.23
560.79	56348.40
560.96	56119.02
561.12	55058.76
561.29	54277.02
561.45	54328.52
561.61	54899.61
561.78	55461.33
561.94	55084.51
562.11	55063.44
562.27	54904.29
562.44	55157.06
562.60	55540.91
562.77	55618.15
562.93	55646.24
563.10	55524.53
563.26	54733.43
563.42	55077.49
563.59	54892.58
563.75	54829.39
563.92	54962.80
564.08	55009.61
564.24	55173.45
564.41	55014.29
564.57	54794.28
564.74	54967.48
564.90	54667.89
565.07	54726.41
565.23	54384.69
565.39	53516.35
565.56	53305.70
565.72	53230.80
565.88	53804.24
566.05	53745.72
566.21	54188.08
566.38	54192.76
566.54	54138.93
566.70	54578.95
566.87	54801.30
567.03	54995.57
567.19	55040.04
567.36	54766.20
567.52	54578.95
567.68	54167.02
567.85	53506.99
568.01	53656.78
568.17	52912.49
568.34	52933.56
568.50	52898.45
568.66	53088.03
568.83	53528.05
568.99	53635.72
569.15	53668.48
569.32	53778.49
569.48	53389.96
569.64	53200.38
569.81	52963.98
569.97	52797.80
570.13	52758.02
570.30	52102.67
570.46	51849.89
570.62	51168.79
570.78	51145.39
570.95	51444.98
571.11	52247.78
571.27	52575.45
571.43	52680.78
571.60	52889.09
571.76	53350.17
571.92	53727.00
572.09	53755.08
572.25	53682.53
572.41	53460.18
572.57	53223.78
572.74	53326.77
572.90	52980.37
573.06	52783.76
573.22	53167.61
573.38	52886.74
573.55	52886.74
573.71	53263.57
573.87	53050.58
574.03	52615.24
574.20	52994.41
574.36	52699.50
574.52	52315.65
574.68	51938.83
574.84	51791.37
575.01	51426.25
575.17	51484.76
575.33	51770.31
575.49	51957.55
575.65	52233.74
575.82	51922.44
575.98	51274.12
576.14	51894.36
576.30	52079.26
576.46	52259.48
576.62	52210.33
576.79	52229.05
576.95	51742.22
577.11	51765.63
577.27	51606.47
577.43	51786.69
577.59	51107.94
577.75	51004.95
577.92	50525.14
578.08	50340.24
578.24	50529.83
578.40	50705.37
578.56	50934.74
578.72	50735.79
578.88	51154.75
579.04	51304.54
579.21	51618.17
579.37	51477.74
579.53	51423.91
579.69	51363.06
579.85	51573.70
580.01	51547.96
580.17	50993.25
580.33	51023.68
580.49	50712.39
580.65	51243.69
580.82	51309.22
580.98	51728.18
581.14	51037.72
581.30	51372.42
581.46	51007.29
581.62	51491.79
581.78	51320.93
581.94	51517.53
582.10	51847.55
582.26	51803.08
582.42	51461.36
582.58	51744.56
582.74	51674.35
582.90	51564.34
583.06	51573.70
583.22	51105.60
583.38	51599.45
583.54	51119.64
583.70	51260.07
583.86	51168.79
584.02	51133.68
584.18	51365.40
584.34	51227.31
584.50	51037.72
584.66	51136.02
584.82	50380.03
584.98	50511.10
585.14	50188.11
585.30	48907.83
