SpectraSuite Data File
++++++++++++++++++++++++++++++++++++
Date: Mon Oct 07 14:54:56 GMT-05:00 2013
User: price-jones
Dark Spectrum Present: No
Reference Spectrum Present: No
Number of Sampled Component Spectra: 1
Spectrometers: USB2+H05261
Integration Time (usec): 10000 (USB2+H05261)
Spectra Averaged: 1 (USB2+H05261)
Boxcar Smoothing: 0 (USB2+H05261)
Correct for Electrical Dark: No (USB2+H05261)
Strobe/Lamp Enabled: No (USB2+H05261)
Correct for Detector Non-linearity: No (USB2+H05261)
Correct for Stray Light: No (USB2+H05261)
Number of Pixels in Processed Spectrum: 2048
>>>>>Begin Processed Spectral Data<<<<<
365.73	0.00
365.92	0.00
366.12	0.00
366.32	0.00
366.52	0.00
366.72	0.00
366.91	0.00
367.11	0.00
367.31	0.00
367.51	0.00
367.70	0.00
367.90	0.00
368.10	0.00
368.30	0.00
368.49	0.00
368.69	0.00
368.89	0.00
369.09	0.00
369.28	0.00
369.48	0.00
369.68	0.00
369.87	0.00
370.07	0.00
370.27	0.00
370.47	42.13
370.66	1366.87
370.86	1582.20
371.06	1561.14
371.25	1488.58
371.45	1329.42
371.65	1261.55
371.84	1179.63
372.04	1355.17
372.24	1387.94
372.44	1495.60
372.63	1465.18
372.83	1343.47
373.03	1086.01
373.22	1060.26
373.42	1273.25
373.62	1425.39
373.81	1446.45
374.01	1416.02
374.21	1198.35
374.40	1226.44
374.60	1270.91
374.79	1490.92
374.99	1802.21
375.19	1900.52
375.38	1860.73
375.58	1699.23
375.78	1671.14
375.97	1687.53
376.17	1743.70
376.37	1809.23
376.56	1944.99
376.76	2005.84
376.95	2155.63
377.15	2319.47
377.35	2335.85
377.54	2523.10
377.74	2579.27
377.93	2541.82
378.13	2361.60
378.33	2242.23
378.52	1944.99
378.72	1966.05
378.91	1877.11
379.11	1792.85
379.31	1865.41
379.50	1767.10
379.70	2150.95
379.89	2235.21
380.09	2394.37
380.28	2394.37
380.48	2509.05
380.68	2359.26
380.87	2230.53
381.07	2200.10
381.26	1966.05
381.46	1790.51
381.65	1729.66
381.85	1842.00
382.04	1556.46
382.24	1476.88
382.43	1453.47
382.63	1425.39
382.83	1390.28
383.02	1427.73
383.22	1406.66
383.41	1437.09
383.61	1448.79
383.80	1884.13
384.00	2071.37
384.19	2392.03
384.39	2399.05
384.58	2415.43
384.78	2399.05
384.97	2221.17
385.17	2148.61
385.36	1996.48
385.56	2038.61
385.75	2162.66
385.95	2263.30
386.14	2506.71
386.34	2331.17
386.53	2361.60
386.72	2225.85
386.92	2216.49
387.11	2469.27
387.31	2476.29
387.50	2450.54
387.70	2251.60
387.89	2272.66
388.09	2305.43
388.28	2361.60
388.48	2366.28
388.67	2614.38
388.86	2853.11
389.06	3087.17
389.25	3236.96
389.45	3297.81
389.64	3171.43
389.84	3049.72
390.03	3082.49
390.22	3276.75
390.42	3421.86
390.61	3581.02
390.81	3648.90
391.00	3786.99
391.19	3623.15
391.39	3375.05
391.58	3295.47
391.78	3136.32
391.97	2988.86
392.16	2693.96
392.36	2223.51
392.55	1846.68
392.75	1481.56
392.94	1261.55
393.13	1310.70
393.33	1671.14
393.52	2193.08
393.71	2520.76
393.91	2916.31
394.10	3110.57
394.29	3520.17
394.49	3623.15
394.68	3960.19
394.88	3913.38
395.07	4056.15
395.26	3899.33
395.46	3838.48
395.65	3651.24
395.84	3068.44
396.04	2485.65
396.23	1923.92
396.42	1692.21
396.62	1881.79
396.81	2246.91
397.00	2736.09
397.19	3363.35
397.39	4177.86
397.58	4723.20
397.77	4697.46
397.97	4662.35
398.16	5004.07
398.35	5060.24
398.55	5371.53
398.74	5408.98
398.93	5528.35
399.12	5387.91
399.32	5313.02
399.51	5528.35
399.70	5921.56
399.90	5500.26
400.09	5659.42
400.28	5626.65
400.47	5760.06
400.67	6047.94
400.86	6101.78
401.05	6354.55
401.24	6047.94
401.44	6251.57
401.63	6218.80
401.82	6136.88
402.01	6363.92
402.21	6242.21
402.40	6167.31
402.59	6111.14
402.78	5748.36
402.97	5701.54
403.17	6040.92
403.36	6546.48
403.55	6612.01
403.74	6635.42
403.93	6176.67
404.13	5724.95
404.32	5809.21
404.51	6171.99
404.70	6462.22
404.89	6363.92
405.09	6228.17
405.28	6036.24
405.47	6031.56
405.66	6076.03
405.85	5888.79
406.05	5937.94
406.24	6085.39
406.43	6087.73
406.62	6354.55
406.81	6249.23
407.00	5996.45
407.20	6148.59
407.39	6038.58
407.58	6333.49
407.77	6665.85
407.96	6705.63
408.15	6920.96
408.34	6932.67
408.54	7407.80
408.73	7124.59
408.92	7037.99
409.11	6782.87
409.30	6612.01
409.49	5980.07
409.68	5703.89
409.87	5638.35
410.07	5940.28
410.26	6604.99
410.45	6759.47
410.64	7131.61
410.83	7349.28
411.02	7616.10
411.21	7831.43
411.40	7269.70
411.59	7281.41
411.78	7499.08
411.98	7534.18
412.17	7681.64
412.36	7335.24
412.55	7323.54
412.74	7267.36
412.93	7351.62
413.12	7258.00
413.31	7880.58
413.50	8142.72
413.69	7892.29
413.88	7660.57
414.07	7541.21
414.26	7730.79
414.45	7831.43
414.64	7868.88
414.83	7782.28
415.02	7840.79
415.22	8013.99
415.41	8262.09
415.60	8294.86
415.79	8690.41
415.98	8800.41
416.17	8634.24
416.36	8353.37
416.55	8084.21
416.74	7955.48
416.93	7772.92
417.12	7831.43
417.31	7955.48
417.50	8112.30
417.69	8201.24
417.88	8124.00
418.07	7953.14
418.26	8147.40
418.45	8381.46
418.64	8510.19
418.83	8833.18
419.02	8629.56
419.21	8306.56
419.39	8107.62
419.58	7796.32
419.77	8032.72
419.96	8449.33
420.15	8748.92
420.34	8849.57
420.53	9231.07
420.72	9132.77
420.91	9198.31
421.10	8943.19
421.29	8894.04
421.48	8800.41
421.67	8828.50
421.86	8622.53
422.05	7756.54
422.24	7272.04
422.43	7576.31
422.61	8189.53
422.80	8601.47
422.99	8802.75
423.18	8351.03
423.37	8407.20
423.56	8257.41
423.75	8414.23
423.94	8603.81
424.13	8238.69
424.32	8236.35
424.50	7903.99
424.69	8180.17
424.88	8147.40
425.07	8072.51
425.26	7964.84
425.45	7672.28
425.64	7829.09
425.83	8013.99
426.01	8353.37
426.20	8578.06
426.39	8439.97
426.58	7896.97
426.77	7250.98
426.96	7082.46
427.15	7445.24
427.33	8056.12
427.52	8147.40
427.71	8095.91
427.90	7826.75
428.09	7669.94
428.28	7576.31
428.46	7405.46
428.65	7344.60
428.84	7700.36
429.03	7609.08
429.22	6792.23
429.40	6796.92
429.59	6176.67
429.78	5341.10
429.97	5486.22
430.16	5514.30
430.34	5399.62
430.53	5715.59
430.72	5930.92
430.91	6740.74
431.10	7843.14
431.28	9076.60
431.47	9600.88
431.66	9331.72
431.85	8311.24
432.03	7798.66
432.22	7784.62
432.41	8329.97
432.60	8938.51
432.79	9088.30
432.97	9645.35
433.16	8917.44
433.35	8194.22
433.54	7403.11
433.72	7145.66
433.91	7463.97
434.10	8255.07
434.28	8840.20
434.47	9179.58
434.66	9041.49
434.85	9032.13
435.03	9090.64
435.22	9254.48
435.41	9385.55
435.59	9348.10
435.78	9635.99
435.97	10155.58
436.16	9919.19
436.34	9764.72
436.53	9507.26
436.72	9563.43
436.90	8915.10
437.09	9123.41
437.28	9036.81
437.46	9210.01
437.65	8999.36
437.84	8248.05
438.02	7871.22
438.21	7896.97
438.40	8379.12
438.58	9013.40
438.77	9467.47
438.96	9586.83
439.14	10012.81
439.33	9980.04
439.52	9975.36
439.70	9657.05
439.89	9310.65
440.08	9399.59
440.26	9504.92
440.45	9760.03
440.63	10354.53
440.82	10785.19
441.01	10349.85
441.19	10637.73
441.38	10902.22
441.57	10942.00
441.75	11124.57
441.94	11194.78
442.12	11035.63
442.31	11414.79
442.50	11040.31
442.68	11002.86
442.87	10813.28
443.05	10789.87
443.24	10890.51
443.43	11246.27
443.61	11438.20
443.80	11536.50
443.98	11052.01
444.17	10761.78
444.35	11555.22
444.54	11648.85
444.73	11492.03
444.91	10787.53
445.10	10314.74
445.28	10258.57
445.47	10134.52
445.65	9900.47
445.84	10574.54
446.02	10679.86
446.21	10953.71
446.39	11075.42
446.58	10986.47
446.77	11323.51
446.95	11253.30
447.14	11578.63
447.32	11742.47
447.51	11367.98
447.69	10944.34
447.88	10855.40
448.06	11052.01
448.25	10958.39
448.43	11005.20
448.62	11049.67
448.80	11117.54
448.99	11063.71
449.17	11077.76
449.36	11447.56
449.54	11529.48
449.73	12018.65
449.91	12088.87
450.10	12159.08
450.28	12311.22
450.46	12334.62
450.65	12278.45
450.83	12175.47
451.02	11775.24
451.20	11470.97
451.39	11903.96
451.57	11688.64
451.76	11754.17
451.94	11412.45
452.13	11269.68
452.31	10516.03
452.49	10167.29
452.68	10707.95
452.86	10780.51
453.05	10829.66
453.23	11066.05
453.42	11447.56
453.60	11527.14
453.78	11826.73
453.97	11407.77
454.15	11492.03
454.34	11225.21
454.52	11091.80
454.70	10960.73
454.89	11124.57
455.07	11101.16
455.26	11101.16
455.44	11602.04
455.62	11948.43
455.81	12077.16
455.99	11562.25
456.17	11878.22
456.36	12056.10
456.54	12093.55
456.73	12208.23
456.91	12442.29
457.09	12140.36
457.28	12477.40
457.46	11712.04
457.64	11810.34
457.83	11410.11
458.01	11311.81
458.19	11634.80
458.38	11604.38
458.56	11957.80
458.74	11784.60
458.93	11557.57
459.11	11651.19
459.29	11822.05
459.48	11620.76
459.66	11440.54
459.84	11700.34
460.03	11978.86
460.21	11880.56
460.39	12086.53
460.57	12018.65
460.76	12018.65
460.94	12100.57
461.12	12177.81
461.31	12053.76
461.49	12519.53
461.67	12126.32
461.85	12360.37
462.04	12198.87
462.22	12339.30
462.40	12140.36
462.59	12292.49
462.77	12077.16
462.95	12170.79
463.13	12060.78
463.32	12002.27
463.50	11974.18
463.68	11999.93
463.86	11672.25
464.05	11576.29
464.23	11653.53
464.41	11447.56
464.59	11407.77
464.78	11943.75
464.96	11819.71
465.14	11674.59
465.32	12264.41
465.50	12615.49
465.69	12748.90
465.87	12271.43
466.05	11590.33
466.23	11353.94
466.41	11257.98
466.60	11702.68
466.78	11538.84
466.96	11665.23
467.14	11763.53
467.32	12025.67
467.51	11953.12
467.69	11138.61
467.87	11433.52
468.05	11419.47
468.23	11360.96
468.41	11447.56
468.60	11597.35
468.78	11473.31
468.96	11370.32
469.14	11894.60
469.32	11634.80
469.50	11297.77
469.69	11384.37
469.87	11098.82
470.05	11197.12
470.23	11164.36
470.41	11044.99
470.59	11349.26
470.77	11463.94
470.95	11857.15
471.14	11679.27
471.32	11925.03
471.50	12620.17
471.68	12486.76
471.86	12353.35
472.04	12388.46
472.22	12292.49
472.40	11740.13
472.58	11955.46
472.77	11803.32
472.95	11702.68
473.13	11955.46
473.31	12107.59
473.49	12163.76
473.67	12231.64
473.85	12156.74
474.03	12437.61
474.21	12514.84
474.39	12812.09
474.57	12599.10
474.75	12538.25
474.93	12847.20
475.12	12369.73
475.30	11988.22
475.48	12180.15
475.66	12390.80
475.84	12166.10
476.02	12276.11
476.20	12123.98
476.38	12336.96
476.56	12631.87
476.74	12992.31
476.92	12854.22
477.10	12968.91
477.28	13116.36
477.46	13048.49
477.64	13317.65
477.82	13437.02
478.00	13458.08
478.18	13219.35
478.36	13022.74
478.54	13444.04
478.72	12999.34
478.90	13785.76
479.08	14291.31
479.26	14546.43
479.44	14303.01
479.62	13778.73
479.80	13802.14
479.98	14164.92
480.16	14277.27
480.34	14015.13
480.52	14303.01
480.70	14665.80
480.88	14230.46
481.06	14553.45
481.24	14883.47
481.41	14862.40
481.59	15124.54
481.77	14675.16
481.95	14326.42
482.13	14803.89
482.31	14810.91
482.49	14508.98
482.67	14874.10
482.85	14846.02
483.03	15417.11
483.21	14988.79
483.39	15012.20
483.57	14881.13
483.74	14853.04
483.92	15192.42
484.10	15246.25
484.28	15506.05
484.46	15772.87
484.64	15630.10
484.82	15194.76
485.00	14726.65
485.18	14125.13
485.35	13593.83
485.53	12500.80
485.71	11382.03
485.89	11782.26
486.07	12823.80
486.25	13642.98
486.43	14083.00
486.61	14363.87
486.78	14333.44
486.96	14298.33
487.14	15225.18
487.32	15892.24
487.50	16009.26
487.68	16194.17
487.85	16395.45
488.03	16453.97
488.21	16025.65
488.39	15845.43
488.57	15587.97
488.75	15431.15
488.92	15976.50
489.10	17216.98
489.28	17427.63
489.46	18207.03
489.64	17617.21
489.81	17942.55
489.99	18328.74
490.17	18155.54
490.35	18202.35
490.53	18017.44
490.70	17109.32
490.88	17528.27
491.06	18167.24
491.24	17905.10
491.41	16891.65
491.59	16725.47
491.77	16210.55
491.95	16774.62
492.13	17668.70
492.30	18260.86
492.48	18654.07
492.66	18651.73
492.84	18317.03
493.01	18504.28
493.19	17921.48
493.37	17921.48
493.54	17755.30
493.72	18754.71
493.90	19140.90
494.08	19360.91
494.25	19171.33
494.43	19459.21
494.61	19768.16
494.79	19601.99
494.96	19620.71
495.14	18520.66
495.32	18073.62
495.49	18270.22
495.67	19260.27
495.85	19438.15
496.02	19728.38
496.20	20081.80
496.38	19840.72
496.55	19442.83
496.73	19461.55
496.91	19391.34
497.09	20407.13
497.26	20306.49
497.44	19924.98
497.62	19756.46
497.79	19117.50
497.97	17647.64
498.14	18499.59
498.32	18998.13
498.50	19403.04
498.67	19192.39
498.85	19236.86
499.03	19768.16
499.20	20023.28
499.38	19721.35
499.56	19168.99
499.73	19281.33
499.91	19211.12
500.08	18827.27
500.26	18087.66
500.44	18932.59
500.61	19108.13
500.79	18988.77
500.97	18501.93
501.14	18546.40
501.32	18129.79
501.49	18373.21
501.67	18466.83
501.84	18581.51
502.02	19431.13
502.20	19899.23
502.37	19440.49
502.55	20243.29
502.72	20507.77
502.90	20276.06
503.07	19733.06
503.25	19506.02
503.43	18902.17
503.60	18384.91
503.78	18338.10
503.95	18525.34
504.13	19747.10
504.30	20121.59
504.48	19489.64
504.65	19548.15
504.83	19555.18
505.01	19714.33
505.18	20184.78
505.36	20526.50
505.53	20585.01
505.71	20582.67
505.88	20858.85
506.06	20070.09
506.23	19676.88
506.41	19573.90
506.58	19719.01
506.76	19218.14
506.93	19426.45
507.11	19695.61
507.28	19400.70
507.46	19218.14
507.63	18633.00
507.81	18583.85
507.98	18972.38
508.16	19538.79
508.33	19747.10
508.50	19978.81
508.68	20369.68
508.85	20418.83
509.03	20292.44
509.20	19770.51
509.38	19126.86
509.55	18803.86
509.73	19140.90
509.90	20233.93
510.08	19716.67
510.25	19988.18
510.42	19199.41
510.60	19756.46
510.77	19700.29
510.95	19953.07
511.12	19714.33
511.30	19871.15
511.47	20257.34
511.64	20049.03
511.82	20027.96
511.99	19103.45
512.17	19105.79
512.34	18150.85
512.51	18965.36
512.69	19419.42
512.86	19407.72
513.04	19386.66
513.21	19630.07
513.38	18735.99
513.56	19014.51
513.73	18368.52
513.90	17928.50
514.08	18228.09
514.25	18799.18
514.43	18981.74
514.60	18813.23
514.77	18911.53
514.95	18970.04
515.12	18920.89
515.29	18920.89
515.47	19379.64
515.64	19552.84
515.81	18806.20
515.99	18038.51
516.16	17280.18
516.33	15978.84
516.51	15641.80
516.68	15140.93
516.85	15119.86
517.03	15548.18
517.20	17003.99
517.37	18317.03
517.54	18862.38
517.72	17806.80
517.89	16276.09
518.06	15578.61
518.24	15756.49
518.41	17207.62
518.58	17909.78
518.75	18005.74
518.93	18221.07
519.10	17926.16
519.27	18260.86
519.45	18368.52
519.62	18878.76
519.79	19033.24
519.96	19051.96
520.14	18712.58
520.31	17549.34
520.48	18389.59
520.65	18586.19
520.83	18803.86
521.00	18515.98
521.17	18518.32
521.34	18398.95
521.52	18537.04
521.69	18970.04
521.86	19939.02
522.03	18743.01
522.20	18178.94
522.38	17116.34
522.55	17790.41
522.72	17834.88
522.89	17781.05
523.07	17914.46
523.24	18052.55
523.41	18682.16
523.58	18803.86
523.75	19583.26
523.92	19290.70
524.10	19295.38
524.27	19215.80
524.44	18541.72
524.61	18998.13
524.78	18576.83
524.96	18511.30
525.13	18745.35
525.30	18831.95
525.47	18593.22
525.64	18965.36
525.81	18431.72
525.98	17312.94
526.16	16372.05
526.33	16243.32
526.50	16205.87
526.67	16327.58
526.84	16690.36
527.01	17378.48
527.18	17902.76
527.36	18286.61
527.53	18909.19
527.70	18349.80
527.87	17797.43
528.04	18375.55
528.21	18202.35
528.38	18211.71
528.55	19536.45
528.72	19747.10
528.89	19318.78
529.07	19122.18
529.24	18075.96
529.41	18057.23
529.58	17645.30
529.75	17551.68
529.92	18022.12
530.09	18279.58
530.26	18661.09
530.43	19211.12
530.60	19037.92
530.77	18867.06
530.94	18927.91
531.11	18328.74
531.28	18207.03
531.46	18160.22
531.63	18349.80
531.80	18457.46
531.97	17759.98
532.14	17436.99
532.31	16636.53
532.48	16184.80
532.65	16355.66
532.82	16903.35
532.99	17804.46
533.16	17865.31
533.33	17858.29
533.50	17633.60
533.67	17605.51
533.84	17205.28
534.01	17743.60
534.18	17500.19
534.35	17439.33
534.52	17444.01
534.69	17818.50
534.86	17820.84
535.03	17652.32
535.20	17851.27
535.37	18532.36
535.54	18827.27
535.71	18450.44
535.88	17554.02
536.05	17245.07
536.22	17226.34
536.38	17294.22
536.55	16685.68
536.72	17003.99
536.89	16959.52
537.06	16947.82
537.23	17628.92
537.40	17727.22
537.57	17802.11
537.74	17259.11
537.91	17289.54
538.08	17188.89
538.25	17216.98
538.42	18031.49
538.59	17291.88
538.75	16940.80
538.92	16861.22
539.09	16741.85
539.26	16428.22
539.43	16210.55
539.60	16161.40
539.77	16245.66
539.94	16350.98
540.11	15573.92
540.28	15557.54
540.44	15499.03
540.61	16081.82
540.78	16077.14
540.95	16229.27
541.12	15992.88
541.29	16091.18
541.46	16430.56
541.62	16606.10
541.79	16404.81
541.96	16290.13
542.13	16161.40
542.30	16592.06
542.47	16411.84
542.63	16224.59
542.80	15613.71
542.97	16013.95
543.14	16166.08
543.31	16240.98
543.48	17158.47
543.64	17231.02
543.81	17238.05
543.98	17364.43
544.15	16561.63
544.32	16290.13
544.48	16315.87
544.65	16854.20
544.82	16919.73
544.99	16196.51
545.16	15988.20
545.32	16042.03
545.49	16383.75
545.66	16971.22
545.83	16166.08
546.00	16095.86
546.16	16173.10
546.33	16025.65
546.50	15704.99
546.67	16042.03
546.83	15840.75
547.00	15704.99
547.17	15470.94
547.34	15576.27
547.50	15049.64
547.67	15499.03
547.84	15538.82
548.00	15728.40
548.17	16203.53
548.34	15953.09
548.51	16070.12
548.67	16123.95
548.84	15964.79
549.01	16088.84
549.18	15978.84
549.34	15899.26
549.51	15784.57
549.68	15515.41
549.84	15602.01
550.01	15796.28
550.18	15910.96
550.34	15840.75
550.51	15290.72
550.68	14988.79
550.84	15321.15
551.01	15482.64
551.18	15206.46
551.34	15180.71
551.51	15400.72
551.68	15782.23
551.84	15672.23
552.01	15119.86
552.18	15555.20
552.34	14860.06
552.51	14670.48
552.68	14703.25
552.84	14981.77
553.01	15206.46
553.18	15101.14
553.34	15304.76
553.51	15332.85
553.67	15419.45
553.84	14934.96
554.01	15201.78
554.17	14850.70
554.34	15122.20
554.51	15119.86
554.67	15236.89
554.84	14813.25
555.00	14839.00
555.17	15040.28
555.33	15246.25
555.50	14876.44
555.67	15274.34
555.83	15229.87
556.00	14707.93
556.16	14569.83
556.33	14363.87
556.50	13980.02
556.66	14235.14
556.83	14312.38
556.99	14406.00
557.16	14169.60
557.32	14200.03
557.49	14572.18
557.65	14775.80
557.82	14480.89
557.98	14476.21
558.15	14090.02
558.32	13469.78
558.48	13301.26
558.65	13757.67
558.81	14024.49
558.98	14003.43
559.14	14246.84
559.31	13954.27
559.47	13781.07
559.64	13680.43
559.80	13535.32
559.97	13415.95
560.13	13813.84
560.30	14068.96
560.46	14846.02
560.63	14331.10
560.79	14368.55
560.96	14298.33
561.12	13650.00
561.29	13373.82
561.45	13301.26
561.61	13870.01
561.78	13860.65
561.94	13537.66
562.11	13495.53
562.27	13703.84
562.44	13804.48
562.60	13951.93
562.77	14303.01
562.93	13944.91
563.10	13542.34
563.26	13008.70
563.42	13277.86
563.59	13207.64
563.75	13451.06
563.92	13310.63
564.08	12968.91
564.24	13387.86
564.41	13799.80
564.57	13844.27
564.74	13640.64
564.90	13640.64
565.07	13310.63
565.23	12629.53
565.39	12428.24
565.56	12311.22
565.72	12769.96
565.88	13254.45
566.05	13280.20
566.21	13432.33
566.38	13226.37
566.54	13085.94
566.70	13142.11
566.87	13050.83
567.03	12856.56
567.19	12898.69
567.36	13156.15
567.52	13319.99
567.68	12943.16
567.85	12638.89
568.01	12355.69
568.17	12168.45
568.34	12624.85
568.50	12671.66
568.66	12547.61
568.83	12999.34
568.99	12397.82
569.15	12833.16
569.32	12856.56
569.48	12201.21
569.64	12545.27
569.81	12580.38
569.97	12348.67
570.13	12531.23
570.30	11997.59
570.46	11873.54
570.62	11737.79
570.78	11660.55
570.95	11712.04
571.11	12018.65
571.27	12259.73
571.43	12147.38
571.60	12290.15
571.76	12805.07
571.92	12776.98
572.09	12674.00
572.25	12875.29
572.41	12833.16
572.57	12318.24
572.74	12051.42
572.90	12367.39
573.06	12891.67
573.22	12755.92
573.38	12554.63
573.55	12446.97
573.71	12341.64
573.87	12479.74
574.03	12231.64
574.20	12133.34
574.36	11826.73
574.52	11901.62
574.68	11927.37
574.84	11964.82
575.01	11843.11
575.17	11658.21
575.33	11735.45
575.49	11431.18
575.65	11623.10
575.82	11585.65
575.98	11648.85
576.14	11740.13
576.30	11758.85
576.46	11751.83
576.62	11667.57
576.79	11859.49
576.95	11854.81
577.11	11660.55
577.27	11861.84
577.43	11705.02
577.59	11485.01
577.75	11293.08
577.92	11023.92
578.08	11066.05
578.24	11342.24
578.40	11293.08
578.56	11243.93
578.72	10874.13
578.88	11213.51
579.04	11386.71
579.21	11616.08
579.37	11398.41
579.53	11557.57
579.69	11297.77
579.85	11215.85
580.01	11239.25
580.17	11257.98
580.33	11398.41
580.49	11599.70
580.65	11187.76
580.82	11349.26
580.98	11232.23
581.14	11009.88
581.30	11316.49
581.46	11154.99
581.62	11234.57
581.78	11122.23
581.94	11101.16
582.10	11112.86
582.26	11414.79
582.42	11286.06
582.58	11527.14
582.74	11468.62
582.90	11304.79
583.06	11119.89
583.22	11136.27
583.38	11225.21
583.54	11389.05
583.70	11337.56
583.86	11426.50
584.02	11150.31
584.18	11145.63
584.34	10920.94
584.50	11061.37
584.66	11023.92
584.82	10555.82
584.98	10640.08
585.14	10839.02
585.30	10459.85
585.46	10420.06
585.62	10284.31
585.78	10534.75
585.94	10672.84
586.10	10614.33
586.26	10843.70
586.42	10789.87
586.58	10401.34
586.74	10480.92
586.90	10548.79
587.06	10682.20
587.22	10930.30
587.38	10782.85
587.54	10452.83
