SpectraSuite Data File
++++++++++++++++++++++++++++++++++++
Date: Mon Oct 07 14:53:57 GMT-05:00 2013
User: price-jones
Dark Spectrum Present: No
Reference Spectrum Present: No
Number of Sampled Component Spectra: 1
Spectrometers: USB2+H05261
Integration Time (usec): 100000 (USB2+H05261)
Spectra Averaged: 1 (USB2+H05261)
Boxcar Smoothing: 0 (USB2+H05261)
Correct for Electrical Dark: No (USB2+H05261)
Strobe/Lamp Enabled: No (USB2+H05261)
Correct for Detector Non-linearity: No (USB2+H05261)
Correct for Stray Light: No (USB2+H05261)
Number of Pixels in Processed Spectrum: 2048
>>>>>Begin Processed Spectral Data<<<<<
365.73	0.00
365.92	0.00
366.12	0.00
366.32	0.00
366.52	0.00
366.72	0.00
366.91	0.00
367.11	0.00
367.31	0.00
367.51	0.00
367.70	0.00
367.90	0.00
368.10	0.00
368.30	0.00
368.49	0.00
368.69	0.00
368.89	0.00
369.09	0.00
369.28	0.00
369.48	0.00
369.68	0.00
369.87	0.00
370.07	0.00
370.27	0.00
370.47	793.44
370.66	3684.00
370.86	4311.27
371.06	4819.16
371.25	4798.10
371.45	4306.59
371.65	3955.51
371.84	3618.47
372.04	3824.44
372.24	4236.37
372.44	4456.38
372.63	4390.84
372.83	4042.11
373.03	3555.27
373.22	3396.12
373.42	3503.78
373.62	4009.34
373.81	4355.74
374.01	4606.17
374.21	3962.53
374.40	3548.25
374.60	3857.20
374.79	4283.18
374.99	5139.82
375.19	5282.59
375.38	5467.49
375.58	4966.62
375.78	4784.06
375.97	4954.91
376.17	5172.58
376.37	5249.82
376.56	5423.02
376.76	5699.20
376.95	6106.46
377.15	6408.39
377.35	6829.68
377.54	6906.92
377.74	7166.72
377.93	7089.48
378.13	7028.63
378.33	6668.19
378.52	5956.66
378.72	5961.34
378.91	5820.91
379.11	5558.77
379.31	5268.55
379.50	5418.34
379.70	5898.15
379.89	6471.58
380.09	6855.43
380.28	6935.01
380.48	7126.93
380.68	6864.79
380.87	6717.34
381.07	6183.70
381.26	5593.88
381.46	5364.51
381.65	5191.31
381.85	5144.50
382.04	4910.44
382.24	4470.42
382.43	4304.25
382.63	4159.13
382.83	4299.56
383.02	4327.65
383.22	4074.87
383.41	4290.20
383.61	4547.66
383.80	5050.88
384.00	5762.40
384.19	6729.04
384.39	7014.59
384.58	6782.87
384.78	6705.63
384.97	6712.66
385.17	6387.32
385.36	5987.09
385.56	5781.12
385.75	6024.54
385.95	6558.18
386.14	7108.21
386.34	7016.93
386.53	6839.05
386.72	6296.04
386.92	6452.86
387.11	6661.16
387.31	7033.31
387.50	7005.22
387.70	6635.42
387.89	6803.94
388.09	6743.08
388.28	6808.62
388.48	6747.76
388.67	7391.41
388.86	8175.49
389.06	8510.19
389.25	9172.56
389.45	9322.35
389.64	9104.68
389.84	8952.55
390.03	8830.84
390.22	8898.72
390.42	9107.02
390.61	9680.46
390.81	10445.81
391.00	10689.23
391.19	10778.17
391.39	10113.45
391.58	9535.34
391.78	9060.21
391.97	8786.37
392.16	8145.06
392.36	7211.19
392.55	5923.90
392.75	4863.63
392.94	3950.82
393.13	3875.93
393.33	4575.75
393.52	5689.84
393.71	7019.27
393.91	7939.10
394.10	8645.94
394.29	9465.13
394.49	10040.90
394.68	10967.75
394.88	10974.77
395.07	11735.45
395.26	11508.41
395.46	10923.28
395.65	10492.62
395.84	9273.20
396.04	7705.04
396.23	6314.77
396.42	5350.46
396.62	5174.92
396.81	5879.43
397.00	7307.15
397.19	9132.77
397.39	11248.61
397.58	12683.36
397.77	13310.63
397.97	13760.01
398.16	13809.16
398.35	14567.49
398.55	14530.05
398.74	15199.44
398.93	15728.40
399.12	15487.32
399.32	14909.21
399.51	15297.74
399.70	16044.37
399.90	16145.02
400.09	15999.90
400.28	15800.96
400.47	15908.62
400.67	16816.75
400.86	17385.50
401.05	17111.66
401.24	17270.81
401.44	17462.74
401.63	17530.61
401.82	17500.19
402.01	17968.29
402.21	17996.38
402.40	17877.01
402.59	17434.65
402.78	16978.25
402.97	16077.14
403.17	16943.14
403.36	17743.60
403.55	18665.77
403.74	18820.25
403.93	17905.10
404.13	16451.63
404.32	16081.82
404.51	17022.72
404.70	18490.23
404.89	18237.45
405.09	17839.56
405.28	17483.80
405.47	17509.55
405.66	17516.57
405.85	16943.14
406.05	16699.72
406.24	16556.95
406.43	17554.02
406.62	17965.95
406.81	18370.86
407.00	17729.56
407.20	17064.85
407.39	17525.93
407.58	18251.50
407.77	18724.29
407.96	19527.09
408.15	19704.97
408.34	19824.34
408.54	20842.47
408.73	20783.96
408.92	20463.30
409.11	19936.68
409.30	18930.25
409.49	17544.66
409.68	16505.46
409.87	16098.20
410.07	16786.32
410.26	18305.33
410.45	20044.35
410.64	20184.78
410.83	20566.29
411.02	21003.97
411.21	21713.15
411.40	21479.10
411.59	21825.50
411.78	21584.42
411.98	21069.50
412.17	21315.26
412.36	21095.25
412.55	21312.92
412.74	20959.50
412.93	20058.39
413.12	20341.60
413.31	22726.60
413.50	22588.51
413.69	23246.20
413.88	22160.19
414.07	21568.04
414.26	21869.97
414.45	22698.52
414.64	22981.72
414.83	22909.16
415.02	22537.02
415.22	22384.88
415.41	22649.36
415.60	23747.08
415.79	24634.14
415.98	24797.98
416.17	24999.26
416.36	24142.63
416.55	23988.15
416.74	23026.19
416.93	22623.62
417.12	22347.44
417.31	22497.23
417.50	23197.05
417.69	23953.04
417.88	23779.84
418.07	23660.48
418.26	23246.20
418.45	23339.82
418.64	24051.34
418.83	25223.95
419.02	24720.74
419.21	24673.93
419.39	23403.02
419.58	22682.13
419.77	22242.11
419.96	23426.42
420.15	24900.96
420.34	25364.39
420.53	26127.40
420.72	26897.44
420.91	26408.26
421.10	26338.05
421.29	25998.67
421.48	25181.82
421.67	26326.35
421.86	25860.58
422.05	24264.33
422.24	21242.70
422.43	21338.66
422.61	23211.09
422.80	25340.98
422.99	25469.71
423.18	24219.86
423.37	23985.81
423.56	23885.17
423.75	24325.19
423.94	25069.48
424.13	23522.38
424.32	23901.55
424.50	23917.93
424.69	23477.91
424.88	23693.24
425.07	23639.41
425.26	23854.74
425.45	23314.08
425.64	22635.32
425.83	22955.97
426.01	24402.43
426.20	24940.75
426.39	24739.46
426.58	23190.03
426.77	21090.57
426.96	20533.52
427.15	21095.25
427.33	23065.98
427.52	23520.04
427.71	24163.69
427.90	23590.26
428.09	23653.45
428.28	22822.56
428.46	22462.12
428.65	21813.79
428.84	22127.42
429.03	22794.48
429.22	21495.48
429.40	20477.35
429.59	18448.10
429.78	16397.79
429.97	16353.32
430.16	16489.07
430.34	16783.98
430.53	16582.70
430.72	17074.21
430.91	19023.87
431.10	21998.70
431.28	25965.90
431.47	28098.13
431.66	28231.54
431.85	26022.08
432.03	23920.28
432.22	22558.08
432.41	23929.64
432.60	26387.20
432.79	27105.74
432.97	28009.19
433.16	27180.64
433.35	24989.90
433.54	22551.06
433.72	20702.04
433.91	21884.01
434.10	24217.52
434.28	25769.30
434.47	27604.28
434.66	27023.83
434.85	26412.95
435.03	25656.95
435.22	26717.22
435.41	28493.68
435.59	28063.02
435.78	28872.85
435.97	29865.24
436.16	29617.14
436.34	29163.08
436.53	28549.85
436.72	28943.06
436.90	27075.32
437.09	26969.99
437.28	26492.52
437.46	27615.98
437.65	27559.81
437.84	25762.28
438.02	23580.90
438.21	23529.41
438.40	24732.44
438.58	26768.71
438.77	27482.57
438.96	27648.75
439.14	28786.25
439.33	29497.77
439.52	30249.08
439.70	29326.91
439.89	28947.75
440.08	27985.79
440.26	28170.69
440.45	28720.71
440.63	30321.64
440.82	31728.30
441.01	31908.52
441.19	31377.22
441.38	31824.26
441.57	32989.85
441.75	33624.14
441.94	33998.62
442.12	33500.09
442.31	34366.09
442.50	34155.44
442.68	33631.16
442.87	33235.61
443.05	32795.59
443.24	33275.40
443.43	33900.32
443.61	34890.37
443.80	34792.06
443.98	32961.76
444.17	32697.28
444.35	34471.41
444.54	35400.60
444.73	35077.61
444.91	33614.77
445.10	32079.38
445.28	31026.14
445.47	30529.95
445.65	30590.80
445.84	31489.57
446.02	32524.08
446.21	33001.55
446.39	33153.69
446.58	33558.60
446.77	34031.39
446.95	34408.22
447.14	35192.30
447.32	35943.61
447.51	35168.89
447.69	33263.69
447.88	33315.19
448.06	33935.43
448.25	34607.16
448.43	34752.27
448.62	33773.93
448.80	33912.02
448.99	34490.13
449.17	34291.19
449.36	33928.41
449.54	35938.93
449.73	35931.90
449.91	36603.64
450.10	37890.93
450.28	38155.41
450.46	37703.69
450.65	37888.59
450.83	37046.00
451.02	36655.13
451.20	36673.85
451.39	36645.77
451.57	36034.89
451.76	36374.27
451.94	36643.43
452.13	35915.52
452.31	34162.46
452.49	32477.27
452.68	33113.90
452.86	32737.07
453.05	33254.33
453.23	34157.78
453.42	35157.19
453.60	35749.34
453.78	36236.17
453.97	35606.57
454.15	35812.54
454.34	35140.80
454.52	35157.19
454.70	34651.63
454.89	35213.36
455.07	35051.86
455.26	35302.30
455.44	36786.20
455.62	37867.53
455.81	37944.76
455.99	37457.93
456.17	36926.63
456.36	37383.04
456.54	38078.18
456.73	38443.30
456.91	39311.64
457.09	38899.70
457.28	39475.48
457.46	37872.21
457.64	37794.97
457.83	36800.24
458.01	35730.62
458.19	36158.94
458.38	37006.21
458.56	37991.58
458.74	38515.86
458.93	37490.70
459.11	37230.90
459.29	37329.20
459.48	36947.70
459.66	37345.59
459.84	37626.45
460.03	38043.07
460.21	38122.65
460.39	38916.09
460.57	38843.53
460.76	39021.41
460.94	38888.00
461.12	38447.98
461.31	38876.30
461.49	38639.90
461.67	38761.61
461.85	39473.13
462.04	39391.22
462.22	40215.08
462.40	39515.26
462.59	39594.84
462.77	39805.49
462.95	39873.37
463.13	38698.42
463.32	38471.39
463.50	38579.05
463.68	38422.23
463.86	38590.75
464.05	38204.56
464.23	37694.33
464.41	37202.82
464.59	36744.07
464.78	37998.60
464.96	38209.25
465.14	37659.22
465.32	38625.86
465.50	39709.53
465.69	39765.70
465.87	39051.84
466.05	38541.60
466.23	36758.11
466.41	35606.57
466.60	36617.68
466.78	36624.70
466.96	37319.84
467.14	37724.75
467.32	38607.14
467.51	38831.83
467.69	36725.35
467.87	37467.30
468.05	38614.16
468.23	38382.45
468.41	38141.37
468.60	38216.27
468.78	38670.33
468.96	38309.89
469.14	39049.50
469.32	39040.14
469.50	37518.79
469.69	37694.33
469.87	37240.26
470.05	36982.80
470.23	36776.84
470.41	37324.52
470.59	37876.89
470.77	37163.03
470.95	39098.65
471.14	38859.91
471.32	39023.75
471.50	41347.90
471.68	41139.60
471.86	41493.02
472.04	42246.67
472.22	41804.31
472.40	39915.50
472.58	39454.41
472.77	39426.32
472.95	40194.02
473.13	41322.16
473.31	39531.65
473.49	39768.04
473.67	40959.38
473.85	40987.46
474.03	42096.88
474.21	42274.76
474.39	42546.26
474.57	42597.75
474.75	42560.30
474.93	42064.11
475.12	41497.70
475.30	41488.34
475.48	41537.49
475.66	42396.46
475.84	41551.53
476.02	41404.08
476.20	40390.62
476.38	41373.65
476.56	42827.12
476.74	43213.31
476.92	43257.78
477.10	44114.42
477.28	45174.68
477.46	44751.04
477.64	45619.38
477.82	45497.67
478.00	46040.68
478.18	45158.30
478.36	45081.06
478.54	44992.12
478.72	45170.00
478.90	46351.97
479.08	47667.35
479.26	47620.54
479.44	47824.17
479.62	47306.91
479.80	47648.63
479.98	47477.77
480.16	47796.08
480.34	47150.09
480.52	47686.07
480.70	48238.44
480.88	48222.06
481.06	48706.55
481.24	49186.36
481.41	49839.37
481.59	50270.03
481.77	50047.68
481.95	49577.23
482.13	49659.15
482.31	49619.36
482.49	50286.41
482.67	49759.79
482.85	50169.38
483.03	50602.38
483.21	51253.05
483.39	51253.05
483.57	50328.54
483.74	50314.50
483.92	50625.79
484.10	50363.65
484.28	51374.76
484.46	51716.48
484.64	51931.81
484.82	51129.00
485.00	51168.79
485.18	50162.36
485.35	49160.61
485.53	46279.41
485.71	42188.16
485.89	41734.09
486.07	43615.88
486.25	47159.45
486.43	49397.01
486.61	50160.02
486.78	50246.62
486.96	50082.78
487.14	51522.21
487.32	52322.68
487.50	53249.53
487.68	53855.73
487.85	54323.83
488.03	54316.81
488.21	54017.22
488.39	53389.96
488.57	52856.32
488.75	52411.62
488.92	53373.58
489.10	55250.69
489.28	56388.19
489.46	56928.85
489.64	56802.46
489.81	56928.85
489.99	56390.53
490.17	56662.03
490.35	56900.76
490.53	56507.55
490.70	56116.68
490.88	56083.92
491.06	57095.03
491.24	56966.30
491.41	56090.94
491.59	54728.75
491.77	54014.88
491.95	55061.10
492.13	55910.72
492.30	57059.92
492.48	57804.21
492.66	58157.63
492.84	58162.31
493.01	57954.00
493.19	57542.07
493.37	57296.31
493.54	56846.93
493.72	57668.46
493.90	58499.35
494.08	59236.62
494.25	59304.49
494.43	59297.47
494.61	59859.20
494.79	59877.93
494.96	59629.83
495.14	59112.57
495.32	58520.41
495.49	57858.04
495.67	58733.40
495.85	60088.57
496.02	60376.46
496.20	60095.60
496.38	59526.84
496.55	59510.46
496.73	59980.91
496.91	60011.34
497.09	60533.28
497.26	60767.33
497.44	60402.21
497.62	59770.26
497.79	59159.38
497.97	58040.60
498.14	58108.48
498.32	59025.97
498.50	60016.02
498.67	60669.03
498.85	60437.31
499.03	60610.51
499.20	60673.71
499.38	60725.20
499.56	60444.33
499.73	60165.81
499.91	59796.01
500.08	59561.95
500.26	58766.17
500.44	59016.61
500.61	59838.14
500.79	59643.87
500.97	59234.28
501.14	59114.91
501.32	58820.00
501.49	58976.82
501.67	59306.83
501.84	59599.40
502.02	60121.34
502.20	60144.75
502.37	60224.32
502.55	60205.60
502.72	60779.03
502.90	61106.71
503.07	61080.96
503.25	60638.60
503.43	59966.87
503.60	59524.50
503.78	58557.86
503.95	59032.99
504.13	60425.61
504.30	60992.02
504.48	60800.10
504.65	60582.43
504.83	60729.88
505.01	61275.22
505.18	61457.79
505.36	61937.60
505.53	62045.26
505.71	62145.90
505.88	62202.08
506.06	61661.41
506.23	61354.80
506.41	60999.04
506.58	61226.07
506.76	61202.67
506.93	61207.35
507.11	60973.30
507.28	61141.81
507.46	60706.47
507.63	60198.58
507.81	59842.82
507.98	60266.45
508.16	60755.63
508.33	61406.30
508.50	61806.53
508.68	61836.95
508.85	62410.38
509.03	62415.07
509.20	62276.97
509.38	61525.66
509.55	60931.17
509.73	60882.02
509.90	61476.51
510.08	61663.75
510.25	61462.47
510.42	61364.17
510.60	61303.31
510.77	61359.48
510.95	61916.53
511.12	62152.93
511.30	62384.64
511.47	62787.21
511.64	62599.97
511.82	62424.43
511.99	61642.69
512.17	61078.62
512.34	60814.14
512.51	60985.00
512.69	61200.33
512.86	61148.84
513.04	61787.80
513.21	61645.03
513.38	61230.75
513.56	60694.77
513.73	60331.99
513.90	60556.68
514.08	60580.09
514.25	60776.69
514.43	61095.00
514.60	61029.47
514.77	61109.05
514.95	61357.14
515.12	61408.64
515.29	61293.95
515.47	61902.49
515.64	62028.88
515.81	61703.54
515.99	61275.22
516.16	60123.68
516.33	58021.88
516.51	56416.27
516.68	55835.82
516.85	55400.48
517.03	55819.44
517.20	58040.60
517.37	60310.92
517.54	61202.67
517.72	61006.06
517.89	58639.78
518.06	56626.92
518.24	56856.29
518.41	58534.46
518.58	59943.46
518.75	60133.04
518.93	60353.05
519.10	60177.51
519.27	60617.53
519.45	60800.10
519.62	61439.06
519.79	61804.19
519.96	61649.71
520.14	61244.80
520.31	60341.35
520.48	60331.99
520.65	60853.93
520.83	61626.31
521.00	62082.71
521.17	61715.25
521.34	61338.42
521.52	61558.43
521.69	62082.71
521.86	62426.77
522.03	62230.16
522.20	61013.08
522.38	60032.40
522.55	60020.70
522.72	60748.60
522.89	60811.80
523.07	61001.38
523.24	61340.76
523.41	61914.19
523.58	62237.19
523.75	62548.48
523.92	62426.77
524.10	62651.46
524.27	62630.40
524.44	62281.66
524.61	62204.42
524.78	62021.86
524.96	61874.40
525.13	62061.64
525.30	62248.89
525.47	62501.67
525.64	62447.83
525.81	61745.67
525.98	60528.59
526.16	59416.84
526.33	58518.07
526.50	58384.66
526.67	58213.80
526.84	58728.72
527.01	59339.60
527.18	60088.57
527.36	61209.69
527.53	61794.82
527.70	62066.33
527.87	61350.12
528.04	61102.03
528.21	61570.13
528.38	62143.56
528.55	62679.55
528.72	62864.45
528.89	63133.61
529.07	62787.21
529.24	62143.56
529.41	61577.15
529.58	60872.65
529.75	60940.53
529.92	61551.41
530.09	62021.86
530.26	62269.95
530.43	62667.84
530.60	62628.05
530.77	62920.62
530.94	62841.04
531.11	62457.20
531.28	62092.07
531.46	61982.07
531.63	62117.82
531.80	61949.30
531.97	61572.47
532.14	60910.10
532.31	59962.18
532.48	59461.31
532.65	59355.99
532.82	60250.07
532.99	61144.16
533.16	61656.73
533.33	61944.62
533.50	61883.76
533.67	61338.42
533.84	60851.59
534.01	61132.45
534.18	61125.43
534.35	61462.47
534.52	61448.42
534.69	61511.62
534.86	61890.79
535.03	62171.65
535.20	62674.87
535.37	62948.71
535.54	62876.15
535.71	62691.25
535.88	62101.43
536.05	61633.33
536.22	61186.28
536.38	61155.86
536.55	60645.62
536.72	60011.34
536.89	59987.93
537.06	60734.56
537.23	61703.54
537.40	61886.10
537.57	61675.46
537.74	61558.43
537.91	61396.93
538.08	61581.84
538.25	61506.94
538.42	61759.72
538.59	61572.47
538.75	61027.13
538.92	60781.37
539.09	60598.81
539.26	60310.92
539.43	60224.32
539.60	60339.01
539.77	60434.97
539.94	60458.38
540.11	59657.91
540.28	59215.55
540.44	59276.41
540.61	59428.54
540.78	59784.30
540.95	60205.60
541.12	60343.69
541.29	60666.69
541.46	60905.42
541.62	61073.94
541.79	60844.57
541.96	60245.39
542.13	60257.09
542.30	60575.40
542.47	60786.05
542.63	60554.34
542.80	60278.16
542.97	60383.48
543.14	60268.79
543.31	60331.99
543.48	60844.57
543.64	61457.79
543.81	61836.95
543.98	61605.24
544.15	60963.93
544.32	60378.80
544.48	60390.50
544.65	61038.83
544.82	61272.88
544.99	60956.91
545.16	60591.79
545.32	60268.79
545.49	61099.68
545.66	61474.17
545.83	61024.79
546.00	60734.56
546.16	60463.06
546.33	60697.11
546.50	60753.29
546.67	60982.66
546.83	60601.15
547.00	60657.32
547.17	59955.16
547.34	59430.88
547.50	59306.83
547.67	59936.44
547.84	59873.24
548.00	60296.88
548.17	60601.15
548.34	60474.76
548.51	60383.48
548.67	60584.77
548.84	60537.96
549.01	60552.00
549.18	60540.30
549.34	60451.36
549.51	60432.63
549.68	60186.88
549.84	60306.24
550.01	60140.07
550.18	59924.74
550.34	59906.01
550.51	60193.90
550.68	60287.52
550.84	59650.89
551.01	59543.23
551.18	59704.73
551.34	59760.90
551.51	60231.35
551.68	60507.53
551.84	60603.49
552.01	60367.10
552.18	60090.91
552.34	59402.80
552.51	59316.20
552.68	59096.19
552.84	59412.16
553.01	59819.41
553.18	59662.60
553.34	59758.56
553.51	59945.80
553.67	60044.10
553.84	60198.58
554.01	60030.06
554.17	59894.31
554.34	59978.57
554.51	59915.37
554.67	60287.52
554.84	60109.64
555.00	59835.80
555.17	59517.48
555.33	59877.93
555.50	59463.65
555.67	59742.17
555.83	59632.17
556.00	59236.62
556.16	59262.36
556.33	58967.46
556.50	58693.61
556.66	58674.89
556.83	58454.88
556.99	58822.34
557.16	58831.71
557.32	59171.08
557.49	59363.01
557.65	59014.27
557.82	59119.59
557.98	58927.67
558.15	58518.07
558.32	57776.12
558.48	57078.64
558.65	57181.63
558.81	57811.23
558.98	57698.89
559.14	57961.03
559.31	58223.17
559.47	58075.71
559.64	57860.38
559.80	57567.82
559.97	57631.01
560.13	57970.39
560.30	58834.05
560.46	59402.80
560.63	59391.09
560.79	59430.88
560.96	59054.06
561.12	58113.16
561.29	57312.70
561.45	57427.38
561.61	57982.09
561.78	58307.43
561.94	57970.39
562.11	58026.56
562.27	57881.45
562.44	58094.44
562.60	58473.60
562.77	58717.02
562.93	58480.63
563.10	58518.07
563.26	57862.72
563.42	57944.64
563.59	57680.16
563.75	57764.42
563.92	57719.95
564.08	57542.07
564.24	58197.42
564.41	57881.45
564.57	58171.67
564.74	57928.26
564.90	57815.91
565.07	57483.56
565.23	57106.73
565.39	56626.92
565.56	56439.68
565.72	56217.33
565.88	56554.36
566.05	56701.82
566.21	56743.95
566.38	56992.04
566.54	57125.46
566.70	57382.91
566.87	57654.42
567.03	57549.09
567.19	57722.29
567.36	57579.52
567.52	57436.75
567.68	57158.22
567.85	56821.19
568.01	56100.30
568.17	55966.89
568.34	56126.05
568.50	55985.61
568.66	56130.73
568.83	56357.76
568.99	56498.19
569.15	56727.56
569.32	56537.98
569.48	56032.42
569.64	56100.30
569.81	55983.27
569.97	55592.40
570.13	55618.15
570.30	55533.89
570.46	55023.65
570.62	54405.75
570.78	54286.39
570.95	54543.84
571.11	55257.71
571.27	55519.85
571.43	55632.19
571.60	56009.02
571.76	56168.18
571.92	56435.00
572.09	56500.53
572.25	56708.84
572.41	56212.65
572.57	56163.50
572.74	56137.75
572.90	55817.10
573.06	55767.94
573.22	56013.70
573.38	55997.32
573.55	55803.05
573.71	55980.93
573.87	55854.54
574.03	55894.33
574.20	55608.79
574.36	55320.90
574.52	55381.76
574.68	55341.97
574.84	54777.90
575.01	54560.23
575.17	54162.34
575.33	54504.06
575.49	54805.98
575.65	54836.41
575.82	54604.70
575.98	54639.81
576.14	54813.01
576.30	55288.13
576.46	55318.56
576.62	55089.19
576.79	54930.03
576.95	54593.00
577.11	54560.23
577.27	54712.36
577.43	54904.29
577.59	54398.73
577.75	54326.17
577.92	53382.94
578.08	53425.07
578.24	53411.02
578.40	53766.79
578.56	53719.98
578.72	53944.67
578.88	54160.00
579.04	54482.99
579.21	54019.56
579.37	54445.54
579.53	54728.75
579.69	54426.82
579.85	54742.79
580.01	54321.49
580.17	54138.93
580.33	53914.24
580.49	53928.28
580.65	54291.07
580.82	54361.28
580.98	54260.64
581.14	53979.78
581.30	54284.04
581.46	54181.06
581.62	54609.38
581.78	54541.50
581.94	54375.33
582.10	54342.56
582.26	54330.86
582.42	54382.35
582.58	54307.45
582.74	54349.58
582.90	54478.31
583.06	54340.22
583.22	54155.32
583.38	54347.24
583.54	54005.52
583.70	53738.70
583.86	54113.19
584.02	53858.07
584.18	54075.74
584.34	53776.15
584.50	53811.26
584.66	53642.74
584.82	53385.28
584.98	53663.80
585.14	53066.97
