SpectraSuite Data File
++++++++++++++++++++++++++++++++++++
Date: Mon Oct 07 14:55:02 GMT-05:00 2013
User: price-jones
Dark Spectrum Present: No
Reference Spectrum Present: No
Number of Sampled Component Spectra: 1
Spectrometers: USB2+H05261
Integration Time (usec): 10000 (USB2+H05261)
Spectra Averaged: 1 (USB2+H05261)
Boxcar Smoothing: 0 (USB2+H05261)
Correct for Electrical Dark: No (USB2+H05261)
Strobe/Lamp Enabled: No (USB2+H05261)
Correct for Detector Non-linearity: No (USB2+H05261)
Correct for Stray Light: No (USB2+H05261)
Number of Pixels in Processed Spectrum: 2048
>>>>>Begin Processed Spectral Data<<<<<
365.73	0.00
365.92	0.00
366.12	0.00
366.32	0.00
366.52	0.00
366.72	0.00
366.91	0.00
367.11	0.00
367.31	0.00
367.51	0.00
367.70	0.00
367.90	0.00
368.10	0.00
368.30	0.00
368.49	0.00
368.69	0.00
368.89	0.00
369.09	0.00
369.28	0.00
369.48	0.00
369.68	0.00
369.87	0.00
370.07	0.00
370.27	0.00
370.47	543.00
370.66	2878.86
370.86	3356.33
371.06	3655.92
371.25	3473.36
371.45	3084.83
371.65	2930.35
371.84	2731.41
372.04	2974.82
372.24	3220.58
372.44	3255.69
372.63	3222.92
372.83	2949.08
373.03	2485.65
373.22	2523.10
373.42	2822.69
373.62	3159.72
373.81	3353.99
374.01	3293.13
374.21	2892.90
374.40	2691.62
374.60	2916.31
374.79	3253.34
374.99	3880.61
375.19	4138.07
375.38	3936.78
375.58	3822.09
375.78	3777.62
375.97	3868.91
376.17	3866.56
376.37	3920.40
376.56	4126.36
376.76	4365.10
376.95	4629.58
377.15	4887.04
377.35	5085.98
377.54	5184.29
377.74	5324.72
377.93	5493.24
378.13	5057.90
378.33	5043.85
378.52	4638.94
378.72	4564.04
378.91	4477.44
379.11	4168.49
379.31	4086.58
379.50	4095.94
379.70	4559.36
379.89	5109.39
380.09	5275.57
380.28	5394.93
380.48	5401.96
380.68	5221.74
380.87	5135.14
381.07	4660.01
381.26	4231.69
381.46	3967.21
381.65	4002.32
381.85	3726.13
382.04	3684.00
382.24	3508.46
382.43	3208.87
382.63	3300.16
382.83	3255.69
383.02	3124.62
383.22	3129.30
383.41	3353.99
383.61	3487.40
383.80	4098.28
384.00	4851.93
384.19	5329.40
384.39	5252.16
384.58	5301.31
384.78	5097.69
384.97	5233.44
385.17	4760.65
385.36	4521.92
385.56	4514.89
385.75	4718.52
385.95	5371.53
386.14	5490.90
386.34	5439.40
386.53	5336.42
386.72	4889.38
386.92	5116.41
387.11	5359.83
387.31	5537.71
387.50	5472.17
387.70	5366.85
387.89	5430.04
388.09	5188.97
388.28	5338.76
388.48	5575.16
388.67	6106.46
388.86	6494.99
389.06	7098.84
389.25	7180.76
389.45	7356.30
389.64	7246.30
389.84	7269.70
390.03	6782.87
390.22	7145.66
390.42	7445.24
390.61	7770.58
390.81	8346.35
391.00	8334.65
391.19	8498.49
391.39	8053.78
391.58	7632.49
391.78	7276.73
391.97	6956.07
392.16	6504.35
392.36	5701.54
392.55	4421.27
392.75	3431.23
392.94	3007.59
393.13	3281.43
393.33	3908.69
393.52	5057.90
393.71	6090.07
393.91	6719.68
394.10	7192.47
394.29	7990.59
394.49	8549.98
394.68	9102.34
394.88	8868.29
395.07	9128.09
395.26	8971.27
395.46	8889.35
395.65	8145.06
395.84	7066.08
396.04	5865.38
396.23	4610.86
396.42	4156.79
396.62	4170.83
396.81	5142.16
397.00	6567.54
397.19	8072.51
397.39	9446.40
397.58	10729.02
397.77	11222.87
397.97	11543.52
398.16	11679.27
398.35	11878.22
398.55	11953.12
398.74	12950.18
398.93	13097.64
399.12	12912.74
399.32	12255.04
399.51	12585.06
399.70	13429.99
399.90	13090.62
400.09	13114.02
400.28	13179.56
400.47	13657.03
400.67	13935.55
400.86	14256.20
401.05	14251.52
401.24	14679.84
401.44	14513.66
401.63	14799.21
401.82	14731.33
402.01	14757.08
402.21	14967.73
402.40	15087.09
402.59	14232.80
402.78	13556.38
402.97	13640.64
403.17	14284.29
403.36	15204.12
403.55	15536.48
403.74	15522.43
403.93	14691.54
404.13	13584.47
404.32	13823.20
404.51	14417.70
404.70	15234.55
404.89	15346.89
405.09	14979.43
405.28	14747.72
405.47	14785.16
405.66	14684.52
405.85	14115.77
406.05	13799.80
406.24	14129.81
406.43	14909.21
406.62	15276.68
406.81	15314.13
407.00	15171.35
407.20	14527.71
407.39	14548.77
407.58	15524.77
407.77	16315.87
407.96	16407.16
408.15	16964.20
408.34	17195.92
408.54	17687.43
408.73	17305.92
408.92	17252.09
409.11	16374.39
409.30	15627.76
409.49	14773.46
409.68	13771.71
409.87	13781.07
410.07	14881.13
410.26	15805.64
410.45	16685.68
410.64	17238.05
410.83	17790.41
411.02	18237.45
411.21	18778.12
411.40	18494.91
411.59	18682.16
411.78	18799.18
411.98	18319.37
412.17	18377.89
412.36	18347.46
412.55	18295.97
412.74	17790.41
412.93	17579.76
413.12	18277.24
413.31	19899.23
413.50	19913.28
413.69	19831.36
413.88	19021.53
414.07	18838.97
414.26	19426.45
414.45	19779.87
414.64	19374.95
414.83	19440.49
415.02	19407.72
415.22	19286.01
415.41	19730.72
415.60	20500.75
415.79	21074.18
415.98	21619.53
416.17	21647.61
416.36	20982.90
416.55	20767.57
416.74	19723.69
416.93	19590.28
417.12	19941.36
417.31	20002.22
417.50	20390.75
417.69	20957.16
417.88	20599.05
418.07	20533.52
418.26	20376.70
418.45	20533.52
418.64	21607.83
418.83	22473.82
419.02	21914.44
419.21	21315.26
419.39	20423.51
419.58	20077.12
419.77	20058.39
419.96	20975.88
420.15	22324.03
420.34	23012.15
420.53	23552.81
420.72	23396.00
420.91	23239.18
421.10	22911.50
421.29	22852.99
421.48	22307.65
421.67	23494.30
421.86	22174.24
422.05	20393.09
422.24	18871.74
422.43	19351.55
422.61	21752.94
422.80	22799.16
422.99	22265.52
423.18	21188.87
423.37	21247.38
423.56	22012.74
423.75	22071.25
423.94	22761.71
424.13	21156.10
424.32	21219.30
424.50	21357.39
424.69	21142.06
424.88	21727.19
425.07	21289.51
425.26	21598.46
425.45	20528.84
425.64	20365.00
425.83	20884.60
426.01	22064.23
426.20	22115.72
426.39	21951.88
426.58	20283.08
426.77	18850.67
426.96	18951.32
427.15	19489.64
427.33	21207.59
427.52	21626.55
427.71	22057.21
427.90	20999.29
428.09	21085.89
428.28	20624.80
428.46	20053.71
428.65	19688.59
428.84	20362.66
429.03	20617.78
429.22	19264.95
429.40	17912.12
429.59	16552.27
429.78	14469.19
429.97	14956.02
430.16	15014.54
430.34	14932.62
430.53	15393.70
430.72	16325.24
430.91	18073.62
431.10	21039.08
431.28	24135.60
431.47	25593.76
431.66	25186.50
431.85	22363.82
432.03	21214.62
432.22	21202.91
432.41	22672.77
432.60	24243.27
432.79	24851.81
432.97	25511.84
433.16	24524.13
433.35	22141.47
433.54	19948.39
433.72	19761.14
433.91	20727.78
434.10	23115.13
434.28	24020.92
434.47	25186.50
434.66	24154.33
434.85	23859.42
435.03	24774.57
435.22	24657.54
435.41	26349.75
435.59	26434.01
435.78	26611.89
435.97	27325.75
436.16	26682.11
436.34	26661.04
436.53	26328.69
436.72	26836.58
436.90	24769.89
437.09	24886.92
437.28	24812.02
437.46	25273.10
437.65	24652.86
437.84	22661.07
438.02	21848.90
438.21	21972.95
438.40	22963.00
438.58	24603.71
438.77	26061.87
438.96	25837.17
439.14	26897.44
439.33	27386.61
439.52	27527.04
439.70	26841.26
439.89	26073.57
440.08	25647.59
440.26	26480.82
440.45	27072.98
440.63	28811.99
440.82	29813.74
441.01	28746.46
441.19	29408.83
441.38	30136.74
441.57	30850.60
441.75	30892.73
441.94	31168.91
442.12	31112.74
442.31	32217.47
442.50	31929.59
442.68	30969.97
442.87	30969.97
443.05	30321.64
443.24	31227.43
443.43	31644.04
443.61	32184.71
443.80	33069.43
443.98	31857.03
444.17	31014.44
444.35	32079.38
444.54	33263.69
444.73	32650.47
444.91	30918.48
445.10	29764.59
445.28	28889.23
445.47	28444.53
445.65	28929.02
445.84	29846.51
446.02	30237.38
446.21	31063.59
446.39	31215.72
446.58	32184.71
446.77	32804.95
446.95	32371.95
447.14	33614.77
447.32	33682.65
447.51	33680.31
447.69	32149.60
447.88	31812.56
448.06	32486.64
448.25	32598.98
448.43	32290.03
448.62	31871.07
448.80	32151.94
448.99	32568.55
449.17	32826.01
449.36	33280.08
449.54	34342.68
449.73	34153.10
449.91	35103.35
450.10	35985.74
450.28	36638.75
450.46	36540.44
450.65	36219.79
450.83	35681.47
451.02	35328.05
451.20	34670.36
451.39	34962.92
451.57	34686.74
451.76	35054.20
451.94	33872.23
452.13	33589.03
452.31	31838.31
452.49	30588.46
452.68	31204.02
452.86	31182.96
453.05	32177.68
453.23	33448.60
453.42	33591.37
453.60	34527.58
453.78	34546.31
453.97	34136.71
454.15	33916.70
454.34	32903.25
454.52	32884.53
454.70	32851.76
454.89	33443.91
455.07	33071.77
455.26	34256.08
455.44	35414.65
455.62	35798.49
455.81	35566.78
455.99	35587.85
456.17	35749.34
456.36	36114.47
456.54	36928.97
456.73	36175.32
456.91	36863.44
457.09	36917.27
457.28	37872.21
457.46	36140.21
457.64	35620.61
457.83	34815.47
458.01	35150.17
458.19	35988.08
458.38	37137.28
458.56	36882.16
458.74	37029.62
458.93	35840.62
459.11	35295.28
459.29	35304.64
459.48	36362.56
459.66	35068.25
459.84	35548.06
460.03	35531.67
460.21	36863.44
460.39	37776.25
460.57	37329.20
460.76	37188.77
460.94	37743.48
461.12	37500.06
461.31	38007.96
461.49	37890.93
461.67	37408.78
461.85	38466.70
462.04	38078.18
462.22	38246.69
462.40	38424.57
462.59	38085.20
462.77	38031.36
462.95	38085.20
463.13	37961.15
463.32	36715.98
463.50	37296.44
463.68	37310.48
463.86	37631.13
464.05	36453.84
464.23	35796.15
464.41	36140.21
464.59	35821.90
464.78	37158.34
464.96	36697.26
465.14	35910.84
465.32	37448.57
465.50	38972.26
465.69	39592.50
465.87	37998.60
466.05	37226.22
466.23	35590.19
466.41	34651.63
466.60	36304.05
466.78	36037.23
466.96	36474.91
467.14	37074.09
467.32	37013.23
467.51	37380.70
467.69	35784.45
467.87	37027.28
468.05	37247.29
468.23	37287.07
468.41	37434.53
468.60	37682.62
468.78	38361.38
468.96	37479.00
469.14	37832.42
469.32	38213.93
469.50	36304.05
469.69	36531.08
469.87	36016.16
470.05	35585.50
470.23	36065.31
470.41	36474.91
470.59	37228.56
470.77	36910.25
470.95	37340.91
471.14	38440.96
471.32	38904.38
471.50	40254.87
471.68	40598.93
471.86	41102.15
472.04	40561.48
472.22	40959.38
472.40	39044.82
472.58	39108.01
472.77	38527.56
472.95	39440.37
473.13	40184.66
473.31	38831.83
473.49	39456.75
473.67	40107.42
473.85	41167.68
474.03	42298.16
474.21	42438.59
474.39	42820.10
474.57	42181.13
474.75	42202.20
474.93	41701.32
475.12	40479.57
475.30	40957.03
475.48	40357.86
475.66	41462.59
475.84	40886.82
476.02	41181.73
476.20	40524.04
476.38	41106.83
476.56	42471.36
476.74	43208.63
476.92	43089.26
477.10	43072.88
477.28	44882.11
477.46	44659.76
477.64	45727.05
477.82	45495.33
478.00	45677.90
478.18	44392.94
478.36	44322.72
478.54	45055.31
478.72	45223.83
478.90	46815.40
479.08	48175.25
479.26	47646.29
479.44	48383.55
479.62	47845.23
479.80	48144.82
479.98	48081.63
480.16	48346.11
480.34	47463.72
480.52	48107.37
480.70	48699.53
480.88	48208.01
481.06	48886.77
481.24	49127.84
481.41	50162.36
481.59	50798.99
481.77	49610.00
481.95	49483.61
482.13	49790.22
482.31	49977.46
482.49	50904.31
482.67	50183.43
482.85	50281.73
483.03	50529.83
483.21	51452.00
483.39	51173.47
483.57	50642.17
483.74	50983.89
483.92	50667.92
484.10	50976.87
484.28	50883.25
484.46	51030.70
484.64	52708.86
484.82	51774.99
485.00	51220.28
485.18	50670.26
485.35	48158.86
485.53	43398.21
485.71	40964.06
485.89	41776.22
486.07	45319.79
486.25	47463.72
486.43	49301.04
486.61	50134.28
486.78	49385.30
486.96	50480.67
487.14	51540.94
487.32	52273.52
487.50	53160.59
487.68	54585.97
487.85	54976.84
488.03	54068.72
488.21	53752.74
488.39	53396.98
488.57	52079.26
488.75	52442.04
488.92	53778.49
489.10	55519.85
489.28	55821.78
489.46	56980.34
489.64	56921.83
489.81	57048.22
489.99	56514.58
490.17	56573.09
490.35	56669.05
490.53	56765.01
490.70	56226.69
490.88	56399.89
491.06	57022.47
491.24	57457.81
491.41	56444.36
491.59	55271.75
491.77	54948.76
491.95	55985.61
492.13	57195.67
492.30	57600.58
492.48	58295.72
492.66	58478.28
492.84	57968.05
493.01	57935.28
493.19	57726.97
493.37	57425.04
493.54	57474.20
493.72	58471.26
493.90	59065.76
494.08	59388.75
494.25	59489.40
494.43	60023.04
494.61	60411.57
494.79	60191.56
494.96	60528.59
495.14	60006.65
495.32	58602.33
495.49	58894.90
495.67	59999.63
495.85	60563.70
496.02	61008.40
496.20	60374.12
496.38	60079.21
496.55	60135.38
496.73	60720.52
496.91	61048.19
497.09	61195.65
497.26	61645.03
497.44	60842.23
497.62	60385.82
497.79	59648.55
497.97	58850.43
498.14	59477.69
498.32	60519.23
498.50	60573.06
498.67	60378.80
498.85	60601.15
499.03	61183.94
499.20	61476.51
499.38	60893.72
499.56	60111.98
499.73	60233.69
499.91	60074.53
500.08	59253.00
500.26	59077.46
500.44	59845.16
500.61	60231.35
500.79	59962.18
500.97	60013.68
501.14	59451.95
501.32	58770.85
501.49	59203.85
501.67	59978.57
501.84	60032.40
502.02	60444.33
502.20	60764.99
502.37	60952.23
502.55	60926.49
502.72	61951.64
502.90	62185.69
503.07	61953.98
503.25	60903.08
503.43	60027.72
503.60	59838.14
503.78	59760.90
503.95	60233.69
504.13	61268.20
504.30	61530.34
504.48	60853.93
504.65	61333.74
504.83	61200.33
505.01	61977.39
505.18	62071.01
505.36	62398.68
505.53	62525.07
505.71	62386.98
505.88	62873.81
506.06	62267.61
506.23	62176.33
506.41	62049.94
506.58	62000.79
506.76	61783.12
506.93	61448.42
507.11	61499.92
507.28	61628.65
507.46	60795.42
507.63	61158.20
507.81	60631.58
507.98	61233.10
508.16	62052.28
508.33	61883.76
508.50	62106.12
508.68	62761.47
508.85	62892.54
509.03	63365.32
509.20	62508.69
509.38	61806.53
509.55	61984.41
509.73	61982.07
509.90	61911.85
510.08	62365.91
510.25	61750.35
510.42	61715.25
510.60	62157.61
510.77	62379.96
510.95	62492.30
511.12	63051.69
511.30	63487.03
511.47	63927.05
511.64	63533.84
511.82	63590.01
511.99	62541.45
512.17	62347.19
512.34	61778.44
512.51	62293.36
512.69	62351.87
512.86	62143.56
513.04	62501.67
513.21	61888.45
513.38	61235.44
513.56	60921.80
513.73	60633.92
513.90	61804.19
514.08	61598.22
514.25	61478.85
514.43	61839.29
514.60	62143.56
514.77	62377.62
514.95	62578.90
515.12	62312.08
515.29	62471.24
515.47	63098.50
515.64	63028.29
515.81	62777.85
515.99	61670.78
516.16	60175.17
516.33	58293.38
516.51	57703.57
516.68	56685.43
516.85	55992.64
517.03	57703.57
517.20	60011.34
517.37	61558.43
517.54	62220.80
517.72	60959.25
517.89	58412.75
518.06	57076.30
518.24	58052.31
518.41	60191.56
518.58	61137.13
518.75	61263.52
518.93	61137.13
519.10	60753.29
519.27	61932.92
519.45	62033.56
519.62	62705.29
519.79	62918.28
519.96	62173.99
520.14	62035.90
520.31	61057.56
520.48	61062.24
520.65	61958.66
520.83	62848.06
521.00	62749.76
521.17	62007.81
521.34	62255.91
521.52	62534.43
521.69	63173.40
521.86	63412.13
522.03	63002.54
522.20	61698.86
522.38	61146.50
522.55	61726.95
522.72	61766.74
522.89	61359.48
523.07	62447.83
523.24	62749.76
523.41	63199.15
523.58	63482.35
523.75	63604.06
523.92	63496.39
524.10	63494.05
524.27	63042.33
524.44	62894.88
524.61	62171.65
524.78	62819.98
524.96	63007.22
525.13	62808.28
525.30	63601.72
525.47	63690.66
525.64	63683.64
525.81	62876.15
525.98	61160.54
526.16	59924.74
526.33	59962.18
526.50	59519.82
526.67	59402.80
526.84	60165.81
527.01	60933.51
527.18	61406.30
527.36	62075.69
527.53	63145.31
527.70	62635.08
527.87	61385.23
528.04	62206.76
528.21	62862.11
528.38	63358.30
528.55	64193.87
528.72	63767.90
528.89	63421.50
529.07	63641.51
529.24	62216.12
529.41	62108.46
529.58	62129.52
529.75	63133.61
529.92	63185.10
530.09	63077.44
530.26	63795.98
530.43	64310.90
530.60	63344.26
530.77	64018.33
530.94	64257.07
531.11	63192.12
531.28	63297.45
531.46	63440.22
531.63	63313.83
531.80	63075.10
531.97	62705.29
532.14	62508.69
532.31	61155.86
532.48	60458.38
532.65	60968.61
532.82	61464.81
532.99	63327.87
533.16	63157.02
533.33	63004.88
533.50	63370.00
533.67	63063.39
533.84	62438.47
534.01	62897.22
534.18	62805.94
534.35	62564.86
534.52	61895.47
534.69	62567.20
534.86	63271.70
535.03	63351.28
535.20	63257.66
535.37	64053.44
535.54	64175.15
535.71	63828.75
535.88	63915.35
536.05	62623.37
536.22	62110.80
536.38	62288.68
536.55	61579.49
536.72	61300.97
536.89	62045.26
537.06	61825.25
537.23	62529.75
537.40	62276.97
537.57	61836.95
537.74	62756.78
537.91	62693.59
538.08	62747.42
538.25	62639.76
538.42	63613.42
538.59	62988.50
538.75	62068.67
538.92	61385.23
539.09	61923.55
539.26	61691.84
539.43	61738.65
539.60	61415.66
539.77	62265.27
539.94	61743.33
540.11	61205.01
540.28	60858.61
540.44	60615.19
540.61	60636.26
540.78	61315.01
540.95	61815.89
541.12	61825.25
541.29	61937.60
541.46	62279.31
541.62	62766.15
541.79	61829.93
541.96	61359.48
542.13	61647.37
542.30	61563.11
542.47	61930.58
542.63	61998.45
542.80	61984.41
542.97	61375.87
543.14	61319.70
543.31	61523.32
543.48	62546.14
543.64	62667.84
543.81	63512.78
543.98	63110.20
544.15	62078.03
544.32	62396.34
544.48	62089.73
544.65	61991.43
544.82	62461.88
544.99	61375.87
545.16	61092.66
545.32	61385.23
545.49	62026.54
545.66	62021.86
545.83	61963.34
546.00	62302.72
546.16	61972.70
546.33	61745.67
546.50	61928.23
546.67	62639.76
546.83	62040.58
547.00	62307.40
547.17	61024.79
547.34	60221.98
547.50	60388.16
547.67	61319.70
547.84	61923.55
548.00	62225.48
548.17	61867.38
548.34	62220.80
548.51	62049.94
548.67	62054.62
548.84	62087.39
549.01	62422.09
549.18	61855.68
549.34	61815.89
549.51	62223.14
549.68	62319.10
549.84	61623.96
550.01	60816.48
550.18	60952.23
550.34	61284.59
550.51	61497.58
550.68	61939.94
550.84	61801.85
551.01	61183.94
551.18	61015.43
551.34	60956.91
551.51	61982.07
551.68	62052.28
551.84	62574.22
552.01	61771.42
552.18	61338.42
552.34	60753.29
552.51	60718.18
552.68	60205.60
552.84	60832.86
553.01	60959.25
553.18	61057.56
553.34	61205.01
553.51	61574.81
553.67	61364.17
553.84	61495.24
554.01	62056.96
554.17	61160.54
554.34	61406.30
554.51	61385.23
554.67	60734.56
554.84	61006.06
555.00	60360.08
555.17	60631.58
555.33	60491.15
555.50	60041.76
555.67	60755.63
555.83	61183.94
556.00	60432.63
556.16	60554.34
556.33	60381.14
556.50	60523.91
556.66	60474.76
556.83	60020.70
556.99	59786.64
557.16	60322.63
557.32	60102.62
557.49	60554.34
557.65	60322.63
557.82	60624.56
557.98	60720.52
558.15	59686.00
558.32	59152.36
558.48	58892.56
558.65	58815.32
558.81	59063.42
558.98	59817.07
559.14	59798.35
559.31	59723.45
559.47	59491.74
559.64	59817.07
559.80	58834.05
559.97	59669.62
560.13	60032.40
560.30	61207.35
560.46	61378.21
560.63	61890.79
560.79	61389.91
560.96	60542.64
561.12	59604.08
561.29	59515.14
561.45	59297.47
561.61	60236.03
561.78	59449.61
561.94	59936.44
562.11	59833.46
562.27	59276.41
562.44	60430.29
562.60	60271.14
562.77	60676.05
562.93	59877.93
563.10	59732.81
563.26	60090.91
563.42	60205.60
563.59	59798.35
563.75	59550.25
563.92	59203.85
564.08	59187.47
564.24	59950.48
564.41	59222.58
564.57	60385.82
564.74	59938.78
564.90	59395.77
565.07	59103.21
565.23	57991.45
565.39	58047.63
565.56	58239.55
565.72	58740.42
565.88	57769.10
566.05	59437.90
566.21	59487.06
566.38	59107.89
566.54	59559.61
566.70	60121.34
566.87	59737.49
567.03	59234.28
567.19	60193.90
567.36	60650.30
567.52	59267.05
567.68	58679.57
567.85	58312.11
568.01	58649.14
568.17	58728.72
568.34	58707.66
568.50	58078.05
568.66	58143.59
568.83	57853.36
568.99	57851.02
569.15	57977.41
569.32	57991.45
569.48	58131.89
569.64	58092.10
569.81	57911.88
569.97	57640.37
570.13	57158.22
570.30	56631.60
570.46	56219.67
570.62	55707.09
570.78	56037.11
570.95	56914.81
571.11	57059.92
571.27	56718.20
571.43	57073.96
571.60	56851.61
571.76	57769.10
571.92	58274.66
572.09	58389.34
572.25	58092.10
572.41	58209.12
572.57	58094.44
572.74	58340.19
572.90	59430.88
573.06	58890.22
573.22	58901.92
573.38	58618.72
573.55	59405.14
573.71	58265.30
573.87	58176.36
574.03	58162.31
574.20	57790.17
574.36	57689.52
574.52	57062.26
574.68	57073.96
574.84	56535.64
575.01	56535.64
575.17	56493.51
575.33	56816.50
575.49	57017.79
575.65	56067.53
575.82	56121.37
575.98	56362.44
576.14	57523.35
576.30	58117.84
576.46	56750.97
576.62	56987.36
576.79	57219.08
576.95	56954.60
577.11	57460.15
577.27	57214.40
577.43	57301.00
577.59	56884.38
577.75	55936.46
577.92	56133.07
578.08	56392.87
578.24	56334.35
578.40	56456.06
578.56	55398.14
578.72	56137.75
578.88	55903.70
579.04	56395.21
579.21	55997.32
579.37	56287.54
579.53	56685.43
579.69	55987.95
579.85	55723.47
580.01	55959.87
580.17	55604.11
580.33	56432.66
580.49	56669.05
580.65	55686.03
580.82	56142.43
580.98	56617.56
581.14	56481.81
581.30	56271.16
581.46	55917.74
581.62	56247.75
581.78	57029.49
581.94	57099.71
582.10	57062.26
582.26	56865.66
582.42	56919.49
582.58	56205.62
582.74	56048.81
582.90	56168.18
583.06	56725.22
583.22	56619.90
583.38	56575.43
583.54	57003.75
583.70	56779.06
583.86	56669.05
584.02	55861.57
584.18	55973.91
584.34	55648.58
584.50	55451.97
584.66	55576.02
584.82	55704.75
584.98	55856.88
585.14	55100.89
585.30	55107.91
