SpectraSuite Data File
++++++++++++++++++++++++++++++++++++
Date: Mon Oct 07 14:53:56 GMT-05:00 2013
User: price-jones
Dark Spectrum Present: No
Reference Spectrum Present: No
Number of Sampled Component Spectra: 1
Spectrometers: USB2+H05261
Integration Time (usec): 100000 (USB2+H05261)
Spectra Averaged: 1 (USB2+H05261)
Boxcar Smoothing: 0 (USB2+H05261)
Correct for Electrical Dark: No (USB2+H05261)
Strobe/Lamp Enabled: No (USB2+H05261)
Correct for Detector Non-linearity: No (USB2+H05261)
Correct for Stray Light: No (USB2+H05261)
Number of Pixels in Processed Spectrum: 2048
>>>>>Begin Processed Spectral Data<<<<<
365.73	0.00
365.92	0.00
366.12	0.00
366.32	0.00
366.52	0.00
366.72	0.00
366.91	0.00
367.11	0.00
367.31	0.00
367.51	0.00
367.70	0.00
367.90	0.00
368.10	0.00
368.30	0.00
368.49	0.00
368.69	0.00
368.89	0.00
369.09	0.00
369.28	0.00
369.48	0.00
369.68	0.00
369.87	0.00
370.07	0.00
370.27	0.00
370.47	807.48
370.66	3861.88
370.86	4571.07
371.06	5032.15
371.25	4748.95
371.45	4514.89
371.65	3918.06
371.84	3637.19
372.04	3995.29
372.24	4407.23
372.44	4489.15
372.63	4472.76
372.83	4140.41
373.03	3707.41
373.22	3482.72
373.42	3676.98
373.62	4203.60
373.81	4337.01
374.01	4599.15
374.21	4018.70
374.40	3786.99
374.60	3948.48
374.79	4318.29
374.99	5296.63
375.19	5472.17
375.38	5500.26
375.58	5174.92
375.78	5081.30
375.97	5156.20
376.17	5322.38
376.37	5336.42
376.56	5420.68
376.76	5717.93
376.95	6218.80
377.15	6700.95
377.35	6808.62
377.54	7126.93
377.74	7360.98
377.93	7262.68
378.13	7145.66
378.33	6717.34
378.52	6136.88
378.72	6092.41
378.91	5872.40
379.11	5717.93
379.31	5453.45
379.50	5558.77
379.70	5888.79
379.89	6604.99
380.09	7061.40
380.28	7229.91
380.48	7187.79
380.68	6977.14
380.87	6843.73
381.07	6370.94
381.26	5849.00
381.46	5526.00
381.65	5298.97
381.85	5060.24
382.04	4709.16
382.24	4568.73
382.43	4437.66
382.63	4437.66
382.83	4325.31
383.02	4292.54
383.22	4325.31
383.41	4271.48
383.61	4767.67
383.80	5284.93
384.00	6111.14
384.19	6799.26
384.39	7005.22
384.58	7002.88
384.78	6820.32
384.97	6740.74
385.17	6406.05
385.36	6071.35
385.56	5928.58
385.75	6029.22
385.95	6534.78
386.14	7185.44
386.34	7309.49
386.53	6885.86
386.72	6410.73
386.92	6523.07
387.11	6857.77
387.31	7187.79
387.50	7129.27
387.70	6862.45
387.89	6862.45
388.09	6827.34
388.28	6878.83
388.48	7145.66
388.67	7531.84
388.86	8128.68
389.06	8788.71
389.25	9235.75
389.45	9357.46
389.64	9128.09
389.84	9233.41
390.03	8954.89
390.22	8919.78
390.42	9495.55
390.61	9886.42
390.81	10530.07
391.00	10883.49
391.19	10766.46
391.39	10321.76
391.58	9654.71
391.78	9064.89
391.97	8987.66
392.16	8301.88
392.36	7676.96
392.55	6106.46
392.75	4688.09
392.94	3948.48
393.13	3918.06
393.33	4578.09
393.52	5867.72
393.71	7180.76
393.91	8133.36
394.10	8919.78
394.29	9856.00
394.49	10342.83
394.68	11255.64
394.88	11307.13
395.07	11569.27
395.26	11342.24
395.46	11077.76
395.65	10518.37
395.84	9090.64
396.04	7791.64
396.23	6267.95
396.42	5366.85
396.62	5142.16
396.81	5956.66
397.00	7632.49
397.19	9825.57
397.39	11225.21
397.58	12681.02
397.77	13238.07
397.97	13989.38
398.16	13973.00
398.35	14663.46
398.55	15082.41
398.74	15758.83
398.93	16121.61
399.12	15815.00
399.32	15143.27
399.51	15496.69
399.70	16336.94
399.90	16196.51
400.09	16446.94
400.28	16086.50
400.47	16238.64
400.67	17177.19
400.86	17371.46
401.05	17448.69
401.24	17624.23
401.44	18003.40
401.63	18087.66
401.82	18008.08
402.01	18073.62
402.21	18284.26
402.40	18429.38
402.59	17795.09
402.78	17053.14
402.97	16479.71
403.17	17191.23
403.36	18153.20
403.55	18958.34
403.74	19302.40
403.93	18354.48
404.13	17142.08
404.32	16456.31
404.51	17064.85
404.70	18579.17
404.89	18684.50
405.09	18080.64
405.28	17752.96
405.47	17771.69
405.66	17734.24
405.85	17436.99
406.05	16753.55
406.24	17050.80
406.43	17671.04
406.62	18328.74
406.81	18684.50
407.00	17708.49
407.20	17383.16
407.39	17476.78
407.58	18583.85
407.77	19220.48
407.96	19541.13
408.15	19747.10
408.34	19917.96
408.54	21074.18
408.73	20844.81
408.92	20737.15
409.11	19946.05
409.30	19264.95
409.49	17909.78
409.68	16746.53
409.87	16475.03
410.07	17050.80
410.26	18700.88
410.45	20098.18
410.64	20290.10
410.83	21048.44
411.02	21631.23
411.21	22361.48
411.40	21809.11
411.59	22148.49
411.78	21858.26
411.98	21605.49
412.17	21940.18
412.36	21514.20
412.55	22087.64
412.74	21263.77
412.93	20737.15
413.12	20678.63
413.31	22881.08
413.50	22829.59
413.69	23676.86
413.88	22604.89
414.07	21631.23
414.26	22272.54
414.45	22888.10
414.64	23077.68
414.83	22974.70
415.02	22515.95
415.22	22525.32
415.41	23325.78
415.60	23997.51
415.79	24903.30
415.98	25289.49
416.17	25317.57
416.36	24905.64
416.55	24603.71
416.74	23459.19
416.93	22934.91
417.12	22728.94
417.31	23407.70
417.50	23616.01
417.69	23971.77
417.88	24170.71
418.07	24374.34
418.26	23498.98
418.45	24091.13
418.64	24451.58
418.83	25614.82
419.02	25135.01
419.21	25348.00
419.39	23985.81
419.58	22810.86
419.77	22508.93
419.96	23730.69
420.15	25209.91
420.34	25696.74
420.53	26909.14
420.72	27192.34
420.91	27087.02
421.10	26679.77
421.29	26572.10
421.48	25132.67
421.67	26817.86
421.86	26047.82
422.05	24364.98
422.24	21781.03
422.43	21336.32
422.61	23920.28
422.80	25783.34
422.99	25762.28
423.18	24844.79
423.37	24416.47
423.56	24280.72
423.75	24889.26
423.94	25228.63
424.13	24114.54
424.32	23777.50
424.50	24594.35
424.69	23960.06
424.88	24243.27
425.07	23843.04
425.26	23955.38
425.45	23470.89
425.64	23161.94
425.83	23353.87
426.01	24554.56
426.20	25193.53
426.39	25186.50
426.58	22986.40
426.77	21352.71
426.96	20790.98
427.15	21362.07
427.33	23417.06
427.52	24126.24
427.71	24655.20
427.90	24039.64
428.09	24102.84
428.28	23358.55
428.46	22728.94
428.65	22328.71
428.84	22864.69
429.03	23136.20
429.22	21837.20
429.40	20716.08
429.59	18981.74
429.78	16533.54
429.97	16903.35
430.16	17128.04
430.34	17032.08
430.53	16858.88
430.72	17371.46
430.91	18981.74
431.10	22450.42
431.28	26593.17
431.47	28606.03
431.66	29069.45
431.85	26288.90
432.03	24222.20
432.22	23058.96
432.41	23763.46
432.60	26595.51
432.79	27508.32
432.97	28617.73
433.16	27744.71
433.35	25261.40
433.54	22864.69
433.72	21385.47
433.91	22045.51
434.10	24465.62
434.28	26256.13
434.47	27751.73
434.66	27197.02
434.85	26396.56
435.03	26363.79
435.22	27295.33
435.41	29039.03
435.59	28577.94
435.78	29462.66
435.97	30038.44
436.16	29933.11
436.34	30019.71
436.53	28966.47
436.72	29439.26
436.90	27814.93
437.09	27445.12
437.28	27021.48
437.46	27953.02
437.65	28149.62
437.84	26263.15
438.02	24088.79
438.21	23814.95
438.40	25118.63
438.58	27215.75
438.77	27819.61
438.96	27711.94
439.14	29359.68
439.33	30033.75
439.52	30560.37
439.70	30043.12
439.89	29303.51
440.08	28357.93
440.26	28226.86
440.45	29422.87
440.63	31344.45
440.82	32500.68
441.01	32425.78
441.19	31740.00
441.38	32500.68
441.57	33682.65
441.75	34148.42
441.94	33888.62
442.12	34022.03
442.31	34448.00
442.50	34522.90
442.68	34010.32
442.87	33699.03
443.05	33296.46
443.24	33792.65
443.43	34457.37
443.61	35103.35
443.80	35379.54
443.98	33298.80
444.17	33329.23
444.35	35328.05
444.54	35903.82
444.73	35648.70
444.91	33991.60
445.10	32554.51
445.28	31337.43
445.47	31056.57
445.65	31108.06
445.84	31693.19
446.02	32943.04
446.21	33689.67
446.39	33481.36
446.58	34178.84
446.77	34340.34
446.95	34981.65
447.14	35950.63
447.32	36645.77
447.51	35597.21
447.69	34476.09
447.88	33556.26
448.06	34342.68
448.25	35089.31
448.43	35693.17
448.62	34871.64
448.80	34382.47
448.99	34574.39
449.17	35061.22
449.36	34588.44
449.54	35868.71
449.73	36720.66
449.91	37558.58
450.10	38272.44
450.28	39009.71
450.46	38431.60
450.65	38426.92
450.83	38267.76
451.02	37230.90
451.20	37289.42
451.39	37074.09
451.57	36844.71
451.76	37062.38
451.94	36573.21
452.13	36327.45
452.31	34258.42
452.49	32549.83
452.68	33226.24
452.86	33479.02
453.05	34117.99
453.23	34668.02
453.42	35978.72
453.60	36308.73
453.78	36641.09
453.97	36245.54
454.15	36411.71
454.34	35562.10
454.52	35541.03
454.70	34904.41
454.89	35765.73
455.07	35377.20
455.26	35990.42
455.44	37542.19
455.62	37816.04
455.81	38462.02
455.99	38445.64
456.17	37165.37
456.36	37385.38
456.54	38485.43
456.73	38550.96
456.91	39576.12
457.09	39466.11
457.28	40032.52
457.46	38101.58
457.64	38508.83
457.83	37319.84
458.01	36552.15
458.19	37434.53
458.38	37605.39
458.56	38607.14
458.74	38831.83
458.93	37825.40
459.11	37902.64
459.29	37495.38
459.48	37560.92
459.66	37556.24
459.84	38213.93
460.03	38415.21
460.21	38391.81
460.39	39428.66
460.57	39126.74
460.76	39936.56
460.94	39702.51
461.12	39075.24
461.31	39714.21
461.49	39019.07
461.67	38937.15
461.85	40685.53
462.04	40062.95
462.22	40893.84
462.40	40453.82
462.59	40172.96
462.77	40135.51
462.95	40055.93
463.13	39651.02
463.32	39555.05
463.50	38993.32
463.68	39325.68
463.86	39409.94
464.05	38473.73
464.23	38438.62
464.41	37832.42
464.59	36992.17
464.78	39091.63
464.96	38941.83
465.14	38464.36
465.32	39077.58
465.50	40198.70
465.69	40493.61
465.87	39732.93
466.05	38745.23
466.23	36996.85
466.41	36411.71
466.60	37413.46
466.78	37471.98
466.96	38220.95
467.14	38618.84
467.32	38965.24
467.51	38923.11
467.69	37247.29
467.87	38132.01
468.05	39058.86
468.23	38998.01
468.41	38934.81
468.60	38632.88
468.78	39012.05
468.96	38848.21
469.14	39405.26
469.32	39522.29
469.50	38117.96
469.69	38480.75
469.87	37603.05
470.05	37296.44
470.23	37935.40
470.41	37797.31
470.59	38539.26
470.77	38150.73
470.95	39196.95
471.14	39681.44
471.32	39508.24
471.50	41930.70
471.68	41811.33
471.86	41649.83
472.04	41991.55
472.22	42192.84
472.40	40542.76
472.58	40062.95
472.77	39810.17
472.95	40397.65
473.13	41734.09
473.31	40779.15
473.49	40737.02
473.67	41329.18
473.85	41752.82
474.03	42653.92
474.21	42855.21
474.39	42930.11
474.57	43070.54
474.75	43407.58
474.93	42866.91
475.12	41823.03
475.30	42284.12
475.48	42445.62
475.66	42829.46
475.84	42515.83
476.02	42136.66
476.20	40865.75
476.38	41942.40
476.56	43613.54
476.74	43938.88
476.92	43775.04
477.10	44603.59
477.28	45883.86
477.46	46007.91
477.64	46043.02
477.82	46204.52
478.00	46204.52
478.18	45834.71
478.36	45488.31
478.54	45530.44
478.72	46162.39
478.90	46681.98
479.08	47587.77
479.26	48292.27
479.44	48301.64
479.62	48093.33
479.80	48334.40
479.98	48432.71
480.16	48526.33
480.34	48217.38
480.52	48666.76
480.70	48711.23
480.88	48788.47
481.06	49333.81
481.24	49844.05
481.41	50478.33
481.59	50990.91
481.77	50766.22
481.95	50068.74
482.13	49808.94
482.31	50382.37
482.49	50887.93
482.67	50576.64
482.85	50794.31
483.03	51515.19
483.21	51714.14
483.39	51344.33
483.57	51119.64
483.74	50614.08
483.92	50981.55
484.10	51320.93
484.28	52126.07
484.46	52320.34
484.64	52711.20
484.82	51777.33
485.00	51306.88
485.18	51004.95
485.35	49600.63
485.53	46923.06
485.71	43262.46
485.89	42342.63
486.07	44371.88
486.25	47999.71
486.43	49820.64
486.61	50494.72
486.78	50351.94
486.96	50560.25
487.14	52189.27
487.32	52699.50
487.50	53820.62
487.68	54480.65
487.85	54787.26
488.03	54644.49
488.21	54223.19
488.39	53771.47
488.57	53406.34
488.75	52797.80
488.92	53743.38
489.10	55751.56
489.28	56809.48
489.46	57364.19
489.64	57137.16
489.81	57214.40
489.99	57034.17
490.17	56903.10
490.35	57485.90
490.53	57052.90
490.70	56800.12
490.88	56622.24
491.06	57183.97
491.24	57420.36
491.41	56540.32
491.59	55114.94
491.77	54747.47
491.95	55557.30
492.13	56301.59
492.30	57382.91
492.48	58155.29
492.66	58721.70
492.84	58520.41
493.01	58255.93
493.19	57897.83
493.37	57605.26
493.54	57301.00
493.72	57918.90
493.90	58897.24
494.08	59480.03
494.25	59653.23
494.43	59807.71
494.61	60163.47
494.79	60168.15
494.96	60123.68
495.14	59526.84
495.32	58691.27
495.49	58080.39
495.67	59128.95
495.85	60257.09
496.02	60619.88
496.20	60441.99
496.38	60147.09
496.55	59948.14
496.73	60301.56
496.91	60324.97
497.09	61057.56
497.26	61298.63
497.44	60601.15
497.62	60069.85
497.79	59627.49
497.97	58401.05
498.14	58480.63
498.32	59360.67
498.50	60402.21
498.67	61062.24
498.85	60664.35
499.03	60928.83
499.20	61003.72
499.38	61048.19
499.56	61013.08
499.73	60568.38
499.91	60130.70
500.08	59662.60
500.26	59072.78
500.44	59318.54
500.61	60182.19
500.79	59990.27
500.97	59767.92
501.14	59529.19
501.32	59327.90
501.49	59449.61
501.67	59550.25
501.84	59814.73
502.02	60322.63
502.20	60458.38
502.37	60612.85
502.55	60573.06
502.72	61317.35
502.90	61375.87
503.07	61286.93
503.25	61095.00
503.43	60121.34
503.60	59526.84
503.78	58941.71
503.95	59414.50
504.13	60528.59
504.30	61485.87
504.48	61329.06
504.65	60781.37
504.83	60945.21
505.01	61567.79
505.18	61687.16
505.36	62372.94
505.53	62239.53
505.71	62646.78
505.88	62415.07
506.06	61921.21
506.23	62068.67
506.41	61455.45
506.58	61682.48
506.76	61717.59
506.93	61691.84
507.11	61347.78
507.28	61296.29
507.46	61048.19
507.63	60420.93
507.81	60488.80
507.98	60732.22
508.16	61160.54
508.33	61649.71
508.50	61958.66
508.68	62293.36
508.85	62658.48
509.03	62719.34
509.20	62489.96
509.38	61869.72
509.55	61202.67
509.73	61265.86
509.90	61764.40
510.08	61914.19
510.25	61834.61
510.42	61642.69
510.60	61619.28
510.77	61876.74
510.95	62452.51
511.12	62482.94
511.30	62747.42
511.47	63051.69
511.64	62953.39
511.82	62527.41
511.99	61993.77
512.17	61638.01
512.34	61324.38
512.51	61249.48
512.69	61485.87
512.86	61694.18
513.04	62052.28
513.21	61970.36
513.38	61485.87
513.56	61237.78
513.73	60800.10
513.90	60940.53
514.08	60856.27
514.25	61228.41
514.43	61293.95
514.60	61394.59
514.77	61525.66
514.95	61542.05
515.12	61591.20
515.29	61593.54
515.47	62412.73
515.64	62382.30
515.81	62063.99
515.99	61659.07
516.16	60339.01
516.33	58262.96
516.51	56800.12
516.68	56273.50
516.85	56020.72
517.03	56184.56
517.20	58422.11
517.37	60676.05
517.54	61499.92
517.72	61160.54
517.89	58777.87
518.06	56900.76
518.24	57310.36
518.41	59093.85
518.58	60495.83
518.75	60720.52
518.93	60694.77
519.10	60467.74
519.27	61102.03
519.45	61310.33
519.62	61771.42
519.79	62300.38
519.96	61918.87
520.14	61687.16
520.31	60685.41
520.48	60671.37
520.65	61080.96
520.83	62003.13
521.00	62354.21
521.17	62166.97
521.34	61605.24
521.52	61937.60
521.69	62464.22
521.86	62911.26
522.03	62461.88
522.20	61434.38
522.38	60261.77
522.55	60252.41
522.72	60956.91
522.89	61174.58
523.07	61307.99
523.24	61464.81
523.41	62525.07
523.58	62635.08
523.75	63079.78
523.92	62834.02
524.10	62859.77
524.27	62766.15
524.44	62808.28
524.61	62557.84
524.78	62394.00
524.96	62262.93
525.13	62281.66
525.30	62546.14
525.47	62876.15
525.64	62773.17
525.81	62117.82
525.98	60956.91
526.16	59566.63
526.33	59000.22
526.50	58597.65
526.67	58269.98
526.84	58747.45
527.01	59863.88
527.18	60694.77
527.36	61403.95
527.53	62087.39
527.70	62333.15
527.87	61790.14
528.04	61429.70
528.21	61937.60
528.38	62461.88
528.55	63035.31
528.72	63304.47
528.89	63402.77
529.07	63075.10
529.24	62475.92
529.41	61965.68
529.58	61483.53
529.75	61645.03
529.92	61762.06
530.09	62284.00
530.26	62759.12
530.43	62848.06
530.60	63072.76
530.77	63292.77
530.94	63290.43
531.11	62904.24
531.28	62532.09
531.46	62468.90
531.63	62468.90
531.80	62401.02
531.97	62150.59
532.14	61453.11
532.31	60282.84
532.48	60009.00
532.65	59702.38
532.82	60657.32
532.99	61509.28
533.16	61750.35
533.33	62501.67
533.50	62307.40
533.67	61745.67
533.84	61174.58
534.01	61338.42
534.18	61825.25
534.35	61785.46
534.52	61630.99
534.69	61895.47
534.86	62258.25
535.03	62384.64
535.20	62834.02
535.37	63105.52
535.54	63245.96
535.71	63119.57
535.88	62609.33
536.05	61923.55
536.22	61696.52
536.38	61340.76
536.55	60743.92
536.72	60617.53
536.89	60374.12
537.06	61001.38
537.23	62078.03
537.40	62075.69
537.57	62211.44
537.74	61776.10
537.91	61815.89
538.08	61654.39
538.25	61965.68
538.42	62110.80
538.59	61916.53
538.75	61092.66
538.92	60999.04
539.09	60844.57
539.26	60889.04
539.43	60612.85
539.60	60807.12
539.77	60889.04
539.94	60807.12
540.11	60095.60
540.28	59690.68
540.44	59765.58
540.61	59812.39
540.78	60182.19
540.95	60582.43
541.12	60900.74
541.29	61144.16
541.46	61373.53
541.62	61249.48
541.79	61179.26
541.96	60577.75
542.13	60795.42
542.30	60982.66
542.47	61298.63
542.63	60809.46
542.80	60561.36
542.97	60830.52
543.14	60671.37
543.31	60416.25
543.48	61151.18
543.64	62021.86
543.81	62234.84
543.98	61949.30
544.15	61209.69
544.32	60889.04
544.48	60683.07
544.65	61469.49
544.82	61663.75
544.99	61155.86
545.16	60921.80
545.32	60617.53
545.49	61420.34
545.66	61834.61
545.83	61544.39
546.00	60987.34
546.16	60954.57
546.33	60683.07
546.50	61020.11
546.67	61354.80
546.83	61109.05
547.00	60879.67
547.17	60217.30
547.34	59819.41
547.50	59756.22
547.67	60182.19
547.84	60067.51
548.00	60549.66
548.17	60837.54
548.34	60945.21
548.51	60863.29
548.67	60900.74
548.84	60982.66
549.01	60896.06
549.18	60917.12
549.34	60743.92
549.51	60753.29
549.68	60629.24
549.84	60573.06
550.01	60374.12
550.18	60238.37
550.34	60446.68
550.51	60439.65
550.68	60521.57
550.84	59980.91
551.01	60151.77
551.18	59929.42
551.34	60275.82
551.51	60603.49
551.68	60800.10
551.84	60727.54
552.01	60449.02
552.18	60657.32
552.34	59866.22
552.51	59473.01
552.68	59400.46
552.84	59938.78
553.01	60154.11
553.18	60037.08
553.34	60268.79
553.51	60289.86
553.67	60416.25
553.84	60573.06
554.01	60662.00
554.17	60395.18
554.34	60395.18
554.51	60603.49
554.67	60690.09
554.84	60671.37
555.00	60441.99
555.17	60088.57
555.33	59868.56
555.50	59962.18
555.67	59973.89
555.83	59849.84
556.00	59732.81
556.16	59643.87
556.33	59346.62
556.50	58993.20
556.66	58894.90
556.83	58731.06
556.99	59224.92
557.16	59201.51
557.32	59437.90
557.49	59573.66
557.65	59421.52
557.82	59554.93
557.98	59360.67
558.15	59089.16
558.32	58312.11
558.48	57464.83
558.65	57553.77
558.81	58082.73
558.98	58174.02
559.14	58482.97
559.31	58468.92
559.47	58646.80
559.64	58218.49
559.80	58059.33
559.97	57965.71
560.13	58269.98
560.30	59248.32
560.46	59526.84
560.63	59760.90
560.79	59774.94
560.96	59646.21
561.12	58534.46
561.29	57621.65
561.45	57804.21
561.61	58342.53
561.78	58656.17
561.94	58401.05
562.11	58396.37
562.27	58246.57
562.44	58560.20
562.60	58880.86
562.77	58906.60
562.93	58798.94
563.10	58702.98
563.26	58195.08
563.42	58218.49
563.59	58110.82
563.75	58143.59
563.92	58241.89
564.08	58136.57
564.24	58328.49
564.41	58375.30
564.57	58501.69
564.74	58202.10
564.90	58314.45
565.07	58134.23
565.23	57518.67
565.39	57013.11
565.56	56673.73
565.72	56596.49
565.88	56776.72
566.05	57022.47
566.21	57303.34
566.38	57375.89
566.54	57523.35
566.70	57935.28
566.87	58164.65
567.03	57888.47
567.19	58326.15
567.36	57829.96
567.52	57752.72
567.68	57513.98
567.85	56933.53
568.01	56694.80
568.17	56568.41
568.34	56303.93
568.50	56301.59
568.66	56367.12
568.83	56947.57
568.99	56626.92
569.15	56802.46
569.32	56912.47
569.48	56615.22
569.64	56624.58
569.81	56573.09
569.97	56233.71
570.13	56236.05
570.30	55737.52
570.46	55337.29
570.62	54986.21
570.78	54663.21
570.95	54972.16
571.11	55594.74
571.27	55990.30
571.43	56088.60
571.60	56430.32
571.76	56694.80
571.92	56540.32
572.09	56980.34
572.25	56865.66
572.41	56802.46
572.57	56629.26
572.74	56537.98
572.90	56399.89
573.06	56390.53
573.22	56512.23
573.38	56317.97
573.55	56245.41
573.71	56334.35
573.87	56329.67
574.03	56095.62
574.20	56168.18
574.36	55693.05
574.52	55884.97
574.68	55489.42
574.84	55292.82
575.01	54794.28
575.17	54667.89
575.33	54820.03
575.49	55379.42
575.65	55402.82
575.82	55269.41
575.98	54581.29
576.14	55042.38
576.30	55489.42
576.46	55367.71
576.62	55688.37
576.79	55379.42
576.95	55110.25
577.11	55154.72
577.27	55121.96
577.43	55271.75
577.59	54934.71
577.75	54543.84
577.92	53787.85
578.08	53755.08
578.24	53558.48
578.40	54363.62
578.56	54536.82
578.72	54478.31
578.88	54700.66
579.04	54822.37
579.21	54649.17
579.37	54550.87
579.53	54873.86
579.69	55091.53
579.85	54990.89
580.01	54674.91
580.17	54431.50
580.33	54410.43
580.49	54550.87
580.65	54665.55
580.82	54930.03
580.98	54836.41
581.14	54705.34
581.30	54845.77
581.46	54527.46
581.62	54880.88
581.78	54738.11
581.94	54944.08
582.10	54745.13
582.26	55128.98
582.42	55124.30
582.58	54724.07
582.74	54857.48
582.90	54864.50
583.06	54878.54
583.22	54564.91
583.38	54590.66
583.54	54646.83
583.70	54302.77
583.86	54714.70
584.02	54246.60
584.18	54468.95
584.34	54387.03
584.50	54260.64
584.66	54323.83
584.82	53867.43
584.98	53930.62
585.14	53694.23
