SpectraSuite Data File
++++++++++++++++++++++++++++++++++++
Date: Mon Oct 07 14:53:55 GMT-05:00 2013
User: price-jones
Dark Spectrum Present: No
Reference Spectrum Present: No
Number of Sampled Component Spectra: 1
Spectrometers: USB2+H05261
Integration Time (usec): 100000 (USB2+H05261)
Spectra Averaged: 1 (USB2+H05261)
Boxcar Smoothing: 0 (USB2+H05261)
Correct for Electrical Dark: No (USB2+H05261)
Strobe/Lamp Enabled: No (USB2+H05261)
Correct for Detector Non-linearity: No (USB2+H05261)
Correct for Stray Light: No (USB2+H05261)
Number of Pixels in Processed Spectrum: 2048
>>>>>Begin Processed Spectral Data<<<<<
365.73	0.00
365.92	0.00
366.12	0.00
366.32	0.00
366.52	0.00
366.72	0.00
366.91	0.00
367.11	0.00
367.31	0.00
367.51	0.00
367.70	0.00
367.90	0.00
368.10	0.00
368.30	0.00
368.49	0.00
368.69	0.00
368.89	0.00
369.09	0.00
369.28	0.00
369.48	0.00
369.68	0.00
369.87	0.00
370.07	0.00
370.27	0.00
370.47	571.09
370.66	2923.33
370.86	3421.86
371.06	3721.45
371.25	3672.30
371.45	3393.78
371.65	2942.05
371.84	2801.62
372.04	2963.12
372.24	3267.39
372.44	3442.93
372.63	3251.00
372.83	3124.62
373.03	2813.32
373.22	2605.02
373.42	2649.49
373.62	3159.72
373.81	3337.60
374.01	3370.37
374.21	2991.20
374.40	2815.66
374.60	2972.48
374.79	3351.65
374.99	3922.74
375.19	4217.65
375.38	4177.86
375.58	3974.23
375.78	3969.55
375.97	3927.42
376.17	4140.41
376.37	4102.96
376.56	4014.02
376.76	4404.89
376.95	4631.92
377.15	5057.90
377.35	5273.23
377.54	5549.41
377.74	5488.56
377.93	5579.84
378.13	5441.75
378.33	5109.39
378.52	4655.33
378.72	4552.34
378.91	4507.87
379.11	4236.37
379.31	4189.56
379.50	4325.31
379.70	4374.46
379.89	5043.85
380.09	5240.46
380.28	5561.11
380.48	5451.11
380.68	5462.81
380.87	5212.37
381.07	4746.61
381.26	4498.51
381.46	4332.33
381.65	4084.23
381.85	3976.57
382.04	3714.43
382.24	3412.50
382.43	3311.86
382.63	3253.34
382.83	3407.82
383.02	3321.22
383.22	3368.03
383.41	3330.58
383.61	3494.42
383.80	4056.15
384.00	4631.92
384.19	5184.29
384.39	5317.70
384.58	5305.99
384.78	5394.93
384.97	5240.46
385.17	4978.32
385.36	4741.93
385.56	4582.77
385.75	4718.52
385.95	4987.68
386.14	5628.99
386.34	5600.90
386.53	5313.02
386.72	5139.82
386.92	4922.15
387.11	5296.63
387.31	5607.92
387.50	5561.11
387.70	5247.48
387.89	4954.91
388.09	5317.70
388.28	5249.82
388.48	5287.27
388.67	5860.70
388.86	6394.34
389.06	6892.88
389.25	7208.85
389.45	7391.41
389.64	7126.93
389.84	7213.53
390.03	7042.67
390.22	7021.61
390.42	7241.62
390.61	7861.86
390.81	8088.89
391.00	8414.23
391.19	8346.35
391.39	7978.89
391.58	7576.31
391.78	6974.80
391.97	6808.62
392.16	6429.45
392.36	5792.83
392.55	4730.22
392.75	3662.94
392.94	3148.02
393.13	3101.21
393.33	3515.48
393.52	4524.26
393.71	5593.88
393.91	6471.58
394.10	7070.76
394.29	7487.37
394.49	8037.40
394.68	8734.88
394.88	8737.22
395.07	9179.58
395.26	9004.04
395.46	8657.64
395.65	8226.98
395.84	7248.64
396.04	6179.01
396.23	4887.04
396.42	4133.39
396.62	3894.65
396.81	4676.39
397.00	5935.60
397.19	7538.87
397.39	8699.77
397.58	9963.66
397.77	10532.41
397.97	11005.20
398.16	11211.17
398.35	11627.78
398.55	11646.51
398.74	12304.20
398.93	12273.77
399.12	12386.12
399.32	11693.32
399.51	12147.38
399.70	12952.52
399.90	12886.99
400.09	12636.55
400.28	12699.75
400.47	12936.14
400.67	13399.57
400.86	13806.82
401.05	13748.31
401.24	13755.33
401.44	14097.05
401.63	14097.05
401.82	14244.50
402.01	14083.00
402.21	14148.54
402.40	14611.96
402.59	13788.10
402.78	13373.82
402.97	12837.84
403.17	13324.67
403.36	14230.46
403.55	14682.18
403.74	15105.82
403.93	14295.99
404.13	13291.90
404.32	12931.46
404.51	13502.55
404.70	14820.27
404.89	14520.68
405.09	14232.80
405.28	14029.17
405.47	14085.34
405.66	13949.59
405.85	13652.34
406.05	13107.00
406.24	13415.95
406.43	13774.05
406.62	14333.44
406.81	14721.97
407.00	14113.43
407.20	13591.49
407.39	13855.97
407.58	14656.43
407.77	14740.69
407.96	15358.60
408.15	15644.14
408.34	15662.86
408.54	16414.18
408.73	16568.65
408.92	16084.16
409.11	15936.71
409.30	15126.88
409.49	14162.58
409.68	13221.69
409.87	12812.09
410.07	13422.97
410.26	14726.65
410.45	15613.71
410.64	16035.01
410.83	16519.50
411.02	16746.53
411.21	17544.66
411.40	17301.24
411.59	17207.62
411.78	17170.17
411.98	16889.31
412.17	17511.89
412.36	16856.54
412.55	17277.83
412.74	16669.30
412.93	16327.58
413.12	16425.88
413.31	17987.02
413.50	18223.41
413.69	18523.00
413.88	17848.93
414.07	17481.46
414.26	17481.46
414.45	18288.95
414.64	18082.98
414.83	18373.21
415.02	17989.36
415.22	17921.48
415.41	18420.02
415.60	18944.30
415.79	19613.69
415.98	19985.83
416.17	20009.24
416.36	19342.19
416.55	19255.59
416.74	18815.57
416.93	18150.85
417.12	18094.68
417.31	18127.45
417.50	18649.39
417.69	19178.35
417.88	19147.92
418.07	18824.93
418.26	18693.86
418.45	18782.80
418.64	19398.36
418.83	20147.33
419.02	19723.69
419.21	20074.77
419.39	19012.17
419.58	18005.74
419.77	17958.93
419.96	18586.19
420.15	19843.06
420.34	20477.35
420.53	21010.99
420.72	21425.26
420.91	21401.86
421.10	20938.43
421.29	20910.35
421.48	20255.00
421.67	21128.02
421.86	20498.41
422.05	19283.67
422.24	17111.66
422.43	16819.09
422.61	18827.27
422.80	20596.71
422.99	20575.65
423.18	19597.31
423.37	19307.08
423.56	19129.20
423.75	19704.97
423.94	20037.33
424.13	18670.45
424.32	19323.46
424.50	19183.03
424.69	19066.00
424.88	18981.74
425.07	19180.69
425.26	19077.71
425.45	18590.88
425.64	18567.47
425.83	18464.49
426.01	19344.53
426.20	19983.49
426.39	19669.86
426.58	18408.31
426.77	16840.15
426.96	16137.99
427.15	17048.46
427.33	18314.69
427.52	19248.57
427.71	19356.23
427.90	19271.97
428.09	18937.27
428.28	18492.57
428.46	17638.28
428.65	17479.12
428.84	17921.48
429.03	18291.29
429.22	17200.60
429.40	16456.31
429.59	14930.28
429.78	13004.02
429.97	13128.06
430.16	13310.63
430.34	13392.55
430.53	13345.73
430.72	13891.08
430.91	15091.77
431.10	17762.33
431.28	20847.15
431.47	22424.67
431.66	22838.95
431.85	20943.11
432.03	19166.65
432.22	18286.61
432.41	19016.85
432.60	21027.37
432.79	22040.82
432.97	22504.25
433.16	22054.87
433.35	20093.50
433.54	18150.85
433.72	16964.20
433.91	17209.96
434.10	19288.35
434.28	20812.04
434.47	22141.47
434.66	21736.56
434.85	21221.64
435.03	21099.93
435.22	21603.14
435.41	22857.67
435.59	22789.80
435.78	23103.43
435.97	24051.34
436.16	24025.60
436.34	23531.75
436.53	23070.66
436.72	23229.82
436.90	21949.54
437.09	21989.33
437.28	21392.50
437.46	22349.78
437.65	22225.73
437.84	20774.60
438.02	19286.01
438.21	18728.97
438.40	19681.56
438.58	21413.56
438.77	22237.43
438.96	22459.78
439.14	23145.56
439.33	23950.70
439.52	23948.36
439.70	23784.52
439.89	23335.14
440.08	22429.35
440.26	22340.41
440.45	22979.38
440.63	24781.59
440.82	26171.87
441.01	25654.61
441.19	25259.06
441.38	25867.60
441.57	26675.09
441.75	27133.83
441.94	27028.51
442.12	27115.11
442.31	27573.85
442.50	27061.27
442.68	27405.33
442.87	26895.10
443.05	26356.77
443.24	26717.22
443.43	27290.65
443.61	27997.49
443.80	28273.67
443.98	26644.66
444.17	26197.62
444.35	28189.41
444.54	28559.22
444.73	28280.69
444.91	27241.50
445.10	25928.45
445.28	24849.47
445.47	24336.89
445.65	24582.65
445.84	25071.82
446.02	26099.31
446.21	26974.67
446.39	26902.12
446.58	27016.80
446.77	27555.13
446.95	27697.90
447.14	28526.45
447.32	28900.94
447.51	28353.25
447.69	27330.44
447.88	26768.71
448.06	27257.88
448.25	28067.70
448.43	28582.62
448.62	27548.11
448.80	27068.30
448.99	27707.26
449.17	27913.23
449.36	28046.64
449.54	29046.05
449.73	28978.17
449.91	29926.09
450.10	30590.80
450.28	30841.24
450.46	30778.04
450.65	30672.72
450.83	30675.06
451.02	29745.87
451.20	29869.92
451.39	29872.26
451.57	29408.83
451.76	29371.38
451.94	29172.44
452.13	28793.27
452.31	27337.46
452.49	26181.23
452.68	26356.77
452.86	26471.46
453.05	26703.17
453.23	27779.82
453.42	28357.93
453.60	28940.72
453.78	29315.21
453.97	29230.95
454.15	29015.62
454.34	28460.91
454.52	29111.58
454.70	28332.18
454.89	28236.22
455.07	28395.38
455.26	28732.42
455.44	30019.71
455.62	30429.30
455.81	30745.28
455.99	30918.48
456.17	29916.73
456.36	29813.74
456.54	30930.18
456.73	31084.65
456.91	31297.64
457.09	31342.11
457.28	32575.58
457.46	31124.44
457.64	30593.14
457.83	29570.33
458.01	28788.59
458.19	29778.64
458.38	30127.38
458.56	30604.84
458.74	30841.24
458.93	30094.61
459.11	30426.96
459.29	29687.36
459.48	30445.69
459.66	29827.79
459.84	30539.31
460.03	30890.39
460.21	30567.40
460.39	31283.60
460.57	31339.77
460.76	32002.14
460.94	31770.43
461.12	31618.30
461.31	31873.42
461.49	31571.49
461.67	31489.57
461.85	32287.69
462.04	31866.39
462.22	32912.61
462.40	32496.00
462.59	32011.51
462.77	32287.69
462.95	32470.25
463.13	32013.85
463.32	31323.39
463.50	31527.02
463.68	31318.71
463.86	31512.97
464.05	31236.79
464.23	30232.70
464.41	30258.45
464.59	29762.25
464.78	31180.62
464.96	31255.51
465.14	30836.56
465.32	31613.62
465.50	32226.84
465.69	32671.54
465.87	31562.12
466.05	30960.61
466.23	29729.48
466.41	28971.15
466.60	29979.92
466.78	29750.55
466.96	30520.59
467.14	30972.31
467.32	31147.85
467.51	31463.82
467.69	30064.18
467.87	30642.29
468.05	31140.83
468.23	30944.22
468.41	31112.74
468.60	31360.84
468.78	31407.65
468.96	31105.72
469.14	31929.59
469.32	31644.04
469.50	30384.83
469.69	30768.68
469.87	30258.45
470.05	30118.01
470.23	30188.23
470.41	30305.26
470.59	30747.62
470.77	30953.58
470.95	31473.18
471.14	31878.10
471.32	31463.82
471.50	33591.37
471.68	33546.90
471.86	33851.17
472.04	33982.24
472.22	34197.57
472.40	32327.48
472.58	32385.99
472.77	31552.76
472.95	32725.37
473.13	33235.61
473.31	32673.88
473.49	32442.17
473.67	33558.60
473.85	33488.38
474.03	34455.03
474.21	34302.89
474.39	34490.13
474.57	34883.34
474.75	35077.61
474.93	34494.82
475.12	33881.60
475.30	33996.28
475.48	34277.15
475.66	34607.16
475.84	34408.22
476.02	33565.62
476.20	33280.08
476.38	33958.83
476.56	34974.63
476.74	35285.92
476.92	35660.40
477.10	35964.67
477.28	37209.84
477.46	37172.39
477.64	37624.11
477.82	37481.34
478.00	37853.48
478.18	37448.57
478.36	36971.10
478.54	36935.99
478.72	37450.91
478.90	38415.21
479.08	39218.02
479.26	39456.75
479.44	39515.26
479.62	39063.54
479.80	38878.64
479.98	39620.59
480.16	39742.30
480.34	39260.15
480.52	39922.52
480.70	39969.33
480.88	40149.55
481.06	40699.58
481.24	41017.89
481.41	41902.61
481.59	42258.37
481.77	42361.36
481.95	42066.45
482.13	41464.93
482.31	41413.44
482.49	42319.23
482.67	41970.49
482.85	41928.36
483.03	42756.91
483.21	43573.75
483.39	43115.01
483.57	42572.00
483.74	42412.85
483.92	42726.48
484.10	42852.87
484.28	43866.32
484.46	44325.07
484.64	44397.62
484.82	43559.71
485.00	43047.13
485.18	42368.38
485.35	41024.91
485.53	37886.25
485.71	34504.18
485.89	33944.79
486.07	35494.22
486.25	39063.54
486.43	41474.29
486.61	41799.63
486.78	41654.51
486.96	42136.66
487.14	43859.30
487.32	44533.37
487.50	45991.53
487.68	46820.08
487.85	47281.16
488.03	47306.91
488.21	46689.01
488.39	46127.28
488.57	45457.88
488.75	44463.16
488.92	46040.68
489.10	48914.86
489.28	50071.08
489.46	50578.98
489.64	50604.72
489.81	51002.61
489.99	50382.37
490.17	50117.89
490.35	50873.88
490.53	50073.42
490.70	49773.83
490.88	49839.37
491.06	50857.50
491.24	50965.17
491.41	49717.66
491.59	47632.24
491.77	46541.55
491.95	47854.59
492.13	49429.77
492.30	50740.47
492.48	51615.83
492.66	52648.01
492.84	52416.30
493.01	51798.40
493.19	51189.86
493.37	51243.69
493.54	50422.16
493.72	51405.19
493.90	52697.16
494.08	53303.36
494.25	53986.80
494.43	53745.72
494.61	54380.01
494.79	54553.21
494.96	54010.20
495.14	53528.05
495.32	52315.65
495.49	51760.95
495.67	52926.53
495.85	54286.39
496.02	54749.81
496.20	54616.40
496.38	54239.57
496.55	54054.67
496.73	54394.05
496.91	54508.74
497.09	55295.16
497.26	55454.31
497.44	55025.99
497.62	54323.83
497.79	53415.71
497.97	52294.59
498.14	52165.86
498.32	53357.19
498.50	54693.64
498.67	55030.68
498.85	54941.74
499.03	55199.19
499.20	55299.84
499.38	55704.75
499.56	55348.99
499.73	54571.93
499.91	54258.30
500.08	53986.80
500.26	52856.32
500.44	53277.61
500.61	54487.67
500.79	54115.53
500.97	53537.41
501.14	53448.47
501.32	53347.83
501.49	53609.97
501.67	53591.25
501.84	54185.74
502.02	54443.20
502.20	54873.86
502.37	54801.30
502.55	55121.96
502.72	55632.19
502.90	56088.60
503.07	55522.19
503.25	55320.90
503.43	54464.27
503.60	53607.63
503.78	52938.24
503.95	53539.75
504.13	54773.22
504.30	55800.71
504.48	55512.83
504.65	54972.16
504.83	55206.22
505.01	55742.20
505.18	56030.08
505.36	56961.62
505.53	56774.37
505.71	57195.67
505.88	57329.08
506.06	56491.17
506.23	56109.66
506.41	55777.31
506.58	56081.58
506.76	55882.63
506.93	56083.92
507.11	55679.00
507.28	55999.66
507.46	55318.56
507.63	54667.89
507.81	54426.82
507.98	54553.21
508.16	55475.38
508.33	55983.27
508.50	56582.45
508.68	56856.29
508.85	57186.31
509.03	57111.41
509.20	57066.94
509.38	56149.45
509.55	55458.99
509.73	55615.81
509.90	56189.24
510.08	56519.26
510.25	56418.61
510.42	56184.56
510.60	55962.21
510.77	56353.08
510.95	56825.87
511.12	56928.85
511.30	57247.16
511.47	57434.41
511.64	57542.07
511.82	57219.08
511.99	56198.60
512.17	56027.74
512.34	55353.67
512.51	55821.78
512.69	55957.53
512.86	56130.73
513.04	56484.15
513.21	56655.01
513.38	56149.45
513.56	55594.74
513.73	54927.69
513.90	55075.15
514.08	55231.96
514.25	55559.64
514.43	55697.73
514.60	55980.93
514.77	56025.40
514.95	56126.05
515.12	55833.48
515.29	56449.04
515.47	57022.47
515.64	57024.81
515.81	56470.11
515.99	56093.28
516.16	54403.41
516.33	51803.08
516.51	50115.55
516.68	49338.49
516.85	48800.17
517.03	49247.21
517.20	52341.40
517.37	55175.79
517.54	56051.15
517.72	55374.73
517.89	53169.95
518.06	50061.72
518.24	50714.73
518.41	53141.86
518.58	54438.52
518.75	54871.52
518.93	55049.40
519.10	54951.10
519.27	55278.77
519.45	55625.17
519.62	56278.18
519.79	56687.78
519.96	56362.44
520.14	55969.23
520.31	55091.53
520.48	55044.72
520.65	55484.74
520.83	56390.53
521.00	56931.19
521.17	56519.26
521.34	55938.80
521.52	56561.39
521.69	56928.85
521.86	57396.96
522.03	57165.24
522.20	55908.38
522.38	54958.12
522.55	54719.38
522.72	55393.46
522.89	55517.51
523.07	55664.96
523.24	56107.32
523.41	56830.55
523.58	57375.89
523.75	57738.68
523.92	57340.78
524.10	57488.24
524.27	57382.91
524.44	57233.12
524.61	57062.26
524.78	56893.74
524.96	56552.02
525.13	56755.65
525.30	56842.25
525.47	57251.84
525.64	57581.86
525.81	56596.49
525.98	55346.65
526.16	53558.48
526.33	52947.60
526.50	52222.03
526.67	52222.03
526.84	52750.99
527.01	53846.36
527.18	54637.47
527.36	55784.33
527.53	56467.76
527.70	56917.15
527.87	56266.48
528.04	55615.81
528.21	56179.88
528.38	56966.30
528.55	57776.12
528.72	57860.38
528.89	57977.41
529.07	57647.39
529.24	57272.91
529.41	56350.74
529.58	55887.31
529.75	55863.91
529.92	56580.11
530.09	56846.93
530.26	57368.87
530.43	57588.88
530.60	57581.86
530.77	57827.62
530.94	58094.44
531.11	57453.13
531.28	57190.99
531.46	57158.22
531.63	56898.42
531.80	56863.32
531.97	56435.00
532.14	55800.71
532.31	54691.30
532.48	53883.81
532.65	53752.74
532.82	54700.66
532.99	56278.18
533.16	56451.38
533.33	57013.11
533.50	56732.25
533.67	55924.76
533.84	55594.74
534.01	55835.82
534.18	56280.52
534.35	56390.53
534.52	56278.18
534.69	56423.29
534.86	56959.28
535.03	57102.05
535.20	57516.32
535.37	57834.64
535.54	57869.75
535.71	57427.38
535.88	57270.57
536.05	56676.07
536.22	56051.15
536.38	55889.65
536.55	55327.92
536.72	54637.47
536.89	54475.97
537.06	55592.40
537.23	56250.09
537.40	56708.84
537.57	56795.44
537.74	56509.89
537.91	56273.50
538.08	56236.05
538.25	56350.74
538.42	56598.83
538.59	56486.49
538.75	55756.24
538.92	55370.05
539.09	55377.08
539.26	55243.66
539.43	55117.28
539.60	55168.77
539.77	55400.48
539.94	55215.58
540.11	54298.09
540.28	53951.69
540.44	53715.29
540.61	53792.53
540.78	54473.63
540.95	55068.12
541.12	55065.78
541.29	55545.59
541.46	55861.57
541.62	55730.50
541.79	55510.49
541.96	55145.36
542.13	54894.92
542.30	55381.76
542.47	55454.31
542.63	55224.94
542.80	54887.90
542.97	55173.45
543.14	55126.64
543.31	54962.80
543.48	55819.44
543.64	56287.54
543.81	56722.88
543.98	56502.87
544.15	55800.71
544.32	55274.09
544.48	55199.19
544.65	55611.13
544.82	55994.98
544.99	55515.17
545.16	55327.92
545.32	54880.88
545.49	55894.33
545.66	56261.80
545.83	55910.72
546.00	55709.43
546.16	55124.30
546.33	55306.86
546.50	55339.63
546.67	55721.13
546.83	55341.97
547.00	55341.97
547.17	54602.36
547.34	54052.33
547.50	53764.45
547.67	54419.80
547.84	54361.28
548.00	54937.05
548.17	55388.78
548.34	55105.57
548.51	55105.57
548.67	55033.02
548.84	55304.52
549.01	55451.97
549.18	55103.23
549.34	55208.56
549.51	55033.02
549.68	55119.62
549.84	54681.94
550.01	54248.94
550.18	54387.03
550.34	54534.48
550.51	54742.79
550.68	54677.25
550.84	54141.27
551.01	54284.04
551.18	54295.75
551.34	54473.63
551.51	54864.50
551.68	55110.25
551.84	55077.49
552.01	55189.83
552.18	54983.86
552.34	54197.44
552.51	53642.74
552.68	53331.45
552.84	54213.83
553.01	54284.04
553.18	54220.85
553.34	54160.00
553.51	54609.38
553.67	54677.25
553.84	54862.16
554.01	54494.69
554.17	54852.80
554.34	54396.39
554.51	54499.37
554.67	55065.78
554.84	54901.95
555.00	54511.08
555.17	54464.27
555.33	54277.02
555.50	54225.53
555.67	54162.34
555.83	53865.09
556.00	53853.39
556.16	53743.38
556.33	53282.30
556.50	52783.76
556.66	53205.06
556.83	53041.22
556.99	53045.90
557.16	53450.81
557.32	53441.45
557.49	53684.87
557.65	53441.45
557.82	53251.87
557.98	53607.63
558.15	53071.65
558.32	52002.02
558.48	50946.44
558.65	51210.92
558.81	51526.89
558.98	52002.02
559.14	52325.02
559.31	52268.84
559.47	52498.22
559.64	51966.91
559.80	51138.36
559.97	51789.03
560.13	52009.04
560.30	53205.06
560.46	53970.41
560.63	54005.52
560.79	54171.70
560.96	53708.27
561.12	52203.31
561.29	51246.03
561.45	51330.29
561.61	51922.44
561.78	52273.52
561.94	52530.98
562.11	52282.89
562.27	52011.38
562.44	52137.77
562.60	52945.26
562.77	53095.05
562.93	52933.56
563.10	52816.53
563.26	52170.54
563.42	52219.69
563.59	51826.48
563.75	51812.44
563.92	51784.35
564.08	51945.85
564.24	52460.77
564.41	52296.93
564.57	52093.30
564.74	52034.79
564.90	51835.84
565.07	51688.39
565.23	51114.96
565.39	50485.36
565.56	50358.97
565.72	50087.46
565.88	50492.38
566.05	50721.75
566.21	50780.26
566.38	51124.32
566.54	51175.81
566.70	51695.41
566.87	52060.54
567.03	51800.74
567.19	52123.73
567.36	51753.93
567.52	51419.23
567.68	51388.80
567.85	50494.72
568.01	49762.13
568.17	49830.01
568.34	49762.13
568.50	49647.44
568.66	49703.62
568.83	50155.34
568.99	50122.57
569.15	50674.94
569.32	50653.87
569.48	49869.79
569.64	50031.29
569.81	50075.76
569.97	49483.61
570.13	49258.91
570.30	48776.76
570.46	48521.65
570.62	47885.02
570.78	47791.40
570.95	47611.18
571.11	48594.20
571.27	49116.14
571.43	48994.43
571.60	49525.74
571.76	50042.99
571.92	50106.19
572.09	50405.78
572.25	50155.34
572.41	50375.35
572.57	50309.82
572.74	50436.20
572.90	49514.03
573.06	49460.20
573.22	49862.77
573.38	49668.51
573.55	49724.68
573.71	50188.11
573.87	49691.91
574.03	49308.07
574.20	49565.52
574.36	49113.80
574.52	48844.64
574.68	48456.11
574.84	48294.61
575.01	47405.21
575.17	47512.88
575.33	47662.67
575.49	48128.44
575.65	48432.71
575.82	48278.23
575.98	47826.51
576.14	48273.55
576.30	48322.70
576.46	48336.74
576.62	48554.41
576.79	48474.84
576.95	47746.93
577.11	48252.48
577.27	47859.27
577.43	48093.33
577.59	47452.02
577.75	47400.53
577.92	46363.67
578.08	46066.42
578.24	46354.31
578.40	46279.41
578.56	47107.96
578.72	46780.29
578.88	47461.38
579.04	47501.17
579.21	47248.39
579.37	47215.63
579.53	47456.70
579.69	47784.38
579.85	47578.41
580.01	47269.46
580.17	47150.09
580.33	47145.41
580.49	46869.23
580.65	47388.83
580.82	47650.97
580.98	47428.62
581.14	47449.68
581.30	47578.41
581.46	47199.24
581.62	47880.34
581.78	47388.83
581.94	47915.45
582.10	47725.86
582.26	47480.11
582.42	48046.52
582.58	48095.67
582.74	47629.90
582.90	47810.12
583.06	47882.68
583.22	47510.53
583.38	47428.62
583.54	47199.24
583.70	47243.71
583.86	47407.55
584.02	47199.24
584.18	47016.68
584.34	46724.11
584.50	46899.65
584.66	46632.83
584.82	46143.66
584.98	46263.03
585.14	45537.46
585.30	44655.08
