SpectraSuite Data File
++++++++++++++++++++++++++++++++++++
Date: Mon Oct 07 14:53:04 GMT-05:00 2013
User: price-jones
Dark Spectrum Present: No
Reference Spectrum Present: No
Number of Sampled Component Spectra: 1
Spectrometers: USB2+H05261
Integration Time (usec): 100000 (USB2+H05261)
Spectra Averaged: 1 (USB2+H05261)
Boxcar Smoothing: 0 (USB2+H05261)
Correct for Electrical Dark: No (USB2+H05261)
Strobe/Lamp Enabled: No (USB2+H05261)
Correct for Detector Non-linearity: No (USB2+H05261)
Correct for Stray Light: No (USB2+H05261)
Number of Pixels in Processed Spectrum: 2048
>>>>>Begin Processed Spectral Data<<<<<
365.73	0.00
365.92	0.00
366.12	0.00
366.32	0.00
366.52	0.00
366.72	0.00
366.91	0.00
367.11	0.00
367.31	0.00
367.51	0.00
367.70	0.00
367.90	0.00
368.10	0.00
368.30	0.00
368.49	0.00
368.69	0.00
368.89	0.00
369.09	0.00
369.28	0.00
369.48	0.00
369.68	0.00
369.87	0.00
370.07	0.00
370.27	0.00
370.47	411.93
370.66	2417.77
370.86	2839.07
371.06	3075.46
371.25	2986.52
371.45	2761.83
371.65	2576.93
371.84	2366.28
372.04	2600.34
372.24	2731.41
372.44	2942.05
372.63	3000.57
372.83	2689.28
373.03	2342.88
373.22	2183.72
373.42	2324.15
373.62	2745.45
373.81	2881.20
374.01	2733.75
374.21	2609.70
374.40	2354.58
374.60	2518.42
374.79	2815.66
374.99	3267.39
375.19	3653.58
375.38	3559.95
375.58	3304.84
375.78	3234.62
375.97	3403.14
376.17	3524.85
376.37	3468.67
376.56	3473.36
376.76	3962.53
376.95	3990.61
377.15	4327.65
377.35	4533.62
377.54	4643.62
377.74	4847.25
377.93	4730.22
378.13	4758.31
378.33	4521.92
378.52	4198.92
378.72	3985.93
378.91	3815.07
379.11	3740.18
379.31	3599.74
379.50	3665.28
379.70	4009.34
379.89	4252.75
380.09	4641.28
380.28	4688.09
380.48	4800.44
380.68	4510.21
380.87	4489.15
381.07	4203.60
381.26	3887.63
381.46	3599.74
381.65	3492.08
381.85	3297.81
382.04	3314.20
382.24	3096.53
382.43	2841.41
382.63	2661.19
382.83	2876.52
383.02	2913.97
383.22	2789.92
383.41	2874.18
383.61	2974.82
383.80	3581.02
384.00	4088.92
384.19	4507.87
384.39	4748.95
384.58	4676.39
384.78	4315.95
384.97	4514.89
385.17	4339.35
385.36	4142.75
385.56	3936.78
385.75	3946.14
385.95	4329.99
386.14	4847.25
386.34	4844.91
386.53	4454.04
386.72	4320.63
386.92	4227.01
387.11	4531.28
387.31	4849.59
387.50	4702.14
387.70	4440.00
387.89	4617.88
388.09	4683.41
388.28	4547.66
388.48	4695.11
388.67	5050.88
388.86	5486.22
389.06	5914.53
389.25	6061.99
389.45	6211.78
389.64	6057.31
389.84	5963.68
390.03	5933.26
390.22	6108.80
390.42	6228.17
390.61	6654.14
390.81	7199.49
391.00	7227.57
391.19	7183.10
391.39	6974.80
391.58	6544.14
391.78	5998.79
391.97	5926.24
392.16	5593.88
392.36	5109.39
392.55	3999.98
392.75	3269.73
392.94	2628.42
393.13	2616.72
393.33	3049.72
393.52	4086.58
393.71	4856.61
393.91	5575.16
394.10	6008.16
394.29	6494.99
394.49	7089.48
394.68	7634.83
394.88	7571.63
395.07	7990.59
395.26	8004.63
395.46	7501.42
395.65	7192.47
395.84	6204.76
396.04	5226.42
396.23	4269.14
396.42	3517.83
396.62	3370.37
396.81	4056.15
397.00	5210.03
397.19	6448.18
397.39	7716.75
397.58	8643.60
397.77	9111.71
397.97	9334.06
398.16	9533.00
398.35	9755.35
398.55	10167.29
398.74	10527.73
398.93	10743.06
399.12	10464.54
399.32	10321.76
399.51	10551.14
399.70	11037.97
399.90	11084.78
400.09	10867.11
400.28	11019.24
400.47	11143.29
400.67	11524.80
400.86	11786.94
401.05	12016.31
401.24	11889.92
401.44	12173.13
401.63	12301.86
401.82	12215.26
402.01	12170.79
402.21	12423.56
402.40	12233.98
402.59	12081.85
402.78	11389.05
402.97	11059.03
403.17	11587.99
403.36	12243.34
403.55	12772.30
403.74	13071.89
403.93	12702.09
404.13	11445.22
404.32	11403.09
404.51	11559.91
404.70	12666.98
404.89	12629.53
405.09	12362.71
405.28	12079.50
405.47	12273.77
405.66	12060.78
405.85	11751.83
406.05	11531.82
406.24	11655.87
406.43	11960.14
406.62	12559.31
406.81	12587.40
407.00	12278.45
407.20	11955.46
407.39	12028.01
407.58	12564.00
407.77	12919.76
407.96	13310.63
408.15	13357.44
408.34	13624.26
408.54	14352.16
408.73	14307.69
408.92	14066.62
409.11	13540.00
409.30	13013.38
409.49	12147.38
409.68	11480.33
409.87	11052.01
410.07	11782.26
410.26	12915.08
410.45	13710.86
410.64	13937.89
410.83	14382.59
411.02	14707.93
411.21	15098.80
411.40	14792.19
411.59	15302.42
411.78	14911.55
411.98	14752.40
412.17	15096.46
412.36	14511.32
412.55	14899.85
412.74	14445.79
412.93	14174.28
413.12	14265.57
413.31	15836.06
413.50	15754.15
413.69	16217.57
413.88	15239.23
414.07	15246.25
414.26	15218.16
414.45	15838.41
414.64	15800.96
414.83	15754.15
415.02	15473.28
415.22	15480.30
415.41	15709.68
415.60	16554.61
415.79	16966.54
415.98	17642.96
416.17	17413.59
416.36	16765.26
416.55	16798.02
416.74	16149.70
416.93	15587.97
417.12	15569.24
417.31	15665.21
417.50	16182.46
417.69	16833.13
417.88	16493.76
418.07	16688.02
418.26	16109.91
418.45	16355.66
418.64	17099.95
418.83	17624.23
419.02	17172.51
419.21	17188.89
419.39	16348.64
419.58	15681.59
419.77	15609.03
419.96	16634.19
420.15	17362.09
420.34	17774.03
420.53	18469.17
420.72	18696.20
420.91	18787.48
421.10	18068.94
421.29	18228.09
421.48	17589.13
421.67	18696.20
421.86	17837.22
422.05	16428.22
422.24	14750.06
422.43	14787.50
422.61	16493.76
422.80	17905.10
422.99	17750.62
423.18	17198.26
423.37	16561.63
423.56	16872.92
423.75	17298.90
423.94	17429.97
424.13	16498.44
424.32	16514.82
424.50	16730.15
424.69	16723.13
424.88	16568.65
425.07	16613.12
425.26	16636.53
425.45	16489.07
425.64	15709.68
425.83	16102.89
426.01	17247.41
426.20	17364.43
426.39	17472.10
426.58	16032.67
426.77	14909.21
426.96	14389.61
427.15	14939.64
427.33	16133.31
427.52	16744.19
427.71	16631.85
427.90	16681.00
428.09	16456.31
428.28	16053.73
428.46	15456.90
428.65	15356.25
428.84	15733.08
429.03	16201.19
429.22	15150.29
429.40	14532.39
429.59	12966.57
429.78	11552.88
429.97	11384.37
430.16	11667.57
430.34	11810.34
430.53	11992.90
430.72	11798.64
430.91	13469.78
431.10	15861.81
431.28	18310.01
431.47	19754.12
431.66	20191.80
431.85	18256.18
432.03	16868.24
432.22	16063.10
432.41	16842.50
432.60	18686.84
432.79	19564.54
432.97	19606.67
433.16	19508.37
433.35	17434.65
433.54	15793.94
433.72	14803.89
433.91	15513.07
434.10	17226.34
434.28	18429.38
434.47	19269.63
434.66	19030.90
434.85	18787.48
435.03	18492.57
435.22	19105.79
435.41	20348.62
435.59	20271.38
435.78	20847.15
435.97	21324.62
436.16	21053.12
436.34	20601.40
436.53	20332.23
436.72	20205.84
436.90	18890.46
437.09	19255.59
437.28	18733.65
437.46	19702.63
437.65	19417.08
437.84	17923.82
438.02	16727.81
438.21	16734.83
438.40	17858.29
438.58	19215.80
438.77	19417.08
438.96	20093.50
439.14	20636.50
439.33	20973.54
439.52	21563.36
439.70	20959.50
439.89	20180.10
440.08	19709.65
440.26	19875.83
440.45	20400.11
440.63	21923.80
440.82	23140.88
441.01	22675.11
441.19	22548.72
441.38	22951.29
441.57	23812.61
441.75	24210.50
441.94	24224.54
442.12	23714.31
442.31	24149.65
442.50	24247.95
442.68	24315.83
442.87	23686.22
443.05	23431.10
443.24	23852.40
443.43	24285.40
443.61	24669.25
443.80	24980.54
443.98	23648.77
444.17	23566.85
444.35	24826.06
444.54	25486.09
444.73	25207.57
444.91	24016.24
445.10	22747.67
445.28	22328.71
445.47	21797.41
445.65	22036.14
445.84	22300.62
446.02	23428.76
446.21	23506.00
446.39	23726.01
446.58	24121.56
446.77	24503.07
446.95	24819.04
447.14	25521.20
447.32	25766.96
447.51	25268.42
447.69	24203.48
447.88	24004.53
448.06	24542.86
448.25	24907.98
448.43	24912.66
448.62	24613.07
448.80	24507.75
448.99	24507.75
449.17	25060.12
449.36	24868.19
449.54	25607.80
449.73	26019.74
449.91	26375.50
450.10	27047.23
450.28	27283.62
450.46	27274.26
450.65	27569.17
450.83	27468.53
451.02	26497.20
451.20	26785.09
451.39	26508.91
451.57	26394.22
451.76	26230.38
451.94	25923.77
452.13	25521.20
452.31	24318.17
452.49	23594.94
452.68	23522.38
452.86	23779.84
453.05	24032.62
453.23	24875.21
453.42	25195.87
453.60	25841.85
453.78	25979.95
453.97	26026.76
454.15	25738.87
454.34	25502.48
454.52	25441.62
454.70	25050.75
454.89	25308.21
455.07	25343.32
455.26	25776.32
455.44	26649.34
455.62	26808.50
455.81	27318.73
455.99	26969.99
456.17	26728.92
456.36	26562.74
456.54	27690.88
456.73	27690.88
456.91	28332.18
457.09	27737.69
457.28	28294.74
457.46	27225.11
457.64	27283.62
457.83	26553.38
458.01	25645.25
458.19	26778.07
458.38	26848.29
458.56	27714.28
458.74	27491.93
458.93	27218.09
459.11	27218.09
459.29	26991.06
459.48	26686.79
459.66	26745.30
459.84	27527.04
460.03	27796.20
460.21	27367.88
460.39	28404.74
460.57	28259.63
460.76	28629.43
460.94	28540.49
461.12	27896.85
461.31	28252.61
461.49	28240.90
461.67	28283.03
461.85	29502.45
462.04	28907.96
462.22	29500.11
462.40	28741.78
462.59	28606.03
462.77	28795.61
462.95	28893.91
463.13	28470.28
463.32	28266.65
463.50	28032.60
463.68	28386.02
463.86	28191.75
464.05	28027.92
464.23	26836.58
464.41	26911.48
464.59	26883.39
464.78	27957.70
464.96	27728.33
465.14	27744.71
465.32	28561.56
465.50	29450.96
465.69	29401.81
465.87	28643.48
466.05	27695.56
466.23	26614.23
466.41	26197.62
466.60	26651.68
466.78	26845.94
466.96	27672.15
467.14	27999.83
467.32	28346.23
467.51	28325.16
467.69	27047.23
467.87	27903.87
468.05	28105.15
468.23	28041.96
468.41	28048.98
468.60	28163.67
468.78	28147.28
468.96	27941.32
469.14	28547.51
469.32	28987.53
469.50	27388.95
469.69	28037.28
469.87	27510.66
470.05	27037.87
470.23	27459.16
470.41	27370.22
470.59	27805.56
470.77	27943.66
470.95	28348.57
471.14	29043.71
471.32	28926.68
471.50	30127.38
471.68	30120.35
471.86	30932.52
472.04	30756.98
472.22	30834.22
472.40	29567.99
472.58	29134.99
472.77	28968.81
472.95	29252.02
473.13	30338.02
473.31	29450.96
473.49	29762.25
473.67	30195.25
473.85	30347.39
474.03	31175.94
474.21	31103.38
474.39	31463.82
474.57	31522.34
474.75	31250.83
474.93	31356.16
475.12	30579.10
475.30	30452.71
475.48	30778.04
475.66	31559.78
475.84	31070.61
476.02	30756.98
476.20	30363.77
476.38	30969.97
476.56	31981.08
476.74	32423.44
476.92	32566.21
477.10	32858.78
477.28	33972.88
477.46	33692.01
477.64	34237.36
477.82	34220.97
478.00	34452.69
478.18	33853.51
478.36	33605.41
478.54	33984.58
478.72	34085.22
478.90	34710.14
479.08	36102.76
479.26	35983.40
479.44	36313.41
479.62	35779.77
479.80	36385.97
479.98	35849.99
480.16	36397.67
480.34	36140.21
480.52	36341.50
480.70	36870.46
480.88	36500.65
481.06	37223.88
481.24	37514.11
481.41	38211.59
481.59	38815.44
481.77	38366.06
481.95	38190.52
482.13	37998.60
482.31	38253.72
482.49	38335.63
482.67	38515.86
482.85	38806.08
483.03	39068.22
483.21	39262.49
483.39	39796.13
483.57	38883.32
483.74	38553.30
483.92	39192.27
484.10	39189.93
484.28	40051.25
484.46	40367.22
484.64	40907.88
484.82	40226.79
485.00	39318.66
485.18	38234.99
485.35	37113.87
485.53	34525.24
485.71	31697.88
485.89	31353.82
486.07	33310.50
486.25	35711.89
486.43	37804.33
486.61	38356.70
486.78	38541.60
486.96	38714.80
487.14	39885.07
487.32	41897.93
487.50	42464.34
487.68	43353.74
487.85	43749.29
488.03	43445.02
488.21	43110.33
488.39	42237.31
488.57	42087.51
488.75	41233.22
488.92	42967.55
489.10	45567.89
489.28	46466.66
489.46	47924.81
489.64	47571.39
489.81	47878.00
489.99	47196.90
490.17	47028.38
490.35	47985.66
490.53	46887.95
490.70	46794.33
490.88	46752.20
491.06	47681.39
491.24	47758.63
491.41	45820.67
491.59	44144.84
491.77	43241.40
491.95	44734.66
492.13	46181.11
492.30	47810.12
492.48	49029.54
492.66	49315.09
492.84	49301.04
493.01	49340.83
493.19	48442.07
493.37	48013.75
493.54	47414.57
493.72	48760.38
493.90	50003.20
494.08	51058.79
494.25	50972.19
494.43	51000.27
494.61	51674.35
494.79	51948.19
494.96	51576.04
495.14	50892.61
495.32	49584.25
495.49	48809.53
495.67	50417.48
495.85	52062.88
496.02	52243.10
496.20	52413.96
496.38	51817.12
496.55	51510.51
496.73	52006.70
496.91	52072.24
497.09	52657.37
497.26	53343.15
497.44	52638.65
497.62	51470.72
497.79	50841.12
497.97	49530.42
498.14	49853.41
498.32	51250.71
498.50	52023.09
498.67	52905.47
498.85	52781.42
499.03	53041.22
499.20	53324.43
499.38	53179.31
499.56	53003.77
499.73	52224.37
499.91	51618.17
500.08	51040.06
500.26	50625.79
500.44	51110.28
500.61	51856.91
500.79	51480.08
500.97	51136.02
501.14	51313.90
501.32	50848.14
501.49	50827.07
501.67	51159.43
501.84	51730.52
502.02	52437.36
502.20	52626.95
502.37	52573.11
502.55	52811.85
502.72	53352.51
502.90	53872.11
503.07	53450.81
503.25	53097.39
503.43	52287.57
503.60	51412.21
503.78	50365.99
503.95	51145.39
504.13	52980.37
504.30	53551.46
504.48	53172.29
504.65	53092.71
504.83	53118.46
505.01	53965.73
505.18	54068.72
505.36	54721.72
505.53	54834.07
505.71	55014.29
505.88	55054.08
506.06	54218.51
506.23	54122.55
506.41	53792.53
506.58	54197.44
506.76	53918.92
506.93	53624.01
507.11	53439.11
507.28	53968.07
507.46	53265.91
507.63	52865.68
507.81	52423.32
507.98	52779.08
508.16	53642.74
508.33	54267.66
508.50	54487.67
508.68	54688.96
508.85	54962.80
509.03	55227.28
509.20	55152.38
509.38	54045.31
509.55	53408.68
509.73	53652.10
509.90	54258.30
510.08	54635.13
510.25	54513.42
510.42	54281.70
510.60	54096.80
510.77	54475.97
510.95	55049.40
511.12	55236.64
511.30	55435.59
511.47	55533.89
511.64	55735.18
511.82	55320.90
511.99	54408.09
512.17	53736.36
512.34	53485.92
512.51	53855.73
512.69	53841.68
512.86	54066.38
513.04	54679.60
513.21	54482.99
513.38	54274.68
513.56	53680.19
513.73	53010.79
513.90	53277.61
514.08	53221.44
514.25	53574.86
514.43	53979.78
514.60	54124.89
514.77	54136.59
514.95	54190.42
515.12	54223.19
515.29	54241.92
515.47	54925.35
515.64	55262.39
515.81	54770.88
515.99	53982.12
516.16	51971.60
516.33	49270.62
516.51	47782.04
516.68	46609.43
516.85	46178.77
517.03	47182.86
517.20	50281.73
517.37	53329.11
517.54	54141.27
517.72	53441.45
517.89	50447.91
518.06	47964.60
518.24	48671.44
518.41	51351.35
518.58	52750.99
518.75	52868.02
518.93	53052.92
519.10	53073.99
519.27	53495.28
519.45	53942.33
519.62	54553.21
519.79	54937.05
519.96	54939.39
520.14	54277.02
520.31	53256.55
520.48	53214.42
520.65	53790.19
520.83	54911.31
521.00	55121.96
521.17	54520.44
521.34	54363.62
521.52	54630.44
521.69	55402.82
521.86	55767.94
522.03	55246.00
522.20	53965.73
522.38	52800.15
522.55	53027.18
522.72	53694.23
522.89	53783.17
523.07	54162.34
523.24	54239.57
523.41	55433.25
523.58	55838.16
523.75	56198.60
523.92	55938.80
524.10	55709.43
524.27	55880.29
524.44	55737.52
524.61	55346.65
524.78	55451.97
524.96	55285.79
525.13	55334.95
525.30	55526.87
525.47	55737.52
525.64	55641.56
525.81	55145.36
525.98	53565.50
526.16	51760.95
526.33	51206.24
526.50	50759.20
526.67	50120.23
526.84	51325.61
527.01	52200.97
527.18	53270.59
527.36	54237.23
527.53	55112.59
527.70	55400.48
527.87	54941.74
528.04	54499.37
528.21	55023.65
528.38	55711.77
528.55	56161.15
528.72	56435.00
528.89	56622.24
529.07	56226.69
529.24	55767.94
529.41	54965.14
529.58	54382.35
529.75	54326.17
529.92	54890.24
530.09	55590.06
530.26	55796.03
530.43	56236.05
530.60	56161.15
530.77	56350.74
530.94	56357.76
531.11	55861.57
531.28	55707.09
531.46	55463.67
531.63	55618.15
531.80	55229.62
531.97	54707.68
532.14	54291.07
532.31	52718.23
532.48	52317.99
532.65	52477.15
532.82	53616.99
532.99	54436.18
533.16	54803.64
533.33	55428.57
533.50	55220.26
533.67	54656.19
533.84	54391.71
534.01	54571.93
534.18	54841.09
534.35	55068.12
534.52	54784.92
534.69	55011.95
534.86	55344.31
535.03	55746.88
535.20	56226.69
535.37	56275.84
535.54	56633.94
535.71	56130.73
535.88	55845.18
536.05	55096.21
536.22	54780.24
536.38	54281.70
536.55	53654.44
536.72	53160.59
536.89	53146.54
537.06	54117.87
537.23	55112.59
537.40	55458.99
537.57	55545.59
537.74	55056.42
537.91	54981.52
538.08	54913.65
538.25	55093.87
538.42	55348.99
538.59	54885.56
538.75	54389.37
538.92	54216.17
539.09	53869.77
539.26	53801.89
539.43	53724.66
539.60	53806.58
539.77	54227.87
539.94	53867.43
540.11	52472.47
540.28	52332.04
540.44	52215.01
540.61	52493.54
540.78	53055.26
540.95	53504.65
541.12	53998.50
541.29	54251.28
541.46	54672.57
541.62	54595.34
541.79	54344.90
541.96	53640.40
542.13	53546.78
542.30	54169.36
542.47	54213.83
542.63	54115.53
542.80	53825.30
542.97	53914.24
543.14	53801.89
543.31	53748.06
543.48	54213.83
543.64	55213.24
543.81	55517.51
543.98	55395.80
544.15	54656.19
544.32	53855.73
544.48	53895.52
544.65	54583.63
544.82	54822.37
544.99	54398.73
545.16	54066.38
545.32	54085.10
545.49	54742.79
545.66	55086.85
545.83	54403.41
546.00	54122.55
546.16	53883.81
546.33	54340.22
546.50	54162.34
546.67	54674.91
546.83	54195.10
547.00	54026.59
547.17	53174.63
547.34	52633.97
547.50	52886.74
547.67	53277.61
547.84	53258.89
548.00	53776.15
548.17	54202.13
548.34	54064.03
548.51	53982.12
548.67	54096.80
548.84	54019.56
549.01	53996.16
549.18	54045.31
549.34	54241.92
549.51	53989.14
549.68	53736.36
549.84	53581.88
550.01	53591.25
550.18	53291.66
550.34	53659.12
550.51	53574.86
550.68	53647.42
550.84	53200.38
551.01	53523.37
551.18	53317.40
551.34	53656.78
551.51	53979.78
551.68	54265.32
551.84	54122.55
552.01	54019.56
552.18	53621.67
552.34	52748.65
552.51	52823.55
552.68	52420.98
552.84	52900.79
553.01	53181.65
553.18	52966.32
553.34	53352.51
553.51	53464.86
553.67	53694.23
553.84	53731.68
554.01	53717.64
554.17	53584.22
554.34	53834.66
554.51	53748.06
554.67	54260.64
554.84	53652.10
555.00	53539.75
555.17	53378.26
555.33	53078.67
555.50	53497.62
555.67	53691.89
555.83	52942.92
556.00	52755.68
556.16	52446.72
556.33	52121.39
556.50	51854.57
556.66	52020.75
556.83	51639.24
556.99	52034.79
557.16	52048.83
557.32	52570.77
557.49	52884.40
557.65	52767.38
557.82	52694.82
557.98	52430.34
558.15	51737.54
558.32	50838.78
558.48	49851.07
558.65	50298.11
558.81	50763.88
558.98	51098.58
559.14	51292.84
559.31	51536.26
559.47	51370.08
559.64	50932.40
559.80	50726.43
559.97	50735.79
560.13	51388.80
560.30	52123.73
560.46	52938.24
560.63	53235.48
560.79	53181.65
560.96	52655.03
561.12	51468.38
561.29	50239.60
561.45	50506.42
561.61	51374.76
561.78	51746.90
561.94	51484.76
562.11	51276.46
562.27	51096.24
562.44	51789.03
562.60	51779.67
562.77	52416.30
562.93	51985.64
563.10	51924.78
563.26	51370.08
563.42	51292.84
563.59	51070.49
563.75	51210.92
563.92	50693.66
564.08	50976.87
564.24	51489.45
564.41	51372.42
564.57	51688.39
564.74	51173.47
564.90	51058.79
565.07	50553.23
565.23	50120.23
565.39	49584.25
565.56	49434.45
565.72	48999.12
565.88	49776.17
566.05	49787.88
566.21	50068.74
566.38	50087.46
566.54	50185.77
566.70	50670.26
566.87	51044.74
567.03	51180.49
567.19	51089.21
567.36	50913.67
567.52	50883.25
567.68	50520.46
567.85	49572.55
568.01	49329.13
568.17	48725.27
568.34	49001.46
568.50	48767.40
568.66	48912.52
568.83	49635.74
568.99	49368.92
569.15	49897.88
569.32	49986.82
569.48	49432.11
569.64	49090.40
569.81	48928.90
569.97	48715.91
570.13	48797.83
570.30	48034.81
570.46	47388.83
570.62	46614.11
570.78	46941.78
570.95	47185.20
571.11	48083.97
571.27	48399.94
571.43	48765.06
571.60	49052.95
571.76	48624.63
571.92	49097.42
572.09	49624.04
572.25	49837.03
572.41	49478.92
572.57	49212.10
572.74	49265.94
572.90	48837.62
573.06	48762.72
573.22	48837.62
573.38	49317.43
573.55	48832.94
573.71	49268.28
573.87	48704.21
574.03	48509.94
574.20	48650.38
574.36	48491.22
574.52	48027.79
574.68	47775.02
574.84	47590.11
575.01	46770.93
575.17	46988.60
575.33	47276.48
575.49	47454.36
575.65	47384.15
575.82	47529.26
575.98	46768.58
576.14	47555.00
576.30	47679.05
576.46	47655.65
576.62	47931.83
576.79	47983.32
576.95	47655.65
577.11	47274.14
577.27	47239.03
577.43	47325.63
577.59	46873.91
577.75	46665.60
577.92	45855.78
578.08	45558.53
578.24	45528.10
578.40	46138.98
578.56	46452.61
578.72	46216.22
578.88	46436.23
579.04	46834.12
579.21	46824.76
579.37	47000.30
579.53	47068.17
579.69	46934.76
579.85	47143.07
580.01	46787.31
580.17	45832.37
580.33	46167.07
580.49	46651.56
580.65	47014.34
580.82	47330.31
580.98	47154.77
581.14	46693.69
581.30	47157.11
581.46	46712.41
581.62	47110.30
581.78	47096.26
581.94	47271.80
582.10	47028.38
582.26	47550.32
582.42	47112.64
582.58	47180.52
582.74	47365.42
582.90	47297.55
583.06	47428.62
583.22	46894.97
583.38	46698.37
583.54	46555.60
583.70	46611.77
583.86	46693.69
584.02	46279.41
584.18	46457.29
584.34	46756.88
584.50	46670.28
584.66	46415.16
584.82	45713.00
584.98	45965.78
585.14	44828.28
585.30	44634.02
