SpectraSuite Data File
++++++++++++++++++++++++++++++++++++
Date: Mon Oct 07 14:54:58 GMT-05:00 2013
User: price-jones
Dark Spectrum Present: No
Reference Spectrum Present: No
Number of Sampled Component Spectra: 1
Spectrometers: USB2+H05261
Integration Time (usec): 10000 (USB2+H05261)
Spectra Averaged: 1 (USB2+H05261)
Boxcar Smoothing: 0 (USB2+H05261)
Correct for Electrical Dark: No (USB2+H05261)
Strobe/Lamp Enabled: No (USB2+H05261)
Correct for Detector Non-linearity: No (USB2+H05261)
Correct for Stray Light: No (USB2+H05261)
Number of Pixels in Processed Spectrum: 2048
>>>>>Begin Processed Spectral Data<<<<<
365.73	0.00
365.92	0.00
366.12	0.00
366.32	0.00
366.52	0.00
366.72	0.00
366.91	0.00
367.11	0.00
367.31	0.00
367.51	0.00
367.70	0.00
367.90	0.00
368.10	0.00
368.30	0.00
368.49	0.00
368.69	0.00
368.89	0.00
369.09	0.00
369.28	0.00
369.48	0.00
369.68	0.00
369.87	0.00
370.07	0.00
370.27	0.00
370.47	0.00
370.66	140.43
370.86	191.92
371.06	194.26
371.25	273.84
371.45	220.01
371.65	110.01
371.84	79.58
372.04	133.41
372.24	189.58
372.44	278.52
372.63	294.91
372.83	159.16
373.03	173.20
373.22	173.20
373.42	102.98
373.62	248.10
373.81	231.71
374.01	220.01
374.21	248.10
374.40	224.69
374.60	177.88
374.79	154.48
374.99	327.68
375.19	400.23
375.38	332.36
375.58	351.08
375.78	383.85
375.97	325.33
376.17	280.86
376.37	334.70
376.56	290.23
376.76	299.59
376.95	383.85
377.15	409.59
377.35	468.11
377.54	531.30
377.74	521.94
377.93	512.58
378.13	519.60
378.33	465.77
378.52	451.72
378.72	388.53
378.91	402.57
379.11	315.97
379.31	322.99
379.50	262.14
379.70	388.53
379.89	456.40
380.09	418.96
380.28	484.49
380.48	470.45
380.68	505.56
380.87	451.72
381.07	318.31
381.26	346.40
381.46	332.36
381.65	348.74
381.85	220.01
382.04	255.12
382.24	222.35
382.43	241.08
382.63	170.86
382.83	224.69
383.02	98.30
383.22	227.03
383.41	227.03
383.61	208.31
383.80	322.99
384.00	348.74
384.19	449.38
384.39	423.64
384.58	510.24
384.78	458.74
384.97	411.93
385.17	402.57
385.36	416.62
385.56	341.72
385.75	454.06
385.95	409.59
386.14	461.09
386.34	456.40
386.53	475.13
386.72	496.19
386.92	414.27
387.11	503.22
387.31	510.24
387.50	557.05
387.70	470.45
387.89	547.69
388.09	507.90
388.28	514.92
388.48	496.19
388.67	592.16
388.86	648.33
389.06	678.76
389.25	711.52
389.45	688.12
389.64	711.52
389.84	678.76
390.03	627.26
390.22	669.39
390.42	704.50
390.61	786.42
390.81	774.72
391.00	830.89
391.19	837.91
391.39	664.71
391.58	711.52
391.78	727.91
391.97	690.46
392.16	571.09
392.36	479.81
392.55	297.25
392.75	294.91
392.94	231.71
393.13	79.58
393.33	238.73
393.52	390.87
393.71	514.92
393.91	610.88
394.10	720.88
394.29	725.57
394.49	737.27
394.68	826.21
394.88	844.93
395.07	940.90
395.26	828.55
395.46	814.51
395.65	844.93
395.84	596.84
396.04	510.24
396.23	379.17
396.42	294.91
396.62	243.42
396.81	353.42
397.00	573.43
397.19	718.54
397.39	847.27
397.58	1039.20
397.77	1067.28
397.97	1064.94
398.16	1116.44
398.35	1200.69
398.55	1238.14
398.74	1284.95
398.93	1291.98
399.12	1203.04
399.32	1329.42
399.51	1256.87
399.70	1359.85
399.90	1317.72
400.09	1336.45
400.28	1378.58
400.47	1362.19
400.67	1390.28
400.86	1540.07
401.05	1441.77
401.24	1526.03
401.44	1451.13
401.63	1469.86
401.82	1476.88
402.01	1479.22
402.21	1479.22
402.40	1507.30
402.59	1476.88
402.78	1303.68
402.97	1310.70
403.17	1460.49
403.36	1605.61
403.55	1647.74
403.74	1591.56
403.93	1549.43
404.13	1306.02
404.32	1282.61
404.51	1413.68
404.70	1507.30
404.89	1565.82
405.09	1420.71
405.28	1474.54
405.47	1502.62
405.66	1467.52
405.85	1420.71
406.05	1366.87
406.24	1420.71
406.43	1446.45
406.62	1458.15
406.81	1521.35
407.00	1355.17
407.20	1348.15
407.39	1364.53
407.58	1467.52
407.77	1598.59
407.96	1568.16
408.15	1645.40
408.34	1589.22
408.54	1636.03
408.73	1788.17
408.92	1699.23
409.11	1689.87
409.30	1561.14
409.49	1397.30
409.68	1357.51
409.87	1322.40
410.07	1378.58
410.26	1589.22
410.45	1504.96
410.64	1614.97
410.83	1839.66
411.02	1720.29
411.21	1788.17
411.40	1743.70
411.59	1790.51
411.78	1701.57
411.98	1769.44
412.17	1844.34
412.36	1839.66
412.55	1844.34
412.74	1668.80
412.93	1610.29
413.12	1696.89
413.31	1792.85
413.50	1926.26
413.69	1888.81
413.88	1834.98
414.07	1823.28
414.26	1879.45
414.45	1907.54
414.64	1909.88
414.83	1856.04
415.02	1788.17
415.22	1846.68
415.41	1893.49
415.60	1942.64
415.79	1973.07
415.98	2066.69
416.17	2127.55
416.36	2026.90
416.55	2083.08
416.74	1949.67
416.93	1818.60
417.12	1865.41
417.31	1940.30
417.50	2012.86
417.69	1900.52
417.88	1996.48
418.07	1980.09
418.26	1998.82
418.45	1968.39
418.64	2019.88
418.83	2008.18
419.02	2019.88
419.21	1963.71
419.39	1970.73
419.58	1830.30
419.77	1818.60
419.96	1874.77
420.15	2017.54
420.34	2136.91
420.53	2193.08
420.72	2272.66
420.91	2190.74
421.10	2129.89
421.29	2167.34
421.48	2062.01
421.67	2132.23
421.86	2052.65
422.05	1968.39
422.24	1685.19
422.43	1827.96
422.61	1994.14
422.80	2101.80
422.99	2179.04
423.18	2069.03
423.37	2022.22
423.56	2022.22
423.75	1914.56
423.94	2003.50
424.13	1944.99
424.32	1989.46
424.50	1987.11
424.69	1947.33
424.88	1956.69
425.07	1863.07
425.26	1792.85
425.45	2008.18
425.64	1797.53
425.83	1816.26
426.01	1928.60
426.20	1973.07
426.39	1870.09
426.58	1825.62
426.77	1713.27
426.96	1638.38
427.15	1713.27
427.33	1895.83
427.52	1959.03
427.71	1914.56
427.90	1952.01
428.09	1834.98
428.28	1827.96
428.46	1813.92
428.65	1710.93
428.84	1654.76
429.03	1858.39
429.22	1727.32
429.40	1696.89
429.59	1352.83
429.78	1233.46
429.97	1296.66
430.16	1306.02
430.34	1224.10
430.53	1242.82
430.72	1289.64
430.91	1586.88
431.10	1750.72
431.28	2174.36
431.47	2356.92
431.66	2335.85
431.85	2162.66
432.03	1954.35
432.22	1806.89
432.41	1912.22
432.60	2076.06
432.79	2181.38
432.97	2263.30
433.16	2176.70
433.35	2073.71
433.54	1750.72
433.72	1593.90
433.91	1673.48
434.10	1959.03
434.28	2012.86
434.47	2188.40
434.66	2239.89
434.85	2136.91
435.03	2172.02
435.22	2188.40
435.41	2307.77
435.59	2354.58
435.78	2385.01
435.97	2289.04
436.16	2455.22
436.34	2445.86
436.53	2298.41
436.72	2377.98
436.90	2097.12
437.09	2235.21
437.28	2017.54
437.46	2113.50
437.65	2153.29
437.84	2167.34
438.02	1825.62
438.21	1856.04
438.40	1952.01
438.58	2200.10
438.77	2260.96
438.96	2272.66
439.14	2333.51
439.33	2429.48
439.52	2375.64
439.70	2396.71
439.89	2190.74
440.08	2335.85
440.26	2221.17
440.45	2286.70
440.63	2399.05
440.82	2595.65
441.01	2495.01
441.19	2602.68
441.38	2586.29
441.57	2609.70
441.75	2698.64
441.94	2682.25
442.12	2647.15
442.31	2864.82
442.50	2782.90
442.68	2764.17
442.87	2612.04
443.05	2675.23
443.24	2609.70
443.43	2633.10
443.61	2738.43
443.80	2890.56
443.98	2665.87
444.17	2642.46
444.35	2834.39
444.54	2829.71
444.73	2818.00
444.91	2719.70
445.10	2635.44
445.28	2385.01
445.47	2443.52
445.65	2541.82
445.84	2534.80
446.02	2637.78
446.21	2623.74
446.39	2750.13
446.58	2691.62
446.77	2623.74
446.95	2651.83
447.14	2841.41
447.32	2895.24
447.51	2888.22
447.69	2644.81
447.88	2651.83
448.06	2691.62
448.25	2846.09
448.43	2815.66
448.62	2700.98
448.80	2771.19
448.99	2761.83
449.17	2759.49
449.36	2799.28
449.54	2984.18
449.73	2888.22
449.91	3019.29
450.10	3080.14
450.28	2977.16
450.46	3094.19
450.65	3112.91
450.83	3009.93
451.02	2986.52
451.20	2843.75
451.39	2993.55
451.57	2911.63
451.76	2951.42
451.94	2892.90
452.13	2689.28
452.31	2541.82
452.49	2593.31
452.68	2635.44
452.86	2588.63
453.05	2672.89
453.23	2665.87
453.42	2773.53
453.60	2857.79
453.78	2899.92
453.97	2825.03
454.15	2738.43
454.34	2768.85
454.52	2771.19
454.70	2738.43
454.89	2822.69
455.07	2719.70
455.26	2862.48
455.44	2902.26
455.62	2984.18
455.81	3038.02
455.99	3052.06
456.17	2862.48
456.36	2871.84
456.54	2913.97
456.73	3045.04
456.91	3112.91
457.09	3059.08
457.28	3021.63
457.46	3054.40
457.64	2986.52
457.83	2906.95
458.01	2752.47
458.19	3005.25
458.38	2892.90
458.56	2993.55
458.74	2878.86
458.93	2991.20
459.11	3000.57
459.29	2918.65
459.48	2960.78
459.66	2951.42
459.84	2869.50
460.03	2963.12
460.21	3054.40
460.39	2939.71
460.57	3059.08
460.76	3059.08
460.94	3131.64
461.12	3110.57
461.31	3038.02
461.49	3030.99
461.67	2988.86
461.85	3225.26
462.04	3155.04
462.22	3096.53
462.40	3103.55
462.59	3105.89
462.77	3141.00
462.95	3169.09
463.13	3096.53
463.32	3164.40
463.50	2979.50
463.68	3030.99
463.86	2986.52
464.05	2963.12
464.23	2892.90
464.41	2892.90
464.59	2930.35
464.78	2998.23
464.96	3124.62
465.14	2967.80
465.32	3033.33
465.50	3141.00
465.69	3208.87
465.87	3070.78
466.05	2967.80
466.23	3028.65
466.41	2806.30
466.60	2932.69
466.78	3002.91
466.96	2902.26
467.14	3084.83
467.32	3082.49
467.51	3033.33
467.69	2799.28
467.87	2958.44
468.05	3021.63
468.23	2970.14
468.41	2960.78
468.60	2935.03
468.78	3052.06
468.96	2930.35
469.14	2995.89
469.32	3035.67
469.50	2895.24
469.69	2991.20
469.87	2984.18
470.05	2963.12
470.23	2946.73
470.41	2850.77
470.59	2937.37
470.77	2932.69
470.95	3080.14
471.14	3014.61
471.32	3035.67
471.50	3169.09
471.68	3265.05
471.86	3229.94
472.04	3265.05
472.22	3274.41
472.40	3255.69
472.58	3096.53
472.77	3108.23
472.95	3084.83
473.13	3281.43
473.31	3002.91
473.49	3002.91
473.67	3126.96
473.85	3197.17
474.03	3204.19
474.21	3248.66
474.39	3325.90
474.57	3332.92
474.75	3276.75
474.93	3241.64
475.12	3262.71
475.30	3234.62
475.48	3204.19
475.66	3281.43
475.84	3068.44
476.02	3155.04
476.20	3164.40
476.38	3208.87
476.56	3318.88
476.74	3510.80
476.92	3445.27
477.10	3353.99
477.28	3616.13
477.46	3543.57
477.64	3597.40
477.82	3632.51
478.00	3655.92
478.18	3674.64
478.36	3571.66
478.54	3475.70
478.72	3595.06
478.90	3700.39
479.08	3859.54
479.26	3784.65
479.44	3733.15
479.62	3784.65
479.80	3702.73
479.98	3852.52
480.16	3864.22
480.34	3815.07
480.52	3831.46
480.70	3962.53
480.88	3847.84
481.06	3964.87
481.24	3999.98
481.41	4095.94
481.59	4138.07
481.77	4091.26
481.95	3894.65
482.13	3946.14
482.31	4044.45
482.49	3946.14
482.67	3978.91
482.85	4037.42
483.03	4189.56
483.21	4067.85
483.39	4154.45
483.57	4044.45
483.74	3925.08
483.92	4070.19
484.10	4161.47
484.28	4271.48
484.46	4320.63
484.64	4297.22
484.82	4147.43
485.00	3955.51
485.18	4042.11
485.35	3995.29
485.53	3651.24
485.71	3262.71
485.89	3302.50
486.07	3323.56
486.25	3730.81
486.43	3967.21
486.61	4088.92
486.78	4128.70
486.96	3964.87
487.14	4203.60
487.32	4440.00
487.50	4540.64
487.68	4582.77
487.85	4730.22
488.03	4657.67
488.21	4496.17
488.39	4538.30
488.57	4329.99
488.75	4360.42
488.92	4283.18
489.10	4727.88
489.28	4901.08
489.46	5011.09
489.64	4997.04
489.81	5139.82
489.99	5102.37
490.17	4959.60
490.35	5027.47
490.53	4875.34
490.70	4849.59
490.88	4896.40
491.06	5210.03
491.24	5060.24
491.41	4933.85
491.59	4711.50
491.77	4627.24
491.95	4704.48
492.13	4931.51
492.30	5100.03
492.48	5263.86
492.66	5305.99
492.84	5479.19
493.01	5331.74
493.19	5076.62
493.37	5022.79
493.54	5107.05
493.72	5191.31
493.90	5413.66
494.08	5406.64
494.25	5628.99
494.43	5778.78
494.61	5738.99
494.79	5652.39
494.96	5650.05
495.14	5511.96
495.32	5203.01
495.49	5266.21
495.67	5406.64
495.85	5720.27
496.02	5909.85
496.20	5689.84
496.38	5654.73
496.55	5657.07
496.73	5617.29
496.91	5736.65
497.09	5790.49
497.26	5912.19
497.44	5877.09
497.62	5621.97
497.79	5600.90
497.97	5305.99
498.14	5109.39
498.32	5490.90
498.50	5661.76
498.67	5919.21
498.85	5849.00
499.03	5846.66
499.20	5966.03
499.38	5722.61
499.56	5720.27
499.73	5715.59
499.91	5626.65
500.08	5535.37
500.26	5387.91
500.44	5418.34
500.61	5561.11
500.79	5631.33
500.97	5446.43
501.14	5575.16
501.32	5444.09
501.49	5380.89
501.67	5408.98
501.84	5521.32
502.02	5650.05
502.20	5696.86
502.37	5654.73
502.55	5736.65
502.72	5937.94
502.90	5982.41
503.07	5741.33
503.25	5689.84
503.43	5605.58
503.60	5603.24
503.78	5453.45
503.95	5488.56
504.13	5687.50
504.30	5998.79
504.48	5841.98
504.65	5703.89
504.83	5778.78
505.01	6003.47
505.18	6080.71
505.36	6225.82
505.53	6106.46
505.71	6047.94
505.88	6211.78
506.06	5998.79
506.23	6033.90
506.41	5785.80
506.58	5879.43
506.76	6073.69
506.93	5825.59
507.11	5832.62
507.28	5729.63
507.46	5774.10
507.63	5551.75
507.81	5731.97
507.98	5652.39
508.16	5949.64
508.33	5998.79
508.50	6113.48
508.68	5991.77
508.85	6129.86
509.03	6134.54
509.20	6061.99
509.38	6040.92
509.55	5809.21
509.73	5816.23
509.90	5865.38
510.08	6036.24
510.25	5944.96
510.42	5834.96
510.60	5909.85
510.77	6017.52
510.95	6008.16
511.12	6141.57
511.30	6174.33
511.47	6118.16
511.64	6338.17
511.82	6061.99
511.99	5919.21
512.17	5942.62
512.34	5806.87
512.51	5870.06
512.69	5914.53
512.86	5785.80
513.04	6043.26
513.21	5947.30
513.38	5851.34
513.56	5804.53
513.73	5736.65
513.90	5696.86
514.08	5734.31
514.25	5860.70
514.43	5884.11
514.60	5799.85
514.77	6001.13
514.95	5888.79
515.12	5844.32
515.29	5823.25
515.47	6202.42
515.64	6038.58
515.81	6242.21
515.99	5699.20
516.16	5554.09
516.33	5160.88
516.51	4837.89
516.68	4678.73
516.85	4505.53
517.03	4805.12
517.20	5195.99
517.37	5614.95
517.54	5954.32
517.72	5816.23
517.89	5338.76
518.06	4800.44
518.24	4870.65
518.41	5366.85
518.58	5664.10
518.75	5523.66
518.93	5612.60
519.10	5542.39
519.27	5650.05
519.45	5785.80
519.62	5900.49
519.79	6164.97
519.96	5994.11
520.14	5717.93
520.31	5678.14
520.48	5589.20
520.65	5703.89
520.83	5902.83
521.00	5963.68
521.17	6097.10
521.34	5940.28
521.52	5905.17
521.69	6080.71
521.86	6141.57
522.03	6150.93
522.20	5731.97
522.38	5518.98
522.55	5427.70
522.72	5579.84
522.89	5507.28
523.07	5785.80
523.24	5879.43
523.41	6047.94
523.58	6010.50
523.75	6127.52
523.92	6267.95
524.10	6047.94
524.27	6066.67
524.44	6146.25
524.61	6040.92
524.78	6045.60
524.96	5975.39
525.13	6015.18
525.30	6069.01
525.47	6064.33
525.64	6153.27
525.81	5888.79
525.98	5563.45
526.16	5359.83
526.33	5245.14
526.50	5151.52
526.67	5006.41
526.84	5172.58
527.01	5315.36
527.18	5607.92
527.36	5797.51
527.53	5898.15
527.70	5921.56
527.87	5792.83
528.04	5849.00
528.21	5825.59
528.38	6005.81
528.55	6141.57
528.72	6324.13
528.89	6370.94
529.07	6202.42
529.24	6036.24
529.41	5886.45
529.58	5607.92
529.75	5858.36
529.92	5753.04
530.09	6026.88
530.26	6047.94
530.43	6235.19
530.60	6146.25
530.77	6054.97
530.94	6363.92
531.11	6104.12
531.28	6040.92
531.46	5968.37
531.63	5991.77
531.80	5933.26
531.97	5975.39
532.14	5659.42
532.31	5518.98
532.48	5259.18
532.65	5268.55
532.82	5385.57
532.99	5680.48
533.16	5806.87
533.33	5996.45
533.50	5944.96
533.67	5778.78
533.84	5624.31
534.01	5710.91
534.18	5776.44
534.35	5865.38
534.52	5809.21
534.69	5877.09
534.86	5870.06
535.03	5930.92
535.20	6010.50
535.37	6387.32
535.54	6272.64
535.71	6176.67
535.88	6073.69
536.05	5893.47
536.22	5703.89
536.38	5799.85
536.55	5666.44
536.72	5460.47
536.89	5469.83
537.06	5706.23
537.23	5788.14
537.40	5881.77
537.57	6031.56
537.74	5678.14
537.91	5919.21
538.08	5818.57
538.25	6015.18
538.42	5851.34
538.59	5912.19
538.75	5806.87
538.92	5542.39
539.09	5493.24
539.26	5474.51
539.43	5533.03
539.60	5561.11
539.77	5572.82
539.94	5610.26
540.11	5249.82
540.28	5219.39
540.44	5198.33
540.61	5345.78
540.78	5441.75
540.95	5483.88
541.12	5689.84
541.29	5561.11
541.46	5568.13
541.62	5809.21
541.79	5753.04
541.96	5603.24
542.13	5493.24
542.30	5636.01
542.47	5841.98
542.63	5394.93
542.80	5507.28
542.97	5533.03
543.14	5570.48
543.31	5626.65
543.48	5834.96
543.64	5778.78
543.81	5820.91
543.98	5820.91
544.15	5715.59
544.32	5540.05
544.48	5685.16
544.65	5563.45
544.82	5685.16
544.99	5610.26
545.16	5561.11
545.32	5458.13
545.49	5687.50
545.66	5685.16
545.83	5673.46
546.00	5568.13
546.16	5453.45
546.33	5589.20
546.50	5432.38
546.67	5507.28
546.83	5617.29
547.00	5451.11
547.17	5275.57
547.34	5249.82
547.50	5193.65
547.67	5376.21
547.84	5514.30
548.00	5418.34
548.17	5617.29
548.34	5636.01
548.51	5659.42
548.67	5526.00
548.84	5577.50
549.01	5540.05
549.18	5575.16
549.34	5605.58
549.51	5544.73
549.68	5504.94
549.84	5444.09
550.01	5411.32
550.18	5352.81
550.34	5451.11
550.51	5348.12
550.68	5437.06
550.84	5352.81
551.01	5231.10
551.18	5376.21
551.34	5362.17
551.51	5427.70
551.68	5362.17
551.84	5371.53
552.01	5465.15
552.18	5502.60
552.34	5268.55
552.51	5184.29
552.68	5245.14
552.84	5362.17
553.01	5259.18
553.18	5284.93
553.34	5284.93
553.51	5366.85
553.67	5437.06
553.84	5364.51
554.01	5315.36
554.17	5483.88
554.34	5444.09
554.51	5392.59
554.67	5397.28
554.84	5479.19
555.00	5259.18
555.17	5284.93
555.33	5270.89
555.50	5263.86
555.67	5432.38
555.83	5404.30
556.00	5277.91
556.16	5149.18
556.33	5172.58
556.50	5090.67
556.66	5046.20
556.83	4947.89
556.99	5111.73
557.16	5022.79
557.32	5095.35
557.49	5114.07
557.65	5151.52
557.82	5158.54
557.98	5149.18
558.15	5064.92
558.32	4873.00
558.48	4887.04
558.65	4748.95
558.81	4695.11
558.98	4959.60
559.14	4781.71
559.31	4851.93
559.47	4877.68
559.64	4968.96
559.80	4952.57
559.97	4856.61
560.13	4950.23
560.30	5088.32
560.46	5207.69
560.63	5156.20
560.79	5203.01
560.96	5109.39
561.12	4833.21
561.29	4800.44
561.45	4814.48
561.61	5135.14
561.78	4882.36
561.94	4985.34
562.11	4908.10
562.27	4957.25
562.44	5004.07
562.60	5015.77
562.77	4954.91
562.93	5153.86
563.10	5078.96
563.26	4805.12
563.42	5165.56
563.59	4987.68
563.75	4884.70
563.92	4891.72
564.08	4840.23
564.24	4954.91
564.41	4905.76
564.57	4877.68
564.74	5046.20
564.90	4739.58
565.07	4802.78
565.23	4734.90
565.39	4587.45
565.56	4564.04
565.72	4468.08
565.88	4643.62
566.05	4634.26
566.21	4667.03
566.38	4540.64
566.54	4716.18
566.70	4929.17
566.87	4828.53
567.03	4795.76
567.19	4730.22
567.36	4767.67
567.52	4755.97
567.68	4784.06
567.85	4571.07
568.01	4608.51
568.17	4634.26
568.34	4599.15
568.50	4423.61
568.66	4568.73
568.83	4610.86
568.99	4587.45
569.15	4519.57
569.32	4627.24
569.48	4685.75
569.64	4777.03
569.81	4578.09
569.97	4449.36
570.13	4416.59
570.30	4397.87
570.46	4491.49
570.62	4205.94
570.78	4208.28
570.95	4224.67
571.11	4470.42
571.27	4561.70
571.43	4587.45
571.60	4638.94
571.76	4526.60
571.92	4507.87
572.09	4683.41
572.25	4617.88
572.41	4564.04
572.57	4517.23
572.74	4435.32
572.90	4531.28
573.06	4500.85
573.22	4620.22
573.38	4486.81
573.55	4636.60
573.71	4475.10
573.87	4482.13
574.03	4573.41
574.20	4702.14
574.36	4571.07
574.52	4287.86
574.68	4470.42
574.84	4325.31
575.01	4194.24
575.17	4112.32
575.33	4182.54
575.49	4517.23
575.65	4348.72
575.82	4292.54
575.98	4402.55
576.14	4428.29
576.30	4404.89
576.46	4351.06
576.62	4346.37
576.79	4437.66
576.95	4379.14
577.11	4266.80
577.27	4308.93
577.43	4423.61
577.59	4156.79
577.75	4337.01
577.92	4065.51
578.08	4002.32
578.24	3981.25
578.40	4201.26
578.56	4194.24
578.72	4182.54
578.88	4245.73
579.04	4332.33
579.21	4205.94
579.37	4168.49
579.53	4264.46
579.69	4210.62
579.85	4133.39
580.01	4355.74
580.17	4292.54
580.33	4126.36
580.49	4234.03
580.65	4222.33
580.82	4088.92
580.98	4418.93
581.14	4114.66
581.30	4325.31
581.46	4070.19
581.62	4184.88
581.78	4320.63
581.94	4203.60
582.10	4290.20
582.26	4210.62
582.42	4227.01
582.58	4461.06
582.74	4173.18
582.90	4339.35
583.06	4264.46
583.22	4334.67
583.38	4163.81
583.54	4250.41
583.70	4173.18
583.86	4273.82
584.02	4194.24
584.18	4191.90
584.34	4203.60
584.50	4072.53
584.66	4189.56
584.82	4095.94
584.98	4032.74
585.14	4056.15
585.30	3946.14
585.46	3822.09
585.62	3957.85
585.78	3939.12
585.94	3908.69
586.10	3927.42
586.26	3995.29
586.42	3918.06
586.58	4067.85
586.74	3901.67
586.90	3983.59
587.06	4067.85
587.22	4028.06
587.38	4100.62
587.54	3831.46
587.70	3875.93
587.86	4023.38
588.02	3850.18
588.18	3843.16
588.34	3648.90
588.49	3452.29
588.65	3251.00
588.81	3286.11
588.97	3405.48
589.13	3258.03
589.29	3339.94
589.45	3396.12
589.61	3342.28
589.77	3485.06
589.93	3665.28
590.08	3999.98
590.24	3728.47
590.40	3761.24
590.56	3908.69
590.72	3829.12
590.88	3716.77
591.04	3740.18
591.20	3779.97
591.35	3723.79
591.51	3754.22
591.67	3726.13
591.83	3655.92
591.99	3679.32
592.15	3812.73
592.31	3698.05
592.46	3534.21
592.62	3599.74
592.78	3616.13
592.94	3667.62
593.10	3702.73
593.26	3730.81
593.41	3620.81
593.57	3716.77
593.73	3599.74
593.89	3658.26
594.05	3674.64
594.20	3611.45
594.36	3543.57
594.52	3405.48
594.68	3435.91
594.84	3557.61
594.99	3655.92
595.15	3559.95
595.31	3667.62
595.47	3562.30
595.62	3473.36
595.78	3574.00
595.94	3588.04
596.10	3653.58
596.25	3555.27
596.41	3550.59
596.57	3569.32
596.73	3564.64
596.88	3543.57
597.04	3487.40
597.20	3592.72
597.36	3609.11
597.51	3524.85
597.67	3456.97
597.83	3611.45
597.99	3496.76
