SpectraSuite Data File
++++++++++++++++++++++++++++++++++++
Date: Mon Oct 07 14:52:55 GMT-05:00 2013
User: price-jones
Dark Spectrum Present: No
Reference Spectrum Present: No
Number of Sampled Component Spectra: 1
Spectrometers: USB2+H05261
Integration Time (usec): 100000 (USB2+H05261)
Spectra Averaged: 1 (USB2+H05261)
Boxcar Smoothing: 0 (USB2+H05261)
Correct for Electrical Dark: No (USB2+H05261)
Strobe/Lamp Enabled: No (USB2+H05261)
Correct for Detector Non-linearity: No (USB2+H05261)
Correct for Stray Light: No (USB2+H05261)
Number of Pixels in Processed Spectrum: 2048
>>>>>Begin Processed Spectral Data<<<<<
365.73	0.00
365.92	0.00
366.12	0.00
366.32	0.00
366.52	0.00
366.72	0.00
366.91	0.00
367.11	0.00
367.31	0.00
367.51	0.00
367.70	0.00
367.90	0.00
368.10	0.00
368.30	0.00
368.49	0.00
368.69	0.00
368.89	0.00
369.09	0.00
369.28	0.00
369.48	0.00
369.68	0.00
369.87	0.00
370.07	0.00
370.27	0.00
370.47	425.98
370.66	2546.50
370.86	3000.57
371.06	3155.04
371.25	3272.07
371.45	2848.43
371.65	2621.40
371.84	2562.89
372.04	2511.39
372.24	2925.67
372.44	3047.38
372.63	3009.93
372.83	2825.03
373.03	2396.71
373.22	2279.68
373.42	2335.85
373.62	2684.59
373.81	3009.93
374.01	3019.29
374.21	2663.53
374.40	2586.29
374.60	2668.21
374.79	2836.73
374.99	3393.78
375.19	3817.41
375.38	3791.67
375.58	3454.63
375.78	3473.36
375.97	3386.76
376.17	3581.02
376.37	3627.83
376.56	3756.56
376.76	3913.38
376.95	4046.79
377.15	4554.68
377.35	4713.84
377.54	4779.37
377.74	4929.17
377.93	5055.56
378.13	4767.67
378.33	4596.81
378.52	4079.55
378.72	3983.59
378.91	3918.06
379.11	3969.55
379.31	3782.31
379.50	3686.34
379.70	4194.24
379.89	4512.55
380.09	4638.94
380.28	4835.55
380.48	4931.51
380.68	4807.46
380.87	4645.96
381.07	4271.48
381.26	3946.14
381.46	3803.37
381.65	3599.74
381.85	3639.53
382.04	3337.60
382.24	3166.74
382.43	2958.44
382.63	2993.55
382.83	2974.82
383.02	2897.58
383.22	2970.14
383.41	2995.89
383.61	3251.00
383.80	3602.08
384.00	4119.34
384.19	4444.68
384.39	5004.07
384.58	4821.50
384.78	4704.48
384.97	4692.77
385.17	4491.49
385.36	4189.56
385.56	4098.28
385.75	4023.38
385.95	4550.00
386.14	4980.66
386.34	4997.04
386.53	4741.93
386.72	4294.88
386.92	4423.61
387.11	4741.93
387.31	4968.96
387.50	4772.35
387.70	4620.22
387.89	4615.54
388.09	4685.75
388.28	4755.97
388.48	4880.02
388.67	5235.78
388.86	5645.37
389.06	6132.20
389.25	6434.13
389.45	6485.62
389.64	6415.41
389.84	6272.64
390.03	6305.40
390.22	6277.32
390.42	6473.92
390.61	6918.62
390.81	7543.55
391.00	7442.90
391.19	7524.82
391.39	7075.44
391.58	6626.06
391.78	6396.68
391.97	6197.74
392.16	5722.61
392.36	5195.99
392.55	4170.83
392.75	3253.34
392.94	2764.17
393.13	2750.13
393.33	3353.99
393.52	4154.45
393.71	4999.38
393.91	5680.48
394.10	6171.99
394.29	6867.13
394.49	7410.14
394.68	8095.91
394.88	7859.52
395.07	8198.90
395.26	7981.23
395.46	7819.73
395.65	7311.83
395.84	6394.34
396.04	5327.06
396.23	4285.52
396.42	3705.07
396.62	3653.58
396.81	4386.16
397.00	5408.98
397.19	6799.26
397.39	8215.28
397.58	8971.27
397.77	9659.39
397.97	10001.11
398.16	9968.34
398.35	10441.13
398.55	10731.36
398.74	11260.32
398.93	11382.03
399.12	11194.78
399.32	10516.03
399.51	11096.48
399.70	11782.26
399.90	11637.14
400.09	11283.72
400.28	11466.28
400.47	11705.02
400.67	12163.76
400.86	12360.37
401.05	12135.68
401.24	12561.66
401.44	12737.20
401.63	12617.83
401.82	12627.19
402.01	12697.41
402.21	13004.02
402.40	12938.48
402.59	12446.97
402.78	11962.48
402.97	11712.04
403.17	12252.70
403.36	12739.54
403.55	13172.54
403.74	13413.61
403.93	12882.31
404.13	11852.47
404.32	11744.81
404.51	12662.30
404.70	13472.12
404.89	13458.08
405.09	12959.55
405.28	12725.49
405.47	12456.33
405.66	12453.99
405.85	12189.51
406.05	11910.99
406.24	12173.13
406.43	12500.80
406.62	12856.56
406.81	13359.78
407.00	12634.21
407.20	12189.51
407.39	12343.99
407.58	13071.89
407.77	13277.86
407.96	14008.11
408.15	14139.18
408.34	14471.53
408.54	14897.51
408.73	14939.64
408.92	14813.25
409.11	14487.92
409.30	13495.53
409.49	12802.73
409.68	12098.23
409.87	11646.51
410.07	12617.83
410.26	13652.34
410.45	14352.16
410.64	14525.36
410.83	15009.86
411.02	15562.22
411.21	15955.43
411.40	15903.94
411.59	15871.17
411.78	15742.44
411.98	15602.01
412.17	15981.18
412.36	15428.81
412.55	15503.71
412.74	15152.63
412.93	15023.90
413.12	14665.80
413.31	16772.28
413.50	16788.66
413.69	16641.21
413.88	16208.21
414.07	15917.98
414.26	15995.22
414.45	16622.48
414.64	16580.36
414.83	16685.68
415.02	16381.41
415.22	16538.23
415.41	16568.65
415.60	17338.69
415.79	18298.31
415.98	18349.80
416.17	18178.94
416.36	17694.45
416.55	17638.28
416.74	17006.33
416.93	16695.04
417.12	16807.39
417.31	16786.32
417.50	16996.97
417.69	17832.54
417.88	17415.93
418.07	17451.03
418.26	16844.84
418.45	17486.14
418.64	17886.37
418.83	18597.90
419.02	18178.94
419.21	18405.97
419.39	17216.98
419.58	16496.10
419.77	16496.10
419.96	17345.71
420.15	18391.93
420.34	18953.66
420.53	19651.14
420.72	19864.13
420.91	19651.14
421.10	19243.88
421.29	19386.66
421.48	18820.25
421.67	19665.18
421.86	18698.54
422.05	17530.61
422.24	15999.90
422.43	16025.65
422.61	17563.38
422.80	19082.39
422.99	18934.93
423.18	17884.03
423.37	18024.47
423.56	17703.81
423.75	18024.47
423.94	18728.97
424.13	17514.23
424.32	17664.02
424.50	17968.29
424.69	17539.97
424.88	17617.21
425.07	17415.93
425.26	17755.30
425.45	17394.86
425.64	17261.45
425.83	17144.42
426.01	18017.44
426.20	18691.52
426.39	18450.44
426.58	16891.65
426.77	15660.52
426.96	15290.72
427.15	15655.84
427.33	17043.78
427.52	17706.15
427.71	17635.94
427.90	17671.04
428.09	17624.23
428.28	17235.70
428.46	16596.74
428.65	16449.28
428.84	16765.26
429.03	17060.16
429.22	16060.76
429.40	15108.16
429.59	13785.76
429.78	12292.49
429.97	12343.99
430.16	12636.55
430.34	12498.46
430.53	12669.32
430.72	12788.69
430.91	14443.45
431.10	16496.10
431.28	19747.10
431.47	21336.32
431.66	21113.97
431.85	19398.36
432.03	17682.75
432.22	17116.34
432.41	18122.77
432.60	19728.38
432.79	20610.76
432.97	21060.14
433.16	20425.86
433.35	18932.59
433.54	17076.55
433.72	15822.02
433.91	16222.25
434.10	18228.09
434.28	19714.33
434.47	20964.18
434.66	20381.38
434.85	19761.14
435.03	19967.11
435.22	20535.86
435.41	21680.38
435.59	21661.66
435.78	22005.72
435.97	22602.55
436.16	22139.13
436.34	22155.51
436.53	21628.89
436.72	21486.12
436.90	20879.92
437.09	20641.18
437.28	20126.27
437.46	20959.50
437.65	20540.54
437.84	19080.05
438.02	17495.50
438.21	17813.82
438.40	18946.64
438.58	20266.70
438.77	20833.11
438.96	20826.09
439.14	21640.59
439.33	22764.05
439.52	22862.35
439.70	22155.51
439.89	21895.71
440.08	20985.24
440.26	21130.36
440.45	21909.75
440.63	23206.41
440.82	24269.01
441.01	24119.22
441.19	23995.17
441.38	24025.60
441.57	25411.20
441.75	25544.61
441.94	25692.06
442.12	25556.31
442.31	26038.46
442.50	26118.04
442.68	25638.23
442.87	25436.94
443.05	24961.81
443.24	25479.07
443.43	25827.81
443.61	26314.64
443.80	26845.94
443.98	25490.77
444.17	25158.42
444.35	26396.56
444.54	27255.54
444.73	26806.16
444.91	25853.56
445.10	24779.25
445.28	23697.92
445.47	23236.84
445.65	23885.17
445.84	24474.98
446.02	25254.38
446.21	25495.46
446.39	25797.38
446.58	25577.37
446.77	26359.11
446.95	26230.38
447.14	27351.50
447.32	27814.93
447.51	27194.68
447.69	26216.34
447.88	26003.35
448.06	26188.25
448.25	26836.58
448.43	26691.47
448.62	26125.06
448.80	26228.04
448.99	26616.57
449.17	26607.21
449.36	26700.83
449.54	27686.20
449.73	27915.57
449.91	28428.15
450.10	29207.55
450.28	29563.31
450.46	29413.51
450.65	29542.24
450.83	29413.51
451.02	28662.20
451.20	28208.14
451.39	28334.53
451.57	28128.56
451.76	28044.30
451.94	28224.52
452.13	27496.61
452.31	26174.21
452.49	25242.68
452.68	25455.67
452.86	25635.89
453.05	25827.81
453.23	26712.53
453.42	27674.49
453.60	27618.32
453.78	28203.46
453.97	28070.04
454.15	27725.99
454.34	27477.89
454.52	27601.94
454.70	27283.62
454.89	27321.07
455.07	27428.74
455.26	27625.34
455.44	28641.14
455.62	29460.32
455.81	29355.00
455.99	29277.76
456.17	28566.24
456.36	29261.38
456.54	29989.28
456.73	30078.22
456.91	30246.74
457.09	30738.26
457.28	31082.31
457.46	29666.29
457.64	29621.82
457.83	28751.14
458.01	27974.08
458.19	28678.58
458.38	29041.37
458.56	29956.52
458.74	29708.42
458.93	29099.88
459.11	29230.95
459.29	28971.15
459.48	29060.09
459.66	29266.06
459.84	29598.41
460.03	30106.31
460.21	29727.14
460.39	30417.60
460.57	30497.18
460.76	30916.14
460.94	30579.10
461.12	30340.36
461.31	30375.47
461.49	30494.84
461.67	30590.80
461.85	31344.45
462.04	31178.28
462.22	31995.12
462.40	31866.39
462.59	31484.89
462.77	31342.11
462.95	31232.11
463.13	30911.46
463.32	30611.87
463.50	30658.68
463.68	30766.34
463.86	30527.61
464.05	30319.30
464.23	29420.53
464.41	29579.69
464.59	28933.70
464.78	30321.64
464.96	30485.48
465.14	29579.69
465.32	30742.94
465.50	31847.67
465.69	31728.30
465.87	31372.54
466.05	30326.32
466.23	29174.78
466.41	28381.34
466.60	29165.42
466.78	29390.11
466.96	30050.14
467.14	30370.79
467.32	30740.60
467.51	30436.33
467.69	29053.07
467.87	30092.27
468.05	30359.09
468.23	30466.75
468.41	30590.80
468.60	30679.74
468.78	30728.89
468.96	30277.17
469.14	31292.96
469.32	31452.12
469.50	29813.74
469.69	29851.19
469.87	29668.63
470.05	29483.73
470.23	29628.84
470.41	29670.97
470.59	30253.76
470.77	30300.58
470.95	30705.49
471.14	31344.45
471.32	31323.39
471.50	33354.97
471.68	33127.94
471.86	33270.72
472.04	33844.15
472.22	33542.22
472.40	31728.30
472.58	31517.65
472.77	31218.07
472.95	31943.63
473.13	32830.69
473.31	32034.91
473.49	32236.20
473.67	32783.88
473.85	33212.20
474.03	33373.70
474.21	33940.11
474.39	34382.47
474.57	34590.78
474.75	34586.10
474.93	34197.57
475.12	33153.69
475.30	33043.68
475.48	33593.71
475.66	34082.88
475.84	33354.97
476.02	33404.13
476.20	32975.81
476.38	33572.64
476.56	34370.77
476.74	35002.71
476.92	35412.31
477.10	35845.30
477.28	36704.28
477.46	36474.91
477.64	36814.29
477.82	37031.96
478.00	37530.49
478.18	36659.81
478.36	36374.27
478.54	36840.03
478.72	36844.71
478.90	37563.26
479.08	38960.56
479.26	39416.96
479.44	39337.38
479.62	38663.31
479.80	38487.77
479.98	39100.99
480.16	39487.18
480.34	38845.87
480.52	39306.96
480.70	39690.80
480.88	39814.85
481.06	40781.49
481.24	40786.18
481.41	41851.12
481.59	42153.05
481.77	41652.17
481.95	41551.53
482.13	41008.53
482.31	40886.82
482.49	42000.91
482.67	41869.84
482.85	41949.42
483.03	42398.80
483.21	43079.90
483.39	42925.42
483.57	41909.63
483.74	41944.74
483.92	42492.43
484.10	42628.18
484.28	43407.58
484.46	43622.90
484.64	44210.38
484.82	43110.33
485.00	42548.60
485.18	41724.73
485.35	40697.24
485.53	37441.55
485.71	34235.02
485.89	34206.93
486.07	36009.14
486.25	38967.58
486.43	41111.51
486.61	41923.68
486.78	41823.03
486.96	42185.82
487.14	43959.94
487.32	44538.05
487.50	45696.62
487.68	46660.92
487.85	47187.54
488.03	46799.01
488.21	46550.91
488.39	45605.34
488.57	45116.17
488.75	44926.58
488.92	46300.48
489.10	48711.23
489.28	50073.42
489.46	50653.87
489.64	50604.72
489.81	50408.12
489.99	50258.32
490.17	50494.72
490.35	50578.98
490.53	50270.03
490.70	49478.92
490.88	49888.52
491.06	50667.92
491.24	50815.37
491.41	49216.78
491.59	47821.83
491.77	46831.78
491.95	48222.06
492.13	49724.68
492.30	51044.74
492.48	52191.61
492.66	52308.63
492.84	52310.97
493.01	52301.61
493.19	51222.62
493.37	51138.36
493.54	51150.07
493.72	52112.03
493.90	52671.42
494.08	53616.99
494.25	53858.07
494.43	53888.49
494.61	54410.43
494.79	54700.66
494.96	54061.69
495.14	53717.64
495.32	52545.03
495.49	51838.18
495.67	53141.86
495.85	54529.80
496.02	54759.17
496.20	54829.39
496.38	54281.70
496.55	54216.17
496.73	54553.21
496.91	54749.81
497.09	55676.66
497.26	55625.17
497.44	55070.46
497.62	54621.08
497.79	53879.13
497.97	52498.22
498.14	52790.78
498.32	53581.88
498.50	54609.38
498.67	55171.11
498.85	55114.94
499.03	55269.41
499.20	55615.81
499.38	55693.05
499.56	55522.19
499.73	54796.62
499.91	54588.31
500.08	53979.78
500.26	53338.47
500.44	53965.73
500.61	54607.04
500.79	54541.50
500.97	54024.25
501.14	53947.01
501.32	53616.99
501.49	53865.09
501.67	54054.67
501.84	54494.69
502.02	54775.56
502.20	55124.30
502.37	55143.02
502.55	55173.45
502.72	56158.81
502.90	56289.88
503.07	55906.04
503.25	55587.72
503.43	54522.78
503.60	54035.95
503.78	53319.74
503.95	53968.07
504.13	55494.10
504.30	56214.99
504.48	55763.26
504.65	55550.27
504.83	55884.97
505.01	56458.40
505.18	56814.16
505.36	57198.01
505.53	57059.92
505.71	57415.68
505.88	57399.30
506.06	56795.44
506.23	56362.44
506.41	56259.46
506.58	56395.21
506.76	56104.98
506.93	56397.55
507.11	55983.27
507.28	56058.17
507.46	55980.93
507.63	55421.55
507.81	54951.10
507.98	55384.10
508.16	56074.55
508.33	56470.11
508.50	56879.70
508.68	56975.66
508.85	57560.79
509.03	57572.50
509.20	57324.40
509.38	56605.86
509.55	56097.96
509.73	56214.99
509.90	56739.27
510.08	56942.89
510.25	56828.21
510.42	56540.32
510.60	56694.80
510.77	56720.54
510.95	57284.61
511.12	57357.17
511.30	57794.85
511.47	58267.64
511.64	57946.98
511.82	57621.65
511.99	56858.63
512.17	56587.13
512.34	56158.81
512.51	56357.76
512.69	56573.09
512.86	56413.93
513.04	57036.51
513.21	57095.03
513.38	56736.93
513.56	56247.75
513.73	55391.12
513.90	55732.84
514.08	55971.57
514.25	56301.59
514.43	56465.42
514.60	56427.98
514.77	56790.76
514.95	56917.15
515.12	56339.04
515.29	56839.91
515.47	57326.74
515.64	57490.58
515.81	56839.91
515.99	56521.60
516.16	54948.76
516.33	52390.55
516.51	51391.14
516.68	50251.30
516.85	49610.00
517.03	50609.40
517.20	53434.43
517.37	56090.94
517.54	56561.39
517.72	56222.01
517.89	53544.44
518.06	51531.57
518.24	51704.77
518.41	53832.32
518.58	55203.88
518.75	55524.53
518.93	55618.15
519.10	55704.75
519.27	56334.35
519.45	56444.36
519.62	57080.98
519.79	57542.07
519.96	57003.75
520.14	56690.12
520.31	55838.16
520.48	55922.42
520.65	56257.12
520.83	57277.59
521.00	57415.68
521.17	57193.33
521.34	56910.13
521.52	57226.10
521.69	57829.96
521.86	58012.52
522.03	57652.08
522.20	56301.59
522.38	55636.87
522.55	55711.77
522.72	56294.56
522.89	56334.35
523.07	56229.03
523.24	57092.69
523.41	57815.91
523.58	57951.66
523.75	58578.93
523.92	58181.04
524.10	58188.06
524.27	58209.12
524.44	57991.45
524.61	57944.64
524.78	57666.12
524.96	57528.03
525.13	57567.82
525.30	57757.40
525.47	58330.83
525.64	58056.99
525.81	57593.56
525.98	55873.27
526.16	54398.73
526.33	53832.32
526.50	53528.05
526.67	53277.61
526.84	53729.34
527.01	54752.15
527.18	55770.28
527.36	56849.27
527.53	57357.17
527.70	57698.89
527.87	56942.89
528.04	56860.97
528.21	57385.25
528.38	58136.57
528.55	58497.01
528.72	58667.87
528.89	58866.81
529.07	58562.54
529.24	57944.64
529.41	57380.57
529.58	56650.33
529.75	56924.17
529.92	57286.95
530.09	57811.23
530.26	58246.57
530.43	58391.68
530.60	58424.45
530.77	58756.81
530.94	58733.40
531.11	58447.86
531.28	57942.30
531.46	57750.38
531.63	57874.43
531.80	57797.19
531.97	57249.50
532.14	56530.96
532.31	55318.56
532.48	54948.76
532.65	55150.04
532.82	55938.80
532.99	57116.09
533.16	57186.31
533.33	57925.92
533.50	57806.55
533.67	57389.94
533.84	56603.52
534.01	56790.76
534.18	57226.10
534.35	57333.76
534.52	56985.02
534.69	57474.20
534.86	57764.42
535.03	57904.85
535.20	58422.11
535.37	58717.02
535.54	58803.62
535.71	58379.98
535.88	58033.58
536.05	57659.10
536.22	57212.06
536.38	56732.25
536.55	56357.76
536.72	55924.76
536.89	55931.78
537.06	56917.15
537.23	57518.67
537.40	58115.50
537.57	57731.65
537.74	57371.21
537.91	57396.96
538.08	57593.56
538.25	57513.98
538.42	57766.76
538.59	57233.12
538.75	56603.52
538.92	56608.20
539.09	56334.35
539.26	56292.22
539.43	56069.87
539.60	56203.28
539.77	56385.85
539.94	55875.61
540.11	55477.72
540.28	55096.21
540.44	55065.78
540.61	55250.69
540.78	55636.87
540.95	56009.02
541.12	56404.57
541.29	56570.75
541.46	57092.69
541.62	56856.29
541.79	56992.04
541.96	55955.19
542.13	56198.60
542.30	56507.55
542.47	56802.46
542.63	56533.30
542.80	56315.63
542.97	56451.38
543.14	56385.85
543.31	56442.02
543.48	56781.40
543.64	57736.34
543.81	57925.92
543.98	57708.25
544.15	56757.99
544.32	56355.42
544.48	56364.78
544.65	57078.64
544.82	57324.40
544.99	56938.21
545.16	56633.94
545.32	56432.66
545.49	57319.72
545.66	57546.75
545.83	57092.69
546.00	56825.87
546.16	56760.33
546.33	56523.94
546.50	56477.13
546.67	56821.19
546.83	56418.61
547.00	56584.79
547.17	55852.20
547.34	55147.70
547.50	55304.52
547.67	55856.88
547.84	55597.09
548.00	56435.00
548.17	56856.29
548.34	56596.49
548.51	56498.19
548.67	56388.19
548.84	56612.88
549.01	56797.78
549.18	56151.79
549.34	56463.08
549.51	56395.21
549.68	56392.87
549.84	56044.13
550.01	56240.73
550.18	55796.03
550.34	56250.09
550.51	56217.33
550.68	56158.81
550.84	55421.55
551.01	55686.03
551.18	55784.33
551.34	56051.15
551.51	56348.40
551.68	56446.70
551.84	56629.26
552.01	56268.82
552.18	56271.16
552.34	55379.42
552.51	55201.53
552.68	55196.85
552.84	55578.36
553.01	55821.78
553.18	55702.41
553.34	55847.52
553.51	56329.67
553.67	56154.13
553.84	56413.93
554.01	56306.27
554.17	56168.18
554.34	56324.99
554.51	56453.72
554.67	56690.12
554.84	56142.43
555.00	55861.57
555.17	56020.72
555.33	55749.22
555.50	55845.18
555.67	55604.11
555.83	55564.32
556.00	55302.18
556.16	55470.70
556.33	54908.97
556.50	54754.49
556.66	54845.77
556.83	54644.49
556.99	54731.09
557.16	54859.82
557.32	55056.42
557.49	55545.59
557.65	55414.52
557.82	55114.94
557.98	54901.95
558.15	54309.79
558.32	53427.41
558.48	52776.74
558.65	53319.74
558.81	53488.26
558.98	53549.12
559.14	53956.37
559.31	53982.12
559.47	54052.33
559.64	53677.85
559.80	53308.04
559.97	53464.86
560.13	53869.77
560.30	54808.32
560.46	55260.05
560.63	55714.11
560.79	55592.40
560.96	54777.90
561.12	54026.59
561.29	53326.77
561.45	53027.18
561.61	53841.68
561.78	54230.21
561.94	54134.25
562.11	53876.79
562.27	54099.14
562.44	54087.44
562.60	54408.09
562.77	54892.58
562.93	54789.60
563.10	54773.22
563.26	53797.21
563.42	54026.59
563.59	53811.26
563.75	53705.93
563.92	53808.92
564.08	53794.87
564.24	53902.54
564.41	54274.68
564.57	54176.38
564.74	53858.07
564.90	53745.72
565.07	53626.35
565.23	53261.23
565.39	52474.81
565.56	52418.64
565.72	52406.94
565.88	52479.49
566.05	52734.61
566.21	52935.90
566.38	52966.32
566.54	53448.47
566.70	53198.04
566.87	53422.73
567.03	53698.91
567.19	54096.80
567.36	53839.34
567.52	53755.08
567.68	53176.97
567.85	52566.09
568.01	52009.04
568.17	51737.54
568.34	51859.25
568.50	51910.74
568.66	51866.27
568.83	52130.75
568.99	52332.04
569.15	52666.73
569.32	52718.23
569.48	51995.00
569.64	51955.21
569.81	51503.49
569.97	51695.41
570.13	51395.82
570.30	51019.00
570.46	50555.57
570.62	49778.51
570.78	50021.93
570.95	50340.24
571.11	51044.74
571.27	51049.42
571.43	51540.94
571.60	51887.34
571.76	52215.01
571.92	52755.68
572.09	52535.66
572.25	52554.39
572.41	52481.83
572.57	52362.46
572.74	52193.95
572.90	51578.39
573.06	51889.68
573.22	51760.95
573.38	51833.50
573.55	51936.49
573.71	52053.51
573.87	51847.55
574.03	51590.09
574.20	51849.89
574.36	51283.48
574.52	51054.11
574.68	50588.34
574.84	50426.84
575.01	49787.88
575.17	50209.17
575.33	50464.29
575.49	50625.79
575.65	50894.95
575.82	50541.53
575.98	50307.47
576.14	50747.50
576.30	51054.11
576.46	50798.99
576.62	50747.50
576.79	50794.31
576.95	50707.71
577.11	50611.74
577.27	50583.66
577.43	50546.21
577.59	50092.15
577.75	49804.26
577.92	49116.14
578.08	49202.74
578.24	48678.46
578.40	49399.35
578.56	49801.92
578.72	49591.27
578.88	49457.86
579.04	50085.12
579.21	50019.59
579.37	50150.66
579.53	50363.65
579.69	50483.01
579.85	50412.80
580.01	50225.56
580.17	49361.90
580.33	49645.10
580.49	49361.90
580.65	50475.99
580.82	50246.62
580.98	50216.19
581.14	49780.85
581.30	50417.48
581.46	49825.32
581.62	50085.12
581.78	49944.69
581.94	50199.81
582.10	50316.84
582.26	50204.49
582.42	50246.62
582.58	50302.79
582.74	50506.42
582.90	50169.38
583.06	50340.24
583.22	50080.44
583.38	49762.13
583.54	49783.19
583.70	49731.70
583.86	49872.14
584.02	49951.71
584.18	49881.50
584.34	50052.36
584.50	49921.29
584.66	49411.05
584.82	48999.12
584.98	49027.20
585.14	48715.91
585.30	47796.08
