SpectraSuite Data File
++++++++++++++++++++++++++++++++++++
Date: Mon Oct 07 14:55:01 GMT-05:00 2013
User: price-jones
Dark Spectrum Present: No
Reference Spectrum Present: No
Number of Sampled Component Spectra: 1
Spectrometers: USB2+H05261
Integration Time (usec): 10000 (USB2+H05261)
Spectra Averaged: 1 (USB2+H05261)
Boxcar Smoothing: 0 (USB2+H05261)
Correct for Electrical Dark: No (USB2+H05261)
Strobe/Lamp Enabled: No (USB2+H05261)
Correct for Detector Non-linearity: No (USB2+H05261)
Correct for Stray Light: No (USB2+H05261)
Number of Pixels in Processed Spectrum: 2048
>>>>>Begin Processed Spectral Data<<<<<
365.73	0.00
365.92	0.00
366.12	0.00
366.32	0.00
366.52	0.00
366.72	0.00
366.91	0.00
367.11	0.00
367.31	0.00
367.51	0.00
367.70	0.00
367.90	0.00
368.10	0.00
368.30	0.00
368.49	0.00
368.69	0.00
368.89	0.00
369.09	0.00
369.28	0.00
369.48	0.00
369.68	0.00
369.87	0.00
370.07	0.00
370.27	0.00
370.47	341.72
370.66	2317.13
370.86	2722.04
371.06	2857.79
371.25	2911.63
371.45	2572.25
371.65	2375.64
371.84	2284.36
372.04	2607.36
372.24	2729.06
372.44	2773.53
372.63	2710.34
372.83	2511.39
373.03	2167.34
373.22	1989.46
373.42	2260.96
373.62	2637.78
373.81	2754.81
374.01	2605.02
374.21	2413.09
374.40	2279.68
374.60	2333.51
374.79	2899.92
374.99	3279.09
375.19	3361.01
375.38	3304.84
375.58	3087.17
375.78	3098.87
375.97	3204.19
376.17	3300.16
376.37	3229.94
376.56	3403.14
376.76	3684.00
376.95	3925.08
377.15	4077.21
377.35	4224.67
377.54	4414.25
377.74	4505.53
377.93	4617.88
378.13	4320.63
378.33	3894.65
378.52	3794.01
378.72	3836.14
378.91	3723.79
379.11	3403.14
379.31	3386.76
379.50	3419.52
379.70	3749.54
379.89	4074.87
380.09	4248.07
380.28	4320.63
380.48	4407.23
380.68	4292.54
380.87	4042.11
381.07	3885.29
381.26	3475.70
381.46	3414.84
381.65	3316.54
381.85	3096.53
382.04	3007.59
382.24	2853.11
382.43	2738.43
382.63	2670.55
382.83	2576.93
383.02	2544.16
383.22	2724.38
383.41	2696.30
383.61	2932.69
383.80	3452.29
384.00	3882.95
384.19	4243.39
384.39	4313.61
384.58	4521.92
384.78	4276.16
384.97	4217.65
385.17	3887.63
385.36	3864.22
385.56	3667.62
385.75	4002.32
385.95	4416.59
386.14	4603.83
386.34	4531.28
386.53	4255.09
386.72	4025.72
386.92	4276.16
387.11	4468.08
387.31	4650.64
387.50	4510.21
387.70	4355.74
387.89	4294.88
388.09	4358.08
388.28	4393.19
388.48	4599.15
388.67	5020.45
388.86	5233.44
389.06	5954.32
389.25	6001.13
389.45	6061.99
389.64	6022.20
389.84	5846.66
390.03	5867.72
390.22	5849.00
390.42	6317.11
390.61	6576.91
390.81	6956.07
391.00	7073.10
391.19	6871.81
391.39	6668.19
391.58	6129.86
391.78	6029.22
391.97	5788.14
392.16	5256.84
392.36	4648.30
392.55	3585.70
392.75	2974.82
392.94	2427.14
393.13	2647.15
393.33	3302.50
393.52	4257.43
393.71	4966.62
393.91	5401.96
394.10	5968.37
394.29	6590.95
394.49	7087.14
394.68	7297.79
394.88	7492.05
395.07	7672.28
395.26	7730.79
395.46	7208.85
395.65	6759.47
395.84	5680.48
396.04	4699.80
396.23	3854.86
396.42	3379.73
396.62	3433.57
396.81	4159.13
397.00	5495.58
397.19	6825.00
397.39	7847.82
397.58	8844.88
397.77	9139.79
397.97	9245.12
398.16	9652.37
398.35	9863.02
398.55	10155.58
398.74	10473.90
398.93	10548.79
399.12	10377.94
399.32	10153.24
399.51	10466.88
399.70	11215.85
399.90	10876.47
400.09	10974.77
400.28	10689.23
400.47	11173.72
400.67	11637.14
400.86	11791.62
401.05	11864.18
401.24	11644.17
401.44	12006.95
401.63	12187.17
401.82	12238.66
402.01	12039.72
402.21	12325.26
402.40	12362.71
402.59	11885.24
402.78	11435.86
402.97	11229.89
403.17	11845.45
403.36	12379.09
403.55	12858.90
403.74	12849.54
403.93	12006.95
404.13	11162.01
404.32	11302.45
404.51	11866.52
404.70	12781.67
404.89	12196.53
405.09	12287.81
405.28	12011.63
405.47	12224.62
405.66	11964.82
405.85	11822.05
406.05	11403.09
406.24	11805.66
406.43	11988.22
406.62	12418.88
406.81	12559.31
407.00	12215.26
407.20	11810.34
407.39	12159.08
407.58	12877.63
407.77	13284.88
407.96	13507.23
408.15	13973.00
408.34	13891.08
408.54	14253.86
408.73	14359.19
408.92	14490.26
409.11	13673.41
409.30	12957.21
409.49	12086.53
409.68	11447.56
409.87	11248.61
410.07	12638.89
410.26	12947.84
410.45	13551.70
410.64	13888.74
410.83	14665.80
411.02	14689.20
411.21	15349.23
411.40	15059.01
411.59	15293.06
411.78	15229.87
411.98	15012.20
412.17	15295.40
412.36	15082.41
412.55	15051.99
412.74	14759.42
412.93	14572.18
413.12	15143.27
413.31	16287.79
413.50	16233.96
413.69	16432.90
413.88	15346.89
414.07	15377.32
414.26	15899.26
414.45	16236.30
414.64	16002.24
414.83	15927.35
415.02	15859.47
415.22	15934.37
415.41	16610.78
415.60	16798.02
415.79	17198.26
415.98	17575.08
416.17	17741.26
416.36	17343.37
416.55	16992.29
416.74	16168.42
416.93	16095.86
417.12	16262.04
417.31	16297.15
417.50	16507.80
417.69	17249.75
417.88	16922.07
418.07	16800.37
418.26	16798.02
418.45	17104.64
418.64	17649.98
418.83	18253.84
419.02	17879.35
419.21	17153.79
419.39	16776.96
419.58	16386.09
419.77	16556.95
419.96	17521.25
420.15	18169.58
420.34	18813.23
420.53	19126.86
420.72	19278.99
420.91	19110.47
421.10	18640.03
421.29	18647.05
421.48	18401.29
421.67	19201.76
421.86	18267.88
422.05	16533.54
422.24	15288.38
422.43	16149.70
422.61	17769.35
422.80	18721.95
422.99	17834.88
423.18	17359.75
423.37	17792.75
423.56	17685.09
423.75	18300.65
423.94	18443.42
424.13	17476.78
424.32	17418.27
424.50	17380.82
424.69	17341.03
424.88	17778.71
425.07	17542.32
425.26	17085.91
425.45	16678.66
425.64	16821.43
425.83	17050.80
426.01	17895.74
426.20	17977.65
426.39	17970.63
426.58	16154.38
426.77	15426.47
426.96	15489.67
427.15	16046.71
427.33	16987.61
427.52	17586.79
427.71	17493.16
427.90	17226.34
428.09	17020.38
428.28	16849.52
428.46	16011.60
428.65	15740.10
428.84	16893.99
429.03	16671.64
429.22	15363.28
429.40	14485.58
429.59	13123.38
429.78	12049.08
429.97	12142.70
430.16	12255.04
430.34	11960.14
430.53	12493.78
430.72	13207.64
430.91	14815.59
431.10	17139.74
431.28	19672.20
431.47	21081.21
431.66	20563.95
431.85	18295.97
432.03	17102.29
432.22	16994.63
432.41	18558.11
432.60	19707.31
432.79	20542.88
432.97	21179.51
433.16	19782.21
433.35	18174.26
433.54	16243.32
433.72	15749.46
433.91	16730.15
434.10	18768.76
434.28	19833.70
434.47	20573.31
434.66	19814.98
434.85	19587.94
435.03	19700.29
435.22	20009.24
435.41	21160.78
435.59	21502.50
435.78	21301.22
435.97	22118.06
436.16	22167.21
436.34	21600.80
436.53	21806.77
436.72	21345.69
436.90	20603.74
437.09	20287.76
437.28	20219.89
437.46	20971.20
437.65	20266.70
437.84	18810.89
438.02	17715.51
438.21	17701.47
438.40	18532.36
438.58	20245.63
438.77	20472.67
438.96	21071.84
439.14	22190.62
439.33	22176.58
439.52	22237.43
439.70	21776.34
439.89	20978.22
440.08	20566.29
440.26	20760.55
440.45	21659.32
440.63	23576.22
440.82	24318.17
441.01	23927.30
441.19	23690.90
441.38	24669.25
441.57	25748.23
441.75	25064.80
441.94	25380.77
442.12	25420.56
442.31	25998.67
442.50	25673.34
442.68	25340.98
442.87	25172.46
443.05	24533.50
443.24	25163.10
443.43	25851.22
443.61	26155.49
443.80	26438.69
443.98	25392.47
444.17	25369.07
444.35	26684.45
444.54	27316.39
444.73	26529.97
444.91	24772.23
445.10	24217.52
445.28	23321.10
445.47	23442.81
445.65	23159.60
445.84	24603.71
446.02	24870.53
446.21	25514.18
446.39	25212.25
446.58	25872.28
446.77	26286.56
446.95	26728.92
447.14	27098.72
447.32	27789.18
447.51	27091.70
447.69	25818.45
447.88	25944.84
448.06	26359.11
448.25	26504.23
448.43	26075.91
448.62	26118.04
448.80	26122.72
448.99	26036.12
449.17	26485.50
449.36	26953.61
449.54	27234.47
449.73	27981.10
449.91	28091.11
450.10	28837.74
450.28	29153.71
450.46	29170.10
450.65	29530.54
450.83	28847.10
451.02	28327.50
451.20	28318.14
451.39	28479.64
451.57	28510.07
451.76	28503.04
451.94	27381.93
452.13	27136.17
452.31	25504.82
452.49	24592.01
452.68	25291.83
452.86	25879.30
453.05	25628.87
453.23	27019.14
453.42	27346.82
453.60	28184.73
453.78	27831.31
453.97	27957.70
454.15	27349.16
454.34	26469.12
454.52	26518.27
454.70	26284.22
454.89	27173.62
455.07	26892.76
455.26	27578.53
455.44	28489.00
455.62	29024.98
455.81	28882.21
455.99	28783.91
456.17	29104.56
456.36	29958.86
456.54	29628.84
456.73	29586.71
456.91	29865.24
457.09	30129.72
457.28	30972.31
457.46	29476.71
457.64	28861.15
457.83	28484.32
458.01	27843.01
458.19	28926.68
458.38	29415.85
458.56	29890.98
458.74	29472.03
458.93	29551.60
459.11	28746.46
459.29	28453.89
459.48	29376.06
459.66	28889.23
459.84	28957.11
460.03	29532.88
460.21	29696.72
460.39	30450.37
460.57	29947.15
460.76	30270.15
460.94	30852.94
461.12	30558.03
461.31	30785.07
461.49	30913.80
461.67	30501.86
461.85	30925.50
462.04	31030.82
462.22	31337.43
462.40	30719.53
462.59	30541.65
462.77	30892.73
462.95	30560.37
463.13	30410.58
463.32	29694.38
463.50	29928.43
463.68	30256.11
463.86	30607.19
464.05	29467.34
464.23	28863.49
464.41	29270.74
464.59	28966.47
464.78	30309.94
464.96	30185.89
465.14	29331.59
465.32	31269.56
465.50	31527.02
465.69	32137.90
465.87	30773.36
466.05	30012.69
466.23	28580.28
466.41	28149.62
466.60	29071.79
466.78	28954.77
466.96	29572.67
467.14	30422.28
467.32	29757.57
467.51	30490.16
467.69	29142.01
467.87	29460.32
468.05	30305.26
468.23	30349.73
468.41	30094.61
468.60	29935.45
468.78	31110.40
468.96	30546.33
469.14	31122.10
469.32	30939.54
469.50	29308.19
469.69	29818.42
469.87	29762.25
470.05	29472.03
470.23	29165.42
470.41	29338.62
470.59	29912.05
470.77	30094.61
470.95	31171.25
471.14	30923.16
471.32	31438.08
471.50	32924.32
471.68	32898.57
471.86	33420.51
472.04	32746.44
472.22	33027.30
472.40	31910.86
472.58	31655.75
472.77	31250.83
472.95	31751.71
473.13	32774.52
473.31	31428.71
473.49	31421.69
473.67	32299.39
473.85	32790.91
474.03	34169.48
474.21	34686.74
474.39	34527.58
474.57	34082.88
474.75	34469.07
474.93	34143.74
475.12	33481.36
475.30	33123.26
475.48	32898.57
475.66	32779.20
475.84	32540.47
476.02	32826.01
476.20	32781.54
476.38	33233.27
476.56	34347.36
476.74	35316.34
476.92	35241.45
477.10	35618.27
477.28	36378.95
477.46	36622.36
477.64	36966.42
477.82	36886.84
478.00	37186.43
478.18	35962.33
478.36	35646.36
478.54	36299.37
478.72	36992.17
478.90	38424.57
479.08	39772.72
479.26	39641.65
479.44	39739.96
479.62	38976.94
479.80	39824.22
479.98	39164.18
480.16	40107.42
480.34	39445.05
480.52	40093.38
480.70	40650.42
480.88	39959.97
481.06	40381.26
481.24	40758.09
481.41	41544.51
481.59	42705.41
481.77	41783.24
481.95	41109.17
482.13	41027.25
482.31	41322.16
482.49	42043.04
482.67	41624.09
482.85	41886.23
483.03	41834.74
483.21	43276.51
483.39	42300.50
483.57	41621.75
483.74	41600.68
483.92	42574.34
484.10	42424.55
484.28	42478.38
484.46	42532.22
484.64	44313.36
484.82	43058.84
485.00	42459.66
485.18	42059.43
485.35	39889.75
485.53	34988.67
485.71	33462.64
485.89	34031.39
486.07	35758.70
486.25	38588.41
486.43	41036.61
486.61	41418.12
486.78	40816.60
486.96	42410.51
487.14	43871.00
487.32	44280.60
487.50	45177.02
487.68	46433.89
487.85	47662.67
488.03	46408.14
488.21	46103.87
488.39	45301.07
488.57	44547.42
488.75	44500.61
488.92	46555.60
489.10	48619.95
489.28	49645.10
489.46	51136.02
489.64	50501.74
489.81	50995.59
489.99	49471.90
490.17	49715.32
490.35	50106.19
490.53	49408.71
490.70	48779.10
490.88	49485.95
491.06	50438.54
491.24	50724.09
491.41	49338.49
491.59	47206.26
491.77	47445.00
491.95	49177.00
492.13	50501.74
492.30	51133.68
492.48	51807.76
492.66	52198.63
492.84	52048.83
493.01	51767.97
493.19	51444.98
493.37	50770.90
493.54	51421.57
493.72	52449.06
493.90	52718.23
494.08	53251.87
494.25	53048.24
494.43	53879.13
494.61	54323.83
494.79	54576.61
494.96	54672.57
495.14	54162.34
495.32	52498.22
495.49	52786.10
495.67	53904.88
495.85	54597.68
496.02	55348.99
496.20	54899.61
496.38	54656.19
496.55	54693.64
496.73	55419.20
496.91	55419.20
497.09	55229.62
497.26	55433.25
497.44	54972.16
497.62	53979.78
497.79	53092.71
497.97	52332.04
498.14	53200.38
498.32	54445.54
498.50	54443.20
498.67	54475.97
498.85	55025.99
499.03	55447.29
499.20	56081.58
499.38	55398.14
499.56	54784.92
499.73	54550.87
499.91	54244.26
500.08	53319.74
500.26	52975.69
500.44	53886.15
500.61	54759.17
500.79	53874.45
500.97	54382.35
501.14	53181.65
501.32	53179.31
501.49	53521.03
501.67	53762.11
501.84	54113.19
502.02	54630.44
502.20	55391.12
502.37	55491.76
502.55	55690.71
502.72	55728.16
502.90	56409.25
503.07	56107.32
503.25	54733.43
503.43	53715.29
503.60	53593.59
503.78	53312.72
503.95	53773.81
504.13	55164.09
504.30	55536.23
504.48	55384.10
504.65	55105.57
504.83	55405.16
505.01	56343.72
505.18	56626.92
505.36	56725.22
505.53	56898.42
505.71	57291.63
505.88	57092.69
506.06	56708.84
506.23	56289.88
506.41	56217.33
506.58	56549.68
506.76	56587.13
506.93	55540.91
507.11	55899.01
507.28	56123.71
507.46	55124.30
507.63	55510.49
507.81	54169.36
507.98	55360.69
508.16	56662.03
508.33	56570.75
508.50	56980.34
508.68	57078.64
508.85	57556.11
509.03	57780.81
509.20	56732.25
509.38	55896.67
509.55	55683.69
509.73	56048.81
509.90	56444.36
510.08	56832.89
510.25	56130.73
510.42	56088.60
510.60	56921.83
510.77	56989.70
510.95	56999.07
511.12	57109.07
511.30	57939.96
511.47	57834.64
511.64	57914.22
511.82	57827.62
511.99	56643.30
512.17	56802.46
512.34	56191.58
512.51	56224.35
512.69	56835.23
512.86	56467.76
513.04	56825.87
513.21	56236.05
513.38	55487.08
513.56	55180.47
513.73	54630.44
513.90	55625.17
514.08	55498.78
514.25	55194.51
514.43	56002.00
514.60	56086.26
514.77	56596.49
514.95	56676.07
515.12	56439.68
515.29	57052.90
515.47	57485.90
515.64	57296.31
515.81	56835.23
515.99	55709.43
516.16	53834.66
516.33	51166.45
516.51	51257.73
516.68	49521.05
516.85	49221.47
517.03	51086.87
517.20	53645.08
517.37	55803.05
517.54	56900.76
517.72	55241.32
517.89	51962.23
518.06	50749.84
518.24	52032.45
518.41	54120.21
518.58	54953.44
518.75	55033.02
518.93	55332.60
519.10	54305.11
519.27	55655.60
519.45	56079.24
519.62	56809.48
519.79	56732.25
519.96	56104.98
520.14	56172.86
520.31	54773.22
520.48	55143.02
520.65	55983.27
520.83	56996.73
521.00	56687.78
521.17	56402.23
521.34	56329.67
521.52	56903.10
521.69	57017.79
521.86	57567.82
522.03	57499.94
522.20	55489.42
522.38	55044.72
522.55	55707.09
522.72	56222.01
522.89	55576.02
523.07	56554.36
523.24	56554.36
523.41	57846.34
523.58	58279.34
523.75	58387.00
523.92	58028.90
524.10	57551.43
524.27	57322.06
524.44	57382.91
524.61	57212.06
524.78	57506.96
524.96	57364.19
525.13	57350.15
525.30	57907.19
525.47	58014.86
525.64	57897.83
525.81	56975.66
525.98	55047.06
526.16	53808.92
526.33	54136.59
526.50	53282.30
526.67	53778.49
526.84	54012.54
527.01	54934.71
527.18	55454.31
527.36	56537.98
527.53	57682.50
527.70	56811.82
527.87	55365.37
528.04	56800.12
528.21	57162.90
528.38	57944.64
528.55	58817.66
528.72	58265.30
528.89	57869.75
529.07	57492.92
529.24	56540.32
529.41	56046.47
529.58	56456.06
529.75	57106.73
529.92	57443.77
530.09	57172.27
530.26	57748.04
530.43	58801.28
530.60	57684.84
530.77	58064.01
530.94	58363.60
531.11	57635.69
531.28	57916.56
531.46	57984.43
531.63	57757.40
531.80	56884.38
531.97	56453.72
532.14	56570.75
532.31	55147.70
532.48	54349.58
532.65	54637.47
532.82	55648.58
532.99	56865.66
533.16	57015.45
533.33	57172.27
533.50	57530.37
533.67	57467.17
533.84	56500.53
534.01	57013.11
534.18	57308.02
534.35	57041.20
534.52	56112.00
534.69	56907.79
534.86	57645.05
535.03	57684.84
535.20	57525.69
535.37	58232.53
535.54	58642.12
535.71	58211.46
535.88	58663.19
536.05	57059.92
536.22	56303.93
536.38	56175.20
536.55	55346.65
536.72	55161.75
536.89	55657.94
537.06	55929.44
537.23	56736.93
537.40	56748.63
537.57	56776.72
537.74	56914.81
537.91	56839.91
538.08	56519.26
538.25	56617.56
538.42	57305.68
538.59	56769.69
538.75	55447.29
538.92	54993.23
539.09	55643.90
539.26	55641.56
539.43	55583.04
539.60	55842.84
539.77	56294.56
539.94	55985.61
540.11	55241.32
540.28	54857.48
540.44	54066.38
540.61	54255.96
540.78	54981.52
540.95	55952.85
541.12	56060.51
541.29	56484.15
541.46	56772.03
541.62	56720.54
541.79	55997.32
541.96	55166.43
542.13	55189.83
542.30	55510.49
542.47	56229.03
542.63	55573.68
542.80	55786.67
542.97	55133.66
543.14	54960.46
543.31	55182.81
543.48	56275.84
543.64	56783.74
543.81	57806.55
543.98	57509.30
544.15	55641.56
544.32	56271.16
544.48	56009.02
544.65	55906.04
544.82	56662.03
544.99	54838.75
545.16	54595.34
545.32	54805.98
545.49	55793.69
545.66	56079.24
545.83	55697.73
546.00	56097.96
546.16	56271.16
546.33	55969.23
546.50	55896.67
546.67	56512.23
546.83	55519.85
547.00	56404.57
547.17	54920.67
547.34	53963.39
547.50	54298.09
547.67	55468.36
547.84	56072.21
548.00	55742.20
548.17	55683.69
548.34	55882.63
548.51	56582.45
548.67	56545.00
548.84	56561.39
549.01	56528.62
549.18	55833.48
549.34	55688.37
549.51	55840.50
549.68	55980.93
549.84	55468.36
550.01	55182.81
550.18	54710.02
550.34	55063.44
550.51	55475.38
550.68	56051.15
550.84	55723.47
551.01	54944.08
551.18	54693.64
551.34	54340.22
551.51	55423.89
551.68	55220.26
551.84	55463.67
552.01	55358.35
552.18	54857.48
552.34	54323.83
552.51	54026.59
552.68	54075.74
552.84	54295.75
553.01	54527.46
553.18	55519.85
553.34	55304.52
553.51	55646.24
553.67	55131.32
553.84	54817.69
554.01	55461.33
554.17	54653.85
554.34	55292.82
554.51	54923.01
554.67	54541.50
554.84	54459.58
555.00	54288.73
555.17	54707.68
555.33	54255.96
555.50	53427.41
555.67	54419.80
555.83	54490.01
556.00	54089.78
556.16	53984.46
556.33	53366.55
556.50	53989.14
556.66	54145.95
556.83	53647.42
556.99	53380.60
557.16	53839.34
557.32	53750.40
557.49	53600.61
557.65	53324.43
557.82	54389.37
557.98	54520.44
558.15	53214.42
558.32	51964.57
558.48	51536.26
558.65	51749.24
558.81	52420.98
558.98	53216.76
559.14	53712.95
559.31	53209.74
559.47	52451.41
559.64	52254.80
559.80	52016.07
559.97	52643.33
560.13	53822.96
560.30	54740.45
560.46	54876.20
560.63	55515.17
560.79	55182.81
560.96	54300.43
561.12	52947.60
561.29	51990.32
561.45	52362.46
561.61	54019.56
561.78	53017.82
561.94	53961.05
562.11	53848.71
562.27	52687.80
562.44	53553.80
562.60	53916.58
562.77	54145.95
562.93	52968.66
563.10	52924.19
563.26	52605.88
563.42	53710.61
563.59	52554.39
563.75	53111.44
563.92	52825.89
564.08	52013.73
564.24	52914.83
564.41	52175.22
564.57	53399.32
564.74	52725.25
564.90	51903.72
565.07	52261.82
565.23	51250.71
565.39	50698.34
565.56	51559.66
565.72	51583.07
565.88	49837.03
566.05	51945.85
566.21	53146.54
566.38	52397.57
566.54	52332.04
566.70	52949.94
566.87	52718.23
567.03	52093.30
567.19	53022.50
567.36	53616.99
567.52	52229.05
567.68	51744.56
567.85	50658.56
568.01	50738.13
568.17	51360.72
568.34	51805.42
568.50	51770.31
568.66	51737.54
568.83	51084.53
568.99	50459.61
569.15	50899.63
569.32	51201.56
569.48	50841.12
569.64	50192.79
569.81	50515.78
569.97	49996.18
570.13	49577.23
570.30	49567.87
570.46	48601.22
570.62	47241.37
570.78	48378.87
570.95	49097.42
571.11	49188.70
571.27	48472.49
571.43	48804.85
571.60	48673.78
571.76	50525.14
571.92	50422.16
572.09	51077.51
572.25	51168.79
572.41	52027.77
572.57	51430.93
572.74	51435.61
572.90	52573.11
573.06	51475.40
573.22	51536.26
573.38	51107.94
573.55	52793.12
573.71	51178.15
573.87	51147.73
574.03	51187.52
574.20	50513.44
574.36	50981.55
574.52	49385.30
574.68	49226.15
574.84	48903.15
575.01	48999.12
575.17	49759.79
575.33	49916.61
575.49	49963.42
575.65	48842.30
575.82	49427.43
575.98	49120.82
576.14	49827.66
576.30	50731.11
576.46	49233.17
576.62	49233.17
576.79	49223.81
576.95	49097.42
577.11	49523.40
577.27	49490.63
577.43	50148.32
577.59	48875.07
577.75	47304.57
577.92	47454.36
578.08	47576.07
578.24	48776.76
578.40	48175.25
578.56	47878.00
578.72	47882.68
578.88	47730.54
579.04	48336.74
579.21	48135.46
579.37	48259.51
579.53	48746.34
579.69	48006.73
579.85	47496.49
580.01	47995.03
580.17	47660.33
580.33	48835.28
580.49	48924.22
580.65	46799.01
580.82	48032.47
580.98	48964.01
581.14	48858.68
581.30	48900.81
581.46	47978.64
581.62	48472.49
581.78	49209.76
581.94	48856.34
582.10	49525.74
582.26	49584.25
582.42	49401.69
582.58	47430.96
582.74	47208.61
582.90	47782.04
583.06	47730.54
583.22	48549.73
583.38	48432.71
583.54	48683.14
583.70	49118.48
583.86	48629.31
584.02	48098.01
584.18	48086.31
584.34	47594.79
584.50	47004.98
584.66	46829.44
584.82	47433.30
584.98	47501.17
585.14	46717.09
585.30	47103.28
