SpectraSuite Data File
++++++++++++++++++++++++++++++++++++
Date: Mon Oct 07 14:54:56 GMT-05:00 2013
User: price-jones
Dark Spectrum Present: No
Reference Spectrum Present: No
Number of Sampled Component Spectra: 1
Spectrometers: USB2+H05261
Integration Time (usec): 10000 (USB2+H05261)
Spectra Averaged: 1 (USB2+H05261)
Boxcar Smoothing: 0 (USB2+H05261)
Correct for Electrical Dark: No (USB2+H05261)
Strobe/Lamp Enabled: No (USB2+H05261)
Correct for Detector Non-linearity: No (USB2+H05261)
Correct for Stray Light: No (USB2+H05261)
Number of Pixels in Processed Spectrum: 2048
>>>>>Begin Processed Spectral Data<<<<<
365.73	0.00
365.92	0.00
366.12	0.00
366.32	0.00
366.52	0.00
366.72	0.00
366.91	0.00
367.11	0.00
367.31	0.00
367.51	0.00
367.70	0.00
367.90	0.00
368.10	0.00
368.30	0.00
368.49	0.00
368.69	0.00
368.89	0.00
369.09	0.00
369.28	0.00
369.48	0.00
369.68	0.00
369.87	0.00
370.07	0.00
370.27	0.00
370.47	0.00
370.66	0.00
370.86	25.75
371.06	105.32
371.25	86.60
371.45	56.17
371.65	56.17
371.84	25.75
372.04	65.54
372.24	152.13
372.44	131.07
372.63	86.60
372.83	100.64
373.03	46.81
373.22	0.00
373.42	65.54
373.62	86.60
373.81	149.79
374.01	72.56
374.21	135.75
374.40	131.07
374.60	53.83
374.79	124.05
374.99	229.37
375.19	248.10
375.38	222.35
375.58	201.29
375.78	152.13
375.97	170.86
376.17	231.71
376.37	147.45
376.56	203.63
376.76	217.67
376.95	231.71
377.15	308.95
377.35	301.93
377.54	290.23
377.74	334.70
377.93	304.27
378.13	313.63
378.33	271.50
378.52	234.05
378.72	126.39
378.91	229.37
379.11	301.93
379.31	170.86
379.50	198.95
379.70	241.08
379.89	369.80
380.09	360.44
380.28	409.59
380.48	269.16
380.68	327.68
380.87	315.97
381.07	264.48
381.26	187.24
381.46	161.50
381.65	212.99
381.85	203.63
382.04	63.19
382.24	177.88
382.43	91.28
382.63	2.34
382.83	154.48
383.02	145.11
383.22	37.45
383.41	112.35
383.61	168.52
383.80	189.58
384.00	311.29
384.19	393.21
384.39	292.57
384.58	402.57
384.78	379.17
384.97	348.74
385.17	290.23
385.36	205.97
385.56	175.54
385.75	229.37
385.95	234.05
386.14	255.12
386.34	379.17
386.53	334.70
386.72	313.63
386.92	248.10
387.11	287.89
387.31	264.48
387.50	339.38
387.70	287.89
387.89	358.10
388.09	330.02
388.28	346.40
388.48	369.80
388.67	355.76
388.86	482.15
389.06	475.13
389.25	496.19
389.45	470.45
389.64	468.11
389.84	505.56
390.03	472.79
390.22	486.83
390.42	585.13
390.61	566.41
390.81	688.12
391.00	674.07
391.19	575.77
391.39	622.58
391.58	603.86
391.78	477.47
391.97	461.09
392.16	442.36
392.36	332.36
392.55	252.78
392.75	180.22
392.94	86.60
393.13	135.75
393.33	168.52
393.52	299.59
393.71	365.12
393.91	454.06
394.10	477.47
394.29	582.79
394.49	535.98
394.68	697.48
394.88	704.50
395.07	709.18
395.26	732.59
395.46	650.67
395.65	566.41
395.84	496.19
396.04	395.55
396.23	276.18
396.42	229.37
396.62	154.48
396.81	212.99
397.00	435.34
397.19	458.74
397.39	638.97
397.58	704.50
397.77	842.59
397.97	856.64
398.16	947.92
398.35	877.70
398.55	1020.47
398.74	1123.46
398.93	1018.13
399.12	1020.47
399.32	997.07
399.51	943.24
399.70	1074.31
399.90	1055.58
400.09	1107.07
400.28	1046.22
400.47	1011.11
400.67	1116.44
400.86	1193.67
401.05	1153.88
401.24	1170.27
401.44	1280.27
401.63	1170.27
401.82	1217.08
402.01	1191.33
402.21	1205.38
402.40	1228.78
402.59	1203.04
402.78	1153.88
402.97	1043.88
403.17	1128.14
403.36	1128.14
403.55	1226.44
403.74	1270.91
403.93	1165.59
404.13	1205.38
404.32	1057.92
404.51	1022.81
404.70	1231.12
404.89	1228.78
405.09	1205.38
405.28	1135.16
405.47	1181.97
405.66	1207.72
405.85	1149.20
406.05	1090.69
406.24	1245.16
406.43	1158.57
406.62	1291.98
406.81	1205.38
407.00	1062.60
407.20	1177.29
407.39	1163.25
407.58	1137.50
407.77	1226.44
407.96	1299.00
408.15	1299.00
408.34	1378.58
408.54	1369.21
408.73	1308.36
408.92	1317.72
409.11	1315.38
409.30	1289.64
409.49	1228.78
409.68	1046.22
409.87	1097.71
410.07	1128.14
410.26	1240.48
410.45	1373.89
410.64	1317.72
410.83	1366.87
411.02	1434.75
411.21	1423.05
411.40	1497.94
411.59	1401.98
411.78	1493.26
411.98	1434.75
412.17	1493.26
412.36	1472.20
412.55	1458.15
412.74	1394.96
412.93	1444.11
413.12	1401.98
413.31	1554.12
413.50	1605.61
413.69	1600.93
413.88	1589.22
414.07	1439.43
414.26	1404.32
414.45	1586.88
414.64	1493.26
414.83	1526.03
415.02	1593.90
415.22	1600.93
415.41	1579.86
415.60	1621.99
415.79	1741.36
415.98	1760.08
416.17	1699.23
416.36	1652.42
416.55	1671.14
416.74	1521.35
416.93	1565.82
417.12	1488.58
417.31	1619.65
417.50	1741.36
417.69	1724.97
417.88	1598.59
418.07	1650.08
418.26	1607.95
418.45	1678.16
418.64	1558.80
418.83	1755.40
419.02	1757.74
419.21	1739.02
419.39	1556.46
419.58	1476.88
419.77	1563.48
419.96	1596.25
420.15	1636.03
420.34	1823.28
420.53	1757.74
420.72	1907.54
420.91	1809.23
421.10	1783.49
421.29	1834.98
421.48	1816.26
421.67	1825.62
421.86	1816.26
422.05	1701.57
422.24	1530.71
422.43	1380.92
422.61	1568.16
422.80	1645.40
422.99	1774.13
423.18	1652.42
423.37	1535.39
423.56	1647.74
423.75	1666.46
423.94	1734.34
424.13	1678.16
424.32	1570.50
424.50	1605.61
424.69	1617.31
424.88	1591.56
425.07	1593.90
425.26	1633.69
425.45	1481.56
425.64	1589.22
425.83	1544.75
426.01	1741.36
426.20	1605.61
426.39	1579.86
426.58	1547.09
426.77	1535.39
426.96	1439.43
427.15	1446.45
427.33	1579.86
427.52	1631.35
427.71	1664.12
427.90	1610.29
428.09	1598.59
428.28	1575.18
428.46	1523.69
428.65	1427.73
428.84	1458.15
429.03	1528.37
429.22	1476.88
429.40	1387.94
429.59	1263.89
429.78	1032.18
429.97	1011.11
430.16	1008.77
430.34	1088.35
430.53	1032.18
430.72	1034.52
430.91	1280.27
431.10	1469.86
431.28	1898.17
431.47	1844.34
431.66	1959.03
431.85	1760.08
432.03	1626.67
432.22	1551.78
432.41	1689.87
432.60	1816.26
432.79	1797.53
432.97	1947.33
433.16	1820.94
433.35	1617.31
433.54	1591.56
433.72	1364.53
433.91	1511.99
434.10	1685.19
434.28	1816.26
434.47	1806.89
434.66	1816.26
434.85	1820.94
435.03	1830.30
435.22	1802.21
435.41	1884.13
435.59	2001.16
435.78	2001.16
435.97	2071.37
436.16	2001.16
436.34	2073.71
436.53	1984.77
436.72	1982.43
436.90	1886.47
437.09	1881.79
437.28	1795.19
437.46	1853.70
437.65	1844.34
437.84	1774.13
438.02	1565.82
438.21	1467.52
438.40	1629.01
438.58	1767.10
438.77	1879.45
438.96	1886.47
439.14	2038.61
439.33	2022.22
439.52	2029.24
439.70	1895.83
439.89	1968.39
440.08	1884.13
440.26	1844.34
440.45	2057.33
440.63	2139.25
440.82	2265.64
441.01	2223.51
441.19	2174.36
441.38	2225.85
441.57	2326.49
441.75	2265.64
441.94	2286.70
442.12	2249.25
442.31	2370.96
442.50	2317.13
442.68	2436.50
442.87	2333.51
443.05	2232.87
443.24	2340.54
443.43	2253.94
443.61	2312.45
443.80	2436.50
443.98	2195.42
444.17	2354.58
444.35	2377.98
444.54	2462.24
444.73	2363.94
444.91	2303.09
445.10	2282.02
445.28	2202.44
445.47	2040.95
445.65	2195.42
445.84	2139.25
446.02	2190.74
446.21	2326.49
446.39	2331.17
446.58	2363.94
446.77	2312.45
446.95	2335.85
447.14	2485.65
447.32	2363.94
447.51	2455.22
447.69	2457.56
447.88	2326.49
448.06	2263.30
448.25	2366.28
448.43	2417.77
448.62	2289.04
448.80	2251.60
448.99	2324.15
449.17	2253.94
449.36	2356.92
449.54	2413.09
449.73	2434.16
449.91	2520.76
450.10	2600.34
450.28	2647.15
450.46	2623.74
450.65	2586.29
450.83	2560.55
451.02	2408.41
451.20	2427.14
451.39	2457.56
451.57	2462.24
451.76	2448.20
451.94	2539.48
452.13	2403.73
452.31	2296.07
452.49	2265.64
452.68	2235.21
452.86	2235.21
453.05	2375.64
453.23	2282.02
453.42	2317.13
453.60	2553.52
453.78	2471.61
453.97	2394.37
454.15	2483.31
454.34	2363.94
454.52	2335.85
454.70	2370.96
454.89	2375.64
455.07	2459.90
455.26	2509.05
455.44	2551.18
455.62	2595.65
455.81	2532.46
455.99	2541.82
456.17	2630.76
456.36	2462.24
456.54	2623.74
456.73	2633.10
456.91	2672.89
457.09	2677.57
457.28	2502.03
457.46	2567.57
457.64	2504.37
457.83	2518.42
458.01	2490.33
458.19	2392.03
458.38	2530.12
458.56	2633.10
458.74	2588.63
458.93	2429.48
459.11	2595.65
459.29	2537.14
459.48	2555.86
459.66	2473.95
459.84	2686.94
460.03	2541.82
460.21	2560.55
460.39	2597.99
460.57	2658.85
460.76	2644.81
460.94	2708.00
461.12	2733.75
461.31	2612.04
461.49	2719.70
461.67	2588.63
461.85	2628.42
462.04	2827.37
462.22	2708.00
462.40	2743.11
462.59	2708.00
462.77	2705.66
462.95	2710.34
463.13	2743.11
463.32	2736.09
463.50	2565.23
463.68	2576.93
463.86	2703.32
464.05	2743.11
464.23	2558.21
464.41	2623.74
464.59	2509.05
464.78	2602.68
464.96	2649.49
465.14	2539.48
465.32	2705.66
465.50	2562.89
465.69	2733.75
465.87	2698.64
466.05	2537.14
466.23	2401.39
466.41	2448.20
466.60	2450.54
466.78	2478.63
466.96	2420.11
467.14	2569.91
467.32	2586.29
467.51	2504.37
467.69	2417.77
467.87	2600.34
468.05	2553.52
468.23	2518.42
468.41	2588.63
468.60	2637.78
468.78	2597.99
468.96	2485.65
469.14	2675.23
469.32	2696.30
469.50	2607.36
469.69	2628.42
469.87	2532.46
470.05	2537.14
470.23	2495.01
470.41	2630.76
470.59	2445.86
470.77	2455.22
470.95	2621.40
471.14	2670.55
471.32	2644.81
471.50	2796.94
471.68	2829.71
471.86	2888.22
472.04	2972.48
472.22	3002.91
472.40	2787.58
472.58	2686.94
472.77	2679.91
472.95	2743.11
473.13	2778.22
473.31	2567.57
473.49	2820.35
473.67	2841.41
473.85	2703.32
474.03	2773.53
474.21	3038.02
474.39	2897.58
474.57	3016.95
474.75	2899.92
474.93	2862.48
475.12	2841.41
475.30	2876.52
475.48	2913.97
475.66	2906.95
475.84	2855.45
476.02	2885.88
476.20	2780.56
476.38	2822.69
476.56	2967.80
476.74	2888.22
476.92	2871.84
477.10	3103.55
477.28	3173.77
477.46	3117.59
477.64	3178.45
477.82	3112.91
478.00	3180.79
478.18	3101.21
478.36	3059.08
478.54	3059.08
478.72	3206.53
478.90	3248.66
479.08	3241.64
479.26	3243.98
479.44	3262.71
479.62	3389.10
479.80	3307.18
479.98	3262.71
480.16	3321.22
480.34	3269.73
480.52	3412.50
480.70	3267.39
480.88	3421.86
481.06	3410.16
481.24	3361.01
481.41	3473.36
481.59	3611.45
481.77	3592.72
481.95	3452.29
482.13	3534.21
482.31	3428.88
482.49	3576.34
482.67	3456.97
482.85	3616.13
483.03	3616.13
483.21	3681.66
483.39	3632.51
483.57	3487.40
483.74	3562.30
483.92	3478.04
484.10	3620.81
484.28	3632.51
484.46	3899.33
484.64	3637.19
484.82	3660.60
485.00	3637.19
485.18	3566.98
485.35	3459.31
485.53	3141.00
485.71	2822.69
485.89	2935.03
486.07	3026.31
486.25	3309.52
486.43	3461.65
486.61	3555.27
486.78	3581.02
486.96	3393.78
487.14	3627.83
487.32	3899.33
487.50	3754.22
487.68	4065.51
487.85	4081.89
488.03	4065.51
488.21	3885.29
488.39	3889.97
488.57	3894.65
488.75	3712.09
488.92	3878.27
489.10	4180.20
489.28	4217.65
489.46	4559.36
489.64	4472.76
489.81	4470.42
489.99	4358.08
490.17	4390.84
490.35	4444.68
490.53	4514.89
490.70	4325.31
490.88	4315.95
491.06	4507.87
491.24	4475.10
491.41	4196.58
491.59	4072.53
491.77	3864.22
491.95	4058.49
492.13	4252.75
492.30	4533.62
492.48	4664.69
492.66	4538.30
492.84	4606.17
493.01	4477.44
493.19	4603.83
493.37	4304.25
493.54	4486.81
493.72	4669.37
493.90	4730.22
494.08	4908.10
494.25	4938.53
494.43	4915.12
494.61	4936.19
494.79	5074.28
494.96	4966.62
495.14	4889.38
495.32	4678.73
495.49	4535.96
495.67	4725.54
495.85	5020.45
496.02	5111.73
496.20	4901.08
496.38	4957.25
496.55	4858.95
496.73	4990.02
496.91	5060.24
497.09	5118.75
497.26	5067.26
497.44	4973.64
497.62	4973.64
497.79	4667.03
497.97	4645.96
498.14	4688.09
498.32	4760.65
498.50	4966.62
498.67	5193.65
498.85	5029.81
499.03	5081.30
499.20	5177.26
499.38	5207.69
499.56	5102.37
499.73	5071.94
499.91	4994.70
500.08	4826.18
500.26	4753.63
500.44	4901.08
500.61	4854.27
500.79	4898.74
500.97	4734.90
501.14	4819.16
501.32	4821.50
501.49	4723.20
501.67	4851.93
501.84	4980.66
502.02	4821.50
502.20	5055.56
502.37	4997.04
502.55	4961.94
502.72	5238.12
502.90	5322.38
503.07	5324.72
503.25	5130.45
503.43	4910.44
503.60	4966.62
503.78	4753.63
503.95	4809.80
504.13	4940.87
504.30	5193.65
504.48	5294.29
504.65	5093.01
504.83	4997.04
505.01	5247.48
505.18	5149.18
505.36	5413.66
505.53	5387.91
505.71	5455.79
505.88	5495.58
506.06	5282.59
506.23	5163.22
506.41	5291.95
506.58	5364.51
506.76	5156.20
506.93	5238.12
507.11	5219.39
507.28	5177.26
507.46	5111.73
507.63	4964.28
507.81	5013.43
507.98	4894.06
508.16	5137.48
508.33	5317.70
508.50	5261.52
508.68	5256.84
508.85	5462.81
509.03	5399.62
509.20	5411.32
509.38	5324.72
509.55	5039.17
509.73	5252.16
509.90	5261.52
510.08	5174.92
510.25	5345.78
510.42	5359.83
510.60	5284.93
510.77	5240.46
510.95	5444.09
511.12	5490.90
511.30	5341.10
511.47	5460.47
511.64	5497.92
511.82	5423.02
511.99	5210.03
512.17	5125.77
512.34	5081.30
512.51	5116.41
512.69	5139.82
512.86	5172.58
513.04	5392.59
513.21	5380.89
513.38	5217.05
513.56	5184.29
513.73	5053.22
513.90	5160.88
514.08	5020.45
514.25	5149.18
514.43	5181.95
514.60	5167.90
514.77	5111.73
514.95	5289.61
515.12	5153.86
515.29	5259.18
515.47	5392.59
515.64	5446.43
515.81	5305.99
515.99	5210.03
516.16	4812.14
516.33	4496.17
516.51	4262.12
516.68	4152.11
516.85	4138.07
517.03	4234.03
517.20	4561.70
517.37	4887.04
517.54	5200.67
517.72	4938.53
517.89	4648.30
518.06	4294.88
518.24	4262.12
518.41	4734.90
518.58	4894.06
518.75	4940.87
518.93	5034.49
519.10	4961.94
519.27	4973.64
519.45	5160.88
519.62	5254.50
519.79	5263.86
519.96	5252.16
520.14	5177.26
520.31	5046.20
520.48	4975.98
520.65	4997.04
520.83	5221.74
521.00	5219.39
521.17	5303.65
521.34	5198.33
521.52	5355.15
521.69	5369.19
521.86	5376.21
522.03	5425.36
522.20	4985.34
522.38	4849.59
522.55	4975.98
522.72	5027.47
522.89	5167.90
523.07	5015.77
523.24	5214.71
523.41	5460.47
523.58	5315.36
523.75	5551.75
523.92	5444.09
524.10	5291.95
524.27	5593.88
524.44	5437.06
524.61	5345.78
524.78	5308.34
524.96	5425.36
525.13	5455.79
525.30	5289.61
525.47	5509.62
525.64	5423.02
525.81	5245.14
525.98	5071.94
526.16	4772.35
526.33	4503.19
526.50	4617.88
526.67	4542.98
526.84	4727.88
527.01	4671.71
527.18	4858.95
527.36	5219.39
527.53	5146.84
527.70	5364.51
527.87	5125.77
528.04	5310.68
528.21	5308.34
528.38	5320.04
528.55	5441.75
528.72	5554.09
528.89	5738.99
529.07	5416.00
529.24	5301.31
529.41	5088.32
529.58	5116.41
529.75	5076.62
529.92	5315.36
530.09	5205.35
530.26	5359.83
530.43	5432.38
530.60	5518.98
530.77	5481.53
530.94	5572.82
531.11	5364.51
531.28	5163.22
531.46	5282.59
531.63	5434.72
531.80	5313.02
531.97	5254.50
532.14	5132.79
532.31	4926.83
532.48	4744.27
532.65	4655.33
532.82	4868.31
532.99	5097.69
533.16	5270.89
533.33	5095.35
533.50	5352.81
533.67	4971.30
533.84	5167.90
534.01	5104.71
534.18	5205.35
534.35	5198.33
534.52	5200.67
534.69	5078.96
534.86	5158.54
535.03	5408.98
535.20	5448.77
535.37	5544.73
535.54	5472.17
535.71	5305.99
535.88	5399.62
536.05	5151.52
536.22	5327.06
536.38	5018.11
536.55	4826.18
536.72	4880.02
536.89	4849.59
537.06	5102.37
537.23	5060.24
537.40	5181.95
537.57	5327.06
537.74	5022.79
537.91	5221.74
538.08	5151.52
538.25	5095.35
538.42	5123.43
538.59	5151.52
538.75	5156.20
538.92	5039.17
539.09	5015.77
539.26	4954.91
539.43	4961.94
539.60	4898.74
539.77	4915.12
539.94	4968.96
540.11	4880.02
540.28	4615.54
540.44	4603.83
540.61	4734.90
540.78	4954.91
540.95	4854.27
541.12	5027.47
541.29	4990.02
541.46	5020.45
541.62	5074.28
541.79	5006.41
541.96	4884.70
542.13	4875.34
542.30	4819.16
542.47	4990.02
542.63	4950.23
542.80	4959.60
542.97	4947.89
543.14	4966.62
543.31	4894.06
543.48	4880.02
543.64	5249.82
543.81	5083.64
543.98	5284.93
544.15	4896.40
544.32	4861.29
544.48	4795.76
544.65	5067.26
544.82	5076.62
544.99	5090.67
545.16	4826.18
545.32	4795.76
545.49	5036.83
545.66	5055.56
545.83	5006.41
546.00	4929.17
546.16	5034.49
546.33	4800.44
546.50	4924.49
546.67	5060.24
546.83	4896.40
547.00	4798.10
547.17	4858.95
547.34	4835.55
547.50	4678.73
547.67	4809.80
547.84	4814.48
548.00	4704.48
548.17	5001.72
548.34	4910.44
548.51	4795.76
548.67	4894.06
548.84	4915.12
549.01	4952.57
549.18	4868.31
549.34	4819.16
549.51	4896.40
549.68	4926.83
549.84	4711.50
550.01	4730.22
550.18	4821.50
550.34	4650.64
550.51	4720.86
550.68	4802.78
550.84	4748.95
551.01	4835.55
551.18	4788.74
551.34	4954.91
551.51	4861.29
551.68	4919.81
551.84	5004.07
552.01	4922.15
552.18	4762.99
552.34	4575.75
552.51	4648.30
552.68	4690.43
552.84	4755.97
553.01	4704.48
553.18	4573.41
553.34	4760.65
553.51	4875.34
553.67	4924.49
553.84	4760.65
554.01	4805.12
554.17	4821.50
554.34	4741.93
554.51	4844.91
554.67	4751.29
554.84	4727.88
555.00	4896.40
555.17	4795.76
555.33	4615.54
555.50	4636.60
555.67	4723.20
555.83	4692.77
556.00	4594.47
556.16	4606.17
556.33	4468.08
556.50	4519.57
556.66	4571.07
556.83	4505.53
556.99	4601.49
557.16	4500.85
557.32	4533.62
557.49	4538.30
557.65	4727.88
557.82	4526.60
557.98	4683.41
558.15	4669.37
558.32	4374.46
558.48	4252.75
558.65	4187.22
558.81	4287.86
558.98	4229.35
559.14	4496.17
559.31	4360.42
559.47	4409.57
559.64	4315.95
559.80	4393.19
559.97	4322.97
560.13	4400.21
560.30	4489.15
560.46	4629.58
560.63	4786.40
560.79	4692.77
560.96	4442.34
561.12	4229.35
561.29	4294.88
561.45	4390.84
561.61	4374.46
561.78	4358.08
561.94	4329.99
562.11	4264.46
562.27	4337.01
562.44	4402.55
562.60	4535.96
562.77	4304.25
562.93	4652.98
563.10	4454.04
563.26	4512.55
563.42	4418.93
563.59	4454.04
563.75	4493.83
563.92	4227.01
564.08	4245.73
564.24	4449.36
564.41	4461.06
564.57	4353.40
564.74	4388.50
564.90	4397.87
565.07	4416.59
565.23	4236.37
565.39	4262.12
565.56	4124.02
565.72	4119.34
565.88	4161.47
566.05	4117.00
566.21	4229.35
566.38	4269.14
566.54	4234.03
566.70	4234.03
566.87	4465.74
567.03	4273.82
567.19	4386.16
567.36	4315.95
567.52	4229.35
567.68	4344.03
567.85	4079.55
568.01	4044.45
568.17	4037.42
568.34	4117.00
568.50	3948.48
568.66	4072.53
568.83	4060.83
568.99	4053.81
569.15	4058.49
569.32	4081.89
569.48	4224.67
569.64	4161.47
569.81	4077.21
569.97	3992.95
570.13	4009.34
570.30	4004.66
570.46	3826.78
570.62	3777.62
570.78	3852.52
570.95	3857.20
571.11	3992.95
571.27	3934.44
571.43	4023.38
571.60	3918.06
571.76	3908.69
571.92	4042.11
572.09	4170.83
572.25	4152.11
572.41	4201.26
572.57	3960.19
572.74	4154.45
572.90	4030.40
573.06	3974.23
573.22	4051.47
573.38	4007.00
573.55	3995.29
573.71	4004.66
573.87	3971.89
574.03	3971.89
574.20	3875.93
574.36	3878.27
574.52	3845.50
574.68	3749.54
574.84	3798.69
575.01	3735.50
575.17	3730.81
575.33	3791.67
575.49	3831.46
575.65	3824.44
575.82	3850.18
575.98	3906.35
576.14	3845.50
576.30	3779.97
576.46	3829.12
576.62	3845.50
576.79	4018.70
576.95	3765.92
577.11	3794.01
577.27	3801.03
577.43	3772.94
577.59	3681.66
577.75	3859.54
577.92	3765.92
578.08	3454.63
578.24	3728.47
578.40	3796.35
578.56	3777.62
578.72	3770.60
578.88	3770.60
579.04	3674.64
579.21	3735.50
579.37	3782.31
579.53	3808.05
579.69	3833.80
579.85	3852.52
580.01	3763.58
580.17	3662.94
580.33	3742.52
580.49	3772.94
580.65	3669.96
580.82	3808.05
580.98	3721.45
581.14	3803.37
581.30	3756.56
581.46	3728.47
581.62	3623.15
581.78	3737.84
581.94	3875.93
582.10	3772.94
582.26	3801.03
582.42	3803.37
582.58	3660.60
582.74	3744.86
582.90	3831.46
583.06	3707.41
583.22	3721.45
583.38	3761.24
583.54	3662.94
583.70	3768.26
583.86	3768.26
584.02	3655.92
584.18	3576.34
584.34	3655.92
584.50	3698.05
584.66	3726.13
584.82	3569.32
584.98	3733.15
585.14	3609.11
585.30	3449.95
585.46	3524.85
585.62	3463.99
585.78	3590.38
585.94	3606.77
586.10	3578.68
586.26	3599.74
586.42	3777.62
586.58	3667.62
586.74	3634.85
586.90	3534.21
587.06	3529.53
587.22	3562.30
587.38	3557.61
587.54	3574.00
587.70	3651.24
587.86	3412.50
588.02	3501.44
588.18	3581.02
588.34	3368.03
588.49	3098.87
588.65	2911.63
588.81	2963.12
588.97	3009.93
589.13	2939.71
589.29	2871.84
589.45	2963.12
589.61	3073.12
589.77	3206.53
589.93	3290.79
590.08	3361.01
590.24	3325.90
590.40	3421.86
590.56	3431.23
590.72	3302.50
590.88	3370.37
591.04	3358.67
591.20	3323.56
591.35	3365.69
591.51	3276.75
591.67	3176.11
591.83	3262.71
591.99	3311.86
592.15	3419.52
592.31	3400.80
592.46	3384.41
592.62	3206.53
592.78	3403.14
592.94	3255.69
593.10	3183.13
593.26	3199.51
593.41	3309.52
593.57	3361.01
593.73	3272.07
593.89	3225.26
594.05	3225.26
594.20	3288.45
594.36	3131.64
594.52	3122.27
594.68	3047.38
594.84	3229.94
594.99	3180.79
595.15	3187.81
595.31	3199.51
595.47	3073.12
595.62	3187.81
595.78	3262.71
595.94	3328.24
596.10	3162.06
596.25	3229.94
596.41	3297.81
596.57	3143.34
596.73	3119.93
596.88	3225.26
597.04	3101.21
597.20	3061.42
597.36	3164.40
597.51	3262.71
597.67	3239.30
597.83	3201.85
597.99	3162.06
598.14	3178.45
598.30	3054.40
