SpectraSuite Data File
++++++++++++++++++++++++++++++++++++
Date: Mon Oct 07 14:53:18 GMT-05:00 2013
User: price-jones
Dark Spectrum Present: No
Reference Spectrum Present: No
Number of Sampled Component Spectra: 1
Spectrometers: USB2+H05261
Integration Time (usec): 100000 (USB2+H05261)
Spectra Averaged: 1 (USB2+H05261)
Boxcar Smoothing: 0 (USB2+H05261)
Correct for Electrical Dark: No (USB2+H05261)
Strobe/Lamp Enabled: No (USB2+H05261)
Correct for Detector Non-linearity: No (USB2+H05261)
Correct for Stray Light: No (USB2+H05261)
Number of Pixels in Processed Spectrum: 2048
>>>>>Begin Processed Spectral Data<<<<<
365.73	0.00
365.92	0.00
366.12	0.00
366.32	0.00
366.52	0.00
366.72	0.00
366.91	0.00
367.11	0.00
367.31	0.00
367.51	0.00
367.70	0.00
367.90	0.00
368.10	0.00
368.30	0.00
368.49	0.00
368.69	0.00
368.89	0.00
369.09	0.00
369.28	0.00
369.48	0.00
369.68	0.00
369.87	0.00
370.07	0.00
370.27	0.00
370.47	826.21
370.66	4128.70
370.86	4828.53
371.06	5217.05
371.25	5125.77
371.45	4657.67
371.65	4210.62
371.84	4032.74
372.04	4189.56
372.24	4554.68
372.44	4816.82
372.63	4688.09
372.83	4540.64
373.03	3983.59
373.22	3684.00
373.42	3868.91
373.62	4411.91
373.81	4770.01
374.01	4746.61
374.21	4325.31
374.40	3983.59
374.60	4365.10
374.79	4739.58
374.99	5301.31
375.19	5888.79
375.38	5748.36
375.58	5481.53
375.78	5296.63
375.97	5490.90
376.17	5460.47
376.37	5699.20
376.56	5898.15
376.76	6246.89
376.95	6452.86
377.15	7042.67
377.35	7279.07
377.54	7616.10
377.74	7665.25
377.93	7866.54
378.13	7522.48
378.33	7035.65
378.52	6752.45
378.72	6396.68
378.91	6331.15
379.11	6033.90
379.31	5757.72
379.50	5832.62
379.70	6417.75
379.89	6918.62
380.09	7176.08
380.28	7559.93
380.48	7255.66
380.68	7447.58
380.87	7328.22
381.07	6609.67
381.26	6150.93
381.46	5783.46
381.65	5703.89
381.85	5383.23
382.04	5165.56
382.24	4912.78
382.43	4606.17
382.63	4617.88
382.83	4521.92
383.02	4690.43
383.22	4440.00
383.41	4585.11
383.61	5004.07
383.80	5589.20
384.00	6415.41
384.19	7019.27
384.39	7288.43
384.58	7513.12
384.78	7248.64
384.97	7150.34
385.17	6792.23
385.36	6504.35
385.56	6270.30
385.75	6265.61
385.95	7199.49
386.14	7698.02
386.34	7770.58
386.53	7304.81
386.72	6906.92
386.92	6944.37
387.11	7236.94
387.31	7784.62
387.50	7698.02
387.70	7342.26
387.89	7211.19
388.09	7316.51
388.28	7218.21
388.48	7417.16
388.67	7772.92
388.86	8739.56
389.06	9224.05
389.25	9818.55
389.45	9977.70
389.64	9731.95
389.84	9795.14
390.03	9650.03
390.22	9631.30
390.42	9942.60
390.61	10771.15
390.81	11419.47
391.00	11456.92
391.19	11307.13
391.39	11014.56
391.58	10237.50
391.78	9783.44
391.97	9556.41
392.16	8973.61
392.36	8032.72
392.55	6340.51
392.75	5207.69
392.94	4219.99
393.13	4177.86
393.33	4990.02
393.52	6408.39
393.71	7892.29
393.91	8826.16
394.10	9628.96
394.29	10441.13
394.49	11194.78
394.68	11861.84
394.88	12044.40
395.07	12322.92
395.26	12358.03
395.46	11840.77
395.65	11220.53
395.84	9900.47
396.04	8369.76
396.23	6696.27
396.42	5563.45
396.62	5355.15
396.81	6480.94
397.00	8224.64
397.19	10300.70
397.39	12182.49
397.58	13549.36
397.77	14532.39
397.97	15248.59
398.16	15037.94
398.35	15861.81
398.55	16259.70
398.74	16606.10
398.93	17008.67
399.12	16947.82
399.32	16395.45
399.51	16858.88
399.70	17516.57
399.90	17764.67
400.09	17788.07
400.28	17429.97
400.47	17584.44
400.67	18558.11
400.86	19014.51
401.05	18871.74
401.24	19143.24
401.44	19157.28
401.63	19098.77
401.82	19491.98
402.01	19295.38
402.21	19672.20
402.40	19779.87
402.59	19262.61
402.78	18134.47
402.97	17947.23
403.17	18574.49
403.36	19845.40
403.55	20301.81
403.74	20575.65
403.93	19726.04
404.13	18176.60
404.32	17811.48
404.51	18335.76
404.70	20063.07
404.89	19850.08
405.09	19906.26
405.28	19136.22
405.47	18951.32
405.66	19225.16
405.85	18539.38
406.05	18225.75
406.24	18698.54
406.43	19651.14
406.62	20034.99
406.81	19899.23
407.00	19403.04
407.20	18853.02
407.39	19016.85
407.58	20304.15
407.77	20950.14
407.96	21226.32
408.15	21675.70
408.34	21834.86
408.54	22876.40
408.73	22628.30
408.92	22387.22
409.11	21490.80
409.30	20828.43
409.49	19407.72
409.68	18326.39
409.87	17666.36
410.07	18764.07
410.26	20514.80
410.45	21671.02
410.64	22129.77
410.83	22590.85
411.02	23154.92
411.21	24194.12
411.40	23730.69
411.59	24140.29
411.78	23828.99
411.98	23349.18
412.17	24149.65
412.36	23599.62
412.55	23648.77
412.74	23405.36
412.93	22260.84
413.12	22911.50
413.31	25172.46
413.50	24912.66
413.69	25249.70
413.88	24797.98
414.07	23878.15
414.26	24369.66
414.45	25132.67
414.64	25006.28
414.83	25209.91
415.02	24624.78
415.22	24467.96
415.41	25575.03
415.60	25809.09
415.79	27388.95
415.98	27508.32
416.17	27737.69
416.36	26946.59
416.55	26742.96
416.74	25649.93
416.93	25015.65
417.12	24957.13
417.31	25532.90
417.50	25598.44
417.69	26677.43
417.88	26441.03
418.07	25991.65
418.26	26394.22
418.45	26111.02
418.64	27061.27
418.83	27971.74
419.02	27543.42
419.21	27402.99
419.39	26307.62
419.58	25184.16
419.77	24996.92
419.96	25731.85
420.15	27508.32
420.34	28622.41
420.53	29504.79
420.72	30031.41
420.91	29441.60
421.10	29116.26
421.29	29036.69
421.48	27758.75
421.67	29694.38
421.86	28856.46
422.05	26738.28
422.24	23896.87
422.43	23718.99
422.61	26752.32
422.80	28292.40
422.99	28027.92
423.18	27410.01
423.37	26501.89
423.56	26668.06
423.75	27520.02
423.94	28046.64
424.13	26508.91
424.32	26764.03
424.50	26691.47
424.69	26228.04
424.88	26953.61
425.07	26876.37
425.26	26340.39
425.45	26300.60
425.64	25649.93
425.83	25923.77
426.01	27402.99
426.20	27744.71
426.39	27697.90
426.58	25734.19
426.77	23836.02
426.96	23117.47
427.15	23625.37
427.33	25607.80
427.52	26548.70
427.71	26593.17
427.90	26230.38
428.09	26389.54
428.28	25495.46
428.46	24971.18
428.65	24545.20
428.84	25048.41
429.03	25837.17
429.22	24198.80
429.40	22970.02
429.59	20659.91
429.78	18387.25
429.97	18544.06
430.16	18637.69
430.34	18773.44
430.53	18548.75
430.72	19496.66
430.91	21472.07
431.10	25214.59
431.28	29844.17
431.47	31861.71
431.66	31732.98
431.85	29310.53
432.03	26555.72
432.22	25834.83
432.41	27276.60
432.60	29296.49
432.79	30607.19
432.97	31630.00
433.16	30775.70
433.35	28072.39
433.54	25486.09
433.72	23707.29
433.91	24713.72
434.10	27463.85
434.28	29469.69
434.47	30745.28
434.66	30464.41
434.85	30038.44
435.03	29476.71
435.22	30345.05
435.41	32121.51
435.59	32187.05
435.78	32627.07
435.97	33303.48
436.16	33717.76
436.34	33235.61
436.53	32364.93
436.72	32383.65
436.90	30527.61
437.09	30890.39
437.28	30356.75
437.46	31487.23
437.65	31028.48
437.84	29085.84
438.02	26693.81
438.21	26747.64
438.40	27817.27
438.58	30307.60
438.77	30941.88
438.96	31199.34
439.14	32924.32
439.33	33315.19
439.52	33965.85
439.70	33092.83
439.89	32467.91
440.08	31519.99
440.26	31498.93
440.45	33340.93
440.63	34829.51
440.82	36634.06
441.01	35988.08
441.19	35580.82
441.38	36503.00
441.57	37357.29
441.75	37783.27
441.94	38136.69
442.12	38110.94
442.31	38724.16
442.50	38445.64
442.68	38106.26
442.87	37523.47
443.05	37247.29
443.24	38202.22
443.43	38609.48
443.61	39283.55
443.80	39840.60
443.98	37205.16
444.17	37350.27
444.35	39639.31
444.54	40165.93
444.73	39739.96
444.91	38211.59
445.10	36835.35
445.28	35206.34
445.47	34328.64
445.65	35590.19
445.84	36137.87
446.02	37762.20
446.21	37383.04
446.39	37455.59
446.58	38249.03
446.77	38925.45
446.95	38904.38
447.14	39934.22
447.32	40835.33
447.51	40163.59
447.69	38588.41
447.88	37968.17
448.06	38501.81
448.25	39599.52
448.43	39988.05
448.62	38675.01
448.80	38710.12
448.99	39182.91
449.17	39395.90
449.36	39562.08
449.54	40505.31
449.73	41343.22
449.91	41963.46
450.10	43126.71
450.28	43323.32
450.46	43438.00
450.65	43360.76
450.83	43082.24
451.02	41827.71
451.20	42403.49
451.39	42141.35
451.57	41689.62
451.76	41371.31
451.94	41380.67
452.13	40577.87
452.31	39232.06
452.49	36807.26
452.68	36975.78
452.86	38033.71
453.05	38492.45
453.23	39009.71
453.42	40385.94
453.60	40931.29
453.78	41586.64
453.97	41167.68
454.15	41366.63
454.34	40041.88
454.52	40397.65
454.70	39732.93
454.89	39768.04
455.07	40432.75
455.26	41069.38
455.44	42342.63
455.62	42635.20
455.81	43297.57
455.99	43246.08
456.17	42300.50
456.36	42452.64
456.54	43856.96
456.73	43210.97
456.91	44282.94
457.09	44411.67
457.28	45036.59
457.46	43983.35
457.64	43433.32
457.83	42684.35
458.01	41701.32
458.19	42628.18
458.38	43187.56
458.56	43931.86
458.74	43824.19
458.93	42637.54
459.11	42862.23
459.29	42366.04
459.48	42979.26
459.66	42572.00
459.84	43491.83
460.03	43782.06
460.21	43430.98
460.39	44744.02
460.57	44313.36
460.76	44973.39
460.94	45165.32
461.12	44605.93
461.31	44456.14
461.49	44912.54
461.67	44458.48
461.85	45574.91
462.04	45675.55
462.22	46351.97
462.40	45434.48
462.59	45408.73
462.77	45783.22
462.95	45649.81
463.13	45265.96
463.32	44304.00
463.50	44718.28
463.68	44559.12
463.86	44713.59
464.05	44163.57
464.23	43009.68
464.41	43157.14
464.59	42373.06
464.78	44449.11
464.96	44280.60
465.14	43817.17
465.32	44786.15
465.50	45944.72
465.69	46211.54
465.87	45399.37
466.05	43702.48
466.23	42906.70
466.41	42012.62
466.60	42775.63
466.78	42382.42
466.96	43519.92
467.14	44114.42
467.32	44823.60
467.51	44978.07
467.69	42864.57
467.87	43882.70
468.05	44093.35
468.23	44526.35
468.41	44172.93
468.60	44062.93
468.78	44968.71
468.96	44402.30
469.14	45317.45
469.32	45425.12
469.50	43592.48
469.69	44041.86
469.87	43133.73
470.05	42930.11
470.23	42974.58
470.41	43536.30
470.59	43723.55
470.77	43959.94
470.95	44882.11
471.14	45291.71
471.32	45502.35
471.50	47283.50
471.68	47594.79
471.86	48208.01
472.04	47929.49
472.22	48191.63
472.40	46218.56
472.58	46209.20
472.77	45507.04
472.95	46476.02
473.13	47356.06
473.31	46368.35
473.49	46323.88
473.67	47421.59
473.85	47143.07
474.03	48612.93
474.21	49010.82
474.39	48846.98
474.57	49151.25
474.75	48736.98
474.93	48917.20
475.12	47676.71
475.30	47711.82
475.48	48273.55
475.66	48729.95
475.84	48210.35
476.02	47847.57
476.20	47278.82
476.38	47969.28
476.56	49256.57
476.74	49722.34
476.92	50033.63
477.10	50644.51
477.28	51339.65
477.46	51241.35
477.64	51634.56
477.82	51866.27
478.00	51987.98
478.18	51297.52
478.36	51281.14
478.54	51117.30
478.72	51466.04
478.90	52315.65
479.08	53446.13
479.26	53881.47
479.44	53380.60
479.62	53095.05
479.80	53244.85
479.98	53694.23
480.16	53822.96
480.34	53619.33
480.52	53485.92
480.70	53972.75
480.88	53944.67
481.06	54632.78
481.24	54585.97
481.41	55407.50
481.59	55721.13
481.77	55538.57
481.95	55189.83
482.13	54965.14
482.31	55222.60
482.49	55547.93
482.67	55707.09
482.85	55473.04
483.03	55880.29
483.21	56444.36
483.39	56332.01
483.57	55664.96
483.74	55625.17
483.92	55737.52
484.10	55756.24
484.28	56523.94
484.46	56708.84
484.64	57020.13
484.82	56332.01
485.00	56198.60
485.18	55569.00
485.35	54733.43
485.53	52341.40
485.71	49034.22
485.89	48741.66
486.07	50426.84
486.25	53041.22
486.43	55089.19
486.61	55384.10
486.78	55281.11
486.96	55655.60
487.14	56645.65
487.32	57471.85
487.50	58085.07
487.68	58738.08
487.85	58810.64
488.03	58993.20
488.21	58607.01
488.39	58024.22
488.57	57797.19
488.75	57666.12
488.92	58358.92
489.10	59962.18
489.28	61062.24
489.46	61511.62
489.64	61066.92
489.81	61546.73
489.99	61038.83
490.17	60910.10
490.35	61326.72
490.53	61073.94
490.70	60722.86
490.88	60788.39
491.06	61703.54
491.24	61436.72
491.41	60821.16
491.59	59274.07
491.77	58756.81
491.95	59494.08
492.13	60512.21
492.30	61455.45
492.48	62321.44
492.66	62599.97
492.84	62590.61
493.01	62379.96
493.19	61778.44
493.37	61549.07
493.54	61410.98
493.72	61965.68
493.90	62866.79
494.08	63465.97
494.25	63795.98
494.43	63814.71
494.61	64186.85
494.79	64282.81
494.96	63994.93
495.14	63561.93
495.32	62660.82
495.49	62099.09
495.67	63126.59
495.85	64217.28
496.02	64554.32
496.20	64434.95
496.38	64020.67
496.55	64037.06
496.73	64481.76
496.91	64383.46
497.09	65034.13
497.26	65249.45
497.44	64612.83
497.62	64137.70
497.79	63592.36
497.97	62609.33
498.14	62625.71
498.32	63650.87
498.50	64315.58
498.67	64945.18
498.85	64802.41
499.03	64886.67
499.20	65109.02
499.38	65111.36
499.56	64800.07
499.73	64605.81
499.91	64285.15
500.08	63758.53
500.26	63157.02
500.44	63685.98
500.61	64331.96
500.79	64200.89
500.97	63461.29
501.14	63657.89
501.32	63529.16
501.49	63433.20
501.67	63817.05
501.84	64165.79
502.02	64299.20
502.20	64748.58
502.37	64779.01
502.55	64755.60
502.72	65286.90
502.90	65535.00
503.07	65429.68
503.25	65216.69
503.43	64296.86
503.60	63590.01
503.78	63245.96
503.95	63641.51
504.13	65013.06
504.30	65453.08
504.48	65378.18
504.65	65052.85
504.83	65338.40
505.01	65535.00
505.18	65535.00
505.36	65535.00
505.53	65535.00
505.71	65535.00
505.88	65535.00
506.06	65535.00
506.23	65535.00
506.41	65535.00
506.58	65535.00
506.76	65535.00
506.93	65535.00
507.11	65453.08
507.28	65535.00
507.46	65207.32
507.63	64767.30
507.81	64526.23
507.98	64975.61
508.16	65401.59
508.33	65535.00
508.50	65535.00
508.68	65535.00
508.85	65535.00
509.03	65535.00
509.20	65535.00
509.38	65535.00
509.55	65509.25
509.73	65535.00
509.90	65535.00
510.08	65535.00
510.25	65535.00
510.42	65535.00
510.60	65535.00
510.77	65535.00
510.95	65535.00
511.12	65535.00
511.30	65535.00
511.47	65535.00
511.64	65535.00
511.82	65535.00
511.99	65535.00
512.17	65535.00
512.34	65535.00
512.51	65535.00
512.69	65535.00
512.86	65535.00
513.04	65535.00
513.21	65535.00
513.38	65535.00
513.56	65443.72
513.73	64938.16
513.90	65212.01
514.08	65261.16
514.25	65535.00
514.43	65535.00
514.60	65535.00
514.77	65535.00
514.95	65535.00
515.12	65535.00
515.29	65535.00
515.47	65535.00
515.64	65535.00
515.81	65535.00
515.99	65535.00
516.16	64722.83
516.33	62581.24
516.51	61612.26
516.68	61064.58
516.85	60734.56
517.03	61134.79
517.20	63360.64
517.37	65207.32
517.54	65535.00
517.72	65535.00
517.89	63599.38
518.06	61808.87
518.24	62110.80
518.41	63788.96
518.58	64788.37
518.75	65064.55
518.93	65436.70
519.10	65134.77
519.27	65509.25
519.45	65535.00
519.62	65535.00
519.79	65535.00
519.96	65535.00
520.14	65535.00
520.31	65298.61
520.48	65382.87
520.65	65535.00
520.83	65535.00
521.00	65535.00
521.17	65535.00
521.34	65535.00
521.52	65535.00
521.69	65535.00
521.86	65535.00
522.03	65535.00
522.20	65535.00
522.38	65127.75
522.55	65017.74
522.72	65535.00
522.89	65535.00
523.07	65535.00
523.24	65535.00
523.41	65535.00
523.58	65535.00
523.75	65535.00
523.92	65535.00
524.10	65535.00
524.27	65535.00
524.44	65535.00
524.61	65535.00
524.78	65535.00
524.96	65535.00
525.13	65535.00
525.30	65535.00
525.47	65535.00
525.64	65535.00
525.81	65535.00
525.98	65535.00
526.16	64385.80
526.33	63887.26
526.50	63407.45
526.67	63201.49
526.84	63547.89
527.01	64376.43
527.18	65329.03
527.36	65535.00
527.53	65535.00
527.70	65535.00
527.87	65535.00
528.04	65535.00
528.21	65535.00
528.38	65535.00
528.55	65535.00
528.72	65535.00
528.89	65535.00
529.07	65535.00
529.24	65535.00
529.41	65535.00
529.58	65535.00
529.75	65535.00
529.92	65535.00
530.09	65535.00
530.26	65535.00
530.43	65535.00
530.60	65535.00
530.77	65535.00
530.94	65535.00
531.11	65535.00
531.28	65535.00
531.46	65535.00
531.63	65535.00
531.80	65535.00
531.97	65535.00
532.14	65535.00
532.31	65535.00
532.48	64652.62
532.65	64776.67
532.82	65382.87
532.99	65535.00
533.16	65535.00
533.33	65535.00
533.50	65535.00
533.67	65535.00
533.84	65535.00
534.01	65535.00
534.18	65535.00
534.35	65535.00
534.52	65535.00
534.69	65535.00
534.86	65535.00
535.03	65535.00
535.20	65535.00
535.37	65535.00
535.54	65535.00
535.71	65535.00
535.88	65535.00
536.05	65535.00
536.22	65535.00
536.38	65535.00
536.55	65535.00
536.72	65434.36
536.89	65298.61
537.06	65535.00
537.23	65535.00
537.40	65535.00
537.57	65535.00
537.74	65535.00
537.91	65535.00
538.08	65535.00
538.25	65535.00
538.42	65535.00
538.59	65535.00
538.75	65535.00
538.92	65535.00
539.09	65535.00
539.26	65535.00
539.43	65535.00
539.60	65535.00
539.77	65535.00
539.94	65535.00
540.11	64933.48
540.28	64568.36
540.44	64753.26
540.61	64898.37
540.78	65071.57
540.95	65535.00
541.12	65535.00
541.29	65535.00
541.46	65535.00
541.62	65535.00
541.79	65535.00
541.96	65535.00
542.13	65535.00
542.30	65535.00
542.47	65535.00
542.63	65535.00
542.80	65535.00
542.97	65535.00
543.14	65535.00
543.31	65535.00
543.48	65535.00
543.64	65535.00
543.81	65535.00
543.98	65535.00
544.15	65535.00
544.32	65535.00
544.48	65535.00
544.65	65535.00
544.82	65535.00
544.99	65535.00
545.16	65535.00
545.32	65535.00
545.49	65535.00
545.66	65535.00
545.83	65535.00
546.00	65535.00
546.16	65535.00
546.33	65535.00
546.50	65535.00
546.67	65535.00
546.83	65535.00
547.00	65535.00
547.17	65535.00
547.34	64842.20
547.50	64779.01
547.67	65223.71
547.84	65256.48
548.00	65535.00
548.17	65535.00
548.34	65535.00
548.51	65535.00
548.67	65535.00
548.84	65535.00
549.01	65535.00
549.18	65535.00
549.34	65535.00
549.51	65535.00
549.68	65535.00
549.84	65509.25
550.01	65439.04
550.18	65436.70
550.34	65535.00
550.51	65535.00
550.68	65535.00
550.84	65130.09
551.01	65396.91
551.18	65343.08
551.34	65368.82
551.51	65535.00
551.68	65535.00
551.84	65535.00
552.01	65535.00
552.18	65535.00
552.34	64968.59
552.51	64631.55
552.68	64610.49
552.84	65116.04
553.01	65303.29
553.18	65247.11
553.34	65385.21
553.51	65535.00
553.67	65535.00
553.84	65535.00
554.01	65535.00
554.17	65455.42
554.34	65462.44
554.51	65535.00
554.67	65535.00
554.84	65535.00
555.00	65441.38
555.17	65247.11
555.33	65303.29
555.50	65324.35
555.67	65176.90
555.83	65188.60
556.00	65001.36
556.16	64914.76
556.33	64722.83
556.50	64502.82
556.66	64561.34
556.83	64360.05
556.99	64154.08
557.16	64385.80
557.32	64767.30
557.49	64940.50
557.65	64783.69
557.82	64732.20
557.98	64657.30
558.15	64324.94
558.32	63709.38
558.48	63030.63
558.65	63231.91
558.81	63482.35
558.98	63732.79
559.14	63791.30
559.31	63887.26
559.47	63952.80
559.64	63695.34
559.80	63309.15
559.97	63524.48
560.13	63863.86
560.30	64701.77
560.46	64917.10
560.63	65251.80
560.79	65258.82
560.96	64727.52
561.12	63891.94
561.29	63245.96
561.45	63119.57
561.61	63753.85
561.78	64250.05
561.94	63807.68
562.11	63905.99
562.27	63887.26
562.44	63901.31
562.60	64287.49
562.77	64418.56
562.93	64364.73
563.10	64289.84
563.26	63908.33
563.42	64006.63
563.59	63746.83
563.75	63781.94
563.92	63730.45
564.08	63716.40
564.24	63941.10
564.41	63997.27
564.57	64011.31
564.74	63728.11
564.90	63788.96
565.07	63613.42
565.23	63269.36
565.39	62941.69
565.56	62372.94
565.72	62447.83
565.88	62672.52
566.05	62812.96
566.21	63140.63
566.38	63194.46
566.54	63103.18
566.70	63536.18
566.87	63763.21
567.03	63646.19
567.19	63859.18
567.36	63639.17
567.52	63454.26
567.68	63166.38
567.85	62876.15
568.01	62489.96
568.17	62251.23
568.34	62197.40
568.50	62052.28
568.66	62199.74
568.83	62475.92
568.99	62752.10
569.15	62761.47
569.32	62777.85
569.48	62583.58
569.64	62447.83
569.81	62426.77
569.97	62066.33
570.13	62113.14
570.30	61553.75
570.46	61497.58
570.62	60912.44
570.78	60954.57
570.95	61258.84
571.11	61708.22
571.27	61764.40
571.43	62052.28
571.60	62342.51
571.76	62419.75
571.92	62656.14
572.09	62967.43
572.25	62796.57
572.41	62700.61
572.57	62606.99
572.74	62611.67
572.90	62237.19
573.06	62288.68
573.22	62389.32
573.38	62195.06
573.55	62150.59
573.71	62504.01
573.87	62403.36
574.03	62082.71
574.20	62145.90
574.36	61743.33
574.52	61755.03
574.68	61600.56
574.84	61052.87
575.01	60996.70
575.17	61017.77
575.33	61380.55
575.49	61361.82
575.65	61385.23
575.82	61109.05
575.98	61160.54
576.14	61476.51
576.30	61467.15
576.46	61745.67
576.62	61607.58
576.79	61422.68
576.95	61251.82
577.11	61165.22
577.27	61364.17
577.43	61403.95
577.59	61176.92
577.75	60762.65
577.92	60142.41
578.08	60039.42
578.24	59868.56
578.40	60554.34
578.56	60697.11
578.72	60535.62
578.88	60732.22
579.04	60940.53
579.21	61085.64
579.37	61169.90
579.53	61216.71
579.69	60980.32
579.85	61293.95
580.01	61059.90
580.17	60732.22
580.33	60582.43
580.49	60626.90
580.65	60858.61
580.82	60989.68
580.98	61071.60
581.14	60699.45
581.30	61022.45
581.46	60856.27
581.62	61174.58
581.78	60921.80
581.94	61453.11
582.10	61202.67
582.26	61322.04
582.42	61254.16
582.58	61336.08
582.74	61193.31
582.90	60952.23
583.06	61017.77
583.22	60872.65
583.38	61043.51
583.54	60931.17
583.70	60830.52
583.86	60662.00
584.02	60786.05
584.18	60912.44
584.34	60570.72
584.50	60786.05
584.66	60580.09
584.82	60369.44
584.98	60198.58
585.14	59950.48
