SpectraSuite Data File
++++++++++++++++++++++++++++++++++++
Date: Mon Oct 07 14:53:06 GMT-05:00 2013
User: price-jones
Dark Spectrum Present: No
Reference Spectrum Present: No
Number of Sampled Component Spectra: 1
Spectrometers: USB2+H05261
Integration Time (usec): 100000 (USB2+H05261)
Spectra Averaged: 1 (USB2+H05261)
Boxcar Smoothing: 0 (USB2+H05261)
Correct for Electrical Dark: No (USB2+H05261)
Strobe/Lamp Enabled: No (USB2+H05261)
Correct for Detector Non-linearity: No (USB2+H05261)
Correct for Stray Light: No (USB2+H05261)
Number of Pixels in Processed Spectrum: 2048
>>>>>Begin Processed Spectral Data<<<<<
365.73	0.00
365.92	0.00
366.12	0.00
366.32	0.00
366.52	0.00
366.72	0.00
366.91	0.00
367.11	0.00
367.31	0.00
367.51	0.00
367.70	0.00
367.90	0.00
368.10	0.00
368.30	0.00
368.49	0.00
368.69	0.00
368.89	0.00
369.09	0.00
369.28	0.00
369.48	0.00
369.68	0.00
369.87	0.00
370.07	0.00
370.27	0.00
370.47	594.50
370.66	3159.72
370.86	3648.90
371.06	3868.91
371.25	4039.76
371.45	3627.83
371.65	3267.39
371.84	3014.61
372.04	3300.16
372.24	3702.73
372.44	3658.26
372.63	3471.01
372.83	3426.54
373.03	3047.38
373.22	2869.50
373.42	2995.89
373.62	3272.07
373.81	3686.34
374.01	3501.44
374.21	3365.69
374.40	3019.29
374.60	3232.28
374.79	3707.41
374.99	4341.69
375.19	4503.19
375.38	4425.95
375.58	4266.80
375.78	4379.14
375.97	4362.76
376.17	4561.70
376.37	4278.50
376.56	4589.79
376.76	4660.01
376.95	4933.85
377.15	5275.57
377.35	5619.63
377.54	5816.23
377.74	6033.90
377.93	5898.15
378.13	5584.52
378.33	5542.39
378.52	5118.75
378.72	4898.74
378.91	4858.95
379.11	4777.03
379.31	4437.66
379.50	4479.79
379.70	4922.15
379.89	5528.35
380.09	5661.76
380.28	5998.79
380.48	6052.63
380.68	5720.27
380.87	5692.18
381.07	5242.80
381.26	4791.08
381.46	4358.08
381.65	4383.82
381.85	4217.65
382.04	4028.06
382.24	3861.88
382.43	3737.84
382.63	3510.80
382.83	3581.02
383.02	3641.87
383.22	3611.45
383.41	3627.83
383.61	3920.40
383.80	4547.66
384.00	4947.89
384.19	5607.92
384.39	5874.74
384.58	5767.08
384.78	5757.72
384.97	5774.10
385.17	5579.84
385.36	4929.17
385.56	4791.08
385.75	5004.07
385.95	5666.44
386.14	6085.39
386.34	5968.37
386.53	5570.48
386.72	5455.79
386.92	5511.96
387.11	5586.86
387.31	6179.01
387.50	5968.37
387.70	5736.65
387.89	5738.99
388.09	5799.85
388.28	5743.67
388.48	5816.23
388.67	6253.91
388.86	6965.43
389.06	7414.82
389.25	7882.92
389.45	7913.35
389.64	8023.36
389.84	7784.62
390.03	7714.41
390.22	7564.61
390.42	7906.33
390.61	8306.56
390.81	8884.67
391.00	9179.58
391.19	9020.42
391.39	8704.45
391.58	8334.65
391.78	7686.32
391.97	7510.78
392.16	6935.01
392.36	6431.79
392.55	5315.36
392.75	4145.09
392.94	3370.37
393.13	3335.26
393.33	3882.95
393.52	5053.22
393.71	6143.91
393.91	6942.03
394.10	7368.01
394.29	8128.68
394.49	8940.85
394.68	9610.24
394.88	9547.05
395.07	10132.18
395.26	9797.48
395.46	9287.25
395.65	8809.78
395.84	7833.77
396.04	6492.65
396.23	5448.77
396.42	4498.51
396.62	4264.46
396.81	5298.97
397.00	6579.25
397.19	8028.04
397.39	9696.84
397.58	10878.81
397.77	11501.39
397.97	11955.46
398.16	12070.14
398.35	12542.93
398.55	12709.11
398.74	13055.51
398.93	13605.53
399.12	13549.36
399.32	12985.29
399.51	13359.78
399.70	14221.10
399.90	14052.58
400.09	14101.73
400.28	13942.57
400.47	13874.70
400.67	14916.23
400.86	15040.28
401.05	14782.82
401.24	15026.24
401.44	15548.18
401.63	15386.68
401.82	15524.77
402.01	15358.60
402.21	15566.90
402.40	15833.72
402.59	15253.27
402.78	14696.22
402.97	13827.88
403.17	14668.14
403.36	15782.23
403.55	16231.62
403.74	16472.69
403.93	15782.23
404.13	14616.65
404.32	14314.72
404.51	14890.49
404.70	16016.29
404.89	15908.62
405.09	15737.76
405.28	15307.10
405.47	15199.44
405.66	15283.70
405.85	14618.99
406.05	14686.86
406.24	14696.22
406.43	15335.19
406.62	15861.81
406.81	16250.34
407.00	15611.37
407.20	14984.11
407.39	15321.15
407.58	16154.38
407.77	16512.48
407.96	16982.93
408.15	17479.12
408.34	17359.75
408.54	18417.68
408.73	17893.40
408.92	17877.01
409.11	17401.88
409.30	16521.84
409.49	15517.75
409.68	14469.19
409.87	14120.45
410.07	15117.52
410.26	16283.11
410.45	17139.74
410.64	17837.22
410.83	18188.30
411.02	18658.75
411.21	19325.80
411.40	19180.69
411.59	19260.27
411.78	19353.89
411.98	18698.54
412.17	19356.23
412.36	18937.27
412.55	18719.60
412.74	18352.14
412.93	18244.48
413.12	18424.70
413.31	20046.69
413.50	20381.38
413.69	20638.84
413.88	19660.50
414.07	19143.24
414.26	19494.32
414.45	20091.16
414.64	20013.92
414.83	20229.25
415.02	19859.45
415.22	19812.63
415.41	20353.30
415.60	21109.29
415.79	21900.39
415.98	22122.74
416.17	22153.17
416.36	21394.84
416.55	20898.64
416.74	20428.20
416.93	19814.98
417.12	19988.18
417.31	20552.24
417.50	20556.93
417.69	21200.57
417.88	21397.18
418.07	20737.15
418.26	20615.44
418.45	20931.41
418.64	21446.33
418.83	22125.08
419.02	22307.65
419.21	21944.86
419.39	20978.22
419.58	19974.13
419.77	20346.28
419.96	20753.53
420.15	21963.59
420.34	22408.29
420.53	23534.09
420.72	24332.21
420.91	23917.93
421.10	23487.28
421.29	23267.27
421.48	22448.08
421.67	23697.92
421.86	22623.62
422.05	21266.11
422.24	19225.16
422.43	19171.33
422.61	20823.75
422.80	22855.33
422.99	22778.09
423.18	21406.54
423.37	21614.85
423.56	21326.96
423.75	22101.68
423.94	22314.67
424.13	20957.16
424.32	21631.23
424.50	21668.68
424.69	21195.89
424.88	21153.76
425.07	21132.70
425.26	21371.43
425.45	21128.02
425.64	20594.37
425.83	20711.40
426.01	21841.88
426.20	22609.58
426.39	22047.85
426.58	20624.80
426.77	19154.94
426.96	18272.56
427.15	19454.53
427.33	20678.63
427.52	21605.49
427.71	21432.29
427.90	21759.96
428.09	21280.15
428.28	20673.95
428.46	20168.40
428.65	19878.17
428.84	20491.39
429.03	20489.05
429.22	19290.70
429.40	18342.78
429.59	16638.87
429.78	14576.86
429.97	14817.93
430.16	14831.97
430.34	14998.15
430.53	14963.04
430.72	15358.60
430.91	17228.68
431.10	20166.06
431.28	23765.80
431.47	25631.21
431.66	25420.56
431.85	23253.22
432.03	21188.87
432.22	20187.12
432.41	21839.54
432.60	23793.89
432.79	24900.96
432.97	25315.23
433.16	24414.13
433.35	22548.72
433.54	20299.47
433.72	19267.29
433.91	19969.45
434.10	22162.53
434.28	23749.42
434.47	24868.19
434.66	24453.92
434.85	23882.83
435.03	24170.71
435.22	24514.77
435.41	25912.07
435.59	25708.44
435.78	26377.84
435.97	26979.36
436.16	27051.91
436.34	26670.40
436.53	26127.40
436.72	25846.54
436.90	24678.61
437.09	25003.94
437.28	24290.08
437.46	25502.48
437.65	25041.39
437.84	23599.62
438.02	21570.38
438.21	21254.40
438.40	22757.03
438.58	24386.04
438.77	25123.31
438.96	25511.84
439.14	26607.21
439.33	26962.97
439.52	27445.12
439.70	26799.13
439.89	26111.02
440.08	25474.39
440.26	25432.26
440.45	26321.66
440.63	27835.99
440.82	30010.35
441.01	29296.49
441.19	28914.98
441.38	29200.52
441.57	30625.91
441.75	30976.99
441.94	30895.07
442.12	30288.87
442.31	31330.41
442.50	31239.13
442.68	31119.76
442.87	30628.25
443.05	29890.98
443.24	30717.19
443.43	31250.83
443.61	31718.94
443.80	32095.77
443.98	30511.22
444.17	30169.51
444.35	31955.33
444.54	32329.82
444.73	32250.24
444.91	30937.20
445.10	29525.86
445.28	28308.78
445.47	27864.08
445.65	28009.19
445.84	29230.95
446.02	30164.82
446.21	30616.55
446.39	30808.47
446.58	30953.58
446.77	31489.57
446.95	31653.40
447.14	32706.65
447.32	32989.85
447.51	32694.94
447.69	31166.57
447.88	30707.83
448.06	31253.17
448.25	32261.94
448.43	32109.81
448.62	31578.51
448.80	31363.18
448.99	31655.75
449.17	31924.91
449.36	31384.24
449.54	33074.11
449.73	33589.03
449.91	34382.47
450.10	35007.39
450.28	35253.15
450.46	35211.02
450.65	34937.18
450.83	34670.36
451.02	34284.17
451.20	33621.80
451.39	34342.68
451.57	33848.83
451.76	33841.81
451.94	33579.67
452.13	32669.20
452.31	31538.72
452.49	29521.18
452.68	30492.50
452.86	30728.89
453.05	30934.86
453.23	31999.80
453.42	32680.90
453.60	33441.57
453.78	33834.78
453.97	33193.48
454.15	33490.73
454.34	32535.79
454.52	32800.27
454.70	32435.14
454.89	32542.81
455.07	32701.96
455.26	33205.18
455.44	34642.27
455.62	34558.01
455.81	35187.61
455.99	34806.11
456.17	34473.75
456.36	34211.61
456.54	35660.40
456.73	35864.03
456.91	36158.94
457.09	36559.17
457.28	36985.15
457.46	35335.07
457.64	35147.82
457.83	34480.77
458.01	33778.61
458.19	34258.42
458.38	34829.51
458.56	35562.10
458.74	35707.21
458.93	35140.80
459.11	34843.56
459.29	34639.93
459.48	34890.37
459.66	34284.17
459.84	35222.72
460.03	35449.75
460.21	35466.14
460.39	36039.57
460.57	36493.63
460.76	36924.29
460.94	36776.84
461.12	36290.01
461.31	36535.76
461.49	36617.68
461.67	36706.62
461.85	37706.03
462.04	37469.64
462.22	37968.17
462.40	37347.93
462.59	37331.54
462.77	37371.33
462.95	37848.80
463.13	36690.24
463.32	36748.75
463.50	36678.54
463.68	36175.32
463.86	36641.09
464.05	35976.37
464.23	35498.91
464.41	34991.01
464.59	34916.11
464.78	36252.56
464.96	36165.96
465.14	35311.66
465.32	36362.56
465.50	37589.00
465.69	37965.83
465.87	37130.26
466.05	35964.67
466.23	34412.90
466.41	33830.10
466.60	34831.85
466.78	34635.25
466.96	35557.42
467.14	35957.65
467.32	36811.95
467.51	36414.05
467.69	35044.84
467.87	35459.12
468.05	36231.49
468.23	36355.54
468.41	36161.28
468.60	36271.28
468.78	36533.42
468.96	36140.21
469.14	37233.24
469.32	37195.79
469.50	35945.95
469.69	35510.61
469.87	34916.11
470.05	35421.67
470.23	35058.88
470.41	35721.26
470.59	35674.45
470.77	35849.99
470.95	36364.90
471.14	37050.68
471.32	37205.16
471.50	38972.26
471.68	39129.08
471.86	39505.90
472.04	39866.34
472.22	40172.96
472.40	38316.91
472.58	37900.29
472.77	37188.77
472.95	37982.21
473.13	39601.86
473.31	38124.99
473.49	38087.54
473.67	38845.87
473.85	39140.78
474.03	40051.25
474.21	40273.60
474.39	40760.43
474.57	40505.31
474.75	40554.46
474.93	40715.96
475.12	39234.40
475.30	39484.84
475.48	39964.65
475.66	40816.60
475.84	39463.77
476.02	39536.33
476.20	38979.28
476.38	39655.70
476.56	40980.44
476.74	41195.77
476.92	41577.28
477.10	41951.76
477.28	43765.68
477.46	43353.74
477.64	43454.39
477.82	43962.28
478.00	44186.97
478.18	42993.30
478.36	43152.46
478.54	43452.05
478.72	43398.21
478.90	45001.48
479.08	45612.36
479.26	45813.65
479.44	45675.55
479.62	45867.48
479.80	45556.19
479.98	45783.22
480.16	46595.38
480.34	45624.06
480.52	46461.97
480.70	46340.27
480.88	46209.20
481.06	47470.75
481.24	47543.30
481.41	48369.51
481.59	48903.15
481.77	48261.85
481.95	48299.30
482.13	47889.70
482.31	48245.46
482.49	48467.81
482.67	48776.76
482.85	49041.24
483.03	49350.20
483.21	49652.12
483.39	49771.49
483.57	49076.35
483.74	49158.27
483.92	49272.96
484.10	49284.66
484.28	50178.75
484.46	50693.66
484.64	51164.11
484.82	50064.06
485.00	49401.69
485.18	48954.64
485.35	47693.10
485.53	44531.03
485.71	40299.34
485.89	40879.80
486.07	42646.90
486.25	45993.87
486.43	48266.53
486.61	48900.81
486.78	48636.33
486.96	48921.88
487.14	50363.65
487.32	51143.05
487.50	51760.95
487.68	52743.97
487.85	53169.95
488.03	53237.83
488.21	52830.57
488.39	52161.18
488.57	51770.31
488.75	51655.62
488.92	52390.55
489.10	54576.61
489.28	55515.17
489.46	56210.31
489.64	56053.49
489.81	56104.98
489.99	55730.50
490.17	55803.05
490.35	56151.79
490.53	55700.07
490.70	55309.20
490.88	55346.65
491.06	56219.67
491.24	56226.69
491.41	55154.72
491.59	53801.89
491.77	53237.83
491.95	54277.02
492.13	55201.53
492.30	56158.81
492.48	57036.51
492.66	57591.22
492.84	57373.55
493.01	57031.83
493.19	56554.36
493.37	56348.40
493.54	56207.97
493.72	56697.14
493.90	57715.27
494.08	58344.87
494.25	58504.03
494.43	58719.36
494.61	59025.97
494.79	59253.00
494.96	59030.65
495.14	58279.34
495.32	57490.58
495.49	57312.70
495.67	58171.67
495.85	59199.17
496.02	59730.47
496.20	59480.03
496.38	59150.02
496.55	59011.93
496.73	59297.47
496.91	59597.06
497.09	59945.80
497.26	60051.12
497.44	59742.17
497.62	59346.62
497.79	58487.65
497.97	57457.81
498.14	57628.67
498.32	58756.81
498.50	59604.08
498.67	59922.40
498.85	59924.74
499.03	59945.80
499.20	60111.98
499.38	60310.92
499.56	59870.90
499.73	59465.99
499.91	59316.20
500.08	58944.05
500.26	58141.25
500.44	58724.04
500.61	59365.35
500.79	58948.73
500.97	58749.79
501.14	58665.53
501.32	58763.83
501.49	58489.99
501.67	58672.55
501.84	59194.49
502.02	59416.84
502.20	59657.91
502.37	59779.62
502.55	59856.86
502.72	60388.16
502.90	60797.76
503.07	60552.00
503.25	60210.28
503.43	59114.91
503.60	58810.64
503.78	58171.67
503.95	58569.57
504.13	59990.27
504.30	60526.25
504.48	60376.46
504.65	60016.02
504.83	60275.82
505.01	60999.04
505.18	60987.34
505.36	61827.59
505.53	61708.22
505.71	61712.91
505.88	61876.74
506.06	61272.88
506.23	61013.08
506.41	60743.92
506.58	61155.86
506.76	60804.78
506.93	60966.27
507.11	60451.36
507.28	60750.94
507.46	60104.96
507.63	59739.83
507.81	59667.28
507.98	60034.74
508.16	60554.34
508.33	60954.57
508.50	61415.66
508.68	61771.42
508.85	61818.23
509.03	62035.90
509.20	61841.63
509.38	61289.27
509.55	60413.91
509.73	60666.69
509.90	61085.64
510.08	61528.00
510.25	61434.38
510.42	60844.57
510.60	61202.67
510.77	61392.25
510.95	61841.63
511.12	61953.98
511.30	62211.44
511.47	62522.73
511.64	62370.60
511.82	62040.58
511.99	61249.48
512.17	61045.85
512.34	60788.39
512.51	60863.29
512.69	61055.21
512.86	61125.43
513.04	61544.39
513.21	61450.77
513.38	60956.91
513.56	60547.32
513.73	60186.88
513.90	60355.39
514.08	60547.32
514.25	60846.91
514.43	60989.68
514.60	60821.16
514.77	61310.33
514.95	61141.81
515.12	61104.37
515.29	61443.74
515.47	61752.69
515.64	61989.09
515.81	61712.91
515.99	61085.64
516.16	59615.79
516.33	57787.83
516.51	56474.79
516.68	55791.35
516.85	55306.86
517.03	55774.97
517.20	58211.46
517.37	60420.93
517.54	61361.82
517.72	60584.77
517.89	58482.97
518.06	56453.72
518.24	56947.57
518.41	58768.51
518.58	59950.48
518.75	60095.60
518.93	60210.28
519.10	59941.12
519.27	60734.56
519.45	60898.40
519.62	61418.00
519.79	61792.48
519.96	61591.20
520.14	60996.70
520.31	60521.57
520.48	60404.55
520.65	60680.73
520.83	61773.76
521.00	61808.87
521.17	61558.43
521.34	61179.26
521.52	61689.50
521.69	62122.50
521.86	62372.94
522.03	61939.94
522.20	60982.66
522.38	60095.60
522.55	60331.99
522.72	60786.05
522.89	60935.85
523.07	61148.84
523.24	61261.18
523.41	62138.88
523.58	62248.89
523.75	62831.68
523.92	62513.37
524.10	62609.33
524.27	62443.15
524.44	62251.23
524.61	62178.67
524.78	62262.93
524.96	61942.28
525.13	62202.08
525.30	62382.30
525.47	62513.37
525.64	62515.71
525.81	61717.59
525.98	60605.83
526.16	59262.36
526.33	58616.38
526.50	58621.06
526.67	57921.24
526.84	58810.64
527.01	59580.68
527.18	60413.91
527.36	61366.51
527.53	61998.45
527.70	62120.16
527.87	61705.88
528.04	61097.34
528.21	61832.27
528.38	62333.15
528.55	62892.54
528.72	63051.69
528.89	63103.18
529.07	63112.55
529.24	62405.70
529.41	61836.95
529.58	61165.22
529.75	61457.79
529.92	61778.44
530.09	61972.70
530.26	62625.71
530.43	62866.79
530.60	62871.47
530.77	63157.02
530.94	63196.80
531.11	62728.70
531.28	62377.62
531.46	62164.63
531.63	62536.77
531.80	62220.80
531.97	61687.16
532.14	61104.37
532.31	60236.03
532.48	59695.36
532.65	59840.48
532.82	60612.85
532.99	61677.80
533.16	61804.19
533.33	62356.55
533.50	62162.29
533.67	61574.81
533.84	61364.17
534.01	61476.51
534.18	61593.54
534.35	61853.34
534.52	61717.59
534.69	62049.94
534.86	62211.44
535.03	62564.86
535.20	62922.96
535.37	63018.92
535.54	63131.27
535.71	62773.17
535.88	62426.77
536.05	62017.17
536.22	61673.12
536.38	61256.50
536.55	60708.82
536.72	60570.72
536.89	60561.36
537.06	61366.51
537.23	62152.93
537.40	62183.35
537.57	62213.78
537.74	62031.22
537.91	61855.68
538.08	61822.91
538.25	62024.20
538.42	62082.71
538.59	61979.73
538.75	61401.61
538.92	61113.73
539.09	61104.37
539.26	60900.74
539.43	60760.31
539.60	60830.52
539.77	61090.32
539.94	60832.86
540.11	59880.27
540.28	59880.27
540.44	59707.07
540.61	59994.95
540.78	60289.86
540.95	60615.19
541.12	60949.89
541.29	61085.64
541.46	61462.47
541.62	61570.13
541.79	61336.08
541.96	60753.29
542.13	60935.85
542.30	61193.31
542.47	61371.19
542.63	61064.58
542.80	60982.66
542.97	60865.63
543.14	60720.52
543.31	60823.50
543.48	61633.33
543.64	61829.93
543.81	62288.68
543.98	62159.95
544.15	61394.59
544.32	61066.92
544.48	61113.73
544.65	61539.71
544.82	61890.79
544.99	61602.90
545.16	61228.41
545.32	61038.83
545.49	61843.98
545.66	61937.60
545.83	61478.85
546.00	61169.90
546.16	60919.46
546.33	61104.37
546.50	61155.86
546.67	61668.44
546.83	61307.99
547.00	61279.91
547.17	60502.85
547.34	60100.28
547.50	60156.45
547.67	60364.76
547.84	60465.40
548.00	60896.06
548.17	61371.19
548.34	61092.66
548.51	61223.73
548.67	61270.54
548.84	61209.69
549.01	61193.31
549.18	60987.34
549.34	61167.56
549.51	61080.96
549.68	60825.84
549.84	60708.82
550.01	60654.98
550.18	60540.30
550.34	60662.00
550.51	60594.13
550.68	60823.50
550.84	60357.74
551.01	60589.45
551.18	60420.93
551.34	60491.15
551.51	60919.46
551.68	61095.00
551.84	61221.39
552.01	61176.92
552.18	60772.01
552.34	60175.17
552.51	59959.84
552.68	59831.11
552.84	60301.56
553.01	60498.17
553.18	60339.01
553.34	60491.15
553.51	60769.67
553.67	60774.35
553.84	61134.79
554.01	60694.77
554.17	60858.61
554.34	60704.13
554.51	60856.27
554.67	61244.80
554.84	61099.68
555.00	60659.66
555.17	60451.36
555.33	60575.40
555.50	60472.42
555.67	60355.39
555.83	60212.62
556.00	59840.48
556.16	60156.45
556.33	59798.35
556.50	59662.60
556.66	59819.41
556.83	59559.61
556.99	59480.03
557.16	59536.21
557.32	59922.40
557.49	60100.28
557.65	59910.69
557.82	59868.56
557.98	59976.23
558.15	59480.03
558.32	58546.16
558.48	57909.53
558.65	58408.07
558.81	58752.13
558.98	58820.00
559.14	59236.62
559.31	59147.68
559.47	59126.61
559.64	58864.47
559.80	58494.67
559.97	58670.21
560.13	58894.90
560.30	59725.79
560.46	60058.15
560.63	60512.21
560.79	60514.55
560.96	59859.20
561.12	58925.33
561.29	58267.64
561.45	58440.84
561.61	58885.54
561.78	59346.62
561.94	59243.64
562.11	58960.44
562.27	58901.92
562.44	59105.55
562.60	59496.42
562.77	59796.01
562.93	59568.97
563.10	59206.19
563.26	59107.89
563.42	58756.81
563.59	58752.13
563.75	58948.73
563.92	58873.84
564.08	58735.74
564.24	59227.26
564.41	59117.25
564.57	58981.50
564.74	58784.90
564.90	58789.58
565.07	58663.19
565.23	58253.59
565.39	57785.49
565.56	57560.79
565.72	57343.12
565.88	57691.86
566.05	57855.70
566.21	58047.63
566.38	58248.91
566.54	58113.16
566.70	58569.57
566.87	58845.75
567.03	58920.65
567.19	59021.29
567.36	58822.34
567.52	58728.72
567.68	58197.42
567.85	57645.05
568.01	57509.30
568.17	56989.70
568.34	57296.31
568.50	57387.60
568.66	57439.09
568.83	57694.21
568.99	57766.76
569.15	57904.85
569.32	57965.71
569.48	57656.76
569.64	57258.87
569.81	57179.29
569.97	57261.21
570.13	57146.52
570.30	56463.08
570.46	56385.85
570.62	55999.66
570.78	55894.33
570.95	56018.38
571.11	56563.73
571.27	56830.55
571.43	56968.64
571.60	57375.89
571.76	57448.45
571.92	57736.34
572.09	57911.88
572.25	57649.74
572.41	57928.26
572.57	57659.10
572.74	57626.33
572.90	57172.27
573.06	57394.62
573.22	57293.97
573.38	57333.76
573.55	57315.04
573.71	57490.58
573.87	57371.21
574.03	57050.56
574.20	57261.21
574.36	56753.31
574.52	56736.93
574.68	56409.25
574.84	56109.66
575.01	55849.86
575.17	56039.45
575.33	56097.96
575.49	56472.45
575.65	56470.11
575.82	56090.94
575.98	55861.57
576.14	56116.68
576.30	56444.36
576.46	56552.02
576.62	56615.22
576.79	56477.13
576.95	56320.31
577.11	56229.03
577.27	56285.20
577.43	56285.20
577.59	55980.93
577.75	55451.97
577.92	55063.44
578.08	54658.53
578.24	54815.35
578.40	55295.16
578.56	55283.45
578.72	55463.67
578.88	55395.80
579.04	55983.27
579.21	55903.70
579.37	55852.20
579.53	55899.01
579.69	55725.81
579.85	55966.89
580.01	55826.46
580.17	55716.45
580.33	55323.24
580.49	55473.04
580.65	55751.56
580.82	56020.72
580.98	56006.68
581.14	56041.79
581.30	55852.20
581.46	55987.95
581.62	55938.80
581.78	56018.38
581.94	56231.37
582.10	56095.62
582.26	56147.11
582.42	56030.08
582.58	56086.26
582.74	55873.27
582.90	56032.42
583.06	56191.58
583.22	55997.32
583.38	55896.67
583.54	55917.74
583.70	55770.28
583.86	55915.40
584.02	55592.40
584.18	55526.87
584.34	55489.42
584.50	55536.23
584.66	55318.56
584.82	55112.59
584.98	54904.29
585.14	54866.84
