SpectraSuite Data File
++++++++++++++++++++++++++++++++++++
Date: Mon Oct 07 14:53:20 GMT-05:00 2013
User: price-jones
Dark Spectrum Present: No
Reference Spectrum Present: No
Number of Sampled Component Spectra: 1
Spectrometers: USB2+H05261
Integration Time (usec): 100000 (USB2+H05261)
Spectra Averaged: 1 (USB2+H05261)
Boxcar Smoothing: 0 (USB2+H05261)
Correct for Electrical Dark: No (USB2+H05261)
Strobe/Lamp Enabled: No (USB2+H05261)
Correct for Detector Non-linearity: No (USB2+H05261)
Correct for Stray Light: No (USB2+H05261)
Number of Pixels in Processed Spectrum: 2048
>>>>>Begin Processed Spectral Data<<<<<
365.73	0.00
365.92	0.00
366.12	0.00
366.32	0.00
366.52	0.00
366.72	0.00
366.91	0.00
367.11	0.00
367.31	0.00
367.51	0.00
367.70	0.00
367.90	0.00
368.10	0.00
368.30	0.00
368.49	0.00
368.69	0.00
368.89	0.00
369.09	0.00
369.28	0.00
369.48	0.00
369.68	0.00
369.87	0.00
370.07	0.00
370.27	0.00
370.47	596.84
370.66	2787.58
370.86	3370.37
371.06	3676.98
371.25	3679.32
371.45	3382.07
371.65	2986.52
371.84	2733.75
372.04	3016.95
372.24	3190.15
372.44	3463.99
372.63	3288.45
372.83	3129.30
373.03	2661.19
373.22	2583.95
373.42	2691.62
373.62	3019.29
373.81	3274.41
374.01	3412.50
374.21	3009.93
374.40	2764.17
374.60	2937.37
374.79	3375.05
374.99	3843.16
375.19	4173.18
375.38	4142.75
375.58	3906.35
375.78	3976.57
375.97	3833.80
376.17	3967.21
376.37	3812.73
376.56	4128.70
376.76	4311.27
376.95	4559.36
377.15	4940.87
377.35	5069.60
377.54	5294.29
377.74	5392.59
377.93	5493.24
378.13	5357.49
378.33	5158.54
378.52	4592.13
378.72	4500.85
378.91	4528.94
379.11	4224.67
379.31	4159.13
379.50	4044.45
379.70	4456.38
379.89	4858.95
380.09	5118.75
380.28	5387.91
380.48	5437.06
380.68	5240.46
380.87	5156.20
381.07	4795.76
381.26	4341.69
381.46	4067.85
381.65	3936.78
381.85	3817.41
382.04	3688.68
382.24	3454.63
382.43	3342.28
382.63	3190.15
382.83	3180.79
383.02	3218.24
383.22	3475.70
383.41	3307.18
383.61	3496.76
383.80	4074.87
384.00	4608.51
384.19	5100.03
384.39	5366.85
384.58	5425.36
384.78	5294.29
384.97	5387.91
385.17	4809.80
385.36	4634.26
385.56	4496.17
385.75	4580.43
385.95	5111.73
386.14	5607.92
386.34	5476.85
386.53	5261.52
386.72	4896.40
386.92	4975.98
387.11	5242.80
387.31	5544.73
387.50	5413.66
387.70	5130.45
387.89	5144.50
388.09	5191.31
388.28	5270.89
388.48	5455.79
388.67	5820.91
388.86	6221.14
389.06	6806.28
389.25	7026.29
389.45	7129.27
389.64	7211.19
389.84	7166.72
390.03	6951.39
390.22	7014.59
390.42	7108.21
390.61	7838.45
390.81	8028.04
391.00	8276.13
391.19	8166.13
391.39	8002.29
391.58	7304.81
391.78	7066.08
391.97	6780.53
392.16	6387.32
392.36	5703.89
392.55	4695.11
392.75	3829.12
392.94	2906.95
393.13	2930.35
393.33	3515.48
393.52	4615.54
393.71	5636.01
393.91	6363.92
394.10	6892.88
394.29	7405.46
394.49	8102.93
394.68	8837.86
394.88	8784.03
395.07	8971.27
395.26	8762.97
395.46	8812.12
395.65	8351.03
395.84	7201.83
396.04	6164.97
396.23	5025.13
396.42	4257.43
396.62	3871.25
396.81	4601.49
397.00	5738.99
397.19	7384.39
397.39	8821.48
397.58	9834.93
397.77	10361.55
397.97	10888.17
398.16	10801.57
398.35	11279.04
398.55	11616.08
398.74	11974.18
398.93	12287.81
399.12	12367.39
399.32	11880.56
399.51	11915.67
399.70	13022.74
399.90	12674.00
400.09	12741.88
400.28	12449.31
400.47	12585.06
400.67	13352.76
400.86	13792.78
401.05	13476.80
401.24	13811.50
401.44	13928.53
401.63	13745.97
401.82	14193.01
402.01	14211.73
402.21	14101.73
402.40	14377.91
402.59	13743.63
402.78	13121.04
402.97	12711.45
403.17	13319.99
403.36	14197.69
403.55	14670.48
403.74	15087.09
403.93	14148.54
404.13	13261.48
404.32	12872.95
404.51	13659.37
404.70	14618.99
404.89	14527.71
405.09	14504.30
405.28	13724.90
405.47	14092.37
405.66	13816.18
405.85	13657.03
406.05	13102.32
406.24	13172.54
406.43	14176.62
406.62	14478.55
406.81	14485.58
407.00	13984.70
407.20	13645.32
407.39	13654.69
407.58	14347.48
407.77	14963.04
407.96	15407.75
408.15	15906.28
408.34	15815.00
408.54	16444.60
408.73	16409.50
408.92	16156.72
409.11	15770.53
409.30	15119.86
409.49	13919.17
409.68	13137.43
409.87	12809.75
410.07	13554.04
410.26	14956.02
410.45	15805.64
410.64	15770.53
410.83	16570.99
411.02	17048.46
411.21	17476.78
411.40	17226.34
411.59	17160.81
411.78	17160.81
411.98	17275.49
412.17	17252.09
412.36	17081.23
412.55	17303.58
412.74	16535.88
412.93	16009.26
413.12	16517.16
413.31	18029.15
413.50	18354.48
413.69	18349.80
413.88	18047.87
414.07	17151.45
414.26	17649.98
414.45	18260.86
414.64	18090.00
414.83	18349.80
415.02	18043.19
415.22	18012.76
415.41	18178.94
415.60	19112.81
415.79	19688.59
415.98	20018.60
416.17	20231.59
416.36	19520.07
416.55	19393.68
416.74	18558.11
416.93	18075.96
417.12	18178.94
417.31	18132.13
417.50	18759.39
417.69	19049.62
417.88	19138.56
418.07	18979.40
418.26	18656.41
418.45	18970.04
418.64	19592.62
418.83	20308.83
419.02	19913.28
419.21	19946.05
419.39	18979.40
419.58	17792.75
419.77	17860.63
419.96	18906.85
420.15	19981.15
420.34	20472.67
420.53	21128.02
420.72	21532.93
420.91	21200.57
421.10	21055.46
421.29	21233.34
421.48	20238.61
421.67	21378.45
421.86	20409.47
422.05	19513.05
422.24	17252.09
422.43	16903.35
422.61	18693.86
422.80	20622.46
422.99	20533.52
423.18	19709.65
423.37	19363.25
423.56	19309.42
423.75	19711.99
423.94	20067.75
424.13	19295.38
424.32	19042.60
424.50	19400.70
424.69	19002.81
424.88	18878.76
425.07	19176.01
425.26	19119.84
425.45	18888.12
425.64	18567.47
425.83	18656.41
426.01	19770.51
426.20	20088.82
426.39	20098.18
426.58	18558.11
426.77	17322.30
426.96	16240.98
427.15	17221.66
427.33	18480.87
427.52	19225.16
427.71	19353.89
427.90	19131.54
428.09	19304.74
428.28	18544.06
428.46	17928.50
428.65	17884.03
428.84	18185.96
429.03	18281.92
429.22	17221.66
429.40	16580.36
429.59	15009.86
429.78	13324.67
429.97	13252.11
430.16	13359.78
430.34	13984.70
430.53	13453.40
430.72	13975.34
430.91	15360.94
431.10	17820.84
431.28	21034.39
431.47	22654.05
431.66	23304.71
431.85	20989.92
432.03	19410.06
432.22	18401.29
432.41	19590.28
432.60	21509.52
432.79	22359.14
432.97	22761.71
433.16	22347.44
433.35	20332.23
433.54	18312.35
433.72	17041.44
433.91	17776.37
434.10	19976.47
434.28	21406.54
434.47	22314.67
434.66	21965.93
434.85	21605.49
435.03	21268.45
435.22	22015.08
435.41	23026.19
435.59	23433.44
435.78	23730.69
435.97	24327.53
436.16	24315.83
436.34	23957.72
436.53	23721.33
436.72	23459.19
436.90	22099.34
437.09	22530.00
437.28	21923.80
437.46	22209.34
437.65	22319.35
437.84	21142.06
438.02	19302.40
438.21	19314.10
438.40	20217.55
438.58	22108.70
438.77	22530.00
438.96	22415.31
439.14	23662.82
439.33	24418.81
439.52	24634.14
439.70	24135.60
439.89	23360.89
440.08	23019.17
440.26	22759.37
440.45	23683.88
440.63	25252.04
440.82	26597.85
441.01	26052.50
441.19	25935.48
441.38	26221.02
441.57	27351.50
441.75	27777.48
441.94	27641.73
442.12	27756.41
442.31	28500.70
442.50	27812.59
442.68	27620.66
442.87	27370.22
443.05	27105.74
443.24	27489.59
443.43	27882.80
443.61	28217.50
443.80	28943.06
443.98	27232.13
444.17	27271.92
444.35	28701.99
444.54	29558.63
444.73	28797.95
444.91	27522.36
445.10	27094.04
445.28	25326.94
445.47	25118.63
445.65	25193.53
445.84	25970.58
446.02	26754.66
446.21	27204.05
446.39	27213.41
446.58	27707.26
446.77	28142.60
446.95	28203.46
447.14	29291.80
447.32	29743.53
447.51	29153.71
447.69	27974.08
447.88	27613.64
448.06	28020.89
448.25	28676.24
448.43	28959.45
448.62	28285.37
448.80	28025.57
448.99	28423.47
449.17	28364.95
449.36	28404.74
449.54	29780.98
449.73	30127.38
449.91	30515.90
450.10	31271.90
450.28	31730.64
450.46	31569.15
450.65	31292.96
450.83	30962.95
451.02	30756.98
451.20	30340.36
451.39	30099.29
451.57	30389.52
451.76	29790.34
451.94	30167.16
452.13	29434.58
452.31	28203.46
452.49	26857.65
452.68	27080.00
452.86	27190.00
453.05	27564.49
453.23	28552.20
453.42	29034.35
453.60	29675.65
453.78	30401.22
453.97	29603.10
454.15	29954.18
454.34	29071.79
454.52	29465.00
454.70	28723.05
454.89	29167.76
455.07	28957.11
455.26	29481.39
455.44	30813.15
455.62	31227.43
455.81	31349.14
455.99	31026.14
456.17	30677.40
456.36	30834.22
456.54	31424.03
456.73	31363.18
456.91	31957.67
457.09	32561.53
457.28	32893.89
457.46	31679.15
457.64	31744.69
457.83	30441.01
458.01	29834.81
458.19	30700.81
458.38	30780.39
458.56	31812.56
458.74	31702.56
458.93	30829.54
459.11	31061.25
459.29	31054.23
459.48	30991.03
459.66	31094.02
459.84	31351.48
460.03	31707.24
460.21	31651.06
460.39	32549.83
460.57	32620.05
460.76	32989.85
460.94	32692.60
461.12	32631.75
461.31	32692.60
461.49	32339.18
461.67	32510.04
461.85	33516.47
462.04	33500.09
462.22	33848.83
462.40	33340.93
462.59	33233.27
462.77	33280.08
462.95	33104.54
463.13	32561.53
463.32	32355.57
463.50	32325.14
463.68	32114.49
463.86	32341.52
464.05	32177.68
464.23	30998.06
464.41	31215.72
464.59	30719.53
464.78	32283.01
464.96	31674.47
465.14	32130.87
465.32	32577.92
465.50	33390.08
465.69	33542.22
465.87	32818.99
466.05	32278.33
466.23	30792.09
466.41	29640.54
466.60	30848.26
466.78	31234.45
466.96	31381.90
467.14	32142.58
467.32	32226.84
467.51	32446.85
467.69	31461.48
467.87	31541.06
468.05	32210.45
468.23	32081.72
468.41	32297.05
468.60	32165.98
468.78	32577.92
468.96	32055.98
469.14	32622.39
469.32	32669.20
469.50	31604.25
469.69	31868.73
469.87	31386.58
470.05	31007.42
470.23	30862.30
470.41	30995.71
470.59	31754.05
470.77	31840.65
470.95	32570.90
471.14	32823.67
471.32	32816.65
471.50	34719.51
471.68	34684.40
471.86	34944.20
472.04	35501.25
472.22	35566.78
472.40	33689.67
472.58	33338.59
472.77	33371.36
472.95	33844.15
473.13	34768.66
473.31	33537.54
473.49	33832.44
473.67	34567.37
473.85	34422.26
474.03	35929.56
474.21	35641.68
474.39	35995.10
474.57	36395.33
474.75	35981.06
474.93	35784.45
475.12	34684.40
475.30	34991.01
475.48	35370.18
475.66	35688.49
475.84	35503.59
476.02	34983.99
476.20	34881.00
476.38	35257.83
476.56	36629.38
476.74	36762.79
476.92	37097.49
477.10	37479.00
477.28	38291.16
477.46	38352.02
477.64	38815.44
477.82	39119.71
478.00	39002.69
478.18	38747.57
478.36	38691.40
478.54	38616.50
478.72	38787.36
478.90	39789.11
479.08	40889.16
479.26	41076.40
479.44	41165.34
479.62	40994.48
479.80	40830.65
479.98	40912.56
480.16	41713.03
480.34	40870.43
480.52	41366.63
480.70	41455.57
480.88	41453.23
481.06	42457.32
481.24	42326.25
481.41	43473.11
481.59	44172.93
481.77	43782.06
481.95	43292.89
482.13	43122.03
482.31	43147.78
482.49	43885.04
482.67	43325.66
482.85	43714.19
483.03	44680.83
483.21	45364.26
483.39	44898.50
483.57	44105.06
483.74	44013.77
483.92	44091.01
484.10	44282.94
484.28	45181.70
484.46	45879.18
484.64	45956.42
484.82	44982.76
485.00	44762.75
485.18	43964.62
485.35	42873.93
485.53	39306.96
485.71	35814.88
485.89	35232.08
486.07	37497.72
486.25	40912.56
486.43	42630.52
486.61	43695.46
486.78	43632.27
486.96	43976.33
487.14	45661.51
487.32	46642.20
487.50	47262.44
487.68	48463.13
487.85	48938.26
488.03	49146.57
488.21	48694.85
488.39	47695.44
488.57	47288.18
488.75	46658.58
488.92	48083.97
489.10	50171.72
489.28	51803.08
489.46	52486.51
489.64	52140.11
489.81	52109.69
489.99	52030.11
490.17	52193.95
490.35	52266.50
490.53	51889.68
490.70	51381.78
490.88	51463.70
491.06	52315.65
491.24	52161.18
491.41	51016.66
491.59	49425.09
491.77	48673.78
491.95	49701.28
492.13	51047.08
492.30	52362.46
492.48	53420.39
492.66	53872.11
492.84	53736.36
493.01	53420.39
493.19	52973.34
493.37	52652.69
493.54	52224.37
493.72	53048.24
493.90	54042.97
494.08	54759.17
494.25	55234.30
494.43	55201.53
494.61	56044.13
494.79	55789.01
494.96	55767.94
495.14	54883.22
495.32	54026.59
495.49	53375.92
495.67	54817.69
495.85	55927.10
496.02	56109.66
496.20	55943.48
496.38	55604.11
496.55	55274.09
496.73	56170.52
496.91	55950.51
497.09	56687.78
497.26	56727.56
497.44	56083.92
497.62	55597.09
497.79	54941.74
497.97	53813.60
498.14	53820.62
498.32	54981.52
498.50	56020.72
498.67	56465.42
498.85	56437.34
499.03	56699.48
499.20	56573.09
499.38	56736.93
499.56	56327.33
499.73	56278.18
499.91	55800.71
500.08	55463.67
500.26	54672.57
500.44	55079.83
500.61	55447.29
500.79	55744.54
500.97	55154.72
501.14	55124.30
501.32	54742.79
501.49	54782.58
501.67	55028.34
501.84	55590.06
502.02	55973.91
502.20	56306.27
502.37	56280.52
502.55	56355.42
502.72	56807.14
502.90	57467.17
503.07	57038.86
503.25	56835.23
503.43	55952.85
503.60	54986.21
503.78	54291.07
503.95	54873.86
504.13	56481.81
504.30	57078.64
504.48	56952.26
504.65	56718.20
504.83	56582.45
505.01	57329.08
505.18	57652.08
505.36	58291.04
505.53	58218.49
505.71	58553.18
505.88	58539.14
506.06	57879.11
506.23	57528.03
506.41	57062.26
506.58	57532.71
506.76	57244.82
506.93	57492.92
507.11	57202.69
507.28	57301.00
507.46	56844.59
507.63	56357.76
507.81	56144.77
507.98	56273.50
508.16	57085.67
508.33	57584.20
508.50	57904.85
508.68	58108.48
508.85	58607.01
509.03	58700.64
509.20	58401.05
509.38	57677.82
509.55	57020.13
509.73	57104.39
509.90	57513.98
510.08	57921.24
510.25	57787.83
510.42	57689.52
510.60	57579.52
510.77	57928.26
510.95	58482.97
511.12	58555.52
511.30	58915.96
511.47	58993.20
511.64	58979.16
511.82	58436.16
511.99	57876.77
512.17	57368.87
512.34	57214.40
512.51	57415.68
512.69	57289.29
512.86	57539.73
513.04	58106.14
513.21	57993.79
513.38	57705.91
513.56	56987.36
513.73	56640.96
513.90	56736.93
514.08	57073.96
514.25	57230.78
514.43	57525.69
514.60	57371.21
514.77	57687.18
514.95	57656.76
515.12	57691.86
515.29	57865.06
515.47	58192.74
515.64	58604.67
515.81	58298.06
515.99	57928.26
516.16	56086.26
516.33	53677.85
516.51	52229.05
516.68	51562.00
516.85	50759.20
517.03	51054.11
517.20	54520.44
517.37	56685.43
517.54	57640.37
517.72	57223.76
517.89	54550.87
518.06	52271.18
518.24	52549.71
518.41	54801.30
518.58	56182.22
518.75	56413.93
518.93	56528.62
519.10	56530.96
519.27	57022.47
519.45	57233.12
519.62	57792.51
519.79	58171.67
519.96	58010.18
520.14	57563.14
520.31	56828.21
520.48	56809.48
520.65	57095.03
520.83	57909.53
521.00	58438.50
521.17	57799.53
521.34	57914.22
521.52	57986.77
521.69	58445.52
521.86	59004.91
522.03	58571.91
522.20	57272.91
522.38	56451.38
522.55	56388.19
522.72	56973.32
522.89	57268.23
523.07	57443.77
523.24	57684.84
523.41	58494.67
523.58	58700.64
523.75	59222.58
523.92	59042.35
524.10	59269.39
524.27	59072.78
524.44	58660.85
524.61	58766.17
524.78	58461.90
524.96	58534.46
525.13	58440.84
525.30	58658.51
525.47	59276.41
525.64	58899.58
525.81	58073.37
525.98	57013.11
526.16	55606.45
526.33	54625.76
526.50	54623.42
526.67	54223.19
526.84	54815.35
527.01	55763.26
527.18	56678.41
527.36	57544.41
527.53	58241.89
527.70	58623.40
527.87	57946.98
528.04	57439.09
528.21	58122.52
528.38	58691.27
528.55	59281.09
528.72	59501.10
528.89	59678.98
529.07	59309.18
529.24	58873.84
529.41	58204.44
529.58	57633.35
529.75	57804.21
529.92	58141.25
530.09	58604.67
530.26	59199.17
530.43	59370.03
530.60	59299.81
530.77	59531.53
530.94	59711.75
531.11	59161.72
531.28	58798.94
531.46	58812.98
531.63	58782.55
531.80	58543.82
531.97	58197.42
532.14	57623.99
532.31	56666.71
532.48	55917.74
532.65	56002.00
532.82	56924.17
532.99	57834.64
533.16	58049.97
533.33	58705.32
533.50	58525.10
533.67	57965.71
533.84	57387.60
534.01	57855.70
534.18	57844.00
534.35	58216.14
534.52	57925.92
534.69	58443.18
534.86	58403.39
535.03	58756.81
535.20	59267.05
535.37	59547.91
535.54	59561.95
535.71	59164.06
535.88	58639.78
536.05	58365.94
536.22	57839.32
536.38	57633.35
536.55	57223.76
536.72	56566.07
536.89	56399.89
537.06	57635.69
537.23	58178.70
537.40	58354.24
537.57	58230.19
537.74	58286.36
537.91	58368.28
538.08	58176.36
538.25	58064.01
538.42	58251.25
538.59	58185.72
538.75	57719.95
538.92	57256.53
539.09	57268.23
539.26	57041.20
539.43	56968.64
539.60	56980.34
539.77	56963.96
539.94	57179.29
540.11	56147.11
540.28	55627.51
540.44	55927.10
540.61	55943.48
540.78	56207.97
540.95	56872.68
541.12	57279.93
541.29	57141.84
541.46	57560.79
541.62	57614.63
541.79	57525.69
541.96	56786.08
542.13	57195.67
542.30	57324.40
542.47	57460.15
542.63	57172.27
542.80	57111.41
542.97	57111.41
543.14	56903.10
543.31	56980.34
543.48	57591.22
543.64	58298.06
543.81	58499.35
543.98	58492.33
544.15	57696.55
544.32	57022.47
544.48	57258.87
544.65	57663.78
544.82	58269.98
544.99	57935.28
545.16	57425.04
545.32	56989.70
545.49	58089.76
545.66	58454.88
545.83	57958.69
546.00	57439.09
546.16	57279.93
546.33	57097.37
546.50	57495.26
546.67	57888.47
546.83	57247.16
547.00	57139.50
547.17	56605.86
547.34	56252.44
547.50	56051.15
547.67	56605.86
547.84	56706.50
548.00	57006.09
548.17	57518.67
548.34	57146.52
548.51	57265.89
548.67	57373.55
548.84	57490.58
549.01	57212.06
549.18	57139.50
549.34	57275.25
549.51	57200.35
549.68	57062.26
549.84	56994.39
550.01	56807.14
550.18	56594.15
550.34	56830.55
550.51	56898.42
550.68	57144.18
550.84	56222.01
551.01	56500.53
551.18	56582.45
551.34	56741.61
551.51	57088.01
551.68	57235.46
551.84	57361.85
552.01	57130.14
552.18	56790.76
552.34	56196.26
552.51	55845.18
552.68	55779.65
552.84	56385.85
553.01	56268.82
553.18	56299.25
553.34	56622.24
553.51	56645.65
553.67	57125.46
553.84	56940.55
554.01	56978.00
554.17	57013.11
554.34	56591.81
554.51	56767.35
554.67	57312.70
554.84	57195.67
555.00	56722.88
555.17	56371.80
555.33	56685.43
555.50	56507.55
555.67	56357.76
555.83	56179.88
556.00	56016.04
556.16	55826.46
556.33	55538.57
556.50	55482.40
556.66	55646.24
556.83	55253.03
556.99	55100.89
557.16	55246.00
557.32	55976.25
557.49	56093.28
557.65	55817.10
557.82	56048.81
557.98	55838.16
558.15	55117.28
558.32	54457.24
558.48	53572.52
558.65	53860.41
558.81	54138.93
558.98	54443.20
559.14	54642.15
559.31	54766.20
559.47	54667.89
559.64	54195.10
559.80	54078.08
559.97	54108.50
560.13	54457.24
560.30	55510.49
560.46	56214.99
560.63	56147.11
560.79	56420.95
560.96	55791.35
561.12	54438.52
561.29	53979.78
561.45	53818.28
561.61	54707.68
561.78	54784.92
561.94	54789.60
562.11	54745.13
562.27	54546.18
562.44	54817.69
562.60	55238.98
562.77	55346.65
562.93	55313.88
563.10	55215.58
563.26	54703.00
563.42	54782.58
563.59	54253.62
563.75	54365.96
563.92	54574.27
564.08	54433.84
564.24	54901.95
564.41	54742.79
564.57	54717.04
564.74	54300.43
564.90	54337.88
565.07	54307.45
565.23	53923.60
565.39	53600.61
565.56	53205.06
565.72	52858.66
565.88	53120.80
566.05	53443.79
566.21	53558.48
566.38	53813.60
566.54	53787.85
566.70	54075.74
566.87	54342.56
567.03	54239.57
567.19	54628.10
567.36	54625.76
567.52	54232.55
567.68	53954.03
567.85	53380.60
568.01	53057.60
568.17	52704.18
568.34	52633.97
568.50	52126.07
568.66	52542.69
568.83	52963.98
568.99	53546.78
569.15	53275.27
569.32	53464.86
569.48	52966.32
569.64	52952.28
569.81	52669.08
569.97	52273.52
570.13	52563.75
570.30	51707.12
570.46	51463.70
570.62	50866.86
570.78	50529.83
570.95	50789.62
571.11	51859.25
571.27	52193.95
571.43	51962.23
571.60	52736.95
571.76	52477.15
571.92	53006.11
572.09	53125.48
572.25	52952.28
572.41	53230.80
572.57	52582.48
572.74	53099.73
572.90	52575.45
573.06	52313.31
573.22	52664.39
573.38	52645.67
573.55	52317.99
573.71	52741.63
573.87	52495.88
574.03	52285.23
574.20	52203.31
574.36	51842.87
574.52	51845.21
574.68	51496.47
574.84	51065.81
575.01	50824.73
575.17	50265.34
575.33	51110.28
575.49	51100.92
575.65	51597.11
575.82	51341.99
575.98	50539.19
576.14	51054.11
576.30	51870.95
576.46	51760.95
576.62	51622.86
576.79	51744.56
576.95	51175.81
577.11	51154.75
577.27	51367.74
577.43	51124.32
577.59	50766.22
577.75	50328.54
577.92	49792.56
578.08	49839.37
578.24	49574.89
578.40	49881.50
578.56	50204.49
578.72	50241.94
578.88	50358.97
579.04	50293.43
579.21	50611.74
579.37	50969.85
579.53	50841.12
579.69	50705.37
579.85	51011.98
580.01	51033.04
580.17	50227.90
580.33	50073.42
580.49	50220.87
580.65	50679.62
580.82	50597.70
580.98	50787.28
581.14	50543.87
581.30	50688.98
581.46	50480.67
581.62	51234.33
581.78	50740.47
581.94	51140.71
582.10	51075.17
582.26	50651.53
582.42	51143.05
582.58	51243.69
582.74	51154.75
582.90	51203.90
583.06	51316.25
583.22	50490.04
583.38	50969.85
583.54	50340.24
583.70	50380.03
583.86	50480.67
584.02	50541.53
584.18	50906.65
584.34	50302.79
584.50	50192.79
584.66	50410.46
584.82	49717.66
584.98	49329.13
585.14	49282.32
585.30	47985.66
