SpectraSuite Data File
++++++++++++++++++++++++++++++++++++
Date: Mon Oct 07 14:53:15 GMT-05:00 2013
User: price-jones
Dark Spectrum Present: No
Reference Spectrum Present: No
Number of Sampled Component Spectra: 1
Spectrometers: USB2+H05261
Integration Time (usec): 100000 (USB2+H05261)
Spectra Averaged: 1 (USB2+H05261)
Boxcar Smoothing: 0 (USB2+H05261)
Correct for Electrical Dark: No (USB2+H05261)
Strobe/Lamp Enabled: No (USB2+H05261)
Correct for Detector Non-linearity: No (USB2+H05261)
Correct for Stray Light: No (USB2+H05261)
Number of Pixels in Processed Spectrum: 2048
>>>>>Begin Processed Spectral Data<<<<<
365.73	0.00
365.92	0.00
366.12	0.00
366.32	0.00
366.52	0.00
366.72	0.00
366.91	0.00
367.11	0.00
367.31	0.00
367.51	0.00
367.70	0.00
367.90	0.00
368.10	0.00
368.30	0.00
368.49	0.00
368.69	0.00
368.89	0.00
369.09	0.00
369.28	0.00
369.48	0.00
369.68	0.00
369.87	0.00
370.07	0.00
370.27	0.00
370.47	1874.77
370.66	7550.57
370.86	8732.54
371.06	9259.16
371.25	9118.73
371.45	8142.72
371.65	7466.31
371.84	7173.74
372.04	7459.29
372.24	8264.43
372.44	8477.42
372.63	8126.34
372.83	7573.97
373.03	7028.63
373.22	6340.51
373.42	6839.05
373.62	7770.58
373.81	8222.30
374.01	8042.08
374.21	7204.17
374.40	6829.68
374.60	7330.56
374.79	8238.69
374.99	9593.86
375.19	10178.99
375.38	9994.09
375.58	9378.53
375.78	9298.95
375.97	9446.40
376.17	9846.63
376.37	9610.24
376.56	10197.71
376.76	10867.11
376.95	11391.39
377.15	12292.49
377.35	12479.74
377.54	13015.72
377.74	13605.53
377.93	12973.59
378.13	12807.41
378.33	12138.02
378.52	11084.78
378.72	10640.08
378.91	10609.65
379.11	10321.76
379.31	9834.93
379.50	10216.44
379.70	10930.30
379.89	12023.33
380.09	12858.90
380.28	13020.40
380.48	12943.16
380.68	12585.06
380.87	12119.29
381.07	11063.71
381.26	10438.79
381.46	9605.56
381.65	9521.30
381.85	9207.67
382.04	8620.19
382.24	8194.22
382.43	7735.47
382.63	7510.78
382.83	7578.65
383.02	7726.11
383.22	7655.89
383.41	7754.19
383.61	8372.10
383.80	9643.01
384.00	11059.03
384.19	12194.19
384.39	12830.82
384.58	12744.22
384.78	12278.45
384.97	11948.43
385.17	11283.72
385.36	10902.22
385.56	10494.96
385.75	10904.56
385.95	11906.31
386.14	12877.63
386.34	12453.99
386.53	11908.65
386.72	11405.43
386.92	11679.27
387.11	12159.08
387.31	12704.43
387.50	12589.74
387.70	12025.67
387.89	11990.56
388.09	12091.21
388.28	12152.06
388.48	12496.12
388.67	13303.60
388.86	14637.71
389.06	15632.44
389.25	16570.99
389.45	16325.24
389.64	16116.93
389.84	16236.30
390.03	15847.77
390.22	16236.30
390.42	16781.64
390.61	17488.48
390.81	18490.23
391.00	18970.04
391.19	18515.98
391.39	17846.58
391.58	16872.92
391.78	15950.75
391.97	15365.62
392.16	14178.97
392.36	12776.98
392.55	10136.86
392.75	8126.34
392.94	6949.05
393.13	7110.55
393.33	8451.67
393.52	10810.93
393.71	13034.44
393.91	14469.19
394.10	15845.43
394.29	17165.49
394.49	18787.48
394.68	20159.03
394.88	19735.40
395.07	20280.74
395.26	20320.53
395.46	19316.44
395.65	17980.00
395.84	15815.00
396.04	13074.23
396.23	10593.26
396.42	9114.05
396.62	9132.77
396.81	10832.00
397.00	13818.52
397.19	17245.07
397.39	20187.12
397.58	22354.46
397.77	23639.41
397.97	24341.57
398.16	24479.66
398.35	25979.95
398.55	26319.32
398.74	27089.36
398.93	27580.87
399.12	27190.00
399.32	26567.42
399.51	27288.31
399.70	28599.01
399.90	28484.32
400.09	28601.35
400.28	28339.21
400.47	28467.94
400.67	29680.33
400.86	30192.91
401.05	30122.69
401.24	30902.09
401.44	30967.63
401.63	31009.76
401.82	30995.71
402.01	31297.64
402.21	31651.06
402.40	32116.83
402.59	30462.07
402.78	29523.52
402.97	28809.65
403.17	29832.47
403.36	31786.82
403.55	32725.37
403.74	32936.02
403.93	31314.03
404.13	29057.75
404.32	28978.17
404.51	30059.50
404.70	32421.10
404.89	32299.39
405.09	31618.30
405.28	30572.08
405.47	30464.41
405.66	30539.31
405.85	29457.98
406.05	28776.89
406.24	29216.91
406.43	30567.40
406.62	31496.59
406.81	31463.82
407.00	30764.00
407.20	30148.44
407.39	30302.92
407.58	31826.60
407.77	32821.33
407.96	33710.74
408.15	34012.66
408.34	34218.63
408.54	36369.58
408.73	35854.67
408.92	35019.10
409.11	34536.94
409.30	32582.60
409.49	30125.04
409.68	28830.72
409.87	28018.55
410.07	29795.02
410.26	32393.01
410.45	34064.16
410.64	35056.54
410.83	36187.02
411.02	36685.56
411.21	37914.34
411.40	37006.21
411.59	37703.69
411.78	37291.76
411.98	37277.71
412.17	37809.01
412.36	36818.97
412.55	36961.74
412.74	36109.78
412.93	35136.12
413.12	36116.81
413.31	39063.54
413.50	39330.36
413.69	40088.70
413.88	37963.49
414.07	37916.68
414.26	38359.04
414.45	38965.24
414.64	39367.81
414.83	39388.88
415.02	38789.70
415.22	38981.62
415.41	39683.78
415.60	41240.24
415.79	41832.39
415.98	42969.90
416.17	43381.83
416.36	41677.92
416.55	41333.86
416.74	40020.82
416.93	38499.47
417.12	39407.60
417.31	39643.99
417.50	40175.30
417.69	40800.22
417.88	40910.22
418.07	40605.95
418.26	39936.56
418.45	40828.30
418.64	42043.04
418.83	43225.01
419.02	42415.19
419.21	42066.45
419.39	40210.40
419.58	38653.95
419.77	39194.61
419.96	41006.19
420.15	42515.83
420.34	43021.39
420.53	44832.96
420.72	45930.67
420.91	44786.15
421.10	44797.85
421.29	44343.79
421.48	43065.86
421.67	44467.84
421.86	43311.61
422.05	40285.30
422.24	36797.90
422.43	37148.98
422.61	40566.16
422.80	42979.26
422.99	43723.55
423.18	41886.23
423.37	41319.82
423.56	41914.31
423.75	42686.69
423.94	42880.95
424.13	40481.91
424.32	41282.37
424.50	40737.02
424.69	40802.56
424.88	40715.96
425.07	40987.46
425.26	40744.05
425.45	40203.38
425.64	39948.26
425.83	39824.22
426.01	41851.12
426.20	42740.52
426.39	42326.25
426.58	39168.87
426.77	36383.63
426.96	35515.29
427.15	36947.70
427.33	39761.02
427.52	40762.77
427.71	40821.28
427.90	40669.15
428.09	39871.03
428.28	39140.78
428.46	37626.45
428.65	37539.85
428.84	38873.96
429.03	39103.33
429.22	36886.84
429.40	34623.54
429.59	32013.85
429.78	28428.15
429.97	29034.35
430.16	28905.62
430.34	29078.82
430.53	29050.73
430.72	29961.20
430.91	33406.47
431.10	39585.48
431.28	45247.24
431.47	47878.00
431.66	47599.47
431.85	44034.84
432.03	40460.84
432.22	39821.87
432.41	41537.49
432.60	45013.18
432.79	46176.43
432.97	47559.69
433.16	45715.34
433.35	42136.66
433.54	38120.31
433.72	36259.58
433.91	38281.80
434.10	42429.23
434.28	44732.32
434.47	46263.03
434.66	45614.70
434.85	44629.34
435.03	44708.91
435.22	45975.14
435.41	47917.79
435.59	47168.82
435.78	48236.10
435.97	48809.53
436.16	49123.16
436.34	48732.29
436.53	47742.25
436.72	48114.39
436.90	46017.27
437.09	45982.16
437.28	45481.29
437.46	46466.66
437.65	46368.35
437.84	43091.60
438.02	40435.10
438.21	40236.15
438.40	42274.76
438.58	45886.20
438.77	46869.23
438.96	46506.44
439.14	48526.33
439.33	48875.07
439.52	49759.79
439.70	48989.75
439.89	48051.20
440.08	47217.97
440.26	47234.35
440.45	48617.61
440.63	50733.45
440.82	52172.88
441.01	52058.20
441.19	51964.57
441.38	52540.35
441.57	53223.78
441.75	53392.30
441.94	53677.85
442.12	53322.08
442.31	54284.04
442.50	54071.06
442.68	53818.28
442.87	53254.21
443.05	52811.85
443.24	53572.52
443.43	54284.04
443.61	54174.04
443.80	54541.50
443.98	52875.04
444.17	52678.44
444.35	54649.17
444.54	55297.50
444.73	54939.39
444.91	53268.25
445.10	52018.41
445.28	51079.85
445.47	50408.12
445.65	51129.00
445.84	51959.89
446.02	52971.00
446.21	52978.03
446.39	53125.48
446.58	53591.25
446.77	54157.66
446.95	54122.55
447.14	55147.70
447.32	55400.48
447.51	54745.13
447.69	53628.69
447.88	53506.99
448.06	53649.76
448.25	54834.07
448.43	54684.28
448.62	54017.22
448.80	53846.36
448.99	54192.76
449.17	54609.38
449.36	54326.17
449.54	55480.06
449.73	55737.52
449.91	56339.04
450.10	56968.64
450.28	57240.14
450.46	57268.23
450.65	57338.44
450.83	57085.67
451.02	56409.25
451.20	56231.37
451.39	56275.84
451.57	56214.99
451.76	56039.45
451.94	55690.71
452.13	55173.45
452.31	53633.38
452.49	52519.28
452.68	52875.04
452.86	53162.93
453.05	53972.75
453.23	54546.18
453.42	55246.00
453.60	55529.21
453.78	55723.47
453.97	55461.33
454.15	55477.72
454.34	55128.98
454.52	55119.62
454.70	54789.60
454.89	54784.92
455.07	54672.57
455.26	55199.19
455.44	56409.25
455.62	56453.72
455.81	57088.01
455.99	56676.07
456.17	56442.02
456.36	56259.46
456.54	56961.62
456.73	57155.88
456.91	57406.32
457.09	57570.16
457.28	58253.59
457.46	57190.99
457.64	56996.73
457.83	55992.64
458.01	55653.26
458.19	56214.99
458.38	56313.29
458.56	57279.93
458.74	56947.57
458.93	56804.80
459.11	56512.23
459.29	56683.09
459.48	56949.92
459.66	56376.48
459.84	56896.08
460.03	57127.80
460.21	57272.91
460.39	57888.47
460.57	57811.23
460.76	58099.12
460.94	58248.91
461.12	57717.61
461.31	58042.95
461.49	57829.96
461.67	57986.77
461.85	58548.50
462.04	58426.79
462.22	58649.14
462.40	58351.90
462.59	58450.20
462.77	58637.44
462.95	58625.74
463.13	58145.93
463.32	58075.71
463.50	57687.18
463.68	57712.93
463.86	57638.03
464.05	57055.24
464.23	56488.83
464.41	56535.64
464.59	56570.75
464.78	57659.10
464.96	57490.58
465.14	57085.67
465.32	58052.31
465.50	58808.30
465.69	58714.68
465.87	58190.40
466.05	57457.81
466.23	56500.53
466.41	55756.24
466.60	56530.96
466.78	56303.93
466.96	57022.47
467.14	57008.43
467.32	57509.30
467.51	57289.29
467.69	56512.23
467.87	56783.74
468.05	57614.63
468.23	57364.19
468.41	57401.64
468.60	57256.53
468.78	57792.51
468.96	57368.87
469.14	57902.51
469.32	57991.45
469.50	56811.82
469.69	57153.54
469.87	56736.93
470.05	56418.61
470.23	56406.91
470.41	56601.18
470.59	57024.81
470.77	57127.80
470.95	57722.29
471.14	57724.63
471.32	57815.91
471.50	59344.28
471.68	59409.82
471.86	59435.56
472.04	59800.69
472.22	59409.82
472.40	58387.00
472.58	58494.67
472.77	57961.03
472.95	58344.87
473.13	59182.79
473.31	58710.00
473.49	58862.13
473.67	59311.52
473.85	59519.82
474.03	60104.96
474.21	60086.23
474.39	60069.85
474.57	60254.75
474.75	60175.17
474.93	59833.46
475.12	59543.23
475.30	59484.72
475.48	59695.36
475.66	59957.50
475.84	59772.60
476.02	59566.63
476.20	59234.28
476.38	59678.98
476.56	60441.99
476.74	60561.36
476.92	60755.63
477.10	61263.52
477.28	61841.63
477.46	61806.53
477.64	61949.30
477.82	61996.11
478.00	62230.16
478.18	61647.37
478.36	61890.79
478.54	61801.85
478.72	62312.08
478.90	62796.57
479.08	63252.98
479.26	63367.66
479.44	63260.00
479.62	63210.85
479.80	63145.31
479.98	63236.59
480.16	63454.26
480.34	63243.62
480.52	63531.50
480.70	63531.50
480.88	63414.47
481.06	64055.78
481.24	64175.15
481.41	64678.36
481.59	65212.01
481.77	64818.80
481.95	64289.84
482.13	64385.80
482.31	64322.60
482.49	64795.39
482.67	64853.90
482.85	64905.40
483.03	65523.30
483.21	65413.29
483.39	65347.76
483.57	65027.10
483.74	64870.29
483.92	65345.42
484.10	65307.97
484.28	65535.00
484.46	65535.00
484.64	65535.00
484.82	65535.00
485.00	65535.00
485.18	64856.24
485.35	64090.89
485.53	61916.53
485.71	60009.00
485.89	60184.54
486.07	61546.73
486.25	63252.98
486.43	64463.03
486.61	64645.60
486.78	64479.42
486.96	64743.90
487.14	65535.00
487.32	65535.00
487.50	65535.00
487.68	65535.00
487.85	65535.00
488.03	65535.00
488.21	65535.00
488.39	65535.00
488.57	65535.00
488.75	65535.00
488.92	65535.00
489.10	65535.00
489.28	65535.00
489.46	65535.00
489.64	65535.00
489.81	65535.00
489.99	65535.00
490.17	65535.00
490.35	65535.00
490.53	65535.00
490.70	65535.00
490.88	65535.00
491.06	65535.00
491.24	65535.00
491.41	65535.00
491.59	65535.00
491.77	65535.00
491.95	65535.00
492.13	65535.00
492.30	65535.00
492.48	65535.00
492.66	65535.00
492.84	65535.00
493.01	65535.00
493.19	65535.00
493.37	65535.00
493.54	65535.00
493.72	65535.00
493.90	65535.00
494.08	65535.00
494.25	65535.00
494.43	65535.00
494.61	65535.00
494.79	65535.00
494.96	65535.00
495.14	65535.00
495.32	65535.00
495.49	65535.00
495.67	65535.00
495.85	65535.00
496.02	65535.00
496.20	65535.00
496.38	65535.00
496.55	65535.00
496.73	65535.00
496.91	65535.00
497.09	65535.00
497.26	65535.00
497.44	65535.00
497.62	65535.00
497.79	65535.00
497.97	65535.00
498.14	65535.00
498.32	65535.00
498.50	65535.00
498.67	65535.00
498.85	65535.00
499.03	65535.00
499.20	65535.00
499.38	65535.00
499.56	65535.00
499.73	65535.00
499.91	65535.00
500.08	65535.00
500.26	65535.00
500.44	65535.00
500.61	65535.00
500.79	65535.00
500.97	65535.00
501.14	65535.00
501.32	65535.00
501.49	65535.00
501.67	65535.00
501.84	65535.00
502.02	65535.00
502.20	65535.00
502.37	65535.00
502.55	65535.00
502.72	65535.00
502.90	65535.00
503.07	65535.00
503.25	65535.00
503.43	65535.00
503.60	65535.00
503.78	65535.00
503.95	65535.00
504.13	65535.00
504.30	65535.00
504.48	65535.00
504.65	65535.00
504.83	65535.00
505.01	65535.00
505.18	65535.00
505.36	65535.00
505.53	65535.00
505.71	65535.00
505.88	65535.00
506.06	65535.00
506.23	65535.00
506.41	65535.00
506.58	65535.00
506.76	65535.00
506.93	65535.00
507.11	65535.00
507.28	65535.00
507.46	65535.00
507.63	65535.00
507.81	65535.00
507.98	65535.00
508.16	65535.00
508.33	65535.00
508.50	65535.00
508.68	65535.00
508.85	65535.00
509.03	65535.00
509.20	65535.00
509.38	65535.00
509.55	65535.00
509.73	65535.00
509.90	65535.00
510.08	65535.00
510.25	65535.00
510.42	65535.00
510.60	65535.00
510.77	65535.00
510.95	65535.00
511.12	65535.00
511.30	65535.00
511.47	65535.00
511.64	65535.00
511.82	65535.00
511.99	65535.00
512.17	65535.00
512.34	65535.00
512.51	65535.00
512.69	65535.00
512.86	65535.00
513.04	65535.00
513.21	65535.00
513.38	65535.00
513.56	65535.00
513.73	65535.00
513.90	65535.00
514.08	65535.00
514.25	65535.00
514.43	65535.00
514.60	65535.00
514.77	65535.00
514.95	65535.00
515.12	65535.00
515.29	65535.00
515.47	65535.00
515.64	65535.00
515.81	65535.00
515.99	65535.00
516.16	65535.00
516.33	65535.00
516.51	65535.00
516.68	65535.00
516.85	65535.00
517.03	65535.00
517.20	65535.00
517.37	65535.00
517.54	65535.00
517.72	65535.00
517.89	65535.00
518.06	65535.00
518.24	65535.00
518.41	65535.00
518.58	65535.00
518.75	65535.00
518.93	65535.00
519.10	65535.00
519.27	65535.00
519.45	65535.00
519.62	65535.00
519.79	65535.00
519.96	65535.00
520.14	65535.00
520.31	65535.00
520.48	65535.00
520.65	65535.00
520.83	65535.00
521.00	65535.00
521.17	65535.00
521.34	65535.00
521.52	65535.00
521.69	65535.00
521.86	65535.00
522.03	65535.00
522.20	65535.00
522.38	65535.00
522.55	65535.00
522.72	65535.00
522.89	65535.00
523.07	65535.00
523.24	65535.00
523.41	65535.00
523.58	65535.00
523.75	65535.00
523.92	65535.00
524.10	65535.00
524.27	65535.00
524.44	65535.00
524.61	65535.00
524.78	65535.00
524.96	65535.00
525.13	65535.00
525.30	65535.00
525.47	65535.00
525.64	65535.00
525.81	65535.00
525.98	65535.00
526.16	65535.00
526.33	65535.00
526.50	65535.00
526.67	65535.00
526.84	65535.00
527.01	65535.00
527.18	65535.00
527.36	65535.00
527.53	65535.00
527.70	65535.00
527.87	65535.00
528.04	65535.00
528.21	65535.00
528.38	65535.00
528.55	65535.00
528.72	65535.00
528.89	65535.00
529.07	65535.00
529.24	65535.00
529.41	65535.00
529.58	65535.00
529.75	65535.00
529.92	65535.00
530.09	65535.00
530.26	65535.00
530.43	65535.00
530.60	65535.00
530.77	65535.00
530.94	65535.00
531.11	65535.00
531.28	65535.00
531.46	65535.00
531.63	65535.00
531.80	65535.00
531.97	65535.00
532.14	65535.00
532.31	65535.00
532.48	65535.00
532.65	65535.00
532.82	65535.00
532.99	65535.00
533.16	65535.00
533.33	65535.00
533.50	65535.00
533.67	65535.00
533.84	65535.00
534.01	65535.00
534.18	65535.00
534.35	65535.00
534.52	65535.00
534.69	65535.00
534.86	65535.00
535.03	65535.00
535.20	65535.00
535.37	65535.00
535.54	65535.00
535.71	65535.00
535.88	65535.00
536.05	65535.00
536.22	65535.00
536.38	65535.00
536.55	65535.00
536.72	65535.00
536.89	65535.00
537.06	65535.00
537.23	65535.00
537.40	65535.00
537.57	65535.00
537.74	65535.00
537.91	65535.00
538.08	65535.00
538.25	65535.00
538.42	65535.00
538.59	65535.00
538.75	65535.00
538.92	65535.00
539.09	65535.00
539.26	65535.00
539.43	65535.00
539.60	65535.00
539.77	65535.00
539.94	65535.00
540.11	65535.00
540.28	65535.00
540.44	65535.00
540.61	65535.00
540.78	65535.00
540.95	65535.00
541.12	65535.00
541.29	65535.00
541.46	65535.00
541.62	65535.00
541.79	65535.00
541.96	65535.00
542.13	65535.00
542.30	65535.00
542.47	65535.00
542.63	65535.00
542.80	65535.00
542.97	65535.00
543.14	65535.00
543.31	65535.00
543.48	65535.00
543.64	65535.00
543.81	65535.00
543.98	65535.00
544.15	65535.00
544.32	65535.00
544.48	65535.00
544.65	65535.00
544.82	65535.00
544.99	65535.00
545.16	65535.00
545.32	65535.00
545.49	65535.00
545.66	65535.00
545.83	65535.00
546.00	65535.00
546.16	65535.00
546.33	65535.00
546.50	65535.00
546.67	65535.00
546.83	65535.00
547.00	65535.00
547.17	65535.00
547.34	65535.00
547.50	65535.00
547.67	65535.00
547.84	65535.00
548.00	65535.00
548.17	65535.00
548.34	65535.00
548.51	65535.00
548.67	65535.00
548.84	65535.00
549.01	65535.00
549.18	65535.00
549.34	65535.00
549.51	65535.00
549.68	65535.00
549.84	65535.00
550.01	65535.00
550.18	65535.00
550.34	65535.00
550.51	65535.00
550.68	65535.00
550.84	65535.00
551.01	65535.00
551.18	65535.00
551.34	65535.00
551.51	65535.00
551.68	65535.00
551.84	65535.00
552.01	65535.00
552.18	65535.00
552.34	65535.00
552.51	65535.00
552.68	65535.00
552.84	65535.00
553.01	65535.00
553.18	65535.00
553.34	65535.00
553.51	65535.00
553.67	65535.00
553.84	65535.00
554.01	65535.00
554.17	65535.00
554.34	65535.00
554.51	65535.00
554.67	65535.00
554.84	65535.00
555.00	65535.00
555.17	65535.00
555.33	65535.00
555.50	65535.00
555.67	65535.00
555.83	65535.00
556.00	65535.00
556.16	65535.00
556.33	65535.00
556.50	65535.00
556.66	65535.00
556.83	65535.00
556.99	65535.00
557.16	65535.00
557.32	65535.00
557.49	65535.00
557.65	65535.00
557.82	65535.00
557.98	65535.00
558.15	65535.00
558.32	65535.00
558.48	65535.00
558.65	65535.00
558.81	65535.00
558.98	65535.00
559.14	65535.00
559.31	65535.00
559.47	65535.00
559.64	65535.00
559.80	65535.00
559.97	65535.00
560.13	65535.00
560.30	65535.00
560.46	65535.00
560.63	65535.00
560.79	65535.00
560.96	65535.00
561.12	65535.00
561.29	65535.00
561.45	65535.00
561.61	65535.00
561.78	65535.00
561.94	65535.00
562.11	65535.00
562.27	65535.00
562.44	65535.00
562.60	65535.00
562.77	65535.00
562.93	65535.00
563.10	65535.00
563.26	65535.00
563.42	65535.00
563.59	65535.00
563.75	65535.00
563.92	65535.00
564.08	65535.00
564.24	65535.00
564.41	65535.00
564.57	65535.00
564.74	65535.00
564.90	65535.00
565.07	65535.00
565.23	65535.00
565.39	65535.00
565.56	65535.00
565.72	65535.00
565.88	65535.00
566.05	65535.00
566.21	65535.00
566.38	65535.00
566.54	65535.00
566.70	65535.00
566.87	65535.00
567.03	65535.00
567.19	65535.00
567.36	65535.00
567.52	65535.00
567.68	65535.00
567.85	65535.00
568.01	65535.00
568.17	65535.00
568.34	65535.00
568.50	65535.00
568.66	65535.00
568.83	65535.00
568.99	65535.00
569.15	65535.00
569.32	65535.00
569.48	65535.00
569.64	65535.00
569.81	65535.00
569.97	65535.00
570.13	65535.00
570.30	65535.00
570.46	65535.00
570.62	65535.00
570.78	65535.00
570.95	65535.00
571.11	65535.00
571.27	65535.00
571.43	65535.00
571.60	65535.00
571.76	65535.00
571.92	65535.00
572.09	65535.00
572.25	65535.00
572.41	65535.00
572.57	65535.00
572.74	65535.00
572.90	65535.00
573.06	65535.00
573.22	65535.00
573.38	65535.00
573.55	65535.00
573.71	65535.00
573.87	65535.00
574.03	65535.00
574.20	65535.00
574.36	65535.00
574.52	65535.00
574.68	65535.00
574.84	65535.00
575.01	65535.00
575.17	65535.00
575.33	65535.00
575.49	65535.00
575.65	65535.00
575.82	65535.00
575.98	65535.00
576.14	65535.00
576.30	65535.00
576.46	65535.00
576.62	65535.00
576.79	65535.00
576.95	65535.00
577.11	65535.00
577.27	65535.00
577.43	65535.00
577.59	65535.00
577.75	65535.00
577.92	65535.00
578.08	65535.00
578.24	65535.00
578.40	65535.00
578.56	65535.00
578.72	65535.00
578.88	65535.00
579.04	65535.00
579.21	65535.00
579.37	65535.00
579.53	65535.00
579.69	65535.00
579.85	65535.00
580.01	65535.00
580.17	65535.00
580.33	65535.00
580.49	65535.00
580.65	65535.00
580.82	65535.00
580.98	65535.00
581.14	65535.00
581.30	65535.00
581.46	65535.00
581.62	65535.00
581.78	65535.00
581.94	65535.00
582.10	65535.00
582.26	65535.00
582.42	65535.00
582.58	65535.00
582.74	65535.00
582.90	65535.00
583.06	65535.00
583.22	65535.00
583.38	65535.00
583.54	65535.00
583.70	65535.00
583.86	65535.00
584.02	65535.00
584.18	65535.00
584.34	65535.00
