SpectraSuite Data File
++++++++++++++++++++++++++++++++++++
Date: Mon Oct 07 14:54:59 GMT-05:00 2013
User: price-jones
Dark Spectrum Present: No
Reference Spectrum Present: No
Number of Sampled Component Spectra: 1
Spectrometers: USB2+H05261
Integration Time (usec): 10000 (USB2+H05261)
Spectra Averaged: 1 (USB2+H05261)
Boxcar Smoothing: 0 (USB2+H05261)
Correct for Electrical Dark: No (USB2+H05261)
Strobe/Lamp Enabled: No (USB2+H05261)
Correct for Detector Non-linearity: No (USB2+H05261)
Correct for Stray Light: No (USB2+H05261)
Number of Pixels in Processed Spectrum: 2048
>>>>>Begin Processed Spectral Data<<<<<
365.73	0.00
365.92	0.00
366.12	0.00
366.32	0.00
366.52	0.00
366.72	0.00
366.91	0.00
367.11	0.00
367.31	0.00
367.51	0.00
367.70	0.00
367.90	0.00
368.10	0.00
368.30	0.00
368.49	0.00
368.69	0.00
368.89	0.00
369.09	0.00
369.28	0.00
369.48	0.00
369.68	0.00
369.87	0.00
370.07	0.00
370.27	0.00
370.47	124.05
370.66	1359.85
370.86	1720.29
371.06	1823.28
371.25	1790.51
371.45	1605.61
371.65	1453.47
371.84	1348.15
372.04	1476.88
372.24	1696.89
372.44	1795.19
372.63	1664.12
372.83	1423.05
373.03	1291.98
373.22	1277.93
373.42	1336.45
373.62	1631.35
373.81	1626.67
374.01	1626.67
374.21	1411.34
374.40	1380.92
374.60	1474.54
374.79	1743.70
374.99	2087.76
375.19	2157.97
375.38	2050.31
375.58	1905.20
375.78	1884.13
375.97	1954.35
376.17	1877.11
376.37	2132.23
376.56	2179.04
376.76	2239.89
376.95	2438.84
377.15	2480.97
377.35	2675.23
377.54	2782.90
377.74	2871.84
377.93	2740.77
378.13	2745.45
378.33	2527.78
378.52	2392.03
378.72	2181.38
378.91	2197.76
379.11	2090.10
379.31	2069.03
379.50	2008.18
379.70	2321.81
379.89	2534.80
380.09	2738.43
380.28	2752.47
380.48	2827.37
380.68	2633.10
380.87	2654.17
381.07	2368.62
381.26	2377.98
381.46	2062.01
381.65	2080.74
381.85	1973.07
382.04	1825.62
382.24	1713.27
382.43	1614.97
382.63	1575.18
382.83	1614.97
383.02	1579.86
383.22	1612.63
383.41	1703.91
383.61	1762.42
383.80	2132.23
384.00	2335.85
384.19	2684.59
384.39	2820.35
384.58	2780.56
384.78	2717.36
384.97	2665.87
385.17	2583.95
385.36	2363.94
385.56	2265.64
385.75	2471.61
385.95	2609.70
386.14	2984.18
386.34	2836.73
386.53	2717.36
386.72	2569.91
386.92	2619.06
387.11	2733.75
387.31	2855.45
387.50	2832.05
387.70	2738.43
387.89	2771.19
388.09	2647.15
388.28	2696.30
388.48	2909.29
388.67	3002.91
388.86	3321.22
389.06	3592.72
389.25	3751.88
389.45	3679.32
389.64	3786.99
389.84	3674.64
390.03	3496.76
390.22	3705.07
390.42	3824.44
390.61	4152.11
390.81	4278.50
391.00	4432.97
391.19	4428.29
391.39	4203.60
391.58	3920.40
391.78	3756.56
391.97	3592.72
392.16	3236.96
392.36	2981.84
392.55	2300.75
392.75	1741.36
392.94	1446.45
393.13	1638.38
393.33	2092.44
393.52	2476.29
393.71	3068.44
393.91	3330.58
394.10	3803.37
394.29	4119.34
394.49	4484.47
394.68	4807.46
394.88	4571.07
395.07	4894.06
395.26	4772.35
395.46	4545.32
395.65	4114.66
395.84	3524.85
396.04	2995.89
396.23	2377.98
396.42	2040.95
396.62	2155.63
396.81	2665.87
397.00	3454.63
397.19	4147.43
397.39	4755.97
397.58	5308.34
397.77	5671.12
397.97	6008.16
398.16	5959.00
398.35	6218.80
398.55	6279.66
398.74	6518.39
398.93	6740.74
399.12	6464.56
399.32	6457.54
399.51	6523.07
399.70	7014.59
399.90	6710.32
400.09	6773.51
400.28	6803.94
400.47	7103.53
400.67	7375.03
400.86	7440.56
401.05	7403.11
401.24	7412.48
401.44	7599.72
401.63	7541.21
401.82	7470.99
402.01	7595.04
402.21	7833.77
402.40	7681.64
402.59	7358.64
402.78	7185.44
402.97	6876.49
403.17	7433.54
403.36	7866.54
403.55	7885.26
403.74	8002.29
403.93	7353.96
404.13	7035.65
404.32	7148.00
404.51	7686.32
404.70	8049.10
404.89	7829.09
405.09	7726.11
405.28	7625.47
405.47	7651.21
405.66	7576.31
405.85	7255.66
406.05	7105.87
406.24	7129.27
406.43	7627.81
406.62	7726.11
406.81	7793.98
407.00	7517.80
407.20	7218.21
407.39	7414.82
407.58	7997.61
407.77	8138.04
407.96	8444.65
408.15	8755.94
408.34	8671.68
408.54	8812.12
408.73	9097.66
408.92	8835.52
409.11	8667.00
409.30	8201.24
409.49	7461.63
409.68	7152.68
409.87	7269.70
410.07	7559.93
410.26	7927.39
410.45	8376.78
410.64	8896.38
410.83	9249.80
411.02	9320.01
411.21	9493.21
411.40	9404.27
411.59	9612.58
411.78	9617.26
411.98	9504.92
412.17	9334.06
412.36	9514.28
412.55	9479.17
412.74	9280.22
412.93	9111.71
413.12	9240.44
413.31	9973.02
413.50	9928.55
413.69	10026.86
413.88	9654.71
414.07	9628.96
414.26	9757.69
414.45	9832.59
414.64	9977.70
414.83	10005.79
415.02	9710.88
415.22	9863.02
415.41	10045.58
415.60	10417.72
415.79	10855.40
415.98	11122.23
416.17	11070.73
416.36	10754.76
416.55	10579.22
416.74	10174.31
416.93	9645.35
417.12	9947.28
417.31	10061.96
417.50	10408.36
417.69	10551.14
417.88	10525.39
418.07	10523.05
418.26	10193.03
418.45	10654.12
418.64	10876.47
418.83	11243.93
419.02	11068.39
419.21	10963.07
419.39	10389.64
419.58	10230.48
419.77	10066.64
419.96	10562.84
420.15	11215.85
420.34	11398.41
420.53	11721.40
420.72	11791.62
420.91	11580.97
421.10	11386.71
421.29	11857.15
421.48	11391.39
421.67	11623.10
421.86	11248.61
422.05	10377.94
422.24	9572.79
422.43	9797.48
422.61	11115.20
422.80	11651.19
422.99	11452.24
423.18	10827.32
423.37	10637.73
423.56	10731.36
423.75	11211.17
423.94	11199.46
424.13	10771.15
424.32	10473.90
424.50	10717.31
424.69	10546.45
424.88	10574.54
425.07	10787.53
425.26	10565.18
425.45	10684.55
425.64	10277.29
425.83	10534.75
426.01	11047.33
426.20	11300.11
426.39	11169.04
426.58	9942.60
426.77	9294.27
426.96	9116.39
427.15	9933.23
427.33	10691.57
427.52	10731.36
427.71	10595.61
427.90	10731.36
428.09	10431.77
428.28	10377.94
428.46	9813.87
428.65	10038.56
428.84	10431.77
429.03	10244.52
429.22	9797.48
429.40	9085.96
429.59	8276.13
429.78	7473.33
429.97	7527.16
430.16	7548.23
430.34	7569.29
430.53	7550.57
430.72	8114.64
430.91	9207.67
431.10	10644.76
431.28	12435.27
431.47	13022.74
431.66	13090.62
431.85	11398.41
432.03	10789.87
432.22	10593.26
432.41	11297.77
432.60	12334.62
432.79	12753.58
432.97	12842.52
433.16	12138.02
433.35	10974.77
433.54	10010.47
433.72	9776.42
433.91	10361.55
434.10	11597.35
434.28	11967.16
434.47	12723.15
434.66	12184.83
434.85	12004.61
435.03	12208.23
435.22	12379.09
435.41	12723.15
435.59	13097.64
435.78	13282.54
435.97	13738.94
436.16	13437.02
436.34	13413.61
436.53	13303.60
436.72	13280.20
436.90	12414.20
437.09	12472.71
437.28	12650.60
437.46	12922.10
437.65	12666.98
437.84	11307.13
438.02	10839.02
438.21	11166.70
438.40	11400.75
438.58	12428.24
438.77	12856.56
438.96	12973.59
439.14	13621.92
439.33	13781.07
439.52	13731.92
439.70	13383.18
439.89	12898.69
440.08	12720.81
440.26	12781.67
440.45	13799.80
440.63	14483.24
440.82	14960.70
441.01	14874.10
441.19	14661.12
441.38	14939.64
441.57	15208.80
441.75	15211.14
441.94	15627.76
442.12	15433.49
442.31	15922.66
442.50	16170.76
442.68	15459.24
442.87	15309.44
443.05	15096.46
443.24	15660.52
443.43	16013.95
443.61	16109.91
443.80	16285.45
443.98	15449.88
444.17	15594.99
444.35	16336.94
444.54	16575.67
444.73	16372.05
444.91	15686.27
445.10	15002.83
445.28	14223.44
445.47	14050.24
445.65	14441.11
445.84	14733.67
446.02	15321.15
446.21	15758.83
446.39	15735.42
446.58	15815.00
446.77	15864.15
446.95	16194.17
447.14	16372.05
447.32	16943.14
447.51	16168.42
447.69	15784.57
447.88	15953.09
448.06	16219.91
448.25	16381.41
448.43	16437.58
448.62	16135.65
448.80	16203.53
448.99	16184.80
449.17	16210.55
449.36	16240.98
449.54	16699.72
449.73	17050.80
449.91	17376.14
450.10	17905.10
450.28	18143.83
450.46	18047.87
450.65	17905.10
450.83	17830.20
451.02	17207.62
451.20	17366.78
451.39	17603.17
451.57	17350.39
451.76	17224.00
451.94	16823.77
452.13	16517.16
452.31	15719.04
452.49	14956.02
452.68	15606.69
452.86	15236.89
453.05	15838.41
453.23	16409.50
453.42	16919.73
453.60	16877.60
453.78	17064.85
453.97	16638.87
454.15	16711.42
454.34	16152.04
454.52	16320.56
454.70	16290.13
454.89	16582.70
455.07	16585.04
455.26	16989.95
455.44	17413.59
455.62	17940.21
455.81	17781.05
455.99	17640.62
456.17	17596.15
456.36	17905.10
456.54	18239.79
456.73	18270.22
456.91	18651.73
457.09	18609.60
457.28	19075.37
457.46	17839.56
457.64	17511.89
457.83	17067.19
458.01	16809.73
458.19	17638.28
458.38	17687.43
458.56	18216.39
458.74	18078.30
458.93	18031.49
459.11	17408.90
459.29	17371.46
459.48	17738.92
459.66	17191.23
459.84	17748.28
460.03	18338.10
460.21	18239.79
460.39	18960.68
460.57	18361.50
460.76	18366.18
460.94	18752.37
461.12	18415.34
461.31	18438.74
461.49	18508.96
461.67	18515.98
461.85	19023.87
462.04	19201.76
462.22	18941.96
462.40	19239.20
462.59	19073.03
462.77	18892.80
462.95	18862.38
463.13	18539.38
463.32	18120.43
463.50	18614.28
463.68	18595.56
463.86	18642.37
464.05	18202.35
464.23	17666.36
464.41	17703.81
464.59	17334.01
464.78	18775.78
464.96	18604.92
465.14	18291.29
465.32	18647.05
465.50	19110.47
465.69	19440.49
465.87	19066.00
466.05	18019.78
466.23	17338.69
466.41	17172.51
466.60	17935.53
466.78	17797.43
466.96	18001.06
467.14	18274.90
467.32	18459.81
467.51	18420.02
467.69	17610.19
467.87	18317.03
468.05	18993.45
468.23	18366.18
468.41	18410.65
468.60	18340.44
468.78	18520.66
468.96	18441.08
469.14	19016.85
469.32	18883.44
469.50	17940.21
469.69	17921.48
469.87	17781.05
470.05	18019.78
470.23	17905.10
470.41	17940.21
470.59	18010.42
470.77	18209.37
470.95	18642.37
471.14	18836.63
471.32	18913.87
471.50	19817.32
471.68	19854.76
471.86	19906.26
472.04	20629.48
472.22	19749.44
472.40	18857.70
472.58	18874.08
472.77	18918.55
472.95	19056.64
473.13	19611.35
473.31	19564.54
473.49	19620.71
473.67	19679.22
473.85	19990.52
474.03	20849.49
474.21	20868.22
474.39	21022.69
474.57	20802.68
474.75	21109.29
474.93	20545.22
475.12	20297.13
475.30	19962.43
475.48	20042.01
475.66	20161.37
475.84	20135.63
476.02	20233.93
476.20	19613.69
476.38	20336.91
476.56	21032.05
476.74	21022.69
476.92	21303.56
477.10	20936.09
477.28	22654.05
477.46	22136.79
477.64	22579.15
477.82	22452.76
478.00	22553.40
478.18	22143.81
478.36	22134.45
478.54	22272.54
478.72	22703.20
478.90	23672.18
479.08	23882.83
479.26	23850.06
479.44	23751.76
479.62	23248.54
479.80	23494.30
479.98	24074.75
480.16	24032.62
480.34	23576.22
480.52	24276.04
480.70	24545.20
480.88	24238.59
481.06	24790.95
481.24	24496.05
481.41	24694.99
481.59	25518.86
481.77	25832.49
481.95	25443.96
482.13	25479.07
482.31	25603.12
482.49	26209.32
482.67	25795.04
482.85	25998.67
483.03	26544.02
483.21	26829.56
483.39	26267.83
483.57	25247.36
483.74	25289.49
483.92	25907.39
484.10	26026.76
484.28	26508.91
484.46	26700.83
484.64	26675.09
484.82	26305.28
485.00	26134.42
485.18	25914.41
485.35	24456.26
485.53	21956.57
485.71	20507.77
485.89	20678.63
486.07	21764.64
486.25	24121.56
486.43	25025.01
486.61	25195.87
486.78	25635.89
486.96	26293.58
487.14	27197.02
487.32	27248.52
487.50	28203.46
487.68	28460.91
487.85	29142.01
488.03	29422.87
488.21	28793.27
488.39	28056.00
488.57	27791.52
488.75	27566.83
488.92	29223.93
489.10	30515.90
489.28	31000.40
489.46	31819.58
489.64	31716.60
489.81	31740.00
489.99	31999.80
490.17	31910.86
490.35	32065.34
490.53	31480.21
490.70	30476.12
490.88	30785.07
491.06	32177.68
491.24	32013.85
491.41	30054.82
491.59	29172.44
491.77	28561.56
491.95	30321.64
492.13	31686.17
492.30	32320.46
492.48	33783.29
492.66	34139.05
492.84	33001.55
493.01	33170.07
493.19	32566.21
493.37	32811.97
493.54	32678.56
493.72	34099.26
493.90	34387.15
494.08	34181.18
494.25	35669.76
494.43	35786.79
494.61	35175.91
494.79	35665.08
494.96	35686.15
495.14	34066.50
495.32	34209.27
495.49	33963.51
495.67	34726.53
495.85	36367.24
496.02	36947.70
496.20	36528.74
496.38	35988.08
496.55	36032.55
496.73	36517.04
496.91	36282.98
497.09	37418.14
497.26	37645.18
497.44	36177.66
497.62	35660.40
497.79	35667.42
497.97	34213.95
498.14	34424.60
498.32	36524.06
498.50	36879.82
498.67	36098.08
498.85	37202.82
499.03	37521.13
499.20	38059.45
499.38	37811.35
499.56	37113.87
499.73	36282.98
499.91	35154.85
500.08	34953.56
500.26	34249.06
500.44	34555.67
500.61	35821.90
500.79	35419.33
500.97	34859.94
501.14	34749.93
501.32	34476.09
501.49	35037.82
501.67	35770.41
501.84	35639.34
502.02	36453.84
502.20	36788.54
502.37	37270.69
502.55	36961.74
502.72	37923.70
502.90	37963.49
503.07	37055.36
503.25	36589.59
503.43	35278.89
503.60	34925.47
503.78	34646.95
503.95	35688.49
504.13	37401.76
504.30	38422.23
504.48	37193.45
504.65	37151.32
504.83	37116.22
505.01	37673.26
505.18	37818.38
505.36	38359.04
505.53	39161.84
505.71	39601.86
505.88	40783.83
506.06	39604.20
506.23	39145.46
506.41	38242.01
506.58	39297.59
506.76	37949.45
506.93	37883.91
507.11	37591.34
507.28	37684.97
507.46	37593.68
507.63	37064.72
507.81	36182.34
507.98	37156.00
508.16	38017.32
508.33	39285.89
508.50	39571.44
508.68	39363.13
508.85	40648.08
509.03	40177.64
509.20	39182.91
509.38	37507.08
509.55	37919.02
509.73	38405.85
509.90	38478.41
510.08	38347.34
510.25	38504.15
510.42	37338.57
510.60	38637.56
510.77	39779.74
510.95	40701.92
511.12	40189.34
511.30	41364.29
511.47	40332.11
511.64	39711.87
511.82	39302.28
511.99	38068.81
512.17	38073.49
512.34	38080.52
512.51	38143.71
512.69	37408.78
512.86	37687.31
513.04	39112.69
513.21	39187.59
513.38	37652.20
513.56	36128.51
513.73	35927.22
513.90	37111.53
514.08	36538.10
514.25	37418.14
514.43	37890.93
514.60	37820.72
514.77	37497.72
514.95	39522.29
515.12	38426.92
515.29	38099.24
515.47	38850.55
515.64	39529.31
515.81	39014.39
515.99	37387.72
516.16	35033.14
516.33	32542.81
516.51	32030.23
516.68	30625.91
516.85	30373.13
517.03	31543.40
517.20	34972.28
517.37	38181.16
517.54	37535.17
517.72	36175.32
517.89	33539.88
518.06	32519.40
518.24	33413.49
518.41	34714.83
518.58	37170.05
518.75	37656.88
518.93	37099.83
519.10	37275.37
519.27	37038.98
519.45	38099.24
519.62	38721.82
519.79	38539.26
519.96	38653.95
520.14	37968.17
520.31	37015.57
520.48	37282.39
520.65	37783.27
520.83	39709.53
521.00	39363.13
521.17	38719.48
521.34	39154.82
521.52	39173.55
521.69	38848.21
521.86	39456.75
522.03	39122.05
522.20	37322.18
522.38	37071.75
522.55	37354.95
522.72	37504.74
522.89	37261.33
523.07	37551.56
523.24	37895.61
523.41	39674.42
523.58	39229.72
523.75	39716.55
523.92	40835.33
524.10	40161.25
524.27	40002.10
524.44	39880.39
524.61	39136.10
524.78	39115.03
524.96	38525.22
525.13	38602.46
525.30	39218.02
525.47	39966.99
525.64	40353.18
525.81	37790.29
525.98	36299.37
526.16	35552.74
526.33	33785.63
526.50	33015.60
526.67	32725.37
526.84	34405.88
527.01	35864.03
527.18	36971.10
527.36	38841.19
527.53	38412.87
527.70	38536.92
527.87	37748.16
528.04	38457.34
528.21	38726.50
528.38	40093.38
528.55	41113.85
528.72	41174.70
528.89	41769.20
529.07	40882.14
529.24	39096.31
529.41	38766.29
529.58	38691.40
529.75	38876.30
529.92	40044.23
530.09	40554.46
530.26	41097.47
530.43	41205.13
530.60	40481.91
530.77	40346.15
530.94	40404.67
531.11	39573.78
531.28	38976.94
531.46	39253.12
531.63	38717.14
531.80	38696.08
531.97	37593.68
532.14	36353.20
532.31	35395.92
532.48	36493.63
532.65	35899.14
532.82	36547.47
532.99	39002.69
533.16	39115.03
533.33	39000.35
533.50	37216.86
533.67	37869.87
533.84	38342.66
534.01	38323.93
534.18	38366.06
534.35	39035.45
534.52	37888.59
534.69	39543.35
534.86	39749.32
535.03	38731.18
535.20	39510.58
535.37	41045.97
535.54	40612.98
535.71	40219.77
535.88	38817.78
536.05	38218.61
536.22	38452.66
536.38	38293.50
536.55	36055.95
536.72	36023.19
536.89	36631.72
537.06	37219.20
537.23	39564.42
537.40	39412.28
537.57	39100.99
537.74	39152.48
537.91	39634.63
538.08	38401.17
538.25	38122.65
538.42	38880.98
538.59	38682.03
538.75	37333.89
538.92	37191.11
539.09	37682.62
539.26	37289.42
539.43	37305.80
539.60	36849.39
539.77	38394.15
539.94	37125.58
540.11	35615.93
540.28	35306.98
540.44	35505.93
540.61	36442.14
540.78	37684.97
540.95	38534.58
541.12	37708.37
541.29	37556.24
541.46	38068.81
541.62	38096.90
541.79	38670.33
541.96	38024.34
542.13	36924.29
542.30	36343.84
542.47	36858.76
542.63	36460.87
542.80	36655.13
542.97	37624.11
543.14	36568.53
543.31	37415.80
543.48	37944.76
543.64	38363.72
543.81	38822.47
543.98	38951.20
544.15	37111.53
544.32	36704.28
544.48	37659.22
544.65	37729.44
544.82	38380.10
544.99	36774.50
545.16	36802.58
545.32	36638.75
545.49	38614.16
545.66	37392.40
545.83	36697.26
546.00	36528.74
546.16	36765.14
546.33	37263.67
546.50	36613.00
546.67	38345.00
546.83	37099.83
547.00	36837.69
547.17	36465.55
547.34	35583.16
547.50	36334.48
547.67	37158.34
547.84	36545.12
548.00	37490.70
548.17	37048.34
548.34	37177.07
548.51	36844.71
548.67	37811.35
548.84	37687.31
549.01	38658.63
549.18	37680.28
549.34	37118.56
549.51	37109.19
549.68	37469.64
549.84	37764.54
550.01	36479.59
550.18	36435.12
550.34	36224.47
550.51	36446.82
550.68	36788.54
550.84	36528.74
551.01	36549.81
551.18	36608.32
551.34	37338.57
551.51	36395.33
551.68	36975.78
551.84	38082.86
552.01	37542.19
552.18	36774.50
552.34	36624.70
552.51	36236.17
552.68	36500.65
552.84	37074.09
553.01	36161.28
553.18	36392.99
553.34	36397.67
553.51	37249.63
553.67	37036.64
553.84	36301.71
554.01	36510.02
554.17	36404.69
554.34	37141.96
554.51	35901.48
554.67	36350.86
554.84	36662.15
555.00	37048.34
555.17	36350.86
555.33	35552.74
555.50	36402.35
555.67	35758.70
555.83	34682.06
556.00	34188.21
556.16	34689.08
556.33	33773.93
556.50	35204.00
556.66	35601.89
556.83	36205.75
556.99	35299.96
557.16	34796.74
557.32	35517.63
557.49	36020.84
557.65	35861.69
557.82	36285.33
557.98	35873.39
558.15	35248.47
558.32	34810.79
558.48	33308.16
558.65	32931.34
558.81	32189.39
558.98	32966.45
559.14	34487.79
559.31	34710.14
559.47	33537.54
559.64	32746.44
559.80	31798.52
559.97	33556.26
560.13	34366.09
560.30	34897.39
560.46	35732.96
560.63	36500.65
560.79	37123.24
560.96	34885.68
561.12	33291.78
561.29	33163.05
561.45	32734.73
561.61	33268.37
561.78	33312.84
561.94	34405.88
562.11	33872.23
562.27	34754.61
562.44	34972.28
562.60	35096.33
562.77	35164.21
562.93	34656.31
563.10	33233.27
563.26	33130.28
563.42	33851.17
563.59	33090.49
563.75	33137.30
563.92	33127.94
564.08	33872.23
564.24	33291.78
564.41	33287.10
564.57	34515.88
564.74	33652.22
564.90	33118.58
565.07	33022.62
565.23	31971.72
565.39	31653.40
565.56	31910.86
565.72	31519.99
565.88	31487.23
566.05	32531.11
566.21	33282.42
566.38	31889.80
566.54	32533.45
566.70	33542.22
566.87	34527.58
567.03	32774.52
567.19	32587.28
567.36	33156.03
567.52	32893.89
567.68	32858.78
567.85	31754.05
568.01	30714.85
568.17	31761.07
568.34	32168.32
568.50	32329.82
568.66	33233.27
568.83	33039.00
568.99	32315.78
569.15	32512.38
569.32	32926.66
569.48	31761.07
569.64	31484.89
569.81	32088.74
569.97	31700.22
570.13	32226.84
570.30	31697.88
570.46	31185.30
570.62	30455.05
570.78	30637.61
570.95	31175.94
571.11	31234.45
571.27	31821.92
571.43	31908.52
571.60	31695.53
571.76	32128.53
571.92	31850.01
572.09	31997.46
572.25	32503.02
572.41	33235.61
572.57	33776.27
572.74	33422.85
572.90	32512.38
573.06	32231.52
573.22	31236.79
573.38	30822.51
573.55	31295.30
573.71	30789.75
573.87	30953.58
574.03	31381.90
574.20	31395.95
574.36	31758.73
574.52	32381.31
574.68	30756.98
574.84	29776.30
575.01	30038.44
575.17	30375.47
575.33	30546.33
575.49	30185.89
575.65	30663.36
575.82	30911.46
575.98	30195.25
576.14	30426.96
576.30	30017.37
576.46	30279.51
576.62	30792.09
576.79	30768.68
576.95	30436.33
577.11	29432.24
577.27	30445.69
577.43	30534.63
577.59	30197.59
577.75	30541.65
577.92	28978.17
578.08	29039.03
578.24	29364.36
578.40	28741.78
578.56	29521.18
578.72	29996.31
578.88	29989.28
579.04	30480.80
579.21	29659.27
579.37	30249.08
579.53	30597.82
579.69	31522.34
579.85	30323.98
580.01	29940.13
580.17	29546.92
580.33	29881.62
580.49	30047.80
580.65	29441.60
580.82	28999.24
580.98	29558.63
581.14	30789.75
581.30	29546.92
581.46	29575.01
581.62	29963.54
581.78	30110.99
581.94	30232.70
582.10	30974.65
582.26	30394.20
582.42	30522.93
582.58	29951.84
582.74	29689.70
582.90	30050.14
583.06	30728.89
583.22	30101.63
583.38	30808.47
583.54	29898.00
583.70	30153.12
583.86	30038.44
584.02	30244.40
584.18	30092.27
584.34	29844.17
584.50	30012.69
584.66	29514.16
584.82	28978.17
584.98	29914.39
585.14	28683.27
585.30	28760.50
585.46	28503.04
585.62	27861.74
585.78	28797.95
585.94	28769.86
586.10	27276.60
586.26	28371.97
586.42	28926.68
