SpectraSuite Data File
++++++++++++++++++++++++++++++++++++
Date: Mon Oct 07 14:53:55 GMT-05:00 2013
User: price-jones
Dark Spectrum Present: No
Reference Spectrum Present: No
Number of Sampled Component Spectra: 1
Spectrometers: USB2+H05261
Integration Time (usec): 100000 (USB2+H05261)
Spectra Averaged: 1 (USB2+H05261)
Boxcar Smoothing: 0 (USB2+H05261)
Correct for Electrical Dark: No (USB2+H05261)
Strobe/Lamp Enabled: No (USB2+H05261)
Correct for Detector Non-linearity: No (USB2+H05261)
Correct for Stray Light: No (USB2+H05261)
Number of Pixels in Processed Spectrum: 2048
>>>>>Begin Processed Spectral Data<<<<<
365.73	0.00
365.92	0.00
366.12	0.00
366.32	0.00
366.52	0.00
366.72	0.00
366.91	0.00
367.11	0.00
367.31	0.00
367.51	0.00
367.70	0.00
367.90	0.00
368.10	0.00
368.30	0.00
368.49	0.00
368.69	0.00
368.89	0.00
369.09	0.00
369.28	0.00
369.48	0.00
369.68	0.00
369.87	0.00
370.07	0.00
370.27	0.00
370.47	561.73
370.66	2862.48
370.86	3445.27
371.06	3712.09
371.25	3749.54
371.45	3316.54
371.65	3138.66
371.84	2810.98
372.04	2951.42
372.24	3576.34
372.44	3508.46
372.63	3482.72
372.83	3213.56
373.03	2935.03
373.22	2691.62
373.42	2693.96
373.62	3274.41
373.81	3513.14
374.01	3543.57
374.21	3187.81
374.40	2963.12
374.60	3145.68
374.79	3410.16
374.99	3960.19
375.19	4374.46
375.38	4266.80
375.58	4102.96
375.78	3932.10
375.97	4107.64
376.17	4287.86
376.37	4231.69
376.56	4255.09
376.76	4463.40
376.95	4760.65
377.15	5203.01
377.35	5207.69
377.54	5598.56
377.74	5668.78
377.93	5722.61
378.13	5612.60
378.33	5233.44
378.52	4875.34
378.72	4690.43
378.91	4601.49
379.11	4486.81
379.31	4386.16
379.50	4367.44
379.70	4732.56
379.89	5121.09
380.09	5252.16
380.28	5589.20
380.48	5633.67
380.68	5490.90
380.87	5350.46
381.07	4837.89
381.26	4716.18
381.46	4273.82
381.65	4229.35
381.85	4105.30
382.04	4119.34
382.24	3712.09
382.43	3431.23
382.63	3368.03
382.83	3386.76
383.02	3538.89
383.22	3321.22
383.41	3412.50
383.61	3721.45
383.80	4147.43
384.00	4851.93
384.19	5245.14
384.39	5614.95
384.58	5575.16
384.78	5423.02
384.97	5401.96
385.17	4992.36
385.36	4865.97
385.56	4517.23
385.75	4814.48
385.95	5156.20
386.14	5916.87
386.34	5776.44
386.53	5507.28
386.72	5046.20
386.92	5160.88
387.11	5334.08
387.31	5645.37
387.50	5703.89
387.70	5322.38
387.89	5420.68
388.09	5425.36
388.28	5507.28
388.48	5542.39
388.67	5858.36
388.86	6569.88
389.06	6834.36
389.25	7424.18
389.45	7482.69
389.64	7365.67
389.84	7501.42
390.03	7332.90
390.22	7346.94
390.42	7199.49
390.61	7847.82
390.81	8517.21
391.00	8575.72
391.19	8507.85
391.39	8315.92
391.58	7934.42
391.78	7276.73
391.97	6995.86
392.16	6698.61
392.36	6090.07
392.55	4882.36
392.75	3880.61
392.94	3152.70
393.13	3138.66
393.33	3613.79
393.52	4891.72
393.71	5860.70
393.91	6600.31
394.10	6885.86
394.29	7761.22
394.49	8266.77
394.68	8915.10
394.88	9088.30
395.07	9439.38
395.26	9231.07
395.46	8952.55
395.65	8493.80
395.84	7548.23
396.04	6298.38
396.23	5074.28
396.42	4461.06
396.62	4203.60
396.81	4739.58
397.00	5977.73
397.19	7520.14
397.39	9006.38
397.58	10188.35
397.77	10986.47
397.97	11229.89
398.16	11435.86
398.35	11719.06
398.55	12004.61
398.74	12351.01
398.93	12964.23
399.12	12582.72
399.32	12147.38
399.51	12407.18
399.70	13298.92
399.90	13160.83
400.09	13064.87
400.28	12936.14
400.47	13174.88
400.67	14134.50
400.86	14237.48
401.05	14108.75
401.24	14157.90
401.44	14270.25
401.63	14377.91
401.82	14728.99
402.01	14466.85
402.21	14843.68
402.40	14820.27
402.59	14258.54
402.78	13657.03
402.97	13076.57
403.17	13671.07
403.36	14642.39
403.55	15098.80
403.74	15449.88
403.93	14815.59
404.13	13858.31
404.32	13104.66
404.51	13598.51
404.70	15187.74
404.89	15087.09
405.09	14810.91
405.28	14026.83
405.47	14188.33
405.66	14303.01
405.85	14083.00
406.05	13771.71
406.24	13682.77
406.43	14424.72
406.62	14899.85
406.81	14993.47
407.00	14389.61
407.20	14097.05
407.39	14083.00
407.58	14841.34
407.77	15370.30
407.96	15955.43
408.15	16093.52
408.34	15854.79
408.54	16889.31
408.73	16915.05
408.92	16556.95
409.11	16381.41
409.30	15403.07
409.49	14487.92
409.68	13352.76
409.87	13177.22
410.07	13715.54
410.26	15300.08
410.45	15939.05
410.64	16493.76
410.83	16669.30
411.02	17486.14
411.21	18113.41
411.40	17633.60
411.59	18078.30
411.78	17439.33
411.98	17612.53
412.17	17994.04
412.36	17472.10
412.55	17649.98
412.74	17350.39
412.93	16847.18
413.12	16830.79
413.31	18207.03
413.50	18633.00
413.69	19208.78
413.88	18141.49
414.07	17720.20
414.26	18118.09
414.45	18558.11
414.64	18668.11
414.83	18700.88
415.02	18211.71
415.22	18321.71
415.41	18845.99
415.60	19527.09
415.79	20109.88
415.98	20877.58
416.17	20460.96
416.36	20173.08
416.55	19583.26
416.74	19084.73
416.93	18497.25
417.12	18689.18
417.31	18719.60
417.50	19150.26
417.69	19878.17
417.88	19508.37
418.07	19515.39
418.26	18965.36
418.45	19295.38
418.64	19829.02
418.83	20748.85
419.02	20285.42
419.21	20283.08
419.39	19290.70
419.58	18382.57
419.77	18471.51
419.96	19309.42
420.15	20547.56
420.34	20971.20
420.53	21380.79
420.72	21825.50
420.91	21806.77
421.10	21429.94
421.29	21514.20
421.48	20739.49
421.67	21598.46
421.86	21238.02
422.05	19810.29
422.24	17598.49
422.43	17387.84
422.61	19274.31
422.80	20975.88
422.99	20683.31
423.18	20149.67
423.37	20116.90
423.56	19782.21
423.75	20210.53
423.94	20723.10
424.13	19396.02
424.32	19676.88
424.50	19967.11
424.69	19590.28
424.88	19679.22
425.07	19358.57
425.26	19644.12
425.45	19119.84
425.64	18672.79
425.83	18862.38
426.01	19929.66
426.20	20507.77
426.39	20395.43
426.58	19089.41
426.77	17411.25
426.96	16987.61
427.15	17462.74
427.33	18820.25
427.52	19496.66
427.71	19686.25
427.90	19300.06
428.09	19281.33
428.28	19117.50
428.46	18405.97
428.65	17893.40
428.84	18340.44
429.03	19042.60
429.22	17628.92
429.40	16893.99
429.59	15037.94
429.78	13432.33
429.97	13605.53
430.16	13383.18
430.34	13944.91
430.53	13809.16
430.72	13837.25
430.91	15599.67
431.10	18298.31
431.28	21743.58
431.47	23145.56
431.66	23611.32
431.85	21422.92
432.03	19922.64
432.22	18553.43
432.41	19683.91
432.60	21738.90
432.79	22576.81
432.97	23119.81
433.16	22654.05
433.35	20973.54
433.54	18953.66
433.72	17624.23
433.91	18029.15
434.10	19864.13
434.28	21348.03
434.47	22684.47
434.66	22384.88
434.85	21851.24
435.03	21542.29
435.22	22368.50
435.41	23487.28
435.59	23417.06
435.78	23784.52
435.97	24556.90
436.16	24709.04
436.34	24084.11
436.53	23955.38
436.72	24126.24
436.90	22471.48
437.09	22544.04
437.28	21900.39
437.46	22932.57
437.65	22815.54
437.84	21113.97
438.02	19580.92
438.21	19293.04
438.40	20622.46
438.58	22237.43
438.77	22738.30
438.96	23084.70
439.14	23700.26
439.33	24510.09
439.52	24905.64
439.70	24341.57
439.89	23655.79
440.08	22820.22
440.26	23000.44
440.45	23630.05
440.63	25418.22
440.82	27152.55
441.01	26639.98
441.19	25879.30
441.38	26462.10
441.57	27372.57
441.75	27857.06
441.94	27967.06
442.12	27786.84
442.31	28243.24
442.50	28273.67
442.68	28027.92
442.87	27531.72
443.05	27021.48
443.24	27765.78
443.43	27840.67
443.61	28407.08
443.80	29156.05
443.98	27473.21
444.17	27618.32
444.35	29179.46
444.54	29575.01
444.73	29193.50
444.91	27690.88
445.10	26611.89
445.28	25647.59
445.47	25158.42
445.65	25329.28
445.84	25909.73
446.02	26932.54
446.21	27445.12
446.39	27608.96
446.58	27946.00
446.77	28369.63
446.95	28147.28
447.14	29614.80
447.32	29986.94
447.51	29289.46
447.69	27985.79
447.88	27449.80
448.06	27840.67
448.25	28704.33
448.43	29071.79
448.62	28423.47
448.80	27981.10
448.99	28395.38
449.17	28587.30
449.36	28388.36
449.54	29963.54
449.73	30197.59
449.91	30298.23
450.10	31276.58
450.28	31826.60
450.46	31335.09
450.65	31742.35
450.83	31026.14
451.02	30508.88
451.20	30190.57
451.39	30529.95
451.57	30263.13
451.76	30071.20
451.94	30092.27
452.13	29448.62
452.31	28364.95
452.49	26876.37
452.68	26967.65
452.86	27318.73
453.05	27674.49
453.23	28577.94
453.42	29123.29
453.60	29750.55
453.78	30359.09
453.97	29696.72
454.15	29806.72
454.34	29160.73
454.52	29319.89
454.70	28914.98
454.89	29322.23
455.07	29074.13
455.26	29570.33
455.44	30581.44
455.62	31379.56
455.81	31728.30
455.99	31335.09
456.17	30618.89
456.36	31002.74
456.54	31854.69
456.73	31674.47
456.91	32371.95
457.09	32641.11
457.28	33102.20
457.46	31725.96
457.64	31819.58
457.83	30588.46
458.01	29549.26
458.19	30368.45
458.38	30672.72
458.56	31814.90
458.74	31611.28
458.93	31007.42
459.11	31318.71
459.29	30665.70
459.48	30724.21
459.66	30960.61
459.84	31339.77
460.03	31428.71
460.21	31454.46
460.39	32053.64
460.57	32224.50
460.76	32758.14
460.94	32493.66
461.12	32320.46
461.31	32367.27
461.49	32151.94
461.67	32381.31
461.85	33298.80
462.04	33078.79
462.22	33369.02
462.40	33170.07
462.59	33071.77
462.77	33170.07
462.95	33050.70
463.13	32804.95
463.32	32163.64
463.50	32079.38
463.68	32175.34
463.86	32079.38
464.05	32121.51
464.23	31321.05
464.41	30974.65
464.59	30588.46
464.78	31917.89
464.96	32070.02
465.14	31391.26
465.32	32606.00
465.50	33039.00
465.69	33186.46
465.87	32769.84
466.05	32086.40
466.23	30506.54
466.41	29886.30
466.60	30515.90
466.78	30738.26
466.96	31374.88
467.14	31775.11
467.32	32194.07
467.51	32116.83
467.69	30588.46
467.87	31098.70
468.05	31749.37
468.23	32133.21
468.41	31971.72
468.60	31770.43
468.78	32402.38
468.96	31866.39
469.14	32720.69
469.32	32477.27
469.50	30909.11
469.69	30953.58
469.87	31002.74
470.05	31044.87
470.23	30962.95
470.41	31473.18
470.59	31627.66
470.77	31700.22
470.95	32119.17
471.14	32643.45
471.32	32704.31
471.50	34300.55
471.68	34403.53
471.86	34642.27
472.04	35019.10
472.22	34979.31
472.40	33472.00
472.58	33003.89
472.77	32591.96
472.95	33418.17
473.13	34146.08
473.31	33406.47
473.49	33572.64
473.67	33656.90
473.85	34330.98
474.03	34986.33
474.21	35398.26
474.39	35744.66
474.57	35983.40
474.75	35707.21
474.93	35449.75
475.12	34632.91
475.30	34712.49
475.48	34703.12
475.66	35639.34
475.84	35416.99
476.02	34983.99
476.20	34272.46
476.38	35431.03
476.56	35683.81
476.74	36797.90
476.92	36591.94
477.10	37495.38
477.28	37937.74
477.46	38522.88
477.64	38932.47
477.82	38895.02
478.00	38759.27
478.18	38033.71
478.36	38361.38
478.54	37858.17
478.72	38438.62
478.90	39035.45
479.08	40502.97
479.26	40657.45
479.44	40765.11
479.62	40617.66
479.80	40280.62
479.98	40261.90
480.16	40404.67
480.34	40690.21
480.52	41172.36
480.70	41085.76
480.88	41120.87
481.06	42099.22
481.24	42466.68
481.41	42838.83
481.59	43388.85
481.77	43208.63
481.95	42766.27
482.13	42026.66
482.31	42726.48
482.49	43452.05
482.67	42951.17
482.85	43360.76
483.03	44161.23
483.21	44418.69
483.39	44516.99
483.57	43208.63
483.74	43129.05
483.92	43365.45
484.10	43679.08
484.28	44301.66
484.46	45071.70
484.64	45776.20
484.82	44388.26
485.00	44355.49
485.18	43470.77
485.35	42136.66
485.53	39257.81
485.71	35285.92
485.89	35110.38
486.07	37053.02
486.25	39849.96
486.43	42553.28
486.61	43306.93
486.78	42766.27
486.96	43257.78
487.14	44800.19
487.32	45553.85
487.50	46480.70
487.68	47702.46
487.85	48355.47
488.03	48238.44
488.21	47828.85
488.39	47110.30
488.57	46286.43
488.75	45624.06
488.92	47416.91
489.10	49474.24
489.28	51154.75
489.46	52013.73
489.64	51562.00
489.81	51723.50
489.99	51423.91
490.17	51395.82
490.35	51798.40
490.53	51227.31
490.70	50696.00
490.88	50768.56
491.06	51920.10
491.24	51877.97
491.41	50717.07
491.59	49017.84
491.77	48236.10
491.95	49088.06
492.13	50546.21
492.30	51779.67
492.48	52905.47
492.66	52989.73
492.84	53298.68
493.01	52959.30
493.19	52266.50
493.37	51980.96
493.54	51669.67
493.72	52376.51
493.90	53542.10
494.08	54270.00
494.25	54567.25
494.43	54759.17
494.61	55070.46
494.79	55224.94
494.96	54915.99
495.14	54482.99
495.32	53221.44
495.49	52889.09
495.67	53986.80
495.85	55192.17
496.02	55688.37
496.20	55337.29
496.38	54749.81
496.55	54763.85
496.73	55271.75
496.91	55543.25
497.09	56126.05
497.26	55985.61
497.44	55695.39
497.62	54988.55
497.79	54490.01
497.97	53183.99
498.14	52755.68
498.32	54202.13
498.50	55091.53
498.67	55796.03
498.85	55648.58
499.03	55973.91
499.20	56130.73
499.38	56147.11
499.56	55955.19
499.73	55458.99
499.91	55145.36
500.08	54511.08
500.26	53858.07
500.44	54443.20
500.61	54962.80
500.79	54717.04
500.97	54342.56
501.14	54267.66
501.32	54185.74
501.49	54136.59
501.67	54307.45
501.84	55203.88
502.02	55107.91
502.20	55529.21
502.37	55489.42
502.55	55646.24
502.72	56154.13
502.90	56624.58
503.07	56261.80
503.25	56327.33
503.43	55260.05
503.60	54457.24
503.78	53719.98
503.95	54295.75
504.13	55793.69
504.30	56533.30
504.48	56217.33
504.65	55716.45
504.83	55840.50
505.01	56563.73
505.18	56968.64
505.36	57546.75
505.53	57600.58
505.71	57687.18
505.88	57834.64
506.06	57219.08
506.23	56992.04
506.41	56498.19
506.58	56673.73
506.76	56811.82
506.93	56509.89
507.11	56435.00
507.28	56615.22
507.46	56278.18
507.63	55496.44
507.81	55128.98
507.98	55648.58
508.16	56423.29
508.33	56715.86
508.50	57066.94
508.68	57532.71
508.85	58061.67
509.03	57733.99
509.20	57769.10
509.38	56973.32
509.55	56341.38
509.73	56547.34
509.90	56954.60
510.08	57073.96
510.25	57226.10
510.42	56956.94
510.60	56823.53
510.77	56945.23
510.95	57762.08
511.12	57815.91
511.30	58206.78
511.47	58274.66
511.64	58141.25
511.82	58024.22
511.99	57048.22
512.17	56889.06
512.34	56392.87
512.51	56542.66
512.69	56596.49
512.86	57041.20
513.04	57247.16
513.21	57073.96
513.38	56912.47
513.56	56406.91
513.73	55622.83
513.90	56072.21
514.08	56023.06
514.25	56184.56
514.43	56458.40
514.60	56629.26
514.77	56711.18
514.95	56947.57
515.12	56514.58
515.29	57160.56
515.47	57298.65
515.64	57738.68
515.81	57132.48
515.99	56413.93
516.16	55271.75
516.33	52818.87
516.51	51164.11
516.68	50337.90
516.85	49897.88
517.03	49979.80
517.20	53085.69
517.37	55709.43
517.54	56769.69
517.72	56327.33
517.89	54094.46
518.06	51231.99
518.24	51480.08
518.41	54057.01
518.58	55512.83
518.75	55552.62
518.93	55732.84
519.10	55688.37
519.27	56317.97
519.45	56493.51
519.62	57043.54
519.79	57340.78
519.96	57198.01
520.14	56743.95
520.31	55702.41
520.48	55812.41
520.65	56240.73
520.83	57050.56
521.00	57572.50
521.17	57198.01
521.34	56725.22
521.52	57216.74
521.69	57616.97
521.86	58220.83
522.03	57600.58
522.20	56577.77
522.38	55475.38
522.55	55526.87
522.72	56231.37
522.89	56217.33
523.07	56449.04
523.24	56605.86
523.41	57502.28
523.58	57755.06
523.75	58305.09
523.92	57979.75
524.10	58099.12
524.27	58012.52
524.44	57911.88
524.61	57689.52
524.78	57612.29
524.96	57380.57
525.13	57689.52
525.30	57722.29
525.47	58227.85
525.64	58143.59
525.81	57518.67
525.98	55990.30
526.16	54473.63
526.33	53862.75
526.50	53406.34
526.67	52985.05
526.84	53752.74
527.01	54777.90
527.18	55697.73
527.36	56636.28
527.53	57418.02
527.70	57736.34
527.87	57017.79
528.04	56727.56
528.21	57207.37
528.38	57743.36
528.55	58307.43
528.72	58658.51
528.89	58763.83
529.07	58387.00
529.24	57865.06
529.41	57338.44
529.58	56446.70
529.75	56825.87
529.92	57179.29
530.09	57495.26
530.26	57932.94
530.43	58258.27
530.60	58195.08
530.77	58274.66
530.94	58702.98
531.11	58183.38
531.28	57602.92
531.46	57628.67
531.63	57649.74
531.80	57560.79
531.97	56942.89
532.14	56624.58
532.31	55547.93
532.48	54824.71
532.65	54866.84
532.82	55655.60
532.99	56851.61
533.16	57315.04
533.33	57902.51
533.50	57532.71
533.67	56928.85
533.84	56360.10
534.01	56736.93
534.18	57144.18
534.35	57183.97
534.52	56940.55
534.69	57104.39
534.86	57443.77
535.03	57712.93
535.20	58085.07
535.37	58639.78
535.54	58721.70
535.71	58314.45
535.88	57851.02
536.05	57045.88
536.22	56921.83
536.38	56587.13
536.55	55957.53
536.72	55606.45
536.89	55505.80
537.06	56252.44
537.23	57183.97
537.40	57401.64
537.57	57270.57
537.74	57022.47
537.91	57113.75
538.08	56919.49
538.25	57172.27
538.42	57209.71
538.59	57106.73
538.75	56444.36
538.92	56238.39
539.09	56020.72
539.26	55744.54
539.43	55744.54
539.60	55693.05
539.77	55913.06
539.94	56018.38
540.11	54969.82
540.28	54518.10
540.44	54513.42
540.61	54838.75
540.78	54803.64
540.95	55751.56
541.12	55781.99
541.29	56395.21
541.46	56526.28
541.62	56687.78
541.79	56559.05
541.96	55770.28
542.13	55714.11
542.30	56067.53
542.47	56371.80
542.63	55997.32
542.80	55791.35
542.97	55910.72
543.14	55634.53
543.31	55749.22
543.48	56463.08
543.64	56935.87
543.81	57535.05
543.98	57169.93
544.15	56385.85
544.32	55875.61
544.48	55971.57
544.65	56790.76
544.82	56896.08
544.99	56427.98
545.16	56203.28
545.32	55959.87
545.49	56868.00
545.66	57111.41
545.83	56570.75
546.00	56409.25
546.16	56023.06
546.33	56076.90
546.50	56025.40
546.67	56364.78
546.83	56128.39
547.00	55959.87
547.17	55463.67
547.34	54663.21
547.50	54693.64
547.67	55180.47
547.84	55260.05
548.00	55765.60
548.17	55957.53
548.34	56161.15
548.51	55789.01
548.67	55992.64
548.84	55934.12
549.01	56002.00
549.18	55922.42
549.34	55931.78
549.51	55891.99
549.68	55674.32
549.84	55325.58
550.01	55243.66
550.18	55400.48
550.34	55444.95
550.51	55571.34
550.68	55845.18
550.84	54897.27
551.01	55018.97
551.18	55140.68
551.34	55210.90
551.51	55880.29
551.68	55810.07
551.84	56107.32
552.01	55632.19
552.18	55531.55
552.34	54873.86
552.51	54466.61
552.68	54319.15
552.84	54784.92
553.01	54967.48
553.18	55154.72
553.34	55098.55
553.51	55348.99
553.67	55468.36
553.84	55688.37
554.01	55550.27
554.17	55339.63
554.34	55304.52
554.51	55725.81
554.67	55835.82
554.84	55613.47
555.00	55400.48
555.17	55114.94
555.33	54962.80
555.50	55021.31
555.67	55152.38
555.83	54901.95
556.00	54344.90
556.16	54370.64
556.33	54061.69
556.50	53741.04
556.66	54026.59
556.83	53722.32
556.99	53694.23
557.16	53834.66
557.32	54361.28
557.49	54543.84
557.65	54450.22
557.82	54473.63
557.98	54167.02
558.15	53787.85
558.32	52868.02
558.48	51957.55
558.65	52362.46
558.81	52725.25
558.98	52891.43
559.14	52942.92
559.31	53317.40
559.47	53380.60
559.64	52781.42
559.80	52573.11
559.97	52266.50
560.13	52971.00
560.30	54096.80
560.46	54609.38
560.63	54637.47
560.79	54906.63
560.96	54508.74
561.12	53158.25
561.29	52067.56
561.45	52030.11
561.61	52732.27
561.78	53083.35
561.94	53312.72
562.11	53146.54
562.27	52772.06
562.44	53186.33
562.60	53783.17
562.77	53958.71
562.93	53759.76
563.10	53757.42
563.26	52891.43
563.42	53071.65
563.59	52772.06
563.75	52549.71
563.92	52727.59
564.08	52566.09
564.24	53336.13
564.41	53441.45
564.57	53064.63
564.74	52975.69
564.90	52617.58
565.07	52622.26
565.23	52184.58
565.39	51529.23
565.56	51070.49
565.72	51079.85
565.88	51466.04
566.05	51459.02
566.21	51676.69
566.38	51889.68
566.54	52055.85
566.70	52273.52
566.87	52500.56
567.03	52624.60
567.19	52996.75
567.36	52615.24
567.52	52325.02
567.68	52315.65
567.85	51166.45
568.01	50920.70
568.17	50412.80
568.34	50464.29
568.50	50639.83
568.66	50681.96
568.83	51166.45
568.99	51086.87
569.15	51632.22
569.32	51508.17
569.48	51028.36
569.64	50843.46
569.81	50490.04
569.97	50590.68
570.13	50770.90
570.30	49858.09
570.46	49247.21
570.62	48439.73
570.78	48699.53
570.95	48697.19
571.11	49792.56
571.27	50054.70
571.43	50071.08
571.60	50506.42
571.76	50473.65
571.92	51063.47
572.09	51164.11
572.25	51285.82
572.41	51157.09
572.57	51075.17
572.74	50829.41
572.90	50527.48
573.06	50078.10
573.22	50541.53
573.38	50391.73
573.55	50361.31
573.71	50822.39
573.87	50197.47
574.03	50501.74
574.20	50373.01
574.36	50319.18
574.52	49766.81
574.68	49684.89
574.84	49305.73
575.01	48685.48
575.17	48795.49
575.33	48769.74
575.49	49198.06
575.65	49092.74
575.82	49059.97
575.98	48783.79
576.14	49158.27
576.30	49368.92
576.46	49359.56
576.62	49694.25
576.79	49691.91
576.95	48966.35
577.11	48982.73
577.27	49331.47
577.43	49198.06
577.59	48746.34
577.75	48516.96
577.92	47136.05
578.08	47117.32
578.24	47217.97
578.40	47559.69
578.56	48364.83
578.72	47920.13
578.88	48563.78
579.04	48266.53
579.21	48385.89
579.37	48582.50
579.53	48547.39
579.69	48598.88
579.85	48921.88
580.01	48683.14
580.17	47732.89
580.33	47997.37
580.49	47887.36
580.65	48444.41
580.82	48348.45
580.98	48491.22
581.14	48493.56
581.30	48430.36
581.46	48362.49
581.62	48624.63
581.78	48718.25
581.94	49031.88
582.10	48561.44
582.26	48727.61
582.42	48889.11
582.58	48484.20
582.74	48533.35
582.90	48329.72
583.06	48172.91
583.22	48619.95
583.38	48203.33
583.54	48144.82
583.70	48266.53
583.86	48034.81
584.02	48030.13
584.18	48189.29
584.34	47739.91
584.50	47753.95
584.66	47709.48
584.82	47288.18
584.98	47213.29
585.14	46742.84
585.30	46164.73
