SpectraSuite Data File
++++++++++++++++++++++++++++++++++++
Date: Mon Oct 07 14:53:19 GMT-05:00 2013
User: price-jones
Dark Spectrum Present: No
Reference Spectrum Present: No
Number of Sampled Component Spectra: 1
Spectrometers: USB2+H05261
Integration Time (usec): 100000 (USB2+H05261)
Spectra Averaged: 1 (USB2+H05261)
Boxcar Smoothing: 0 (USB2+H05261)
Correct for Electrical Dark: No (USB2+H05261)
Strobe/Lamp Enabled: No (USB2+H05261)
Correct for Detector Non-linearity: No (USB2+H05261)
Correct for Stray Light: No (USB2+H05261)
Number of Pixels in Processed Spectrum: 2048
>>>>>Begin Processed Spectral Data<<<<<
365.73	0.00
365.92	0.00
366.12	0.00
366.32	0.00
366.52	0.00
366.72	0.00
366.91	0.00
367.11	0.00
367.31	0.00
367.51	0.00
367.70	0.00
367.90	0.00
368.10	0.00
368.30	0.00
368.49	0.00
368.69	0.00
368.89	0.00
369.09	0.00
369.28	0.00
369.48	0.00
369.68	0.00
369.87	0.00
370.07	0.00
370.27	0.00
370.47	2054.99
370.66	8585.08
370.86	9834.93
371.06	10604.97
371.25	10249.21
371.45	9481.51
371.65	8472.74
371.84	8210.60
372.04	8760.63
372.24	9528.32
372.44	9509.60
372.63	9418.32
372.83	8643.60
373.03	7627.81
373.22	7396.09
373.42	7852.50
373.62	9015.74
373.81	9408.95
374.01	9020.42
374.21	8351.03
374.40	7969.52
374.60	8524.23
374.79	9245.12
374.99	10890.51
375.19	11651.19
375.38	11122.23
375.58	10855.40
375.78	10588.58
375.97	10588.58
376.17	10890.51
376.37	11180.74
376.56	11613.74
376.76	12306.54
376.95	13247.43
377.15	13804.48
377.35	14595.58
377.54	14892.83
377.74	15094.11
377.93	15185.40
378.13	14499.62
378.33	13813.84
378.52	12926.78
378.72	12510.16
378.91	11969.50
379.11	11494.37
379.31	11351.60
379.50	11463.94
379.70	12418.88
379.89	13675.75
380.09	14796.87
380.28	14714.95
380.48	14736.01
380.68	14361.53
380.87	14068.96
381.07	12903.37
381.26	11859.49
381.46	11150.31
381.65	10682.20
381.85	10600.29
382.04	9987.07
382.24	9345.76
382.43	9109.36
382.63	8769.99
382.83	8695.09
383.02	8774.67
383.22	8854.25
383.41	9013.40
383.61	9612.58
383.80	11265.00
384.00	12592.08
384.19	13455.74
384.39	14382.59
384.58	14665.80
384.78	14010.45
384.97	13743.63
385.17	12755.92
385.36	12437.61
385.56	11960.14
385.75	12629.53
385.95	13586.81
386.14	14572.18
386.34	14305.35
386.53	13881.72
386.72	13202.96
386.92	13233.39
387.11	13912.14
387.31	14567.49
387.50	14111.09
387.70	13790.44
387.89	13977.68
388.09	13855.97
388.28	13879.38
388.48	14490.26
388.67	15363.28
388.86	16666.95
389.06	17970.63
389.25	18700.88
389.45	18747.69
389.64	18515.98
389.84	18281.92
390.03	17907.44
390.22	18228.09
390.42	18785.14
390.61	20203.50
390.81	21483.78
391.00	21521.23
391.19	21392.50
391.39	20552.24
391.58	19264.95
391.78	18328.74
391.97	17614.87
392.16	15988.20
392.36	14607.28
392.55	11480.33
392.75	9179.58
392.94	8028.04
393.13	8035.06
393.33	9736.63
393.52	12182.49
393.71	14600.26
393.91	16145.02
394.10	18026.81
394.29	19573.90
394.49	20910.35
394.68	22412.97
394.88	22590.85
395.07	23150.24
395.26	22658.73
395.46	21994.01
395.65	20695.02
395.84	17818.50
396.04	14897.51
396.23	12016.31
396.42	10303.04
396.62	10328.78
396.81	12346.33
397.00	15686.27
397.19	19697.95
397.39	23129.17
397.58	25535.24
397.77	26675.09
397.97	27494.27
398.16	28011.53
398.35	29191.16
398.55	30057.16
398.74	31044.87
398.93	31101.04
399.12	30930.18
399.32	29448.62
399.51	30684.42
399.70	32765.16
399.90	31903.84
400.09	32163.64
400.28	31505.95
400.47	32002.14
400.67	33713.08
400.86	34352.04
401.05	34213.95
401.24	34448.00
401.44	34946.54
401.63	35077.61
401.82	35292.94
402.01	35388.90
402.21	35321.02
402.40	35957.65
402.59	34436.30
402.78	33160.71
402.97	32301.73
403.17	33968.19
403.36	35601.89
403.55	36306.39
403.74	36811.95
403.93	34920.79
404.13	32601.32
404.32	32636.43
404.51	33811.38
404.70	36346.18
404.89	35880.41
405.09	35150.17
405.28	34609.50
405.47	34485.45
405.66	34015.01
405.85	32856.44
406.05	32517.06
406.24	33507.11
406.43	34087.56
406.62	35770.41
406.81	36098.08
407.00	34766.32
407.20	33799.68
407.39	34466.73
407.58	36044.25
407.77	37170.05
407.96	37914.34
408.15	38298.19
408.34	38595.43
408.54	40100.40
408.73	39810.17
408.92	39311.64
409.11	38478.41
409.30	36364.90
409.49	34256.08
409.68	32744.09
409.87	31587.87
410.07	33572.64
410.26	36343.84
410.45	38361.38
410.64	39405.26
410.83	40154.23
411.02	41165.34
411.21	41897.93
411.40	41481.31
411.59	41579.62
411.78	41661.54
411.98	41425.14
412.17	42478.38
412.36	40748.73
412.55	41296.41
412.74	40678.51
412.93	39959.97
413.12	40261.90
413.31	43952.92
413.50	43672.06
413.69	44130.80
413.88	42492.43
414.07	41865.16
414.26	42595.41
414.45	43880.36
414.64	43988.03
414.83	43880.36
415.02	42394.12
415.22	42651.58
415.41	43819.51
415.60	45743.43
415.79	46134.30
415.98	47868.64
416.17	47365.42
416.36	46340.27
416.55	45993.87
416.74	44446.77
416.93	43629.93
417.12	43627.59
417.31	44112.08
417.50	44416.35
417.69	45481.29
417.88	45502.35
418.07	44921.90
418.26	44484.22
418.45	44985.10
418.64	46405.80
418.83	47615.86
419.02	46693.69
419.21	45998.55
419.39	45078.72
419.58	43463.75
419.77	43447.36
419.96	45193.40
420.15	47086.90
420.34	47995.03
420.53	48919.54
420.72	49563.18
420.91	49050.61
421.10	48961.67
421.29	48727.61
421.48	47648.63
421.67	49003.80
421.86	47728.20
422.05	44797.85
422.24	41163.00
422.43	41074.06
422.61	44938.29
422.80	47210.95
422.99	47728.20
423.18	46469.00
423.37	45525.76
423.56	46370.69
423.75	46391.76
423.94	47178.18
424.13	45001.48
424.32	45675.55
424.50	45394.69
424.69	45233.19
424.88	45535.12
425.07	45621.72
425.26	45404.05
425.45	44299.32
425.64	44105.06
425.83	44201.02
426.01	46363.67
426.20	47019.02
426.39	46698.37
426.58	43178.20
426.77	40474.88
426.96	39550.37
427.15	40648.08
427.33	44013.77
427.52	45214.47
427.71	45001.48
427.90	44554.44
428.09	44802.53
428.28	43693.12
428.46	42408.17
428.65	42050.06
428.84	42852.87
429.03	42623.50
429.22	41041.29
429.40	38862.26
429.59	35381.88
429.78	31728.30
429.97	31625.32
430.16	32266.63
430.34	32095.77
430.53	32243.22
430.72	33647.54
430.91	37455.59
431.10	43587.80
431.28	49279.98
431.47	51716.48
431.66	51199.22
431.85	48020.77
432.03	44823.60
432.22	43803.13
432.41	45507.04
432.60	48655.06
432.79	50042.99
432.97	51278.80
433.16	49804.26
433.35	46284.09
433.54	42637.54
433.72	41006.19
433.91	42396.46
434.10	46555.60
434.28	48697.19
434.47	50450.25
434.66	49539.78
434.85	48996.77
435.03	49003.80
435.22	49329.13
435.41	51646.26
435.59	51477.74
435.78	51810.10
435.97	52444.38
436.16	52210.33
436.34	52062.88
436.53	51849.89
436.72	51920.10
436.90	50614.08
437.09	49986.82
437.28	49434.45
437.46	50981.55
437.65	50033.63
437.84	47377.12
438.02	44362.51
438.21	44978.07
438.40	46820.08
438.58	49785.54
438.77	50410.46
438.96	50897.29
439.14	52273.52
439.33	52851.64
439.52	53223.78
439.70	52027.77
439.89	51576.04
440.08	50862.18
440.26	51409.87
440.45	52397.57
440.63	54033.61
440.82	55194.51
441.01	54850.45
441.19	54927.69
441.38	55374.73
441.57	56104.98
441.75	56275.84
441.94	56313.29
442.12	56310.95
442.31	57104.39
442.50	57059.92
442.68	56577.77
442.87	56172.86
443.05	55725.81
443.24	56584.79
443.43	56970.98
443.61	57017.79
443.80	57382.91
443.98	55945.83
444.17	55845.18
444.35	57570.16
444.54	57748.04
444.73	57469.51
444.91	56184.56
445.10	55231.96
445.28	54398.73
445.47	53476.56
445.65	54368.30
445.84	54972.16
446.02	56044.13
446.21	56004.34
446.39	56097.96
446.58	56650.33
446.77	57008.43
446.95	57020.13
447.14	57832.30
447.32	58192.74
447.51	57382.91
447.69	56420.95
447.88	56193.92
448.06	56830.55
448.25	57244.82
448.43	57343.12
448.62	56481.81
448.80	57165.24
448.99	57116.09
449.17	57235.46
449.36	57109.07
449.54	58085.07
449.73	58590.63
449.91	59182.79
450.10	59578.34
450.28	59657.91
450.46	59786.64
450.65	59838.14
450.83	59353.65
451.02	58801.28
451.20	58714.68
451.39	58763.83
451.57	58726.38
451.76	58623.40
451.94	58333.17
452.13	57797.19
452.31	56619.90
452.49	55356.01
452.68	55887.31
452.86	55709.43
453.05	56432.66
453.23	57188.65
453.42	57930.60
453.60	58195.08
453.78	58405.73
453.97	58192.74
454.15	58183.38
454.34	57811.23
454.52	58035.92
454.70	57396.96
454.89	57539.73
455.07	57521.01
455.26	58059.33
455.44	59248.32
455.62	59166.40
455.81	59412.16
455.99	59178.10
456.17	58585.95
456.36	59152.36
456.54	59788.98
456.73	59800.69
456.91	59978.57
457.09	60177.51
457.28	60636.26
457.46	59554.93
457.64	59468.33
457.83	58852.77
458.01	58333.17
458.19	58908.94
458.38	59063.42
458.56	59742.17
458.74	59346.62
458.93	58934.69
459.11	59215.55
459.29	59091.51
459.48	59297.47
459.66	59068.10
459.84	59428.54
460.03	59660.26
460.21	59704.73
460.39	59985.59
460.57	60023.04
460.76	60463.06
460.94	60584.77
461.12	59934.10
461.31	60467.74
461.49	60334.33
461.67	60133.04
461.85	60697.11
462.04	60701.79
462.22	60755.63
462.40	60687.75
462.59	60633.92
462.77	60823.50
462.95	60865.63
463.13	60329.65
463.32	60023.04
463.50	59952.82
463.68	59985.59
463.86	60006.65
464.05	59683.66
464.23	59082.14
464.41	58976.82
464.59	58857.45
464.78	60163.47
464.96	60144.75
465.14	59632.17
465.32	60460.72
465.50	60732.22
465.69	61010.74
465.87	60313.26
466.05	59739.83
466.23	58431.47
466.41	58068.69
466.60	58794.26
466.78	58775.53
466.96	59309.18
467.14	59714.09
467.32	60055.81
467.51	59821.75
467.69	58817.66
467.87	59433.22
468.05	59849.84
468.23	59739.83
468.41	59641.53
468.60	59615.79
468.78	59980.91
468.96	59592.38
469.14	60130.70
469.32	59955.16
469.50	59306.83
469.69	59405.14
469.87	59028.31
470.05	58653.82
470.23	58829.37
470.41	58745.11
470.59	59243.64
470.77	59753.88
470.95	59999.63
471.14	60317.95
471.32	60191.56
471.50	61591.20
471.68	61752.69
471.86	61537.36
472.04	61689.50
472.22	61668.44
472.40	60470.08
472.58	60645.62
472.77	60315.61
472.95	60624.56
473.13	61434.38
473.31	60757.97
473.49	61041.17
473.67	61312.67
473.85	61497.58
474.03	61984.41
474.21	61968.02
474.39	62087.39
474.57	62157.61
474.75	62272.29
474.93	61874.40
475.12	61626.31
475.30	61759.72
475.48	61939.94
475.66	62253.57
475.84	62000.79
476.02	61726.95
476.20	61373.53
476.38	61996.11
476.56	62405.70
476.74	62911.26
476.92	63210.85
477.10	63444.90
477.28	64032.38
477.46	63950.46
477.64	64261.75
477.82	64214.94
478.00	64395.16
478.18	63751.51
478.36	63840.45
478.54	63641.51
478.72	64287.49
478.90	64886.67
479.08	65244.77
479.26	65347.76
479.44	65263.50
479.62	65193.28
479.80	65181.58
479.98	65188.60
480.16	65183.92
480.34	65052.85
480.52	65535.00
480.70	65535.00
480.88	65490.53
481.06	65535.00
481.24	65535.00
481.41	65535.00
481.59	65535.00
481.77	65535.00
481.95	65535.00
482.13	65535.00
482.31	65535.00
482.49	65535.00
482.67	65535.00
482.85	65535.00
483.03	65535.00
483.21	65535.00
483.39	65535.00
483.57	65535.00
483.74	65535.00
483.92	65535.00
484.10	65535.00
484.28	65535.00
484.46	65535.00
484.64	65535.00
484.82	65535.00
485.00	65535.00
485.18	65535.00
485.35	65535.00
485.53	65153.49
485.71	62145.90
485.89	61984.41
486.07	63641.51
486.25	65080.94
486.43	65535.00
486.61	65535.00
486.78	65535.00
486.96	65535.00
487.14	65535.00
487.32	65535.00
487.50	65535.00
487.68	65535.00
487.85	65535.00
488.03	65535.00
488.21	65535.00
488.39	65535.00
488.57	65535.00
488.75	65535.00
488.92	65535.00
489.10	65535.00
489.28	65535.00
489.46	65535.00
489.64	65535.00
489.81	65535.00
489.99	65535.00
490.17	65535.00
490.35	65535.00
490.53	65535.00
490.70	65535.00
490.88	65535.00
491.06	65535.00
491.24	65535.00
491.41	65535.00
491.59	65535.00
491.77	65535.00
491.95	65535.00
492.13	65535.00
492.30	65535.00
492.48	65535.00
492.66	65535.00
492.84	65535.00
493.01	65535.00
493.19	65535.00
493.37	65535.00
493.54	65535.00
493.72	65535.00
493.90	65535.00
494.08	65535.00
494.25	65535.00
494.43	65535.00
494.61	65535.00
494.79	65535.00
494.96	65535.00
495.14	65535.00
495.32	65535.00
495.49	65535.00
495.67	65535.00
495.85	65535.00
496.02	65535.00
496.20	65535.00
496.38	65535.00
496.55	65535.00
496.73	65535.00
496.91	65535.00
497.09	65535.00
497.26	65535.00
497.44	65535.00
497.62	65535.00
497.79	65535.00
497.97	65535.00
498.14	65535.00
498.32	65535.00
498.50	65535.00
498.67	65535.00
498.85	65535.00
499.03	65535.00
499.20	65535.00
499.38	65535.00
499.56	65535.00
499.73	65535.00
499.91	65535.00
500.08	65535.00
500.26	65535.00
500.44	65535.00
500.61	65535.00
500.79	65535.00
500.97	65535.00
501.14	65535.00
501.32	65535.00
501.49	65535.00
501.67	65535.00
501.84	65535.00
502.02	65535.00
502.20	65535.00
502.37	65535.00
502.55	65535.00
502.72	65535.00
502.90	65535.00
503.07	65535.00
503.25	65535.00
503.43	65535.00
503.60	65535.00
503.78	65535.00
503.95	65535.00
504.13	65535.00
504.30	65535.00
504.48	65535.00
504.65	65535.00
504.83	65535.00
505.01	65535.00
505.18	65535.00
505.36	65535.00
505.53	65535.00
505.71	65535.00
505.88	65535.00
506.06	65535.00
506.23	65535.00
506.41	65535.00
506.58	65535.00
506.76	65535.00
506.93	65535.00
507.11	65535.00
507.28	65535.00
507.46	65535.00
507.63	65535.00
507.81	65535.00
507.98	65535.00
508.16	65535.00
508.33	65535.00
508.50	65535.00
508.68	65535.00
508.85	65535.00
509.03	65535.00
509.20	65535.00
509.38	65535.00
509.55	65535.00
509.73	65535.00
509.90	65535.00
510.08	65535.00
510.25	65535.00
510.42	65535.00
510.60	65535.00
510.77	65535.00
510.95	65535.00
511.12	65535.00
511.30	65535.00
511.47	65535.00
511.64	65535.00
511.82	65535.00
511.99	65535.00
512.17	65535.00
512.34	65535.00
512.51	65535.00
512.69	65535.00
512.86	65535.00
513.04	65535.00
513.21	65535.00
513.38	65535.00
513.56	65535.00
513.73	65535.00
513.90	65535.00
514.08	65535.00
514.25	65535.00
514.43	65535.00
514.60	65535.00
514.77	65535.00
514.95	65535.00
515.12	65535.00
515.29	65535.00
515.47	65535.00
515.64	65535.00
515.81	65535.00
515.99	65535.00
516.16	65535.00
516.33	65535.00
516.51	65535.00
516.68	65535.00
516.85	65535.00
517.03	65535.00
517.20	65535.00
517.37	65535.00
517.54	65535.00
517.72	65535.00
517.89	65535.00
518.06	65535.00
518.24	65535.00
518.41	65535.00
518.58	65535.00
518.75	65535.00
518.93	65535.00
519.10	65535.00
519.27	65535.00
519.45	65535.00
519.62	65535.00
519.79	65535.00
519.96	65535.00
520.14	65535.00
520.31	65535.00
520.48	65535.00
520.65	65535.00
520.83	65535.00
521.00	65535.00
521.17	65535.00
521.34	65535.00
521.52	65535.00
521.69	65535.00
521.86	65535.00
522.03	65535.00
522.20	65535.00
522.38	65535.00
522.55	65535.00
522.72	65535.00
522.89	65535.00
523.07	65535.00
523.24	65535.00
523.41	65535.00
523.58	65535.00
523.75	65535.00
523.92	65535.00
524.10	65535.00
524.27	65535.00
524.44	65535.00
524.61	65535.00
524.78	65535.00
524.96	65535.00
525.13	65535.00
525.30	65535.00
525.47	65535.00
525.64	65535.00
525.81	65535.00
525.98	65535.00
526.16	65535.00
526.33	65535.00
526.50	65535.00
526.67	65535.00
526.84	65535.00
527.01	65535.00
527.18	65535.00
527.36	65535.00
527.53	65535.00
527.70	65535.00
527.87	65535.00
528.04	65535.00
528.21	65535.00
528.38	65535.00
528.55	65535.00
528.72	65535.00
528.89	65535.00
529.07	65535.00
529.24	65535.00
529.41	65535.00
529.58	65535.00
529.75	65535.00
529.92	65535.00
530.09	65535.00
530.26	65535.00
530.43	65535.00
530.60	65535.00
530.77	65535.00
530.94	65535.00
531.11	65535.00
531.28	65535.00
531.46	65535.00
531.63	65535.00
531.80	65535.00
531.97	65535.00
532.14	65535.00
532.31	65535.00
532.48	65535.00
532.65	65535.00
532.82	65535.00
532.99	65535.00
533.16	65535.00
533.33	65535.00
533.50	65535.00
533.67	65535.00
533.84	65535.00
534.01	65535.00
534.18	65535.00
534.35	65535.00
534.52	65535.00
534.69	65535.00
534.86	65535.00
535.03	65535.00
535.20	65535.00
535.37	65535.00
535.54	65535.00
535.71	65535.00
535.88	65535.00
536.05	65535.00
536.22	65535.00
536.38	65535.00
536.55	65535.00
536.72	65535.00
536.89	65535.00
537.06	65535.00
537.23	65535.00
537.40	65535.00
537.57	65535.00
537.74	65535.00
537.91	65535.00
538.08	65535.00
538.25	65535.00
538.42	65535.00
538.59	65535.00
538.75	65535.00
538.92	65535.00
539.09	65535.00
539.26	65535.00
539.43	65535.00
539.60	65535.00
539.77	65535.00
539.94	65535.00
540.11	65535.00
540.28	65535.00
540.44	65535.00
540.61	65535.00
540.78	65535.00
540.95	65535.00
541.12	65535.00
541.29	65535.00
541.46	65535.00
541.62	65535.00
541.79	65535.00
541.96	65535.00
542.13	65535.00
542.30	65535.00
542.47	65535.00
542.63	65535.00
542.80	65535.00
542.97	65535.00
543.14	65535.00
543.31	65535.00
543.48	65535.00
543.64	65535.00
543.81	65535.00
543.98	65535.00
544.15	65535.00
544.32	65535.00
544.48	65535.00
544.65	65535.00
544.82	65535.00
544.99	65535.00
545.16	65535.00
545.32	65535.00
545.49	65535.00
545.66	65535.00
545.83	65535.00
546.00	65535.00
546.16	65535.00
546.33	65535.00
546.50	65535.00
546.67	65535.00
546.83	65535.00
547.00	65535.00
547.17	65535.00
547.34	65535.00
547.50	65535.00
547.67	65535.00
547.84	65535.00
548.00	65535.00
548.17	65535.00
548.34	65535.00
548.51	65535.00
548.67	65535.00
548.84	65535.00
549.01	65535.00
549.18	65535.00
549.34	65535.00
549.51	65535.00
549.68	65535.00
549.84	65535.00
550.01	65535.00
550.18	65535.00
550.34	65535.00
550.51	65535.00
550.68	65535.00
550.84	65535.00
551.01	65535.00
551.18	65535.00
551.34	65535.00
551.51	65535.00
551.68	65535.00
551.84	65535.00
552.01	65535.00
552.18	65535.00
552.34	65535.00
552.51	65535.00
552.68	65535.00
552.84	65535.00
553.01	65535.00
553.18	65535.00
553.34	65535.00
553.51	65535.00
553.67	65535.00
553.84	65535.00
554.01	65535.00
554.17	65535.00
554.34	65535.00
554.51	65535.00
554.67	65535.00
554.84	65535.00
555.00	65535.00
555.17	65535.00
555.33	65535.00
555.50	65535.00
555.67	65535.00
555.83	65535.00
556.00	65535.00
556.16	65535.00
556.33	65535.00
556.50	65535.00
556.66	65535.00
556.83	65535.00
556.99	65535.00
557.16	65535.00
557.32	65535.00
557.49	65535.00
557.65	65535.00
557.82	65535.00
557.98	65535.00
558.15	65535.00
558.32	65535.00
558.48	65535.00
558.65	65535.00
558.81	65535.00
558.98	65535.00
559.14	65535.00
559.31	65535.00
559.47	65535.00
559.64	65535.00
559.80	65535.00
559.97	65535.00
560.13	65535.00
560.30	65535.00
560.46	65535.00
560.63	65535.00
560.79	65535.00
560.96	65535.00
561.12	65535.00
561.29	65535.00
561.45	65535.00
561.61	65535.00
561.78	65535.00
561.94	65535.00
562.11	65535.00
562.27	65535.00
562.44	65535.00
562.60	65535.00
562.77	65535.00
562.93	65535.00
563.10	65535.00
563.26	65535.00
563.42	65535.00
563.59	65535.00
563.75	65535.00
563.92	65535.00
564.08	65535.00
564.24	65535.00
564.41	65535.00
564.57	65535.00
564.74	65535.00
564.90	65535.00
565.07	65535.00
565.23	65535.00
565.39	65535.00
565.56	65535.00
565.72	65535.00
565.88	65535.00
566.05	65535.00
566.21	65535.00
566.38	65535.00
566.54	65535.00
566.70	65535.00
566.87	65535.00
567.03	65535.00
567.19	65535.00
567.36	65535.00
567.52	65535.00
567.68	65535.00
567.85	65535.00
568.01	65535.00
568.17	65535.00
568.34	65535.00
568.50	65535.00
568.66	65535.00
568.83	65535.00
568.99	65535.00
569.15	65535.00
569.32	65535.00
569.48	65535.00
569.64	65535.00
569.81	65535.00
569.97	65535.00
570.13	65535.00
570.30	65535.00
570.46	65535.00
570.62	65535.00
570.78	65535.00
570.95	65535.00
571.11	65535.00
571.27	65535.00
571.43	65535.00
571.60	65535.00
571.76	65535.00
571.92	65535.00
572.09	65535.00
572.25	65535.00
572.41	65535.00
572.57	65535.00
572.74	65535.00
572.90	65535.00
573.06	65535.00
573.22	65535.00
573.38	65535.00
573.55	65535.00
573.71	65535.00
573.87	65535.00
574.03	65535.00
574.20	65535.00
574.36	65535.00
574.52	65535.00
574.68	65535.00
574.84	65535.00
575.01	65535.00
575.17	65535.00
575.33	65535.00
575.49	65535.00
575.65	65535.00
575.82	65535.00
575.98	65535.00
576.14	65535.00
576.30	65535.00
576.46	65535.00
576.62	65535.00
576.79	65535.00
576.95	65535.00
577.11	65535.00
577.27	65535.00
577.43	65535.00
577.59	65535.00
577.75	65535.00
577.92	65535.00
578.08	65535.00
578.24	65535.00
578.40	65535.00
578.56	65535.00
578.72	65535.00
578.88	65535.00
579.04	65535.00
579.21	65535.00
579.37	65535.00
579.53	65535.00
579.69	65535.00
579.85	65535.00
580.01	65535.00
580.17	65535.00
580.33	65535.00
580.49	65535.00
580.65	65535.00
580.82	65535.00
580.98	65535.00
581.14	65535.00
581.30	65535.00
581.46	65535.00
581.62	65535.00
581.78	65535.00
581.94	65535.00
582.10	65535.00
582.26	65535.00
582.42	65535.00
582.58	65535.00
582.74	65535.00
582.90	65535.00
583.06	65535.00
583.22	65535.00
583.38	65535.00
583.54	65535.00
583.70	65535.00
583.86	65535.00
584.02	65535.00
584.18	65535.00
