SpectraSuite Data File
++++++++++++++++++++++++++++++++++++
Date: Mon Oct 07 14:54:57 GMT-05:00 2013
User: price-jones
Dark Spectrum Present: No
Reference Spectrum Present: No
Number of Sampled Component Spectra: 1
Spectrometers: USB2+H05261
Integration Time (usec): 10000 (USB2+H05261)
Spectra Averaged: 1 (USB2+H05261)
Boxcar Smoothing: 0 (USB2+H05261)
Correct for Electrical Dark: No (USB2+H05261)
Strobe/Lamp Enabled: No (USB2+H05261)
Correct for Detector Non-linearity: No (USB2+H05261)
Correct for Stray Light: No (USB2+H05261)
Number of Pixels in Processed Spectrum: 2048
>>>>>Begin Processed Spectral Data<<<<<
365.73	0.00
365.92	0.00
366.12	0.00
366.32	0.00
366.52	0.00
366.72	0.00
366.91	0.00
367.11	0.00
367.31	0.00
367.51	0.00
367.70	0.00
367.90	0.00
368.10	0.00
368.30	0.00
368.49	0.00
368.69	0.00
368.89	0.00
369.09	0.00
369.28	0.00
369.48	0.00
369.68	0.00
369.87	0.00
370.07	0.00
370.27	0.00
370.47	112.35
370.66	1455.81
370.86	1689.87
371.06	1638.38
371.25	1671.14
371.45	1493.26
371.65	1399.64
371.84	1294.32
372.04	1446.45
372.24	1596.25
372.44	1739.02
372.63	1701.57
372.83	1406.66
373.03	1231.12
373.22	1179.63
373.42	1291.98
373.62	1458.15
373.81	1673.48
374.01	1497.94
374.21	1467.52
374.40	1320.06
374.60	1458.15
374.79	1673.48
374.99	1870.09
375.19	2024.56
375.38	1947.33
375.58	1909.88
375.78	1827.96
375.97	1846.68
376.17	2026.90
376.37	1991.80
376.56	2005.84
376.76	2230.53
376.95	2260.96
377.15	2438.84
377.35	2450.54
377.54	2633.10
377.74	2672.89
377.93	2740.77
378.13	2532.46
378.33	2375.64
378.52	2235.21
378.72	2190.74
378.91	2148.61
379.11	2054.99
379.31	2125.21
379.50	2008.18
379.70	2282.02
379.89	2504.37
380.09	2675.23
380.28	2722.04
380.48	2698.64
380.68	2466.92
380.87	2495.01
381.07	2314.79
381.26	2078.40
381.46	2019.88
381.65	1919.24
381.85	1785.83
382.04	1760.08
382.24	1614.97
382.43	1598.59
382.63	1570.50
382.83	1526.03
383.02	1437.09
383.22	1509.65
383.41	1570.50
383.61	1846.68
383.80	1900.52
384.00	2422.45
384.19	2424.80
384.39	2597.99
384.58	2562.89
384.78	2572.25
384.97	2413.09
385.17	2307.77
385.36	2167.34
385.56	2270.32
385.75	2345.22
385.95	2455.22
386.14	2600.34
386.34	2612.04
386.53	2590.97
386.72	2382.67
386.92	2473.95
387.11	2637.78
387.31	2724.38
387.50	2595.65
387.70	2633.10
387.89	2478.63
388.09	2642.46
388.28	2555.86
388.48	2509.05
388.67	2885.88
388.86	3129.30
389.06	3337.60
389.25	3463.99
389.45	3421.86
389.64	3501.44
389.84	3461.65
390.03	3454.63
390.22	3449.95
390.42	3613.79
390.61	3892.31
390.81	4056.15
391.00	4093.60
391.19	3929.76
391.39	3829.12
391.58	3726.13
391.78	3435.91
391.97	3300.16
392.16	2956.10
392.36	2626.08
392.55	2134.57
392.75	1563.48
392.94	1341.13
393.13	1439.43
393.33	1809.23
393.52	2305.43
393.71	2902.26
393.91	3211.22
394.10	3492.08
394.29	3805.71
394.49	4025.72
394.68	4271.48
394.88	4262.12
395.07	4360.42
395.26	4355.74
395.46	4058.49
395.65	3852.52
395.84	3311.86
396.04	2640.12
396.23	2162.66
396.42	1790.51
396.62	1865.41
396.81	2370.96
397.00	3152.70
397.19	3915.72
397.39	4596.81
397.58	4910.44
397.77	5123.43
397.97	5362.17
398.16	5488.56
398.35	5731.97
398.55	5724.95
398.74	5919.21
398.93	6008.16
399.12	6017.52
399.32	5832.62
399.51	5909.85
399.70	6356.90
399.90	6186.04
400.09	6239.87
400.28	6321.79
400.47	6260.93
400.67	6586.27
400.86	6775.85
401.05	6806.28
401.24	6724.36
401.44	6895.22
401.63	6836.70
401.82	6967.77
402.01	7068.42
402.21	7012.24
402.40	6963.09
402.59	6778.19
402.78	6406.05
402.97	6380.30
403.17	6888.20
403.36	7019.27
403.55	7218.21
403.74	7360.98
403.93	6576.91
404.13	6511.37
404.32	6370.94
404.51	6855.43
404.70	7080.12
404.89	6986.50
405.09	6974.80
405.28	6888.20
405.47	6895.22
405.66	6665.85
405.85	6333.49
406.05	6525.41
406.24	6705.63
406.43	6883.52
406.62	7157.36
406.81	7033.31
407.00	6806.28
407.20	6614.35
407.39	6750.10
407.58	7016.93
407.77	7403.11
407.96	7522.48
408.15	7573.97
408.34	7817.39
408.54	8037.40
408.73	7885.26
408.92	7866.54
409.11	7449.93
409.30	7346.94
409.49	6817.98
409.68	6565.20
409.87	6586.27
410.07	6953.73
410.26	7220.55
410.45	7768.24
410.64	7892.29
410.83	8121.66
411.02	8294.86
411.21	8730.20
411.40	8503.17
411.59	8421.25
411.78	8278.47
411.98	8257.41
412.17	8273.79
412.36	8180.17
412.55	8212.94
412.74	8056.12
412.93	8067.83
413.12	8231.66
413.31	8872.97
413.50	8982.98
413.69	8842.54
413.88	8650.62
414.07	8514.87
414.26	8688.07
414.45	8793.39
414.64	8828.50
414.83	8891.70
415.02	8837.86
415.22	8718.50
415.41	8908.08
415.60	9149.15
415.79	9401.93
415.98	9731.95
416.17	9523.64
416.36	9458.10
416.55	9247.46
416.74	8739.56
416.93	8650.62
417.12	8954.89
417.31	8992.34
417.50	8929.14
417.69	9406.61
417.88	9238.09
418.07	9085.96
418.26	9160.86
418.45	9343.42
418.64	9717.90
418.83	9980.04
419.02	9516.62
419.21	9420.66
419.39	9078.94
419.58	8870.63
419.77	8868.29
419.96	9425.34
420.15	9867.70
420.34	10097.07
420.53	10340.49
420.72	10619.01
420.91	10356.87
421.10	10125.16
421.29	10127.50
421.48	9750.67
421.67	10040.90
421.86	9783.44
422.05	8737.22
422.24	8006.97
422.43	8379.12
422.61	9465.13
422.80	9729.61
422.99	9788.12
423.18	9329.38
423.37	9329.38
423.56	9561.09
423.75	9612.58
423.94	9923.87
424.13	9224.05
424.32	9142.13
424.50	9121.07
424.69	9296.61
424.88	9352.78
425.07	9191.28
425.26	9116.39
425.45	9142.13
425.64	9153.84
425.83	9294.27
426.01	9603.22
426.20	9745.99
426.39	9247.46
426.58	8784.03
426.77	8182.51
426.96	8196.56
427.15	8491.46
427.33	9415.98
427.52	9181.92
427.71	9296.61
427.90	8821.48
428.09	8755.94
428.28	8847.22
428.46	8578.06
428.65	8711.47
428.84	8856.59
429.03	8753.60
429.22	8093.57
429.40	7517.80
429.59	7007.56
429.78	6377.96
429.97	6436.47
430.16	6230.51
430.34	6431.79
430.53	6581.59
430.72	6693.93
430.91	7805.69
431.10	8725.52
431.28	10071.33
431.47	10764.12
431.66	10747.74
431.85	9558.75
432.03	9006.38
432.22	9034.47
432.41	9614.92
432.60	10359.21
432.79	10803.91
432.97	10780.51
433.16	10415.38
433.35	9406.61
433.54	8468.06
433.72	8425.93
433.91	8781.69
434.10	9736.63
434.28	10274.95
434.47	10480.92
434.66	10242.18
434.85	10436.45
435.03	10298.36
435.22	10513.69
435.41	11105.84
435.59	10822.64
435.78	11028.60
435.97	11314.15
436.16	11358.62
436.34	11162.01
436.53	11087.12
436.72	11309.47
436.90	10452.83
437.09	10551.14
437.28	10345.17
437.46	10551.14
437.65	10501.98
437.84	9678.12
438.02	9135.11
438.21	9315.33
438.40	9933.23
438.58	10363.89
438.77	10530.07
438.96	10815.62
439.14	11623.10
439.33	11367.98
439.52	11524.80
439.70	11405.43
439.89	10773.49
440.08	10820.30
440.26	10869.45
440.45	11150.31
440.63	12074.82
440.82	12671.66
441.01	12180.15
441.19	12025.67
441.38	12758.26
441.57	13006.36
441.75	12751.24
441.94	13191.26
442.12	12933.80
442.31	13301.26
442.50	13394.89
442.68	13151.47
442.87	12844.86
443.05	12706.77
443.24	13144.45
443.43	13224.03
443.61	13053.17
443.80	13678.09
443.98	12926.78
444.17	13083.59
444.35	13727.24
444.54	13907.46
444.73	13652.34
444.91	12835.50
445.10	12152.06
445.28	11918.01
445.47	11606.72
445.65	11812.68
445.84	12215.26
446.02	12585.06
446.21	12580.38
446.39	13053.17
446.58	13130.41
446.77	13462.76
446.95	13577.45
447.14	13687.45
447.32	13928.53
447.51	13425.31
447.69	12961.89
447.88	12793.37
448.06	12989.97
448.25	13188.92
448.43	13448.72
448.62	12814.43
448.80	13001.68
448.99	13256.79
449.17	13341.05
449.36	13221.69
449.54	13591.49
449.73	14059.60
449.91	14246.84
450.10	15103.48
450.28	14506.64
450.46	14157.90
450.65	14270.25
450.83	14413.02
451.02	14267.91
451.20	13944.91
451.39	13638.30
451.57	13855.97
451.76	13820.86
451.94	13783.41
452.13	13549.36
452.31	12739.54
452.49	12554.63
452.68	12753.58
452.86	12842.52
453.05	12945.50
453.23	13678.09
453.42	13586.81
453.60	13619.58
453.78	13919.17
453.97	13399.57
454.15	13275.52
454.34	13406.59
454.52	13305.95
454.70	13132.75
454.89	13406.59
455.07	13371.48
455.26	13652.34
455.44	13963.64
455.62	13893.42
455.81	14640.05
455.99	13591.49
456.17	14122.79
456.36	14073.64
456.54	14473.87
456.73	14384.93
456.91	14745.38
457.09	14703.25
457.28	15012.20
457.46	14452.81
457.64	14232.80
457.83	13781.07
458.01	13635.96
458.19	14188.33
458.38	13776.39
458.56	14508.98
458.74	14443.45
458.93	14293.65
459.11	13996.40
459.29	13980.02
459.48	14108.75
459.66	14015.13
459.84	13928.53
460.03	14380.25
460.21	14246.84
460.39	14803.89
460.57	14494.94
460.76	14623.67
460.94	14485.58
461.12	14773.46
461.31	14789.85
461.49	14757.08
461.67	14815.59
461.85	15374.98
462.04	15012.20
462.22	15030.92
462.40	14995.81
462.59	14508.98
462.77	14665.80
462.95	14803.89
463.13	15372.64
463.32	14775.80
463.50	14312.38
463.68	14506.64
463.86	14839.00
464.05	14382.59
464.23	14057.26
464.41	13685.11
464.59	13900.44
464.78	14525.36
464.96	14516.00
465.14	14420.04
465.32	14506.64
465.50	14768.78
465.69	14944.32
465.87	14422.38
466.05	14073.64
466.23	13654.69
466.41	13664.05
466.60	14410.68
466.78	14249.18
466.96	13870.01
467.14	14080.66
467.32	14361.53
467.51	14104.07
467.69	13659.37
467.87	14141.52
468.05	14160.24
468.23	14303.01
468.41	14384.93
468.60	14207.05
468.78	14228.12
468.96	14211.73
469.14	14684.52
469.32	14710.27
469.50	14024.49
469.69	13841.93
469.87	13308.29
470.05	13760.01
470.23	13839.59
470.41	14171.94
470.59	14459.83
470.77	13940.23
470.95	14120.45
471.14	14501.96
471.32	14555.79
471.50	15695.63
471.68	15873.51
471.86	15609.03
472.04	15541.16
472.22	15438.17
472.40	14775.80
472.58	15091.77
472.77	14518.34
472.95	15194.76
473.13	14986.45
473.31	14831.97
473.49	14998.15
473.67	15213.48
473.85	15276.68
474.03	15241.57
474.21	15686.27
474.39	15618.39
474.57	15321.15
474.75	15564.56
474.93	16116.93
475.12	15328.17
475.30	15344.55
475.48	15466.26
475.66	15527.11
475.84	15569.24
476.02	15358.60
476.20	15063.69
476.38	15529.45
476.56	15798.62
476.74	15791.59
476.92	16248.00
477.10	16355.66
477.28	16812.07
477.46	16809.73
477.64	16854.20
477.82	17179.53
478.00	17219.32
478.18	16669.30
478.36	16676.32
478.54	16678.66
478.72	17022.72
478.90	17652.32
479.08	17621.89
479.26	17771.69
479.44	17511.89
479.62	17717.86
479.80	18005.74
479.98	17816.16
480.16	18066.60
480.34	17678.07
480.52	18022.12
480.70	17759.98
480.88	18155.54
481.06	18656.41
481.24	18963.02
481.41	19101.11
481.59	19564.54
481.77	19021.53
481.95	19044.94
482.13	19286.01
482.31	18766.42
482.49	19304.74
482.67	18541.72
482.85	18960.68
483.03	19325.80
483.21	19367.93
483.39	19541.13
483.57	19531.77
483.74	19138.56
483.92	19232.18
484.10	19117.50
484.28	19716.67
484.46	19758.80
484.64	19281.33
484.82	19646.46
485.00	19089.41
485.18	18661.09
485.35	17708.49
485.53	15859.47
485.71	14937.30
485.89	15524.77
486.07	16231.62
486.25	18066.60
486.43	18534.70
486.61	18064.25
486.78	18249.16
486.96	19009.83
487.14	19899.23
487.32	20119.24
487.50	20393.09
487.68	19978.81
487.85	20896.30
488.03	20617.78
488.21	20638.84
488.39	20114.56
488.57	20156.69
488.75	20032.65
488.92	20884.60
489.10	22843.63
489.28	22984.06
489.46	23061.30
489.64	23939.00
489.81	23686.22
489.99	22682.13
490.17	23028.53
490.35	23456.85
490.53	23058.96
490.70	22651.70
490.88	23091.73
491.06	23398.34
491.24	23271.95
491.41	22272.54
491.59	21467.39
491.77	20868.22
491.95	21907.41
492.13	22274.88
492.30	23117.47
492.48	23882.83
492.66	24622.44
492.84	24297.10
493.01	23810.27
493.19	23356.21
493.37	22508.93
493.54	22845.97
493.72	23672.18
493.90	24180.07
494.08	24968.84
494.25	25598.44
494.43	25991.65
494.61	26403.58
494.79	25813.77
494.96	25666.31
495.14	24861.17
495.32	24299.44
495.49	24067.73
495.67	24889.26
495.85	26333.37
496.02	26127.40
496.20	26497.20
496.38	26284.22
496.55	25425.24
496.73	25867.60
496.91	25759.94
497.09	25603.12
497.26	26176.55
497.44	26569.76
497.62	25582.06
497.79	25303.53
497.97	24091.13
498.14	24285.40
498.32	25532.90
498.50	25556.31
498.67	26686.79
498.85	25813.77
499.03	25376.09
499.20	26164.85
499.38	25764.62
499.56	25221.61
499.73	25455.67
499.91	25053.09
500.08	24456.26
500.26	24063.05
500.44	24943.09
500.61	25116.29
500.79	24594.35
500.97	24751.17
501.14	24793.29
501.32	24175.39
501.49	24151.99
501.67	24805.00
501.84	25663.97
502.02	25099.90
502.20	25408.86
502.37	25659.29
502.55	25984.63
502.72	26499.55
502.90	26918.50
503.07	26134.42
503.25	25879.30
503.43	25614.82
503.60	24187.10
503.78	24093.47
503.95	24861.17
504.13	25289.49
504.30	26913.82
504.48	26581.46
504.65	26225.70
504.83	26012.71
505.01	26551.04
505.18	26382.52
505.36	27548.11
505.53	27274.26
505.71	27800.88
505.88	27585.55
506.06	27386.61
506.23	26789.77
506.41	26434.01
506.58	26588.49
506.76	26099.31
506.93	26412.95
507.11	25572.69
507.28	26188.25
507.46	25722.49
507.63	25773.98
507.81	25032.03
507.98	25383.11
508.16	26054.84
508.33	26375.50
508.50	26232.72
508.68	26719.56
508.85	27583.21
509.03	27140.85
509.20	26366.13
509.38	26078.25
509.55	25862.92
509.73	26588.49
509.90	26934.88
510.08	26008.03
510.25	25841.85
510.42	25944.84
510.60	26223.36
510.77	26579.12
510.95	27543.42
511.12	26892.76
511.30	27077.66
511.47	28346.23
511.64	27037.87
511.82	27199.37
511.99	26363.79
512.17	26794.45
512.34	25860.58
512.51	25652.27
512.69	26008.03
512.86	26162.51
513.04	26504.23
513.21	26071.23
513.38	26492.52
513.56	25776.32
513.73	24760.53
513.90	24311.14
514.08	25027.35
514.25	25518.86
514.43	26157.83
514.60	26286.56
514.77	26153.15
514.95	25986.97
515.12	25893.35
515.29	26604.87
515.47	26354.43
515.64	25940.16
515.81	26815.52
515.99	25764.62
516.16	23662.82
516.33	22391.91
516.51	20898.64
516.68	20243.29
516.85	19962.43
517.03	20540.54
517.20	22778.09
517.37	24716.06
517.54	24851.81
517.72	23908.57
517.89	22237.43
518.06	21443.99
518.24	22106.36
518.41	23028.53
518.58	24156.67
518.75	24264.33
518.93	24554.56
519.10	24208.16
519.27	24603.71
519.45	24989.90
519.62	25617.16
519.79	26099.31
519.96	25926.11
520.14	25233.32
520.31	24699.67
520.48	24664.57
520.65	25310.55
520.83	25741.21
521.00	25607.80
521.17	25270.76
521.34	24968.84
521.52	24933.73
521.69	25778.66
521.86	26223.36
522.03	25537.59
522.20	24678.61
522.38	23592.60
522.55	23852.40
522.72	24690.31
522.89	24058.37
523.07	24346.25
523.24	25088.20
523.41	25652.27
523.58	25687.38
523.75	25687.38
523.92	26139.10
524.10	26265.49
524.27	26291.24
524.44	26363.79
524.61	26199.96
524.78	26565.08
524.96	25565.67
525.13	25413.54
525.30	26817.86
525.47	26977.01
525.64	26277.19
525.81	25160.76
525.98	23484.94
526.16	22331.05
526.33	22295.94
526.50	22429.35
526.67	22450.42
526.84	22242.11
527.01	23197.05
527.18	24332.21
527.36	24861.17
527.53	25975.27
527.70	25467.37
527.87	24484.34
528.04	24285.40
528.21	24814.36
528.38	25392.47
528.55	26445.71
528.72	26038.46
528.89	26089.95
529.07	26185.91
529.24	25043.73
529.41	25120.97
529.58	25017.99
529.75	24737.12
529.92	24816.70
530.09	24772.23
530.26	25135.01
530.43	24004.53
530.60	25549.29
530.77	26132.08
530.94	26574.44
531.11	25795.04
531.28	25490.77
531.46	24786.27
531.63	25820.79
531.80	25362.04
531.97	24524.13
532.14	23545.79
532.31	23206.41
532.48	22361.48
532.65	22572.13
532.82	22745.33
532.99	23997.51
533.16	25142.03
533.33	25984.63
533.50	24980.54
533.67	24013.90
533.84	24276.04
534.01	24161.35
534.18	24266.67
534.35	23826.65
534.52	24388.38
534.69	24678.61
534.86	24472.64
535.03	24884.58
535.20	25144.38
535.37	25488.43
535.54	25479.07
535.71	24769.89
535.88	24634.14
536.05	24123.90
536.22	24011.56
536.38	23477.91
536.55	23449.83
536.72	23403.02
536.89	23562.17
537.06	24027.94
537.23	24348.59
537.40	23957.72
537.57	24182.42
537.74	24006.87
537.91	23903.89
538.08	24922.02
538.25	24381.36
538.42	24044.32
538.59	24173.05
538.75	24056.03
538.92	24004.53
539.09	23356.21
539.26	22686.81
539.43	22565.10
539.60	22295.94
539.77	22321.69
539.94	21916.78
540.11	21649.96
540.28	21160.78
540.44	21855.92
540.61	22066.57
540.78	21975.29
540.95	23344.50
541.12	22768.73
541.29	23475.57
541.46	23009.81
541.62	22981.72
541.79	22794.48
541.96	22419.99
542.13	22986.40
542.30	23042.57
542.47	23164.28
542.63	22745.33
542.80	22277.22
542.97	22181.26
543.14	22218.71
543.31	22363.82
543.48	23199.39
543.64	23314.08
543.81	24002.19
543.98	23199.39
544.15	23021.51
544.32	22293.60
544.48	23133.86
544.65	22192.96
544.82	22864.69
544.99	22920.87
545.16	22918.53
545.32	23412.38
545.49	23529.41
545.66	23496.64
545.83	22965.34
546.00	22843.63
546.16	22707.88
546.33	22373.18
546.50	23012.15
546.67	22752.35
546.83	22651.70
547.00	22658.73
547.17	21954.22
547.34	22202.32
547.50	21905.07
547.67	22045.51
547.84	21900.39
548.00	22572.13
548.17	21806.77
548.34	22031.46
548.51	21970.61
548.67	23227.48
548.84	22771.07
549.01	22881.08
549.18	22750.01
549.34	23026.19
549.51	22721.92
549.68	22342.75
549.84	22162.53
550.01	22511.27
550.18	21451.01
550.34	21378.45
550.51	21668.68
550.68	21319.94
550.84	20830.77
551.01	21172.49
551.18	20577.99
551.34	20540.54
551.51	21652.30
551.68	22464.46
551.84	21745.92
552.01	22209.34
552.18	21694.43
552.34	21418.24
552.51	21170.15
552.68	22300.62
552.84	21350.37
553.01	21488.46
553.18	21958.91
553.34	21905.07
553.51	21507.18
553.67	21476.76
553.84	22125.08
554.01	22204.66
554.17	21413.56
554.34	21593.78
554.51	21968.27
554.67	22141.47
554.84	21273.13
555.00	21170.15
555.17	21605.49
555.33	21359.73
555.50	21823.16
555.67	21570.38
555.83	21586.76
556.00	21537.61
556.16	21142.06
556.33	21090.57
556.50	21165.46
556.66	20636.50
556.83	20046.69
556.99	20512.46
557.16	20683.31
557.32	21153.76
557.49	20706.72
557.65	20868.22
557.82	19997.54
557.98	20247.97
558.15	20566.29
558.32	20142.65
558.48	19424.11
558.65	18993.45
558.81	19367.93
558.98	19641.78
559.14	20091.16
559.31	20063.07
559.47	19625.39
559.64	19594.96
559.80	20067.75
559.97	19653.48
560.13	20184.78
560.30	20098.18
560.46	20594.37
560.63	20585.01
560.79	20760.55
560.96	20362.66
561.12	19585.60
561.29	19487.30
561.45	19566.88
561.61	19250.91
561.78	19606.67
561.94	19885.19
562.11	19440.49
562.27	19859.45
562.44	20091.16
562.60	20020.94
562.77	20699.70
562.93	20201.16
563.10	19887.53
563.26	19695.61
563.42	19391.34
563.59	19136.22
563.75	19580.92
563.92	19260.27
564.08	19370.27
564.24	19346.87
564.41	18609.60
564.57	19047.28
564.74	18438.74
564.90	18637.69
565.07	18707.90
565.23	18237.45
565.39	18104.04
565.56	18651.73
565.72	18604.92
565.88	18984.09
566.05	18438.74
566.21	18862.38
566.38	18113.41
566.54	18204.69
566.70	18251.50
566.87	18757.05
567.03	19566.88
567.19	19852.42
567.36	18583.85
567.52	19321.12
567.68	18675.13
567.85	18363.84
568.01	18359.16
568.17	17579.76
568.34	17235.70
568.50	17441.67
568.66	17996.38
568.83	18029.15
568.99	18326.39
569.15	18340.44
569.32	18555.77
569.48	18469.17
569.64	17872.33
569.81	17226.34
569.97	17521.25
570.13	17731.90
570.30	17401.88
570.46	17193.58
570.62	16865.90
570.78	15866.49
570.95	16411.84
571.11	17163.15
571.27	17334.01
571.43	17280.18
571.60	17530.61
571.76	17767.01
571.92	17790.41
572.09	18080.64
572.25	17834.88
572.41	18340.44
572.57	18249.16
572.74	17797.43
572.90	17664.02
573.06	17668.70
573.22	17479.12
573.38	17233.36
573.55	17013.35
573.71	17069.53
573.87	17266.13
574.03	17233.36
574.20	17633.60
574.36	17462.74
574.52	17018.04
574.68	16730.15
574.84	16865.90
575.01	16882.28
575.17	17137.40
575.33	16842.50
575.49	16844.84
575.65	16966.54
575.82	16528.86
575.98	16531.20
576.14	16723.13
576.30	16795.68
576.46	16273.74
576.62	16973.56
576.79	16526.52
576.95	16208.21
577.11	16154.38
577.27	16339.28
577.43	16432.90
577.59	16334.60
577.75	16503.12
577.92	16098.20
578.08	15941.39
578.24	15967.13
578.40	16002.24
578.56	16018.63
578.72	15810.32
578.88	16264.38
579.04	16400.13
579.21	15955.43
579.37	16252.68
579.53	16046.71
579.69	15896.92
579.85	16018.63
580.01	15665.21
580.17	16086.50
580.33	16035.01
580.49	15936.71
580.65	16018.63
580.82	15655.84
580.98	16018.63
581.14	16189.49
581.30	16507.80
581.46	16032.67
581.62	15943.73
581.78	16168.42
581.94	16762.92
582.10	16030.33
582.26	15939.05
582.42	15838.41
582.58	16566.31
582.74	16325.24
582.90	15857.13
583.06	16236.30
583.22	16219.91
583.38	16154.38
583.54	16388.43
583.70	16152.04
583.86	15971.82
584.02	16077.14
584.18	16020.97
584.34	16215.23
584.50	16489.07
584.66	16250.34
584.82	16175.44
584.98	15620.74
585.14	15524.77
585.30	14998.15
585.46	14956.02
585.62	14696.22
585.78	15272.00
585.94	15075.39
586.10	15480.30
586.26	15328.17
586.42	15496.69
586.58	15255.61
586.74	15005.17
586.90	14892.83
587.06	15328.17
