SpectraSuite Data File
++++++++++++++++++++++++++++++++++++
Date: Mon Oct 07 14:53:10 GMT-05:00 2013
User: price-jones
Dark Spectrum Present: No
Reference Spectrum Present: No
Number of Sampled Component Spectra: 1
Spectrometers: USB2+H05261
Integration Time (usec): 100000 (USB2+H05261)
Spectra Averaged: 1 (USB2+H05261)
Boxcar Smoothing: 0 (USB2+H05261)
Correct for Electrical Dark: No (USB2+H05261)
Strobe/Lamp Enabled: No (USB2+H05261)
Correct for Detector Non-linearity: No (USB2+H05261)
Correct for Stray Light: No (USB2+H05261)
Number of Pixels in Processed Spectrum: 2048
>>>>>Begin Processed Spectral Data<<<<<
365.73	0.00
365.92	0.00
366.12	0.00
366.32	0.00
366.52	0.00
366.72	0.00
366.91	0.00
367.11	0.00
367.31	0.00
367.51	0.00
367.70	0.00
367.90	0.00
368.10	0.00
368.30	0.00
368.49	0.00
368.69	0.00
368.89	0.00
369.09	0.00
369.28	0.00
369.48	0.00
369.68	0.00
369.87	0.00
370.07	0.00
370.27	0.00
370.47	737.27
370.66	3707.41
370.86	4325.31
371.06	4744.27
371.25	4709.16
371.45	4266.80
371.65	3871.25
371.84	3705.07
372.04	3794.01
372.24	4182.54
372.44	4430.63
372.63	4292.54
372.83	4184.88
373.03	3466.33
373.22	3393.78
373.42	3487.40
373.62	4044.45
373.81	4177.86
374.01	4198.92
374.21	3833.80
374.40	3693.37
374.60	3672.30
374.79	4358.08
374.99	5001.72
375.19	5303.65
375.38	5355.15
375.58	4999.38
375.78	4835.55
375.97	5102.37
376.17	5158.54
376.37	5284.93
376.56	5254.50
376.76	5638.35
376.95	6104.12
377.15	6326.47
377.35	6649.46
377.54	6911.60
377.74	7241.62
377.93	7173.74
378.13	6860.11
378.33	6520.73
378.52	6090.07
378.72	5811.55
378.91	5788.14
379.11	5392.59
379.31	5434.72
379.50	5352.81
379.70	5860.70
379.89	6392.00
380.09	6691.59
380.28	6953.73
380.48	6988.84
380.68	7070.76
380.87	6691.59
381.07	6167.31
381.26	5715.59
381.46	5268.55
381.65	5097.69
381.85	5015.77
382.04	4844.91
382.24	4533.62
382.43	4313.61
382.63	4234.03
382.83	4114.66
383.02	4191.90
383.22	4287.86
383.41	4299.56
383.61	4622.56
383.80	5111.73
384.00	5909.85
384.19	6417.75
384.39	6684.57
384.58	6874.15
384.78	6679.89
384.97	6574.56
385.17	6338.17
385.36	5914.53
385.56	5671.12
385.75	6143.91
385.95	6340.51
386.14	7068.42
386.34	6998.20
386.53	6766.49
386.72	6382.64
386.92	6502.01
387.11	6661.16
387.31	7253.32
387.50	6794.58
387.70	6696.27
387.89	6633.08
388.09	6726.70
388.28	6679.89
388.48	6878.83
388.67	7325.88
388.86	8028.04
389.06	8540.61
389.25	9109.36
389.45	9184.26
389.64	8985.32
389.84	9004.04
390.03	8912.76
390.22	8912.76
390.42	9174.90
390.61	9949.62
390.81	10249.21
391.00	10579.22
391.19	10312.40
391.39	10040.90
391.58	9589.17
391.78	8685.73
391.97	8760.63
392.16	8161.45
392.36	7433.54
392.55	5799.85
392.75	4748.95
392.94	4018.70
393.13	4060.83
393.33	4545.32
393.52	5982.41
393.71	7145.66
393.91	8095.91
394.10	8730.20
394.29	9444.06
394.49	10469.22
394.68	11255.64
394.88	11101.16
395.07	11477.99
395.26	11185.42
395.46	11068.39
395.65	10462.19
395.84	9046.17
396.04	7695.68
396.23	6321.79
396.42	5160.88
396.62	5001.72
396.81	5923.90
397.00	7456.95
397.19	9561.09
397.39	11424.15
397.58	12613.15
397.77	13312.97
397.97	14019.81
398.16	14008.11
398.35	14546.43
398.55	14869.42
398.74	15618.39
398.93	16177.78
399.12	15866.49
399.32	15047.30
399.51	15410.09
399.70	16458.65
399.90	16161.40
400.09	16358.00
400.28	16177.78
400.47	16336.94
400.67	17085.91
400.86	17486.14
401.05	17247.41
401.24	17544.66
401.44	17759.98
401.63	17790.41
401.82	17806.80
402.01	18136.81
402.21	18157.88
402.40	18071.28
402.59	17806.80
402.78	16865.90
402.97	16514.82
403.17	17137.40
403.36	18087.66
403.55	18824.93
403.74	19014.51
403.93	17933.18
404.13	16624.83
404.32	16566.31
404.51	17247.41
404.70	18696.20
404.89	18462.15
405.09	18148.51
405.28	17561.04
405.47	17776.37
405.66	17872.33
405.85	17160.81
406.05	16636.53
406.24	17036.76
406.43	17689.77
406.62	17848.93
406.81	18754.71
407.00	17668.70
407.20	17537.63
407.39	17245.07
407.58	18417.68
407.77	18759.39
407.96	19690.93
408.15	19646.46
408.34	19885.19
408.54	20688.00
408.73	21069.50
408.92	20725.44
409.11	20149.67
409.30	18995.79
409.49	17657.00
409.68	16865.90
409.87	16198.85
410.07	17458.06
410.26	18785.14
410.45	19658.16
410.64	20255.00
410.83	21092.91
411.02	21649.96
411.21	22448.08
411.40	21914.44
411.59	21788.05
411.78	21916.78
411.98	21774.00
412.17	22223.39
412.36	21418.24
412.55	21750.60
412.74	21439.31
412.93	20615.44
413.12	21336.32
413.31	23058.96
413.50	23030.87
413.69	23372.59
413.88	22258.49
414.07	22228.07
414.26	22593.19
414.45	23300.03
414.64	23339.82
414.83	23225.14
415.02	22700.86
415.22	22576.81
415.41	23356.21
415.60	23922.62
415.79	25216.93
415.98	25425.24
416.17	25408.86
416.36	24465.62
416.55	24938.41
416.74	23733.03
416.93	22684.47
417.12	23023.85
417.31	23473.23
417.50	23866.44
417.69	24238.59
417.88	24629.46
418.07	24173.05
418.26	23543.45
418.45	24077.09
418.64	24989.90
418.83	25865.26
419.02	25305.87
419.21	24896.28
419.39	24276.04
419.58	22918.53
419.77	22941.93
419.96	24376.68
420.15	25598.44
420.34	26167.19
420.53	27276.60
420.72	27566.83
420.91	27543.42
421.10	26881.05
421.29	26391.88
421.48	25539.93
421.67	26799.13
421.86	26403.58
422.05	24652.86
422.24	22022.10
422.43	21902.73
422.61	24222.20
422.80	26384.86
422.99	26026.76
423.18	24919.68
423.37	24376.68
423.56	24933.73
423.75	25041.39
423.94	25951.86
424.13	24414.13
424.32	24582.65
424.50	24334.55
424.69	24280.72
424.88	24636.48
425.07	24332.21
425.26	24320.51
425.45	24306.46
425.64	23405.36
425.83	23513.02
426.01	25071.82
426.20	25762.28
426.39	25310.55
426.58	23405.36
426.77	21778.68
426.96	21366.75
427.15	21986.99
427.33	23672.18
427.52	24474.98
427.71	24744.14
427.90	24264.33
428.09	24098.16
428.28	23700.26
428.46	22712.56
428.65	22490.21
428.84	23211.09
429.03	23344.50
429.22	22148.49
429.40	20800.34
429.59	19180.69
429.78	17095.27
429.97	17111.66
430.16	17345.71
430.34	17277.83
430.53	17275.49
430.72	17869.99
430.91	19578.58
431.10	23063.64
431.28	27117.45
431.47	29380.74
431.66	29544.58
431.85	26366.13
432.03	24631.80
432.22	23651.11
432.41	24716.06
432.60	27318.73
432.79	28489.00
432.97	29120.95
433.16	28170.69
433.35	25926.11
433.54	23337.48
433.72	21802.09
433.91	22920.87
434.10	25509.50
434.28	27407.67
434.47	28430.49
434.66	27985.79
434.85	27721.30
435.03	27325.75
435.22	27875.78
435.41	29429.90
435.59	29874.60
435.78	30209.29
435.97	30850.60
436.16	30946.56
436.34	29947.15
436.53	29703.74
436.72	29766.93
436.90	28538.15
437.09	28404.74
437.28	27983.44
437.46	29071.79
437.65	28577.94
437.84	26621.25
438.02	24367.32
438.21	24563.92
438.40	25961.22
438.58	28304.10
438.77	28596.67
438.96	28947.75
439.14	30099.29
439.33	30916.14
439.52	31360.84
439.70	30623.57
439.89	29998.65
440.08	29132.65
440.26	29235.63
440.45	30363.77
440.63	32149.60
440.82	33823.08
441.01	33326.89
441.19	33015.60
441.38	33549.24
441.57	34653.97
441.75	35283.58
441.94	35468.48
442.12	34888.03
442.31	35545.72
442.50	35587.85
442.68	34862.28
442.87	34927.81
443.05	34448.00
443.24	35402.94
443.43	35761.05
443.61	36437.46
443.80	36601.30
443.98	34810.79
444.17	34569.71
444.35	36411.71
444.54	36840.03
444.73	36432.78
444.91	35351.45
445.10	33996.28
445.28	32765.16
445.47	32418.76
445.65	32158.96
445.84	32685.58
446.02	34455.03
446.21	34618.86
446.39	34670.36
446.58	34995.69
446.77	36051.27
446.95	36334.48
447.14	37069.40
447.32	37654.54
447.51	36804.92
447.69	35728.28
447.88	35152.51
448.06	35992.76
448.25	36500.65
448.43	37132.60
448.62	36053.61
448.80	35709.55
448.99	36065.31
449.17	36397.67
449.36	36741.73
449.54	37942.42
449.73	38387.13
449.91	39145.46
450.10	40041.88
450.28	40449.14
450.46	39873.37
450.65	40278.28
450.83	39873.37
451.02	38513.52
451.20	38682.03
451.39	38916.09
451.57	38529.90
451.76	38618.84
451.94	38073.49
452.13	37773.91
452.31	35948.29
452.49	34485.45
452.68	34581.42
452.86	34909.09
453.05	35379.54
453.23	36212.77
453.42	37202.82
453.60	37837.10
453.78	38546.28
453.97	37614.75
454.15	38099.24
454.34	37544.53
454.52	37724.75
454.70	36451.50
454.89	36931.31
455.07	37493.04
455.26	38080.52
455.44	38848.21
455.62	39938.90
455.81	39859.32
455.99	39856.98
456.17	38850.55
456.36	39555.05
456.54	40680.85
456.73	40397.65
456.91	41106.83
457.09	41055.34
457.28	41947.08
457.46	40357.86
457.64	40142.53
457.83	38976.94
458.01	37947.11
458.19	39409.94
458.38	39250.78
458.56	40505.31
458.74	40524.04
458.93	39728.25
459.11	39269.51
459.29	39515.26
459.48	39651.02
459.66	39681.44
459.84	39786.77
460.03	40170.61
460.21	39966.99
460.39	41478.97
460.57	41158.32
460.76	41619.41
460.94	41851.12
461.12	41586.64
461.31	41359.61
461.49	41605.36
461.67	41614.72
461.85	42742.86
462.04	42164.75
462.22	43009.68
462.40	42408.17
462.59	42167.09
462.77	42377.74
462.95	42398.80
463.13	42050.06
463.32	41174.70
463.50	41055.34
463.68	41167.68
463.86	41429.82
464.05	40620.00
464.23	40046.57
464.41	39629.95
464.59	39377.17
464.78	41207.47
464.96	40830.65
465.14	40414.03
465.32	41249.60
465.50	42532.22
465.69	43051.81
465.87	42150.71
466.05	40896.18
466.23	39124.40
466.41	38574.37
466.60	39608.89
466.78	39604.20
466.96	40477.22
467.14	40659.79
467.32	41411.10
467.51	41305.77
467.69	39344.41
467.87	40509.99
468.05	41265.99
468.23	40830.65
468.41	41345.56
468.60	41471.95
468.78	41614.72
468.96	41013.21
469.14	41916.65
469.32	42302.84
469.50	40407.01
469.69	40556.80
469.87	40250.19
470.05	39849.96
470.23	40439.78
470.41	40339.13
470.59	41336.20
470.77	41167.68
470.95	41909.63
471.14	42073.47
471.32	42129.64
471.50	44636.36
471.68	44556.78
471.86	44762.75
472.04	44704.23
472.22	44985.10
472.40	42829.46
472.58	42567.32
472.77	42536.90
472.95	43093.94
473.13	44388.26
473.31	42960.53
473.49	43426.30
473.67	44210.38
473.85	44484.22
474.03	45612.36
474.21	45858.12
474.39	46003.23
474.57	46019.61
474.75	45734.07
474.93	45366.60
475.12	44257.19
475.30	45106.80
475.48	45523.42
475.66	45354.90
475.84	44837.64
476.02	44638.70
476.20	44406.98
476.38	44872.75
476.56	46183.45
476.74	46890.29
476.92	46967.53
477.10	47253.08
477.28	48463.13
477.46	48629.31
477.64	49020.18
477.82	48980.39
478.00	49205.08
478.18	48577.82
478.36	48224.40
478.54	48790.81
478.72	48643.35
478.90	49553.82
479.08	50688.98
479.26	50820.05
479.44	50958.14
479.62	50829.41
479.80	50848.14
479.98	50906.65
480.16	51224.96
480.34	50773.24
480.52	51400.50
480.70	51236.67
480.88	51246.03
481.06	52226.71
481.24	52168.20
481.41	52816.53
481.59	53675.51
481.77	52772.06
481.95	52973.34
482.13	52722.91
482.31	52671.42
482.49	53312.72
482.67	53027.18
482.85	53481.24
483.03	53841.68
483.21	54209.15
483.39	53858.07
483.57	53528.05
483.74	53207.40
483.92	53595.93
484.10	53560.82
484.28	54522.78
484.46	54674.91
484.64	54948.76
484.82	54270.00
485.00	53916.58
485.18	53022.50
485.35	52023.09
485.53	49202.74
485.71	45785.56
485.89	45790.24
486.07	47608.84
486.25	50937.08
486.43	52493.54
486.61	53118.46
486.78	53015.47
486.96	53303.36
487.14	54518.10
487.32	55194.51
487.50	55917.74
487.68	56687.78
487.85	57029.49
488.03	56933.53
488.21	56676.07
488.39	56137.75
488.57	55437.93
488.75	55337.29
488.92	56261.80
489.10	58108.48
489.28	59114.91
489.46	59405.14
489.64	59255.34
489.81	59365.35
489.99	59124.27
490.17	59210.87
490.35	59662.60
490.53	59112.57
490.70	58698.30
490.88	58824.68
491.06	59475.35
491.24	59278.75
491.41	58756.81
491.59	57626.33
491.77	56931.19
491.95	57621.65
492.13	58763.83
492.30	59690.68
492.48	60439.65
492.66	60802.44
492.84	60783.71
493.01	60521.57
493.19	60046.44
493.37	59917.71
493.54	59634.51
493.72	60168.15
493.90	60931.17
494.08	61600.56
494.25	61982.07
494.43	61897.81
494.61	62279.31
494.79	62597.63
494.96	62185.69
495.14	61769.08
495.32	60898.40
495.49	60523.91
495.67	61212.03
495.85	62494.64
496.02	62843.38
496.20	62609.33
496.38	62230.16
496.55	62138.88
496.73	62724.02
496.91	62663.16
497.09	63260.00
497.26	63391.07
497.44	62852.75
497.62	62377.62
497.79	61776.10
497.97	60669.03
498.14	60945.21
498.32	61982.07
498.50	62508.69
498.67	63030.63
498.85	62958.07
499.03	63161.70
499.20	63173.40
499.38	63395.75
499.56	63241.28
499.73	62770.83
499.91	62489.96
500.08	61946.96
500.26	61581.84
500.44	61890.79
500.61	62443.15
500.79	62209.10
500.97	61848.66
501.14	61862.70
501.32	61621.62
501.49	61719.93
501.67	61820.57
501.84	62398.68
502.02	62518.05
502.20	62986.16
502.37	62869.13
502.55	62948.71
502.72	63512.78
502.90	63875.56
503.07	63524.48
503.25	63243.62
503.43	62618.69
503.60	61881.42
503.78	61162.88
503.95	61790.14
504.13	63119.57
504.30	63795.98
504.48	63632.14
504.65	63215.53
504.83	63316.17
505.01	63803.00
505.18	64149.40
505.36	64727.52
505.53	64711.13
505.71	64910.08
505.88	64802.41
506.06	64338.99
506.23	64296.86
506.41	63814.71
506.58	64135.36
506.76	63994.93
506.93	63849.81
507.11	63821.73
507.28	63938.75
507.46	63465.97
507.63	62927.64
507.81	62719.34
507.98	63157.02
508.16	63763.21
508.33	64294.52
508.50	64547.29
508.68	64624.53
508.85	64977.95
509.03	65134.77
509.20	64701.77
509.38	64285.15
509.55	63540.86
509.73	63693.00
509.90	64207.92
510.08	64477.08
510.25	64378.78
510.42	64121.32
510.60	63994.93
510.77	64294.52
510.95	64999.02
511.12	64947.53
511.30	65172.22
511.47	65396.91
511.64	65305.63
511.82	65104.34
511.99	64348.35
512.17	63964.50
512.34	63831.09
512.51	63952.80
512.69	64107.27
512.86	64212.60
513.04	64479.42
513.21	64530.91
513.38	64301.54
513.56	63622.78
513.73	63194.46
513.90	63543.20
514.08	63391.07
514.25	63948.12
514.43	63917.69
514.60	63915.35
514.77	63898.97
514.95	64292.18
515.12	64324.94
515.29	64413.88
515.47	64757.94
515.64	64907.74
515.81	64736.88
515.99	64130.68
516.16	62918.28
516.33	61038.83
516.51	59636.85
516.68	59056.40
516.85	58763.83
517.03	59398.12
517.20	61359.48
517.37	63395.75
517.54	64346.01
517.72	63856.84
517.89	61469.49
518.06	59784.30
518.24	60257.09
518.41	62035.90
518.58	63061.05
518.75	63171.06
518.93	63449.58
519.10	63238.93
519.27	63475.33
519.45	63973.86
519.62	64554.32
519.79	64774.33
519.96	64666.66
520.14	64135.36
520.31	63442.56
520.48	63489.37
520.65	63936.41
520.83	64727.52
521.00	65087.96
521.17	64584.74
521.34	64273.45
521.52	64601.13
521.69	65045.83
521.86	65446.06
522.03	65298.61
522.20	63987.91
522.38	62988.50
522.55	63267.02
522.72	63866.20
522.89	63859.18
523.07	64074.51
523.24	64413.88
523.41	65146.47
523.58	65439.04
523.75	65535.00
523.92	65535.00
524.10	65535.00
524.27	65535.00
524.44	65439.04
524.61	65228.39
524.78	65172.22
524.96	65197.96
525.13	65029.44
525.30	65256.48
525.47	65535.00
525.64	65535.00
525.81	65003.70
525.98	63650.87
526.16	62574.22
526.33	61769.08
526.50	61518.64
526.67	61247.14
526.84	61928.23
527.01	62747.42
527.18	63508.10
527.36	64296.86
527.53	64949.87
527.70	65214.35
527.87	64844.54
528.04	64334.31
528.21	64776.67
528.38	65441.38
528.55	65535.00
528.72	65535.00
528.89	65535.00
529.07	65535.00
529.24	65340.74
529.41	64917.10
529.58	64259.41
529.75	64507.50
529.92	64924.12
530.09	65155.83
530.26	65535.00
530.43	65535.00
530.60	65535.00
530.77	65535.00
530.94	65535.00
531.11	65535.00
531.28	65462.44
531.46	65275.20
531.63	65535.00
531.80	65240.09
531.97	64886.67
532.14	64264.09
532.31	63341.92
532.48	62639.76
532.65	62997.86
532.82	63678.96
532.99	64664.32
533.16	64970.93
533.33	65448.40
533.50	65230.73
533.67	64673.68
533.84	64404.52
534.01	64418.56
534.18	64715.81
534.35	64685.39
534.52	64720.49
534.69	65015.40
534.86	65307.97
535.03	65406.27
535.20	65535.00
535.37	65535.00
535.54	65535.00
535.71	65535.00
535.88	65535.00
536.05	64980.29
536.22	64615.17
536.38	64294.52
536.55	63861.52
536.72	63545.54
536.89	63484.69
537.06	64369.41
537.23	65116.04
537.40	65289.24
537.57	65361.80
537.74	64968.59
537.91	64959.23
538.08	64762.62
538.25	64849.22
538.42	65261.16
538.59	64881.99
538.75	64392.82
538.92	64186.85
539.09	64072.17
539.26	63903.65
539.43	63632.14
539.60	63950.46
539.77	64128.34
539.94	63859.18
540.11	63346.60
540.28	62796.57
540.44	63077.44
540.61	63121.91
540.78	63355.96
540.95	63700.02
541.12	64041.74
541.29	64264.09
541.46	64573.04
541.62	64669.00
541.79	64477.08
541.96	63913.01
542.13	63791.30
542.30	64292.18
542.47	64287.49
542.63	64254.73
542.80	63938.75
542.97	64076.85
543.14	63845.13
543.31	63957.48
543.48	64301.54
543.64	65083.28
543.81	65284.56
543.98	65144.13
544.15	64430.27
544.32	64273.45
544.48	64280.47
544.65	64596.45
544.82	64748.58
544.99	64481.76
545.16	64163.45
545.32	64107.27
545.49	64708.79
545.66	65008.38
545.83	64661.98
546.00	64360.05
546.16	64015.99
546.33	64154.08
546.50	64336.65
546.67	64603.47
546.83	64390.48
547.00	64238.34
547.17	63737.47
547.34	63107.86
547.50	63159.36
547.67	63529.16
547.84	63613.42
548.00	64015.99
548.17	64413.88
548.34	64212.60
548.51	64175.15
548.67	64154.08
548.84	64336.65
549.01	64264.09
549.18	64055.78
549.34	64154.08
549.51	64062.80
549.68	64041.74
549.84	63779.60
550.01	63908.33
550.18	63561.93
550.34	63826.41
550.51	63905.99
550.68	63777.26
550.84	63477.67
551.01	63639.17
551.18	63458.94
551.34	63594.70
551.51	63945.78
551.68	64048.76
551.84	64172.81
552.01	64081.53
552.18	63969.18
552.34	63323.19
552.51	63061.05
552.68	62827.00
552.84	63175.74
553.01	63650.87
553.18	63515.12
553.34	63653.21
553.51	63700.02
553.67	63950.46
553.84	64086.21
554.01	64097.91
554.17	63751.51
554.34	63803.00
554.51	63784.28
554.67	64200.89
554.84	64161.11
555.00	63746.83
555.17	63676.61
555.33	63458.94
555.50	63487.03
555.67	63512.78
555.83	63400.43
556.00	63248.30
556.16	62960.41
556.33	62763.81
556.50	62876.15
556.66	62738.06
556.83	62684.23
556.99	62777.85
557.16	62761.47
557.32	63100.84
557.49	63166.38
557.65	63206.17
557.82	63098.50
557.98	62934.66
558.15	62515.71
558.32	61762.06
558.48	61195.65
558.65	61478.85
558.81	61766.74
558.98	61993.77
559.14	62176.33
559.31	62241.87
559.47	62199.74
559.64	62054.62
559.80	61705.88
559.97	61843.98
560.13	61984.41
560.30	62908.92
560.46	63297.45
560.63	63491.71
560.79	63454.26
560.96	63061.05
561.12	62094.41
561.29	61593.54
561.45	61574.81
561.61	62106.12
561.78	62394.00
561.94	62127.18
562.11	62225.48
562.27	62108.46
562.44	62185.69
562.60	62513.37
562.77	62740.40
562.93	62588.27
563.10	62754.44
563.26	62220.80
563.42	62211.44
563.59	62152.93
563.75	61958.66
563.92	62152.93
564.08	61851.00
564.24	62218.46
564.41	62244.21
564.57	62052.28
564.74	62017.17
564.90	61977.39
565.07	61851.00
565.23	61565.45
565.39	61228.41
565.56	60776.69
565.72	60629.24
565.88	60917.12
566.05	61116.07
566.21	61485.87
566.38	61504.60
566.54	61385.23
566.70	61820.57
566.87	62173.99
567.03	62073.35
567.19	62040.58
567.36	61939.94
567.52	61724.61
567.68	61378.21
567.85	60919.46
568.01	60802.44
568.17	60556.68
568.34	60502.85
568.50	60549.66
568.66	60699.45
568.83	60718.18
568.99	60891.38
569.15	61059.90
569.32	61109.05
569.48	60832.86
569.64	60809.46
569.81	60554.34
569.97	60336.67
570.13	60301.56
570.30	59821.75
570.46	59519.82
570.62	59194.49
570.78	59210.87
570.95	59367.69
571.11	59973.89
571.27	60165.81
571.43	60402.21
571.60	60692.43
571.76	60556.68
571.92	60970.96
572.09	61137.13
572.25	60823.50
572.41	60832.86
572.57	60989.68
572.74	60729.88
572.90	60516.89
573.06	60521.57
573.22	60575.40
573.38	60580.09
573.55	60544.98
573.71	60722.86
573.87	60640.94
574.03	60285.18
574.20	60470.08
574.36	60151.77
574.52	60252.41
574.68	59854.52
574.84	59634.51
575.01	59133.63
575.17	59288.11
575.33	59545.57
575.49	59704.73
575.65	59927.08
575.82	59484.72
575.98	59332.58
576.14	59503.44
576.30	59868.56
576.46	59847.50
576.62	59449.61
576.79	59873.24
576.95	59494.08
577.11	59571.32
577.27	59496.42
577.43	59657.91
577.59	59295.13
577.75	58969.80
577.92	58298.06
578.08	58152.95
578.24	58452.54
578.40	58880.86
578.56	58773.19
578.72	58859.79
578.88	59065.76
579.04	59351.30
579.21	59283.43
579.37	59166.40
579.53	59227.26
579.69	59171.08
579.85	59568.97
580.01	59112.57
580.17	59007.25
580.33	58801.28
580.49	58820.00
580.65	59381.73
580.82	59388.75
580.98	59135.98
581.14	59224.92
581.30	59051.72
581.46	59016.61
581.62	59241.30
581.78	59332.58
581.94	59674.30
582.10	59433.22
582.26	59409.82
582.42	59599.40
582.58	59458.97
582.74	59241.30
582.90	59517.48
583.06	59540.89
583.22	59175.76
583.38	59208.53
583.54	59283.43
583.70	59173.42
583.86	59084.48
584.02	59025.97
584.18	59199.17
584.34	59159.38
584.50	59040.01
584.66	59044.69
584.82	58663.19
584.98	58489.99
585.14	58265.30
