SpectraSuite Data File
++++++++++++++++++++++++++++++++++++
Date: Mon Oct 07 14:53:49 GMT-05:00 2013
User: price-jones
Dark Spectrum Present: No
Reference Spectrum Present: No
Number of Sampled Component Spectra: 1
Spectrometers: USB2+H05261
Integration Time (usec): 100000 (USB2+H05261)
Spectra Averaged: 1 (USB2+H05261)
Boxcar Smoothing: 0 (USB2+H05261)
Correct for Electrical Dark: No (USB2+H05261)
Strobe/Lamp Enabled: No (USB2+H05261)
Correct for Detector Non-linearity: No (USB2+H05261)
Correct for Stray Light: No (USB2+H05261)
Number of Pixels in Processed Spectrum: 2048
>>>>>Begin Processed Spectral Data<<<<<
365.73	0.00
365.92	0.00
366.12	0.00
366.32	0.00
366.52	0.00
366.72	0.00
366.91	0.00
367.11	0.00
367.31	0.00
367.51	0.00
367.70	0.00
367.90	0.00
368.10	0.00
368.30	0.00
368.49	0.00
368.69	0.00
368.89	0.00
369.09	0.00
369.28	0.00
369.48	0.00
369.68	0.00
369.87	0.00
370.07	0.00
370.27	0.00
370.47	589.82
370.66	3014.61
370.86	3412.50
371.06	3695.71
371.25	3632.51
371.45	3281.43
371.65	3148.02
371.84	2825.03
372.04	3047.38
372.24	3346.97
372.44	3365.69
372.63	3417.18
372.83	3290.79
373.03	2794.60
373.22	2651.83
373.42	2750.13
373.62	3087.17
373.81	3386.76
374.01	3379.73
374.21	3131.64
374.40	2869.50
374.60	2911.63
374.79	3307.18
374.99	3950.82
375.19	4212.96
375.38	4241.05
375.58	3817.41
375.78	3836.14
375.97	3974.23
376.17	4217.65
376.37	4072.53
376.56	4259.78
376.76	4437.66
376.95	4734.90
377.15	5135.14
377.35	5331.74
377.54	5448.77
377.74	5526.00
377.93	5598.56
378.13	5448.77
378.33	5151.52
378.52	4690.43
378.72	4634.26
378.91	4566.39
379.11	4484.47
379.31	4131.05
379.50	4126.36
379.70	4456.38
379.89	5048.54
380.09	5357.49
380.28	5680.48
380.48	5488.56
380.68	5453.45
380.87	5193.65
381.07	4919.81
381.26	4468.08
381.46	4325.31
381.65	4222.33
381.85	4079.55
382.04	3885.29
382.24	3496.76
382.43	3358.67
382.63	3258.03
382.83	3407.82
383.02	3229.94
383.22	3262.71
383.41	3337.60
383.61	3581.02
383.80	4145.09
384.00	4636.60
384.19	5118.75
384.39	5315.36
384.58	5308.34
384.78	5317.70
384.97	5327.06
385.17	4983.00
385.36	4774.69
385.56	4681.07
385.75	4652.98
385.95	5193.65
386.14	5650.05
386.34	5600.90
386.53	5352.81
386.72	5069.60
386.92	5125.77
387.11	5245.14
387.31	5561.11
387.50	5483.88
387.70	5313.02
387.89	5266.21
388.09	5263.86
388.28	5156.20
388.48	5481.53
388.67	5839.64
388.86	6504.35
389.06	6857.77
389.25	7377.37
389.45	7325.88
389.64	7262.68
389.84	7096.50
390.03	7059.06
390.22	7220.55
390.42	7375.03
390.61	7782.28
390.81	8205.92
391.00	8393.16
391.19	8524.23
391.39	8049.10
391.58	7646.53
391.78	7222.89
391.97	6972.46
392.16	6534.78
392.36	5909.85
392.55	4620.22
392.75	3857.20
392.94	2998.23
393.13	3063.76
393.33	3531.87
393.52	4664.69
393.71	5689.84
393.91	6422.43
394.10	6991.18
394.29	7604.40
394.49	8086.55
394.68	8861.27
394.88	8936.17
395.07	9376.19
395.26	8945.53
395.46	8814.46
395.65	8339.33
395.84	7279.07
396.04	6221.14
396.23	5015.77
396.42	4301.90
396.62	3988.27
396.81	4610.86
397.00	5827.93
397.19	7494.40
397.39	9032.13
397.58	10001.11
397.77	10822.64
397.97	11117.54
398.16	11232.23
398.35	11604.38
398.55	11950.78
398.74	12332.28
398.93	12826.14
399.12	12383.77
399.32	12138.02
399.51	12547.61
399.70	13123.38
399.90	12751.24
400.09	12889.33
400.28	12774.64
400.47	13181.90
400.67	13642.98
400.86	14090.02
401.05	13638.30
401.24	14183.65
401.44	14443.45
401.63	14134.50
401.82	14567.49
402.01	14375.57
402.21	14459.83
402.40	14700.90
402.59	13989.38
402.78	13544.68
402.97	13135.09
403.17	13820.86
403.36	14445.79
403.55	14815.59
403.74	15316.47
403.93	14349.82
404.13	13387.86
404.32	13200.62
404.51	13900.44
404.70	15037.94
404.89	14850.70
405.09	14621.33
405.28	14403.66
405.47	14288.97
405.66	14317.06
405.85	13666.39
406.05	13352.76
406.24	13270.84
406.43	14251.52
406.62	14642.39
406.81	14988.79
407.00	14417.70
407.20	14031.51
407.39	14370.89
407.58	14778.14
407.77	15096.46
407.96	15941.39
408.15	15922.66
408.34	15859.47
408.54	16512.48
408.73	16791.00
408.92	16582.70
409.11	15880.53
409.30	15630.10
409.49	14616.65
409.68	13523.62
409.87	13107.00
410.07	13846.61
410.26	14993.47
410.45	15845.43
410.64	16393.11
410.83	16798.02
411.02	17043.78
411.21	18078.30
411.40	17905.10
411.59	17912.12
411.78	17858.29
411.98	17312.94
412.17	17902.76
412.36	17111.66
412.55	17682.75
412.74	17252.09
412.93	16599.08
413.12	16676.32
413.31	18382.57
413.50	18239.79
413.69	19054.30
413.88	18321.71
414.07	17563.38
414.26	17947.23
414.45	18597.90
414.64	18441.08
414.83	18845.99
415.02	18160.22
415.22	18153.20
415.41	18717.26
415.60	19058.98
415.79	19889.87
415.98	20680.97
416.17	20711.40
416.36	19978.81
416.55	19688.59
416.74	19147.92
416.93	18356.82
417.12	18567.47
417.31	18642.37
417.50	18766.42
417.69	19510.71
417.88	19445.17
418.07	19367.93
418.26	19278.99
418.45	19077.71
418.64	19728.38
418.83	20577.99
419.02	20332.23
419.21	20273.72
419.39	19232.18
419.58	18312.35
419.77	18338.10
419.96	19379.64
420.15	20395.43
420.34	20627.14
420.53	21600.80
420.72	22085.30
420.91	21752.94
421.10	21474.42
421.29	21235.68
421.48	20519.48
421.67	21617.19
421.86	21085.89
422.05	19632.41
422.24	17762.33
422.43	17343.37
422.61	19089.41
422.80	21057.80
422.99	20961.84
423.18	20367.34
423.37	19845.40
423.56	19861.79
423.75	20362.66
423.94	20367.34
424.13	19288.35
424.32	19452.19
424.50	19756.46
424.69	19295.38
424.88	19414.74
425.07	19431.13
425.26	19176.01
425.45	19309.42
425.64	18658.75
425.83	18565.13
426.01	19999.88
426.20	20423.51
426.39	20278.40
426.58	18707.90
426.77	17376.14
426.96	16910.37
427.15	17521.25
427.33	18710.24
427.52	19683.91
427.71	19812.63
427.90	18944.30
428.09	19262.61
428.28	18937.27
428.46	18396.61
428.65	17764.67
428.84	18771.10
429.03	18661.09
429.22	17558.70
429.40	16734.83
429.59	15321.15
429.78	13518.93
429.97	13518.93
430.16	13633.62
430.34	14132.15
430.53	13617.24
430.72	14008.11
430.91	15770.53
431.10	18125.11
431.28	21214.62
431.47	23206.41
431.66	23175.98
431.85	21530.59
432.03	19803.27
432.22	19077.71
432.41	19660.50
432.60	22052.53
432.79	22801.50
432.97	23140.88
433.16	22735.96
433.35	20830.77
433.54	18438.74
433.72	17493.16
433.91	17865.31
434.10	20116.90
434.28	21432.29
434.47	22560.42
434.66	22473.82
434.85	21748.26
435.03	21451.01
435.22	21916.78
435.41	23611.32
435.59	23445.15
435.78	23674.52
435.97	24294.76
436.16	24786.27
436.34	24194.12
436.53	23920.28
436.72	23716.65
436.90	22312.33
437.09	22246.79
437.28	22092.32
437.46	23000.44
437.65	22794.48
437.84	21308.24
438.02	19527.09
438.21	19316.44
438.40	20475.01
438.58	22380.20
438.77	22831.93
438.96	23047.26
439.14	24063.05
439.33	24472.64
439.52	25139.69
439.70	24613.07
439.89	23520.04
440.08	22995.76
440.26	23089.38
440.45	23604.30
440.63	25362.04
440.82	26473.80
441.01	26064.21
441.19	26199.96
441.38	26824.88
441.57	27660.45
441.75	27946.00
441.94	28283.03
442.12	27644.07
442.31	28676.24
442.50	28032.60
442.68	27960.04
442.87	27805.56
443.05	27030.85
443.24	27714.28
443.43	28322.82
443.61	29027.32
443.80	29472.03
443.98	27068.30
444.17	27337.46
444.35	28734.76
444.54	29935.45
444.73	29125.63
444.91	28222.18
445.10	27253.20
445.28	25563.33
445.47	25252.04
445.65	25752.91
445.84	26235.06
446.02	27178.30
446.21	27580.87
446.39	27688.54
446.58	27906.21
446.77	28517.09
446.95	28706.67
447.14	29350.32
447.32	29324.57
447.51	29247.33
447.69	28004.51
447.88	28114.52
448.06	28229.20
448.25	28936.04
448.43	29003.92
448.62	28430.49
448.80	28411.76
448.99	28716.03
449.17	29057.75
449.36	28856.46
449.54	30033.75
449.73	30621.23
449.91	31075.29
450.10	31859.37
450.28	31950.65
450.46	31693.19
450.65	32109.81
450.83	31115.08
451.02	30749.96
451.20	31012.10
451.39	30532.29
451.57	30572.08
451.76	30483.14
451.94	30335.68
452.13	29497.77
452.31	28467.94
452.49	27068.30
452.68	27676.83
452.86	27583.21
453.05	27697.90
453.23	28404.74
453.42	29586.71
453.60	29916.73
453.78	30050.14
453.97	29841.83
454.15	30045.46
454.34	29394.79
454.52	29600.76
454.70	28774.55
454.89	29237.97
455.07	29551.60
455.26	29881.62
455.44	30682.08
455.62	31618.30
455.81	31615.96
455.99	31402.97
456.17	31110.40
456.36	31222.75
456.54	31983.42
456.73	31943.63
456.91	32554.51
457.09	32287.69
457.28	33443.91
457.46	31730.64
457.64	31667.45
457.83	30895.07
458.01	29970.56
458.19	30768.68
458.38	31204.02
458.56	32250.24
458.74	32353.23
458.93	31285.94
459.11	31391.26
459.29	30988.69
459.48	31407.65
459.66	30871.67
459.84	31611.28
460.03	31871.07
460.21	31653.40
460.39	32240.88
460.57	32608.34
460.76	32676.22
460.94	32971.13
461.12	32135.56
461.31	32837.72
461.49	32596.64
461.67	32713.67
461.85	33596.05
462.04	33511.79
462.22	33406.47
462.40	33638.18
462.59	33694.35
462.77	33188.80
462.95	33453.28
463.13	33156.03
463.32	32856.44
463.50	32371.95
463.68	32400.04
463.86	32643.45
464.05	32105.13
464.23	31414.67
464.41	31424.03
464.59	30560.37
464.78	32519.40
464.96	32364.93
465.14	31737.66
465.32	32620.05
465.50	33071.77
465.69	33689.67
465.87	33151.35
466.05	32077.04
466.23	30785.07
466.41	29951.84
466.60	31337.43
466.78	31302.32
466.96	31814.90
467.14	32025.55
467.32	32425.78
467.51	32683.24
467.69	31030.82
467.87	31674.47
468.05	32374.29
468.23	32671.54
468.41	32224.50
468.60	32631.75
468.78	32582.60
468.96	32023.21
469.14	33034.32
469.32	32910.27
469.50	31747.03
469.69	31552.76
469.87	31351.48
470.05	31192.32
470.23	31370.20
470.41	31587.87
470.59	31908.52
470.77	32077.04
470.95	32519.40
471.14	33216.88
471.32	32999.21
471.50	34766.32
471.68	35311.66
471.86	35115.06
472.04	35321.02
472.22	35686.15
472.40	33443.91
472.58	33345.61
472.77	32943.04
472.95	33823.08
473.13	34806.11
473.31	33441.57
473.49	34242.04
473.67	34890.37
473.85	35138.46
474.03	35695.51
474.21	35864.03
474.39	36458.52
474.57	36781.52
474.75	36187.02
474.93	36161.28
475.12	35117.40
475.30	35370.18
475.48	35564.44
475.66	36168.30
475.84	35330.39
476.02	35182.93
476.20	34684.40
476.38	35440.39
476.56	36472.57
476.74	36601.30
476.92	37453.25
477.10	37483.68
477.28	38396.49
477.46	38749.91
477.64	39168.87
477.82	38843.53
478.00	39255.46
478.18	38689.06
478.36	38581.39
478.54	38740.55
478.72	39058.86
478.90	39768.04
479.08	40973.42
479.26	41741.11
479.44	41057.68
479.62	40655.11
479.80	40982.78
479.98	41783.24
480.16	41504.72
480.34	40835.33
480.52	41450.89
480.70	41722.39
480.88	41483.66
481.06	42239.65
481.24	42663.28
481.41	43632.27
481.59	44032.50
481.77	43641.63
481.95	43335.02
482.13	42897.34
482.31	43309.27
482.49	44034.84
482.67	43115.01
482.85	44163.57
483.03	44467.84
483.21	45001.48
483.39	45095.10
483.57	44254.85
483.74	43765.68
483.92	44074.63
484.10	44233.78
484.28	45666.19
484.46	45972.80
484.64	46335.59
484.82	45043.61
485.00	44390.60
485.18	43849.94
485.35	42469.02
485.53	39728.25
485.71	36603.64
485.89	35517.63
486.07	37394.74
486.25	40802.56
486.43	43119.69
486.61	43753.97
486.78	43494.18
486.96	43672.06
487.14	45703.64
487.32	46279.41
487.50	47489.47
487.68	48205.67
487.85	49066.99
488.03	48846.98
488.21	48512.28
488.39	47702.46
488.57	47000.30
488.75	46557.94
488.92	48102.69
489.10	50251.30
489.28	51643.92
489.46	52093.30
489.64	52023.09
489.81	52137.77
489.99	51833.50
490.17	51999.68
490.35	52376.51
490.53	51952.87
490.70	51267.09
490.88	51351.35
491.06	52385.87
491.24	52383.53
491.41	51379.44
491.59	49600.63
491.77	48563.78
491.95	49986.82
492.13	50770.90
492.30	52114.37
492.48	53209.74
492.66	53649.76
492.84	53523.37
493.01	53794.87
493.19	52818.87
493.37	52395.23
493.54	52327.36
493.72	53111.44
493.90	54054.67
494.08	54513.42
494.25	55140.68
494.43	55236.64
494.61	55491.76
494.79	55819.44
494.96	55529.21
495.14	54824.71
495.32	53972.75
495.49	53549.12
495.67	54454.90
495.85	55927.10
496.02	55997.32
496.20	56065.19
496.38	55590.06
496.55	55416.86
496.73	55955.19
496.91	55922.42
497.09	56760.33
497.26	56727.56
497.44	56011.36
497.62	55636.87
497.79	54798.96
497.97	53633.38
498.14	53708.27
498.32	54920.67
498.50	55913.06
498.67	56463.08
498.85	56317.97
499.03	56320.31
499.20	56655.01
499.38	56844.59
499.56	56470.11
499.73	55835.82
499.91	55950.51
500.08	55337.29
500.26	54501.71
500.44	54862.16
500.61	55674.32
500.79	55545.59
500.97	55011.95
501.14	54738.11
501.32	54768.54
501.49	54857.48
501.67	55028.34
501.84	55461.33
502.02	55660.28
502.20	56200.94
502.37	56264.14
502.55	56505.21
502.72	56898.42
502.90	57237.80
503.07	56992.04
503.25	56762.67
503.43	55599.43
503.60	54920.67
503.78	54124.89
503.95	55009.61
504.13	56303.93
504.30	57151.20
504.48	56865.66
504.65	56727.56
504.83	56491.17
505.01	57279.93
505.18	57481.22
505.36	58152.95
505.53	58108.48
505.71	58288.70
505.88	58419.77
506.06	57741.02
506.23	57460.15
506.41	56926.51
506.58	57481.22
506.76	57375.89
506.93	57382.91
507.11	56945.23
507.28	57258.87
507.46	56655.01
507.63	56102.64
507.81	55929.44
507.98	56133.07
508.16	57010.77
508.33	57528.03
508.50	57790.17
508.68	58054.65
508.85	58356.58
509.03	58525.10
509.20	58403.39
509.38	57851.02
509.55	56856.29
509.73	57003.75
509.90	57619.31
510.08	57858.04
510.25	57745.70
510.42	57448.45
510.60	57553.77
510.77	57682.50
510.95	58124.86
511.12	58412.75
511.30	58724.04
511.47	58803.62
511.64	58876.18
511.82	58595.31
511.99	57918.90
512.17	57523.35
512.34	57001.41
512.51	57205.03
512.69	57415.68
512.86	57352.49
513.04	57872.09
513.21	57862.72
513.38	57453.13
513.56	57095.03
513.73	56540.32
513.90	56552.02
514.08	56659.69
514.25	56788.42
514.43	57153.54
514.60	57396.96
514.77	57212.06
514.95	57609.95
515.12	57298.65
515.29	57631.01
515.47	58005.50
515.64	58527.44
515.81	57792.51
515.99	57511.64
516.16	56032.42
516.33	53649.76
516.51	52203.31
516.68	51246.03
516.85	50759.20
517.03	51192.20
517.20	54167.02
517.37	56500.53
517.54	57656.76
517.72	57090.35
517.89	54944.08
518.06	52105.01
518.24	52456.09
518.41	54508.74
518.58	56186.90
518.75	56289.88
518.93	56535.64
519.10	56275.84
519.27	56851.61
519.45	57024.81
519.62	57815.91
519.79	58017.20
519.96	57698.89
520.14	57439.09
520.31	56601.18
520.48	56460.74
520.65	56919.49
520.83	57968.05
521.00	58230.19
521.17	57921.24
521.34	57478.88
521.52	57801.87
521.69	58349.56
521.86	58728.72
522.03	58305.09
522.20	57256.53
522.38	56322.65
522.55	56336.69
522.72	56903.10
522.89	57003.75
523.07	57399.30
523.24	57521.01
523.41	58218.49
523.58	58731.06
523.75	59047.04
523.92	58724.04
524.10	58775.53
524.27	58859.79
524.44	58567.23
524.61	58464.24
524.78	58178.70
524.96	58071.03
525.13	58199.76
525.30	58436.16
525.47	59000.22
525.64	59023.63
525.81	58099.12
525.98	56577.77
526.16	55318.56
526.33	54490.01
526.50	53979.78
526.67	53956.37
526.84	54337.88
527.01	55416.86
527.18	56200.94
527.36	57155.88
527.53	58059.33
527.70	57993.79
527.87	57858.04
528.04	57373.55
528.21	57865.06
528.38	58569.57
528.55	58969.80
528.72	59143.00
528.89	59444.93
529.07	59075.12
529.24	58525.10
529.41	57897.83
529.58	57223.76
529.75	57502.28
529.92	57972.73
530.09	58590.63
530.26	58752.13
530.43	58951.07
530.60	59065.76
530.77	59348.96
530.94	59224.92
531.11	59082.14
531.28	58679.57
531.46	58344.87
531.63	58487.65
531.80	58511.05
531.97	57930.60
532.14	57382.91
532.31	56065.19
532.48	55742.20
532.65	55793.69
532.82	56488.83
532.99	57677.82
533.16	57893.15
533.33	58459.56
533.50	58445.52
533.67	57666.12
533.84	56956.94
534.01	57394.62
534.18	57455.47
534.35	57771.44
534.52	57656.76
534.69	57923.58
534.86	58129.54
535.03	58422.11
535.20	59164.06
535.37	59318.54
535.54	59346.62
535.71	59100.87
535.88	58504.03
536.05	58157.63
536.22	57631.01
536.38	57375.89
536.55	57106.73
536.72	56222.01
536.89	56243.07
537.06	57240.14
537.23	58052.31
537.40	58115.50
537.57	58061.67
537.74	57968.05
537.91	57942.30
538.08	57822.93
538.25	58021.88
538.42	57827.62
538.59	57738.68
538.75	57394.62
538.92	56966.30
539.09	56830.55
539.26	56598.83
539.43	56507.55
539.60	56727.56
539.77	56786.08
539.94	56896.08
540.11	55899.01
540.28	55253.03
540.44	55484.74
540.61	55817.10
540.78	55945.83
540.95	56353.08
541.12	56886.72
541.29	57230.78
541.46	57326.74
541.62	57415.68
541.79	57132.48
541.96	56605.86
542.13	56912.47
542.30	57013.11
542.47	57080.98
542.63	56856.29
542.80	56673.73
542.97	56802.46
543.14	56626.92
543.31	56713.52
543.48	57158.22
543.64	58127.20
543.81	58197.42
543.98	58120.18
544.15	57394.62
544.32	56708.84
544.48	56853.95
544.65	57469.51
544.82	57750.38
544.99	57354.83
545.16	57062.26
545.32	56552.02
545.49	57511.64
545.66	57834.64
545.83	57518.67
546.00	57411.00
546.16	56825.87
546.33	57109.07
546.50	56924.17
546.67	57485.90
546.83	56877.36
547.00	57024.81
547.17	55922.42
547.34	55711.77
547.50	55416.86
547.67	56112.00
547.84	56102.64
548.00	56760.33
548.17	56987.36
548.34	56900.76
548.51	56900.76
548.67	56818.84
548.84	57092.69
549.01	56617.56
549.18	57055.24
549.34	56769.69
549.51	56788.42
549.68	56743.95
549.84	56545.00
550.01	56486.49
550.18	56254.78
550.34	56355.42
550.51	56493.51
550.68	56486.49
550.84	56055.83
551.01	56156.47
551.18	55875.61
551.34	56200.94
551.51	56743.95
551.68	57043.54
551.84	56896.08
552.01	56615.22
552.18	56598.83
552.34	55831.14
552.51	55508.14
552.68	55234.30
552.84	55796.03
553.01	56191.58
553.18	55922.42
553.34	56041.79
553.51	56252.44
553.67	56514.58
553.84	56594.15
554.01	56537.98
554.17	56039.45
554.34	56226.69
554.51	56416.27
554.67	56823.53
554.84	56666.71
555.00	56418.61
555.17	55913.06
555.33	56083.92
555.50	55966.89
555.67	56025.40
555.83	55625.17
556.00	55536.23
556.16	55566.66
556.33	55175.79
556.50	54988.55
556.66	55063.44
556.83	54691.30
556.99	54969.82
557.16	54885.56
557.32	55215.58
557.49	55531.55
557.65	55440.27
557.82	55391.12
557.98	55372.39
558.15	54700.66
558.32	54054.67
558.48	53352.51
558.65	53043.56
558.81	53659.12
558.98	53801.89
559.14	54160.00
559.31	54185.74
559.47	54342.56
559.64	53977.43
559.80	53396.98
559.97	53727.00
560.13	54251.28
560.30	54834.07
560.46	55353.67
560.63	55786.67
560.79	55721.13
560.96	55304.52
561.12	54504.06
561.29	53514.01
561.45	53418.05
561.61	54049.99
561.78	54429.16
561.94	54295.75
562.11	54068.72
562.27	54045.31
562.44	54333.20
562.60	54693.64
562.77	54656.19
562.93	55023.65
563.10	54593.00
563.26	53872.11
563.42	54174.04
563.59	53876.79
563.75	54000.84
563.92	53972.75
564.08	53932.96
564.24	54040.63
564.41	54162.34
564.57	54447.88
564.74	53853.39
564.90	53998.50
565.07	53598.27
565.23	53155.91
565.39	52877.38
565.56	52348.42
565.72	51922.44
565.88	52463.11
566.05	52678.44
566.21	52973.34
566.38	53284.64
566.54	53263.57
566.70	53439.11
566.87	53829.98
567.03	53879.13
567.19	53989.14
567.36	53815.94
567.52	53406.34
567.68	53387.62
567.85	52622.26
568.01	52189.27
568.17	51945.85
568.34	51957.55
568.50	51922.44
568.66	51882.66
568.83	52683.12
568.99	52526.30
569.15	52849.30
569.32	52669.08
569.48	52418.64
569.64	51959.89
569.81	52254.80
569.97	51746.90
570.13	51594.77
570.30	51058.79
570.46	50810.69
570.62	50073.42
570.78	50066.40
570.95	50047.68
571.11	50745.15
571.27	51484.76
571.43	51697.75
571.60	51779.67
571.76	52140.11
571.92	52575.45
572.09	52397.57
572.25	52416.30
572.41	52453.75
572.57	52191.61
572.74	52236.08
572.90	51929.47
573.06	51650.94
573.22	52002.02
573.38	51728.18
573.55	51845.21
573.71	52109.69
573.87	51676.69
574.03	51587.75
574.20	51636.90
574.36	51121.98
574.52	51187.52
574.68	51072.83
574.84	50644.51
575.01	50241.94
575.17	49762.13
575.33	49893.20
575.49	50621.11
575.65	50728.77
575.82	50515.78
575.98	50337.90
576.14	50595.36
576.30	50815.37
576.46	50887.93
576.62	50864.52
576.79	50735.79
576.95	50426.84
577.11	50534.51
577.27	50550.89
577.43	50775.58
577.59	50000.86
577.75	49940.01
577.92	49031.88
578.08	48800.17
578.24	48605.91
578.40	49027.20
578.56	49523.40
578.72	49787.88
578.88	49602.97
579.04	49593.61
579.21	50021.93
579.37	50012.57
579.53	50337.90
579.69	49935.33
579.85	50557.91
580.01	49869.79
580.17	49598.29
580.33	49649.78
580.49	49776.17
580.65	49860.43
580.82	50506.42
580.98	49848.73
581.14	49911.92
581.30	50110.87
581.46	49675.53
581.62	50141.30
581.78	50223.22
581.94	50459.61
582.10	50028.95
582.26	50284.07
582.42	50162.36
582.58	50431.52
582.74	49727.02
582.90	50131.93
583.06	50204.49
583.22	49806.60
583.38	49914.26
583.54	49595.95
583.70	49712.98
583.86	49811.28
584.02	50052.36
584.18	50085.12
584.34	49507.01
584.50	49469.56
584.66	49457.86
584.82	48697.19
584.98	48793.15
585.14	48332.06
585.30	47742.25
