SpectraSuite Data File
++++++++++++++++++++++++++++++++++++
Date: Mon Oct 07 14:53:21 GMT-05:00 2013
User: price-jones
Dark Spectrum Present: No
Reference Spectrum Present: No
Number of Sampled Component Spectra: 1
Spectrometers: USB2+H05261
Integration Time (usec): 100000 (USB2+H05261)
Spectra Averaged: 1 (USB2+H05261)
Boxcar Smoothing: 0 (USB2+H05261)
Correct for Electrical Dark: No (USB2+H05261)
Strobe/Lamp Enabled: No (USB2+H05261)
Correct for Detector Non-linearity: No (USB2+H05261)
Correct for Stray Light: No (USB2+H05261)
Number of Pixels in Processed Spectrum: 2048
>>>>>Begin Processed Spectral Data<<<<<
365.73	0.00
365.92	0.00
366.12	0.00
366.32	0.00
366.52	0.00
366.72	0.00
366.91	0.00
367.11	0.00
367.31	0.00
367.51	0.00
367.70	0.00
367.90	0.00
368.10	0.00
368.30	0.00
368.49	0.00
368.69	0.00
368.89	0.00
369.09	0.00
369.28	0.00
369.48	0.00
369.68	0.00
369.87	0.00
370.07	0.00
370.27	0.00
370.47	557.05
370.66	2773.53
370.86	3218.24
371.06	3536.55
371.25	3674.64
371.45	3300.16
371.65	2937.37
371.84	2785.24
372.04	2995.89
372.24	3236.96
372.44	3358.67
372.63	3307.18
372.83	3070.78
373.03	2787.58
373.22	2513.74
373.42	2733.75
373.62	3105.89
373.81	3361.01
374.01	3419.52
374.21	3061.42
374.40	2670.55
374.60	2995.89
374.79	3290.79
374.99	3803.37
375.19	4203.60
375.38	4322.97
375.58	3927.42
375.78	3833.80
375.97	3737.84
376.17	4081.89
376.37	4102.96
376.56	4180.20
376.76	4372.12
376.95	4723.20
377.15	5078.96
377.35	5156.20
377.54	5282.59
377.74	5453.45
377.93	5495.58
378.13	5310.68
378.33	5090.67
378.52	4664.69
378.72	4507.87
378.91	4430.63
379.11	4329.99
379.31	4208.28
379.50	4142.75
379.70	4566.39
379.89	5085.98
380.09	5479.19
380.28	5387.91
380.48	5376.21
380.68	5310.68
380.87	5273.23
381.07	4943.21
381.26	4491.49
381.46	4210.62
381.65	3960.19
381.85	4007.00
382.04	3707.41
382.24	3468.67
382.43	3274.41
382.63	3417.18
382.83	3386.76
383.02	3262.71
383.22	3180.79
383.41	3253.34
383.61	3494.42
383.80	4016.36
384.00	4564.04
384.19	5004.07
384.39	5488.56
384.58	5380.89
384.78	5071.94
384.97	5212.37
385.17	4889.38
385.36	4699.80
385.56	4599.15
385.75	4613.20
385.95	5067.26
386.14	5345.78
386.34	5563.45
386.53	5343.44
386.72	4837.89
386.92	5022.79
387.11	5327.06
387.31	5446.43
387.50	5378.55
387.70	5408.98
387.89	5111.73
388.09	5191.31
388.28	5385.57
388.48	5341.10
388.67	5750.70
388.86	6228.17
389.06	6621.38
389.25	7096.50
389.45	7089.48
389.64	7178.42
389.84	7246.30
390.03	6993.52
390.22	7035.65
390.42	7272.04
390.61	7833.77
390.81	8304.22
391.00	8140.38
391.19	8128.68
391.39	8107.62
391.58	7552.91
391.78	6913.94
391.97	6890.54
392.16	6551.16
392.36	5898.15
392.55	4690.43
392.75	3716.77
392.94	3155.04
393.13	3075.46
393.33	3515.48
393.52	4613.20
393.71	5558.77
393.91	6389.66
394.10	6927.99
394.29	7466.31
394.49	8016.33
394.68	8767.65
394.88	8842.54
395.07	8980.64
395.26	8966.59
395.46	8748.92
395.65	8329.97
395.84	7185.44
396.04	6164.97
396.23	4901.08
396.42	4180.20
396.62	3801.03
396.81	4615.54
397.00	5930.92
397.19	7445.24
397.39	8638.92
397.58	9785.78
397.77	10455.17
397.97	10890.51
398.16	11021.58
398.35	11309.47
398.55	11824.39
398.74	12404.84
398.93	12601.44
399.12	12180.15
399.32	11508.41
399.51	11971.84
399.70	12884.65
399.90	12723.15
400.09	12894.01
400.28	12732.51
400.47	12613.15
400.67	13504.89
400.86	13830.23
401.05	13708.52
401.24	13877.04
401.44	14052.58
401.63	14012.79
401.82	14061.94
402.01	13947.25
402.21	14033.85
402.40	14242.16
402.59	13855.97
402.78	13336.37
402.97	12886.99
403.17	13532.98
403.36	14340.46
403.55	14839.00
403.74	15239.23
403.93	14366.21
404.13	13198.28
404.32	13055.51
404.51	13523.62
404.70	14537.07
404.89	14539.41
405.09	14508.98
405.28	13984.70
405.47	13750.65
405.66	13872.36
405.85	13659.37
406.05	13413.61
406.24	13298.92
406.43	14178.97
406.62	14733.67
406.81	14801.55
407.00	14143.86
407.20	13764.69
407.39	13621.92
407.58	14466.85
407.77	15133.90
407.96	15438.17
408.15	15885.22
408.34	15971.82
408.54	16517.16
408.73	16643.55
408.92	16318.22
409.11	16189.49
409.30	15459.24
409.49	13951.93
409.68	13308.29
409.87	12938.48
410.07	13530.64
410.26	14932.62
410.45	15864.15
410.64	16294.81
410.83	16416.52
411.02	16996.97
411.21	17525.93
411.40	17390.18
411.59	17324.65
411.78	17511.89
411.98	17287.20
412.17	17877.01
412.36	16882.28
412.55	17191.23
412.74	16886.97
412.93	16304.17
413.12	16592.06
413.31	18043.19
413.50	18235.11
413.69	18773.44
413.88	17813.82
414.07	17329.33
414.26	17844.24
414.45	18541.72
414.64	18141.49
414.83	18396.61
415.02	17940.21
415.22	18263.20
415.41	18434.06
415.60	18892.80
415.79	19873.49
415.98	20180.10
416.17	20257.34
416.36	19522.41
416.55	19726.04
416.74	18750.03
416.93	18054.89
417.12	17923.82
417.31	18438.74
417.50	18883.44
417.69	19290.70
417.88	19309.42
418.07	18986.43
418.26	18686.84
418.45	18925.57
418.64	19728.38
418.83	20365.00
419.02	20161.37
419.21	20205.84
419.39	18768.76
419.58	18115.75
419.77	18239.79
419.96	19000.47
420.15	20332.23
420.34	20718.42
420.53	21420.58
420.72	21617.19
420.91	21642.93
421.10	21212.28
421.29	21167.80
421.48	20702.04
421.67	21343.35
421.86	20767.57
422.05	19531.77
422.24	17504.87
422.43	17135.06
422.61	19201.76
422.80	20446.92
422.99	20849.49
423.18	19901.58
423.37	19473.26
423.56	19501.34
423.75	20107.54
423.94	20086.48
424.13	19124.52
424.32	19449.85
424.50	19569.22
424.69	19281.33
424.88	19208.78
425.07	19218.14
425.26	18998.13
425.45	18759.39
425.64	18595.56
425.83	18539.38
426.01	19887.53
426.20	20135.63
426.39	20233.93
426.58	18855.36
426.77	17081.23
426.96	16716.11
427.15	17603.17
427.33	18719.60
427.52	19501.34
427.71	19679.22
427.90	19269.63
428.09	19225.16
428.28	18862.38
428.46	18045.53
428.65	17729.56
428.84	18391.93
429.03	18544.06
429.22	17633.60
429.40	16683.34
429.59	15056.67
429.78	13116.36
429.97	13298.92
430.16	13186.58
430.34	13708.52
430.53	13638.30
430.72	14066.62
430.91	15697.97
431.10	18085.32
431.28	21479.10
431.47	23234.50
431.66	23346.84
431.85	20999.29
432.03	19653.48
432.22	18541.72
432.41	19105.79
432.60	21549.31
432.79	22494.89
432.97	22869.37
433.16	22396.59
433.35	20243.29
433.54	18593.22
433.72	17350.39
433.91	17912.12
434.10	19735.40
434.28	21479.10
434.47	22668.09
434.66	22136.79
434.85	22038.48
435.03	21249.72
435.22	21979.97
435.41	23410.04
435.59	23353.87
435.78	23491.96
435.97	23871.12
436.16	24545.20
436.34	24013.90
436.53	23466.21
436.72	23676.86
436.90	22405.95
437.09	22335.73
437.28	21820.81
437.46	22785.12
437.65	22640.00
437.84	20996.95
438.02	19199.41
438.21	19204.10
438.40	20276.06
438.58	22347.44
438.77	22679.79
438.96	22817.88
439.14	23658.14
439.33	24765.21
439.52	24418.81
439.70	24226.89
439.89	23646.43
440.08	22794.48
440.26	22927.89
440.45	23506.00
440.63	25310.55
440.82	27023.83
441.01	26199.96
441.19	25727.17
441.38	26129.74
441.57	27440.44
441.75	28048.98
441.94	27779.82
442.12	28039.62
442.31	28226.86
442.50	27896.85
442.68	27894.50
442.87	27557.47
443.05	27276.60
443.24	27660.45
443.43	28144.94
443.61	28460.91
443.80	29034.35
443.98	27201.71
444.17	27552.79
444.35	28837.74
444.54	29036.69
444.73	28472.62
444.91	27793.86
445.10	26670.40
445.28	25645.25
445.47	25310.55
445.65	25717.81
445.84	26206.98
446.02	27159.58
446.21	27122.13
446.39	27644.07
446.58	27697.90
446.77	28336.87
446.95	28481.98
447.14	29326.91
447.32	29797.36
447.51	29132.65
447.69	27819.61
447.88	27938.97
448.06	28081.75
448.25	28819.02
448.43	28795.61
448.62	28489.00
448.80	28364.95
448.99	28531.13
449.17	28643.48
449.36	28709.01
449.54	29823.11
449.73	30096.95
449.91	30721.87
450.10	31704.90
450.28	31927.25
450.46	31491.91
450.65	31845.33
450.83	31452.12
451.02	30658.68
451.20	30728.89
451.39	30480.80
451.57	30714.85
451.76	30272.49
451.94	30256.11
452.13	29652.25
452.31	28156.64
452.49	26841.26
452.68	27250.86
452.86	27531.72
453.05	27709.60
453.23	28692.63
453.42	29359.68
453.60	29874.60
453.78	30316.96
453.97	29853.53
454.15	30050.14
454.34	29151.37
454.52	29710.76
454.70	28922.00
454.89	29134.99
455.07	29099.88
455.26	29942.47
455.44	31168.91
455.62	31321.05
455.81	31683.83
455.99	31426.37
456.17	30808.47
456.36	31283.60
456.54	31683.83
456.73	31814.90
456.91	32304.07
457.09	32606.00
457.28	33233.27
457.46	31740.00
457.64	31803.20
457.83	30768.68
458.01	30171.85
458.19	30899.75
458.38	30836.56
458.56	31915.54
458.74	31796.18
458.93	31613.62
459.11	31175.94
459.29	31236.79
459.48	31028.48
459.66	30590.80
459.84	31428.71
460.03	31639.36
460.21	31796.18
460.39	32435.14
460.57	32151.94
460.76	33179.43
460.94	32760.48
461.12	32655.15
461.31	32610.68
461.49	32741.75
461.67	32491.32
461.85	33731.80
462.04	33022.62
462.22	33834.78
462.40	33572.64
462.59	33305.82
462.77	33502.43
462.95	33120.92
463.13	33261.35
463.32	32725.37
463.50	32484.30
463.68	32854.10
463.86	32692.60
464.05	31840.65
464.23	31569.15
464.41	31473.18
464.59	31000.40
464.78	32367.27
464.96	32425.78
465.14	32006.83
465.32	32723.03
465.50	33500.09
465.69	33577.33
465.87	32966.45
466.05	32091.09
466.23	30728.89
466.41	30270.15
466.60	31243.81
466.78	31229.77
466.96	32144.92
467.14	32123.85
467.32	32627.07
467.51	32737.07
467.69	31117.42
467.87	31548.08
468.05	32439.82
468.23	32194.07
468.41	32428.12
468.60	32198.75
468.78	32666.86
468.96	32142.58
469.14	32826.01
469.32	33488.38
469.50	31831.29
469.69	31871.07
469.87	31522.34
470.05	31295.30
470.23	31201.68
470.41	31211.04
470.59	31941.29
470.77	32081.72
470.95	32517.06
471.14	33565.62
471.32	33273.06
471.50	35070.59
471.68	35456.78
471.86	35138.46
472.04	35538.69
472.22	35751.68
472.40	34082.88
472.58	34160.12
472.77	33514.13
472.95	33853.51
473.13	34665.67
473.31	33783.29
473.49	34288.85
473.67	34838.87
473.85	34829.51
474.03	35742.32
474.21	35924.88
474.39	36051.27
474.57	36257.24
474.75	36282.98
474.93	36247.88
475.12	35054.20
475.30	35243.79
475.48	35536.35
475.66	35826.58
475.84	35718.92
476.02	35281.24
476.20	34323.96
476.38	35716.58
476.56	36561.51
476.74	37221.54
476.92	37092.81
477.10	37319.84
477.28	38873.96
477.46	38323.93
477.64	39529.31
477.82	39529.31
478.00	39742.30
478.18	39105.67
478.36	38405.85
478.54	38295.85
478.72	38885.66
478.90	39438.03
479.08	41221.52
479.26	41556.21
479.44	41017.89
479.62	41015.55
479.80	41191.09
479.98	41055.34
480.16	41940.06
480.34	41036.61
480.52	41537.49
480.70	42153.05
480.88	41790.27
481.06	42944.15
481.24	42754.57
481.41	43842.92
481.59	44208.04
481.77	44442.09
481.95	43665.03
482.13	43344.38
482.31	43372.47
482.49	43990.37
482.67	43828.87
482.85	44013.77
483.03	44865.73
483.21	45460.23
483.39	44823.60
483.57	44245.49
483.74	44126.12
483.92	44399.96
484.10	44488.90
484.28	45680.24
484.46	45689.60
484.64	46579.00
484.82	45406.39
485.00	45113.83
485.18	43768.02
485.35	43068.20
485.53	39730.59
485.71	36601.30
485.89	35667.42
486.07	37755.18
486.25	40905.54
486.43	42747.54
486.61	43854.62
486.78	43990.37
486.96	44186.97
487.14	45745.77
487.32	46373.03
487.50	47585.43
487.68	48779.10
487.85	49099.76
488.03	48739.32
488.21	48467.81
488.39	47988.00
488.57	46834.12
488.75	46918.38
488.92	48037.16
489.10	50138.96
489.28	51470.72
489.46	52577.79
489.64	52231.40
489.81	52481.83
489.99	52067.56
490.17	51997.34
490.35	52364.81
490.53	52076.92
490.70	51487.10
490.88	51309.22
491.06	52633.97
491.24	52584.82
491.41	51494.13
491.59	49584.25
491.77	48507.60
491.95	49996.18
492.13	51414.55
492.30	52568.43
492.48	53464.86
492.66	54033.61
492.84	54068.72
493.01	53607.63
493.19	53172.29
493.37	53020.16
493.54	52463.11
493.72	53298.68
493.90	54347.24
494.08	54981.52
494.25	55178.13
494.43	55657.94
494.61	56079.24
494.79	56046.47
494.96	55718.79
495.14	54958.12
495.32	53963.39
495.49	53387.62
495.67	54480.65
495.85	55852.20
496.02	56332.01
496.20	56151.79
496.38	55847.52
496.55	55505.80
496.73	56123.71
496.91	56224.35
497.09	57036.51
497.26	56999.07
497.44	56413.93
497.62	55882.63
497.79	55320.90
497.97	53972.75
498.14	53914.24
498.32	55248.35
498.50	56282.86
498.67	56559.05
498.85	56643.30
499.03	56790.76
499.20	56987.36
499.38	56956.94
499.56	56722.88
499.73	56172.86
499.91	55955.19
500.08	55456.65
500.26	54504.06
500.44	55236.64
500.61	55763.26
500.79	55594.74
500.97	55325.58
501.14	55192.17
501.32	54923.01
501.49	54857.48
501.67	55269.41
501.84	55671.98
502.02	56020.72
502.20	56289.88
502.37	56397.55
502.55	56498.19
502.72	57202.69
502.90	57483.56
503.07	57216.74
503.25	56877.36
503.43	55971.57
503.60	55395.80
503.78	54499.37
503.95	55229.62
504.13	56708.84
504.30	57242.48
504.48	56973.32
504.65	56818.84
504.83	56786.08
505.01	57553.77
505.18	57914.22
505.36	58440.84
505.53	58672.55
505.71	58724.04
505.88	58574.25
506.06	58155.29
506.23	57560.79
506.41	57329.08
506.58	57888.47
506.76	57551.43
506.93	57556.11
507.11	57502.28
507.28	57485.90
507.46	56978.00
507.63	56425.64
507.81	56133.07
507.98	56420.95
508.16	57169.93
508.33	57513.98
508.50	57928.26
508.68	58337.85
508.85	58728.72
509.03	58803.62
509.20	58354.24
509.38	57930.60
509.55	57242.48
509.73	57052.90
509.90	57794.85
510.08	58134.23
510.25	58049.97
510.42	57677.82
510.60	57783.15
510.77	58054.65
510.95	58543.82
511.12	58663.19
511.30	58925.33
511.47	59089.16
511.64	59093.85
511.82	58731.06
511.99	58152.95
512.17	57565.48
512.34	57233.12
512.51	57350.15
512.69	57694.21
512.86	57743.36
513.04	58181.04
513.21	58099.12
513.38	57595.90
513.56	57214.40
513.73	56905.44
513.90	56830.55
514.08	57104.39
514.25	57167.58
514.43	57733.99
514.60	57584.20
514.77	57822.93
514.95	58007.84
515.12	57757.40
515.29	57935.28
515.47	58342.53
515.64	58646.80
515.81	58255.93
515.99	57448.45
516.16	56191.58
516.33	53928.28
516.51	52631.63
516.68	51557.32
516.85	51061.13
517.03	51573.70
517.20	54630.44
517.37	56823.53
517.54	57862.72
517.72	57230.78
517.89	54813.01
518.06	52542.69
518.24	52935.90
518.41	54990.89
518.58	56456.06
518.75	56570.75
518.93	56732.25
519.10	56938.21
519.27	56978.00
519.45	57200.35
519.62	58082.73
519.79	58445.52
519.96	58134.23
520.14	57698.89
520.31	56741.61
520.48	56924.17
520.65	57289.29
520.83	58272.32
521.00	58581.27
521.17	58239.55
521.34	58049.97
521.52	58087.42
521.69	58667.87
521.86	59157.04
522.03	58714.68
522.20	57614.63
522.38	56757.99
522.55	56629.26
522.72	57125.46
522.89	57490.58
523.07	57794.85
523.24	57946.98
523.41	58897.24
523.58	59063.42
523.75	59330.24
523.92	59295.13
524.10	59040.01
524.27	59311.52
524.44	58965.12
524.61	58805.96
524.78	58611.70
524.96	58583.61
525.13	58763.83
525.30	58934.69
525.47	59283.43
525.64	59236.62
525.81	58639.78
525.98	57186.31
526.16	55641.56
526.33	55054.08
526.50	54602.36
526.67	54017.22
526.84	54918.33
527.01	56016.04
527.18	56633.94
527.36	57656.76
527.53	58546.16
527.70	58719.36
527.87	58216.14
528.04	57790.17
528.21	58174.02
528.38	58649.14
528.55	59475.35
528.72	59662.60
528.89	59774.94
529.07	59601.74
529.24	59063.42
529.41	58440.84
529.58	57635.69
529.75	58017.20
529.92	58438.50
530.09	58534.46
530.26	59215.55
530.43	59580.68
530.60	59168.74
530.77	59618.13
530.94	59714.09
531.11	59480.03
531.28	58951.07
531.46	58754.47
531.63	59274.07
531.80	58930.01
531.97	58354.24
532.14	57612.29
532.31	56584.79
532.48	56266.48
532.65	55891.99
532.82	56821.19
532.99	57897.83
533.16	58372.96
533.33	58789.58
533.50	58508.71
533.67	57991.45
533.84	57602.92
534.01	57925.92
534.18	58026.56
534.35	58066.35
534.52	57879.11
534.69	58506.37
534.86	58752.13
535.03	59002.56
535.20	59147.68
535.37	59753.88
535.54	59700.04
535.71	59468.33
535.88	59210.87
536.05	58239.55
536.22	57815.91
536.38	57780.81
536.55	57411.00
536.72	56928.85
536.89	56844.59
537.06	57794.85
537.23	58569.57
537.40	58702.98
537.57	58719.36
537.74	58473.60
537.91	58328.49
538.08	58204.44
538.25	58241.89
538.42	58567.23
538.59	58262.96
538.75	57799.53
538.92	57535.05
539.09	57272.91
539.26	57048.22
539.43	57052.90
539.60	57223.76
539.77	57113.75
539.94	57179.29
540.11	56278.18
540.28	55950.51
540.44	56002.00
540.61	56240.73
540.78	56355.42
540.95	56872.68
541.12	57137.16
541.29	57647.39
541.46	57834.64
541.62	57902.51
541.79	57666.12
541.96	57048.22
542.13	57118.43
542.30	57432.07
542.47	57570.16
542.63	57247.16
542.80	57240.14
542.97	57471.85
543.14	57443.77
543.31	57027.15
543.48	57928.26
543.64	58372.96
543.81	58658.51
543.98	58541.48
544.15	57741.02
544.32	57434.41
544.48	57497.60
544.65	57804.21
544.82	58326.15
544.99	57930.60
545.16	57631.01
545.32	57188.65
545.49	58258.27
545.66	58497.01
545.83	58071.03
546.00	57708.25
546.16	57263.55
546.33	57389.94
546.50	57446.11
546.67	57668.46
546.83	57521.01
547.00	57446.11
547.17	56786.08
547.34	56467.76
547.50	56275.84
547.67	56818.84
547.84	56425.64
548.00	57097.37
548.17	57375.89
548.34	57279.93
548.51	57565.48
548.67	57425.04
548.84	57387.60
549.01	57352.49
549.18	57551.43
549.34	57268.23
549.51	57263.55
549.68	57408.66
549.84	56872.68
550.01	56837.57
550.18	56884.38
550.34	56718.20
550.51	56846.93
550.68	56926.51
550.84	56320.31
551.01	56685.43
551.18	56757.99
551.34	56757.99
551.51	57123.11
551.68	57350.15
551.84	57387.60
552.01	57172.27
552.18	57230.78
552.34	56207.97
552.51	55840.50
552.68	56128.39
552.84	56423.29
553.01	56694.80
553.18	56495.85
553.34	56552.02
553.51	56736.93
553.67	56804.80
553.84	57158.22
554.01	56842.25
554.17	56554.36
554.34	56832.89
554.51	57031.83
554.67	57532.71
554.84	57174.61
555.00	56863.32
555.17	56563.73
555.33	56697.14
555.50	56537.98
555.67	56643.30
555.83	56266.48
556.00	55936.46
556.16	56170.52
556.33	55875.61
556.50	55615.81
556.66	55737.52
556.83	55250.69
556.99	55510.49
557.16	55625.17
557.32	55744.54
557.49	56254.78
557.65	56156.47
557.82	55791.35
557.98	55868.59
558.15	55262.39
558.32	54782.58
558.48	53890.83
558.65	54087.44
558.81	54461.93
558.98	54761.51
559.14	54981.52
559.31	55068.12
559.47	54993.23
559.64	54593.00
559.80	54370.64
559.97	54375.33
560.13	54574.27
560.30	55531.55
560.46	56217.33
560.63	56327.33
560.79	56362.44
560.96	56051.15
561.12	54796.62
561.29	53923.60
561.45	54089.78
561.61	54775.56
561.78	55161.75
561.94	54843.43
562.11	54897.27
562.27	54784.92
562.44	54939.39
562.60	55466.02
562.77	55639.22
562.93	55316.22
563.10	55388.78
563.26	54831.73
563.42	54934.71
563.59	54440.86
563.75	54492.35
563.92	54541.50
564.08	54684.28
564.24	55000.25
564.41	54829.39
564.57	54775.56
564.74	54396.39
564.90	54557.89
565.07	54340.22
565.23	53951.69
565.39	53279.96
565.56	53221.44
565.72	53076.33
565.88	53305.70
566.05	53366.55
566.21	53698.91
566.38	53853.39
566.54	53998.50
566.70	54251.28
566.87	54677.25
567.03	54358.94
567.19	54838.75
567.36	54466.61
567.52	54342.56
567.68	54160.00
567.85	53368.90
568.01	52821.21
568.17	52563.75
568.34	52830.57
568.50	52683.12
568.66	52589.50
568.83	53139.52
568.99	53446.13
569.15	53497.62
569.32	53329.11
569.48	53254.21
569.64	52879.72
569.81	52509.92
569.97	52416.30
570.13	52523.96
570.30	51934.15
570.46	51433.27
570.62	51026.02
570.78	50927.72
570.95	51058.79
571.11	51943.51
571.27	52264.16
571.43	52378.85
571.60	52849.30
571.76	52729.93
571.92	53240.17
572.09	53345.49
572.25	53134.84
572.41	53420.39
572.57	53015.47
572.74	53221.44
572.90	52502.90
573.06	52666.73
573.22	52680.78
573.38	52561.41
573.55	52444.38
573.71	52587.16
573.87	52743.97
574.03	52371.83
574.20	52451.41
574.36	52119.05
574.52	51978.62
574.68	51498.81
574.84	51496.47
575.01	50916.01
575.17	50714.73
575.33	51171.13
575.49	51412.21
575.65	51613.49
575.82	51669.67
575.98	50834.10
576.14	51643.92
576.30	51704.77
576.46	52086.28
576.62	51686.05
576.79	51753.93
576.95	51473.06
577.11	51309.22
577.27	51524.55
577.43	51576.04
577.59	51159.43
577.75	50497.06
577.92	49918.95
578.08	49705.96
578.24	49668.51
578.40	50092.15
578.56	50614.08
578.72	50553.23
578.88	50218.53
579.04	50611.74
579.21	50618.77
579.37	50681.96
579.53	50817.71
579.69	50880.91
579.85	51334.97
580.01	51004.95
580.17	50569.61
580.33	50089.80
580.49	50464.29
580.65	50628.13
580.82	50843.46
580.98	50700.68
581.14	50892.61
581.30	50939.42
581.46	50754.52
581.62	50824.73
581.78	50974.53
581.94	51264.75
582.10	51271.78
582.26	51168.79
582.42	50932.40
582.58	50988.57
582.74	51292.84
582.90	51274.12
583.06	50808.35
583.22	50941.76
583.38	50974.53
583.54	50586.00
583.70	50344.92
583.86	50630.47
584.02	50438.54
584.18	50586.00
584.34	50578.98
584.50	50155.34
584.66	50251.30
584.82	49844.05
584.98	50087.46
585.14	49684.89
585.30	48535.69
