SpectraSuite Data File
++++++++++++++++++++++++++++++++++++
Date: Mon Oct 07 14:52:58 GMT-05:00 2013
User: price-jones
Dark Spectrum Present: No
Reference Spectrum Present: No
Number of Sampled Component Spectra: 1
Spectrometers: USB2+H05261
Integration Time (usec): 100000 (USB2+H05261)
Spectra Averaged: 1 (USB2+H05261)
Boxcar Smoothing: 0 (USB2+H05261)
Correct for Electrical Dark: No (USB2+H05261)
Strobe/Lamp Enabled: No (USB2+H05261)
Correct for Detector Non-linearity: No (USB2+H05261)
Correct for Stray Light: No (USB2+H05261)
Number of Pixels in Processed Spectrum: 2048
>>>>>Begin Processed Spectral Data<<<<<
365.73	0.00
365.92	0.00
366.12	0.00
366.32	0.00
366.52	0.00
366.72	0.00
366.91	0.00
367.11	0.00
367.31	0.00
367.51	0.00
367.70	0.00
367.90	0.00
368.10	0.00
368.30	0.00
368.49	0.00
368.69	0.00
368.89	0.00
369.09	0.00
369.28	0.00
369.48	0.00
369.68	0.00
369.87	0.00
370.07	0.00
370.27	0.00
370.47	571.09
370.66	2871.84
370.86	3272.07
371.06	3737.84
371.25	3693.37
371.45	3468.67
371.65	2998.23
371.84	2853.11
372.04	2963.12
372.24	3379.73
372.44	3473.36
372.63	3417.18
372.83	3180.79
373.03	2644.81
373.22	2548.84
373.42	2839.07
373.62	3091.85
373.81	3445.27
374.01	3349.31
374.21	3019.29
374.40	2806.30
374.60	2939.71
374.79	3375.05
374.99	3833.80
375.19	4152.11
375.38	4212.96
375.58	3988.27
375.78	3887.63
375.97	3948.48
376.17	4149.77
376.37	4060.83
376.56	4241.05
376.76	4468.08
376.95	4660.01
377.15	5114.07
377.35	5195.99
377.54	5385.57
377.74	5612.60
377.93	5540.05
378.13	5423.02
378.33	5135.14
378.52	4678.73
378.72	4540.64
378.91	4512.55
379.11	4348.72
379.31	4362.76
379.50	4184.88
379.70	4554.68
379.89	5081.30
380.09	5341.10
380.28	5488.56
380.48	5343.44
380.68	5273.23
380.87	5289.61
381.07	4968.96
381.26	4451.70
381.46	4138.07
381.65	4088.92
381.85	3990.61
382.04	3716.77
382.24	3456.97
382.43	3440.59
382.63	3260.37
382.83	3258.03
383.02	3260.37
383.22	3412.50
383.41	3363.35
383.61	3527.19
383.80	4161.47
384.00	4678.73
384.19	5210.03
384.39	5439.40
384.58	5369.19
384.78	5383.23
384.97	5394.93
385.17	4924.49
385.36	4765.33
385.56	4655.33
385.75	4638.94
385.95	5153.86
386.14	5570.48
386.34	5675.80
386.53	5327.06
386.72	5011.09
386.92	5137.48
387.11	5420.68
387.31	5547.07
387.50	5568.13
387.70	5224.08
387.89	5224.08
388.09	5348.12
388.28	5364.51
388.48	5451.11
388.67	5921.56
388.86	6438.81
389.06	6988.84
389.25	7129.27
389.45	7316.51
389.64	7173.74
389.84	7206.51
390.03	7098.84
390.22	7133.95
390.42	7358.64
390.61	7723.77
390.81	8386.14
391.00	8386.14
391.19	8341.67
391.39	7948.46
391.58	7468.65
391.78	7316.51
391.97	6855.43
392.16	6483.28
392.36	5954.32
392.55	4755.97
392.75	3625.49
392.94	3030.99
393.13	3236.96
393.33	3751.88
393.52	4706.82
393.71	5830.27
393.91	6296.04
394.10	7112.89
394.29	7644.19
394.49	8152.09
394.68	8711.47
394.88	8896.38
395.07	9095.32
395.26	9142.13
395.46	8823.82
395.65	8318.26
395.84	7255.66
396.04	6328.81
396.23	4961.94
396.42	4245.73
396.62	4091.26
396.81	4800.44
397.00	6066.67
397.19	7639.51
397.39	9092.98
397.58	10029.20
397.77	10600.29
397.97	10892.85
398.16	11206.48
398.35	11470.97
398.55	11960.14
398.74	12587.40
398.93	12650.60
399.12	12470.37
399.32	11934.39
399.51	12409.52
399.70	13170.19
399.90	12809.75
400.09	13268.50
400.28	12891.67
400.47	12805.07
400.67	13855.97
400.86	14050.24
401.05	14024.49
401.24	14024.49
401.44	14106.41
401.63	14459.83
401.82	14239.82
402.01	14506.64
402.21	14478.55
402.40	14787.50
402.59	14153.22
402.78	13762.35
402.97	13212.32
403.17	13659.37
403.36	14736.01
403.55	14885.81
403.74	15564.56
403.93	14413.02
404.13	13413.61
404.32	13217.01
404.51	13865.33
404.70	14895.17
404.89	14565.15
405.09	14523.02
405.28	14033.85
405.47	14164.92
405.66	14064.28
405.85	13816.18
406.05	13359.78
406.24	13376.16
406.43	14258.54
406.62	14551.11
406.81	15178.37
407.00	13984.70
407.20	13818.52
407.39	14134.50
407.58	14689.20
407.77	15260.29
407.96	15815.00
408.15	15854.79
408.34	16018.63
408.54	16821.43
408.73	17008.67
408.92	16507.80
409.11	16128.63
409.30	15543.50
409.49	14167.26
409.68	13596.17
409.87	12971.25
410.07	14045.55
410.26	15066.03
410.45	16294.81
410.64	16313.53
410.83	16861.22
411.02	17263.79
411.21	17956.59
411.40	17994.04
411.59	17799.77
411.78	17661.68
411.98	17474.44
412.17	17755.30
412.36	17626.57
412.55	17390.18
412.74	17436.99
412.93	16737.17
413.12	16884.62
413.31	18387.25
413.50	18574.49
413.69	19168.99
413.88	18127.45
414.07	17678.07
414.26	18066.60
414.45	18625.98
414.64	18410.65
414.83	18838.97
415.02	18424.70
415.22	18293.63
415.41	18745.35
415.60	19143.24
415.79	20203.50
415.98	20517.14
416.17	20493.73
416.36	19875.83
416.55	19770.51
416.74	19037.92
416.93	18452.78
417.12	18609.60
417.31	18810.89
417.50	18939.62
417.69	19976.47
417.88	19924.98
418.07	19749.44
418.26	19232.18
418.45	19389.00
418.64	20114.56
418.83	20865.88
419.02	20379.04
419.21	20409.47
419.39	19440.49
419.58	18335.76
419.77	18448.10
419.96	19742.42
420.15	20409.47
420.34	21001.63
420.53	21755.28
420.72	22125.08
420.91	21970.61
421.10	21481.44
421.29	21596.12
421.48	20538.20
421.67	21862.94
421.86	21249.72
422.05	19824.34
422.24	17884.03
422.43	17678.07
422.61	19875.83
422.80	21109.29
422.99	21020.35
423.18	20402.45
423.37	19829.02
423.56	19805.61
423.75	20549.90
423.94	20917.37
424.13	19620.71
424.32	19557.52
424.50	19829.02
424.69	19585.60
424.88	19625.39
425.07	19573.90
425.26	19466.24
425.45	19192.39
425.64	18937.27
425.83	18925.57
426.01	20397.77
426.20	20950.14
426.39	20568.63
426.58	18773.44
426.77	17518.91
426.96	16961.86
427.15	17734.24
427.33	19159.63
427.52	19812.63
427.71	19922.64
427.90	19578.58
428.09	19323.46
428.28	19073.03
428.46	18689.18
428.65	18258.52
428.84	18450.44
429.03	19051.96
429.22	17736.58
429.40	16685.68
429.59	15466.26
429.78	13619.58
429.97	13738.94
430.16	13764.69
430.34	14181.31
430.53	13928.53
430.72	14148.54
430.91	16063.10
431.10	18892.80
431.28	21881.67
431.47	23786.86
431.66	23751.76
431.85	21720.17
432.03	19814.98
432.22	19208.78
432.41	20063.07
432.60	22291.26
432.79	22951.29
432.97	23302.37
433.16	22888.10
433.35	21039.08
433.54	18604.92
433.72	17862.97
433.91	18270.22
434.10	20414.15
434.28	21982.31
434.47	22932.57
434.66	22588.51
434.85	22106.36
435.03	22045.51
435.22	22754.69
435.41	24133.26
435.59	24056.03
435.78	24137.94
435.97	24727.76
436.16	25006.28
436.34	24484.34
436.53	24189.44
436.72	24271.36
436.90	22778.09
437.09	22668.09
437.28	22490.21
437.46	23278.97
437.65	22944.27
437.84	21364.41
438.02	19932.00
438.21	19892.21
438.40	21289.51
438.58	22691.49
438.77	23248.54
438.96	23608.98
439.14	24624.78
439.33	24938.41
439.52	25371.41
439.70	24856.49
439.89	24070.07
440.08	23777.50
440.26	23351.52
440.45	24301.78
440.63	26043.14
440.82	27510.66
441.01	26927.86
441.19	26862.33
441.38	27239.15
441.57	28053.66
441.75	28503.04
441.94	29090.52
442.12	28329.84
442.31	29149.03
442.50	29078.82
442.68	28690.29
442.87	28577.94
443.05	27693.22
443.24	28259.63
443.43	28699.65
443.61	29640.54
443.80	29642.88
443.98	27962.38
444.17	27831.31
444.35	29642.88
444.54	29788.00
444.73	30026.73
444.91	28486.66
445.10	27346.82
445.28	26450.39
445.47	26015.05
445.65	25944.84
445.84	26785.09
446.02	28119.20
446.21	28154.30
446.39	27950.68
446.58	28800.29
446.77	28641.14
446.95	29502.45
447.14	30394.20
447.32	30731.23
447.51	29961.20
447.69	28912.64
447.88	28147.28
448.06	29095.20
448.25	29757.57
448.43	29565.65
448.62	29312.87
448.80	29263.72
448.99	29139.67
449.17	29722.46
449.36	29717.78
449.54	30845.92
449.73	30885.71
449.91	31672.13
450.10	32070.02
450.28	32795.59
450.46	32828.35
450.65	32671.54
450.83	32264.28
451.02	31630.00
451.20	31772.77
451.39	31515.31
451.57	31136.15
451.76	31241.47
451.94	31105.72
452.13	30639.95
452.31	29467.34
452.49	28053.66
452.68	28217.50
452.86	28128.56
453.05	28804.97
453.23	29649.91
453.42	30143.76
453.60	30859.96
453.78	31159.55
453.97	31091.68
454.15	30918.48
454.34	30150.78
454.52	29813.74
454.70	29680.33
454.89	30127.38
455.07	30602.50
455.26	30841.24
455.44	31948.31
455.62	32496.00
455.81	32591.96
455.99	32226.84
456.17	31915.54
456.36	31931.93
456.54	32851.76
456.73	33233.27
456.91	33523.49
457.09	33544.56
457.28	34174.16
457.46	32570.90
457.64	32346.20
457.83	31707.24
458.01	31070.61
458.19	31988.10
458.38	31931.93
458.56	33158.37
458.74	32936.02
458.93	32325.14
459.11	32170.66
459.29	32070.02
459.48	31894.48
459.66	32315.78
459.84	32397.70
460.03	32706.65
460.21	33095.18
460.39	33668.61
460.57	33783.29
460.76	34176.50
460.94	34134.37
461.12	33343.27
461.31	33944.79
461.49	33736.48
461.67	33795.00
461.85	35166.55
462.04	34312.25
462.22	35323.36
462.40	34239.70
462.59	34658.65
462.77	34799.08
462.95	34771.00
463.13	34216.29
463.32	33890.96
463.50	33223.90
463.68	33752.87
463.86	33759.89
464.05	33319.87
464.23	32767.50
464.41	32854.10
464.59	31651.06
464.78	33879.25
464.96	33680.31
465.14	33003.89
465.32	34340.34
465.50	35119.74
465.69	35019.10
465.87	34705.46
466.05	33373.70
466.23	31967.04
466.41	31234.45
466.60	32147.26
466.78	32428.12
466.96	33050.70
467.14	33352.63
467.32	33905.00
467.51	33647.54
467.69	32006.83
467.87	32858.78
468.05	33996.28
468.23	33921.38
468.41	33589.03
468.60	33795.00
468.78	33572.64
468.96	33237.95
469.14	34225.65
469.32	34618.86
469.50	33015.60
469.69	32870.48
469.87	32388.33
470.05	32423.44
470.23	32369.61
470.41	32458.55
470.59	33149.01
470.77	32989.85
470.95	34155.44
471.14	34595.46
471.32	34405.88
471.50	36301.71
471.68	36058.29
471.86	36713.64
472.04	36886.84
472.22	36940.68
472.40	35152.51
472.58	35225.06
472.77	34326.30
472.95	35498.91
473.13	36662.15
473.31	35555.08
473.49	35332.73
473.67	35948.29
473.85	36718.32
474.03	37113.87
474.21	37399.42
474.39	37558.58
474.57	37610.07
474.75	38506.49
474.93	37471.98
475.12	36531.08
475.30	36779.18
475.48	36669.17
475.66	37345.59
475.84	37235.58
476.02	36676.19
476.20	36446.82
476.38	36603.64
476.56	37834.76
476.74	38433.94
476.92	38501.81
477.10	39765.70
477.28	40137.85
477.46	40385.94
477.64	40861.07
477.82	41045.97
478.00	40816.60
478.18	40325.09
478.36	40245.51
478.54	40701.92
478.72	40720.64
478.90	41869.84
479.08	42583.71
479.26	42995.64
479.44	43150.12
479.62	42553.28
479.80	42740.52
479.98	43192.25
480.16	43023.73
480.34	43082.24
480.52	43283.53
480.70	43892.07
480.88	43578.43
481.06	44006.75
481.24	44636.36
481.41	45638.11
481.59	45933.01
481.77	45614.70
481.95	44863.39
482.13	45031.91
482.31	45329.16
482.49	45675.55
482.67	45689.60
482.85	46080.47
483.03	46157.70
483.21	46972.21
483.39	46506.44
483.57	45844.07
483.74	45680.24
483.92	46373.03
484.10	46204.52
484.28	47161.79
484.46	47515.22
484.64	47957.58
484.82	46815.40
485.00	46452.61
485.18	45572.57
485.35	44472.52
485.53	41113.85
485.71	37544.53
485.89	37223.88
486.07	39793.79
486.25	42656.26
486.43	45181.70
486.61	45593.64
486.78	45572.57
486.96	45785.56
487.14	47608.84
487.32	48587.18
487.50	49521.05
487.68	50157.68
487.85	50831.75
488.03	50567.27
488.21	50087.46
488.39	49602.97
488.57	49043.59
488.75	48748.68
488.92	50057.04
489.10	51964.57
489.28	53207.40
489.46	53867.43
489.64	53638.06
489.81	53937.65
489.99	53542.10
490.17	53469.54
490.35	53757.42
490.53	53408.68
490.70	53144.20
490.88	53081.01
491.06	54148.29
491.24	53659.12
491.41	52561.41
491.59	50850.48
491.77	50417.48
491.95	51667.33
492.13	52851.64
492.30	54028.93
492.48	54908.97
492.66	55257.71
492.84	55503.46
493.01	55105.57
493.19	54635.13
493.37	54272.34
493.54	54115.53
493.72	54731.09
493.90	55576.02
494.08	56399.89
494.25	56566.07
494.43	56748.63
494.61	57158.22
494.79	57219.08
494.96	57001.41
495.14	56273.50
495.32	55505.80
495.49	54995.57
495.67	55962.21
495.85	57228.44
496.02	57638.03
496.20	57422.70
496.38	56846.93
496.55	57036.51
496.73	57427.38
496.91	57429.72
497.09	58014.86
497.26	58106.14
497.44	57787.83
497.62	57226.10
497.79	56418.61
497.97	55285.79
498.14	55316.22
498.32	56369.46
498.50	57352.49
498.67	58101.46
498.85	57691.86
499.03	57977.41
499.20	58291.04
499.38	58218.49
499.56	58021.88
499.73	57516.32
499.91	57324.40
500.08	56809.48
500.26	56095.62
500.44	56453.72
500.61	57043.54
500.79	56853.95
500.97	56980.34
501.14	56608.20
501.32	56505.21
501.49	56601.18
501.67	56610.54
501.84	57240.14
502.02	57455.47
502.20	57532.71
502.37	57893.15
502.55	57780.81
502.72	58307.43
502.90	58892.56
503.07	58485.31
503.25	58096.78
503.43	57312.70
503.60	56795.44
503.78	56175.20
503.95	56545.00
504.13	57860.38
504.30	58707.66
504.48	58417.43
504.65	58248.91
504.83	58274.66
505.01	58777.87
505.18	59138.32
505.36	59732.81
505.53	59604.08
505.71	59873.24
505.88	60004.31
506.06	59318.54
506.23	58974.48
506.41	58548.50
506.58	58941.71
506.76	58829.37
506.93	58890.22
507.11	58745.11
507.28	59084.48
507.46	58197.42
507.63	58103.80
507.81	57602.92
507.98	57998.48
508.16	58597.65
508.33	59063.42
508.50	59517.48
508.68	59554.93
508.85	60114.32
509.03	60111.98
509.20	59784.30
509.38	59178.10
509.55	58630.42
509.73	58707.66
509.90	59178.10
510.08	59503.44
510.25	59140.66
510.42	59173.42
510.60	59068.10
510.77	59330.24
510.95	59880.27
511.12	60140.07
511.30	60399.86
511.47	60713.50
511.64	60331.99
511.82	59819.41
511.99	59135.98
512.17	59063.42
512.34	58672.55
512.51	58651.48
512.69	59051.72
512.86	59016.61
513.04	59414.50
513.21	59475.35
513.38	59194.49
513.56	58653.82
513.73	58094.44
513.90	58480.63
514.08	58450.20
514.25	58841.07
514.43	58878.52
514.60	58951.07
514.77	59007.25
514.95	59318.54
515.12	59082.14
515.29	59220.23
515.47	59817.07
515.64	59999.63
515.81	59660.26
515.99	59093.85
516.16	57563.14
516.33	55559.64
516.51	54309.79
516.68	53319.74
516.85	52912.49
517.03	53357.19
517.20	56191.58
517.37	58372.96
517.54	59573.66
517.72	58569.57
517.89	56395.21
518.06	54323.83
518.24	54880.88
518.41	56662.03
518.58	57708.25
518.75	57982.09
518.93	58265.30
519.10	58234.87
519.27	58642.12
519.45	58979.16
519.62	59760.90
519.79	59920.05
519.96	59522.16
520.14	59238.96
520.31	58370.62
520.48	58424.45
520.65	58674.89
520.83	59786.64
521.00	60102.62
521.17	59655.57
521.34	59206.19
521.52	59615.79
521.69	60313.26
521.86	60425.61
522.03	60233.69
522.20	59056.40
522.38	58085.07
522.55	58206.78
522.72	58628.08
522.89	58663.19
523.07	59054.06
523.24	59341.94
523.41	60238.37
523.58	60502.85
523.75	60858.61
523.92	60636.26
524.10	60786.05
524.27	60502.85
524.44	60460.72
524.61	60413.91
524.78	60238.37
524.96	59929.42
525.13	60292.20
525.30	60378.80
525.47	60828.18
525.64	60598.81
525.81	59978.57
525.98	58585.95
526.16	57235.46
526.33	56666.71
526.50	56404.57
526.67	56217.33
526.84	56629.26
527.01	57607.61
527.18	58372.96
527.36	59372.37
527.53	59978.57
527.70	60271.14
527.87	59641.53
528.04	59192.15
528.21	59657.91
528.38	60282.84
528.55	61038.83
528.72	61209.69
528.89	61226.07
529.07	61050.53
529.24	60404.55
529.41	59693.02
529.58	59210.87
529.75	59501.10
529.92	59803.03
530.09	60189.22
530.26	60786.05
530.43	60966.27
530.60	60975.64
530.77	61186.28
530.94	61118.41
531.11	60753.29
531.28	60458.38
531.46	60154.11
531.63	60327.31
531.80	60271.14
531.97	59800.69
532.14	59337.26
532.31	58085.07
532.48	57621.65
532.65	57731.65
532.82	58527.44
532.99	59538.55
533.16	59962.18
533.33	60474.76
533.50	60142.41
533.67	59676.64
533.84	59238.96
534.01	59330.24
534.18	59522.16
534.35	59728.13
534.52	59643.87
534.69	60121.34
534.86	60165.81
535.03	60610.51
535.20	60755.63
535.37	61167.56
535.54	61219.05
535.71	61024.79
535.88	60589.45
536.05	59866.22
536.22	59774.94
536.38	59215.55
536.55	58829.37
536.72	58351.90
536.89	58375.30
537.06	59248.32
537.23	59880.27
537.40	60275.82
537.57	60257.09
537.74	60034.74
537.91	59908.35
538.08	59948.14
538.25	59959.84
538.42	60247.73
538.59	59800.69
538.75	59030.65
538.92	59187.47
539.09	59051.72
539.26	58871.49
539.43	58710.00
539.60	58618.72
539.77	58951.07
539.94	58953.41
540.11	58042.95
540.28	57731.65
540.44	57659.10
540.61	57949.32
540.78	57932.94
540.95	58623.40
541.12	58752.13
541.29	59068.10
541.46	59599.40
541.62	59440.24
541.79	59346.62
541.96	58623.40
542.13	58927.67
542.30	59030.65
542.47	59330.24
542.63	58906.60
542.80	58775.53
542.97	58796.60
543.14	58925.33
543.31	58789.58
543.48	59098.53
543.64	60037.08
543.81	60362.42
543.98	60280.50
544.15	59470.67
544.32	58974.48
544.48	59341.94
544.65	59608.76
544.82	59810.05
544.99	59414.50
545.16	59091.51
545.32	59040.01
545.49	59632.17
545.66	59943.46
545.83	59508.12
546.00	59241.30
546.16	59047.04
546.33	59131.29
546.50	59035.33
546.67	59498.76
546.83	59105.55
547.00	59061.08
547.17	58368.28
547.34	57883.79
547.50	57848.68
547.67	58387.00
547.84	58389.34
548.00	58710.00
548.17	59086.82
548.34	59133.63
548.51	59274.07
548.67	59121.93
548.84	59491.74
549.01	59210.87
549.18	59047.04
549.34	59035.33
549.51	58934.69
549.68	58850.43
549.84	58637.44
550.01	58595.31
550.18	58475.94
550.34	58777.87
550.51	58735.74
550.68	58876.18
550.84	58394.03
551.01	58550.84
551.18	58272.32
551.34	58436.16
551.51	58857.45
551.68	59224.92
551.84	58990.86
552.01	58974.48
552.18	58761.49
552.34	58136.57
552.51	57968.05
552.68	57635.69
552.84	58218.49
553.01	58370.62
553.18	58260.62
553.34	58358.92
553.51	58630.42
553.67	58653.82
553.84	59000.22
554.01	58660.85
554.17	58707.66
554.34	58653.82
554.51	58927.67
554.67	59281.09
554.84	58990.86
555.00	58478.28
555.17	58337.85
555.33	58174.02
555.50	58408.07
555.67	58429.13
555.83	58145.93
556.00	58045.29
556.16	58028.90
556.33	57645.05
556.50	57382.91
556.66	57675.48
556.83	57251.84
556.99	57530.37
557.16	57710.59
557.32	57619.31
557.49	58068.69
557.65	57930.60
557.82	57904.85
557.98	57726.97
558.15	57158.22
558.32	56500.53
558.48	55554.96
558.65	56079.24
558.81	56463.08
558.98	56582.45
559.14	56999.07
559.31	56790.76
559.47	56851.61
559.64	56566.07
559.80	56175.20
559.97	56259.46
560.13	56753.31
560.30	57593.56
560.46	58075.71
560.63	58457.22
560.79	58185.72
560.96	57944.64
561.12	56828.21
561.29	56114.34
561.45	56114.34
561.61	56765.01
561.78	57214.40
561.94	56966.30
562.11	56835.23
562.27	56767.35
562.44	57095.03
562.60	57291.63
562.77	57352.49
562.93	57333.76
563.10	57443.77
563.26	56802.46
563.42	56783.74
563.59	56718.20
563.75	56601.18
563.92	56797.78
564.08	56528.62
564.24	56868.00
564.41	57090.35
564.57	56825.87
564.74	56619.90
564.90	56619.90
565.07	56196.26
565.23	55950.51
565.39	55480.06
565.56	55215.58
565.72	55056.42
565.88	55409.84
566.05	55681.34
566.21	56104.98
566.38	55791.35
566.54	56238.39
566.70	56357.76
566.87	56647.99
567.03	56474.79
567.19	57006.09
567.36	56381.16
567.52	56573.09
567.68	56062.85
567.85	55583.04
568.01	55419.20
568.17	54761.51
568.34	54911.31
568.50	55077.49
568.66	55037.70
568.83	55348.99
568.99	55358.35
569.15	55620.49
569.32	55648.58
569.48	55290.48
569.64	55061.10
569.81	54581.29
569.97	54684.28
570.13	54658.53
570.30	54075.74
570.46	53743.38
570.62	53455.50
570.78	53294.00
570.95	53853.39
571.11	54248.94
571.27	54515.76
571.43	54733.43
571.60	54831.73
571.76	55077.49
571.92	55316.22
572.09	55557.30
572.25	55681.34
572.41	55529.21
572.57	55168.77
572.74	55288.13
572.90	55007.27
573.06	55154.72
573.22	54983.86
573.38	54695.98
573.55	54911.31
573.71	55351.33
573.87	54890.24
574.03	54824.71
574.20	54794.28
574.36	54553.21
574.52	54178.72
574.68	53977.43
574.84	53518.69
575.01	53474.22
575.17	53546.78
575.33	53930.62
575.49	53785.51
575.65	54302.77
575.82	54026.59
575.98	53453.15
576.14	53654.44
576.30	54176.38
576.46	54218.51
576.62	54185.74
576.79	54040.63
576.95	53694.23
577.11	53675.51
577.27	53881.47
577.43	53951.69
577.59	53436.77
577.75	53003.77
577.92	52573.11
578.08	52397.57
578.24	52343.74
578.40	52622.26
578.56	52868.02
578.72	52971.00
578.88	53399.32
579.04	53251.87
579.21	53235.48
579.37	53443.79
579.53	53389.96
579.69	53462.52
579.85	53785.51
580.01	53670.82
580.17	52938.24
580.33	52992.07
580.49	53240.17
580.65	53336.13
580.82	53773.81
580.98	53401.66
581.14	53116.12
581.30	53380.60
581.46	53373.58
581.62	53593.59
581.78	53399.32
581.94	53738.70
582.10	53712.95
582.26	53886.15
582.42	53361.87
582.58	53879.13
582.74	53698.91
582.90	53862.75
583.06	53642.74
583.22	53499.97
583.38	53198.04
583.54	53312.72
583.70	53235.48
583.86	53326.77
584.02	52856.32
584.18	53387.62
584.34	53331.45
584.50	52816.53
584.66	52893.77
584.82	52472.47
584.98	52633.97
585.14	52100.32
585.30	51599.45
