SpectraSuite Data File
++++++++++++++++++++++++++++++++++++
Date: Mon Oct 07 14:53:03 GMT-05:00 2013
User: price-jones
Dark Spectrum Present: No
Reference Spectrum Present: No
Number of Sampled Component Spectra: 1
Spectrometers: USB2+H05261
Integration Time (usec): 100000 (USB2+H05261)
Spectra Averaged: 1 (USB2+H05261)
Boxcar Smoothing: 0 (USB2+H05261)
Correct for Electrical Dark: No (USB2+H05261)
Strobe/Lamp Enabled: No (USB2+H05261)
Correct for Detector Non-linearity: No (USB2+H05261)
Correct for Stray Light: No (USB2+H05261)
Number of Pixels in Processed Spectrum: 2048
>>>>>Begin Processed Spectral Data<<<<<
365.73	0.00
365.92	0.00
366.12	0.00
366.32	0.00
366.52	0.00
366.72	0.00
366.91	0.00
367.11	0.00
367.31	0.00
367.51	0.00
367.70	0.00
367.90	0.00
368.10	0.00
368.30	0.00
368.49	0.00
368.69	0.00
368.89	0.00
369.09	0.00
369.28	0.00
369.48	0.00
369.68	0.00
369.87	0.00
370.07	0.00
370.27	0.00
370.47	484.49
370.66	2672.89
370.86	3328.24
371.06	3557.61
371.25	3627.83
371.45	3276.75
371.65	3094.19
371.84	2757.15
372.04	2913.97
372.24	3323.56
372.44	3346.97
372.63	3316.54
372.83	3019.29
373.03	2733.75
373.22	2518.42
373.42	2691.62
373.62	3204.19
373.81	3325.90
374.01	3281.43
374.21	3000.57
374.40	2773.53
374.60	2939.71
374.79	3339.94
374.99	3758.90
375.19	4196.58
375.38	4084.23
375.58	3805.71
375.78	3728.47
375.97	3936.78
376.17	4049.13
376.37	3904.01
376.56	4138.07
376.76	4409.57
376.95	4596.81
377.15	5095.35
377.35	5205.35
377.54	5214.71
377.74	5313.02
377.93	5563.45
378.13	5231.10
378.33	4954.91
378.52	4547.66
378.72	4440.00
378.91	4465.74
379.11	4318.29
379.31	4180.20
379.50	4074.87
379.70	4437.66
379.89	4903.42
380.09	5160.88
380.28	5458.13
380.48	5214.71
380.68	5252.16
380.87	5181.95
381.07	4784.06
381.26	4369.78
381.46	4028.06
381.65	4077.21
381.85	3896.99
382.04	3686.34
382.24	3428.88
382.43	3215.90
382.63	3194.83
382.83	3337.60
383.02	3286.11
383.22	3379.73
383.41	3180.79
383.61	3496.76
383.80	4039.76
384.00	4533.62
384.19	4985.34
384.39	5359.83
384.58	5228.76
384.78	5114.07
384.97	5121.09
385.17	4936.19
385.36	4695.11
385.56	4435.32
385.75	4461.06
385.95	4896.40
386.14	5526.00
386.34	5481.53
386.53	5170.24
386.72	4830.87
386.92	4896.40
387.11	5390.25
387.31	5394.93
387.50	5233.44
387.70	5329.40
387.89	5291.95
388.09	5317.70
388.28	5210.03
388.48	5345.78
388.67	5533.03
388.86	6267.95
389.06	6649.46
389.25	7145.66
389.45	7129.27
389.64	7204.17
389.84	7002.88
390.03	6951.39
390.22	7096.50
390.42	7213.53
390.61	7524.82
390.81	7960.16
391.00	8348.69
391.19	8376.78
391.39	8002.29
391.58	7428.86
391.78	6846.07
391.97	6672.87
392.16	6305.40
392.36	5675.80
392.55	4648.30
392.75	3660.60
392.94	3075.46
393.13	2895.24
393.33	3445.27
393.52	4683.41
393.71	5605.58
393.91	6164.97
394.10	6759.47
394.29	7440.56
394.49	7939.10
394.68	8599.13
394.88	8617.85
395.07	9004.04
395.26	8692.75
395.46	8503.17
395.65	8145.06
395.84	7101.19
396.04	5970.71
396.23	4858.95
396.42	4126.36
396.62	3997.64
396.81	4587.45
397.00	5701.54
397.19	7470.99
397.39	8613.17
397.58	9769.40
397.77	10340.49
397.97	10630.71
398.16	10747.74
398.35	11190.10
398.55	11681.61
398.74	12163.76
398.93	12201.21
399.12	12147.38
399.32	11775.24
399.51	11925.03
399.70	12702.09
399.90	12290.15
400.09	12784.01
400.28	12313.56
400.47	12718.47
400.67	13188.92
400.86	13617.24
401.05	13336.37
401.24	13619.58
401.44	13961.30
401.63	13727.24
401.82	13996.40
402.01	13813.84
402.21	14066.62
402.40	13874.70
402.59	13572.77
402.78	13116.36
402.97	12882.31
403.17	13064.87
403.36	14024.49
403.55	14754.74
403.74	14665.80
403.93	13942.57
404.13	12996.99
404.32	12727.83
404.51	13209.98
404.70	14333.44
404.89	14295.99
405.09	13867.67
405.28	13825.54
405.47	13605.53
405.66	13561.06
405.85	13341.05
406.05	12919.76
406.24	13144.45
406.43	13820.86
406.62	14029.17
406.81	14445.79
407.00	13802.14
407.20	13540.00
407.39	13462.76
407.58	14457.49
407.77	14604.94
407.96	15087.09
408.15	15332.85
408.34	15456.90
408.54	16079.48
408.73	16051.39
408.92	16240.98
409.11	15494.35
409.30	14780.48
409.49	13771.71
409.68	12844.86
409.87	12697.41
410.07	13497.87
410.26	14380.25
410.45	15482.64
410.64	15653.50
410.83	16163.74
411.02	16437.58
411.21	17123.36
411.40	16872.92
411.59	17226.34
411.78	16886.97
411.98	16910.37
412.17	17193.58
412.36	17006.33
412.55	16713.77
412.74	16477.37
412.93	15983.52
413.12	16519.50
413.31	17806.80
413.50	17949.57
413.69	18274.90
413.88	17399.54
414.07	17069.53
414.26	17064.85
414.45	18087.66
414.64	18040.85
414.83	17963.61
415.02	17589.13
415.22	17621.89
415.41	17989.36
415.60	18675.13
415.79	19597.31
415.98	20025.62
416.17	19946.05
416.36	19264.95
416.55	18820.25
416.74	18169.58
416.93	17699.13
417.12	17928.50
417.31	17930.84
417.50	18242.14
417.69	19271.97
417.88	19166.65
418.07	18523.00
418.26	18387.25
418.45	18534.70
418.64	19152.60
418.83	19962.43
419.02	19903.92
419.21	19665.18
419.39	18408.31
419.58	17532.95
419.77	17862.97
419.96	18686.84
420.15	19674.54
420.34	20285.42
420.53	20968.86
420.72	21500.16
420.91	21336.32
421.10	20943.11
421.29	20678.63
421.48	20058.39
421.67	21001.63
421.86	20589.69
422.05	18911.53
422.24	17123.36
422.43	16945.48
422.61	18714.92
422.80	20334.57
422.99	20189.46
423.18	19690.93
423.37	19005.15
423.56	18960.68
423.75	19339.85
423.94	19932.00
424.13	18857.70
424.32	19199.41
424.50	19506.02
424.69	18721.95
424.88	19152.60
425.07	19007.49
425.26	18927.91
425.45	18450.44
425.64	18548.75
425.83	17965.95
426.01	19559.86
426.20	19812.63
426.39	20173.08
426.58	18207.03
426.77	16910.37
426.96	16196.51
427.15	17202.94
427.33	18258.52
427.52	19297.72
427.71	19365.59
427.90	18757.05
428.09	18562.79
428.28	18394.27
428.46	17696.79
428.65	17444.01
428.84	17968.29
429.03	18216.39
429.22	17139.74
429.40	16292.47
429.59	14597.92
429.78	13041.46
429.97	13153.81
430.16	13355.10
430.34	13568.09
430.53	13439.36
430.72	13736.60
430.91	15304.76
431.10	18162.56
431.28	21071.84
431.47	22595.53
431.66	22668.09
431.85	20900.98
432.03	18946.64
432.22	18295.97
432.41	19199.41
432.60	21090.57
432.79	22031.46
432.97	22354.46
433.16	21937.84
433.35	20203.50
433.54	17972.97
433.72	17018.04
433.91	17535.29
434.10	19728.38
434.28	21102.27
434.47	22153.17
434.66	21703.79
434.85	21287.17
435.03	21296.53
435.22	21633.57
435.41	22909.16
435.59	23349.18
435.78	23349.18
435.97	23873.46
436.16	24025.60
436.34	23690.90
436.53	22822.56
436.72	23304.71
436.90	21867.63
437.09	21923.80
437.28	21553.99
437.46	22340.41
437.65	22073.59
437.84	20765.23
438.02	19168.99
438.21	18733.65
438.40	19882.85
438.58	21694.43
438.77	22253.81
438.96	22396.59
439.14	23690.90
439.33	24004.53
439.52	24638.82
439.70	23887.51
439.89	22995.76
440.08	22429.35
440.26	22860.01
440.45	23487.28
440.63	25071.82
440.82	26476.14
441.01	25848.88
441.19	25544.61
441.38	26115.70
441.57	26799.13
441.75	27239.15
441.94	27292.99
442.12	27218.09
442.31	27817.27
442.50	27665.13
442.68	27356.18
442.87	27192.34
443.05	26565.08
443.24	26991.06
443.43	27639.39
443.61	28173.03
443.80	28245.58
443.98	27068.30
444.17	27204.05
444.35	28252.61
444.54	29010.94
444.73	28205.80
444.91	27220.43
445.10	26328.69
445.28	25050.75
445.47	24989.90
445.65	25025.01
445.84	25776.32
446.02	26497.20
446.21	26829.56
446.39	26962.97
446.58	27349.16
446.77	27857.06
446.95	28126.22
447.14	29198.18
447.32	29366.70
447.51	28435.17
447.69	27648.75
447.88	27531.72
448.06	27545.76
448.25	28329.84
448.43	28367.29
448.62	27660.45
448.80	27770.46
448.99	27861.74
449.17	28304.10
449.36	28088.77
449.54	29345.64
449.73	29788.00
449.91	30452.71
450.10	31438.08
450.28	31005.08
450.46	31005.08
450.65	31281.26
450.83	30712.51
451.02	30295.89
451.20	30382.49
451.39	30387.18
451.57	30012.69
451.76	29560.97
451.94	29738.85
452.13	28926.68
452.31	27590.24
452.49	26525.29
452.68	27028.51
452.86	26747.64
453.05	27370.22
453.23	28163.67
453.42	29043.71
453.60	29376.06
453.78	29518.84
453.97	29556.28
454.15	29638.20
454.34	28861.15
454.52	28912.64
454.70	28552.20
454.89	29081.16
455.07	28945.41
455.26	29333.93
455.44	30686.76
455.62	31110.40
455.81	30916.14
455.99	30911.46
456.17	30309.94
456.36	30331.00
456.54	31548.08
456.73	31555.10
456.91	31648.72
457.09	32364.93
457.28	32994.53
457.46	31108.06
457.64	31262.54
457.83	30253.76
458.01	29771.61
458.19	30600.16
458.38	31110.40
458.56	31704.90
458.74	31084.65
458.93	31075.29
459.11	30920.82
459.29	30714.85
459.48	30565.06
459.66	30448.03
459.84	30827.20
460.03	31454.46
460.21	31496.59
460.39	32498.34
460.57	31768.09
460.76	32645.79
460.94	32751.12
461.12	32074.70
461.31	32222.16
461.49	32224.50
461.67	32098.11
461.85	32884.53
462.04	33362.00
462.22	33603.07
462.40	33034.32
462.59	33158.37
462.77	33048.36
462.95	32790.91
463.13	32631.75
463.32	32496.00
463.50	32198.75
463.68	32371.95
463.86	32109.81
464.05	31821.92
464.23	30976.99
464.41	31119.76
464.59	30286.53
464.78	32105.13
464.96	31828.95
465.14	31365.52
465.32	32313.44
465.50	33191.14
465.69	33528.17
465.87	32816.65
466.05	31723.62
466.23	30527.61
466.41	29731.83
466.60	30581.44
466.78	30780.39
466.96	31459.14
467.14	31709.58
467.32	32212.79
467.51	32545.15
467.69	30764.00
467.87	31395.95
468.05	31943.63
468.23	32521.74
468.41	32044.27
468.60	31847.67
468.78	32063.00
468.96	31807.88
469.14	32236.20
469.32	32816.65
469.50	31672.13
469.69	31468.50
469.87	31000.40
470.05	30972.31
470.23	30953.58
470.41	31112.74
470.59	31676.81
470.77	31611.28
470.95	32346.20
471.14	32285.35
471.32	32921.98
471.50	34319.28
471.68	34490.13
471.86	35042.50
472.04	35044.84
472.22	34892.71
472.40	33694.35
472.58	33366.68
472.77	33069.43
472.95	33570.30
473.13	34576.73
473.31	33209.86
473.49	33582.01
473.67	34424.60
473.85	34668.02
474.03	35477.84
474.21	35517.63
474.39	35971.69
474.57	35950.63
474.75	36147.23
474.93	35765.73
475.12	34682.06
475.30	34895.05
475.48	34927.81
475.66	35665.08
475.84	35239.11
476.02	34852.92
476.20	34295.87
476.38	35164.21
476.56	36233.83
476.74	36879.82
476.92	36835.35
477.10	37455.59
477.28	38185.84
477.46	38916.09
477.64	38831.83
477.82	38976.94
478.00	38827.15
478.18	38242.01
478.36	38415.21
478.54	38450.32
478.72	38469.04
478.90	39571.44
479.08	40879.80
479.26	40964.06
479.44	40818.94
479.62	40722.98
479.80	40418.71
479.98	40783.83
480.16	41083.42
480.34	41076.40
480.52	41291.73
480.70	41483.66
480.88	41528.13
481.06	42560.30
481.24	42424.55
481.41	43236.72
481.59	43873.34
481.77	43803.13
481.95	43269.48
482.13	42920.74
482.31	43065.86
482.49	43688.44
482.67	43260.12
482.85	43707.16
483.03	44308.68
483.21	44474.86
483.39	44818.92
483.57	44275.91
483.74	43704.82
483.92	44091.01
484.10	43899.09
484.28	45556.19
484.46	45399.37
484.64	46167.07
484.82	44928.92
485.00	44601.25
485.18	43772.70
485.35	42267.73
485.53	39260.15
485.71	35763.39
485.89	35948.29
486.07	38000.94
486.25	40919.59
486.43	43225.01
486.61	43833.55
486.78	43718.87
486.96	43543.33
487.14	45474.27
487.32	46007.91
487.50	47648.63
487.68	48477.18
487.85	48978.05
488.03	48662.08
488.21	47990.34
488.39	47625.22
488.57	46810.71
488.75	46562.62
488.92	48004.39
489.10	50415.14
489.28	51571.36
489.46	52315.65
489.64	51749.24
489.81	52219.69
489.99	51777.33
490.17	51791.37
490.35	52144.80
490.53	51667.33
490.70	51419.23
490.88	51435.61
491.06	52512.26
491.24	52196.29
491.41	51011.98
491.59	49305.73
491.77	48533.35
491.95	50026.61
492.13	51133.68
492.30	52369.49
492.48	53441.45
492.66	53874.45
492.84	53968.07
493.01	53612.31
493.19	53097.39
493.37	52439.70
493.54	52552.05
493.72	53123.14
493.90	53939.99
494.08	54831.73
494.25	55262.39
494.43	55330.26
494.61	55803.05
494.79	55913.06
494.96	55367.71
495.14	55011.95
495.32	53921.26
495.49	53483.58
495.67	54501.71
495.85	55824.12
496.02	56322.65
496.20	56165.84
496.38	55517.51
496.55	55510.49
496.73	56236.05
496.91	56067.53
497.09	56643.30
497.26	56877.36
497.44	56383.51
497.62	55817.10
497.79	54710.02
497.97	53911.90
498.14	54160.00
498.32	55128.98
498.50	55959.87
498.67	56694.80
498.85	56498.19
499.03	56659.69
499.20	56903.10
499.38	56898.42
499.56	56884.38
499.73	56233.71
499.91	55847.52
500.08	55213.24
500.26	54684.28
500.44	55201.53
500.61	55924.76
500.79	55573.68
500.97	55241.32
501.14	55016.63
501.32	54990.89
501.49	55133.66
501.67	55323.24
501.84	55781.99
502.02	55927.10
502.20	56563.73
502.37	56453.72
502.55	56573.09
502.72	57183.97
502.90	57506.96
503.07	57219.08
503.25	56678.41
503.43	55934.12
503.60	55421.55
503.78	54621.08
503.95	55164.09
504.13	56556.70
504.30	57233.12
504.48	56924.17
504.65	56882.04
504.83	56970.98
505.01	57626.33
505.18	57614.63
505.36	58361.26
505.53	58497.01
505.71	58637.44
505.88	58740.42
506.06	57867.40
506.23	57687.18
506.41	57413.34
506.58	57785.49
506.76	57621.65
506.93	57528.03
507.11	57186.31
507.28	57506.96
507.46	56893.74
507.63	56633.94
507.81	56411.59
507.98	56608.20
508.16	57279.93
508.33	57570.16
508.50	58237.21
508.68	58370.62
508.85	58766.17
509.03	58527.44
509.20	58710.00
509.38	57907.19
509.55	57247.16
509.73	57495.26
509.90	57717.61
510.08	58127.20
510.25	57860.38
510.42	57916.56
510.60	57928.26
510.77	58071.03
510.95	58639.78
511.12	58759.15
511.30	58859.79
511.47	59002.56
511.64	59133.63
511.82	58773.19
511.99	57993.79
512.17	57790.17
512.34	57155.88
512.51	57523.35
512.69	57748.04
512.86	57778.46
513.04	58267.64
513.21	58265.30
513.38	57656.76
513.56	56945.23
513.73	56680.75
513.90	57083.33
514.08	57165.24
514.25	57448.45
514.43	57521.01
514.60	57457.81
514.77	57958.69
514.95	57975.07
515.12	57869.75
515.29	58209.12
515.47	58784.90
515.64	58735.74
515.81	58529.78
515.99	57619.31
516.16	56147.11
516.33	54061.69
516.51	52418.64
516.68	51632.22
516.85	51182.84
517.03	51908.40
517.20	54532.14
517.37	57022.47
517.54	57977.41
517.72	57193.33
517.89	54911.31
518.06	52825.89
518.24	53303.36
518.41	55271.75
518.58	56364.78
518.75	56673.73
518.93	57038.86
519.10	56699.48
519.27	57422.70
519.45	57446.11
519.62	58255.93
519.79	58677.23
519.96	58333.17
520.14	58003.16
520.31	57153.54
520.48	56846.93
520.65	57490.58
520.83	58555.52
521.00	58595.31
521.17	58372.96
521.34	58141.25
521.52	58499.35
521.69	58969.80
521.86	59189.81
522.03	58717.02
522.20	57773.78
522.38	56701.82
522.55	57022.47
522.72	57235.46
522.89	57471.85
523.07	57797.19
523.24	58033.58
523.41	59070.44
523.58	58997.88
523.75	59597.06
523.92	59573.66
524.10	59458.97
524.27	59517.48
524.44	59084.48
524.61	58988.52
524.78	58735.74
524.96	58726.38
525.13	58915.96
525.30	58937.03
525.47	59473.01
525.64	59370.03
525.81	58564.88
525.98	57279.93
526.16	55854.54
526.33	55227.28
526.50	55089.19
526.67	54452.56
526.84	55304.52
527.01	56177.54
527.18	56757.99
527.36	58000.82
527.53	58700.64
527.70	58876.18
527.87	58340.19
528.04	57975.07
528.21	58382.32
528.38	59054.06
528.55	59592.38
528.72	59884.95
528.89	60001.97
529.07	59880.27
529.24	58885.54
529.41	58372.96
529.58	58096.78
529.75	58099.12
529.92	58607.01
530.09	58997.88
530.26	59355.99
530.43	59800.69
530.60	59608.76
530.77	59796.01
530.94	60163.47
531.11	59402.80
531.28	59192.15
531.46	59040.01
531.63	59143.00
531.80	59025.97
531.97	58457.22
532.14	57982.09
532.31	56624.58
532.48	56032.42
532.65	56601.18
532.82	57137.16
532.99	58277.00
533.16	58630.42
533.33	59007.25
533.50	58756.81
533.67	58466.58
533.84	57970.39
534.01	58190.40
534.18	58267.64
534.35	58396.37
534.52	58234.87
534.69	58787.24
534.86	58770.85
535.03	59241.30
535.20	59554.93
535.37	59997.29
535.54	60147.09
535.71	59683.66
535.88	59133.63
536.05	58672.55
536.22	58286.36
536.38	57989.11
536.55	57518.67
536.72	57198.01
536.89	57059.92
537.06	57881.45
537.23	58728.72
537.40	58878.52
537.57	58908.94
537.74	58672.55
537.91	58670.21
538.08	58562.54
538.25	58691.27
538.42	58759.15
538.59	58646.80
538.75	57895.49
538.92	57741.02
539.09	57680.16
539.26	57663.78
539.43	57242.48
539.60	57509.30
539.77	57836.98
539.94	57495.26
540.11	56624.58
540.28	56411.59
540.44	56383.51
540.61	56662.03
540.78	56877.36
540.95	57162.90
541.12	57661.44
541.29	57731.65
541.46	58141.25
541.62	58379.98
541.79	58122.52
541.96	57132.48
542.13	57528.03
542.30	57829.96
542.47	57752.72
542.63	57478.88
542.80	57504.62
542.97	57670.80
543.14	57551.43
543.31	57649.74
543.48	58045.29
543.64	58871.49
543.81	58990.86
543.98	58749.79
544.15	58103.80
544.32	57558.45
544.48	57766.76
544.65	58124.86
544.82	58588.29
544.99	58302.74
545.16	57743.36
545.32	57499.94
545.49	58356.58
545.66	58489.99
545.83	58251.25
546.00	57813.57
546.16	57698.89
546.33	57712.93
546.50	57930.60
546.67	58183.38
546.83	57874.43
547.00	58035.92
547.17	57247.16
547.34	56718.20
547.50	56739.27
547.67	57186.31
547.84	57125.46
548.00	57921.24
548.17	58019.54
548.34	57876.77
548.51	57785.49
548.67	57867.40
548.84	57991.45
549.01	57818.25
549.18	57717.61
549.34	57675.48
549.51	57904.85
549.68	57640.37
549.84	57261.21
550.01	57366.53
550.18	57092.69
550.34	57408.66
550.51	57174.61
550.68	57560.79
550.84	56802.46
551.01	56853.95
551.18	56786.08
551.34	57242.48
551.51	57640.37
551.68	57949.32
551.84	58075.71
552.01	57546.75
552.18	57448.45
552.34	56765.01
552.51	56727.56
552.68	56460.74
552.84	56865.66
553.01	57118.43
553.18	56697.14
553.34	57167.58
553.51	57052.90
553.67	57528.03
553.84	57684.84
554.01	57460.15
554.17	57207.37
554.34	57378.23
554.51	57387.60
554.67	57991.45
554.84	57769.10
555.00	57408.66
555.17	56975.66
555.33	56947.57
555.50	57088.01
555.67	57106.73
555.83	56940.55
556.00	56273.50
556.16	56809.48
556.33	56231.37
556.50	56207.97
556.66	56151.79
556.83	55760.92
556.99	56133.07
557.16	56191.58
557.32	56374.14
557.49	56547.34
557.65	56488.83
557.82	56488.83
557.98	56264.14
558.15	56002.00
558.32	54855.14
558.48	53916.58
558.65	54721.72
558.81	55100.89
558.98	55360.69
559.14	55487.08
559.31	55674.32
559.47	55463.67
559.64	54946.42
559.80	54618.74
559.97	54810.67
560.13	55412.18
560.30	56114.34
560.46	56554.36
560.63	57144.18
560.79	56823.53
560.96	56584.79
561.12	55236.64
561.29	54581.29
561.45	54712.36
561.61	55313.88
561.78	55608.79
561.94	55753.90
562.11	55344.31
562.27	55519.85
562.44	55772.63
562.60	56025.40
562.77	56126.05
562.93	56074.55
563.10	55873.27
563.26	55482.40
563.42	55323.24
563.59	55182.81
563.75	55299.84
563.92	55215.58
564.08	55398.14
564.24	55243.66
564.41	55533.89
564.57	55409.84
564.74	55278.77
564.90	55318.56
565.07	54979.18
565.23	54639.81
565.39	54007.86
565.56	53961.05
565.72	53687.21
565.88	54225.53
566.05	54092.12
566.21	54635.13
566.38	54567.25
566.54	54597.68
566.70	54820.03
566.87	55154.72
567.03	55264.73
567.19	55351.33
567.36	55096.21
567.52	55058.76
567.68	54705.34
567.85	54066.38
568.01	53825.30
568.17	53649.76
568.34	53331.45
568.50	53319.74
568.66	53497.62
568.83	53883.81
568.99	53600.61
569.15	53935.30
569.32	53930.62
569.48	53862.75
569.64	53560.82
569.81	53371.24
569.97	53350.17
570.13	53045.90
570.30	52776.74
570.46	52446.72
570.62	51920.10
570.78	51695.41
570.95	52264.16
571.11	52844.62
571.27	52935.90
571.43	53237.83
571.60	53361.87
571.76	53647.42
571.92	53764.45
572.09	54174.04
572.25	54026.59
572.41	53996.16
572.57	53808.92
572.74	53797.21
572.90	53446.13
573.06	53378.26
573.22	53731.68
573.38	53661.46
573.55	53389.96
573.71	53523.37
573.87	53244.85
574.03	53350.17
574.20	53312.72
574.36	53151.23
574.52	52938.24
574.68	52697.16
574.84	52123.73
575.01	51908.40
575.17	52034.79
575.33	51943.51
575.49	52355.44
575.65	52666.73
575.82	52158.84
575.98	52112.03
576.14	51882.66
576.30	52776.74
576.46	52748.65
576.62	52783.76
576.79	52743.97
576.95	52067.56
577.11	52325.02
577.27	52374.17
577.43	52292.25
577.59	51920.10
577.75	51545.62
577.92	50801.33
578.08	50770.90
578.24	50581.32
578.40	51412.21
578.56	51463.70
578.72	51171.13
578.88	51482.42
579.04	51704.77
579.21	51920.10
579.37	51622.86
579.53	52219.69
579.69	51917.76
579.85	52210.33
580.01	51821.80
580.17	51255.39
580.33	50990.91
580.49	51426.25
580.65	52067.56
580.82	52027.77
580.98	51948.19
581.14	51831.16
581.30	51739.88
581.46	51700.09
581.62	52025.43
581.78	51765.63
581.94	52245.44
582.10	52069.90
582.26	52378.85
582.42	52399.91
582.58	52432.68
582.74	52074.58
582.90	52416.30
583.06	52182.24
583.22	51657.96
583.38	51948.19
583.54	51861.59
583.70	51854.57
583.86	52002.02
584.02	51599.45
584.18	51735.20
584.34	51395.82
584.50	51484.76
584.66	51372.42
584.82	50813.03
584.98	51014.32
585.14	50349.60
585.30	49808.94
