SpectraSuite Data File
++++++++++++++++++++++++++++++++++++
Date: Mon Oct 07 14:53:58 GMT-05:00 2013
User: price-jones
Dark Spectrum Present: No
Reference Spectrum Present: No
Number of Sampled Component Spectra: 1
Spectrometers: USB2+H05261
Integration Time (usec): 100000 (USB2+H05261)
Spectra Averaged: 1 (USB2+H05261)
Boxcar Smoothing: 0 (USB2+H05261)
Correct for Electrical Dark: No (USB2+H05261)
Strobe/Lamp Enabled: No (USB2+H05261)
Correct for Detector Non-linearity: No (USB2+H05261)
Correct for Stray Light: No (USB2+H05261)
Number of Pixels in Processed Spectrum: 2048
>>>>>Begin Processed Spectral Data<<<<<
365.73	0.00
365.92	0.00
366.12	0.00
366.32	0.00
366.52	0.00
366.72	0.00
366.91	0.00
367.11	0.00
367.31	0.00
367.51	0.00
367.70	0.00
367.90	0.00
368.10	0.00
368.30	0.00
368.49	0.00
368.69	0.00
368.89	0.00
369.09	0.00
369.28	0.00
369.48	0.00
369.68	0.00
369.87	0.00
370.07	0.00
370.27	0.00
370.47	730.25
370.66	3283.77
370.86	3873.59
371.06	4337.01
371.25	4269.14
371.45	3946.14
371.65	3510.80
371.84	3283.77
372.04	3412.50
372.24	3758.90
372.44	4067.85
372.63	4032.74
372.83	3786.99
373.03	3253.34
373.22	3117.59
373.42	3190.15
373.62	3548.25
373.81	4007.00
374.01	3932.10
374.21	3763.58
374.40	3363.35
374.60	3482.72
374.79	3960.19
374.99	4573.41
375.19	5008.75
375.38	4844.91
375.58	4723.20
375.78	4571.07
375.97	4657.67
376.17	4795.76
376.37	4627.24
376.56	4835.55
376.76	5252.16
376.95	5434.72
377.15	5781.12
377.35	6160.29
377.54	6188.38
377.74	6553.50
377.93	6380.30
378.13	6394.34
378.33	6092.41
378.52	5591.54
378.72	5350.46
378.91	5338.76
379.11	5076.62
379.31	5046.20
379.50	4910.44
379.70	5383.23
379.89	6012.84
380.09	6090.07
380.28	6633.08
380.48	6413.07
380.68	6239.87
380.87	5947.30
381.07	5799.85
381.26	5315.36
381.46	4947.89
381.65	4727.88
381.85	4519.57
382.04	4276.16
382.24	4163.81
382.43	3882.95
382.63	3817.41
382.83	3864.22
383.02	3824.44
383.22	3810.39
383.41	3843.16
383.61	4152.11
383.80	4746.61
384.00	5298.97
384.19	6001.13
384.39	6237.53
384.58	6340.51
384.78	6200.08
384.97	6223.48
385.17	5879.43
385.36	5502.60
385.56	5298.97
385.75	5355.15
385.95	6092.41
386.14	6668.19
386.34	6569.88
386.53	6239.87
386.72	5905.17
386.92	5893.47
387.11	6113.48
387.31	6635.42
387.50	6333.49
387.70	6181.35
387.89	6104.12
388.09	6015.18
388.28	6328.81
388.48	6403.71
388.67	6745.42
388.86	7403.11
389.06	7999.95
389.25	8287.84
389.45	8456.36
389.64	8475.08
389.84	8379.12
390.03	8163.79
390.22	8205.92
390.42	8395.50
390.61	8936.17
390.81	9909.83
391.00	9694.50
391.19	9769.40
391.39	9331.72
391.58	8788.71
391.78	8196.56
391.97	8294.86
392.16	7398.43
392.36	6897.56
392.55	5596.22
392.75	4430.63
392.94	3566.98
393.13	3618.47
393.33	4091.26
393.52	5327.06
393.71	6502.01
393.91	7377.37
394.10	7801.01
394.29	8769.99
394.49	9568.11
394.68	10099.41
394.88	10321.76
395.07	10602.63
395.26	10487.94
395.46	10015.15
395.65	9696.84
395.84	8606.15
396.04	7052.03
396.23	5664.10
396.42	4891.72
396.62	4535.96
396.81	5313.02
397.00	6885.86
397.19	8844.88
397.39	10483.26
397.58	11449.90
397.77	12306.54
397.97	12762.94
398.16	12837.84
398.35	13231.05
398.55	13757.67
398.74	14251.52
398.93	14946.66
399.12	14413.02
399.32	13479.15
399.51	14188.33
399.70	15122.20
399.90	14881.13
400.09	14967.73
400.28	14560.47
400.47	14773.46
400.67	15527.11
400.86	16032.67
401.05	16149.70
401.24	16081.82
401.44	16388.43
401.63	16173.10
401.82	16463.33
402.01	16549.93
402.21	16580.36
402.40	17025.06
402.59	16058.42
402.78	15475.62
402.97	14869.42
403.17	15417.11
403.36	16336.94
403.55	17062.51
403.74	17535.29
403.93	16594.40
404.13	15220.50
404.32	14773.46
404.51	15763.51
404.70	17036.76
404.89	16931.44
405.09	16688.02
405.28	16177.78
405.47	15967.13
405.66	16285.45
405.85	15796.28
406.05	15468.60
406.24	15384.34
406.43	16025.65
406.62	16931.44
406.81	17186.55
407.00	16252.68
407.20	15936.71
407.39	16156.72
407.58	16681.00
407.77	17390.18
407.96	18085.32
408.15	18150.85
408.34	18345.12
408.54	19101.11
408.73	18998.13
408.92	18906.85
409.11	18534.70
409.30	17376.14
409.49	16219.91
409.68	15459.24
409.87	14918.57
410.07	16079.48
410.26	16919.73
410.45	18167.24
410.64	18335.76
410.83	19014.51
411.02	19234.52
411.21	20524.16
411.40	20058.39
411.59	19854.76
411.78	19960.09
411.98	19953.07
412.17	20233.93
412.36	19569.22
412.55	19807.95
412.74	19360.91
412.93	18824.93
413.12	19239.20
413.31	21067.16
413.50	21397.18
413.69	21605.49
413.88	20601.40
414.07	20329.89
414.26	20446.92
414.45	21240.36
414.64	21235.68
414.83	21153.76
415.02	20521.82
415.22	21111.63
415.41	21245.04
415.60	21659.32
415.79	22792.14
415.98	23459.19
416.17	23508.34
416.36	22370.84
416.55	22593.19
416.74	21326.96
416.93	21113.97
417.12	20996.95
417.31	21345.69
417.50	21413.56
417.69	22417.65
417.88	21912.10
418.07	21769.32
418.26	21511.86
418.45	21706.13
418.64	22340.41
418.83	23421.74
419.02	22963.00
419.21	22567.45
419.39	21827.84
419.58	20664.59
419.77	21008.65
419.96	21928.48
420.15	23199.39
420.34	23498.98
420.53	24283.06
420.72	25202.89
420.91	24519.45
421.10	24091.13
421.29	24217.52
421.48	23295.35
421.67	24610.73
421.86	23606.64
422.05	22263.18
422.24	19917.96
422.43	19826.68
422.61	21823.16
422.80	23508.34
422.99	23791.55
423.18	22803.84
423.37	22183.60
423.56	22302.96
423.75	22661.07
423.94	23225.14
424.13	21841.88
424.32	22052.53
424.50	22125.08
424.69	21961.25
424.88	22097.00
425.07	22106.36
425.26	21727.19
425.45	21350.37
425.64	21439.31
425.83	21153.76
426.01	22497.23
426.20	23255.56
426.39	22796.82
426.58	21343.35
426.77	19623.05
426.96	18799.18
427.15	19569.22
427.33	21315.26
427.52	21867.63
427.71	22071.25
427.90	21900.39
428.09	21598.46
428.28	21284.83
428.46	20535.86
428.65	20451.60
428.84	20713.74
429.03	21013.33
429.22	19899.23
429.40	19042.60
429.59	17472.10
429.78	15246.25
429.97	15234.55
430.16	15552.86
430.34	15756.49
430.53	15475.62
430.72	15908.62
430.91	17362.09
431.10	20603.74
431.28	24109.86
431.47	26071.23
431.66	26443.37
431.85	24194.12
432.03	22342.75
432.22	21088.23
432.41	21928.48
432.60	24524.13
432.79	25458.01
432.97	25947.18
433.16	25394.81
433.35	23302.37
433.54	21212.28
433.72	19601.99
433.91	20215.21
434.10	22555.74
434.28	24210.50
434.47	25406.52
434.66	25055.43
434.85	24489.03
435.03	24559.24
435.22	24643.50
435.41	26274.85
435.59	26431.67
435.78	26424.65
435.97	27171.28
436.16	27501.29
436.34	27487.25
436.53	26679.77
436.72	26438.69
436.90	25294.17
437.09	25296.51
437.28	24772.23
437.46	25530.56
437.65	25745.89
437.84	24084.11
438.02	22281.90
438.21	21771.66
438.40	22899.80
438.58	24915.00
438.77	25242.68
438.96	25624.18
439.14	26864.67
439.33	27360.86
439.52	28112.17
439.70	27159.58
439.89	26806.16
440.08	25738.87
440.26	25914.41
440.45	26338.05
440.63	28617.73
440.82	30270.15
441.01	29741.19
441.19	29411.17
441.38	29493.09
441.57	30782.73
441.75	31332.75
441.94	31377.22
442.12	31388.92
442.31	31641.70
442.50	31922.57
442.68	31110.40
442.87	30932.52
443.05	29956.52
443.24	31007.42
443.43	31564.46
443.61	32063.00
443.80	32765.16
443.98	30752.30
444.17	30731.23
444.35	32397.70
444.54	32723.03
444.73	32734.73
444.91	31449.78
445.10	29961.20
445.28	28594.32
445.47	28166.01
445.65	28416.44
445.84	29652.25
446.02	30293.55
446.21	30239.72
446.39	30850.60
446.58	31126.78
446.77	31611.28
446.95	31819.58
447.14	32718.35
447.32	33392.42
447.51	32479.61
447.69	31548.08
447.88	31082.31
448.06	31339.77
448.25	32362.59
448.43	32671.54
448.62	31655.75
448.80	31782.13
448.99	31927.25
449.17	32086.40
449.36	31941.29
449.54	33455.62
449.73	33954.15
449.91	34602.48
450.10	35005.05
450.28	35669.76
450.46	35637.00
450.65	35393.58
450.83	35152.51
451.02	33596.05
451.20	33869.89
451.39	33883.94
451.57	34153.10
451.76	33984.58
451.94	33682.65
452.13	33303.48
452.31	31723.62
452.49	30242.06
452.68	30127.38
452.86	30618.89
453.05	31058.91
453.23	31971.72
453.42	32425.78
453.60	33298.80
453.78	33369.02
453.97	33504.77
454.15	33362.00
454.34	32786.22
454.52	32971.13
454.70	31983.42
454.89	32720.69
455.07	32610.68
455.26	33268.37
455.44	34246.72
455.62	34836.53
455.81	35400.60
455.99	34923.13
456.17	34873.98
456.36	34485.45
456.54	35718.92
456.73	35601.89
456.91	36191.70
457.09	35894.46
457.28	36821.31
457.46	35475.50
457.64	35229.74
457.83	34263.10
458.01	33181.77
458.19	34368.43
458.38	34497.16
458.56	35838.28
458.74	35552.74
458.93	35019.10
459.11	34712.49
459.29	34452.69
459.48	34424.60
459.66	34108.63
459.84	34698.44
460.03	35267.19
460.21	34998.03
460.39	36034.89
460.57	36163.62
460.76	36627.04
460.94	36308.73
461.12	35969.35
461.31	36240.86
461.49	35878.07
461.67	36184.68
461.85	37134.94
462.04	37230.90
462.22	37013.23
462.40	37081.11
462.59	37071.75
462.77	36538.10
462.95	36620.02
463.13	36924.29
463.32	36318.09
463.50	36023.19
463.68	35995.10
463.86	36327.45
464.05	35910.84
464.23	34822.49
464.41	34761.64
464.59	34029.05
464.78	35934.24
464.96	35386.56
465.14	35257.83
465.32	35999.78
465.50	36720.66
465.69	37523.47
465.87	36301.71
466.05	35594.87
466.23	34033.73
466.41	33453.28
466.60	34192.89
466.78	33900.32
466.96	34927.81
467.14	34969.94
467.32	35842.96
467.51	35950.63
467.69	34120.33
467.87	35072.93
468.05	35941.27
468.23	35849.99
468.41	35697.85
468.60	35646.36
468.78	35955.31
468.96	35353.79
469.14	36385.97
469.32	36336.82
469.50	34995.69
469.69	35115.06
469.87	34408.22
470.05	34593.12
470.23	34457.37
470.41	34405.88
470.59	35159.53
470.77	35512.95
470.95	36032.55
471.14	36774.50
471.32	36460.87
471.50	38195.20
471.68	38359.04
471.86	38806.08
472.04	39103.33
472.22	39023.75
472.40	37453.25
472.58	36708.96
472.77	36170.64
472.95	37125.58
473.13	37780.93
473.31	36837.69
473.49	37123.24
473.67	38337.98
473.85	38309.89
474.03	39356.11
474.21	39391.22
474.39	39789.11
474.57	39667.40
474.75	39526.97
474.93	39470.79
475.12	38717.14
475.30	38693.74
475.48	38918.43
475.66	39321.00
475.84	39133.76
476.02	38836.51
476.20	38162.43
476.38	39159.50
476.56	40079.33
476.74	40100.40
476.92	40603.61
477.10	41383.01
477.28	42450.30
477.46	42347.31
477.64	43143.09
477.82	42808.40
478.00	42976.92
478.18	42230.29
478.36	41965.81
478.54	42263.05
478.72	42328.59
478.90	43480.13
479.08	44718.28
479.26	45282.34
479.44	44877.43
479.62	44814.24
479.80	44924.24
479.98	44985.10
480.16	45446.18
480.34	44704.23
480.52	45619.38
480.70	45570.23
480.88	45413.41
481.06	45837.05
481.24	46548.57
481.41	47491.81
481.59	47770.33
481.77	48004.39
481.95	46731.14
482.13	47004.98
482.31	46941.78
482.49	47267.12
482.67	47526.92
482.85	47910.77
483.03	48137.80
483.21	48891.45
483.39	48498.24
483.57	47791.40
483.74	47821.83
483.92	47608.84
484.10	47800.76
484.28	49118.48
484.46	49062.31
484.64	49497.65
484.82	48659.74
485.00	48215.04
485.18	47732.89
485.35	46232.60
485.53	43243.74
485.71	39770.38
485.89	38679.69
486.07	41078.74
486.25	44685.51
486.43	46363.67
486.61	47569.05
486.78	47339.68
486.96	47547.98
487.14	48954.64
487.32	49907.24
487.50	50321.52
487.68	51798.40
487.85	52299.27
488.03	52025.43
488.21	51789.03
488.39	51089.21
488.57	50396.42
488.75	49673.19
488.92	51243.69
489.10	53169.95
489.28	54548.53
489.46	54915.99
489.64	54876.20
489.81	55079.83
489.99	54569.59
490.17	54749.81
490.35	54997.91
490.53	54712.36
490.70	54183.40
490.88	54143.61
491.06	55152.38
491.24	55044.72
491.41	54127.23
491.59	52261.82
491.77	51749.24
491.95	52774.40
492.13	53832.32
492.30	55168.77
492.48	55929.44
492.66	56212.65
492.84	56207.97
493.01	56041.79
493.19	55620.49
493.37	55157.06
493.54	54976.84
493.72	55643.90
493.90	56598.83
494.08	57174.61
494.25	57621.65
494.43	57570.16
494.61	57755.06
494.79	58024.22
494.96	57755.06
495.14	57415.68
495.32	56465.42
495.49	55842.84
495.67	56987.36
495.85	58061.67
496.02	58642.12
496.20	58384.66
496.38	57853.36
496.55	57794.85
496.73	58136.57
496.91	58279.34
497.09	59147.68
497.26	59049.38
497.44	58663.19
497.62	58028.90
497.79	57331.42
497.97	56266.48
498.14	56271.16
498.32	57174.61
498.50	58148.27
498.67	58541.48
498.85	58515.73
499.03	58707.66
499.20	58717.02
499.38	59002.56
499.56	58855.11
499.73	58473.60
499.91	58059.33
500.08	57518.67
500.26	56968.64
500.44	57389.94
500.61	57916.56
500.79	57977.41
500.97	57354.83
501.14	57202.69
501.32	57347.81
501.49	57176.95
501.67	57502.28
501.84	57808.89
502.02	58206.78
502.20	58522.76
502.37	58508.71
502.55	58712.34
502.72	58878.52
502.90	59391.09
503.07	59208.53
503.25	58876.18
503.43	57972.73
503.60	57429.72
503.78	56917.15
503.95	57488.24
504.13	58660.85
504.30	59379.39
504.48	59171.08
504.65	58838.73
504.83	58810.64
505.01	59421.52
505.18	59650.89
505.36	60285.18
505.53	60151.77
505.71	60465.40
505.88	60626.90
506.06	60093.25
506.23	59674.30
506.41	59363.01
506.58	59463.65
506.76	59461.31
506.93	59461.31
507.11	59121.93
507.28	59222.58
507.46	59030.65
507.63	58347.21
507.81	58045.29
507.98	58487.65
508.16	59255.34
508.33	59465.99
508.50	59969.21
508.68	60135.38
508.85	60633.92
509.03	60299.22
509.20	60266.45
509.38	59777.28
509.55	59150.02
509.73	59100.87
509.90	59681.32
510.08	59920.05
510.25	59784.30
510.42	59639.19
510.60	59739.83
510.77	59803.03
510.95	60350.71
511.12	60484.12
511.30	60605.83
511.47	60989.68
511.64	60725.20
511.82	60816.48
511.99	60030.06
512.17	59395.77
512.34	59032.99
512.51	59245.98
512.69	59260.02
512.86	59477.69
513.04	59884.95
513.21	59913.03
513.38	59559.61
513.56	58993.20
513.73	58546.16
513.90	58658.51
514.08	58810.64
514.25	59203.85
514.43	59255.34
514.60	59386.41
514.77	59533.87
514.95	59601.74
515.12	59543.23
515.29	59681.32
515.47	60126.02
515.64	60310.92
515.81	59983.25
515.99	59561.95
516.16	58258.27
516.33	56053.49
516.51	54302.77
516.68	53640.40
516.85	53233.14
517.03	53659.12
517.20	56200.94
517.37	58585.95
517.54	59646.21
517.72	59089.16
517.89	56706.50
518.06	54471.29
518.24	54862.16
518.41	56973.32
518.58	58094.44
518.75	58316.79
518.93	58492.33
519.10	58431.47
519.27	58721.70
519.45	58976.82
519.62	59632.17
519.79	59978.57
519.96	59964.52
520.14	59374.71
520.31	58520.41
520.48	58618.72
520.65	58946.39
520.83	59796.01
521.00	60175.17
521.17	59891.97
521.34	59690.68
521.52	59683.66
521.69	60350.71
521.86	60711.16
522.03	60404.55
522.20	59175.76
522.38	58316.79
522.55	58248.91
522.72	58789.58
522.89	59093.85
523.07	59089.16
523.24	59540.89
523.41	60362.42
523.58	60477.10
523.75	60961.59
523.92	60743.92
524.10	60779.03
524.27	60793.07
524.44	60507.53
524.61	60329.65
524.78	60273.48
524.96	59966.87
525.13	60090.91
525.30	60434.97
525.47	60781.37
525.64	60736.90
525.81	60238.37
525.98	58997.88
526.16	57340.78
526.33	56601.18
526.50	56425.64
526.67	56058.17
526.84	56533.30
527.01	57560.79
527.18	58379.98
527.36	59318.54
527.53	59959.84
527.70	60289.86
527.87	59671.96
528.04	59173.42
528.21	59924.74
528.38	60317.95
528.55	60956.91
528.72	61073.94
528.89	61317.35
529.07	60973.30
529.24	60493.49
529.41	59952.82
529.58	59292.79
529.75	59449.61
529.92	59660.26
530.09	60189.22
530.26	60498.17
530.43	60809.46
530.60	60898.40
530.77	61118.41
530.94	61272.88
531.11	60748.60
531.28	60519.23
531.46	60086.23
531.63	60273.48
531.80	60217.30
531.97	59707.07
532.14	58988.52
532.31	58232.53
532.48	57406.32
532.65	57647.39
532.82	58663.19
532.99	59641.53
533.16	59777.28
533.33	60264.11
533.50	60189.22
533.67	59686.00
533.84	59014.27
534.01	59215.55
534.18	59491.74
534.35	59690.68
534.52	59487.06
534.69	59817.07
534.86	60266.45
535.03	60217.30
535.20	60729.88
535.37	61090.32
535.54	61102.03
535.71	61043.51
535.88	60552.00
536.05	59910.69
536.22	59365.35
536.38	59414.50
536.55	58852.77
536.72	58279.34
536.89	58272.32
537.06	58955.75
537.23	59845.16
537.40	59894.31
537.57	59969.21
537.74	59838.14
537.91	59770.26
538.08	59678.98
538.25	59636.85
538.42	60039.42
538.59	59667.28
538.75	59311.52
538.92	58831.71
539.09	58717.02
539.26	58740.42
539.43	58529.78
539.60	58473.60
539.77	58735.74
539.94	58564.88
540.11	57825.28
540.28	57282.27
540.44	57570.16
540.61	57675.48
540.78	57855.70
540.95	58326.15
541.12	58632.76
541.29	58731.06
541.46	59049.38
541.62	59154.70
541.79	58960.44
541.96	58581.27
542.13	58562.54
542.30	58733.40
542.47	58962.78
542.63	58590.63
542.80	58494.67
542.97	58506.37
543.14	58298.06
543.31	58515.73
543.48	58946.39
543.64	59742.17
543.81	60009.00
543.98	59831.11
544.15	59260.02
544.32	58567.23
544.48	58635.10
544.65	59100.87
544.82	59426.20
544.99	59082.14
545.16	58993.20
545.32	58520.41
545.49	59250.66
545.66	59728.13
545.83	59150.02
546.00	58815.32
546.16	58511.05
546.33	58700.64
546.50	58714.68
546.67	59044.69
546.83	58553.18
547.00	58599.99
547.17	58178.70
547.34	57593.56
547.50	57586.54
547.67	58087.42
547.84	58176.36
548.00	58389.34
548.17	58787.24
548.34	58644.46
548.51	58667.87
548.67	58834.05
548.84	58988.52
549.01	58717.02
549.18	58693.61
549.34	58506.37
549.51	58618.72
549.68	58319.13
549.84	58239.55
550.01	58321.47
550.18	57858.04
550.34	58120.18
550.51	58155.29
550.68	58181.04
550.84	57916.56
551.01	57886.13
551.18	58028.90
551.34	58028.90
551.51	58520.41
551.68	58681.91
551.84	58660.85
552.01	58485.31
552.18	58309.77
552.34	57315.04
552.51	57162.90
552.68	57200.35
552.84	57528.03
553.01	58045.29
553.18	57925.92
553.34	57923.58
553.51	57818.25
553.67	58251.25
553.84	58174.02
554.01	58403.39
554.17	57935.28
554.34	57832.30
554.51	58211.46
554.67	58595.31
554.84	58473.60
555.00	58099.12
555.17	58061.67
555.33	57825.28
555.50	57855.70
555.67	57701.23
555.83	57822.93
556.00	57462.49
556.16	57333.76
556.33	57020.13
556.50	56821.19
556.66	56757.99
556.83	56320.31
556.99	56706.50
557.16	56949.92
557.32	57249.50
557.49	57523.35
557.65	57242.48
557.82	57261.21
557.98	56683.09
558.15	56825.87
558.32	56058.17
558.48	55159.41
558.65	55154.72
558.81	55601.77
558.98	56020.72
559.14	56254.78
559.31	56229.03
559.47	56158.81
559.64	55941.14
559.80	55613.47
559.97	55576.02
560.13	55791.35
560.30	56912.47
560.46	57588.88
560.63	57511.64
560.79	57570.16
560.96	57277.59
561.12	56037.11
561.29	55103.23
561.45	55154.72
561.61	56072.21
561.78	56271.16
561.94	56217.33
562.11	55903.70
562.27	55657.94
562.44	56142.43
562.60	56310.95
562.77	56603.52
562.93	56409.25
563.10	56420.95
563.26	55973.91
563.42	55913.06
563.59	55702.41
563.75	55695.39
563.92	55913.06
564.08	55636.87
564.24	55849.86
564.41	55994.98
564.57	56090.94
564.74	55669.64
564.90	56041.79
565.07	55430.91
565.23	55079.83
565.39	54756.83
565.56	54370.64
565.72	53991.48
565.88	54412.77
566.05	54681.94
566.21	54997.91
566.38	54808.32
566.54	54878.54
566.70	55543.25
566.87	55807.73
567.03	55393.46
567.19	55852.20
567.36	55374.73
567.52	55487.08
567.68	55381.76
567.85	54536.82
568.01	54143.61
568.17	54003.18
568.34	53626.35
568.50	53633.38
568.66	53886.15
568.83	54405.75
568.99	54361.28
569.15	54499.37
569.32	54597.68
569.48	54258.30
569.64	54103.82
569.81	53532.73
569.97	53553.80
570.13	53605.29
570.30	53200.38
570.46	52884.40
570.62	52144.80
570.78	52081.60
570.95	52299.27
571.11	53256.55
571.27	53237.83
571.43	53675.51
571.60	53750.40
571.76	53806.58
571.92	54391.71
572.09	53996.16
572.25	54010.20
572.41	54293.41
572.57	54003.18
572.74	54124.89
572.90	53682.53
573.06	53771.47
573.22	54148.29
573.38	53734.02
573.55	53897.86
573.71	53897.86
573.87	54176.38
574.03	53605.29
574.20	53497.62
574.36	53399.32
574.52	53237.83
574.68	52907.81
574.84	52739.29
575.01	52081.60
575.17	51987.98
575.33	52191.61
575.49	52739.29
575.65	52811.85
575.82	52353.10
575.98	52044.15
576.14	52711.20
576.30	52999.09
576.46	53078.67
576.62	52800.15
576.79	52699.50
576.95	52479.49
577.11	52346.08
577.27	52568.43
577.43	52769.72
577.59	52060.54
577.75	51753.93
577.92	51133.68
578.08	51084.53
578.24	50817.71
578.40	51187.52
578.56	51821.80
578.72	51739.88
578.88	51985.64
579.04	51863.93
579.21	51725.84
579.37	52009.04
579.53	52172.88
579.69	52100.32
579.85	52458.43
580.01	51966.91
580.17	51468.38
580.33	51489.45
580.49	51753.93
580.65	52060.54
580.82	52233.74
580.98	52184.58
581.14	51917.76
581.30	51650.94
581.46	51838.18
581.62	51971.60
581.78	51732.86
581.94	52339.06
582.10	52013.73
582.26	52275.87
582.42	52266.50
582.58	52233.74
582.74	52116.71
582.90	52271.18
583.06	51901.38
583.22	52044.15
583.38	52128.41
583.54	51505.83
583.70	51667.33
583.86	51735.20
584.02	51714.14
584.18	51772.65
584.34	51758.61
584.50	51550.30
584.66	51433.27
584.82	50841.12
584.98	50880.91
585.14	50543.87
