SpectraSuite Data File
++++++++++++++++++++++++++++++++++++
Date: Mon Oct 07 14:53:03 GMT-05:00 2013
User: price-jones
Dark Spectrum Present: No
Reference Spectrum Present: No
Number of Sampled Component Spectra: 1
Spectrometers: USB2+H05261
Integration Time (usec): 100000 (USB2+H05261)
Spectra Averaged: 1 (USB2+H05261)
Boxcar Smoothing: 0 (USB2+H05261)
Correct for Electrical Dark: No (USB2+H05261)
Strobe/Lamp Enabled: No (USB2+H05261)
Correct for Detector Non-linearity: No (USB2+H05261)
Correct for Stray Light: No (USB2+H05261)
Number of Pixels in Processed Spectrum: 2048
>>>>>Begin Processed Spectral Data<<<<<
365.73	0.00
365.92	0.00
366.12	0.00
366.32	0.00
366.52	0.00
366.72	0.00
366.91	0.00
367.11	0.00
367.31	0.00
367.51	0.00
367.70	0.00
367.90	0.00
368.10	0.00
368.30	0.00
368.49	0.00
368.69	0.00
368.89	0.00
369.09	0.00
369.28	0.00
369.48	0.00
369.68	0.00
369.87	0.00
370.07	0.00
370.27	0.00
370.47	428.32
370.66	2902.26
370.86	3295.47
371.06	3695.71
371.25	3756.56
371.45	3194.83
371.65	2937.37
371.84	2883.54
372.04	2918.65
372.24	3260.37
372.44	3431.23
372.63	3365.69
372.83	3082.49
373.03	2752.47
373.22	2551.18
373.42	2726.72
373.62	3126.96
373.81	3328.24
374.01	3445.27
374.21	2991.20
374.40	2759.49
374.60	2918.65
374.79	3375.05
374.99	3815.07
375.19	4035.08
375.38	4210.62
375.58	3946.14
375.78	3765.92
375.97	3911.04
376.17	4100.62
376.37	3983.59
376.56	4229.35
376.76	4421.27
376.95	4620.22
377.15	4828.53
377.35	5093.01
377.54	5224.08
377.74	5418.34
377.93	5628.99
378.13	5282.59
378.33	4952.57
378.52	4760.65
378.72	4379.14
378.91	4404.89
379.11	4304.25
379.31	4077.21
379.50	4152.11
379.70	4510.21
379.89	4882.36
380.09	5142.16
380.28	5338.76
380.48	5460.47
380.68	5369.19
380.87	5125.77
381.07	4723.20
381.26	4376.80
381.46	4093.60
381.65	3962.53
381.85	4065.51
382.04	3695.71
382.24	3480.38
382.43	3288.45
382.63	3166.74
382.83	3251.00
383.02	3382.07
383.22	3393.78
383.41	3176.11
383.61	3426.54
383.80	4002.32
384.00	4599.15
384.19	5263.86
384.39	5275.57
384.58	5313.02
384.78	5158.54
384.97	5121.09
385.17	5001.72
385.36	4631.92
385.56	4486.81
385.75	4669.37
385.95	5076.62
386.14	5425.36
386.34	5570.48
386.53	5214.71
386.72	4940.87
386.92	4983.00
387.11	5205.35
387.31	5432.38
387.50	5329.40
387.70	5076.62
387.89	5107.05
388.09	5100.03
388.28	5313.02
388.48	5097.69
388.67	5631.33
388.86	6338.17
389.06	6817.98
389.25	7173.74
389.45	7091.82
389.64	7178.42
389.84	7049.69
390.03	6993.52
390.22	7012.24
390.42	7190.13
390.61	7686.32
390.81	8280.82
391.00	8273.79
391.19	8154.43
391.39	7913.35
391.58	7513.12
391.78	6888.20
391.97	6883.52
392.16	6347.53
392.36	5584.52
392.55	4454.04
392.75	3676.98
392.94	3063.76
393.13	3019.29
393.33	3637.19
393.52	4571.07
393.71	5547.07
393.91	6277.32
394.10	6806.28
394.29	7478.01
394.49	8035.06
394.68	8540.61
394.88	8807.44
395.07	9053.19
395.26	8720.84
395.46	8559.34
395.65	8159.11
395.84	7061.40
396.04	6150.93
396.23	4887.04
396.42	4053.81
396.62	3995.29
396.81	4629.58
397.00	5919.21
397.19	7431.20
397.39	8688.07
397.58	10225.80
397.77	10342.83
397.97	10881.15
398.16	10958.39
398.35	11206.48
398.55	11714.38
398.74	12067.80
398.93	12208.23
399.12	12264.41
399.32	11698.00
399.51	11992.90
399.70	12814.43
399.90	12475.06
400.09	12793.37
400.28	12465.69
400.47	12795.71
400.67	13378.50
400.86	13724.90
401.05	13593.83
401.24	13659.37
401.44	13989.38
401.63	14090.02
401.82	14071.30
402.01	13923.85
402.21	13987.04
402.40	14216.41
402.59	13731.92
402.78	13092.96
402.97	12685.70
403.17	13380.84
403.36	14080.66
403.55	14478.55
403.74	14862.40
403.93	13994.06
404.13	13008.70
404.32	12905.71
404.51	13359.78
404.70	14384.93
404.89	14150.88
405.09	14256.20
405.28	13741.29
405.47	13673.41
405.66	13771.71
405.85	13397.23
406.05	12910.40
406.24	13062.53
406.43	13778.73
406.62	14352.16
406.81	14408.34
407.00	13783.41
407.20	13514.25
407.39	13605.53
407.58	14295.99
407.77	14869.42
407.96	15157.31
408.15	15559.88
408.34	15632.44
408.54	16212.89
408.73	16229.27
408.92	16058.42
409.11	15496.69
409.30	15140.93
409.49	14045.55
409.68	12940.82
409.87	12713.79
410.07	13495.53
410.26	14602.60
410.45	15545.84
410.64	15726.06
410.83	16297.15
411.02	16587.38
411.21	17444.01
411.40	16842.50
411.59	17500.19
411.78	17298.90
411.98	16645.89
412.17	17174.85
412.36	16718.45
412.55	17057.82
412.74	16699.72
412.93	16397.79
413.12	16568.65
413.31	17895.74
413.50	18164.90
413.69	18181.28
413.88	17802.11
414.07	16896.33
414.26	17298.90
414.45	18031.49
414.64	17858.29
414.83	17970.63
415.02	17736.58
415.22	17668.70
415.41	18087.66
415.60	18895.14
415.79	19529.43
415.98	19843.06
416.17	19807.95
416.36	19286.01
416.55	19014.51
416.74	18487.89
416.93	17975.31
417.12	17877.01
417.31	18097.02
417.50	18621.30
417.69	19197.07
417.88	19054.30
418.07	18677.48
418.26	18345.12
418.45	18707.90
418.64	19386.66
418.83	20091.16
419.02	19852.42
419.21	19302.40
419.39	18663.43
419.58	17802.11
419.77	17951.91
419.96	18899.83
420.15	19950.73
420.34	20414.15
420.53	21268.45
420.72	21359.73
420.91	21509.52
421.10	20706.72
421.29	21006.31
421.48	20056.05
421.67	21041.42
421.86	20346.28
422.05	19220.48
422.24	17240.39
422.43	17289.54
422.61	19150.26
422.80	20514.80
422.99	20470.33
423.18	19335.17
423.37	19241.54
423.56	19194.73
423.75	19707.31
423.94	20084.14
424.13	19061.32
424.32	18941.96
424.50	19049.62
424.69	19187.71
424.88	18953.66
425.07	18906.85
425.26	18948.98
425.45	18562.79
425.64	18169.58
425.83	18333.42
426.01	19609.01
426.20	20011.58
426.39	19934.34
426.58	18246.82
426.77	17069.53
426.96	16407.16
427.15	17142.08
427.33	18424.70
427.52	19243.88
427.71	19103.45
427.90	19110.47
428.09	18946.64
428.28	18672.79
428.46	17991.70
428.65	17270.81
428.84	17769.35
429.03	18314.69
429.22	17366.78
429.40	16421.20
429.59	14888.15
429.78	13284.88
429.97	13254.45
430.16	13156.15
430.34	13490.85
430.53	13273.18
430.72	13645.32
430.91	14963.04
431.10	17947.23
431.28	21184.19
431.47	22815.54
431.66	22796.82
431.85	20851.83
432.03	19096.43
432.22	18373.21
432.41	19208.78
432.60	21191.21
432.79	22101.68
432.97	22733.62
433.16	21984.65
433.35	19845.40
433.54	17790.41
433.72	17181.87
433.91	17582.10
434.10	19917.96
434.28	21291.85
434.47	22354.46
434.66	21771.66
434.85	21120.99
435.03	21177.17
435.22	21579.74
435.41	23166.62
435.59	22843.63
435.78	23730.69
435.97	24074.75
436.16	24072.41
436.34	23660.48
436.53	23222.80
436.72	23307.05
436.90	22024.44
437.09	21799.75
437.28	21685.06
437.46	22497.23
437.65	22115.72
437.84	20973.54
438.02	19349.21
438.21	18979.40
438.40	20203.50
438.58	21738.90
438.77	22544.04
438.96	22485.53
439.14	23681.54
439.33	23941.34
439.52	24428.17
439.70	23843.04
439.89	23356.21
440.08	22518.29
440.26	22874.06
440.45	23218.11
440.63	24666.91
440.82	26441.03
441.01	25832.49
441.19	25921.43
441.38	25862.92
441.57	27037.87
441.75	27314.05
441.94	27672.15
442.12	27269.58
442.31	27798.54
442.50	28006.85
442.68	27309.37
442.87	27161.92
443.05	26923.18
443.24	26920.84
443.43	27983.44
443.61	28126.22
443.80	28655.18
443.98	27154.90
444.17	27290.65
444.35	28886.89
444.54	28929.02
444.73	28697.31
444.91	27400.65
445.10	26635.30
445.28	25376.09
445.47	25027.35
445.65	25158.42
445.84	26103.99
446.02	26588.49
446.21	27023.83
446.39	27400.65
446.58	27655.77
446.77	28203.46
446.95	28369.63
447.14	28858.81
447.32	29282.44
447.51	28493.68
447.69	27831.31
447.88	27264.90
448.06	27772.80
448.25	28381.34
448.43	28851.78
448.62	27934.29
448.80	28048.98
448.99	28114.52
449.17	28496.02
449.36	28367.29
449.54	29457.98
449.73	29780.98
449.91	30033.75
450.10	31243.81
450.28	31489.57
450.46	31278.92
450.65	31314.03
450.83	30902.09
451.02	30162.48
451.20	30707.83
451.39	30106.31
451.57	30157.80
451.76	30110.99
451.94	29715.44
452.13	29544.58
452.31	27917.91
452.49	26925.52
452.68	26897.44
452.86	26792.11
453.05	27777.48
453.23	28603.69
453.42	29099.88
453.60	29347.98
453.78	29830.13
453.97	29443.94
454.15	29563.31
454.34	28617.73
454.52	29212.23
454.70	28769.86
454.89	28687.95
455.07	29207.55
455.26	29481.39
455.44	30335.68
455.62	31257.85
455.81	31260.20
455.99	30909.11
456.17	30574.42
456.36	30529.95
456.54	31456.80
456.73	31379.56
456.91	31810.22
457.09	32217.47
457.28	32818.99
457.46	31576.17
457.64	31456.80
457.83	30232.70
458.01	29673.31
458.19	30976.99
458.38	30438.67
458.56	32077.04
458.74	31267.22
458.93	30829.54
459.11	30895.07
459.29	30590.80
459.48	30558.03
459.66	30756.98
459.84	31199.34
460.03	31667.45
460.21	31531.70
460.39	32470.25
460.57	32460.89
460.76	32793.25
460.94	32772.18
461.12	32381.31
461.31	32580.26
461.49	32315.78
461.67	32275.99
461.85	33050.70
462.04	33237.95
462.22	33668.61
462.40	33106.88
462.59	32877.51
462.77	33319.87
462.95	33144.33
463.13	32783.88
463.32	32140.24
463.50	32402.38
463.68	32606.00
463.86	32374.29
464.05	31901.50
464.23	31342.11
464.41	31159.55
464.59	30625.91
464.78	32187.05
464.96	32060.66
465.14	31428.71
465.32	32432.80
465.50	33200.50
465.69	33598.39
465.87	33029.64
466.05	32058.32
466.23	30270.15
466.41	29876.94
466.60	31110.40
466.78	30740.60
466.96	31398.29
467.14	32055.98
467.32	32048.96
467.51	32306.41
467.69	31182.96
467.87	31601.91
468.05	32233.86
468.23	32219.81
468.41	31892.14
468.60	32313.44
468.78	32753.46
468.96	32123.85
469.14	33097.52
469.32	32978.15
469.50	31147.85
469.69	31599.57
469.87	31143.17
470.05	31353.82
470.23	31091.68
470.41	31234.45
470.59	31658.09
470.77	31447.44
470.95	32446.85
471.14	33340.93
471.32	32837.72
471.50	35021.44
471.68	34808.45
471.86	35005.05
472.04	35255.49
472.22	35166.55
472.40	33486.04
472.58	33331.57
472.77	33027.30
472.95	33961.17
473.13	34422.26
473.31	33727.12
473.49	33921.38
473.67	34328.64
473.85	34642.27
474.03	35665.08
474.21	35803.17
474.39	35924.88
474.57	36407.03
474.75	36086.38
474.93	35618.27
475.12	35161.87
475.30	34892.71
475.48	35414.65
475.66	35768.07
475.84	35246.13
476.02	35150.17
476.20	34707.80
476.38	35227.40
476.56	36561.51
476.74	36549.81
476.92	37031.96
477.10	37467.30
477.28	38567.35
477.46	38880.98
477.64	38866.94
477.82	39147.80
478.00	39248.44
478.18	38813.10
478.36	38054.77
478.54	38618.84
478.72	38944.17
478.90	40084.01
479.08	40734.68
479.26	41280.03
479.44	40720.64
479.62	41277.69
479.80	40950.01
479.98	41125.55
480.16	41439.18
480.34	41034.27
480.52	41193.43
480.70	41633.45
480.88	41546.85
481.06	42270.08
481.24	42642.22
481.41	43756.32
481.59	44470.18
481.77	44004.41
481.95	42997.98
482.13	43093.94
482.31	42656.26
482.49	43873.34
482.67	43840.57
482.85	44289.96
483.03	44678.49
483.21	44699.55
483.39	45214.47
483.57	43952.92
483.74	43997.39
483.92	44175.27
484.10	44748.70
484.28	45673.21
484.46	45762.15
484.64	46426.87
484.82	45350.22
485.00	44526.35
485.18	44444.43
485.35	42576.69
485.53	39599.52
485.71	36048.93
485.89	36002.12
486.07	37794.97
486.25	41251.94
486.43	43421.62
486.61	43601.84
486.78	43613.54
486.96	43777.38
487.14	45638.11
487.32	46260.69
487.50	47732.89
487.68	48741.66
487.85	48940.60
488.03	48694.85
488.21	48994.43
488.39	48130.78
488.57	46855.18
488.75	47023.70
488.92	48090.99
489.10	50513.44
489.28	51721.16
489.46	52573.11
489.64	52428.00
489.81	52507.58
489.99	52189.27
490.17	52016.07
490.35	52442.04
490.53	51517.53
490.70	51454.34
490.88	51512.85
491.06	52495.88
491.24	52364.81
491.41	51306.88
491.59	49563.18
491.77	48760.38
491.95	49965.76
492.13	51606.47
492.30	52608.22
492.48	53663.80
492.66	54007.86
492.84	53712.95
493.01	53631.04
493.19	53322.08
493.37	52875.04
493.54	52650.35
493.72	53343.15
493.90	54424.48
494.08	55093.87
494.25	55309.20
494.43	55480.06
494.61	55875.61
494.79	56093.28
494.96	55767.94
495.14	54976.84
495.32	54136.59
495.49	53841.68
495.67	54518.10
495.85	56128.39
496.02	56535.64
496.20	56095.62
496.38	55669.64
496.55	55561.98
496.73	56236.05
496.91	56006.68
497.09	56750.97
497.26	57024.81
497.44	56399.89
497.62	55964.55
497.79	54969.82
497.97	53680.19
498.14	53965.73
498.32	55601.77
498.50	56041.79
498.67	56879.70
498.85	56334.35
499.03	56732.25
499.20	56982.68
499.38	57116.09
499.56	56790.76
499.73	56360.10
499.91	55805.39
500.08	55114.94
500.26	54878.54
500.44	55344.31
500.61	56004.34
500.79	55856.88
500.97	55416.86
501.14	55182.81
501.32	55021.31
501.49	55253.03
501.67	55402.82
501.84	55920.08
502.02	56156.47
502.20	56495.85
502.37	56535.64
502.55	56580.11
502.72	57233.12
502.90	57675.48
503.07	57251.84
503.25	56647.99
503.43	56020.72
503.60	55480.06
503.78	54607.04
503.95	55264.73
504.13	56842.25
504.30	57434.41
504.48	57174.61
504.65	56839.91
504.83	57050.56
505.01	57523.35
505.18	58087.42
505.36	58546.16
505.53	58433.81
505.71	58773.19
505.88	58747.45
506.06	58272.32
506.23	57853.36
506.41	57427.38
506.58	57771.44
506.76	57827.62
506.93	57621.65
507.11	57375.89
507.28	57628.67
507.46	57212.06
507.63	56821.19
507.81	56385.85
507.98	56708.84
508.16	57382.91
508.33	58017.20
508.50	58169.33
508.68	58522.76
508.85	58883.20
509.03	58878.52
509.20	58588.29
509.38	58021.88
509.55	57303.34
509.73	57354.83
509.90	58017.20
510.08	58166.99
510.25	58272.32
510.42	57916.56
510.60	57839.32
510.77	58326.15
510.95	58646.80
511.12	58688.93
511.30	59143.00
511.47	59332.58
511.64	59278.75
511.82	58883.20
511.99	58131.89
512.17	57930.60
512.34	57343.12
512.51	57588.88
512.69	57841.66
512.86	57979.75
513.04	58223.17
513.21	58358.92
513.38	57841.66
513.56	57340.78
513.73	56926.51
513.90	57176.95
514.08	57263.55
514.25	57420.36
514.43	57832.30
514.60	57687.18
514.77	57808.89
514.95	57946.98
515.12	57844.00
515.29	58155.29
515.47	58471.26
515.64	58862.13
515.81	58377.64
515.99	57911.88
516.16	56425.64
516.33	53947.01
516.51	52701.84
516.68	51807.76
516.85	51416.89
517.03	52193.95
517.20	55049.40
517.37	57151.20
517.54	57977.41
517.72	57413.34
517.89	54717.04
518.06	52720.57
518.24	53055.26
518.41	55456.65
518.58	56783.74
518.75	56743.95
518.93	56832.89
519.10	56870.34
519.27	57340.78
519.45	57687.18
519.62	58319.13
519.79	58564.88
519.96	58307.43
520.14	57937.62
520.31	57242.48
520.48	57162.90
520.65	57584.20
520.83	58511.05
521.00	58791.92
521.17	58433.81
521.34	58265.30
521.52	58394.03
521.69	59114.91
521.86	59241.30
522.03	58866.81
522.20	57659.10
522.38	56835.23
522.55	56970.98
522.72	57544.41
522.89	57406.32
523.07	57677.82
523.24	57986.77
523.41	58857.45
523.58	59159.38
523.75	59716.43
523.92	59611.10
524.10	59578.34
524.27	59400.46
524.44	59257.68
524.61	58787.24
524.78	59021.29
524.96	58700.64
525.13	58869.15
525.30	58993.20
525.47	59613.44
525.64	59421.52
525.81	58805.96
525.98	57200.35
526.16	55938.80
526.33	55077.49
526.50	54740.45
526.67	54824.71
526.84	55480.06
527.01	56329.67
527.18	57134.82
527.36	58064.01
527.53	58864.47
527.70	58740.42
527.87	58419.77
528.04	57970.39
528.21	58677.23
528.38	59288.11
528.55	59620.47
528.72	59934.10
528.89	60324.97
529.07	59676.64
529.24	59128.95
529.41	58595.31
529.58	58129.54
529.75	58330.83
529.92	58698.30
530.09	58976.82
530.26	59435.56
530.43	59807.71
530.60	59863.88
530.77	59877.93
530.94	59997.29
531.11	59435.56
531.28	59269.39
531.46	59168.74
531.63	59107.89
531.80	59332.58
531.97	58585.95
532.14	57900.17
532.31	56905.44
532.48	56381.16
532.65	56624.58
532.82	57394.62
532.99	58251.25
533.16	58724.04
533.33	59285.77
533.50	59100.87
533.67	58314.45
533.84	57916.56
534.01	58298.06
534.18	58342.53
534.35	58644.46
534.52	58452.54
534.69	58738.08
534.86	59063.42
535.03	59444.93
535.20	59597.06
535.37	60074.53
535.54	60072.19
535.71	59842.82
535.88	59271.73
536.05	58890.22
536.22	58756.81
536.38	58007.84
536.55	57783.15
536.72	57207.37
536.89	56992.04
537.06	57982.09
537.23	58897.24
537.40	58904.26
537.57	59213.21
537.74	58763.83
537.91	58595.31
538.08	58621.06
538.25	58670.21
538.42	59000.22
538.59	58684.25
538.75	57993.79
538.92	58026.56
539.09	57670.80
539.26	57588.88
539.43	57420.36
539.60	57668.46
539.77	57710.59
539.94	57584.20
540.11	56891.40
540.28	56285.20
540.44	56549.68
540.61	56655.01
540.78	57034.17
540.95	57411.00
541.12	57954.00
541.29	57930.60
541.46	58220.83
541.62	58213.80
541.79	58162.31
541.96	57588.88
542.13	57682.50
542.30	57715.27
542.47	57724.63
542.63	57715.27
542.80	57698.89
542.97	57815.91
543.14	57605.26
543.31	57698.89
543.48	58234.87
543.64	58822.34
543.81	59128.95
543.98	58887.88
544.15	57996.13
544.32	57743.36
544.48	57719.95
544.65	58464.24
544.82	58621.06
544.99	58150.61
545.16	57968.05
545.32	57801.87
545.49	58614.04
545.66	58918.31
545.83	58335.51
546.00	58087.42
546.16	57647.39
546.33	57712.93
546.50	57848.68
546.67	58422.11
546.83	58005.50
547.00	58059.33
547.17	57247.16
547.34	56853.95
547.50	56711.18
547.67	57144.18
547.84	57326.74
548.00	57528.03
548.17	58248.91
548.34	57918.90
548.51	57778.46
548.67	57977.41
548.84	58082.73
549.01	58096.78
549.18	58138.91
549.34	57600.58
549.51	57897.83
549.68	57703.57
549.84	57570.16
550.01	57432.07
550.18	56994.39
550.34	57546.75
550.51	57563.14
550.68	57539.73
550.84	57024.81
551.01	57162.90
551.18	57183.97
551.34	57268.23
551.51	57696.55
551.68	57939.96
551.84	58059.33
552.01	57656.76
552.18	57595.90
552.34	56952.26
552.51	56631.60
552.68	56465.42
552.84	57064.60
553.01	57134.82
553.18	57092.69
553.34	57303.34
553.51	57457.81
553.67	57593.56
553.84	57626.33
554.01	57715.27
554.17	57359.51
554.34	57411.00
554.51	57511.64
554.67	57921.24
554.84	57738.68
555.00	57418.02
555.17	57324.40
555.33	57375.89
555.50	57125.46
555.67	57375.89
555.83	56959.28
556.00	56739.27
556.16	56530.96
556.33	56324.99
556.50	56289.88
556.66	56369.46
556.83	56004.34
556.99	56179.88
557.16	56179.88
557.32	56535.64
557.49	56765.01
557.65	56685.43
557.82	56587.13
557.98	56523.94
558.15	56212.65
558.32	55140.68
558.48	54426.82
558.65	54941.74
558.81	55157.06
558.98	55330.26
559.14	55674.32
559.31	55423.89
559.47	55461.33
559.64	55435.59
559.80	54782.58
559.97	55246.00
560.13	55576.02
560.30	56058.17
560.46	56875.02
560.63	56933.53
560.79	57153.54
560.96	56647.99
561.12	55655.60
561.29	54848.11
561.45	54981.52
561.61	55533.89
561.78	55817.10
561.94	55704.75
562.11	55503.46
562.27	55407.50
562.44	55709.43
562.60	56097.96
562.77	56301.59
562.93	56002.00
563.10	56018.38
563.26	55569.00
563.42	55569.00
563.59	55569.00
563.75	55440.27
563.92	55561.98
564.08	55384.10
564.24	55824.12
564.41	55601.77
564.57	55543.25
564.74	55517.51
564.90	55243.66
565.07	54972.16
565.23	54548.53
565.39	54267.66
565.56	54066.38
565.72	53776.15
565.88	54148.29
566.05	54319.15
566.21	54447.88
566.38	54787.26
566.54	54520.44
566.70	55014.29
566.87	55372.39
567.03	55606.45
567.19	55721.13
567.36	55103.23
567.52	55082.17
567.68	54759.17
567.85	53918.92
568.01	53984.46
568.17	53490.60
568.34	53607.63
568.50	53586.57
568.66	53375.92
568.83	54038.29
568.99	54260.64
569.15	54284.04
569.32	54225.53
569.48	53750.40
569.64	53703.59
569.81	53378.26
569.97	53518.69
570.13	53429.75
570.30	52863.34
570.46	52371.83
570.62	51861.59
570.78	51681.37
570.95	52135.43
571.11	52774.40
571.27	52975.69
571.43	53387.62
571.60	53689.55
571.76	54049.99
571.92	54068.72
572.09	54258.30
572.25	54010.20
572.41	53996.16
572.57	53886.15
572.74	53961.05
572.90	53476.56
573.06	53535.07
573.22	53499.97
573.38	53600.61
573.55	53525.71
573.71	53900.20
573.87	53640.40
574.03	53364.21
574.20	53680.19
574.36	53036.54
574.52	52837.59
574.68	52821.21
574.84	52102.67
575.01	52034.79
575.17	51798.40
575.33	52285.23
575.49	52605.88
575.65	52498.22
575.82	52294.59
575.98	51863.93
576.14	52552.05
576.30	52629.29
576.46	52685.46
576.62	52685.46
576.79	52741.63
576.95	52463.11
577.11	52133.09
577.27	52495.88
577.43	52603.54
577.59	52004.36
577.75	51672.01
577.92	50965.17
578.08	50543.87
578.24	50986.23
578.40	51367.74
578.56	51475.40
578.72	51290.50
578.88	51508.17
579.04	52093.30
579.21	52142.45
579.37	51987.98
579.53	51826.48
579.69	52044.15
579.85	52282.89
580.01	51777.33
580.17	51681.37
580.33	51248.37
580.49	51239.01
580.65	52388.21
580.82	52430.34
580.98	51985.64
581.14	51782.01
581.30	52088.62
581.46	51655.62
581.62	52292.25
581.78	52074.58
581.94	52308.63
582.10	52107.35
582.26	52406.94
582.42	52257.14
582.58	52444.38
582.74	51966.91
582.90	52488.85
583.06	52275.87
583.22	51763.29
583.38	52119.05
583.54	52004.36
583.70	51639.24
583.86	52128.41
584.02	51760.95
584.18	51948.19
584.34	51688.39
584.50	51725.84
584.66	51580.73
584.82	51388.80
584.98	50974.53
585.14	50419.82
585.30	49900.22
