SpectraSuite Data File
++++++++++++++++++++++++++++++++++++
Date: Mon Oct 07 14:53:21 GMT-05:00 2013
User: price-jones
Dark Spectrum Present: No
Reference Spectrum Present: No
Number of Sampled Component Spectra: 1
Spectrometers: USB2+H05261
Integration Time (usec): 100000 (USB2+H05261)
Spectra Averaged: 1 (USB2+H05261)
Boxcar Smoothing: 0 (USB2+H05261)
Correct for Electrical Dark: No (USB2+H05261)
Strobe/Lamp Enabled: No (USB2+H05261)
Correct for Detector Non-linearity: No (USB2+H05261)
Correct for Stray Light: No (USB2+H05261)
Number of Pixels in Processed Spectrum: 2048
>>>>>Begin Processed Spectral Data<<<<<
365.73	0.00
365.92	0.00
366.12	0.00
366.32	0.00
366.52	0.00
366.72	0.00
366.91	0.00
367.11	0.00
367.31	0.00
367.51	0.00
367.70	0.00
367.90	0.00
368.10	0.00
368.30	0.00
368.49	0.00
368.69	0.00
368.89	0.00
369.09	0.00
369.28	0.00
369.48	0.00
369.68	0.00
369.87	0.00
370.07	0.00
370.27	0.00
370.47	528.96
370.66	2925.67
370.86	3426.54
371.06	3892.31
371.25	3749.54
371.45	3449.95
371.65	3026.31
371.84	2853.11
372.04	3066.10
372.24	3339.94
372.44	3513.14
372.63	3541.23
372.83	3386.76
373.03	2913.97
373.22	2672.89
373.42	2897.58
373.62	3229.94
373.81	3501.44
374.01	3506.12
374.21	3190.15
374.40	2909.29
374.60	3021.63
374.79	3410.16
374.99	4011.68
375.19	4372.12
375.38	4407.23
375.58	4187.22
375.78	3913.38
375.97	4056.15
376.17	4231.69
376.37	4287.86
376.56	4372.12
376.76	4636.60
376.95	4716.18
377.15	5294.29
377.35	5362.17
377.54	5631.33
377.74	5722.61
377.93	5806.87
378.13	5572.82
378.33	5399.62
378.52	5036.83
378.72	4760.65
378.91	4767.67
379.11	4606.17
379.31	4388.50
379.50	4339.35
379.70	4725.54
379.89	5406.64
380.09	5628.99
380.28	5687.50
380.48	5804.53
380.68	5542.39
380.87	5465.15
381.07	4936.19
381.26	4692.77
381.46	4400.21
381.65	4208.28
381.85	4126.36
382.04	3810.39
382.24	3665.28
382.43	3463.99
382.63	3307.18
382.83	3421.86
383.02	3410.16
383.22	3581.02
383.41	3372.71
383.61	3698.05
383.80	4297.22
384.00	4800.44
384.19	5310.68
384.39	5631.33
384.58	5614.95
384.78	5497.92
384.97	5451.11
385.17	5158.54
385.36	4908.10
385.56	4622.56
385.75	4971.30
385.95	5334.08
386.14	5722.61
386.34	5753.04
386.53	5537.71
386.72	5357.49
386.92	5100.03
387.11	5509.62
387.31	5727.29
387.50	5727.29
387.70	5432.38
387.89	5430.04
388.09	5390.25
388.28	5481.53
388.48	5591.54
388.67	6061.99
388.86	6506.69
389.06	7117.57
389.25	7625.47
389.45	7712.07
389.64	7611.42
389.84	7634.83
390.03	7194.81
390.22	7307.15
390.42	7557.59
390.61	8042.08
390.81	8716.16
391.00	8781.69
391.19	8802.75
391.39	8276.13
391.58	8021.02
391.78	7389.07
391.97	7199.49
392.16	6668.19
392.36	6045.60
392.55	5011.09
392.75	3920.40
392.94	3105.89
393.13	3129.30
393.33	3850.18
393.52	4889.38
393.71	5975.39
393.91	6356.90
394.10	7176.08
394.29	7911.01
394.49	8475.08
394.68	9188.94
394.88	9172.56
395.07	9596.20
395.26	9481.51
395.46	9149.15
395.65	8571.04
395.84	7555.25
396.04	6251.57
396.23	5181.95
396.42	4252.75
396.62	4205.94
396.81	4922.15
397.00	6104.12
397.19	7744.83
397.39	9233.41
397.58	10361.55
397.77	11119.89
397.97	11618.42
398.16	11524.80
398.35	11915.67
398.55	12524.21
398.74	12802.73
398.93	13282.54
399.12	12816.77
399.32	12430.59
399.51	12638.89
399.70	13624.26
399.90	13502.55
400.09	13357.44
400.28	13312.97
400.47	13282.54
400.67	14174.28
400.86	14520.68
401.05	14373.23
401.24	14637.71
401.44	14799.21
401.63	14595.58
401.82	14977.09
402.01	14633.03
402.21	15073.05
402.40	15176.03
402.59	14684.52
402.78	13839.59
402.97	13575.11
403.17	14033.85
403.36	14876.44
403.55	15597.33
403.74	15925.00
403.93	15061.35
404.13	14054.92
404.32	13703.84
404.51	14270.25
404.70	15625.42
404.89	15386.68
405.09	15286.04
405.28	14738.35
405.47	14717.29
405.66	14534.73
405.85	14263.22
406.05	13994.06
406.24	14211.73
406.43	15068.37
406.62	15246.25
406.81	15489.67
407.00	14829.63
407.20	14427.06
407.39	14766.44
407.58	14953.68
407.77	15594.99
407.96	16182.46
408.15	16386.09
408.34	16524.18
408.54	17179.53
408.73	17479.12
408.92	17114.00
409.11	16666.95
409.30	15751.81
409.49	14991.13
409.68	13823.20
409.87	13668.73
410.07	14340.46
410.26	15534.14
410.45	16386.09
410.64	16783.98
410.83	17568.06
411.02	17729.56
411.21	18171.92
411.40	18207.03
411.59	18480.87
411.78	18090.00
411.98	17738.92
412.17	18338.10
412.36	17860.63
412.55	18209.37
412.74	17710.83
412.93	16931.44
413.12	17235.70
413.31	18878.76
413.50	19330.48
413.69	19623.05
413.88	18757.05
414.07	18153.20
414.26	18422.36
414.45	19215.80
414.64	18998.13
414.83	19396.02
415.02	19054.30
415.22	18796.84
415.41	19747.10
415.60	19875.83
415.79	20617.78
415.98	21202.91
416.17	21233.34
416.36	20580.33
416.55	20463.30
416.74	19522.41
416.93	18963.02
417.12	18951.32
417.31	19274.31
417.50	19377.30
417.69	20339.26
417.88	20402.45
418.07	19997.54
418.26	19800.93
418.45	20004.56
418.64	20435.22
418.83	21338.66
419.02	21090.57
419.21	20861.19
419.39	19730.72
419.58	19016.85
419.77	19014.51
419.96	19953.07
420.15	21053.12
420.34	21598.46
420.53	22277.22
420.72	22700.86
420.91	22462.12
421.10	22291.26
421.29	22064.23
421.48	21418.24
421.67	22405.95
421.86	21907.41
422.05	20470.33
422.24	18363.84
422.43	18005.74
422.61	19999.88
422.80	21722.51
422.99	21886.35
423.18	20908.01
423.37	20662.25
423.56	20753.53
423.75	20573.31
423.94	21289.51
424.13	20137.97
424.32	20095.84
424.50	20439.90
424.69	19889.87
424.88	20074.77
425.07	20187.12
425.26	20156.69
425.45	20123.93
425.64	19424.11
425.83	19550.49
426.01	21053.12
426.20	21055.46
426.39	21429.94
426.58	19491.98
426.77	18099.36
426.96	17493.16
427.15	18080.64
427.33	19353.89
427.52	20482.03
427.71	20407.13
427.90	20166.06
428.09	19920.30
428.28	19672.20
428.46	18986.43
428.65	18728.97
428.84	19103.45
429.03	19349.21
429.22	18672.79
429.40	17446.35
429.59	15737.76
429.78	14036.19
429.97	14401.32
430.16	14260.88
430.34	14434.08
430.53	14338.12
430.72	14403.66
430.91	16248.00
431.10	19187.71
431.28	22394.25
431.47	24304.12
431.66	24390.72
431.85	22249.13
432.03	20577.99
432.22	19662.84
432.41	20198.82
432.60	22747.67
432.79	23498.98
432.97	23920.28
433.16	23531.75
433.35	21893.37
433.54	19302.40
433.72	18298.31
433.91	18726.63
434.10	20741.83
434.28	22052.53
434.47	23660.48
434.66	23232.16
434.85	22724.26
435.03	22469.14
435.22	23208.75
435.41	24613.07
435.59	24638.82
435.78	24924.36
435.97	25443.96
436.16	25401.83
436.34	25163.10
436.53	24507.75
436.72	24779.25
436.90	23150.24
437.09	23218.11
437.28	23293.01
437.46	23613.66
437.65	23213.43
437.84	22277.22
438.02	20180.10
438.21	20271.38
438.40	21137.38
438.58	23133.86
438.77	23555.15
438.96	24149.65
439.14	24652.86
439.33	25558.65
439.52	26150.81
439.70	25507.16
439.89	24577.97
440.08	23950.70
440.26	23693.24
440.45	24844.79
440.63	26658.70
440.82	28088.77
441.01	27637.05
441.19	27384.27
441.38	27651.09
441.57	28701.99
441.75	29270.74
441.94	29146.69
442.12	29362.02
442.31	29738.85
442.50	29565.65
442.68	28800.29
442.87	28645.82
443.05	28264.31
443.24	28912.64
443.43	29441.60
443.61	30197.59
443.80	30249.08
443.98	28559.22
444.17	28629.43
444.35	30426.96
444.54	30888.05
444.73	30260.79
444.91	28872.85
445.10	27796.20
445.28	27049.57
445.47	26087.61
445.65	26546.36
445.84	27147.87
446.02	28549.85
446.21	28669.22
446.39	28697.31
446.58	29263.72
446.77	29694.38
446.95	29502.45
447.14	31117.42
447.32	31175.94
447.51	30110.99
447.69	29198.18
447.88	28858.81
448.06	29670.97
448.25	29949.50
448.43	30167.16
448.62	29717.78
448.80	29556.28
448.99	30003.33
449.17	30216.32
449.36	30305.26
449.54	31393.61
449.73	31634.68
449.91	31695.53
450.10	33106.88
450.28	33436.89
450.46	33177.09
450.65	33235.61
450.83	32744.09
451.02	32301.73
451.20	32168.32
451.39	31929.59
451.57	31796.18
451.76	31452.12
451.94	31653.40
452.13	31157.21
452.31	29827.79
452.49	28119.20
452.68	28697.31
452.86	28709.01
453.05	29214.57
453.23	29972.90
453.42	30663.36
453.60	31108.06
453.78	31674.47
453.97	31236.79
454.15	31370.20
454.34	30815.49
454.52	30534.63
454.70	30242.06
454.89	30520.59
455.07	30665.70
455.26	31005.08
455.44	32257.26
455.62	32903.25
455.81	33298.80
455.99	32840.06
456.17	32112.15
456.36	32526.42
456.54	33420.51
456.73	33163.05
456.91	33993.94
457.09	33907.34
457.28	34127.35
457.46	33256.67
457.64	33053.05
457.83	32432.80
458.01	31269.56
458.19	32020.87
458.38	32446.85
458.56	33914.36
458.74	33472.00
458.93	32840.06
459.11	32863.46
459.29	32271.31
459.48	32364.93
459.66	32287.69
459.84	32701.96
460.03	33352.63
460.21	33319.87
460.39	34045.43
460.57	33792.65
460.76	34426.94
460.94	34408.22
461.12	33839.47
461.31	34300.55
461.49	34305.23
461.67	34391.83
461.85	35189.95
462.04	35122.08
462.22	35407.62
462.40	35147.82
462.59	34543.97
462.77	35030.80
462.95	34759.30
463.13	34864.62
463.32	34195.23
463.50	34204.59
463.68	33820.74
463.86	34263.10
464.05	33486.04
464.23	32762.82
464.41	33031.98
464.59	32198.75
464.78	33813.72
464.96	33809.04
465.14	33273.06
465.32	34129.69
465.50	35150.17
465.69	35604.23
465.87	35131.44
466.05	34092.24
466.23	32250.24
466.41	31468.50
466.60	32994.53
466.78	32645.79
466.96	33134.96
467.14	33401.79
467.32	34209.27
467.51	34412.90
467.69	32826.01
467.87	32828.35
468.05	33624.14
468.23	34139.05
468.41	33876.91
468.60	34160.12
468.78	34136.71
468.96	33951.81
469.14	34293.53
469.32	34918.45
469.50	33242.63
469.69	33062.41
469.87	32776.86
470.05	32369.61
470.23	32741.75
470.41	33053.05
470.59	33156.03
470.77	33504.77
470.95	34040.75
471.14	34763.98
471.32	34756.96
471.50	36687.90
471.68	36463.21
471.86	36795.56
472.04	36851.73
472.22	37614.75
472.40	35426.35
472.58	34934.84
472.77	34553.33
472.95	35082.29
473.13	36275.96
473.31	35117.40
473.49	35545.72
473.67	36182.34
473.85	36779.18
474.03	37521.13
474.21	37287.07
474.39	38197.54
474.57	38183.50
474.75	38113.28
474.93	37558.58
475.12	36924.29
475.30	36928.97
475.48	37092.81
475.66	37773.91
475.84	37202.82
476.02	36823.65
476.20	36240.86
476.38	37146.64
476.56	38143.71
476.74	38724.16
476.92	38677.35
477.10	39580.80
477.28	40444.46
477.46	40088.70
477.64	41013.21
477.82	41228.54
478.00	41006.19
478.18	40575.53
478.36	40416.37
478.54	40531.06
478.72	40680.85
478.90	41605.36
479.08	42878.61
479.26	43447.36
479.44	43063.52
479.62	42579.03
479.80	42424.55
479.98	43208.63
480.16	43131.39
480.34	43222.67
480.52	43512.90
480.70	43384.17
480.88	43353.74
481.06	44392.94
481.24	44587.21
481.41	45797.26
481.59	46410.48
481.77	45397.03
481.95	45085.74
482.13	44992.12
482.31	45146.59
482.49	46026.63
482.67	45326.81
482.85	46307.50
483.03	46789.65
483.21	46742.84
483.39	47154.77
483.57	46164.73
483.74	46071.10
483.92	46026.63
484.10	46277.07
484.28	47552.66
484.46	47835.87
484.64	48318.02
484.82	47313.93
485.00	46710.07
485.18	46143.66
485.35	45153.62
485.53	41837.08
485.71	37790.29
485.89	37233.24
486.07	39772.72
486.25	42527.53
486.43	44989.78
486.61	45837.05
486.78	45390.01
486.96	45787.90
487.14	47428.62
487.32	48318.02
487.50	49532.76
487.68	50134.28
487.85	50632.81
488.03	50836.44
488.21	50553.23
488.39	49738.72
488.57	48872.73
488.75	48540.37
488.92	49780.85
489.10	51770.31
489.28	53268.25
489.46	53989.14
489.64	53563.16
489.81	53703.59
489.99	53172.29
490.17	53797.21
490.35	54024.25
490.53	53244.85
490.70	53069.31
490.88	52999.09
491.06	53979.78
491.24	53961.05
491.41	52961.64
491.59	51367.74
491.77	50277.05
491.95	51597.11
492.13	52734.61
492.30	53752.74
492.48	54908.97
492.66	55398.14
492.84	55363.03
493.01	55131.32
493.19	54473.63
493.37	54312.13
493.54	53872.11
493.72	54302.77
493.90	55583.04
494.08	56404.57
494.25	56589.47
494.43	56746.29
494.61	57293.97
494.79	57036.51
494.96	57090.35
495.14	56446.70
495.32	55440.27
495.49	54946.42
495.67	55746.88
495.85	57315.04
496.02	57443.77
496.20	57298.65
496.38	57153.54
496.55	56823.53
496.73	57235.46
496.91	57453.13
497.09	58045.29
497.26	58349.56
497.44	57710.59
497.62	57141.84
497.79	56484.15
497.97	55182.81
498.14	55353.67
498.32	56575.43
498.50	57380.57
498.67	57874.43
498.85	57654.42
499.03	57822.93
499.20	58040.60
499.38	58159.97
499.56	57790.17
499.73	57481.22
499.91	57146.52
500.08	56678.41
500.26	55990.30
500.44	56584.79
500.61	57212.06
500.79	56809.48
500.97	56687.78
501.14	56303.93
501.32	56371.80
501.49	56463.08
501.67	56631.60
501.84	57165.24
502.02	57186.31
502.20	57254.18
502.37	57769.10
502.55	57820.59
502.72	58202.10
502.90	58571.91
503.07	58410.41
503.25	58035.92
503.43	57202.69
503.60	56760.33
503.78	56027.74
503.95	56495.85
504.13	57499.94
504.30	58604.67
504.48	58110.82
504.65	58092.10
504.83	58162.31
505.01	58546.16
505.18	58941.71
505.36	59613.44
505.53	59491.74
505.71	59655.57
505.88	59863.88
506.06	59079.80
506.23	59000.22
506.41	58597.65
506.58	58684.25
506.76	58815.32
506.93	58602.33
507.11	58433.81
507.28	58590.63
507.46	58115.50
507.63	57647.39
507.81	57298.65
507.98	57462.49
508.16	58471.26
508.33	58920.65
508.50	59135.98
508.68	59526.84
508.85	60034.74
509.03	59824.09
509.20	59819.41
509.38	59077.46
509.55	58644.46
509.73	58518.07
509.90	58960.44
510.08	59341.94
510.25	59068.10
510.42	58857.45
510.60	59040.01
510.77	59128.95
510.95	59613.44
511.12	59707.07
511.30	60090.91
511.47	60313.26
511.64	60200.92
511.82	59898.99
511.99	59164.06
512.17	58637.44
512.34	58269.98
512.51	58443.18
512.69	58653.82
512.86	58880.86
513.04	59409.82
513.21	59325.56
513.38	59063.42
513.56	58305.09
513.73	57787.83
513.90	58195.08
514.08	58274.66
514.25	58408.07
514.43	58635.10
514.60	58899.58
514.77	58913.62
514.95	59018.95
515.12	58845.75
515.29	59135.98
515.47	59683.66
515.64	59545.57
515.81	59285.77
515.99	59018.95
516.16	57345.47
516.33	55133.66
516.51	53876.79
516.68	53052.92
516.85	52388.21
517.03	52954.62
517.20	55814.76
517.37	58024.22
517.54	58965.12
517.72	58543.82
517.89	56161.15
518.06	53820.62
518.24	54349.58
518.41	56444.36
518.58	57427.38
518.75	57757.40
518.93	57975.07
519.10	57914.22
519.27	58412.75
519.45	58522.76
519.62	59313.86
519.79	59496.42
519.96	59257.68
520.14	58904.26
520.31	57975.07
520.48	58003.16
520.65	58412.75
520.83	59320.88
521.00	59664.94
521.17	59475.35
521.34	58852.77
521.52	59309.18
521.69	59760.90
521.86	60093.25
522.03	59749.20
522.20	58625.74
522.38	57757.40
522.55	57888.47
522.72	58401.05
522.89	58639.78
523.07	58791.92
523.24	59037.67
523.41	60034.74
523.58	59994.95
523.75	60481.78
523.92	60449.02
524.10	60376.46
524.27	60336.67
524.44	60069.85
524.61	59980.91
524.78	59777.28
524.96	59718.77
525.13	59927.08
525.30	59959.84
525.47	60453.70
525.64	60083.89
525.81	59522.16
525.98	58260.62
526.16	56786.08
526.33	56151.79
526.50	55746.88
526.67	55489.42
526.84	56226.69
527.01	57151.20
527.18	57834.64
527.36	58951.07
527.53	59723.45
527.70	59931.76
527.87	59405.14
528.04	58974.48
528.21	59285.77
528.38	60032.40
528.55	60465.40
528.72	60828.18
528.89	60910.10
529.07	60603.49
529.24	60058.15
529.41	59384.07
529.58	58937.03
529.75	58967.46
529.92	59332.58
530.09	59920.05
530.26	60111.98
530.43	60449.02
530.60	60542.64
530.77	60704.13
530.94	60846.91
531.11	60460.72
531.28	60074.53
531.46	59756.22
531.63	60067.51
531.80	59978.57
531.97	59508.12
532.14	58803.62
532.31	57818.25
532.48	57102.05
532.65	57254.18
532.82	58017.20
532.99	59021.29
533.16	59395.77
533.33	60158.79
533.50	59767.92
533.67	59185.13
533.84	58862.13
534.01	58885.54
534.18	59028.31
534.35	59398.12
534.52	59014.27
534.69	59643.87
534.86	59969.21
535.03	60032.40
535.20	60395.18
535.37	60757.97
535.54	60699.45
535.71	60418.59
535.88	60065.17
536.05	59615.79
536.22	59070.44
536.38	58927.67
536.55	58515.73
536.72	57836.98
536.89	57937.62
537.06	58766.17
537.23	59580.68
537.40	59784.30
537.57	59985.59
537.74	59442.59
537.91	59536.21
538.08	59519.82
538.25	59686.00
538.42	59707.07
538.59	59339.60
538.75	58918.31
538.92	58672.55
539.09	58468.92
539.26	58354.24
539.43	57907.19
539.60	58375.30
539.77	58382.32
539.94	58382.32
540.11	57619.31
540.28	56973.32
540.44	57148.86
540.61	57251.84
540.78	57577.18
540.95	58162.31
541.12	58415.09
541.29	58637.44
541.46	58969.80
541.62	58714.68
541.79	58773.19
541.96	58326.15
542.13	58265.30
542.30	58644.46
542.47	58674.89
542.63	58562.54
542.80	58181.04
542.97	58372.96
543.14	58155.29
543.31	58234.87
543.48	58878.52
543.64	59442.59
543.81	59803.03
543.98	59728.13
544.15	58883.20
544.32	58438.50
544.48	58511.05
544.65	58908.94
544.82	59238.96
544.99	59070.44
545.16	58536.80
545.32	58272.32
545.49	59068.10
545.66	59491.74
545.83	58901.92
546.00	58763.83
546.16	58450.20
546.33	58459.56
546.50	58646.80
546.67	59086.82
546.83	58770.85
547.00	58534.46
547.17	58127.20
547.34	57457.81
547.50	57322.06
547.67	57647.39
547.84	57832.30
548.00	58354.24
548.17	58513.39
548.34	58576.59
548.51	58450.20
548.67	58440.84
548.84	58614.04
549.01	58684.25
549.18	58438.50
549.34	58649.14
549.51	58340.19
549.68	58159.97
549.84	58330.83
550.01	58068.69
550.18	57961.03
550.34	57968.05
550.51	58150.61
550.68	58033.58
550.84	57535.05
551.01	57939.96
551.18	57914.22
551.34	57827.62
551.51	58258.27
551.68	58370.62
551.84	58473.60
552.01	58342.53
552.18	58206.78
552.34	57434.41
552.51	57017.79
552.68	57055.24
552.84	57595.90
553.01	57855.70
553.18	57649.74
553.34	57804.21
553.51	57930.60
553.67	58120.18
553.84	58258.27
554.01	57998.48
554.17	58005.50
554.34	57979.75
554.51	58213.80
554.67	58440.84
554.84	58110.82
555.00	58052.31
555.17	57696.55
555.33	57815.91
555.50	57888.47
555.67	57923.58
555.83	57626.33
556.00	57230.78
556.16	57378.23
556.33	56961.62
556.50	56996.73
556.66	56940.55
556.83	56516.92
556.99	56736.93
557.16	56931.19
557.32	57069.28
557.49	57338.44
557.65	57120.77
557.82	57041.20
557.98	57031.83
558.15	56725.22
558.32	55760.92
558.48	55077.49
558.65	55311.54
558.81	55669.64
558.98	55735.18
559.14	56243.07
559.31	56144.77
559.47	56062.85
559.64	55828.80
559.80	55374.73
559.97	55601.77
560.13	55997.32
560.30	56837.57
560.46	57237.80
560.63	57579.52
560.79	57506.96
560.96	57045.88
561.12	56076.90
561.29	55201.53
561.45	55360.69
561.61	55786.67
561.78	56334.35
561.94	56207.97
562.11	55980.93
562.27	56037.11
562.44	56259.46
562.60	56460.74
562.77	56788.42
562.93	56741.61
563.10	56332.01
563.26	55908.38
563.42	56065.19
563.59	55805.39
563.75	55966.89
563.92	55999.66
564.08	55751.56
564.24	56109.66
564.41	56238.39
564.57	56090.94
564.74	55714.11
564.90	55707.09
565.07	55487.08
565.23	55061.10
565.39	54766.20
565.56	54454.90
565.72	54422.14
565.88	54468.95
566.05	55004.93
566.21	55014.29
566.38	54883.22
566.54	55508.14
566.70	55561.98
566.87	55927.10
567.03	55856.88
567.19	56039.45
567.36	55774.97
567.52	55599.43
567.68	55222.60
567.85	54614.06
568.01	54174.04
568.17	53951.69
568.34	54068.72
568.50	53895.52
568.66	54188.08
568.83	54681.94
568.99	54536.82
569.15	54684.28
569.32	54796.62
569.48	54415.11
569.64	54155.32
569.81	53977.43
569.97	54064.03
570.13	53886.15
570.30	53003.77
570.46	52846.96
570.62	52353.10
570.78	52257.14
570.95	52491.19
571.11	53221.44
571.27	53439.11
571.43	53680.19
571.60	54136.59
571.76	54160.00
571.92	54356.60
572.09	54686.62
572.25	54433.84
572.41	54628.10
572.57	54380.01
572.74	54298.09
572.90	53914.24
573.06	53764.45
573.22	53736.36
573.38	53794.87
573.55	53748.06
573.71	54384.69
573.87	54122.55
574.03	53865.09
574.20	53881.47
574.36	53340.81
574.52	53270.59
574.68	53209.74
574.84	52580.13
575.01	51927.13
575.17	52198.63
575.33	52561.41
575.49	52587.16
575.65	53284.64
575.82	52793.12
575.98	52460.77
576.14	52765.04
576.30	53345.49
576.46	52952.28
576.62	52870.36
576.79	52886.74
576.95	52870.36
577.11	52879.72
577.27	52935.90
577.43	52683.12
577.59	52584.82
577.75	52123.73
577.92	51365.40
578.08	51349.01
578.24	51304.54
578.40	51557.32
578.56	51793.71
578.72	51910.74
578.88	52203.31
579.04	52196.29
579.21	52516.94
579.37	52573.11
579.53	52514.60
579.69	52374.17
579.85	52715.89
580.01	52278.21
580.17	52051.17
580.33	51854.57
580.49	51817.12
580.65	51943.51
580.82	52397.57
580.98	52430.34
581.14	52474.81
581.30	52121.39
581.46	52189.27
581.62	52725.25
581.78	52601.20
581.94	52296.93
582.10	52849.30
582.26	52868.02
582.42	52435.02
582.58	52519.28
582.74	52608.22
582.90	52495.88
583.06	52556.73
583.22	52348.42
583.38	52332.04
583.54	52156.50
583.70	52179.90
583.86	52039.47
584.02	51655.62
584.18	51948.19
584.34	52140.11
584.50	51629.88
584.66	51824.14
584.82	51444.98
584.98	51482.42
585.14	51054.11
585.30	50333.22
