SpectraSuite Data File
++++++++++++++++++++++++++++++++++++
Date: Mon Oct 07 14:54:59 GMT-05:00 2013
User: price-jones
Dark Spectrum Present: No
Reference Spectrum Present: No
Number of Sampled Component Spectra: 1
Spectrometers: USB2+H05261
Integration Time (usec): 10000 (USB2+H05261)
Spectra Averaged: 1 (USB2+H05261)
Boxcar Smoothing: 0 (USB2+H05261)
Correct for Electrical Dark: No (USB2+H05261)
Strobe/Lamp Enabled: No (USB2+H05261)
Correct for Detector Non-linearity: No (USB2+H05261)
Correct for Stray Light: No (USB2+H05261)
Number of Pixels in Processed Spectrum: 2048
>>>>>Begin Processed Spectral Data<<<<<
365.73	0.00
365.92	0.00
366.12	0.00
366.32	0.00
366.52	0.00
366.72	0.00
366.91	0.00
367.11	0.00
367.31	0.00
367.51	0.00
367.70	0.00
367.90	0.00
368.10	0.00
368.30	0.00
368.49	0.00
368.69	0.00
368.89	0.00
369.09	0.00
369.28	0.00
369.48	0.00
369.68	0.00
369.87	0.00
370.07	0.00
370.27	0.00
370.47	0.00
370.66	812.17
370.86	964.30
371.06	1025.15
371.25	1125.80
371.45	933.87
371.65	896.43
371.84	849.61
372.04	943.24
372.24	1043.88
372.44	1214.74
372.63	1032.18
372.83	954.94
373.03	861.32
373.22	711.52
373.42	828.55
373.62	983.02
373.81	1053.24
374.01	1039.20
374.21	959.62
374.40	880.04
374.60	884.72
374.79	1090.69
374.99	1256.87
375.19	1336.45
375.38	1254.53
375.58	1282.61
375.78	1153.88
375.97	1207.72
376.17	1310.70
376.37	1291.98
376.56	1357.51
376.76	1371.55
376.95	1624.33
377.15	1659.44
377.35	1689.87
377.54	1701.57
377.74	1776.47
377.93	1748.38
378.13	1722.63
378.33	1643.06
378.52	1547.09
378.72	1479.22
378.91	1371.55
379.11	1334.11
379.31	1289.64
379.50	1385.60
379.70	1401.98
379.89	1619.65
380.09	1783.49
380.28	1795.19
380.48	1689.87
380.68	1624.33
380.87	1699.23
381.07	1516.67
381.26	1350.49
381.46	1308.36
381.65	1121.12
381.85	1313.04
382.04	1123.46
382.24	1060.26
382.43	1011.11
382.63	926.85
382.83	940.90
383.02	957.28
383.22	952.60
383.41	1029.84
383.61	1034.52
383.80	1291.98
384.00	1462.83
384.19	1682.85
384.39	1689.87
384.58	1741.36
384.78	1629.01
384.97	1511.99
385.17	1626.67
385.36	1514.33
385.56	1369.21
385.75	1495.60
385.95	1668.80
386.14	1811.57
386.34	1750.72
386.53	1556.46
386.72	1558.80
386.92	1659.44
387.11	1696.89
387.31	1760.08
387.50	1699.23
387.70	1717.95
387.89	1551.78
388.09	1692.21
388.28	1668.80
388.48	1699.23
388.67	1867.75
388.86	1980.09
389.06	2146.27
389.25	2321.81
389.45	2221.17
389.64	2225.85
389.84	2155.63
390.03	2197.76
390.22	2244.57
390.42	2401.39
390.61	2464.58
390.81	2768.85
391.00	2684.59
391.19	2679.91
391.39	2511.39
391.58	2303.09
391.78	2256.28
391.97	2113.50
392.16	1949.67
392.36	1717.95
392.55	1240.48
392.75	964.30
392.94	880.04
393.13	868.34
393.33	1100.05
393.52	1490.92
393.71	1736.68
393.91	2120.53
394.10	2228.19
394.29	2410.75
394.49	2499.69
394.68	2911.63
394.88	2677.57
395.07	2815.66
395.26	2825.03
395.46	2764.17
395.65	2434.16
395.84	2237.55
396.04	1708.59
396.23	1266.23
396.42	1254.53
396.62	1224.10
396.81	1511.99
397.00	1907.54
397.19	2431.82
397.39	2874.18
397.58	3323.56
397.77	3286.11
397.97	3517.83
398.16	3531.87
398.35	3726.13
398.55	3845.50
398.74	3941.46
398.93	4042.11
399.12	4004.66
399.32	3775.28
399.51	3983.59
399.70	4121.68
399.90	4189.56
400.09	4138.07
400.28	4053.81
400.47	4177.86
400.67	4393.19
400.86	4416.59
401.05	4334.67
401.24	4374.46
401.44	4554.68
401.63	4568.73
401.82	4568.73
402.01	4463.40
402.21	4535.96
402.40	4557.02
402.59	4456.38
402.78	4161.47
402.97	4257.43
403.17	4278.50
403.36	4645.96
403.55	4662.35
403.74	4702.14
403.93	4395.53
404.13	4098.28
404.32	4255.09
404.51	4552.34
404.70	4889.38
404.89	4615.54
405.09	4564.04
405.28	4484.47
405.47	4423.61
405.66	4346.37
405.85	4117.00
406.05	4170.83
406.24	4383.82
406.43	4557.02
406.62	4559.36
406.81	4561.70
407.00	4482.13
407.20	4337.01
407.39	4397.87
407.58	4777.03
407.77	4865.97
407.96	4933.85
408.15	4786.40
408.34	5034.49
408.54	5270.89
408.73	5088.32
408.92	5156.20
409.11	4861.29
409.30	4596.81
409.49	4322.97
409.68	4100.62
409.87	4065.51
410.07	4463.40
410.26	4660.01
410.45	4854.27
410.64	5104.71
410.83	5509.62
411.02	5502.60
411.21	5544.73
411.40	5352.81
411.59	5769.42
411.78	5572.82
411.98	5528.35
412.17	5355.15
412.36	5273.23
412.55	5212.37
412.74	5404.30
412.93	5242.80
413.12	5401.96
413.31	5804.53
413.50	5715.59
413.69	5790.49
413.88	5600.90
414.07	5329.40
414.26	5584.52
414.45	5877.09
414.64	5572.82
414.83	5516.64
415.02	5734.31
415.22	5404.30
415.41	5921.56
415.60	5944.96
415.79	6291.36
415.98	6272.64
416.17	6328.81
416.36	6108.80
416.55	6012.84
416.74	5659.42
416.93	5556.43
417.12	5612.60
417.31	5809.21
417.50	5884.11
417.69	6225.82
417.88	6040.92
418.07	6029.22
418.26	5804.53
418.45	6047.94
418.64	6157.95
418.83	6380.30
419.02	6258.59
419.21	6223.48
419.39	5734.31
419.58	5694.52
419.77	5703.89
419.96	5881.77
420.15	6164.97
420.34	6422.43
420.53	6612.01
420.72	6700.95
420.91	6490.31
421.10	6471.58
421.29	6562.86
421.48	6441.15
421.67	6715.00
421.86	6340.51
422.05	5736.65
422.24	5394.93
422.43	5376.21
422.61	6139.23
422.80	6349.87
422.99	6216.46
423.18	6153.27
423.37	5973.05
423.56	5998.79
423.75	6104.12
423.94	6347.53
424.13	5757.72
424.32	5947.30
424.50	5858.36
424.69	6073.69
424.88	5975.39
425.07	5980.07
425.26	5914.53
425.45	5689.84
425.64	5687.50
425.83	5923.90
426.01	6106.46
426.20	6193.06
426.39	6003.47
426.58	5549.41
426.77	5100.03
426.96	5247.48
427.15	5153.86
427.33	5631.33
427.52	5762.40
427.71	5944.96
427.90	5710.91
428.09	5652.39
428.28	5460.47
428.46	5451.11
428.65	5626.65
428.84	5526.00
429.03	5249.82
429.22	5170.24
429.40	4887.04
429.59	4580.43
429.78	4049.13
429.97	4018.70
430.16	4070.19
430.34	4124.02
430.53	4093.60
430.72	4297.22
430.91	4849.59
431.10	5734.31
431.28	6644.78
431.47	7007.56
431.66	6885.86
431.85	6176.67
432.03	5652.39
432.22	5586.86
432.41	6047.94
432.60	6452.86
432.79	6670.53
432.97	6930.33
433.16	6502.01
433.35	6085.39
433.54	5303.65
433.72	5226.42
433.91	5486.22
434.10	6024.54
434.28	6492.65
434.47	6836.70
434.66	6581.59
434.85	6469.24
435.03	6551.16
435.22	6656.48
435.41	7005.22
435.59	7045.01
435.78	7136.29
435.97	7199.49
436.16	7126.93
436.34	6953.73
436.53	6972.46
436.72	7124.59
436.90	6392.00
437.09	6682.23
437.28	6752.45
437.46	6902.24
437.65	6656.48
437.84	6209.44
438.02	5799.85
438.21	5703.89
438.40	6162.63
438.58	6523.07
438.77	6780.53
438.96	6822.66
439.14	7143.32
439.33	7066.08
439.52	7084.80
439.70	7117.57
439.89	6991.18
440.08	6696.27
440.26	6867.13
440.45	7148.00
440.63	7442.90
440.82	7911.01
441.01	7740.15
441.19	7894.63
441.38	7873.56
441.57	8196.56
441.75	7971.86
441.94	8425.93
442.12	8135.70
442.31	8105.28
442.50	8374.44
442.68	8297.20
442.87	8241.03
443.05	7875.90
443.24	8156.77
443.43	8156.77
443.61	8056.12
443.80	8482.10
443.98	8021.02
444.17	8077.19
444.35	8439.97
444.54	8376.78
444.73	8180.17
444.91	7960.16
445.10	7707.38
445.28	7311.83
445.47	7265.02
445.65	7321.20
445.84	7552.91
446.02	7770.58
446.21	8037.40
446.39	8021.02
446.58	8011.65
446.77	8262.09
446.95	8173.15
447.14	8575.72
447.32	8709.13
447.51	8271.45
447.69	7843.14
447.88	7913.35
448.06	8124.00
448.25	8189.53
448.43	8124.00
448.62	8355.71
448.80	8121.66
448.99	8313.58
449.17	8116.98
449.36	8360.39
449.54	8538.27
449.73	8833.18
449.91	8795.73
450.10	8863.61
450.28	9090.64
450.46	9125.75
450.65	8982.98
450.83	8795.73
451.02	8706.79
451.20	8489.12
451.39	8809.78
451.57	8655.30
451.76	8730.20
451.94	8360.39
452.13	8308.90
452.31	7845.48
452.49	7616.10
452.68	7866.54
452.86	7599.72
453.05	7967.18
453.23	8503.17
453.42	8468.06
453.60	8514.87
453.78	8346.35
453.97	8416.57
454.15	8388.48
454.34	8201.24
454.52	8142.72
454.70	8166.13
454.89	8439.97
455.07	8255.07
455.26	8573.38
455.44	8767.65
455.62	8879.99
455.81	8772.33
455.99	8678.71
456.17	8732.54
456.36	8826.16
456.54	8891.70
456.73	8903.40
456.91	8774.67
457.09	9046.17
457.28	8950.21
457.46	8699.77
457.64	8674.03
457.83	8334.65
458.01	8234.00
458.19	8528.91
458.38	8603.81
458.56	8751.26
458.74	8610.83
458.93	8423.59
459.11	8622.53
459.29	8659.98
459.48	8535.93
459.66	8599.13
459.84	8454.02
460.03	8751.26
460.21	8606.15
460.39	9188.94
460.57	9076.60
460.76	9029.79
460.94	9226.39
461.12	8692.75
461.31	8842.54
461.49	8922.12
461.67	8905.74
461.85	9097.66
462.04	9156.18
462.22	9210.01
462.40	9076.60
462.59	9188.94
462.77	9020.42
462.95	9238.09
463.13	8910.42
463.32	8802.75
463.50	8582.74
463.68	8683.39
463.86	8849.57
464.05	8709.13
464.23	8355.71
464.41	8627.21
464.59	8624.87
464.78	8898.72
464.96	8863.61
465.14	8578.06
465.32	8882.33
465.50	9032.13
465.69	8990.00
465.87	8908.08
466.05	8482.10
466.23	8004.63
466.41	8224.64
466.60	8341.67
466.78	8409.54
466.96	8650.62
467.14	8545.30
467.32	8540.61
467.51	8566.36
467.69	8201.24
467.87	8170.81
468.05	8437.63
468.23	8496.14
468.41	8484.44
468.60	8589.77
468.78	8442.31
468.96	8545.30
469.14	8674.03
469.32	8851.91
469.50	8322.94
469.69	8166.13
469.87	8142.72
470.05	8306.56
470.23	8128.68
470.41	8119.32
470.59	8566.36
470.77	8542.96
470.95	8634.24
471.14	8699.77
471.32	8596.79
471.50	9067.24
471.68	9312.99
471.86	9247.46
472.04	9270.86
472.22	9460.45
472.40	8973.61
472.58	8905.74
472.77	8732.54
472.95	8582.74
473.13	9001.70
473.31	8610.83
473.49	8791.05
473.67	9022.77
473.85	9055.53
474.03	9481.51
474.21	9404.27
474.39	9364.48
474.57	9460.45
474.75	9238.09
474.93	9191.28
475.12	9165.54
475.30	8994.68
475.48	9184.26
475.66	9118.73
475.84	8898.72
476.02	9153.84
476.20	8966.59
476.38	9266.18
476.56	9270.86
476.74	9444.06
476.92	9558.75
477.10	9659.39
477.28	9881.74
477.46	9753.01
477.64	10129.84
477.82	9994.09
478.00	9980.04
478.18	9783.44
478.36	9703.86
478.54	10092.39
478.72	9844.29
478.90	10202.40
479.08	10368.57
479.26	10513.69
479.44	10658.80
479.62	10284.31
479.80	10296.02
479.98	10427.09
480.16	10298.36
480.34	10087.71
480.52	10363.89
480.70	10609.65
480.88	10581.56
481.06	11030.94
481.24	10558.16
481.41	11241.59
481.59	11169.04
481.77	10754.76
481.95	10789.87
482.13	10855.40
482.31	11056.69
482.49	11124.57
482.67	10942.00
482.85	11311.81
483.03	11241.59
483.21	11356.28
483.39	11201.80
483.57	11250.96
483.74	11112.86
483.92	10993.50
484.10	10998.18
484.28	11335.21
484.46	11407.77
484.64	11501.39
484.82	11028.60
485.00	10902.22
485.18	10771.15
485.35	10457.51
485.53	9537.68
485.71	8734.88
485.89	9135.11
486.07	9544.70
486.25	10319.42
486.43	10848.38
486.61	10967.75
486.78	10726.68
486.96	11087.12
487.14	11250.96
487.32	11585.65
487.50	11896.94
487.68	12109.93
487.85	12404.84
488.03	11964.82
488.21	12114.61
488.39	11803.32
488.57	11693.32
488.75	11616.08
488.92	12320.58
489.10	13116.36
489.28	13413.61
489.46	13427.65
489.64	13116.36
489.81	13376.16
489.99	13036.78
490.17	12952.52
490.35	13745.97
490.53	13453.40
490.70	12807.41
490.88	13029.76
491.06	13502.55
491.24	13341.05
491.41	12924.44
491.59	12079.50
491.77	11798.64
491.95	12580.38
492.13	12666.98
492.30	13217.01
492.48	13823.20
492.66	14106.41
492.84	13802.14
493.01	13455.74
493.19	13348.08
493.37	13219.35
493.54	12973.59
493.72	13481.49
493.90	14043.21
494.08	14242.16
494.25	14345.14
494.43	14623.67
494.61	14998.15
494.79	14878.79
494.96	14738.35
495.14	14153.22
495.32	13961.30
495.49	13862.99
495.67	14183.65
495.85	14707.93
496.02	14869.42
496.20	14607.28
496.38	14455.15
496.55	14457.49
496.73	14413.02
496.91	15091.77
497.09	15496.69
497.26	14728.99
497.44	14824.95
497.62	14349.82
497.79	13853.63
497.97	13561.06
498.14	13916.83
498.32	14455.15
498.50	14611.96
498.67	15318.81
498.85	14953.68
499.03	14946.66
499.20	15227.53
499.38	15035.60
499.56	14934.96
499.73	14707.93
499.91	14607.28
500.08	14633.03
500.26	13907.46
500.44	13989.38
500.61	14457.49
500.79	14073.64
500.97	13933.21
501.14	13811.50
501.32	14054.92
501.49	14415.36
501.67	14272.59
501.84	14630.69
502.02	14406.00
502.20	14450.47
502.37	14714.95
502.55	14731.33
502.72	15183.06
502.90	15009.86
503.07	14689.20
503.25	14642.39
503.43	13994.06
503.60	13633.62
503.78	13352.76
503.95	13762.35
504.13	14415.36
504.30	14799.21
504.48	14525.36
504.65	14298.33
504.83	14555.79
505.01	15091.77
505.18	15440.51
505.36	15714.36
505.53	15297.74
505.71	15719.04
505.88	15328.17
506.06	15300.08
506.23	14906.87
506.41	14714.95
506.58	14668.14
506.76	14759.42
506.93	14918.57
507.11	14785.16
507.28	14565.15
507.46	14249.18
507.63	13919.17
507.81	14263.22
507.98	14398.98
508.16	14476.21
508.33	14787.50
508.50	14904.53
508.68	15133.90
508.85	15499.03
509.03	15433.49
509.20	15272.00
509.38	14607.28
509.55	14382.59
509.73	14415.36
509.90	14689.20
510.08	14630.69
510.25	14501.96
510.42	14487.92
510.60	15061.35
510.77	15169.01
510.95	15103.48
511.12	15082.41
511.30	15164.33
511.47	15239.23
511.64	15344.55
511.82	14890.49
511.99	14544.09
512.17	14223.44
512.34	14651.75
512.51	14410.68
512.69	14298.33
512.86	14267.91
513.04	14909.21
513.21	14455.15
513.38	14443.45
513.56	14157.90
513.73	13708.52
513.90	14136.84
514.08	13804.48
514.25	14026.83
514.43	14548.77
514.60	14604.94
514.77	14176.62
514.95	14406.00
515.12	14218.75
515.29	14209.39
515.47	14420.04
515.64	14890.49
515.81	15056.67
515.99	14441.11
516.16	13591.49
516.33	12276.11
516.51	11716.72
516.68	11328.19
516.85	11173.72
517.03	11466.28
517.20	12556.97
517.37	13591.49
517.54	14143.86
517.72	13509.57
517.89	12311.22
518.06	11585.65
518.24	11756.51
518.41	13132.75
518.58	13298.92
518.75	13481.49
518.93	13884.06
519.10	13745.97
519.27	13991.72
519.45	13806.82
519.62	13888.74
519.79	14202.37
519.96	13998.74
520.14	14122.79
520.31	13472.12
520.48	13528.30
520.65	13781.07
520.83	14265.57
521.00	14281.95
521.17	14230.46
521.34	13818.52
521.52	14094.71
521.69	14665.80
521.86	14452.81
522.03	14506.64
522.20	13741.29
522.38	13439.36
522.55	13556.38
522.72	13469.78
522.89	13528.30
523.07	13898.10
523.24	14317.06
523.41	14263.22
523.58	14443.45
523.75	14525.36
523.92	14698.56
524.10	14827.29
524.27	14602.60
524.44	14382.59
524.61	14319.40
524.78	14298.33
524.96	14111.09
525.13	14190.67
525.30	14225.78
525.47	14265.57
525.64	14253.86
525.81	13575.11
525.98	12865.92
526.16	12435.27
526.33	12009.29
526.50	11868.86
526.67	11976.52
526.84	12264.41
527.01	12851.88
527.18	13198.28
527.36	13640.64
527.53	14061.94
527.70	14024.49
527.87	13547.02
528.04	13507.23
528.21	13610.22
528.38	14207.05
528.55	14609.62
528.72	14558.13
528.89	14448.13
529.07	14359.19
529.24	14064.28
529.41	13685.11
529.58	13575.11
529.75	13577.45
529.92	13717.88
530.09	13951.93
530.26	13902.78
530.43	14183.65
530.60	14113.43
530.77	14726.65
530.94	13989.38
531.11	13804.48
531.28	13788.10
531.46	13652.34
531.63	13811.50
531.80	13958.96
531.97	13673.41
532.14	12992.31
532.31	12805.07
532.48	12418.88
532.65	12610.81
532.82	12896.35
532.99	13678.09
533.16	13809.16
533.33	13923.85
533.50	13685.11
533.67	13214.66
533.84	13294.24
534.01	12940.82
534.18	13327.01
534.35	13399.57
534.52	12989.97
534.69	13521.27
534.86	13694.47
535.03	13729.58
535.20	14054.92
535.37	13818.52
535.54	13975.34
535.71	14008.11
535.88	13860.65
536.05	13764.69
536.22	13336.37
536.38	13032.10
536.55	12872.95
536.72	12706.77
536.89	12697.41
537.06	12753.58
537.23	12938.48
537.40	13518.93
537.57	13331.69
537.74	13050.83
537.91	13233.39
538.08	13359.78
538.25	13235.73
538.42	13186.58
538.59	13074.23
538.75	12905.71
538.92	12879.97
539.09	12376.75
539.26	12257.39
539.43	12273.77
539.60	12353.35
539.77	12049.08
539.94	12367.39
540.11	12088.87
540.28	11742.47
540.44	12072.48
540.61	12100.57
540.78	12156.74
540.95	12800.39
541.12	12603.78
541.29	12561.66
541.46	12620.17
541.62	12472.71
541.79	12404.84
541.96	12517.18
542.13	12360.37
542.30	12416.54
542.47	12498.46
542.63	12084.19
542.80	12229.30
542.97	12318.24
543.14	12079.50
543.31	12135.68
543.48	12320.58
543.64	12730.17
543.81	12959.55
543.98	12975.93
544.15	12575.70
544.32	12039.72
544.48	12325.26
544.65	12561.66
544.82	12430.59
544.99	12238.66
545.16	12287.81
545.32	12283.13
545.49	12386.12
545.66	12599.10
545.83	12676.34
546.00	12482.08
546.16	11920.35
546.33	12374.41
546.50	12271.43
546.67	12479.74
546.83	12587.40
547.00	12336.96
547.17	12203.55
547.34	12030.35
547.50	11676.93
547.67	11882.90
547.84	12023.33
548.00	12360.37
548.17	12201.21
548.34	12346.33
548.51	12217.60
548.67	12578.04
548.84	12166.10
549.01	12526.55
549.18	12212.92
549.34	12138.02
549.51	12070.14
549.68	11988.22
549.84	12362.71
550.01	12163.76
550.18	12037.38
550.34	11777.58
550.51	11721.40
550.68	11854.81
550.84	11611.40
551.01	11726.08
551.18	11733.11
551.34	11543.52
551.51	11988.22
551.68	12397.82
551.84	11974.18
552.01	11953.12
552.18	11550.54
552.34	11403.09
552.51	11307.13
552.68	11468.62
552.84	11499.05
553.01	11623.10
553.18	11754.17
553.34	11894.60
553.51	11644.17
553.67	11295.43
553.84	11634.80
554.01	11618.42
554.17	11761.19
554.34	11861.84
554.51	11665.23
554.67	11974.18
554.84	11913.33
555.00	11747.15
555.17	11798.64
555.33	12018.65
555.50	11859.49
555.67	11779.92
555.83	11676.93
556.00	11253.30
556.16	10988.82
556.33	11080.10
556.50	11066.05
556.66	10986.47
556.83	10738.38
556.99	11159.67
557.16	10899.87
557.32	11080.10
557.49	11260.32
557.65	11162.01
557.82	11269.68
557.98	10808.59
558.15	10965.41
558.32	10513.69
558.48	10483.26
558.65	10609.65
558.81	10548.79
558.98	10593.26
559.14	10778.17
559.31	10668.16
559.47	10513.69
559.64	10384.96
559.80	10314.74
559.97	10628.37
560.13	10829.66
560.30	11101.16
560.46	11566.93
560.63	11618.42
560.79	11459.26
560.96	11119.89
561.12	11009.88
561.29	10569.86
561.45	10391.98
561.61	10565.18
561.78	10595.61
561.94	10469.22
562.11	10647.10
562.27	10710.29
562.44	10986.47
562.60	10916.26
562.77	10937.32
562.93	10888.17
563.10	10721.99
563.26	10424.75
563.42	10445.81
563.59	10310.06
563.75	10509.01
563.92	10738.38
564.08	10518.37
564.24	10399.00
564.41	10136.86
564.57	10490.28
564.74	10368.57
564.90	10459.85
565.07	10296.02
565.23	10284.31
565.39	10118.14
565.56	10068.98
565.72	10008.13
565.88	9867.70
566.05	10108.77
566.21	9851.31
566.38	9785.78
566.54	9940.26
566.70	10251.55
566.87	10178.99
567.03	10258.57
567.19	10464.54
567.36	10054.94
567.52	10272.61
567.68	10045.58
567.85	9680.46
568.01	9603.22
568.17	9430.02
568.34	9397.25
568.50	9486.19
568.66	9577.47
568.83	9713.22
568.99	9607.90
569.15	9570.45
569.32	9678.12
569.48	9968.34
569.64	9778.76
569.81	9521.30
569.97	9483.85
570.13	9544.70
570.30	9312.99
570.46	9186.60
570.62	8849.57
570.78	8898.72
570.95	9006.38
571.11	9320.01
571.27	9589.17
571.43	9282.56
571.60	9680.46
571.76	9834.93
571.92	9483.85
572.09	9593.86
572.25	9430.02
572.41	9657.05
572.57	9811.53
572.74	9650.03
572.90	9308.31
573.06	9488.53
573.22	9558.75
573.38	9708.54
573.55	9652.37
573.71	9497.89
573.87	9561.09
574.03	9439.38
574.20	9252.14
574.36	9392.57
574.52	9411.29
574.68	9277.88
574.84	8924.46
575.01	9022.77
575.17	8587.43
575.33	8685.73
575.49	9053.19
575.65	8940.85
575.82	8980.64
575.98	8791.05
576.14	8819.14
576.30	9069.58
576.46	9001.70
576.62	8985.32
576.79	9219.37
576.95	8879.99
577.11	9039.15
577.27	8917.44
577.43	9022.77
577.59	9181.92
577.75	8997.02
577.92	8858.93
578.08	8690.41
578.24	8585.08
578.40	8641.26
578.56	8517.21
578.72	8409.54
578.88	8573.38
579.04	8580.40
579.21	8772.33
579.37	8947.87
579.53	8741.90
579.69	8566.36
579.85	8671.68
580.01	8659.98
580.17	8645.94
580.33	8641.26
580.49	8926.80
580.65	8748.92
580.82	8531.25
580.98	8535.93
581.14	8610.83
581.30	8655.30
581.46	8730.20
581.62	9025.11
581.78	8748.92
581.94	8901.06
582.10	8779.35
582.26	8772.33
582.42	8861.27
582.58	8875.31
582.74	8912.76
582.90	8795.73
583.06	9083.62
583.22	8746.58
583.38	8863.61
583.54	8528.91
583.70	8760.63
583.86	8905.74
584.02	8802.75
584.18	8933.82
584.34	8769.99
584.50	8812.12
584.66	8519.55
584.82	8528.91
584.98	8409.54
585.14	8397.84
585.30	8166.13
585.46	8191.88
585.62	8051.44
585.78	8266.77
585.94	8329.97
586.10	8353.37
586.26	8475.08
586.42	8234.00
586.58	8222.30
586.74	8325.29
586.90	8224.64
587.06	8147.40
587.22	8121.66
587.38	8135.70
587.54	7990.59
587.70	7929.74
587.86	8006.97
588.02	7932.08
588.18	7812.71
588.34	7360.98
588.49	7007.56
588.65	6862.45
588.81	6574.56
588.97	6712.66
589.13	6892.88
589.29	6572.22
589.45	7037.99
589.61	7185.44
589.77	7424.18
589.93	7562.27
590.08	7861.86
590.24	7819.73
590.40	7833.77
590.56	7742.49
590.72	7770.58
590.88	7503.76
591.04	7534.18
591.20	7555.25
591.35	7592.70
