SpectraSuite Data File
++++++++++++++++++++++++++++++++++++
Date: Mon Oct 07 14:55:02 GMT-05:00 2013
User: price-jones
Dark Spectrum Present: No
Reference Spectrum Present: No
Number of Sampled Component Spectra: 1
Spectrometers: USB2+H05261
Integration Time (usec): 10000 (USB2+H05261)
Spectra Averaged: 1 (USB2+H05261)
Boxcar Smoothing: 0 (USB2+H05261)
Correct for Electrical Dark: No (USB2+H05261)
Strobe/Lamp Enabled: No (USB2+H05261)
Correct for Detector Non-linearity: No (USB2+H05261)
Correct for Stray Light: No (USB2+H05261)
Number of Pixels in Processed Spectrum: 2048
>>>>>Begin Processed Spectral Data<<<<<
365.73	0.00
365.92	0.00
366.12	0.00
366.32	0.00
366.52	0.00
366.72	0.00
366.91	0.00
367.11	0.00
367.31	0.00
367.51	0.00
367.70	0.00
367.90	0.00
368.10	0.00
368.30	0.00
368.49	0.00
368.69	0.00
368.89	0.00
369.09	0.00
369.28	0.00
369.48	0.00
369.68	0.00
369.87	0.00
370.07	0.00
370.27	0.00
370.47	404.91
370.66	2656.51
370.86	3115.25
371.06	3192.49
371.25	3253.34
371.45	2869.50
371.65	2590.97
371.84	2431.82
372.04	2813.32
372.24	3077.80
372.44	3068.44
372.63	2958.44
372.83	2810.98
373.03	2406.07
373.22	2282.02
373.42	2492.67
373.62	2928.01
373.81	3103.55
374.01	2869.50
374.21	2698.64
374.40	2497.35
374.60	2630.76
374.79	2984.18
374.99	3644.21
375.19	3826.78
375.38	3609.11
375.58	3538.89
375.78	3382.07
375.97	3499.10
376.17	3620.81
376.37	3730.81
376.56	3838.48
376.76	4074.87
376.95	4189.56
377.15	4573.41
377.35	4870.65
377.54	5015.77
377.74	4983.00
377.93	4933.85
378.13	4947.89
378.33	4451.70
378.52	4234.03
378.72	3946.14
378.91	3920.40
379.11	3911.04
379.31	3831.46
379.50	3824.44
379.70	4074.87
379.89	4840.23
380.09	4870.65
380.28	5011.09
380.48	4978.32
380.68	4788.74
380.87	4554.68
381.07	4241.05
381.26	3899.33
381.46	3606.77
381.65	3508.46
381.85	3576.34
382.04	3314.20
382.24	3171.43
382.43	3009.93
382.63	2998.23
382.83	2995.89
383.02	2979.50
383.22	3028.65
383.41	3108.23
383.61	3351.65
383.80	3868.91
384.00	4346.37
384.19	4706.82
384.39	5027.47
384.58	4926.83
384.78	4856.61
384.97	4727.88
385.17	4374.46
385.36	4224.67
385.56	4189.56
385.75	4533.62
385.95	4737.24
386.14	5172.58
386.34	4947.89
386.53	4746.61
386.72	4451.70
386.92	4718.52
387.11	5071.94
387.31	5200.67
387.50	5130.45
387.70	4912.78
387.89	4830.87
388.09	4957.25
388.28	4992.36
388.48	5170.24
388.67	5549.41
388.86	6024.54
389.06	6333.49
389.25	6600.31
389.45	6813.30
389.64	6551.16
389.84	6436.47
390.03	6513.71
390.22	6663.51
390.42	7035.65
390.61	7293.11
390.81	7758.88
391.00	8189.53
391.19	7838.45
391.39	7552.91
391.58	7012.24
391.78	6696.27
391.97	6551.16
392.16	5963.68
392.36	5322.38
392.55	4138.07
392.75	3126.96
392.94	2780.56
393.13	2932.69
393.33	3721.45
393.52	4489.15
393.71	5441.75
393.91	6216.46
394.10	6661.16
394.29	7318.86
394.49	7880.58
394.68	8266.77
394.88	8425.93
395.07	8596.79
395.26	8585.08
395.46	8273.79
395.65	7641.85
395.84	6427.11
396.04	5303.65
396.23	4318.29
396.42	3705.07
396.62	3831.46
396.81	4683.41
397.00	6101.78
397.19	7508.44
397.39	8854.25
397.58	9724.93
397.77	10197.71
397.97	10607.31
398.16	10649.44
398.35	11082.44
398.55	11129.25
398.74	11662.89
398.93	11791.62
399.12	11847.79
399.32	11267.34
399.51	11480.33
399.70	12580.38
399.90	12060.78
400.09	12187.17
400.28	12343.99
400.47	12278.45
400.67	12957.21
400.86	13160.83
401.05	13142.11
401.24	13413.61
401.44	13664.05
401.63	13415.95
401.82	13420.63
402.01	13675.75
402.21	13926.19
402.40	13951.93
402.59	13118.70
402.78	12966.57
402.97	12568.68
403.17	13467.44
403.36	13914.48
403.55	14195.35
403.74	14326.42
403.93	13385.52
404.13	12547.61
404.32	12692.73
404.51	13469.78
404.70	13973.00
404.89	13862.99
405.09	13909.80
405.28	13570.43
405.47	13385.52
405.66	13408.93
405.85	13261.48
406.05	13118.70
406.24	13217.01
406.43	13727.24
406.62	13886.40
406.81	14200.03
407.00	13727.24
407.20	13109.34
407.39	13441.70
407.58	14427.06
407.77	14867.08
407.96	15063.69
408.15	15768.19
408.34	15557.54
408.54	16098.20
408.73	16198.85
408.92	15789.25
409.11	15147.95
409.30	14207.05
409.49	13472.12
409.68	12837.84
409.87	12905.71
410.07	13886.40
410.26	14623.67
410.45	15201.78
410.64	15611.37
410.83	16358.00
411.02	16482.05
411.21	17139.74
411.40	16828.45
411.59	17226.34
411.78	17312.94
411.98	17041.44
412.17	17385.50
412.36	16933.78
412.55	16905.69
412.74	16542.91
412.93	15957.77
413.12	16720.79
413.31	18200.01
413.50	18141.49
413.69	18588.53
413.88	17280.18
414.07	17664.02
414.26	17965.95
414.45	18597.90
414.64	18022.12
414.83	18026.81
415.02	17727.22
415.22	17921.48
415.41	18544.06
415.60	18902.17
415.79	19466.24
415.98	19917.96
416.17	19693.27
416.36	19267.29
416.55	19283.67
416.74	18642.37
416.93	17980.00
417.12	18108.72
417.31	18099.36
417.50	18689.18
417.69	18953.66
417.88	18923.23
418.07	18637.69
418.26	18745.35
418.45	19009.83
418.64	19723.69
418.83	20720.76
419.02	19688.59
419.21	19208.78
419.39	18850.67
419.58	18157.88
419.77	18469.17
419.96	19236.86
420.15	20372.02
420.34	20718.42
420.53	21579.74
420.72	21977.63
420.91	21242.70
421.10	21167.80
421.29	20849.49
421.48	20641.18
421.67	21654.64
421.86	20439.90
422.05	18782.80
422.24	16961.86
422.43	18221.07
422.61	20147.33
422.80	20456.28
422.99	20105.20
423.18	19566.88
423.37	19829.02
423.56	19885.19
423.75	20463.30
423.94	20695.02
424.13	19660.50
424.32	19627.73
424.50	19353.89
424.69	19613.69
424.88	20109.88
425.07	19714.33
425.26	19695.61
425.45	18705.56
425.64	18906.85
425.83	19166.65
426.01	20189.46
426.20	20091.16
426.39	19728.38
426.58	18169.58
426.77	17385.50
426.96	17364.43
427.15	17846.58
427.33	19550.49
427.52	19840.72
427.71	19892.21
427.90	19545.81
428.09	19138.56
428.28	19145.58
428.46	17989.36
428.65	17965.95
428.84	18876.42
429.03	18735.99
429.22	17767.01
429.40	16582.70
429.59	15016.88
429.78	13305.95
429.97	13596.17
430.16	13532.98
430.34	13811.50
430.53	14434.08
430.72	14698.56
430.91	16489.07
431.10	19360.91
431.28	22118.06
431.47	23819.63
431.66	23332.80
431.85	20849.49
432.03	19080.05
432.22	19484.96
432.41	20952.48
432.60	22410.63
432.79	22717.24
432.97	23304.71
433.16	22450.42
433.35	20121.59
433.54	18317.03
433.72	17598.49
433.91	18789.82
434.10	21050.78
434.28	22181.26
434.47	22801.50
434.66	22476.16
434.85	21509.52
435.03	22314.67
435.22	22600.21
435.41	23711.97
435.59	24093.47
435.78	24322.85
435.97	24938.41
436.16	24414.13
436.34	24428.17
436.53	24446.90
436.72	24105.18
436.90	23140.88
437.09	23058.96
437.28	22665.75
437.46	23775.16
437.65	22970.02
437.84	20847.15
438.02	19742.42
438.21	20390.75
438.40	21046.10
438.58	22398.93
438.77	23765.80
438.96	23494.30
439.14	24964.15
439.33	25245.02
439.52	25731.85
439.70	24584.99
439.89	23466.21
440.08	23386.63
440.26	23410.04
440.45	24760.53
440.63	26462.10
440.82	27300.01
441.01	26738.28
441.19	26897.44
441.38	27779.82
441.57	28484.32
441.75	28456.23
441.94	28741.78
442.12	28381.34
442.31	29064.77
442.50	28514.75
442.68	28264.31
442.87	28259.63
443.05	28086.43
443.24	28444.53
443.43	29226.27
443.61	29191.16
443.80	29996.31
443.98	28580.28
444.17	28142.60
444.35	29830.13
444.54	30635.27
444.73	29961.20
444.91	28095.79
445.10	26962.97
445.28	26291.24
445.47	26202.30
445.65	26366.13
445.84	27236.81
446.02	28116.86
446.21	28606.03
446.39	28577.94
446.58	29247.33
446.77	29935.45
446.95	29977.58
447.14	30059.50
447.32	30976.99
447.51	30160.14
447.69	29006.26
447.88	29247.33
448.06	29724.80
448.25	29677.99
448.43	29825.45
448.62	29340.96
448.80	29380.74
448.99	29226.27
449.17	29745.87
449.36	30457.39
449.54	31302.32
449.73	31197.00
449.91	31875.76
450.10	32720.69
450.28	32828.35
450.46	33149.01
450.65	33123.26
450.83	32311.10
451.02	32121.51
451.20	31887.46
451.39	32020.87
451.57	32109.81
451.76	31814.90
451.94	31133.81
452.13	30333.34
452.31	28694.97
452.49	27910.89
452.68	28573.26
452.86	28912.64
453.05	29111.58
453.23	30817.83
453.42	30789.75
453.60	31505.95
453.78	31232.11
453.97	30979.33
454.15	31405.31
454.34	29788.00
454.52	29654.59
454.70	30218.66
454.89	30251.42
455.07	30363.77
455.26	31072.95
455.44	31644.04
455.62	32669.20
455.81	32601.32
455.99	32690.26
456.17	33046.02
456.36	33684.99
456.54	33834.78
456.73	32769.84
456.91	33776.27
457.09	33425.19
457.28	34759.30
457.46	32959.42
457.64	32528.77
457.83	32002.14
458.01	31519.99
458.19	32755.80
458.38	33219.22
458.56	34068.84
458.74	33130.28
458.93	32584.94
459.11	32397.70
459.29	31840.65
459.48	33127.94
459.66	32336.84
459.84	32711.33
460.03	33060.07
460.21	33762.23
460.39	34361.40
460.57	33874.57
460.76	34419.92
460.94	34356.72
461.12	34148.42
461.31	34789.72
461.49	34738.23
461.67	34405.88
461.85	34965.26
462.04	35267.19
462.22	34794.40
462.40	35496.56
462.59	34345.02
462.77	34972.28
462.95	34836.53
463.13	34391.83
463.32	34061.82
463.50	33778.61
463.68	34546.31
463.86	34773.34
464.05	33766.91
464.23	32655.15
464.41	33350.29
464.59	32463.23
464.78	34326.30
464.96	33979.90
465.14	33397.10
465.32	35063.57
465.50	35775.09
465.69	36046.59
465.87	35009.73
466.05	33607.75
466.23	32503.02
466.41	31576.17
466.60	33055.39
466.78	32886.87
466.96	33221.56
467.14	34204.59
467.32	33977.56
467.51	34223.31
467.69	32512.38
467.87	34019.69
468.05	34045.43
468.23	34153.10
468.41	34099.26
468.60	34117.99
468.78	34948.88
468.96	34265.44
469.14	34820.15
469.32	34911.43
469.50	33008.58
469.69	33717.76
469.87	33305.82
470.05	33352.63
470.23	33244.97
470.41	33493.07
470.59	34139.05
470.77	33687.33
470.95	34883.34
471.14	35056.54
471.32	35140.80
471.50	36964.08
471.68	37120.90
471.86	37813.70
472.04	37312.82
472.22	37226.22
472.40	35929.56
472.58	35356.13
472.77	35379.54
472.95	36322.77
473.13	37249.63
473.31	35744.66
473.49	35639.34
473.67	37347.93
473.85	37411.12
474.03	38302.87
474.21	38817.78
474.39	38962.90
474.57	38934.81
474.75	38948.85
474.93	38227.97
475.12	37366.65
475.30	37563.26
475.48	37113.87
475.66	37099.83
475.84	36737.05
476.02	36723.01
476.20	37010.89
476.38	37778.59
476.56	38663.31
476.74	39768.04
476.92	39676.76
477.10	39718.89
477.28	41078.74
477.46	40966.40
477.64	41329.18
477.82	41930.70
478.00	41790.27
478.18	40395.31
478.36	40280.62
478.54	41406.42
478.72	42064.11
478.90	43316.29
479.08	44636.36
479.26	44093.35
479.44	44364.85
479.62	43323.32
479.80	44495.92
479.98	44732.32
480.16	44708.91
480.34	43688.44
480.52	44985.10
480.70	45411.07
480.88	45123.19
481.06	45537.46
481.24	45558.53
481.41	46967.53
481.59	47688.42
481.77	46319.20
481.95	45921.31
482.13	45722.37
482.31	46110.89
482.49	46869.23
482.67	46244.30
482.85	46632.83
483.03	46726.46
483.21	48149.50
483.39	47288.18
483.57	46768.58
483.74	46848.16
483.92	47494.15
484.10	46871.57
484.28	47573.73
484.46	47494.15
484.64	49607.65
484.82	48383.55
485.00	47763.31
485.18	46813.05
485.35	44552.10
485.53	39484.84
485.71	37291.76
485.89	38223.29
486.07	41228.54
486.25	43494.18
486.43	45617.04
486.61	45883.86
486.78	45556.19
486.96	46960.51
487.14	48545.05
487.32	49052.95
487.50	49897.88
487.68	51222.62
487.85	51976.28
488.03	51047.08
488.21	50637.49
488.39	50251.30
488.57	49425.09
488.75	49141.89
488.92	50731.11
489.10	52446.72
489.28	53322.08
489.46	54756.83
489.64	54328.52
489.81	54557.89
489.99	53682.53
490.17	53687.21
490.35	54080.42
490.53	53727.00
490.70	53490.60
490.88	53183.99
491.06	54087.44
491.24	54721.72
491.41	53434.43
491.59	51980.96
491.77	52112.03
491.95	53111.44
492.13	54576.61
492.30	54803.64
492.48	55313.88
492.66	56189.24
492.84	55664.96
493.01	55290.48
493.19	55440.27
493.37	54805.98
493.54	55112.59
493.72	56238.39
493.90	56334.35
494.08	56587.13
494.25	56535.64
494.43	57188.65
494.61	57783.15
494.79	57759.74
494.96	58003.16
495.14	57708.25
495.32	56161.15
495.49	56514.58
495.67	57595.90
495.85	58220.83
496.02	58845.75
496.20	58309.77
496.38	57961.03
496.55	57764.42
496.73	58578.93
496.91	58702.98
497.09	58955.75
497.26	58864.47
497.44	58515.73
497.62	57731.65
497.79	56938.21
497.97	56271.16
498.14	56828.21
498.32	58094.44
498.50	57881.45
498.67	58087.42
498.85	58351.90
499.03	58812.98
499.20	59400.46
499.38	58447.86
499.56	58089.76
499.73	57607.61
499.91	57506.96
500.08	57041.20
500.26	56460.74
500.44	57467.17
500.61	57616.97
500.79	57460.15
500.97	57836.98
501.14	56853.95
501.32	56542.66
501.49	56921.83
501.67	57354.83
501.84	57293.97
502.02	58174.02
502.20	58658.51
502.37	58740.42
502.55	58738.08
502.72	59182.79
502.90	59704.73
503.07	59522.16
503.25	58248.91
503.43	57127.80
503.60	57235.46
503.78	56844.59
503.95	57148.86
504.13	58663.19
504.30	58958.09
504.48	58281.68
504.65	58468.92
504.83	58848.09
505.01	59400.46
505.18	59828.77
505.36	60069.85
505.53	60001.97
505.71	60374.12
505.88	60219.64
506.06	60051.12
506.23	59489.40
506.41	59292.79
506.58	59891.97
506.76	59622.81
506.93	58946.39
507.11	58960.44
507.28	59161.72
507.46	58731.06
507.63	58702.98
507.81	57989.11
507.98	58719.36
508.16	59632.17
508.33	59711.75
508.50	59784.30
508.68	60221.98
508.85	60559.02
509.03	60654.98
509.20	60250.07
509.38	58958.09
509.55	59143.00
509.73	59119.59
509.90	59606.42
510.08	59714.09
510.25	59449.61
510.42	59421.52
510.60	59896.65
510.77	60212.62
510.95	60058.15
511.12	60353.05
511.30	60882.02
511.47	61160.54
511.64	61109.05
511.82	60973.30
511.99	59877.93
512.17	60027.72
512.34	59564.29
512.51	59597.06
512.69	60158.79
512.86	59716.43
513.04	59976.23
513.21	59430.88
513.38	58700.64
513.56	58604.67
513.73	58295.72
513.90	58930.01
514.08	59054.06
514.25	58508.71
514.43	59086.82
514.60	59449.61
514.77	59824.09
514.95	59903.67
515.12	59835.80
515.29	60140.07
515.47	60762.65
515.64	60552.00
515.81	60322.63
515.99	59196.83
516.16	57326.74
516.33	55442.61
516.51	55192.17
516.68	53544.44
516.85	52907.81
517.03	54887.90
517.20	57279.93
517.37	59180.45
517.54	59863.88
517.72	58497.01
517.89	55950.51
518.06	54639.81
518.24	55650.92
518.41	57911.88
518.58	58747.45
518.75	58489.99
518.93	58529.78
519.10	57977.41
519.27	59037.67
519.45	59285.77
519.62	59814.73
519.79	60001.97
519.96	59608.76
520.14	59430.88
520.31	58307.43
520.48	58351.90
520.65	59545.57
520.83	60233.69
521.00	60301.56
521.17	59765.58
521.34	59845.16
521.52	60226.66
521.69	60322.63
521.86	60839.89
522.03	60760.31
522.20	59051.72
522.38	58499.35
522.55	59274.07
522.72	59690.68
522.89	59070.44
523.07	59597.06
523.24	59936.44
523.41	61071.60
523.58	61307.99
523.75	61581.84
523.92	61127.77
524.10	60907.76
524.27	60685.41
524.44	60465.40
524.61	60219.64
524.78	60746.26
524.96	60540.30
525.13	60392.84
525.30	61153.52
525.47	61212.03
525.64	61090.32
525.81	60212.62
525.98	58492.33
526.16	57411.00
526.33	57209.71
526.50	57041.20
526.67	56954.60
526.84	57411.00
527.01	58314.45
527.18	58885.54
527.36	59987.93
527.53	60790.73
527.70	60205.60
527.87	58721.70
528.04	59936.44
528.21	60467.74
528.38	61029.47
528.55	61804.19
528.72	61378.21
528.89	60982.66
529.07	60867.97
529.24	59557.27
529.41	59611.10
529.58	59608.76
529.75	60612.85
529.92	60619.88
530.09	60659.66
530.26	61282.25
530.43	61815.89
530.60	60816.48
530.77	61329.06
530.94	61680.14
531.11	60676.05
531.28	60985.00
531.46	61190.97
531.63	60900.74
531.80	60329.65
531.97	59723.45
532.14	59779.62
532.31	58583.61
532.48	57895.49
532.65	58321.47
532.82	58763.83
532.99	60378.80
533.16	60378.80
533.33	60404.55
533.50	60846.91
533.67	60701.79
533.84	59910.69
534.01	60303.90
534.18	60257.09
534.35	60039.42
534.52	59526.84
534.69	60186.88
534.86	60676.05
535.03	60851.59
535.20	60654.98
535.37	61361.82
535.54	61649.71
535.71	61425.02
535.88	61759.72
536.05	60339.01
536.22	59749.20
536.38	59711.75
536.55	58618.72
536.72	58518.07
536.89	59283.43
537.06	59491.74
537.23	60184.54
537.40	60196.24
537.57	59772.60
537.74	60294.54
537.91	60285.18
538.08	59938.78
538.25	59934.10
538.42	60715.84
538.59	60221.98
538.75	59281.09
538.92	58653.82
539.09	59096.19
539.26	59124.27
539.43	59194.49
539.60	59250.66
539.77	59842.82
539.94	59367.69
540.11	58562.54
540.28	58326.15
540.44	57907.19
540.61	58195.08
540.78	58630.42
540.95	59437.90
541.12	59278.75
541.29	59796.01
541.46	60004.31
541.62	60179.85
541.79	59421.52
541.96	58649.14
542.13	58583.61
542.30	58894.90
542.47	59348.96
542.63	59236.62
542.80	59192.15
542.97	58838.73
543.14	58728.72
543.31	58539.14
543.48	59831.11
543.64	60093.25
543.81	61008.40
543.98	60835.20
544.15	59049.38
544.32	59941.12
544.48	59419.18
544.65	59494.08
544.82	59994.95
544.99	58473.60
545.16	58342.53
545.32	58532.12
545.49	59346.62
545.66	59414.50
545.83	58958.09
546.00	59721.11
546.16	59662.60
546.33	59400.46
546.50	59482.37
546.67	59760.90
546.83	59194.49
547.00	59800.69
547.17	58529.78
547.34	57506.96
547.50	57790.17
547.67	58927.67
547.84	59606.42
548.00	59475.35
548.17	59082.14
548.34	59234.28
548.51	59543.23
548.67	59955.16
548.84	59796.01
549.01	59906.01
549.18	59185.13
549.34	59152.36
549.51	59388.75
549.68	59325.56
549.84	58988.52
550.01	58595.31
550.18	58124.86
550.34	58452.54
550.51	58908.94
550.68	59264.70
550.84	58972.14
551.01	58426.79
551.18	58169.33
551.34	57726.97
551.51	59278.75
551.68	59133.63
551.84	59068.10
552.01	58915.96
552.18	58611.70
552.34	57951.66
552.51	57993.79
552.68	57841.66
552.84	57858.04
553.01	58305.09
553.18	58827.02
553.34	58918.31
553.51	58983.84
553.67	58658.51
553.84	58525.10
554.01	58866.81
554.17	58302.74
554.34	58646.80
554.51	58679.57
554.67	58038.26
554.84	57923.58
555.00	57956.35
555.17	58277.00
555.33	57874.43
555.50	57329.08
555.67	58223.17
555.83	58262.96
556.00	58218.49
556.16	57836.98
556.33	57008.43
556.50	57656.76
556.66	58138.91
556.83	57389.94
556.99	57144.18
557.16	57474.20
557.32	57293.97
557.49	57560.79
557.65	57251.84
557.82	57829.96
557.98	58110.82
558.15	56844.59
558.32	56261.80
558.48	55519.85
558.65	56023.06
558.81	56390.53
558.98	56882.04
559.14	57324.40
559.31	56905.44
559.47	56324.99
559.64	56285.20
559.80	55845.18
559.97	56868.00
560.13	57425.04
560.30	58457.22
560.46	58501.69
560.63	59114.91
560.79	58822.34
560.96	57759.74
561.12	56711.18
561.29	56306.27
561.45	56264.14
561.61	57495.26
561.78	56842.25
561.94	57462.49
562.11	57481.22
562.27	56769.69
562.44	57350.15
562.60	57652.08
562.77	57961.03
562.93	56631.60
563.10	56844.59
563.26	56828.21
563.42	57411.00
563.59	56736.93
563.75	56488.83
563.92	56622.24
564.08	55901.36
564.24	57125.46
564.41	56453.72
564.57	57219.08
564.74	56765.01
564.90	55966.89
565.07	56306.27
565.23	55138.34
565.39	55229.62
565.56	55433.25
565.72	55458.99
565.88	54478.31
566.05	56413.93
566.21	57013.11
566.38	56165.84
566.54	56533.30
566.70	56746.29
566.87	56605.86
567.03	55980.93
567.19	57282.27
567.36	57406.32
567.52	56074.55
567.68	55709.43
567.85	54969.82
568.01	55203.88
568.17	55686.03
568.34	55629.85
568.50	55622.83
568.66	55625.17
568.83	54850.45
568.99	54663.21
569.15	55112.59
569.32	55442.61
569.48	55194.51
569.64	54600.02
569.81	54527.46
569.97	54270.00
570.13	53970.41
570.30	53687.21
570.46	53127.82
570.62	52310.97
570.78	52690.14
570.95	53638.06
571.11	53504.65
571.27	53441.45
571.43	53595.93
571.60	53434.43
571.76	54698.32
571.92	54691.30
572.09	55295.16
572.25	55105.57
572.41	55917.74
572.57	55580.70
572.74	55426.23
572.90	56470.11
573.06	55325.58
573.22	55466.02
573.38	55248.35
573.55	56640.96
573.71	55161.75
573.87	55257.71
574.03	55306.86
574.20	54918.33
574.36	54897.27
574.52	53888.49
574.68	53848.71
574.84	53420.39
575.01	53532.73
575.17	53722.32
575.33	53851.05
575.49	53904.88
575.65	53333.79
575.82	53860.41
575.98	53268.25
576.14	54415.11
576.30	54775.56
576.46	53588.91
576.62	53497.62
576.79	53649.76
576.95	53851.05
577.11	54291.07
577.27	54176.38
577.43	54199.79
577.59	53095.05
577.75	51985.64
577.92	52306.29
578.08	52662.05
578.24	53549.12
578.40	53240.17
578.56	52278.21
578.72	52603.54
578.88	52837.59
579.04	53104.41
579.21	52350.76
579.37	52879.72
579.53	52982.71
579.69	52694.82
579.85	52774.40
580.01	52811.85
580.17	52381.19
580.33	53359.53
580.49	53640.40
580.65	51620.52
580.82	52491.19
580.98	53172.29
581.14	53415.71
581.30	52821.21
581.46	52853.98
581.62	53193.36
581.78	53773.81
581.94	53900.20
582.10	54010.20
582.26	53895.52
582.42	53939.99
582.58	52533.32
582.74	52554.39
582.90	52615.24
583.06	52926.53
583.22	53130.16
583.38	52961.64
583.54	53521.03
583.70	53829.98
583.86	53275.27
584.02	53020.16
584.18	52652.69
584.34	52144.80
584.50	51894.36
584.66	51936.49
584.82	52322.68
584.98	52315.65
585.14	51828.82
585.30	51985.64
