SpectraSuite Data File
++++++++++++++++++++++++++++++++++++
Date: Mon Oct 07 14:53:23 GMT-05:00 2013
User: price-jones
Dark Spectrum Present: No
Reference Spectrum Present: No
Number of Sampled Component Spectra: 1
Spectrometers: USB2+H05261
Integration Time (usec): 100000 (USB2+H05261)
Spectra Averaged: 1 (USB2+H05261)
Boxcar Smoothing: 0 (USB2+H05261)
Correct for Electrical Dark: No (USB2+H05261)
Strobe/Lamp Enabled: No (USB2+H05261)
Correct for Detector Non-linearity: No (USB2+H05261)
Correct for Stray Light: No (USB2+H05261)
Number of Pixels in Processed Spectrum: 2048
>>>>>Begin Processed Spectral Data<<<<<
365.73	0.00
365.92	0.00
366.12	0.00
366.32	0.00
366.52	0.00
366.72	0.00
366.91	0.00
367.11	0.00
367.31	0.00
367.51	0.00
367.70	0.00
367.90	0.00
368.10	0.00
368.30	0.00
368.49	0.00
368.69	0.00
368.89	0.00
369.09	0.00
369.28	0.00
369.48	0.00
369.68	0.00
369.87	0.00
370.07	0.00
370.27	0.00
370.47	533.64
370.66	2972.48
370.86	3487.40
371.06	3719.11
371.25	3735.50
371.45	3288.45
371.65	3101.21
371.84	2803.96
372.04	2942.05
372.24	3499.10
372.44	3531.87
372.63	3489.74
372.83	3314.20
373.03	2881.20
373.22	2480.97
373.42	2796.94
373.62	3279.09
373.81	3461.65
374.01	3400.80
374.21	3117.59
374.40	2942.05
374.60	3059.08
374.79	3375.05
374.99	4049.13
375.19	4344.03
375.38	4112.32
375.58	3974.23
375.78	3969.55
375.97	3962.53
376.17	4196.58
376.37	4285.52
376.56	4367.44
376.76	4521.92
376.95	4713.84
377.15	5064.92
377.35	5289.61
377.54	5621.97
377.74	5568.13
377.93	5760.06
378.13	5542.39
378.33	5369.19
378.52	4915.12
378.72	4746.61
378.91	4758.31
379.11	4344.03
379.31	4234.03
379.50	4285.52
379.70	4737.24
379.89	5034.49
380.09	5526.00
380.28	5434.72
380.48	5598.56
380.68	5521.32
380.87	5390.25
381.07	5071.94
381.26	4559.36
381.46	4374.46
381.65	4119.34
381.85	4128.70
382.04	3868.91
382.24	3562.30
382.43	3314.20
382.63	3389.10
382.83	3375.05
383.02	3318.88
383.22	3332.92
383.41	3407.82
383.61	3543.57
383.80	4074.87
384.00	4695.11
384.19	5329.40
384.39	5575.16
384.58	5586.86
384.78	5355.15
384.97	5448.77
385.17	5062.58
385.36	4800.44
385.56	4678.73
385.75	4865.97
385.95	5163.22
386.14	5708.57
386.34	5813.89
386.53	5518.98
386.72	5008.75
386.92	5263.86
387.11	5544.73
387.31	5919.21
387.50	5589.20
387.70	5408.98
387.89	5235.78
388.09	5462.81
388.28	5418.34
388.48	5472.17
388.67	6031.56
388.86	6497.33
389.06	6956.07
389.25	7393.75
389.45	7344.60
389.64	7410.14
389.84	7293.11
390.03	7225.23
390.22	7112.89
390.42	7646.53
390.61	7950.80
390.81	8442.31
391.00	8800.41
391.19	8795.73
391.39	8383.80
391.58	7915.69
391.78	7400.77
391.97	7080.12
392.16	6729.04
392.36	5966.03
392.55	4933.85
392.75	3843.16
392.94	3211.22
393.13	3171.43
393.33	3817.41
393.52	4695.11
393.71	5795.17
393.91	6541.80
394.10	6960.75
394.29	7723.77
394.49	8292.52
394.68	9034.47
394.88	9116.39
395.07	9268.52
395.26	9406.61
395.46	8884.67
395.65	8451.67
395.84	7442.90
396.04	6216.46
396.23	4961.94
396.42	4290.20
396.62	4107.64
396.81	4823.84
397.00	6066.67
397.19	7672.28
397.39	9238.09
397.58	10476.24
397.77	10707.95
397.97	11424.15
398.16	11473.31
398.35	11758.85
398.55	11999.93
398.74	12631.87
398.93	12732.51
399.12	12519.53
399.32	12191.85
399.51	12566.34
399.70	13603.19
399.90	13301.26
400.09	13224.03
400.28	12938.48
400.47	13324.67
400.67	13645.32
400.86	14242.16
401.05	14328.76
401.24	14167.26
401.44	14511.32
401.63	14398.98
401.82	14743.03
402.01	14567.49
402.21	14663.46
402.40	14679.84
402.59	14487.92
402.78	13717.88
402.97	13427.65
403.17	13841.93
403.36	14609.62
403.55	15164.33
403.74	15449.88
403.93	14712.61
404.13	13598.51
404.32	13453.40
404.51	13956.61
404.70	15030.92
404.89	15208.80
405.09	14923.26
405.28	14455.15
405.47	14672.82
405.66	14597.92
405.85	13973.00
406.05	13893.42
406.24	14003.43
406.43	14480.89
406.62	14970.07
406.81	15096.46
407.00	14588.56
407.20	14104.07
407.39	14492.60
407.58	15059.01
407.77	15398.38
407.96	15943.73
408.15	16468.01
408.34	16425.88
408.54	17165.49
408.73	17254.43
408.92	17069.53
409.11	16304.17
409.30	15660.52
409.49	14501.96
409.68	13628.94
409.87	13305.95
410.07	14115.77
410.26	15138.58
410.45	16388.43
410.64	16652.91
410.83	17209.96
411.02	17275.49
411.21	18373.21
411.40	18197.67
411.59	18019.78
411.78	18080.64
411.98	18038.51
412.17	18448.10
412.36	17762.33
412.55	17659.34
412.74	17228.68
412.93	16819.09
413.12	17263.79
413.31	18869.40
413.50	18981.74
413.69	19531.77
413.88	18705.56
414.07	17980.00
414.26	18188.30
414.45	19103.45
414.64	18953.66
414.83	19063.66
415.02	18651.73
415.22	18499.59
415.41	19089.41
415.60	19529.43
415.79	20311.17
415.98	20779.28
416.17	20924.39
416.36	20320.53
416.55	20023.28
416.74	19466.24
416.93	18576.83
417.12	18735.99
417.31	18974.72
417.50	19227.50
417.69	19971.79
417.88	19894.55
418.07	19803.27
418.26	19655.82
418.45	19707.31
418.64	20318.19
418.83	21020.35
419.02	20336.91
419.21	20697.36
419.39	19889.87
419.58	18558.11
419.77	18838.97
419.96	19550.49
420.15	20699.70
420.34	21228.66
420.53	22258.49
420.72	22703.20
420.91	22150.83
421.10	21872.31
421.29	21963.59
421.48	20886.94
421.67	22293.60
421.86	21188.87
422.05	20130.95
422.24	18127.45
422.43	17853.61
422.61	19723.69
422.80	21163.12
422.99	21245.04
423.18	20381.38
423.37	20135.63
423.56	19953.07
423.75	20365.00
423.94	20950.14
424.13	19566.88
424.32	19917.96
424.50	20173.08
424.69	19805.61
424.88	19873.49
425.07	19791.57
425.26	19662.84
425.45	19634.75
425.64	19131.54
425.83	19145.58
426.01	20276.06
426.20	20879.92
426.39	20798.00
426.58	19412.40
426.77	17860.63
426.96	17247.41
427.15	17767.01
427.33	19250.91
427.52	20044.35
427.71	20147.33
427.90	19683.91
428.09	19609.01
428.28	19337.51
428.46	18700.88
428.65	18228.09
428.84	18700.88
429.03	19314.10
429.22	18167.24
429.40	17448.69
429.59	15494.35
429.78	13769.37
429.97	13804.48
430.16	13830.23
430.34	14029.17
430.53	14012.79
430.72	14326.42
430.91	15910.96
431.10	18525.34
431.28	21996.35
431.47	23463.87
431.66	23873.46
431.85	21937.84
432.03	19903.92
432.22	19199.41
432.41	19929.66
432.60	22246.79
432.79	23110.45
432.97	23520.04
433.16	23234.50
433.35	21223.98
433.54	19264.95
433.72	18010.42
433.91	18487.89
434.10	20718.42
434.28	22118.06
434.47	23250.88
434.66	23051.94
434.85	21979.97
435.03	22106.36
435.22	22930.23
435.41	23995.17
435.59	24219.86
435.78	24730.10
435.97	25153.74
436.16	25238.00
436.34	24947.77
436.53	24208.16
436.72	24304.12
436.90	22916.19
437.09	22895.12
437.28	22387.22
437.46	23342.16
437.65	23410.04
437.84	21420.58
438.02	19665.18
438.21	19822.00
438.40	20788.64
438.58	22773.41
438.77	23351.52
438.96	23538.77
439.14	24622.44
439.33	24989.90
439.52	25598.44
439.70	24926.71
439.89	24449.24
440.08	23819.63
440.26	23531.75
440.45	24507.75
440.63	26136.76
440.82	27676.83
441.01	26895.10
441.19	26675.09
441.38	26874.03
441.57	28126.22
441.75	28463.25
441.94	28959.45
442.12	28402.40
442.31	29109.24
442.50	28959.45
442.68	28638.80
442.87	28397.72
443.05	27810.25
443.24	28238.56
443.43	28577.94
443.61	29434.58
443.80	29790.34
443.98	28341.55
444.17	27805.56
444.35	30052.48
444.54	30361.43
444.73	29441.60
444.91	28804.97
445.10	27615.98
445.28	26405.92
445.47	25933.14
445.65	26078.25
445.84	26845.94
446.02	27908.55
446.21	28318.14
446.39	28329.84
446.58	28545.17
446.77	29022.64
446.95	29322.23
447.14	30061.84
447.32	31033.16
447.51	30155.46
447.69	28940.72
447.88	28493.68
448.06	28847.10
448.25	29663.95
448.43	29883.96
448.62	29102.22
448.80	28652.84
448.99	29228.61
449.17	29481.39
449.36	29436.92
449.54	30487.82
449.73	31133.81
449.91	31487.23
450.10	32498.34
450.28	32755.80
450.46	32570.90
450.65	32746.44
450.83	32151.94
451.02	31515.31
451.20	31323.39
451.39	31150.19
451.57	31374.88
451.76	31178.28
451.94	30677.40
452.13	30419.94
452.31	29081.16
452.49	27861.74
452.68	28044.30
452.86	28032.60
453.05	28409.42
453.23	29422.87
453.42	29942.47
453.60	30857.62
453.78	31103.38
453.97	30768.68
454.15	30789.75
454.34	30391.86
454.52	30309.94
454.70	29855.87
454.89	30366.11
455.07	30260.79
455.26	30665.70
455.44	31524.68
455.62	31826.60
455.81	32421.10
455.99	32046.62
456.17	31796.18
456.36	31842.99
456.54	32975.81
456.73	33006.23
456.91	33408.81
457.09	33586.69
457.28	34043.09
457.46	32826.01
457.64	32601.32
457.83	31716.60
458.01	30724.21
458.19	31871.07
458.38	31812.56
458.56	33017.94
458.74	32811.97
458.93	32203.43
459.11	32119.17
459.29	31927.25
459.48	31992.78
459.66	32051.30
459.84	32575.58
460.03	32821.33
460.21	32816.65
460.39	33273.06
460.57	33338.59
460.76	33979.90
460.94	33926.07
461.12	33193.48
461.31	33273.06
461.49	33413.49
461.67	33455.62
461.85	34602.48
462.04	34693.76
462.22	34892.71
462.40	34785.04
462.59	34127.35
462.77	34796.74
462.95	34543.97
463.13	34101.61
463.32	33354.97
463.50	33249.65
463.68	33383.06
463.86	33551.58
464.05	32999.21
464.23	32350.88
464.41	32301.73
464.59	31660.43
464.78	32973.47
464.96	33399.44
465.14	32671.54
465.32	33546.90
465.50	34595.46
465.69	35037.82
465.87	33804.36
466.05	33343.27
466.23	31997.46
466.41	31028.48
466.60	32165.98
466.78	32116.83
466.96	32568.55
467.14	32706.65
467.32	33797.34
467.51	33357.32
467.69	32226.84
467.87	32584.94
468.05	33109.22
468.23	33031.98
468.41	33022.62
468.60	33376.04
468.78	33677.97
468.96	33095.18
469.14	33729.46
469.32	33764.57
469.50	32849.42
469.69	32802.61
469.87	31768.09
470.05	32044.27
470.23	32411.74
470.41	32044.27
470.59	33046.02
470.77	32823.67
470.95	33432.21
471.14	34071.18
471.32	34061.82
471.50	35924.88
471.68	36084.04
471.86	36355.54
472.04	36467.89
472.22	36732.37
472.40	35054.20
472.58	34293.53
472.77	34307.57
472.95	34850.58
473.13	35861.69
473.31	34548.65
473.49	34583.76
473.67	35814.88
473.85	35552.74
474.03	36875.14
474.21	36683.22
474.39	37027.28
474.57	37640.50
474.75	37034.30
474.93	36748.75
475.12	35849.99
475.30	36315.75
475.48	36233.83
475.66	37067.06
475.84	36676.19
476.02	36292.35
476.20	35800.83
476.38	36119.15
476.56	37766.88
476.74	37839.44
476.92	38249.03
477.10	38527.56
477.28	39721.23
477.46	39798.47
477.64	40238.49
477.82	40205.72
478.00	40304.02
478.18	40044.23
478.36	39709.53
478.54	39835.92
478.72	39917.84
478.90	40882.14
479.08	41507.06
479.26	42602.43
479.44	42337.95
479.62	41858.14
479.80	41911.97
479.98	42314.55
480.16	42705.41
480.34	42150.71
480.52	42181.13
480.70	43164.16
480.88	42717.12
481.06	44016.11
481.24	43777.38
481.41	44760.40
481.59	45373.63
481.77	45277.66
481.95	44278.25
482.13	43690.78
482.31	44524.01
482.49	45069.36
482.67	45055.31
482.85	45783.22
483.03	45610.02
483.21	46202.18
483.39	45727.05
483.57	45139.57
483.74	44849.35
483.92	45659.17
484.10	45315.11
484.28	46515.81
484.46	46759.22
484.64	47608.84
484.82	46232.60
485.00	45727.05
485.18	45170.00
485.35	43531.62
485.53	41076.40
485.71	37357.29
485.89	36762.79
486.07	38724.16
486.25	41661.54
486.43	43948.24
486.61	44839.98
486.78	44268.89
486.96	44964.03
487.14	46525.17
487.32	47775.02
487.50	48538.03
487.68	49223.81
487.85	50295.77
488.03	49942.35
488.21	49485.95
488.39	48914.86
488.57	48093.33
488.75	47875.66
488.92	49184.02
489.10	51341.99
489.28	52765.04
489.46	53111.44
489.64	53125.48
489.81	53258.89
489.99	52868.02
490.17	52933.56
490.35	53158.25
490.53	52636.31
490.70	52502.90
490.88	52533.32
491.06	53240.17
491.24	53207.40
491.41	52013.73
491.59	50525.14
491.77	49556.16
491.95	50639.83
492.13	52011.38
492.30	53186.33
492.48	54344.90
492.66	54761.51
492.84	54717.04
493.01	54380.01
493.19	53771.47
493.37	53862.75
493.54	53549.12
493.72	53783.17
493.90	54953.44
494.08	55721.13
494.25	56058.17
494.43	56147.11
494.61	56545.00
494.79	56615.22
494.96	56617.56
495.14	55884.97
495.32	54817.69
495.49	54066.38
495.67	55150.04
495.85	56582.45
496.02	56963.96
496.20	56832.89
496.38	56427.98
496.55	56222.01
496.73	56554.36
496.91	56757.99
497.09	57607.61
497.26	57757.40
497.44	57017.79
497.62	56664.37
497.79	55945.83
497.97	54761.51
498.14	54679.60
498.32	56144.77
498.50	56753.31
498.67	57301.00
498.85	57113.75
499.03	57169.93
499.20	57755.06
499.38	57633.35
499.56	57315.04
499.73	56786.08
499.91	56467.76
500.08	56184.56
500.26	55236.64
500.44	55959.87
500.61	56465.42
500.79	56458.40
500.97	56130.73
501.14	55742.20
501.32	55634.53
501.49	55927.10
501.67	56121.37
501.84	56360.10
502.02	56701.82
502.20	57118.43
502.37	57301.00
502.55	57354.83
502.72	57741.02
502.90	58117.84
503.07	57687.18
503.25	57235.46
503.43	56580.11
503.60	56048.81
503.78	55161.75
503.95	55671.98
504.13	57338.44
504.30	58082.73
504.48	57937.62
504.65	57635.69
504.83	57488.24
505.01	58068.69
505.18	58464.24
505.36	58974.48
505.53	59016.61
505.71	59143.00
505.88	59143.00
506.06	58478.28
506.23	58253.59
506.41	57893.15
506.58	58138.91
506.76	58178.70
506.93	58164.65
507.11	57783.15
507.28	58164.65
507.46	57684.84
507.63	57001.41
507.81	56800.12
507.98	57043.54
508.16	57874.43
508.33	58293.38
508.50	58571.91
508.68	58777.87
508.85	59281.09
509.03	59456.63
509.20	59194.49
509.38	58431.47
509.55	57708.25
509.73	57888.47
509.90	58506.37
510.08	58686.59
510.25	58564.88
510.42	58412.75
510.60	58162.31
510.77	58515.73
510.95	59091.51
511.12	59456.63
511.30	59590.04
511.47	59796.01
511.64	59859.20
511.82	59414.50
511.99	58614.04
512.17	58181.04
512.34	57956.35
512.51	57848.68
512.69	58298.06
512.86	58475.94
513.04	58972.14
513.21	58747.45
513.38	58258.27
513.56	57860.38
513.73	57588.88
513.90	57350.15
514.08	57441.43
514.25	57895.49
514.43	58152.95
514.60	58035.92
514.77	58365.94
514.95	58459.56
515.12	58148.27
515.29	58520.41
515.47	58969.80
515.64	59196.83
515.81	58857.45
515.99	58171.67
516.16	56959.28
516.33	54810.67
516.51	53331.45
516.68	52535.66
516.85	51772.65
517.03	52538.01
517.20	55192.17
517.37	57387.60
517.54	58461.90
517.72	58101.46
517.89	55538.57
518.06	53130.16
518.24	53649.76
518.41	55664.96
518.58	57020.13
518.75	57462.49
518.93	57429.72
519.10	57574.84
519.27	57698.89
519.45	57996.13
519.62	58590.63
519.79	59014.27
519.96	58632.76
520.14	58295.72
520.31	57710.59
520.48	57605.26
520.65	57705.91
520.83	58871.49
521.00	58937.03
521.17	58876.18
521.34	58440.84
521.52	58651.48
521.69	59175.76
521.86	59597.06
522.03	59559.61
522.20	58134.23
522.38	57064.60
522.55	57172.27
522.72	57851.02
522.89	58052.31
523.07	58082.73
523.24	58609.35
523.41	59278.75
523.58	59753.88
523.75	59957.50
523.92	59952.82
524.10	59669.62
524.27	59723.45
524.44	59477.69
524.61	59517.48
524.78	59150.02
524.96	59241.30
525.13	59175.76
525.30	59447.27
525.47	59831.11
525.64	59662.60
525.81	58866.81
525.98	57581.86
526.16	56320.31
526.33	55662.62
526.50	55398.14
526.67	54993.23
526.84	55763.26
527.01	56697.14
527.18	57357.17
527.36	58239.55
527.53	58958.09
527.70	59250.66
527.87	58534.46
528.04	58384.66
528.21	58754.47
528.38	59461.31
528.55	60013.68
528.72	60275.82
528.89	60287.52
529.07	60172.83
529.24	59416.84
529.41	58773.19
529.58	58295.72
529.75	58684.25
529.92	58862.13
530.09	59313.86
530.26	59700.04
530.43	60149.43
530.60	59938.78
530.77	60217.30
530.94	60308.58
531.11	59828.77
531.28	59620.47
531.46	59222.58
531.63	59592.38
531.80	59267.05
531.97	58850.43
532.14	58225.51
532.31	57298.65
532.48	56736.93
532.65	56626.92
532.82	57705.91
532.99	58695.95
533.16	59002.56
533.33	59512.80
533.50	59355.99
533.67	58721.70
533.84	58333.17
534.01	58527.44
534.18	58630.42
534.35	58843.41
534.52	58763.83
534.69	58960.44
534.86	59367.69
535.03	59592.38
535.20	59744.51
535.37	60268.79
535.54	60367.10
535.71	60051.12
535.88	59606.42
536.05	58997.88
536.22	58679.57
536.38	58265.30
536.55	58005.50
536.72	57483.56
536.89	57158.22
537.06	58166.99
537.23	59154.70
537.40	59187.47
537.57	59021.29
537.74	59063.42
537.91	58922.99
538.08	58930.01
538.25	58871.49
538.42	59157.04
538.59	59014.27
538.75	58333.17
538.92	58099.12
539.09	58026.56
539.26	57755.06
539.43	57682.50
539.60	57726.97
539.77	57722.29
539.94	57839.32
540.11	56992.04
540.28	56556.70
540.44	56910.13
540.61	56896.08
540.78	56921.83
540.95	57240.14
541.12	57794.85
541.29	57900.17
541.46	58298.06
541.62	58550.84
541.79	58302.74
541.96	57506.96
542.13	57862.72
542.30	58035.92
542.47	58227.85
542.63	57984.43
542.80	57724.63
542.97	58101.46
543.14	57645.05
543.31	57752.72
543.48	58286.36
543.64	58918.31
543.81	59187.47
543.98	58965.12
544.15	58225.51
544.32	57893.15
544.48	57961.03
544.65	58438.50
544.82	58618.72
544.99	58319.13
545.16	57921.24
545.32	57858.04
545.49	58562.54
545.66	59089.16
545.83	58803.62
546.00	58384.66
546.16	58106.14
546.33	58052.31
546.50	58272.32
546.67	58529.78
546.83	57916.56
547.00	57893.15
547.17	57144.18
547.34	56933.53
547.50	56868.00
547.67	57415.68
547.84	56992.04
548.00	57745.70
548.17	58141.25
548.34	58131.89
548.51	57834.64
548.67	57841.66
548.84	58082.73
549.01	58262.96
549.18	57923.58
549.34	57808.89
549.51	57956.35
549.68	57736.34
549.84	57584.20
550.01	57483.56
550.18	57284.61
550.34	57399.30
550.51	57443.77
550.68	57638.03
550.84	56947.57
551.01	56982.68
551.18	57322.06
551.34	57289.29
551.51	57799.53
551.68	58049.97
551.84	57844.00
552.01	57888.47
552.18	57701.23
552.34	56743.95
552.51	56767.35
552.68	56547.34
552.84	56940.55
553.01	57205.03
553.18	56985.02
553.34	57289.29
553.51	57242.48
553.67	57642.71
553.84	57900.17
554.01	57471.85
554.17	57380.57
554.34	57347.81
554.51	57694.21
554.67	58134.23
554.84	57675.48
555.00	57401.64
555.17	57415.68
555.33	57167.58
555.50	57272.91
555.67	57092.69
555.83	56933.53
556.00	56907.79
556.16	56502.87
556.33	56444.36
556.50	56116.68
556.66	56285.20
556.83	55908.38
556.99	56203.28
557.16	56198.60
557.32	56594.15
557.49	56816.50
557.65	56662.03
557.82	56638.62
557.98	56411.59
558.15	56032.42
558.32	54981.52
558.48	54440.86
558.65	54630.44
558.81	54997.91
558.98	54990.89
559.14	55491.76
559.31	55381.76
559.47	55320.90
559.64	55440.27
559.80	54740.45
559.97	54878.54
560.13	55501.12
560.30	56278.18
560.46	56781.40
560.63	56912.47
560.79	57008.43
560.96	56528.62
561.12	55442.61
561.29	54499.37
561.45	54555.55
561.61	55463.67
561.78	55732.84
561.94	55702.41
562.11	55414.52
562.27	55337.29
562.44	55552.62
562.60	55978.59
562.77	56086.26
562.93	55833.48
563.10	55739.86
563.26	55510.49
563.42	55444.95
563.59	55402.82
563.75	55044.72
563.92	55351.33
564.08	55150.04
564.24	55449.63
564.41	55580.70
564.57	55435.59
564.74	55159.41
564.90	55114.94
565.07	54939.39
565.23	54646.83
565.39	54110.85
565.56	53942.33
565.72	53771.47
565.88	53923.60
566.05	53942.33
566.21	54270.00
566.38	54649.17
566.54	54562.57
566.70	55124.30
566.87	55187.49
567.03	55161.75
567.19	55283.45
567.36	55011.95
567.52	54990.89
567.68	54571.93
567.85	54300.43
568.01	53928.28
568.17	53488.26
568.34	53258.89
568.50	53420.39
568.66	53558.48
568.83	53932.96
568.99	53837.00
569.15	54078.08
569.32	54190.42
569.48	53722.32
569.64	53563.16
569.81	53385.28
569.97	52898.45
570.13	53062.29
570.30	52685.46
570.46	52215.01
570.62	51531.57
570.78	51508.17
570.95	51828.82
571.11	52898.45
571.27	52800.15
571.43	53076.33
571.60	53481.24
571.76	53521.03
571.92	53808.92
572.09	53923.60
572.25	53970.41
572.41	54003.18
572.57	53719.98
572.74	53593.59
572.90	53289.32
573.06	53570.18
573.22	53389.96
573.38	53436.77
573.55	53298.68
573.71	53429.75
573.87	53565.50
574.03	52994.41
574.20	53111.44
574.36	52992.07
574.52	52535.66
574.68	52542.69
574.84	52399.91
575.01	51578.39
575.17	51536.26
575.33	51990.32
575.49	51938.83
575.65	52327.36
575.82	52041.81
575.98	51519.87
576.14	51920.10
576.30	52439.70
576.46	52376.51
576.62	52580.13
576.79	52530.98
576.95	52023.09
577.11	51711.80
577.27	52051.17
577.43	52046.49
577.59	51915.42
577.75	51290.50
577.92	50642.17
578.08	50494.72
578.24	50358.97
578.40	50782.60
578.56	51297.52
578.72	51199.22
578.88	51236.67
579.04	51491.79
579.21	51735.20
579.37	51564.34
579.53	51824.14
579.69	51812.44
579.85	51985.64
580.01	51449.66
580.17	51234.33
580.33	51077.51
580.49	51042.40
580.65	51459.02
580.82	51498.81
580.98	51756.27
581.14	51688.39
581.30	51672.01
581.46	51398.16
581.62	51793.71
581.78	51646.26
581.94	51997.34
582.10	51894.36
582.26	51899.04
582.42	52083.94
582.58	51810.10
582.74	51590.09
582.90	52130.75
583.06	51985.64
583.22	51496.47
583.38	51323.27
583.54	51360.72
583.70	51107.94
583.86	51428.59
584.02	51222.62
584.18	51611.15
584.34	51578.39
584.50	51395.82
584.66	51246.03
584.82	50581.32
584.98	50639.83
585.14	50019.59
585.30	49418.07
