SpectraSuite Data File
++++++++++++++++++++++++++++++++++++
Date: Mon Oct 07 14:54:55 GMT-05:00 2013
User: price-jones
Dark Spectrum Present: No
Reference Spectrum Present: No
Number of Sampled Component Spectra: 1
Spectrometers: USB2+H05261
Integration Time (usec): 10000 (USB2+H05261)
Spectra Averaged: 1 (USB2+H05261)
Boxcar Smoothing: 0 (USB2+H05261)
Correct for Electrical Dark: No (USB2+H05261)
Strobe/Lamp Enabled: No (USB2+H05261)
Correct for Detector Non-linearity: No (USB2+H05261)
Correct for Stray Light: No (USB2+H05261)
Number of Pixels in Processed Spectrum: 2048
>>>>>Begin Processed Spectral Data<<<<<
365.73	0.00
365.92	0.00
366.12	0.00
366.32	0.00
366.52	0.00
366.72	0.00
366.91	0.00
367.11	0.00
367.31	0.00
367.51	0.00
367.70	0.00
367.90	0.00
368.10	0.00
368.30	0.00
368.49	0.00
368.69	0.00
368.89	0.00
369.09	0.00
369.28	0.00
369.48	0.00
369.68	0.00
369.87	0.00
370.07	0.00
370.27	0.00
370.47	0.00
370.66	0.00
370.86	16.38
371.06	91.28
371.25	0.00
371.45	0.00
371.65	0.00
371.84	0.00
372.04	0.00
372.24	0.00
372.44	0.00
372.63	25.75
372.83	0.00
373.03	0.00
373.22	16.38
373.42	0.00
373.62	49.15
373.81	88.94
374.01	63.19
374.21	67.88
374.40	0.00
374.60	0.00
374.79	0.00
374.99	124.05
375.19	184.90
375.38	105.32
375.58	7.02
375.78	173.20
375.97	0.00
376.17	65.54
376.37	105.32
376.56	84.26
376.76	133.41
376.95	168.52
377.15	177.88
377.35	215.33
377.54	175.54
377.74	227.03
377.93	177.88
378.13	212.99
378.33	187.24
378.52	100.64
378.72	117.03
378.91	93.62
379.11	117.03
379.31	182.56
379.50	128.73
379.70	180.22
379.89	142.77
380.09	177.88
380.28	191.92
380.48	166.18
380.68	278.52
380.87	194.26
381.07	74.90
381.26	135.75
381.46	56.17
381.65	170.86
381.85	105.32
382.04	84.26
382.24	7.02
382.43	18.72
382.63	16.38
382.83	42.13
383.02	11.70
383.22	133.41
383.41	0.00
383.61	35.11
383.80	53.83
384.00	119.37
384.19	215.33
384.39	177.88
384.58	241.08
384.78	128.73
384.97	124.05
385.17	81.92
385.36	154.48
385.56	70.22
385.75	175.54
385.95	191.92
386.14	184.90
386.34	290.23
386.53	236.39
386.72	119.37
386.92	65.54
387.11	140.43
387.31	170.86
387.50	168.52
387.70	84.26
387.89	135.75
388.09	227.03
388.28	100.64
388.48	243.42
388.67	255.12
388.86	271.50
389.06	278.52
389.25	348.74
389.45	283.20
389.64	304.27
389.84	330.02
390.03	348.74
390.22	351.08
390.42	297.25
390.61	362.78
390.81	362.78
391.00	409.59
391.19	437.68
391.39	383.85
391.58	308.95
391.78	437.68
391.97	217.67
392.16	187.24
392.36	266.82
392.55	145.11
392.75	28.09
392.94	0.00
393.13	18.72
393.33	42.13
393.52	110.01
393.71	166.18
393.91	210.65
394.10	369.80
394.29	386.19
394.49	409.59
394.68	449.38
394.88	456.40
395.07	503.22
395.26	428.32
395.46	440.02
395.65	425.98
395.84	238.73
396.04	215.33
396.23	163.84
396.42	77.24
396.62	11.70
396.81	117.03
397.00	269.16
397.19	369.80
397.39	458.74
397.58	573.43
397.77	634.29
397.97	543.00
398.16	650.67
398.35	699.82
398.55	671.73
398.74	664.71
398.93	711.52
399.12	676.41
399.32	702.16
399.51	767.70
399.70	786.42
399.90	730.25
400.09	723.23
400.28	758.33
400.47	664.71
400.67	781.74
400.86	842.59
401.05	814.51
401.24	847.27
401.44	767.70
401.63	901.11
401.82	898.77
402.01	830.89
402.21	779.40
402.40	905.79
402.59	784.08
402.78	753.65
402.97	751.31
403.17	866.00
403.36	910.47
403.55	931.53
403.74	882.38
403.93	814.51
404.13	723.23
404.32	746.63
404.51	812.17
404.70	901.11
404.89	877.70
405.09	873.02
405.28	919.83
405.47	795.78
405.66	772.38
405.85	781.74
406.05	786.42
406.24	751.31
406.43	781.74
406.62	877.70
406.81	896.43
407.00	786.42
407.20	744.29
407.39	795.78
407.58	954.94
407.77	896.43
407.96	873.02
408.15	903.45
408.34	976.00
408.54	1097.71
408.73	947.92
408.92	926.85
409.11	952.60
409.30	924.51
409.49	777.06
409.68	830.89
409.87	763.01
410.07	798.12
410.26	929.19
410.45	1039.20
410.64	905.79
410.83	1022.81
411.02	1076.65
411.21	1022.81
411.40	1081.33
411.59	1135.16
411.78	1055.58
411.98	1158.57
412.17	1123.46
412.36	1177.29
412.55	1027.50
412.74	985.37
412.93	959.62
413.12	1025.15
413.31	1107.07
413.50	1109.41
413.69	1240.48
413.88	1116.44
414.07	1062.60
414.26	1118.78
414.45	1181.97
414.64	1071.97
414.83	1174.95
415.02	1062.60
415.22	1146.86
415.41	1184.31
415.60	1196.01
415.79	1181.97
415.98	1245.16
416.17	1219.42
416.36	1266.23
416.55	1196.01
416.74	1221.76
416.93	1146.86
417.12	1088.35
417.31	1301.34
417.50	1247.51
417.69	1219.42
417.88	1294.32
418.07	1221.76
418.26	1153.88
418.45	1132.82
418.64	1158.57
418.83	1294.32
419.02	1203.04
419.21	1317.72
419.39	1165.59
419.58	1130.48
419.77	1132.82
419.96	1210.06
420.15	1224.10
420.34	1331.76
420.53	1301.34
420.72	1390.28
420.91	1427.73
421.10	1334.11
421.29	1242.82
421.48	1277.93
421.67	1366.87
421.86	1317.72
422.05	1317.72
422.24	1043.88
422.43	1093.03
422.61	1275.59
422.80	1301.34
422.99	1233.46
423.18	1125.80
423.37	1160.91
423.56	1135.16
423.75	1294.32
423.94	1273.25
424.13	1191.33
424.32	1165.59
424.50	1284.95
424.69	1142.18
424.88	1207.72
425.07	1104.73
425.26	1172.61
425.45	1088.35
425.64	1036.86
425.83	1128.14
426.01	1198.35
426.20	1254.53
426.39	1172.61
426.58	1203.04
426.77	1041.54
426.96	1025.15
427.15	1013.45
427.33	1167.93
427.52	1188.99
427.71	1181.97
427.90	1186.65
428.09	1107.07
428.28	1097.71
428.46	1086.01
428.65	1001.75
428.84	1137.50
429.03	1146.86
429.22	1004.09
429.40	980.68
429.59	809.83
429.78	720.88
429.97	765.36
430.16	770.04
430.34	753.65
430.53	809.83
430.72	798.12
430.91	765.36
431.10	1121.12
431.28	1238.14
431.47	1446.45
431.66	1504.96
431.85	1390.28
432.03	1254.53
432.22	1212.40
432.41	1198.35
432.60	1327.08
432.79	1327.08
432.97	1423.05
433.16	1394.96
433.35	1238.14
433.54	1149.20
433.72	1100.05
433.91	1022.81
434.10	1156.22
434.28	1376.24
434.47	1352.83
434.66	1266.23
434.85	1343.47
435.03	1231.12
435.22	1359.85
435.41	1406.66
435.59	1565.82
435.78	1385.60
435.97	1570.50
436.16	1558.80
436.34	1509.65
436.53	1387.94
436.72	1427.73
436.90	1423.05
437.09	1345.81
437.28	1266.23
437.46	1299.00
437.65	1448.79
437.84	1238.14
438.02	1146.86
438.21	1228.78
438.40	1282.61
438.58	1329.42
438.77	1364.53
438.96	1371.55
439.14	1418.36
439.33	1390.28
439.52	1575.18
439.70	1465.18
439.89	1469.86
440.08	1334.11
440.26	1439.43
440.45	1425.39
440.63	1614.97
440.82	1598.59
441.01	1643.06
441.19	1645.40
441.38	1523.69
441.57	1624.33
441.75	1717.95
441.94	1741.36
442.12	1664.12
442.31	1739.02
442.50	1701.57
442.68	1774.13
442.87	1755.40
443.05	1722.63
443.24	1750.72
443.43	1694.55
443.61	1771.79
443.80	1832.64
443.98	1645.40
444.17	1706.25
444.35	1806.89
444.54	1827.96
444.73	1893.49
444.91	1652.42
445.10	1612.63
445.28	1572.84
445.47	1488.58
445.65	1521.35
445.84	1605.61
446.02	1626.67
446.21	1701.57
446.39	1734.34
446.58	1741.36
446.77	1680.50
446.95	1844.34
447.14	1853.70
447.32	1797.53
447.51	1888.81
447.69	1722.63
447.88	1678.16
448.06	1776.47
448.25	1720.29
448.43	1804.55
448.62	1715.61
448.80	1827.96
448.99	1732.00
449.17	1809.23
449.36	1846.68
449.54	1942.64
449.73	1849.02
449.91	1888.81
450.10	2064.35
450.28	2071.37
450.46	2003.50
450.65	1996.48
450.83	1952.01
451.02	1891.15
451.20	1853.70
451.39	1849.02
451.57	1827.96
451.76	1849.02
451.94	1715.61
452.13	1898.17
452.31	1788.17
452.49	1701.57
452.68	1710.93
452.86	1685.19
453.05	1668.80
453.23	1849.02
453.42	1870.09
453.60	1792.85
453.78	1853.70
453.97	1774.13
454.15	1884.13
454.34	1844.34
454.52	1846.68
454.70	1834.98
454.89	1741.36
455.07	1748.38
455.26	1837.32
455.44	1914.56
455.62	1909.88
455.81	1963.71
455.99	1902.86
456.17	1844.34
456.36	1954.35
456.54	1996.48
456.73	1930.94
456.91	2043.29
457.09	1942.64
457.28	2066.69
457.46	1973.07
457.64	1842.00
457.83	1884.13
458.01	1912.22
458.19	1792.85
458.38	1961.37
458.56	1916.90
458.74	2010.52
458.93	1914.56
459.11	1898.17
459.29	1884.13
459.48	1963.71
459.66	1888.81
459.84	1856.04
460.03	1926.26
460.21	1844.34
460.39	1970.73
460.57	1900.52
460.76	1984.77
460.94	2022.22
461.12	1954.35
461.31	2024.56
461.49	1874.77
461.67	1912.22
461.85	2122.87
462.04	2026.90
462.22	2078.40
462.40	2005.84
462.59	1926.26
462.77	2038.61
462.95	1996.48
463.13	2050.31
463.32	1956.69
463.50	1975.41
463.68	1968.39
463.86	1975.41
464.05	1991.80
464.23	1956.69
464.41	1877.11
464.59	1762.42
464.78	1940.30
464.96	1923.92
465.14	1909.88
465.32	2036.27
465.50	1989.46
465.69	2059.67
465.87	2071.37
466.05	1994.14
466.23	1905.20
466.41	1820.94
466.60	1926.26
466.78	1860.73
466.96	1849.02
467.14	1849.02
467.32	2005.84
467.51	2047.97
467.69	1912.22
467.87	1830.30
468.05	1809.23
468.23	2057.33
468.41	1912.22
468.60	1879.45
468.78	1973.07
468.96	1877.11
469.14	2104.14
469.32	1975.41
469.50	2017.54
469.69	1891.15
469.87	1790.51
470.05	1877.11
470.23	1863.07
470.41	1757.74
470.59	1874.77
470.77	1930.94
470.95	1928.60
471.14	2043.29
471.32	1877.11
471.50	2050.31
471.68	2111.16
471.86	1987.11
472.04	2242.23
472.22	2256.28
472.40	2040.95
472.58	2054.99
472.77	1963.71
472.95	1963.71
473.13	1987.11
473.31	2062.01
473.49	2094.78
473.67	2054.99
473.85	2190.74
474.03	2242.23
474.21	2169.68
474.39	2190.74
474.57	2031.58
474.75	2275.00
474.93	2218.83
475.12	2118.18
475.30	2125.21
475.48	2099.46
475.66	2176.70
475.84	2064.35
476.02	2195.42
476.20	2204.78
476.38	2143.93
476.56	2249.25
476.74	2251.60
476.92	2221.17
477.10	2237.55
477.28	2232.87
477.46	2267.98
477.64	2272.66
477.82	2352.24
478.00	2396.71
478.18	2307.77
478.36	2377.98
478.54	2410.75
478.72	2354.58
478.90	2403.73
479.08	2431.82
479.26	2478.63
479.44	2480.97
479.62	2487.99
479.80	2499.69
479.98	2532.46
480.16	2490.33
480.34	2377.98
480.52	2497.35
480.70	2469.27
480.88	2471.61
481.06	2602.68
481.24	2654.17
481.41	2640.12
481.59	2668.21
481.77	2562.89
481.95	2644.81
482.13	2635.44
482.31	2705.66
482.49	2574.59
482.67	2661.19
482.85	2637.78
483.03	2663.53
483.21	2677.57
483.39	2724.38
483.57	2726.72
483.74	2612.04
483.92	2693.96
484.10	2590.97
484.28	2813.32
484.46	2832.05
484.64	2895.24
484.82	2717.36
485.00	2717.36
485.18	2665.87
485.35	2562.89
485.53	2359.26
485.71	2120.53
485.89	2066.69
486.07	2221.17
486.25	2417.77
486.43	2548.84
486.61	2668.21
486.78	2590.97
486.96	2684.59
487.14	2796.94
487.32	2932.69
487.50	3021.63
487.68	2993.55
487.85	3014.61
488.03	3054.40
488.21	2904.60
488.39	2808.64
488.57	2848.43
488.75	2953.76
488.92	2981.84
489.10	3164.40
489.28	3122.27
489.46	3353.99
489.64	3258.03
489.81	3485.06
489.99	3358.67
490.17	3243.98
490.35	3431.23
490.53	3391.44
490.70	3314.20
490.88	3293.13
491.06	3471.01
491.24	3379.73
491.41	3218.24
491.59	3155.04
491.77	2956.10
491.95	3187.81
492.13	3251.00
492.30	3286.11
492.48	3475.70
492.66	3499.10
492.84	3391.44
493.01	3442.93
493.19	3454.63
493.37	3463.99
493.54	3421.86
493.72	3435.91
493.90	3471.01
494.08	3641.87
494.25	3721.45
494.43	3756.56
494.61	3822.09
494.79	3784.65
494.96	3786.99
495.14	3719.11
495.32	3417.18
495.49	3627.83
495.67	3552.93
495.85	3597.40
496.02	3936.78
496.20	3838.48
496.38	3744.86
496.55	3777.62
496.73	3777.62
496.91	3819.75
497.09	3899.33
497.26	4002.32
497.44	3805.71
497.62	3824.44
497.79	3641.87
497.97	3606.77
498.14	3552.93
498.32	3700.39
498.50	3698.05
498.67	3833.80
498.85	3850.18
499.03	3803.37
499.20	3796.35
499.38	3875.93
499.56	3934.44
499.73	3772.94
499.91	3646.55
500.08	3611.45
500.26	3550.59
500.44	3644.21
500.61	3737.84
500.79	3655.92
500.97	3620.81
501.14	3707.41
501.32	3599.74
501.49	3623.15
501.67	3569.32
501.84	3637.19
502.02	3791.67
502.20	3861.88
502.37	3765.92
502.55	3864.22
502.72	3997.64
502.90	3922.74
503.07	3906.35
503.25	3805.71
503.43	3691.02
503.60	3578.68
503.78	3564.64
503.95	3644.21
504.13	3709.75
504.30	3875.93
504.48	3822.09
504.65	3925.08
504.83	3817.41
505.01	3840.82
505.18	4030.40
505.36	3927.42
505.53	4098.28
505.71	4049.13
505.88	4161.47
506.06	3992.95
506.23	3967.21
506.41	4002.32
506.58	3925.08
506.76	3950.82
506.93	3864.22
507.11	3978.91
507.28	3861.88
507.46	3894.65
507.63	3789.33
507.81	3796.35
507.98	3974.23
508.16	3864.22
508.33	4046.79
508.50	4011.68
508.68	4128.70
508.85	4119.34
509.03	4088.92
509.20	4194.24
509.38	3974.23
509.55	3648.90
509.73	3857.20
509.90	3992.95
510.08	3887.63
510.25	3988.27
510.42	3995.29
510.60	3969.55
510.77	3906.35
510.95	4046.79
511.12	4021.04
511.30	4105.30
511.47	4362.76
511.64	4177.86
511.82	4142.75
511.99	4060.83
512.17	3798.69
512.34	3950.82
512.51	3943.80
512.69	4004.66
512.86	3932.10
513.04	4032.74
513.21	4107.64
513.38	3950.82
513.56	3922.74
513.73	3735.50
513.90	3815.07
514.08	3719.11
514.25	3971.89
514.43	4009.34
514.60	3866.56
514.77	3920.40
514.95	4044.45
515.12	3901.67
515.29	4032.74
515.47	4028.06
515.64	3971.89
515.81	3985.93
515.99	3999.98
516.16	3765.92
516.33	3494.42
516.51	3302.50
516.68	3075.46
516.85	3091.85
517.03	3180.79
517.20	3400.80
517.37	3882.95
517.54	4007.00
517.72	3840.82
517.89	3571.66
518.06	3176.11
518.24	3337.60
518.41	3630.17
518.58	3679.32
518.75	3772.94
518.93	3576.34
519.10	3595.06
519.27	3754.22
519.45	3953.16
519.62	3999.98
519.79	3983.59
519.96	4086.58
520.14	3875.93
520.31	3833.80
520.48	3772.94
520.65	3859.54
520.83	3964.87
521.00	4023.38
521.17	3976.57
521.34	3967.21
521.52	3932.10
521.69	4088.92
521.86	4016.36
522.03	4191.90
522.20	3974.23
522.38	3730.81
522.55	3688.68
522.72	3836.14
522.89	3875.93
523.07	3873.59
523.24	3803.37
523.41	3946.14
523.58	4030.40
523.75	4299.56
523.92	4133.39
524.10	4180.20
524.27	4145.09
524.44	4063.17
524.61	4067.85
524.78	3971.89
524.96	3976.57
525.13	4058.49
525.30	4140.41
525.47	4173.18
525.64	4156.79
525.81	4025.72
525.98	3751.88
526.16	3665.28
526.33	3506.12
526.50	3368.03
526.67	3290.79
526.84	3543.57
527.01	3576.34
527.18	3529.53
527.36	3733.15
527.53	3864.22
527.70	3988.27
527.87	4014.02
528.04	3871.25
528.21	3969.55
528.38	3999.98
528.55	4241.05
528.72	4105.30
528.89	4201.26
529.07	4072.53
529.24	3948.48
529.41	4009.34
529.58	3950.82
529.75	3817.41
529.92	3920.40
530.09	4039.76
530.26	4079.55
530.43	4053.81
530.60	4124.02
530.77	4086.58
530.94	4208.28
531.11	4091.26
531.28	3901.67
531.46	4060.83
531.63	3904.01
531.80	3999.98
531.97	3925.08
532.14	3754.22
532.31	3782.31
532.48	3627.83
532.65	3555.27
532.82	3691.02
532.99	3772.94
533.16	3852.52
533.33	3901.67
533.50	4053.81
533.67	3946.14
533.84	3756.56
534.01	3838.48
534.18	3733.15
534.35	3831.46
534.52	3927.42
534.69	3871.25
534.86	3960.19
535.03	4067.85
535.20	3995.29
535.37	4105.30
535.54	4030.40
535.71	4086.58
535.88	4147.43
536.05	3960.19
536.22	3742.52
536.38	3871.25
536.55	3934.44
536.72	3644.21
536.89	3761.24
537.06	3791.67
537.23	3967.21
537.40	3990.61
537.57	4025.72
537.74	3894.65
537.91	3794.01
538.08	3915.72
538.25	3962.53
538.42	4070.19
538.59	3978.91
538.75	3941.46
538.92	3714.43
539.09	3667.62
539.26	3742.52
539.43	3779.97
539.60	3679.32
539.77	3684.00
539.94	3749.54
540.11	3543.57
540.28	3627.83
540.44	3496.76
540.61	3653.58
540.78	3637.19
540.95	3712.09
541.12	3679.32
541.29	3702.73
541.46	3758.90
541.62	3847.84
541.79	3747.20
541.96	3679.32
542.13	3730.81
542.30	3784.65
542.47	3852.52
542.63	3721.45
542.80	3674.64
542.97	3679.32
543.14	3768.26
543.31	3761.24
543.48	3777.62
543.64	3857.20
543.81	4084.23
543.98	3885.29
544.15	3875.93
544.32	3733.15
544.48	3803.37
544.65	3772.94
544.82	3889.97
544.99	3651.24
545.16	3620.81
545.32	3829.12
545.49	3847.84
545.66	3929.76
545.83	3833.80
546.00	3758.90
546.16	3679.32
546.33	3756.56
546.50	3618.47
546.67	3875.93
546.83	3742.52
547.00	3789.33
547.17	3550.59
547.34	3487.40
547.50	3630.17
547.67	3576.34
547.84	3606.77
548.00	3662.94
548.17	3805.71
548.34	3613.79
548.51	3688.68
548.67	3737.84
548.84	3765.92
549.01	3691.02
549.18	3648.90
549.34	3744.86
549.51	3723.79
549.68	3789.33
549.84	3637.19
550.01	3733.15
550.18	3653.58
550.34	3604.42
550.51	3602.08
550.68	3669.96
550.84	3721.45
551.01	3646.55
551.18	3531.87
551.34	3522.51
551.51	3688.68
551.68	3709.75
551.84	3679.32
552.01	3810.39
552.18	3606.77
552.34	3583.36
552.51	3527.19
552.68	3478.04
552.84	3562.30
553.01	3564.64
553.18	3571.66
553.34	3606.77
553.51	3754.22
553.67	3454.63
553.84	3662.94
554.01	3590.38
554.17	3669.96
554.34	3592.72
554.51	3627.83
554.67	3634.85
554.84	3662.94
555.00	3660.60
555.17	3595.06
555.33	3452.29
555.50	3709.75
555.67	3672.30
555.83	3468.67
556.00	3564.64
556.16	3473.36
556.33	3424.20
556.50	3414.84
556.66	3372.71
556.83	3534.21
556.99	3424.20
557.16	3501.44
557.32	3316.54
557.49	3396.12
557.65	3456.97
557.82	3489.74
557.98	3641.87
558.15	3524.85
558.32	3309.52
558.48	3222.92
558.65	3185.47
558.81	3356.33
558.98	3166.74
559.14	3281.43
559.31	3389.10
559.47	3438.25
559.64	3281.43
559.80	3269.73
559.97	3251.00
560.13	3297.81
560.30	3431.23
560.46	3489.74
560.63	3590.38
560.79	3447.61
560.96	3438.25
561.12	3332.92
561.29	3187.81
561.45	3101.21
561.61	3192.49
561.78	3314.20
561.94	3440.59
562.11	3293.13
562.27	3337.60
562.44	3337.60
562.60	3379.73
562.77	3461.65
562.93	3405.48
563.10	3232.28
563.26	3178.45
563.42	3211.22
563.59	3386.76
563.75	3459.31
563.92	3339.94
564.08	3316.54
564.24	3279.09
564.41	3447.61
564.57	3234.62
564.74	3332.92
564.90	3414.84
565.07	3227.60
565.23	3152.70
565.39	3218.24
565.56	3152.70
565.72	3204.19
565.88	3126.96
566.05	3122.27
566.21	3145.68
566.38	3112.91
566.54	3283.77
566.70	3300.16
566.87	3307.18
567.03	3267.39
567.19	3288.45
567.36	3206.53
567.52	3262.71
567.68	3197.17
567.85	3108.23
568.01	3171.43
568.17	3063.76
568.34	3061.42
568.50	2871.84
568.66	3042.70
568.83	3150.36
568.99	3084.83
569.15	3012.27
569.32	3049.72
569.48	3133.98
569.64	2986.52
569.81	3021.63
569.97	3056.74
570.13	3033.33
570.30	2923.33
570.46	2942.05
570.62	2892.90
570.78	2904.60
570.95	2848.43
571.11	3016.95
571.27	2916.31
571.43	3016.95
571.60	2974.82
571.76	3105.89
571.92	3138.66
572.09	3089.51
572.25	3070.78
572.41	3117.59
572.57	3091.85
572.74	3028.65
572.90	3098.87
573.06	3035.67
573.22	3014.61
573.38	3052.06
573.55	2925.67
573.71	3066.10
573.87	2942.05
574.03	2970.14
574.20	2995.89
574.36	2977.16
574.52	2850.77
574.68	2853.11
574.84	2942.05
575.01	2848.43
575.17	2799.28
575.33	2839.07
575.49	3066.10
575.65	3066.10
575.82	2904.60
575.98	2939.71
576.14	2834.39
576.30	2801.62
576.46	2925.67
576.62	2899.92
576.79	2949.08
576.95	2799.28
577.11	2909.29
577.27	2977.16
577.43	2920.99
577.59	2796.94
577.75	2818.00
577.92	2754.81
578.08	2717.36
578.24	2785.24
578.40	2841.41
578.56	2787.58
578.72	2792.26
578.88	2869.50
579.04	2820.35
579.21	2738.43
579.37	2848.43
579.53	2846.09
579.69	2785.24
579.85	2846.09
580.01	2775.88
580.17	2724.38
580.33	2862.48
580.49	2855.45
580.65	2878.86
580.82	2909.29
580.98	2867.16
581.14	2792.26
581.30	2885.88
581.46	2738.43
581.62	2775.88
581.78	2792.26
581.94	2850.77
582.10	2885.88
582.26	2853.11
582.42	2904.60
582.58	2827.37
582.74	2780.56
582.90	2846.09
583.06	2984.18
583.22	2789.92
583.38	2759.49
583.54	2953.76
583.70	2670.55
583.86	2897.58
584.02	2829.71
584.18	3007.59
584.34	2939.71
584.50	2754.81
584.66	2747.79
584.82	2708.00
584.98	2675.23
585.14	2576.93
585.30	2644.81
585.46	2513.74
585.62	2623.74
585.78	2619.06
585.94	2698.64
586.10	2670.55
586.26	2640.12
586.42	2745.45
586.58	2722.04
586.74	2717.36
586.90	2640.12
587.06	2736.09
587.22	2743.11
587.38	2740.77
587.54	2658.85
587.70	2633.10
587.86	2700.98
588.02	2572.25
588.18	2462.24
588.34	2530.12
588.49	2361.60
588.65	2167.34
588.81	2225.85
588.97	2218.83
589.13	2244.57
589.29	2031.58
589.45	2251.60
589.61	2296.07
589.77	2359.26
589.93	2490.33
590.08	2492.67
590.24	2483.31
590.40	2462.24
590.56	2583.95
590.72	2504.37
590.88	2462.24
591.04	2567.57
591.20	2422.45
591.35	2340.54
591.51	2340.54
591.67	2539.48
591.83	2499.69
591.99	2450.54
592.15	2471.61
592.31	2363.94
592.46	2483.31
592.62	2469.27
592.78	2471.61
592.94	2434.16
593.10	2485.65
593.26	2530.12
593.41	2464.58
593.57	2408.41
593.73	2333.51
593.89	2429.48
594.05	2403.73
594.20	2298.41
594.36	2403.73
594.52	2289.04
594.68	2333.51
594.84	2326.49
594.99	2429.48
595.15	2476.29
595.31	2310.11
595.47	2422.45
595.62	2427.14
595.78	2431.82
595.94	2574.59
596.10	2387.35
596.25	2520.76
596.41	2399.05
596.57	2267.98
596.73	2389.69
596.88	2368.62
597.04	2305.43
597.20	2328.83
597.36	2377.98
597.51	2396.71
597.67	2469.27
597.83	2389.69
597.99	2370.96
598.14	2396.71
598.30	2296.07
598.46	2223.51
598.61	2335.85
598.77	2368.62
598.93	2356.92
599.09	2342.88
599.24	2431.82
599.40	2277.34
