SpectraSuite Data File
++++++++++++++++++++++++++++++++++++
Date: Mon Oct 07 14:53:01 GMT-05:00 2013
User: price-jones
Dark Spectrum Present: No
Reference Spectrum Present: No
Number of Sampled Component Spectra: 1
Spectrometers: USB2+H05261
Integration Time (usec): 100000 (USB2+H05261)
Spectra Averaged: 1 (USB2+H05261)
Boxcar Smoothing: 0 (USB2+H05261)
Correct for Electrical Dark: No (USB2+H05261)
Strobe/Lamp Enabled: No (USB2+H05261)
Correct for Detector Non-linearity: No (USB2+H05261)
Correct for Stray Light: No (USB2+H05261)
Number of Pixels in Processed Spectrum: 2048
>>>>>Begin Processed Spectral Data<<<<<
365.73	0.00
365.92	0.00
366.12	0.00
366.32	0.00
366.52	0.00
366.72	0.00
366.91	0.00
367.11	0.00
367.31	0.00
367.51	0.00
367.70	0.00
367.90	0.00
368.10	0.00
368.30	0.00
368.49	0.00
368.69	0.00
368.89	0.00
369.09	0.00
369.28	0.00
369.48	0.00
369.68	0.00
369.87	0.00
370.07	0.00
370.27	0.00
370.47	571.09
370.66	2619.06
370.86	3126.96
371.06	3384.41
371.25	3412.50
371.45	3014.61
371.65	2822.69
371.84	2628.42
372.04	2860.13
372.24	3138.66
372.44	3145.68
372.63	3339.94
372.83	2911.63
373.03	2605.02
373.22	2410.75
373.42	2649.49
373.62	2834.39
373.81	3253.34
374.01	3325.90
374.21	2754.81
374.40	2593.31
374.60	2794.60
374.79	3213.56
374.99	3782.31
375.19	3999.98
375.38	3871.25
375.58	3632.51
375.78	3669.96
375.97	3630.17
376.17	3831.46
376.37	3922.74
376.56	3925.08
376.76	4056.15
376.95	4372.12
377.15	4627.24
377.35	4940.87
377.54	5034.49
377.74	5163.22
377.93	5406.64
378.13	5177.26
378.33	5060.24
378.52	4582.77
378.72	4294.88
378.91	4131.05
379.11	4058.49
379.31	4030.40
379.50	3955.51
379.70	4341.69
379.89	4887.04
380.09	5078.96
380.28	5172.58
380.48	5317.70
380.68	5146.84
380.87	4901.08
381.07	4514.89
381.26	4292.54
381.46	4016.36
381.65	3840.82
381.85	3707.41
382.04	3485.06
382.24	3232.28
382.43	3183.13
382.63	3091.85
382.83	3023.97
383.02	3091.85
383.22	3089.51
383.41	3169.09
383.61	3258.03
383.80	3714.43
384.00	4348.72
384.19	4870.65
384.39	5067.26
384.58	5111.73
384.78	5151.52
384.97	4999.38
385.17	4608.51
385.36	4428.29
385.56	4227.01
385.75	4489.15
385.95	4887.04
386.14	5163.22
386.34	5158.54
386.53	5151.52
386.72	4748.95
386.92	4788.74
387.11	5149.18
387.31	5401.96
387.50	5261.52
387.70	4898.74
387.89	4954.91
388.09	4980.66
388.28	4999.38
388.48	5013.43
388.67	5287.27
388.86	6043.26
389.06	6408.39
389.25	6731.38
389.45	6932.67
389.64	6771.17
389.84	6590.95
390.03	6637.76
390.22	6593.29
390.42	6715.00
390.61	7272.04
390.81	7789.30
391.00	7962.50
391.19	7737.81
391.39	7529.50
391.58	7248.64
391.78	6581.59
391.97	6551.16
392.16	6022.20
392.36	5509.62
392.55	4447.02
392.75	3431.23
392.94	2857.79
393.13	2832.05
393.33	3414.84
393.52	4613.20
393.71	5493.24
393.91	6059.65
394.10	6513.71
394.29	7232.26
394.49	7761.22
394.68	8369.76
394.88	8325.29
395.07	8498.49
395.26	8383.80
395.46	8180.17
395.65	7705.04
395.84	6698.61
396.04	5734.31
396.23	4685.75
396.42	3896.99
396.62	3810.39
396.81	4505.53
397.00	5584.52
397.19	7178.42
397.39	8336.99
397.58	9549.39
397.77	10097.07
397.97	10537.09
398.16	10595.61
398.35	10663.48
398.55	11133.93
398.74	11606.72
398.93	11978.86
399.12	11573.95
399.32	11367.98
399.51	11669.91
399.70	12283.13
399.90	12238.66
400.09	12032.69
400.28	12067.80
400.47	12042.06
400.67	13076.57
400.86	13142.11
401.05	13170.19
401.24	13305.95
401.44	13439.36
401.63	13397.23
401.82	13312.97
402.01	13556.38
402.21	13392.55
402.40	13626.60
402.59	13209.98
402.78	12549.95
402.97	12304.20
403.17	12746.56
403.36	13425.31
403.55	13994.06
403.74	14356.85
403.93	13685.11
404.13	12638.89
404.32	12404.84
404.51	12828.48
404.70	14256.20
404.89	13767.03
405.09	13586.81
405.28	13224.03
405.47	13366.80
405.66	13287.22
405.85	12894.01
406.05	12641.23
406.24	12821.45
406.43	13369.14
406.62	13944.91
406.81	14068.96
407.00	13387.86
407.20	13144.45
407.39	13359.78
407.58	13736.60
407.77	14314.72
407.96	14831.97
408.15	14960.70
408.34	14963.04
408.54	16032.67
408.73	15922.66
408.92	15667.55
409.11	15169.01
409.30	14459.83
409.49	13240.41
409.68	12678.68
409.87	12168.45
410.07	13123.38
410.26	14160.24
410.45	15042.62
410.64	15445.20
410.83	15763.51
411.02	16386.09
411.21	16882.28
411.40	16629.51
411.59	16931.44
411.78	16573.33
411.98	16212.89
412.17	16563.97
412.36	16243.32
412.55	16231.62
412.74	16056.08
412.93	15786.91
413.12	15786.91
413.31	17186.55
413.50	17191.23
413.69	18174.26
413.88	17170.17
414.07	16669.30
414.26	16893.99
414.45	17509.55
414.64	17411.25
414.83	17476.78
415.02	17151.45
415.22	17247.41
415.41	17441.67
415.60	18080.64
415.79	19037.92
415.98	19363.25
416.17	19213.46
416.36	18857.70
416.55	18583.85
416.74	18064.25
416.93	17458.06
417.12	17451.03
417.31	17717.86
417.50	18029.15
417.69	18260.86
417.88	18471.51
418.07	18445.76
418.26	18097.02
418.45	18235.11
418.64	18824.93
418.83	19873.49
419.02	19154.94
419.21	18831.95
419.39	17970.63
419.58	17259.11
419.77	17528.27
419.96	18324.05
420.15	19124.52
420.34	19702.63
420.53	20442.24
420.72	21020.35
420.91	20706.72
421.10	20175.42
421.29	20533.52
421.48	19239.20
421.67	20748.85
421.86	19646.46
422.05	18394.27
422.24	16507.80
422.43	16760.58
422.61	18106.38
422.80	19644.12
422.99	19822.00
423.18	19112.81
423.37	18609.60
423.56	18663.43
423.75	19101.11
423.94	19644.12
424.13	18623.64
424.32	18462.15
424.50	18834.29
424.69	18448.10
424.88	18759.39
425.07	18806.20
425.26	18328.74
425.45	18150.85
425.64	18017.44
425.83	17912.12
426.01	18991.11
426.20	19552.84
426.39	19386.66
426.58	18113.41
426.77	16580.36
426.96	16116.93
427.15	16657.59
427.33	17848.93
427.52	18558.11
427.71	18979.40
427.90	18429.38
428.09	18216.39
428.28	18068.94
428.46	17329.33
428.65	17188.89
428.84	17717.86
429.03	17561.04
429.22	16758.24
429.40	15976.50
429.59	14560.47
429.78	12814.43
429.97	12809.75
430.16	12996.99
430.34	13095.30
430.53	12992.31
430.72	13359.78
430.91	14785.16
431.10	17652.32
431.28	20463.30
431.47	21830.18
431.66	22155.51
431.85	20456.28
432.03	18600.24
432.22	17937.87
432.41	18883.44
432.60	20680.97
432.79	21722.51
432.97	22026.78
433.16	21493.14
433.35	19838.38
433.54	17568.06
433.72	16315.87
433.91	17109.32
434.10	19391.34
434.28	20741.83
434.47	21596.12
434.66	21128.02
434.85	20854.17
435.03	20685.65
435.22	21064.82
435.41	22345.09
435.59	22569.79
435.78	22895.12
435.97	23183.01
436.16	23541.11
436.34	23068.32
436.53	22441.06
436.72	22911.50
436.90	21109.29
437.09	21776.34
437.28	21090.57
437.46	21816.13
437.65	21724.85
437.84	20297.13
438.02	18621.30
438.21	18551.09
438.40	19648.80
438.58	21113.97
438.77	21848.90
438.96	22001.04
439.14	22923.21
439.33	23587.92
439.52	23927.30
439.70	23201.73
439.89	22843.63
440.08	22068.91
440.26	21799.75
440.45	23168.96
440.63	24629.46
440.82	25553.97
441.01	25291.83
441.19	24926.71
441.38	25642.91
441.57	26380.18
441.75	26731.26
441.94	27058.93
442.12	26663.38
442.31	27466.19
442.50	27227.45
442.68	26965.31
442.87	26206.98
443.05	26096.97
443.24	26738.28
443.43	27468.53
443.61	27798.54
443.80	28034.94
443.98	26307.62
444.17	26394.22
444.35	28098.13
444.54	28664.54
444.73	27784.50
444.91	27119.79
445.10	25568.01
445.28	24510.09
445.47	24594.35
445.65	24486.68
445.84	25034.37
446.02	26314.64
446.21	26450.39
446.39	26504.23
446.58	26902.12
446.77	27639.39
446.95	27578.53
447.14	28404.74
447.32	28907.96
447.51	28093.45
447.69	27185.32
447.88	26733.60
448.06	27175.96
448.25	27938.97
448.43	28056.00
448.62	27714.28
448.80	27349.16
448.99	27487.25
449.17	27899.19
449.36	27580.87
449.54	28926.68
449.73	29397.13
449.91	29839.49
450.10	30478.46
450.28	30663.36
450.46	30401.22
450.65	30712.51
450.83	30340.36
451.02	29582.03
451.20	29783.32
451.39	29483.73
451.57	29467.34
451.76	29567.99
451.94	29139.67
452.13	28542.83
452.31	27693.22
452.49	26082.93
452.68	26726.58
452.86	26623.59
453.05	27234.47
453.23	27782.16
453.42	28716.03
453.60	29188.82
453.78	29549.26
453.97	29024.98
454.15	28985.19
454.34	28458.57
454.52	28236.22
454.70	27927.27
454.89	28556.88
455.07	28173.03
455.26	28636.45
455.44	29795.02
455.62	30419.94
455.81	30064.18
455.99	30525.27
456.17	30068.86
456.36	30438.67
456.54	30984.01
456.73	31374.88
456.91	31466.16
457.09	31936.61
457.28	32463.23
457.46	31253.17
457.64	30738.26
457.83	29937.79
458.01	29165.42
458.19	30103.97
458.38	29935.45
458.56	31194.66
458.74	30876.35
458.93	30244.40
459.11	30305.26
459.29	29958.86
459.48	30366.11
459.66	29848.85
459.84	30295.89
460.03	30953.58
460.21	30787.41
460.39	31665.11
460.57	31578.51
460.76	32093.43
460.94	32421.10
461.12	31515.31
461.31	31852.35
461.49	31349.14
461.67	31915.54
461.85	32999.21
462.04	32222.16
462.22	32861.12
462.40	32524.08
462.59	32528.77
462.77	32500.68
462.95	32243.22
463.13	32161.30
463.32	31852.35
463.50	32074.70
463.68	31548.08
463.86	32067.68
464.05	31335.09
464.23	30616.55
464.41	30686.76
464.59	30008.01
464.78	31639.36
464.96	31534.04
465.14	31122.10
465.32	32156.62
465.50	32428.12
465.69	33001.55
465.87	32077.04
466.05	31189.98
466.23	29865.24
466.41	29319.89
466.60	30338.02
466.78	30398.88
466.96	30944.22
467.14	31199.34
467.32	31679.15
467.51	31826.60
467.69	30527.61
467.87	30742.94
468.05	31620.64
468.23	31473.18
468.41	31644.04
468.60	31681.49
468.78	31735.32
468.96	31367.86
469.14	31992.78
469.32	32388.33
469.50	31009.76
469.69	30916.14
469.87	30562.72
470.05	30352.07
470.23	30733.57
470.41	30506.54
470.59	31091.68
470.77	31356.16
470.95	31807.88
471.14	32165.98
471.32	32371.95
471.50	34099.26
471.68	33921.38
471.86	34450.35
472.04	34761.64
472.22	34918.45
472.40	32929.00
472.58	32753.46
472.77	32432.80
472.95	33296.46
473.13	33928.41
473.31	32847.08
473.49	33668.61
473.67	33956.49
473.85	34040.75
474.03	35056.54
474.21	34806.11
474.39	35477.84
474.57	35667.42
474.75	35576.14
474.93	35122.08
475.12	34129.69
475.30	34679.72
475.48	34375.45
475.66	35093.99
475.84	35227.40
476.02	34649.29
476.20	33926.07
476.38	35016.75
476.56	35885.09
476.74	36484.27
476.92	36292.35
477.10	37326.86
477.28	38258.40
477.46	37944.76
477.64	38162.43
477.82	38141.37
478.00	38464.36
478.18	37666.24
478.36	37834.76
478.54	37518.79
478.72	38136.69
478.90	38904.38
479.08	40107.42
479.26	40367.22
479.44	40575.53
479.62	40198.70
479.80	40224.45
479.98	40650.42
480.16	40910.22
480.34	40100.40
480.52	40797.88
480.70	40849.37
480.88	41139.60
481.06	41940.06
481.24	42071.13
481.41	42930.11
481.59	43503.54
481.77	42927.77
481.95	42396.46
482.13	42806.06
482.31	42164.75
482.49	43445.02
482.67	43178.20
482.85	43365.45
483.03	44025.48
483.21	44156.55
483.39	43952.92
483.57	43093.94
483.74	43426.30
483.92	43576.09
484.10	43777.38
484.28	44755.72
484.46	45095.10
484.64	45649.81
484.82	44371.88
485.00	44299.32
485.18	43316.29
485.35	41921.34
485.53	38480.75
485.71	35204.00
485.89	35136.12
486.07	37050.68
486.25	40315.73
486.43	42291.14
486.61	43068.20
486.78	43442.68
486.96	43089.26
487.14	45055.31
487.32	45705.98
487.50	46815.40
487.68	48320.36
487.85	48582.50
488.03	48130.78
488.21	47913.11
488.39	47496.49
488.57	46202.18
488.75	46300.48
488.92	47599.47
489.10	50017.25
489.28	51239.01
489.46	51833.50
489.64	51227.31
489.81	51835.84
489.99	51566.68
490.17	51433.27
490.35	51873.29
490.53	51402.85
490.70	51035.38
490.88	50747.50
491.06	51828.82
491.24	52147.14
491.41	50843.46
491.59	48671.44
491.77	48353.13
491.95	49773.83
492.13	50586.00
492.30	52215.01
492.48	52942.92
492.66	53492.94
492.84	53427.41
493.01	53099.73
493.19	52346.08
493.37	52301.61
493.54	51728.18
493.72	52657.37
493.90	53722.32
494.08	54403.41
494.25	54988.55
494.43	54925.35
494.61	55510.49
494.79	55636.87
494.96	55119.62
495.14	54450.22
495.32	53446.13
495.49	53188.67
495.67	54164.68
495.85	55456.65
496.02	55796.03
496.20	55679.00
496.38	55313.88
496.55	55246.00
496.73	55763.26
496.91	55702.41
497.09	56381.16
497.26	56772.03
497.44	55819.44
497.62	55606.45
497.79	54817.69
497.97	53062.29
498.14	53471.88
498.32	54754.49
498.50	55707.09
498.67	56259.46
498.85	56224.35
499.03	56226.69
499.20	56514.58
499.38	56435.00
499.56	56406.91
499.73	55683.69
499.91	55295.16
500.08	54866.84
500.26	54340.22
500.44	55157.06
500.61	55707.09
500.79	55299.84
500.97	54705.34
501.14	54876.20
501.32	54351.92
501.49	54588.31
501.67	54843.43
501.84	55491.76
502.02	55779.65
502.20	55807.73
502.37	56041.79
502.55	56229.03
502.72	56793.10
502.90	57031.83
503.07	56809.48
503.25	56514.58
503.43	55466.02
503.60	54822.37
503.78	54145.95
503.95	54742.79
504.13	56179.88
504.30	57120.77
504.48	56804.80
504.65	56292.22
504.83	56463.08
505.01	57090.35
505.18	57485.90
505.36	58040.60
505.53	58190.40
505.71	58464.24
505.88	58206.78
506.06	57563.14
506.23	57392.28
506.41	56898.42
506.58	57523.35
506.76	57270.57
506.93	57080.98
507.11	57127.80
507.28	57153.54
507.46	56582.45
507.63	56032.42
507.81	55884.97
507.98	56406.91
508.16	56921.83
508.33	57345.47
508.50	57759.74
508.68	57972.73
508.85	58515.73
509.03	58398.71
509.20	58211.46
509.38	57640.37
509.55	57029.49
509.73	57008.43
509.90	57350.15
510.08	57726.97
510.25	57766.76
510.42	57506.96
510.60	57286.95
510.77	57736.34
510.95	58244.23
511.12	58328.49
511.30	58738.08
511.47	58934.69
511.64	58805.96
511.82	58417.43
511.99	57900.17
512.17	57455.47
512.34	57195.67
512.51	57261.21
512.69	57490.58
512.86	57628.67
513.04	57993.79
513.21	57949.32
513.38	57382.91
513.56	57102.05
513.73	56472.45
513.90	56573.09
514.08	56633.94
514.25	56947.57
514.43	56992.04
514.60	57186.31
514.77	57446.11
514.95	57551.43
515.12	57396.96
515.29	57764.42
515.47	58155.29
515.64	58501.69
515.81	58092.10
515.99	57418.02
516.16	55973.91
516.33	53413.37
516.51	52069.90
516.68	51040.06
516.85	50824.73
517.03	51653.28
517.20	54211.49
517.37	56851.61
517.54	57677.82
517.72	57118.43
517.89	54174.04
518.06	52514.60
518.24	52739.29
518.41	54976.84
518.58	56116.68
518.75	56186.90
518.93	56472.45
519.10	56402.23
519.27	56884.38
519.45	57338.44
519.62	57996.13
519.79	58305.09
519.96	57907.19
520.14	57532.71
520.31	56928.85
520.48	56559.05
520.65	57024.81
520.83	58206.78
521.00	58356.58
521.17	58099.12
521.34	57558.45
521.52	58145.93
521.69	58628.08
521.86	58911.28
522.03	58281.68
522.20	57247.16
522.38	56523.94
522.55	56605.86
522.72	57181.63
522.89	57247.16
523.07	57244.82
523.24	57804.21
523.41	58632.76
523.58	58885.54
523.75	59210.87
523.92	58960.44
524.10	58967.46
524.27	59234.28
524.44	58749.79
524.61	58679.57
524.78	58429.13
524.96	58471.26
525.13	58543.82
525.30	58784.90
525.47	59267.05
525.64	59044.69
525.81	58127.20
525.98	56907.79
526.16	55693.05
526.33	54878.54
526.50	54419.80
526.67	54190.42
526.84	54742.79
527.01	55821.78
527.18	56662.03
527.36	57565.48
527.53	58328.49
527.70	58473.60
527.87	58110.82
528.04	57607.61
528.21	58141.25
528.38	58717.02
528.55	59454.29
528.72	59400.46
528.89	59903.67
529.07	59398.12
529.24	58686.59
529.41	58024.22
529.58	57570.16
529.75	58017.20
529.92	58066.35
530.09	58508.71
530.26	59049.38
530.43	59231.94
530.60	59164.06
530.77	59473.01
530.94	59498.76
531.11	59262.36
531.28	58567.23
531.46	58611.70
531.63	58838.73
531.80	58681.91
531.97	58054.65
532.14	57396.96
532.31	56257.12
532.48	55592.40
532.65	56179.88
532.82	56816.50
532.99	57883.79
533.16	58281.68
533.33	58791.92
533.50	58555.52
533.67	58169.33
533.84	57668.46
534.01	57687.18
534.18	58010.18
534.35	58281.68
534.52	57881.45
534.69	58122.52
534.86	58658.51
535.03	59000.22
535.20	59327.90
535.37	59578.34
535.54	59693.02
535.71	59044.69
535.88	58796.60
536.05	58419.77
536.22	58155.29
536.38	57687.18
536.55	57167.58
536.72	56694.80
536.89	56980.34
537.06	57492.92
537.23	58211.46
537.40	58457.22
537.57	58597.65
537.74	58340.19
537.91	58075.71
538.08	58461.90
538.25	58234.87
538.42	58457.22
538.59	58145.93
538.75	57715.27
538.92	57523.35
539.09	57256.53
539.26	57034.17
539.43	56900.76
539.60	56978.00
539.77	57310.36
539.94	57099.71
540.11	56458.40
540.28	55894.33
540.44	56079.24
540.61	56163.50
540.78	56540.32
540.95	56779.06
541.12	57242.48
541.29	57460.15
541.46	57715.27
541.62	57776.12
541.79	57717.61
541.96	57059.92
542.13	57134.82
542.30	57441.43
542.47	57439.09
542.63	57244.82
542.80	57116.09
542.97	57275.25
543.14	57045.88
543.31	57272.91
543.48	57616.97
543.64	58578.93
543.81	58784.90
543.98	58426.79
544.15	57682.50
544.32	57275.25
544.48	57460.15
544.65	57598.24
544.82	58251.25
544.99	57551.43
545.16	57411.00
545.32	57160.56
545.49	58028.90
545.66	58354.24
545.83	57687.18
546.00	57621.65
546.16	57429.72
546.33	57343.12
546.50	57551.43
546.67	57858.04
546.83	57497.60
547.00	57340.78
547.17	56725.22
547.34	56219.67
547.50	56133.07
547.67	56910.13
547.84	56718.20
548.00	57102.05
548.17	57549.09
548.34	57230.78
548.51	57481.22
548.67	57312.70
548.84	57523.35
549.01	57396.96
549.18	57375.89
549.34	57200.35
549.51	57209.71
549.68	57186.31
549.84	57289.29
550.01	56898.42
550.18	56699.48
550.34	56931.19
550.51	57319.72
550.68	56970.98
550.84	56575.43
551.01	56626.92
551.18	56580.11
551.34	56893.74
551.51	57371.21
551.68	57521.01
551.84	57605.26
552.01	57329.08
552.18	57160.56
552.34	56495.85
552.51	55985.61
552.68	55936.46
552.84	56303.93
553.01	56701.82
553.18	56430.32
553.34	57013.11
553.51	56839.91
553.67	57104.39
553.84	57055.24
554.01	56825.87
554.17	56896.08
554.34	57027.15
554.51	57010.77
554.67	57476.54
554.84	57205.03
555.00	56772.03
555.17	56537.98
555.33	56715.86
555.50	56514.58
555.67	56664.37
555.83	56320.31
556.00	56371.80
556.16	56086.26
556.33	55756.24
556.50	55915.40
556.66	55660.28
556.83	55517.51
556.99	55491.76
557.16	55592.40
557.32	56271.16
557.49	56168.18
557.65	56067.53
557.82	56170.52
557.98	55707.09
558.15	55243.66
558.32	54623.42
558.48	53881.47
558.65	54305.11
558.81	54567.25
558.98	55068.12
559.14	54810.67
559.31	54972.16
559.47	55105.57
559.64	54803.64
559.80	54450.22
559.97	54600.02
560.13	54717.04
560.30	55803.05
560.46	56498.19
560.63	56481.81
560.79	56706.50
560.96	56130.73
561.12	55007.27
561.29	54286.39
561.45	54412.77
561.61	54873.86
561.78	55412.18
561.94	55025.99
562.11	54829.39
562.27	55049.40
562.44	55213.24
562.60	55540.91
562.77	55861.57
562.93	55606.45
563.10	55430.91
563.26	54831.73
563.42	54754.49
563.59	54862.16
563.75	54897.27
563.92	54869.18
564.08	54707.68
564.24	54850.45
564.41	55049.40
564.57	55058.76
564.74	54775.56
564.90	54770.88
565.07	54777.90
565.23	54138.93
565.39	53422.73
565.56	53345.49
565.72	53174.63
565.88	53502.31
566.05	53649.76
566.21	53776.15
566.38	54468.95
566.54	54183.40
566.70	54642.15
566.87	54789.60
567.03	54604.70
567.19	55077.49
567.36	54829.39
567.52	54703.00
567.68	54443.20
567.85	53359.53
568.01	53357.19
568.17	52889.09
568.34	52996.75
568.50	52851.64
568.66	53083.35
568.83	53411.02
568.99	53221.44
569.15	53883.81
569.32	53886.15
569.48	53095.05
569.64	53118.46
569.81	52760.36
569.97	52924.19
570.13	52505.24
570.30	52182.24
570.46	51599.45
570.62	50979.21
570.78	51154.75
570.95	51538.60
571.11	52247.78
571.27	52280.55
571.43	52521.62
571.60	53130.16
571.76	53193.36
571.92	53387.62
572.09	53656.78
572.25	53797.21
572.41	53572.52
572.57	53284.64
572.74	53368.90
572.90	52701.84
573.06	52989.73
573.22	53027.18
573.38	52903.13
573.55	52971.00
573.71	53123.14
573.87	53020.16
574.03	52725.25
574.20	52924.19
574.36	52315.65
574.52	51995.00
574.68	52222.03
574.84	51718.82
575.01	51409.87
575.17	51421.57
575.33	51421.57
575.49	51894.36
575.65	52009.04
575.82	51449.66
575.98	51524.55
576.14	51863.93
576.30	51901.38
576.46	52196.29
576.62	52217.35
576.79	51885.00
576.95	51508.17
577.11	51494.13
577.27	51578.39
577.43	51819.46
577.59	51138.36
577.75	51180.49
577.92	50415.14
578.08	49708.30
578.24	49998.52
578.40	50293.43
578.56	50703.03
578.72	51105.60
578.88	51337.31
579.04	50967.51
579.21	51367.74
579.37	51157.09
579.53	51239.01
579.69	51508.17
579.85	51402.85
580.01	51374.76
580.17	50962.82
580.33	50471.31
580.49	51044.74
580.65	51260.07
580.82	51529.23
580.98	51444.98
581.14	51011.98
581.30	51124.32
581.46	51241.35
581.62	51686.05
581.78	51456.68
581.94	51824.14
582.10	51562.00
582.26	51615.83
582.42	51688.39
582.58	51604.13
582.74	51358.38
582.90	51641.58
583.06	51814.78
583.22	51100.92
583.38	51213.26
583.54	51246.03
583.70	51082.19
583.86	51416.89
584.02	51136.02
584.18	51257.73
584.34	51096.24
584.50	51194.54
584.66	50817.71
584.82	50064.06
584.98	50213.85
585.14	49846.39
585.30	49041.24
