SpectraSuite Data File
++++++++++++++++++++++++++++++++++++
Date: Mon Oct 07 14:53:59 GMT-05:00 2013
User: price-jones
Dark Spectrum Present: No
Reference Spectrum Present: No
Number of Sampled Component Spectra: 1
Spectrometers: USB2+H05261
Integration Time (usec): 100000 (USB2+H05261)
Spectra Averaged: 1 (USB2+H05261)
Boxcar Smoothing: 0 (USB2+H05261)
Correct for Electrical Dark: No (USB2+H05261)
Strobe/Lamp Enabled: No (USB2+H05261)
Correct for Detector Non-linearity: No (USB2+H05261)
Correct for Stray Light: No (USB2+H05261)
Number of Pixels in Processed Spectrum: 2048
>>>>>Begin Processed Spectral Data<<<<<
365.73	0.00
365.92	0.00
366.12	0.00
366.32	0.00
366.52	0.00
366.72	0.00
366.91	0.00
367.11	0.00
367.31	0.00
367.51	0.00
367.70	0.00
367.90	0.00
368.10	0.00
368.30	0.00
368.49	0.00
368.69	0.00
368.89	0.00
369.09	0.00
369.28	0.00
369.48	0.00
369.68	0.00
369.87	0.00
370.07	0.00
370.27	0.00
370.47	678.76
370.66	3398.46
370.86	4131.05
371.06	4381.48
371.25	4479.79
371.45	3976.57
371.65	3602.08
371.84	3407.82
372.04	3534.21
372.24	4201.26
372.44	4252.75
372.63	4177.86
372.83	3887.63
373.03	3428.88
373.22	3206.53
373.42	3351.65
373.62	3641.87
373.81	4065.51
374.01	4007.00
374.21	3754.22
374.40	3550.59
374.60	3651.24
374.79	3999.98
374.99	4772.35
375.19	5102.37
375.38	5231.10
375.58	4800.44
375.78	4816.82
375.97	4674.05
376.17	4896.40
376.37	5048.54
376.56	5233.44
376.76	5376.21
376.95	5778.78
377.15	6232.85
377.35	6347.53
377.54	6647.12
377.74	6717.34
377.93	6764.15
378.13	6509.03
378.33	6354.55
378.52	5710.91
378.72	5664.10
378.91	5542.39
379.11	5261.52
379.31	5088.32
379.50	5057.90
379.70	5458.13
379.89	6045.60
380.09	6427.11
380.28	6649.46
380.48	6558.18
380.68	6511.37
380.87	6326.47
381.07	6033.90
381.26	5303.65
381.46	5006.41
381.65	5071.94
381.85	4917.47
382.04	4608.51
382.24	4170.83
382.43	4044.45
382.63	3918.06
382.83	3995.29
383.02	4046.79
383.22	3817.41
383.41	3983.59
383.61	4351.06
383.80	4910.44
384.00	5521.32
384.19	6242.21
384.39	6513.71
384.58	6628.40
384.78	6359.24
384.97	6434.13
385.17	5937.94
385.36	5673.46
385.56	5376.21
385.75	5495.58
385.95	6134.54
386.14	6675.21
386.34	6773.51
386.53	6340.51
386.72	6031.56
386.92	6064.33
387.11	6513.71
387.31	6860.11
387.50	6562.86
387.70	6415.41
387.89	6335.83
388.09	6494.99
388.28	6324.13
388.48	6569.88
388.67	6892.88
388.86	7616.10
389.06	8152.09
389.25	8353.37
389.45	8442.31
389.64	8510.19
389.84	8648.28
390.03	8257.41
390.22	8454.02
390.42	8479.76
390.61	9289.59
390.81	9771.74
391.00	10106.43
391.19	9973.02
391.39	9753.01
391.58	9114.05
391.78	8507.85
391.97	8409.54
392.16	7618.44
392.36	7133.95
392.55	5495.58
392.75	4552.34
392.94	3641.87
393.13	3641.87
393.33	4238.71
393.52	5472.17
393.71	6789.89
393.91	7686.32
394.10	8102.93
394.29	9032.13
394.49	9699.18
394.68	10476.24
394.88	10462.19
395.07	10733.70
395.26	10916.26
395.46	10509.01
395.65	10125.16
395.84	8685.73
396.04	7478.01
396.23	5916.87
396.42	4947.89
396.62	4823.84
396.81	5551.75
397.00	7169.06
397.19	9020.42
397.39	10544.11
397.58	11798.64
397.77	12542.93
397.97	13392.55
398.16	13256.79
398.35	13727.24
398.55	14099.39
398.74	14806.23
398.93	15080.07
399.12	14651.75
399.32	14134.50
399.51	14628.35
399.70	15508.39
399.90	15358.60
400.09	15393.70
400.28	15047.30
400.47	15363.28
400.67	16070.12
400.86	16671.64
401.05	16322.90
401.24	16615.46
401.44	16816.75
401.63	16645.89
401.82	16636.53
402.01	16959.52
402.21	16924.41
402.40	17188.89
402.59	16444.60
402.78	16004.58
402.97	15335.19
403.17	16147.36
403.36	17158.47
403.55	17816.16
403.74	18171.92
403.93	17228.68
404.13	15939.05
404.32	15634.78
404.51	15875.85
404.70	17408.90
404.89	17570.40
405.09	17179.53
405.28	16486.73
405.47	16760.58
405.66	16219.91
405.85	16229.27
406.05	15686.27
406.24	15875.85
406.43	16517.16
406.62	17226.34
406.81	17530.61
407.00	16636.53
407.20	16294.81
407.39	16327.58
407.58	17186.55
407.77	17727.22
407.96	18719.60
408.15	18614.28
408.34	18864.72
408.54	19414.74
408.73	19742.42
408.92	19625.39
409.11	18773.44
409.30	17750.62
409.49	17078.89
409.68	15932.03
409.87	15154.97
410.07	16194.17
410.26	17706.15
410.45	18609.60
410.64	19349.21
410.83	19594.96
411.02	20081.80
411.21	20673.95
411.40	20187.12
411.59	20748.85
411.78	20999.29
411.98	20226.91
412.17	20603.74
412.36	20273.72
412.55	20348.62
412.74	20072.43
412.93	19562.20
413.12	19630.07
413.31	21341.00
413.50	21876.99
413.69	22118.06
413.88	21149.08
414.07	20634.16
414.26	20978.22
414.45	21678.04
414.64	21919.12
414.83	21654.64
415.02	21528.25
415.22	21179.51
415.41	22089.98
415.60	22471.48
415.79	23290.67
415.98	23939.00
416.17	23688.56
416.36	22946.61
416.55	23030.87
416.74	22434.03
416.93	21228.66
417.12	21427.60
417.31	21867.63
417.50	21940.18
417.69	22867.03
417.88	22979.38
418.07	22668.09
418.26	22293.60
418.45	22565.10
418.64	23239.18
418.83	23747.08
419.02	23814.95
419.21	23594.94
419.39	22415.31
419.58	21338.66
419.77	21465.05
419.96	22604.89
420.15	23435.78
420.34	24212.84
420.53	25043.73
420.72	25465.03
420.91	25146.72
421.10	25041.39
421.29	24900.96
421.48	24053.69
421.67	25298.85
421.86	24694.99
422.05	22789.80
422.24	20325.21
422.43	19967.11
422.61	22401.27
422.80	23922.62
422.99	24491.37
423.18	23627.71
423.37	23047.26
423.56	22810.86
423.75	23232.16
423.94	23875.80
424.13	22518.29
424.32	22595.53
424.50	23047.26
424.69	22565.10
424.88	22305.31
425.07	22815.54
425.26	22541.70
425.45	22642.34
425.64	21944.86
425.83	21694.43
426.01	23171.30
426.20	23772.82
426.39	23775.16
426.58	21996.35
426.77	20280.74
426.96	19541.13
427.15	20432.88
427.33	21928.48
427.52	23110.45
427.71	22775.75
427.90	22895.12
428.09	22293.60
428.28	21900.39
428.46	21032.05
428.65	20472.67
428.84	21448.67
429.03	21867.63
429.22	20641.18
429.40	19758.80
429.59	17795.09
429.78	15639.46
429.97	15838.41
430.16	15887.56
430.34	15903.94
430.53	15992.88
430.72	16123.95
430.91	17956.59
431.10	21041.42
431.28	24816.70
431.47	27316.39
431.66	27054.25
431.85	25050.75
432.03	22682.13
432.22	21589.10
432.41	22216.36
432.60	25125.65
432.79	25982.29
432.97	26895.10
433.16	26448.05
433.35	23807.93
433.54	21411.22
433.72	20238.61
433.91	20863.54
434.10	22993.42
434.28	24830.74
434.47	26155.49
434.66	25895.69
434.85	24982.88
435.03	24795.64
435.22	25647.59
435.41	27318.73
435.59	26878.71
435.78	27487.25
435.97	28395.38
436.16	28676.24
436.34	27632.36
436.53	27351.50
436.72	27623.00
436.90	25984.63
437.09	25986.97
437.28	25659.29
437.46	26338.05
437.65	26462.10
437.84	24917.34
438.02	22190.62
438.21	22520.63
438.40	23821.97
438.58	25855.90
438.77	26464.44
438.96	26345.07
439.14	27604.28
439.33	28250.27
439.52	28538.15
439.70	28140.26
439.89	27623.00
440.08	26827.22
440.26	26480.82
440.45	27454.48
440.63	29214.57
440.82	30855.28
441.01	30546.33
441.19	30216.32
441.38	30433.99
441.57	31487.23
441.75	32027.89
441.94	32144.92
442.12	32268.97
442.31	32636.43
442.50	32002.14
442.68	32208.11
442.87	32011.51
443.05	31253.17
443.24	31641.70
443.43	32409.40
443.61	33247.31
443.80	33322.21
443.98	31395.95
444.17	31484.89
444.35	33195.82
444.54	33858.19
444.73	33544.56
444.91	32077.04
445.10	30646.97
445.28	29420.53
445.47	29029.66
445.65	29429.90
445.84	30253.76
446.02	31388.92
446.21	31805.54
446.39	31772.77
446.58	32292.37
446.77	32606.00
446.95	32797.93
447.14	33638.18
447.32	34256.08
447.51	33411.15
447.69	32390.67
447.88	31981.08
448.06	32222.16
448.25	32987.51
448.43	33312.84
448.62	32488.98
448.80	32598.98
448.99	32765.16
449.17	32669.20
449.36	32818.99
449.54	34157.78
449.73	34946.54
449.91	34934.84
450.10	36397.67
450.28	36437.46
450.46	35791.47
450.65	36392.99
450.83	36243.20
451.02	35321.02
451.20	35372.52
451.39	35042.50
451.57	34728.87
451.76	35140.80
451.94	34483.11
452.13	34256.08
452.31	32329.82
452.49	30848.26
452.68	31552.76
452.86	31449.78
453.05	32119.17
453.23	33036.66
453.42	33443.91
453.60	33954.15
453.78	34515.88
453.97	34323.96
454.15	34349.70
454.34	33275.40
454.52	33818.40
454.70	32783.88
454.89	33235.61
455.07	33518.81
455.26	34022.03
455.44	35318.68
455.62	35861.69
455.81	35875.73
455.99	35442.73
456.17	35515.29
456.36	35522.31
456.54	36762.79
456.73	36620.02
456.91	36830.67
457.09	37195.79
457.28	37450.91
457.46	36226.81
457.64	36311.07
457.83	35061.22
458.01	33834.78
458.19	35386.56
458.38	35096.33
458.56	36381.29
458.74	36575.55
458.93	35913.18
459.11	35964.67
459.29	35260.17
459.48	35264.85
459.66	35339.75
459.84	35526.99
460.03	36158.94
460.21	35936.59
460.39	36940.68
460.57	37104.51
460.76	37752.84
460.94	37387.72
461.12	36776.84
461.31	36933.65
461.49	37148.98
461.67	36842.37
461.85	38382.45
462.04	38167.12
462.22	38534.58
462.40	38244.35
462.59	37778.59
462.77	37968.17
462.95	38005.62
463.13	37743.48
463.32	36811.95
463.50	36744.07
463.68	36666.83
463.86	37008.55
464.05	36470.23
464.23	35566.78
464.41	35711.89
464.59	35276.55
464.78	36797.90
464.96	36561.51
465.14	36229.15
465.32	37137.28
465.50	38059.45
465.69	38347.34
465.87	37291.76
466.05	36723.01
466.23	35112.72
466.41	34382.47
466.60	35262.51
466.78	35260.17
466.96	36004.46
467.14	36467.89
467.32	36645.77
467.51	36865.78
467.69	35407.62
467.87	35976.37
468.05	36507.68
468.23	36332.14
468.41	36673.85
468.60	36823.65
468.78	37001.53
468.96	36378.95
469.14	36701.94
469.32	37202.82
469.50	35974.03
469.69	36128.51
469.87	35211.02
470.05	35388.90
470.23	35079.95
470.41	35405.28
470.59	36390.65
470.77	36187.02
470.95	36486.61
471.14	37132.60
471.32	37640.50
471.50	39185.25
471.68	39316.32
471.86	39864.00
472.04	40275.94
472.22	39564.42
472.40	37354.95
472.58	37792.63
472.77	37591.34
472.95	38103.92
473.13	39136.10
473.31	38057.11
473.49	38368.40
473.67	39108.01
473.85	39267.17
474.03	40435.10
474.21	40325.09
474.39	40615.32
474.57	41219.17
474.75	40842.35
474.93	40790.86
475.12	39955.29
475.30	39885.07
475.48	39903.79
475.66	40240.83
475.84	40203.38
476.02	39892.09
476.20	39051.84
476.38	39803.15
476.56	41050.66
476.74	41371.31
476.92	41698.98
477.10	42164.75
477.28	43138.41
477.46	43407.58
477.64	44004.41
477.82	43906.11
478.00	44472.52
478.18	42770.95
478.36	43335.02
478.54	43477.79
478.72	43358.42
478.90	44502.95
479.08	45378.31
479.26	46253.67
479.44	46028.98
479.62	45701.30
479.80	45471.93
479.98	45422.78
480.16	46134.30
480.34	45577.25
480.52	46440.91
480.70	46492.40
480.88	46197.49
481.06	47161.79
481.24	47386.49
481.41	48198.65
481.59	48692.50
481.77	48486.54
481.95	47810.12
482.13	47917.79
482.31	47746.93
482.49	48348.45
482.67	48828.26
482.85	48751.02
483.03	49155.93
483.21	49752.77
483.39	49305.73
483.57	48921.88
483.74	48474.84
483.92	48987.41
484.10	49233.17
484.28	49998.52
484.46	50314.50
484.64	50314.50
484.82	49539.78
485.00	49294.02
485.18	48610.59
485.35	47821.83
485.53	44243.15
485.71	40627.02
485.89	39763.36
486.07	41865.16
486.25	44914.88
486.43	47716.50
486.61	48032.47
486.78	48505.26
486.96	48463.13
487.14	49886.18
487.32	50759.20
487.50	51683.71
487.68	52215.01
487.85	52978.03
488.03	52924.19
488.21	52690.14
488.39	51868.61
488.57	51466.04
488.75	50518.12
488.92	52039.47
489.10	53937.65
489.28	55374.73
489.46	55763.26
489.64	55554.96
489.81	55709.43
489.99	55304.52
490.17	55447.29
490.35	55704.75
490.53	55398.14
490.70	55084.51
490.88	54878.54
491.06	56090.94
491.24	55772.63
491.41	54848.11
491.59	53380.60
491.77	52561.41
491.95	53776.15
492.13	54721.72
492.30	55721.13
492.48	56542.66
492.66	57169.93
492.84	56811.82
493.01	56872.68
493.19	56193.92
493.37	56182.22
493.54	55805.39
493.72	56233.71
493.90	57088.01
494.08	57921.24
494.25	58113.16
494.43	58363.60
494.61	58656.17
494.79	58782.55
494.96	58518.07
495.14	57946.98
495.32	57041.20
495.49	56493.51
495.67	57434.41
495.85	58646.80
496.02	58997.88
496.20	59040.01
496.38	58574.25
496.55	58541.48
496.73	59002.56
496.91	59061.08
497.09	59641.53
497.26	59707.07
497.44	58988.52
497.62	58890.22
497.79	57839.32
497.97	56741.61
498.14	56891.40
498.32	58054.65
498.50	58658.51
498.67	59576.00
498.85	58894.90
499.03	59419.18
499.20	59688.34
499.38	59552.59
499.56	59444.93
499.73	59054.06
499.91	58660.85
500.08	58120.18
500.26	57640.37
500.44	57804.21
500.61	58618.72
500.79	58391.68
500.97	57928.26
501.14	57916.56
501.32	57846.34
501.49	57895.49
501.67	57902.51
501.84	58489.99
502.02	58742.77
502.20	59182.79
502.37	59157.04
502.55	59096.19
502.72	59606.42
502.90	60229.01
503.07	59859.20
503.25	59519.82
503.43	58857.45
503.60	58066.35
503.78	57308.02
503.95	57733.99
504.13	59166.40
504.30	60030.06
504.48	59840.48
504.65	59320.88
504.83	59503.44
505.01	59987.93
505.18	60329.65
505.36	60985.00
505.53	60912.44
505.71	61165.22
505.88	61429.70
506.06	60598.81
506.23	60156.45
506.41	59936.44
506.58	60079.21
506.76	60027.72
506.93	60212.62
507.11	59718.77
507.28	59980.91
507.46	59650.89
507.63	58969.80
507.81	58759.15
507.98	58955.75
508.16	59943.46
508.33	60271.14
508.50	60652.64
508.68	60825.84
508.85	61399.27
509.03	61186.28
509.20	61158.20
509.38	60605.83
509.55	59475.35
509.73	59894.31
509.90	60217.30
510.08	60390.50
510.25	60423.27
510.42	60441.99
510.60	60083.89
510.77	60383.48
510.95	60912.44
511.12	60865.63
511.30	61268.20
511.47	61638.01
511.64	61511.62
511.82	61041.17
511.99	60566.04
512.17	59992.61
512.34	59660.26
512.51	59908.35
512.69	59894.31
512.86	60243.05
513.04	60612.85
513.21	60458.38
513.38	60179.85
513.56	59538.55
513.73	59339.60
513.90	59437.90
514.08	59412.16
514.25	59906.01
514.43	59798.35
514.60	59877.93
514.77	60025.38
514.95	60243.05
515.12	59973.89
515.29	60238.37
515.47	60699.45
515.64	61132.45
515.81	60563.70
515.99	59952.82
516.16	58782.55
516.33	56746.29
516.51	55435.59
516.68	54492.35
516.85	54185.74
517.03	54525.12
517.20	57022.47
517.37	59334.92
517.54	60327.31
517.72	59807.71
517.89	57684.84
518.06	55133.66
518.24	55433.25
518.41	57616.97
518.58	58930.01
518.75	59077.46
518.93	59297.47
519.10	59147.68
519.27	59725.79
519.45	59749.20
519.62	60521.57
519.79	60544.98
519.96	60535.62
520.14	59959.84
520.31	59288.11
520.48	59290.45
520.65	59641.53
520.83	60563.70
521.00	60685.41
521.17	60690.09
521.34	60062.83
521.52	60362.42
521.69	60816.48
521.86	61242.46
522.03	61017.77
522.20	59880.27
522.38	58742.77
522.55	59011.93
522.72	59426.20
522.89	59505.78
523.07	59870.90
523.24	59920.05
523.41	60786.05
523.58	61244.80
523.75	61623.96
523.92	61289.27
524.10	61439.06
524.27	61336.08
524.44	61158.20
524.61	60903.08
524.78	60896.06
524.96	60706.47
525.13	60601.15
525.30	61085.64
525.47	61418.00
525.64	61333.74
525.81	60652.64
525.98	59475.35
526.16	58134.23
526.33	57441.43
526.50	57057.58
526.67	56830.55
526.84	57277.59
527.01	58295.72
527.18	58876.18
527.36	59739.83
527.53	60512.21
527.70	60797.76
527.87	60182.19
528.04	59915.37
528.21	60264.11
528.38	60938.19
528.55	61511.62
528.72	61736.31
528.89	62028.88
529.07	61616.94
529.24	61062.24
529.41	60608.17
529.58	59868.56
529.75	60009.00
529.92	60467.74
530.09	60788.39
530.26	61251.82
530.43	61593.54
530.60	61652.05
530.77	61733.97
530.94	61724.61
531.11	61209.69
531.28	61111.39
531.46	60772.01
531.63	61183.94
531.80	60867.97
531.97	60573.06
532.14	59714.09
532.31	59025.97
532.48	58206.78
532.65	58061.67
532.82	59178.10
532.99	60163.47
533.16	60343.69
533.33	60919.46
533.50	60818.82
533.67	60268.79
533.84	59845.16
534.01	59962.18
534.18	60158.79
534.35	60519.23
534.52	60097.94
534.69	60512.21
534.86	60886.70
535.03	60662.00
535.20	61343.10
535.37	61647.37
535.54	61729.29
535.71	61523.32
535.88	61155.86
536.05	60395.18
536.22	60395.18
536.38	59955.16
536.55	59236.62
536.72	58988.52
536.89	58756.81
537.06	59465.99
537.23	60378.80
537.40	60657.32
537.57	60678.39
537.74	60523.91
537.91	60376.46
538.08	60247.73
538.25	60392.84
538.42	60486.46
538.59	60245.39
538.75	59812.39
538.92	59702.38
539.09	59367.69
539.26	59107.89
539.43	58962.78
539.60	59098.53
539.77	59278.75
539.94	59395.77
540.11	58529.78
540.28	57986.77
540.44	58134.23
540.61	58075.71
540.78	58721.70
540.95	58852.77
541.12	59398.12
541.29	59629.83
541.46	59873.24
541.62	59835.80
541.79	59772.60
541.96	59040.01
542.13	59016.61
542.30	59437.90
542.47	59433.22
542.63	59126.61
542.80	59255.34
542.97	59526.84
543.14	58990.86
543.31	59082.14
543.48	59660.26
543.64	60467.74
543.81	60727.54
543.98	60484.12
544.15	59681.32
544.32	59105.55
544.48	59196.83
544.65	59662.60
544.82	60200.92
544.99	59444.93
545.16	59306.83
545.32	59117.25
545.49	60128.36
545.66	60156.45
545.83	59824.09
546.00	59622.81
546.16	59260.02
546.33	59405.14
546.50	59372.37
546.67	59812.39
546.83	59381.73
547.00	59435.56
547.17	58681.91
547.34	58166.99
547.50	58181.04
547.67	58630.42
547.84	58787.24
548.00	59171.08
548.17	59405.14
548.34	59222.58
548.51	59224.92
548.67	59482.37
548.84	59437.90
549.01	59325.56
549.18	59271.73
549.34	59138.32
549.51	59465.99
549.68	59011.93
549.84	58850.43
550.01	58642.12
550.18	58663.19
550.34	58798.94
550.51	58869.15
550.68	58801.28
550.84	58564.88
551.01	58482.97
551.18	58485.31
551.34	58761.49
551.51	59203.85
551.68	59267.05
551.84	59260.02
552.01	59114.91
552.18	58803.62
552.34	58199.76
552.51	57876.77
552.68	57841.66
552.84	58344.87
553.01	58576.59
553.18	58438.50
553.34	58599.99
553.51	58637.44
553.67	58864.47
553.84	59042.35
554.01	58871.49
554.17	58733.40
554.34	58705.32
554.51	58756.81
554.67	59168.74
554.84	58988.52
555.00	58618.72
555.17	58422.11
555.33	58417.43
555.50	58489.99
555.67	58592.97
555.83	58279.34
556.00	57827.62
556.16	57904.85
556.33	57858.04
556.50	57652.08
556.66	57645.05
556.83	57268.23
556.99	57322.06
557.16	57539.73
557.32	57860.38
557.49	57928.26
557.65	57935.28
557.82	57822.93
557.98	57794.85
558.15	57359.51
558.32	56336.69
558.48	55669.64
558.65	55697.73
558.81	56200.94
558.98	56603.52
559.14	56589.47
559.31	56793.10
559.47	56839.91
559.64	56512.23
559.80	56154.13
559.97	56107.32
560.13	56575.43
560.30	57588.88
560.46	57958.69
560.63	58253.59
560.79	58181.04
560.96	57890.81
561.12	56816.50
561.29	55849.86
561.45	55985.61
561.61	56603.52
561.78	56762.67
561.94	56631.60
562.11	56666.71
562.27	56292.22
562.44	56830.55
562.60	57193.33
562.77	57286.95
562.93	57179.29
563.10	57181.63
563.26	56547.34
563.42	56676.07
563.59	56353.08
563.75	56184.56
563.92	56545.00
564.08	56479.47
564.24	56853.95
564.41	56662.03
564.57	56825.87
564.74	56313.29
564.90	56477.13
565.07	56186.90
565.23	55873.27
565.39	55346.65
565.56	54794.28
565.72	55021.31
565.88	55262.39
566.05	55079.83
566.21	55667.30
566.38	55367.71
566.54	55854.54
566.70	56128.39
566.87	56310.95
567.03	56493.51
567.19	56528.62
567.36	56374.14
567.52	56200.94
567.68	55765.60
567.85	55187.49
568.01	54915.99
568.17	54604.70
568.34	54454.90
568.50	54344.90
568.66	54759.17
568.83	55210.90
568.99	55182.81
569.15	55229.62
569.32	55147.70
569.48	54869.18
569.64	54588.31
569.81	54534.48
569.97	54333.20
570.13	54443.20
570.30	54000.84
570.46	53425.07
570.62	53003.77
570.78	52917.17
570.95	53179.31
571.11	54080.42
571.27	54143.61
571.43	54412.77
571.60	54595.34
571.76	54897.27
571.92	54930.03
572.09	55093.87
572.25	54995.57
572.41	54944.08
572.57	54899.61
572.74	54747.47
572.90	54408.09
573.06	54447.88
573.22	54616.40
573.38	54656.19
573.55	54426.82
573.71	54513.42
573.87	54721.72
574.03	54482.99
574.20	54246.60
574.36	53954.03
574.52	53911.90
574.68	53773.81
574.84	53425.07
575.01	53001.43
575.17	52945.26
575.33	52982.71
575.49	53188.67
575.65	53396.98
575.82	53237.83
575.98	52968.66
576.14	53602.95
576.30	53389.96
576.46	53769.13
576.62	53769.13
576.79	53408.68
576.95	53073.99
577.11	53272.93
577.27	53160.59
577.43	53141.86
577.59	52959.30
577.75	52584.82
577.92	51957.55
578.08	51679.03
578.24	51693.07
578.40	52165.86
578.56	52313.31
578.72	52219.69
578.88	52526.30
579.04	52992.07
579.21	53216.76
579.37	52886.74
579.53	53048.24
579.69	52767.38
579.85	53052.92
580.01	52683.12
580.17	52317.99
580.33	52254.80
580.49	52299.27
580.65	52725.25
580.82	52800.15
580.98	52963.98
581.14	52533.32
581.30	53090.37
581.46	52694.82
581.62	53062.29
581.78	52800.15
581.94	52921.85
582.10	53151.23
582.26	52973.34
582.42	52896.11
582.58	53176.97
582.74	52750.99
582.90	52865.68
583.06	52680.78
583.22	52851.64
583.38	52718.23
583.54	52390.55
583.70	52603.54
583.86	52247.78
584.02	52327.36
584.18	52570.77
584.34	52638.65
584.50	52264.16
584.66	52238.42
584.82	51882.66
584.98	51611.15
585.14	51360.72
