SpectraSuite Data File
++++++++++++++++++++++++++++++++++++
Date: Mon Oct 07 14:54:00 GMT-05:00 2013
User: price-jones
Dark Spectrum Present: No
Reference Spectrum Present: No
Number of Sampled Component Spectra: 1
Spectrometers: USB2+H05261
Integration Time (usec): 100000 (USB2+H05261)
Spectra Averaged: 1 (USB2+H05261)
Boxcar Smoothing: 0 (USB2+H05261)
Correct for Electrical Dark: No (USB2+H05261)
Strobe/Lamp Enabled: No (USB2+H05261)
Correct for Detector Non-linearity: No (USB2+H05261)
Correct for Stray Light: No (USB2+H05261)
Number of Pixels in Processed Spectrum: 2048
>>>>>Begin Processed Spectral Data<<<<<
365.73	0.00
365.92	0.00
366.12	0.00
366.32	0.00
366.52	0.00
366.72	0.00
366.91	0.00
367.11	0.00
367.31	0.00
367.51	0.00
367.70	0.00
367.90	0.00
368.10	0.00
368.30	0.00
368.49	0.00
368.69	0.00
368.89	0.00
369.09	0.00
369.28	0.00
369.48	0.00
369.68	0.00
369.87	0.00
370.07	0.00
370.27	0.00
370.47	603.86
370.66	3293.13
370.86	3892.31
371.06	4411.91
371.25	4484.47
371.45	3927.42
371.65	3688.68
371.84	3222.92
372.04	3583.36
372.24	3955.51
372.44	4070.19
372.63	4025.72
372.83	3749.54
373.03	3384.41
373.22	3080.14
373.42	3157.38
373.62	3569.32
373.81	4049.13
374.01	3901.67
374.21	3695.71
374.40	3321.22
374.60	3599.74
374.79	3873.59
374.99	4636.60
375.19	4856.61
375.38	5116.41
375.58	4629.58
375.78	4461.06
375.97	4669.37
376.17	4704.48
376.37	4882.36
376.56	4837.89
376.76	5191.31
376.95	5575.16
377.15	6015.18
377.35	6319.45
377.54	6333.49
377.74	6551.16
377.93	6682.23
378.13	6464.56
378.33	6092.41
378.52	5701.54
378.72	5331.74
378.91	5373.87
379.11	5137.48
379.31	5093.01
379.50	4933.85
379.70	5366.85
379.89	5856.02
380.09	6179.01
380.28	6518.39
380.48	6408.39
380.68	6310.08
380.87	6267.95
381.07	5912.19
381.26	5472.17
381.46	4938.53
381.65	4767.67
381.85	4566.39
382.04	4325.31
382.24	4154.45
382.43	3946.14
382.63	3854.86
382.83	4065.51
383.02	4018.70
383.22	3822.09
383.41	4086.58
383.61	4297.22
383.80	4807.46
384.00	5357.49
384.19	6033.90
384.39	6392.00
384.58	6410.73
384.78	6296.04
384.97	6251.57
385.17	5959.00
385.36	5591.54
385.56	5313.02
385.75	5640.69
385.95	6164.97
386.14	6581.59
386.34	6415.41
386.53	6394.34
386.72	5762.40
386.92	5907.51
387.11	6340.51
387.31	6450.52
387.50	6684.57
387.70	6289.02
387.89	6073.69
388.09	6246.89
388.28	6246.89
388.48	6300.72
388.67	6827.34
388.86	7452.27
389.06	8121.66
389.25	8369.76
389.45	8418.91
389.64	8517.21
389.84	8390.82
390.03	8133.36
390.22	8219.96
390.42	8456.36
390.61	9123.41
390.81	9511.94
391.00	9736.63
391.19	9769.40
391.39	9404.27
391.58	8943.19
391.78	8306.56
391.97	8072.51
392.16	7623.12
392.36	6916.28
392.55	5600.90
392.75	4472.76
392.94	3728.47
393.13	3707.41
393.33	4072.53
393.52	5284.93
393.71	6548.82
393.91	7595.04
394.10	8060.80
394.29	8798.07
394.49	9610.24
394.68	10380.28
394.88	10321.76
395.07	10499.64
395.26	10406.02
395.46	10258.57
395.65	9788.12
395.84	8475.08
396.04	7148.00
396.23	5657.07
396.42	4898.74
396.62	4624.90
396.81	5357.49
397.00	6932.67
397.19	8798.07
397.39	10413.04
397.58	11620.76
397.77	12472.71
397.97	12912.74
398.16	13069.55
398.35	13345.73
398.55	13727.24
398.74	14370.89
398.93	14864.74
399.12	14291.31
399.32	13708.52
399.51	14310.04
399.70	15101.14
399.90	14885.81
400.09	15192.42
400.28	14761.76
400.47	15007.52
400.67	15871.17
400.86	16257.36
401.05	15887.56
401.24	16133.31
401.44	16563.97
401.63	16306.51
401.82	16547.59
402.01	16493.76
402.21	16779.30
402.40	16915.05
402.59	16453.97
402.78	15536.48
402.97	15400.72
403.17	15517.75
403.36	17043.78
403.55	17315.28
403.74	17764.67
403.93	16863.56
404.13	15576.27
404.32	14944.32
404.51	15728.40
404.70	16966.54
404.89	17078.89
405.09	16933.78
405.28	16498.44
405.47	16201.19
405.66	16252.68
405.85	15630.10
406.05	15487.32
406.24	15681.59
406.43	16353.32
406.62	17310.60
406.81	17085.91
407.00	16262.04
407.20	16159.06
407.39	16252.68
407.58	16802.71
407.77	17413.59
407.96	18082.98
408.15	18401.29
408.34	18714.92
408.54	19276.65
408.73	19131.54
408.92	19103.45
409.11	18462.15
409.30	17532.95
409.49	16299.49
409.68	15131.56
409.87	15094.11
410.07	16222.25
410.26	17263.79
410.45	18438.74
410.64	18628.32
410.83	19101.11
411.02	19953.07
411.21	20587.35
411.40	20355.64
411.59	20369.68
411.78	20156.69
411.98	20107.54
412.17	20414.15
412.36	19777.53
412.55	19892.21
412.74	19379.64
412.93	19035.58
413.12	19164.31
413.31	21092.91
413.50	21165.46
413.69	21523.57
413.88	20943.11
414.07	19920.30
414.26	20163.72
414.45	21048.44
414.64	21268.45
414.83	21247.38
415.02	20926.73
415.22	20996.95
415.41	21289.51
415.60	21766.98
415.79	22897.46
415.98	23480.25
416.17	23304.71
416.36	22778.09
416.55	22621.28
416.74	21912.10
416.93	20762.89
417.12	20856.51
417.31	21488.46
417.50	21795.07
417.69	22108.70
417.88	22111.04
418.07	21961.25
418.26	21865.28
418.45	21818.47
418.64	22611.92
418.83	23527.06
419.02	23218.11
419.21	23089.38
419.39	22185.94
419.58	21069.50
419.77	20744.17
419.96	21893.37
420.15	23281.31
420.34	23880.49
420.53	24657.54
420.72	25013.31
420.91	24744.14
421.10	24444.56
421.29	24416.47
421.48	23543.45
421.67	24460.94
421.86	24130.92
422.05	22530.00
422.24	19983.49
422.43	19606.67
422.61	21839.54
422.80	23821.97
422.99	23742.39
423.18	22745.33
423.37	22389.56
423.56	22485.53
423.75	22745.33
423.94	23360.89
424.13	21916.78
424.32	22333.39
424.50	22597.87
424.69	22284.24
424.88	22356.80
425.07	22125.08
425.26	22001.04
425.45	21666.34
425.64	21553.99
425.83	21322.28
426.01	22792.14
426.20	23236.84
426.39	23026.19
426.58	21418.24
426.77	19875.83
426.96	19309.42
427.15	19665.18
427.33	21413.56
427.52	22431.69
427.71	22202.32
427.90	22054.87
428.09	21975.29
428.28	21673.36
428.46	20765.23
428.65	20552.24
428.84	20730.12
429.03	21493.14
429.22	20332.23
429.40	19176.01
429.59	17245.07
429.78	14839.00
429.97	15140.93
430.16	15410.09
430.34	15751.81
430.53	15578.61
430.72	15845.43
430.91	17460.40
431.10	20531.18
431.28	24470.30
431.47	26398.90
431.66	26527.63
431.85	24517.11
432.03	22427.01
432.22	21029.71
432.41	22139.13
432.60	24926.71
432.79	25612.48
432.97	26426.99
433.16	25706.10
433.35	23669.84
433.54	20954.82
433.72	19747.10
433.91	20292.44
434.10	22384.88
434.28	24301.78
434.47	25671.00
434.66	25032.03
434.85	24706.70
435.03	24290.08
435.22	25088.20
435.41	26616.57
435.59	26115.70
435.78	26916.16
435.97	27262.56
436.16	27878.12
436.34	26965.31
436.53	26993.40
436.72	26941.91
436.90	25469.71
437.09	25214.59
437.28	24989.90
437.46	25991.65
437.65	25589.08
437.84	24151.99
438.02	21996.35
438.21	21584.42
438.40	22799.16
438.58	24924.36
438.77	25942.50
438.96	25972.92
439.14	26686.79
439.33	27569.17
439.52	28484.32
439.70	27508.32
439.89	26953.61
440.08	26286.56
440.26	26003.35
440.45	26541.68
440.63	28957.11
440.82	30202.27
441.01	29785.66
441.19	29869.92
441.38	29851.19
441.57	31173.60
441.75	31723.62
441.94	31653.40
442.12	31243.81
442.31	32325.14
442.50	31747.03
442.68	31854.69
442.87	31232.11
443.05	30948.90
443.24	30899.75
443.43	31840.65
443.61	32100.45
443.80	32699.62
443.98	31026.14
444.17	30780.39
444.35	32638.77
444.54	32816.65
444.73	32451.53
444.91	31398.29
445.10	30171.85
445.28	28830.72
445.47	28917.32
445.65	28673.90
445.84	29813.74
446.02	30642.29
446.21	30618.89
446.39	30572.08
446.58	31512.97
446.77	31885.12
446.95	32400.04
447.14	33109.22
447.32	33764.57
447.51	32936.02
447.69	32060.66
447.88	31433.39
448.06	31887.46
448.25	32030.23
448.43	32528.77
448.62	32055.98
448.80	31732.98
448.99	32020.87
449.17	32336.84
449.36	32236.20
449.54	33139.65
449.73	33881.60
449.91	34443.32
450.10	35431.03
450.28	35674.45
450.46	35559.76
450.65	35742.32
450.83	34881.00
451.02	34087.56
451.20	34476.09
451.39	33977.56
451.57	34075.86
451.76	34330.98
451.94	33928.41
452.13	33422.85
452.31	31796.18
452.49	30015.03
452.68	30698.47
452.86	30632.93
453.05	30848.26
453.23	32067.68
453.42	33010.92
453.60	33195.82
453.78	33640.52
453.97	33977.56
454.15	33790.31
454.34	33081.13
454.52	32716.01
454.70	32423.44
454.89	33041.34
455.07	32648.13
455.26	32886.87
455.44	34246.72
455.62	34904.41
455.81	35337.41
455.99	34478.43
456.17	34335.66
456.36	34621.20
456.54	35400.60
456.73	35735.30
456.91	36617.68
457.09	36290.01
457.28	36734.71
457.46	35861.69
457.64	35271.87
457.83	34260.76
458.01	33214.54
458.19	34611.84
458.38	34558.01
458.56	35871.05
458.74	35470.82
458.93	34778.02
459.11	34855.26
459.29	34644.61
459.48	34555.67
459.66	34293.53
459.84	35063.57
460.03	35463.80
460.21	35519.97
460.39	36374.27
460.57	36315.75
460.76	36730.03
460.94	36952.38
461.12	36245.54
461.31	36608.32
461.49	36243.20
461.67	36397.67
461.85	37179.41
462.04	37046.00
462.22	37670.92
462.40	37289.42
462.59	36957.06
462.77	37134.94
462.95	36741.73
463.13	36299.37
463.32	36538.10
463.50	35791.47
463.68	35896.80
463.86	36189.36
464.05	35531.67
464.23	34658.65
464.41	34995.69
464.59	34284.17
464.78	36130.85
464.96	35784.45
465.14	35009.73
465.32	36397.67
465.50	37055.36
465.69	37282.39
465.87	36912.59
466.05	35356.13
466.23	34022.03
466.41	33560.94
466.60	34469.07
466.78	34520.56
466.96	35255.49
467.14	35381.88
467.32	36238.51
467.51	36130.85
467.69	34712.49
467.87	35056.54
468.05	36006.80
468.23	36329.80
468.41	35849.99
468.60	36098.08
468.78	36250.22
468.96	36081.70
469.14	36425.76
469.32	36800.24
469.50	34920.79
469.69	35742.32
469.87	34707.80
470.05	34443.32
470.23	35028.46
470.41	34459.71
470.59	35622.95
470.77	35285.92
470.95	35974.03
471.14	36470.23
471.32	36552.15
471.50	38611.82
471.68	38845.87
471.86	39105.67
472.04	39145.46
472.22	39084.61
472.40	37289.42
472.58	36872.80
472.77	36526.40
472.95	37359.63
473.13	38052.43
473.31	37464.96
473.49	37509.43
473.67	37961.15
473.85	38782.68
474.03	39505.90
474.21	39641.65
474.39	39807.83
474.57	40259.55
474.75	39988.05
474.93	39538.67
475.12	39248.44
475.30	39007.37
475.48	39445.05
475.66	39416.96
475.84	38899.70
476.02	38831.83
476.20	38078.18
476.38	39171.21
476.56	40224.45
476.74	40830.65
476.92	40699.58
477.10	41551.53
477.28	42068.79
477.46	42609.45
477.64	43122.03
477.82	42918.40
478.00	43440.34
478.18	42522.85
478.36	42342.63
478.54	42600.09
478.72	42909.04
478.90	43901.43
479.08	44664.44
479.26	45251.92
479.44	45287.03
479.62	45076.38
479.80	44851.69
479.98	45298.73
480.16	45390.01
480.34	44720.62
480.52	45275.32
480.70	45441.50
480.88	45495.33
481.06	46270.05
481.24	46487.72
481.41	47655.65
481.59	47948.21
481.77	47665.01
481.95	47124.35
482.13	47278.82
482.31	47206.26
482.49	47660.33
482.67	47414.57
482.85	47751.61
483.03	48477.18
483.21	48884.43
483.39	48732.29
483.57	47910.77
483.74	47583.09
483.92	47920.13
484.10	48062.90
484.28	48863.36
484.46	49626.38
484.64	50071.08
484.82	48940.60
485.00	48751.02
485.18	47791.40
485.35	46213.88
485.53	43550.35
485.71	39636.97
485.89	39021.41
486.07	41329.18
486.25	44758.06
486.43	46810.71
486.61	47814.80
486.78	47232.01
486.96	47407.55
487.14	49373.60
487.32	49993.84
487.50	50925.38
487.68	51657.96
487.85	52121.39
488.03	52175.22
488.21	51833.50
488.39	51215.60
488.57	50677.28
488.75	50155.34
488.92	51152.41
489.10	53298.68
489.28	54417.46
489.46	55147.70
489.64	54894.92
489.81	55173.45
489.99	54712.36
490.17	54733.43
490.35	55178.13
490.53	54527.46
490.70	54188.08
490.88	54384.69
491.06	55196.85
491.24	55377.08
491.41	54312.13
491.59	52633.97
491.77	51835.84
491.95	52928.87
492.13	54218.51
492.30	55147.70
492.48	56076.90
492.66	56577.77
492.84	56392.87
493.01	56240.73
493.19	55723.47
493.37	55557.30
493.54	55058.76
493.72	55751.56
493.90	56474.79
494.08	57296.31
494.25	57705.91
494.43	57647.39
494.61	58188.06
494.79	58258.27
494.96	58059.33
495.14	57572.50
495.32	56622.24
495.49	56207.97
495.67	56828.21
495.85	58159.97
496.02	58831.71
496.20	58536.80
496.38	58026.56
496.55	57659.10
496.73	58370.62
496.91	58436.16
497.09	58944.05
497.26	59091.51
497.44	58688.93
497.62	58129.54
497.79	57422.70
497.97	56357.76
498.14	56238.39
498.32	57464.83
498.50	58049.97
498.67	58955.75
498.85	58712.34
499.03	58897.24
499.20	58939.37
499.38	58981.50
499.56	58805.96
499.73	58438.50
499.91	57982.09
500.08	57914.22
500.26	56961.62
500.44	57588.88
500.61	57932.94
500.79	57965.71
500.97	57513.98
501.14	57319.72
501.32	57088.01
501.49	57116.09
501.67	57268.23
501.84	57907.19
502.02	58279.34
502.20	58447.86
502.37	58482.97
502.55	58532.12
502.72	59171.08
502.90	59725.79
503.07	59222.58
503.25	59068.10
503.43	58101.46
503.60	57565.48
503.78	57172.27
503.95	57088.01
504.13	58599.99
504.30	59260.02
504.48	59222.58
504.65	58628.08
504.83	58948.73
505.01	59522.16
505.18	59669.62
505.36	60264.11
505.53	60362.42
505.71	60664.35
505.88	60767.33
506.06	60062.83
506.23	59629.83
506.41	59297.47
506.58	59536.21
506.76	59458.97
506.93	59412.16
507.11	59210.87
507.28	59372.37
507.46	58871.49
507.63	58515.73
507.81	58375.30
507.98	58450.20
508.16	59302.15
508.33	59714.09
508.50	59833.46
508.68	60322.63
508.85	60795.42
509.03	60786.05
509.20	60453.70
509.38	59866.22
509.55	59157.04
509.73	59091.51
509.90	59772.60
510.08	60027.72
510.25	59833.46
510.42	59571.32
510.60	59568.97
510.77	60126.02
510.95	60608.17
511.12	60488.80
511.30	60774.35
511.47	61048.19
511.64	60961.59
511.82	60734.56
511.99	59898.99
512.17	59531.53
512.34	59269.39
512.51	59231.94
512.69	59344.28
512.86	59634.51
513.04	59990.27
513.21	59807.71
513.38	59749.20
513.56	59147.68
513.73	58651.48
513.90	58735.74
514.08	58812.98
514.25	59189.81
514.43	59250.66
514.60	59290.45
514.77	59774.94
514.95	59573.66
515.12	59664.94
515.29	59817.07
515.47	60472.42
515.64	60580.09
515.81	59971.55
515.99	59423.86
516.16	58234.87
516.33	56207.97
516.51	54646.83
516.68	53900.20
516.85	53687.21
517.03	54031.27
517.20	56353.08
517.37	58756.81
517.54	59442.59
517.72	59264.70
517.89	57073.96
518.06	54569.59
518.24	55126.64
518.41	57066.94
518.58	58291.04
518.75	58162.31
518.93	58635.10
519.10	58403.39
519.27	58805.96
519.45	58911.28
519.62	59859.20
519.79	60205.60
519.96	59997.29
520.14	59482.37
520.31	58805.96
520.48	58719.36
520.65	58965.12
520.83	59915.37
521.00	60383.48
521.17	59835.80
521.34	59524.50
521.52	59962.18
521.69	60341.35
521.86	60678.39
522.03	60493.49
522.20	59245.98
522.38	58099.12
522.55	58300.40
522.72	58960.44
522.89	59070.44
523.07	59187.47
523.24	59496.42
523.41	60589.45
523.58	60544.98
523.75	61020.11
523.92	60818.82
524.10	60769.67
524.27	60863.29
524.44	60680.73
524.61	60348.37
524.78	60285.18
524.96	60245.39
525.13	60088.57
525.30	60329.65
525.47	61013.08
525.64	60919.46
525.81	60142.41
525.98	58759.15
526.16	57462.49
526.33	56924.17
526.50	56636.28
526.67	56069.87
526.84	56673.73
527.01	57794.85
527.18	58487.65
527.36	59077.46
527.53	60236.03
527.70	60395.18
527.87	59730.47
528.04	59538.55
528.21	59744.51
528.38	60423.27
528.55	61010.74
528.72	61071.60
528.89	61478.85
529.07	61071.60
529.24	60303.90
529.41	59730.47
529.58	59220.23
529.75	59606.42
529.92	59955.16
530.09	60453.70
530.26	60767.33
530.43	60860.95
530.60	60821.16
530.77	61226.07
530.94	61270.54
531.11	60884.36
531.28	60329.65
531.46	60390.50
531.63	60296.88
531.80	60280.50
531.97	59889.63
532.14	59299.81
532.31	58344.87
532.48	57612.29
532.65	57668.46
532.82	58534.46
532.99	59402.80
533.16	59805.37
533.33	60472.42
533.50	60149.43
533.67	59334.92
533.84	59086.82
534.01	59496.42
534.18	59494.08
534.35	59664.94
534.52	59512.80
534.69	59952.82
534.86	60107.30
535.03	60226.66
535.20	60825.84
535.37	61174.58
535.54	61212.03
535.71	60846.91
535.88	60523.91
536.05	59662.60
536.22	59629.83
536.38	59334.92
536.55	58759.15
536.72	58272.32
536.89	58281.68
537.06	59065.76
537.23	59913.03
537.40	59962.18
537.57	59814.73
537.74	59604.08
537.91	59735.15
538.08	59777.28
538.25	59749.20
538.42	59863.88
538.59	59781.96
538.75	59166.40
538.92	59018.95
539.09	58922.99
539.26	58637.44
539.43	58653.82
539.60	58616.38
539.77	58571.91
539.94	58866.81
540.11	57911.88
540.28	57518.67
540.44	57439.09
540.61	57518.67
540.78	57848.68
540.95	58440.84
541.12	58714.68
541.29	59028.31
541.46	59063.42
541.62	59348.96
541.79	59047.04
541.96	58621.06
542.13	58508.71
542.30	58525.10
542.47	58838.73
542.63	58688.93
542.80	58454.88
542.97	58803.62
543.14	58450.20
543.31	58445.52
543.48	59135.98
543.64	59931.76
543.81	60041.76
543.98	59973.89
544.15	59363.01
544.32	58607.01
544.48	58684.25
544.65	59096.19
544.82	59496.42
544.99	59105.55
545.16	58782.55
545.32	58712.34
545.49	59363.01
545.66	59653.23
545.83	59330.24
546.00	59114.91
546.16	58684.25
546.33	58775.53
546.50	58798.94
546.67	59327.90
546.83	58850.43
547.00	58852.77
547.17	58326.15
547.34	57649.74
547.50	57680.16
547.67	58150.61
547.84	57944.64
548.00	58534.46
548.17	58908.94
548.34	58578.93
548.51	58850.43
548.67	58681.91
548.84	58742.77
549.01	58672.55
549.18	58702.98
549.34	58525.10
549.51	58429.13
549.68	58520.41
549.84	58309.77
550.01	58152.95
550.18	58138.91
550.34	58106.14
550.51	58305.09
550.68	58403.39
550.84	57825.28
551.01	57883.79
551.18	57722.29
551.34	58080.39
551.51	58497.01
551.68	58728.72
551.84	58740.42
552.01	58632.76
552.18	58307.43
552.34	57612.29
552.51	57258.87
552.68	57333.76
552.84	57916.56
553.01	58113.16
553.18	57748.04
553.34	57925.92
553.51	57993.79
553.67	58365.94
553.84	58567.23
554.01	58141.25
554.17	58260.62
554.34	58274.66
554.51	58277.00
554.67	58660.85
554.84	58595.31
555.00	58085.07
555.17	58019.54
555.33	57954.00
555.50	57741.02
555.67	57710.59
555.83	57663.78
556.00	57471.85
556.16	57350.15
556.33	56891.40
556.50	56741.61
556.66	56978.00
556.83	56449.04
556.99	56411.59
557.16	56839.91
557.32	57298.65
557.49	57546.75
557.65	57371.21
557.82	57256.53
557.98	57057.58
558.15	56767.35
558.32	56009.02
558.48	55096.21
558.65	55117.28
558.81	55679.00
558.98	56004.34
559.14	56104.98
559.31	56214.99
559.47	56130.73
559.64	55959.87
559.80	55585.38
559.97	55758.58
560.13	56170.52
560.30	56858.63
560.46	57609.95
560.63	57565.48
560.79	57336.10
560.96	57308.02
561.12	56259.46
561.29	55276.43
561.45	55341.97
561.61	55847.52
561.78	56236.05
561.94	56140.09
562.11	56074.55
562.27	55664.96
562.44	56102.64
562.60	56624.58
562.77	56741.61
562.93	56528.62
563.10	56570.75
563.26	55831.14
563.42	56048.81
563.59	56053.49
563.75	55707.09
563.92	55980.93
564.08	55669.64
564.24	55842.84
564.41	55978.59
564.57	55810.07
564.74	55819.44
564.90	55510.49
565.07	55590.06
565.23	55295.16
565.39	54583.63
565.56	54574.27
565.72	54244.26
565.88	54801.30
566.05	54770.88
566.21	54939.39
566.38	55007.27
566.54	55304.52
566.70	55529.21
566.87	55866.25
567.03	55700.07
567.19	56009.02
567.36	55725.81
567.52	55643.90
567.68	55316.22
567.85	54721.72
568.01	54326.17
568.17	53848.71
568.34	53738.70
568.50	54094.46
568.66	53895.52
568.83	54534.48
568.99	54504.06
569.15	54700.66
569.32	54497.03
569.48	54213.83
569.64	54113.19
569.81	53958.71
569.97	53666.14
570.13	53485.92
570.30	53200.38
570.46	52898.45
570.62	52444.38
570.78	52126.07
570.95	52287.57
571.11	53134.84
571.27	53378.26
571.43	53588.91
571.60	54167.02
571.76	54220.85
571.92	54078.08
572.09	54480.65
572.25	54508.74
572.41	54363.62
572.57	54192.76
572.74	54181.06
572.90	53539.75
573.06	53804.24
573.22	53928.28
573.38	53848.71
573.55	53848.71
573.71	53876.79
573.87	53832.32
574.03	53851.05
574.20	53724.66
574.36	53359.53
574.52	53317.40
574.68	52973.34
574.84	52952.28
575.01	51908.40
575.17	52205.65
575.33	52374.17
575.49	52554.39
575.65	52399.91
575.82	52514.60
575.98	52474.81
576.14	52842.27
576.30	52907.81
576.46	52919.51
576.62	52556.73
576.79	52786.10
576.95	52402.25
577.11	52451.41
577.27	52451.41
577.43	52809.51
577.59	52425.66
577.75	51650.94
577.92	51250.71
578.08	51145.39
578.24	51164.11
578.40	51430.93
578.56	51723.50
578.72	51620.52
578.88	51688.39
579.04	51976.28
579.21	52083.94
579.37	51899.04
579.53	52175.22
579.69	52060.54
579.85	52598.86
580.01	51964.57
580.17	51821.80
580.33	51150.07
580.49	51760.95
580.65	51536.26
580.82	52355.44
580.98	52041.81
581.14	52032.45
581.30	52093.30
581.46	51819.46
581.62	52100.32
581.78	52367.15
581.94	52374.17
582.10	52116.71
582.26	52362.46
582.42	52287.57
582.58	52442.04
582.74	51927.13
582.90	52123.73
583.06	51882.66
583.22	51910.74
583.38	51915.42
583.54	51913.08
583.70	51697.75
583.86	51997.34
584.02	51505.83
584.18	51819.46
584.34	51381.78
584.50	51812.44
584.66	51402.85
584.82	51168.79
584.98	51194.54
585.14	50791.97
