SpectraSuite Data File
++++++++++++++++++++++++++++++++++++
Date: Mon Oct 07 14:54:57 GMT-05:00 2013
User: price-jones
Dark Spectrum Present: No
Reference Spectrum Present: No
Number of Sampled Component Spectra: 1
Spectrometers: USB2+H05261
Integration Time (usec): 10000 (USB2+H05261)
Spectra Averaged: 1 (USB2+H05261)
Boxcar Smoothing: 0 (USB2+H05261)
Correct for Electrical Dark: No (USB2+H05261)
Strobe/Lamp Enabled: No (USB2+H05261)
Correct for Detector Non-linearity: No (USB2+H05261)
Correct for Stray Light: No (USB2+H05261)
Number of Pixels in Processed Spectrum: 2048
>>>>>Begin Processed Spectral Data<<<<<
365.73	0.00
365.92	0.00
366.12	0.00
366.32	0.00
366.52	0.00
366.72	0.00
366.91	0.00
367.11	0.00
367.31	0.00
367.51	0.00
367.70	0.00
367.90	0.00
368.10	0.00
368.30	0.00
368.49	0.00
368.69	0.00
368.89	0.00
369.09	0.00
369.28	0.00
369.48	0.00
369.68	0.00
369.87	0.00
370.07	0.00
370.27	0.00
370.47	795.78
370.66	4065.51
370.86	4671.71
371.06	5121.09
371.25	5029.81
371.45	4456.38
371.65	3962.53
371.84	3861.88
372.04	4194.24
372.24	4575.75
372.44	4760.65
372.63	4660.01
372.83	4107.64
373.03	3578.68
373.22	3531.87
373.42	3751.88
373.62	4411.91
373.81	4739.58
374.01	4777.03
374.21	4023.38
374.40	3801.03
374.60	4128.70
374.79	4699.80
374.99	5624.31
375.19	5881.77
375.38	5572.82
375.58	5451.11
375.78	5352.81
375.97	5303.65
376.17	5540.05
376.37	5612.60
376.56	5937.94
376.76	6122.84
376.95	6558.18
377.15	6810.96
377.35	7325.88
377.54	7449.93
377.74	7824.41
377.93	7838.45
378.13	7461.63
378.33	6960.75
378.52	6558.18
378.72	6464.56
378.91	6078.37
379.11	6010.50
379.31	5727.29
379.50	5905.17
379.70	6246.89
379.89	6939.69
380.09	7290.77
380.28	7695.68
380.48	7555.25
380.68	7543.55
380.87	7297.79
381.07	6567.54
381.26	6188.38
381.46	5825.59
381.65	5458.13
381.85	5554.09
382.04	5130.45
382.24	4830.87
382.43	4744.27
382.63	4550.00
382.83	4685.75
383.02	4660.01
383.22	4615.54
383.41	4772.35
383.61	5238.12
383.80	5914.53
384.00	6698.61
384.19	7265.02
384.39	7845.48
384.58	7765.90
384.78	7419.50
384.97	7485.03
385.17	6984.16
385.36	6710.32
385.56	6396.68
385.75	6848.41
385.95	7545.89
386.14	8056.12
386.34	7896.97
386.53	7435.88
386.72	7218.21
386.92	7295.45
387.11	7634.83
387.31	7925.05
387.50	7857.18
387.70	7651.21
387.89	7485.03
388.09	7639.51
388.28	7667.60
388.48	7772.92
388.67	8463.38
388.86	9455.76
389.06	10022.17
389.25	10218.78
389.45	10494.96
389.64	10476.24
389.84	10251.55
390.03	10129.84
390.22	10141.54
390.42	10668.16
390.61	11555.22
390.81	12112.27
391.00	12484.42
391.19	11939.07
391.39	11428.84
391.58	10949.03
391.78	10391.98
391.97	9907.49
392.16	9214.69
392.36	8065.49
392.55	6413.07
392.75	5186.63
392.94	4414.25
393.13	4528.94
393.33	5621.97
393.52	7035.65
393.71	8549.98
393.91	9434.70
394.10	10132.18
394.29	11150.31
394.49	12177.81
394.68	12793.37
394.88	12926.78
395.07	13085.94
395.26	13200.62
395.46	12840.18
395.65	11861.84
395.84	10239.84
396.04	8580.40
396.23	7124.59
396.42	5930.92
396.62	6120.50
396.81	7363.33
397.00	9596.20
397.19	11576.29
397.39	13500.21
397.58	14967.73
397.77	15936.71
397.97	16276.09
398.16	16208.21
398.35	17013.35
398.55	17628.92
398.74	18607.26
398.93	18459.81
399.12	18272.56
399.32	17528.27
399.51	18235.11
399.70	20154.35
399.90	19197.07
400.09	19150.26
400.28	19192.39
400.47	19566.88
400.67	20262.02
400.86	20987.58
401.05	20746.51
401.24	20837.79
401.44	21664.00
401.63	21418.24
401.82	21546.97
402.01	21336.32
402.21	21486.12
402.40	21874.65
402.59	20685.65
402.78	19875.83
402.97	19819.66
403.17	20798.00
403.36	21792.73
403.55	22616.60
403.74	22927.89
403.93	21514.20
404.13	19910.94
404.32	19983.49
404.51	21589.10
404.70	22483.19
404.89	22239.77
405.09	21607.83
405.28	21277.81
405.47	21680.38
405.66	21479.10
405.85	20470.33
406.05	19985.83
406.24	20847.15
406.43	21614.85
406.62	22157.85
406.81	22366.16
407.00	21759.96
407.20	21039.08
407.39	21212.28
407.58	22686.81
407.77	23009.81
407.96	23531.75
408.15	23948.36
408.34	24332.21
408.54	25666.31
408.73	25151.40
408.92	25050.75
409.11	23978.79
409.30	22665.75
409.49	21060.14
409.68	20236.27
409.87	19758.80
410.07	21755.28
410.26	23520.04
410.45	24137.94
410.64	25228.63
410.83	25364.39
411.02	26560.40
411.21	27204.05
411.40	26377.84
411.59	26536.99
411.78	26696.15
411.98	26623.59
412.17	26869.35
412.36	26354.43
412.55	26246.77
412.74	25582.06
412.93	24596.69
413.12	25881.64
413.31	28315.80
413.50	28624.75
413.69	28697.31
413.88	27337.46
414.07	27089.36
414.26	28144.94
414.45	28680.92
414.64	27943.66
414.83	28268.99
415.02	28114.52
415.22	28252.61
415.41	28914.98
415.60	30316.96
415.79	31213.38
415.98	31770.43
416.17	31587.87
416.36	30616.55
416.55	30012.69
416.74	29298.83
416.93	27714.28
417.12	28554.54
417.31	28950.09
417.50	30129.72
417.69	30871.67
417.88	30396.54
418.07	30459.73
418.26	29310.53
418.45	30541.65
418.64	31456.80
418.83	32098.11
419.02	31316.37
419.21	30939.54
419.39	29830.13
419.58	28503.04
419.77	28652.84
419.96	30242.06
420.15	32222.16
420.34	32870.48
420.53	34216.29
420.72	34352.04
420.91	34354.38
421.10	33832.44
421.29	33277.74
421.48	31997.46
421.67	34057.14
421.86	32788.56
422.05	30190.57
422.24	27058.93
422.43	28219.84
422.61	31299.98
422.80	33240.29
422.99	32755.80
423.18	31461.48
423.37	31309.35
423.56	31615.96
423.75	32549.83
423.94	33362.00
424.13	31054.23
424.32	31211.04
424.50	30967.63
424.69	30810.81
424.88	31314.03
425.07	31337.43
425.26	31051.89
425.45	30424.62
425.64	29582.03
425.83	30560.37
426.01	32048.96
426.20	32617.71
426.39	32533.45
426.58	29516.50
426.77	27428.74
426.96	26335.71
427.15	28283.03
427.33	30761.66
427.52	30693.79
427.71	31105.72
427.90	31033.16
428.09	30869.33
428.28	30272.49
428.46	29095.20
428.65	29130.31
428.84	30555.69
429.03	30293.55
429.22	28407.08
429.40	26876.37
429.59	23814.95
429.78	22115.72
429.97	22328.71
430.16	22302.96
430.34	22059.55
430.53	22190.62
430.72	23112.79
430.91	26483.16
431.10	31075.29
431.28	35641.68
431.47	37799.65
431.66	37296.44
431.85	33565.62
432.03	31171.25
432.22	31501.27
432.41	33502.43
432.60	35875.73
432.79	36879.82
432.97	37937.74
433.16	36144.89
433.35	32947.72
433.54	29120.95
433.72	28519.43
433.91	30513.56
434.10	33912.02
434.28	35948.29
434.47	37528.15
434.66	35381.88
434.85	35175.91
435.03	35250.81
435.22	36484.27
435.41	37874.55
435.59	38429.26
435.78	38852.89
435.97	39833.58
436.16	40074.65
436.34	38972.26
436.53	38022.00
436.72	38663.31
436.90	37163.03
437.09	36652.79
437.28	36800.24
437.46	38436.28
437.65	36863.44
437.84	34326.30
438.02	31999.80
438.21	32847.08
438.40	34064.16
438.58	37102.17
438.77	38213.93
438.96	38485.43
439.14	39885.07
439.33	40926.61
439.52	41373.65
439.70	39786.77
439.89	38993.32
440.08	37930.72
440.26	38604.80
440.45	40240.83
440.63	42920.74
440.82	44215.06
441.01	42864.57
441.19	43349.06
441.38	43861.64
441.57	45186.38
441.75	45380.65
441.94	45483.63
442.12	46026.63
442.31	46962.85
442.50	46471.34
442.68	45364.26
442.87	44458.48
443.05	44535.71
443.24	46141.32
443.43	46562.62
443.61	46845.82
443.80	46824.76
443.98	44856.37
444.17	45619.38
444.35	47732.89
444.54	47789.06
444.73	46948.81
444.91	45024.89
445.10	43199.27
445.28	42586.05
445.47	42153.05
445.65	42827.12
445.84	44133.14
446.02	44844.66
446.21	45247.24
446.39	45240.21
446.58	45787.90
446.77	46972.21
446.95	47327.97
447.14	48477.18
447.32	48996.77
447.51	47882.68
447.69	46677.30
447.88	46134.30
448.06	46745.18
448.25	47606.50
448.43	47615.86
448.62	46918.38
448.80	46941.78
448.99	46719.43
449.17	47217.97
449.36	47763.31
449.54	49013.16
449.73	49317.43
449.91	49851.07
450.10	51152.41
450.28	51344.33
450.46	50979.21
450.65	51566.68
450.83	50813.03
451.02	49951.71
451.20	49635.74
451.39	50078.10
451.57	49958.73
451.76	49265.94
451.94	49151.25
452.13	48308.66
452.31	45867.48
452.49	44872.75
452.68	46454.95
452.86	46394.10
453.05	46740.50
453.23	48446.75
453.42	49008.48
453.60	49406.37
453.78	50499.40
453.97	50042.99
454.15	49549.14
454.34	48863.36
454.52	48931.24
454.70	48374.19
454.89	49308.07
455.07	49429.77
455.26	50363.65
455.44	51323.27
455.62	51304.54
455.81	51463.70
455.99	50745.15
456.17	50522.80
456.36	50759.20
456.54	51910.74
456.73	52051.17
456.91	52692.48
457.09	52563.75
457.28	53237.83
457.46	51536.26
457.64	50733.45
457.83	50522.80
458.01	49874.48
458.19	51421.57
458.38	51398.16
458.56	52142.45
458.74	52074.58
458.93	51405.19
459.11	50958.14
459.29	51365.40
459.48	51171.13
459.66	50829.41
459.84	51461.36
460.03	51395.82
460.21	51515.19
460.39	52905.47
460.57	52222.03
460.76	53338.47
460.94	53176.97
461.12	52734.61
461.31	52828.23
461.49	52605.88
461.67	52317.99
461.85	53755.08
462.04	53357.19
462.22	53521.03
462.40	53804.24
462.59	53020.16
462.77	52961.64
462.95	53352.51
463.13	53286.98
463.32	52371.83
463.50	52994.41
463.68	52912.49
463.86	53081.01
464.05	52687.80
464.23	51889.68
464.41	51323.27
464.59	51573.70
464.78	52949.94
464.96	52734.61
465.14	52137.77
465.32	53296.34
465.50	53989.14
465.69	53951.69
465.87	53422.73
466.05	52570.77
466.23	51019.00
466.41	50747.50
466.60	52449.06
466.78	51718.82
466.96	52156.50
467.14	53078.67
467.32	52935.90
467.51	53130.16
467.69	51756.27
467.87	52156.50
468.05	52900.79
468.23	53181.65
468.41	52779.08
468.60	53073.99
468.78	53563.16
468.96	53689.55
469.14	53993.82
469.32	53652.10
469.50	52617.58
469.69	52584.82
469.87	51786.69
470.05	52404.59
470.23	51737.54
470.41	52203.31
470.59	52935.90
470.77	53062.29
470.95	53308.04
471.14	54248.94
471.32	54358.94
471.50	55597.09
471.68	55564.32
471.86	55576.02
472.04	56343.72
472.22	55753.90
472.40	54426.82
472.58	54150.63
472.77	54426.82
472.95	54972.16
473.13	55288.13
473.31	54574.27
473.49	55248.35
473.67	55405.16
473.85	55784.33
474.03	56341.38
474.21	56226.69
474.39	57043.54
474.57	56743.95
474.75	56608.20
474.93	57034.17
475.12	55861.57
475.30	55985.61
475.48	56566.07
475.66	56535.64
475.84	55891.99
476.02	55781.99
476.20	55854.54
476.38	56271.16
476.56	56940.55
476.74	57471.85
476.92	57373.55
477.10	58066.35
477.28	58789.58
477.46	58834.05
477.64	58796.60
477.82	58824.68
478.00	58831.71
478.18	58920.65
478.36	58291.04
478.54	58576.59
478.72	58836.39
478.90	59592.38
479.08	59990.27
479.26	60072.19
479.44	60245.39
479.62	60198.58
479.80	59774.94
479.98	60308.58
480.16	60982.66
480.34	60764.99
480.52	60636.26
480.70	60383.48
480.88	60858.61
481.06	61153.52
481.24	61155.86
481.41	62028.88
481.59	62003.13
481.77	62134.20
481.95	61418.00
482.13	61467.15
482.31	61471.83
482.49	61958.66
482.67	62117.82
482.85	62480.60
483.03	62506.35
483.21	62471.24
483.39	62588.27
483.57	62197.40
483.74	62220.80
483.92	62078.03
484.10	62330.81
484.28	62965.09
484.46	63416.82
484.64	63707.04
484.82	62857.43
485.00	62412.73
485.18	61815.89
485.35	61497.58
485.53	58801.28
485.71	56252.44
485.89	57270.57
486.07	59166.40
486.25	60535.62
486.43	62274.63
486.61	61949.30
486.78	61956.32
486.96	62986.16
487.14	63512.78
487.32	64044.08
487.50	64231.32
487.68	64666.66
487.85	65223.71
488.03	65036.47
488.21	64362.39
488.39	64664.32
488.57	64226.64
488.75	64418.56
488.92	65118.38
489.10	65535.00
489.28	65535.00
489.46	65535.00
489.64	65535.00
489.81	65535.00
489.99	65535.00
490.17	65535.00
490.35	65535.00
490.53	65535.00
490.70	65535.00
490.88	65535.00
491.06	65535.00
491.24	65535.00
491.41	65535.00
491.59	65535.00
491.77	65535.00
491.95	65535.00
492.13	65535.00
492.30	65535.00
492.48	65535.00
492.66	65535.00
492.84	65535.00
493.01	65535.00
493.19	65535.00
493.37	65535.00
493.54	65535.00
493.72	65535.00
493.90	65535.00
494.08	65535.00
494.25	65535.00
494.43	65535.00
494.61	65535.00
494.79	65535.00
494.96	65535.00
495.14	65535.00
495.32	65535.00
495.49	65535.00
495.67	65535.00
495.85	65535.00
496.02	65535.00
496.20	65535.00
496.38	65535.00
496.55	65535.00
496.73	65535.00
496.91	65535.00
497.09	65535.00
497.26	65535.00
497.44	65535.00
497.62	65535.00
497.79	65535.00
497.97	65535.00
498.14	65535.00
498.32	65535.00
498.50	65535.00
498.67	65535.00
498.85	65535.00
499.03	65535.00
499.20	65535.00
499.38	65535.00
499.56	65535.00
499.73	65535.00
499.91	65535.00
500.08	65535.00
500.26	65535.00
500.44	65535.00
500.61	65535.00
500.79	65535.00
500.97	65535.00
501.14	65535.00
501.32	65535.00
501.49	65535.00
501.67	65535.00
501.84	65535.00
502.02	65535.00
502.20	65535.00
502.37	65535.00
502.55	65535.00
502.72	65535.00
502.90	65535.00
503.07	65535.00
503.25	65535.00
503.43	65535.00
503.60	65535.00
503.78	65535.00
503.95	65535.00
504.13	65535.00
504.30	65535.00
504.48	65535.00
504.65	65535.00
504.83	65535.00
505.01	65535.00
505.18	65535.00
505.36	65535.00
505.53	65535.00
505.71	65535.00
505.88	65535.00
506.06	65535.00
506.23	65535.00
506.41	65535.00
506.58	65535.00
506.76	65535.00
506.93	65535.00
507.11	65535.00
507.28	65535.00
507.46	65535.00
507.63	65535.00
507.81	65535.00
507.98	65535.00
508.16	65535.00
508.33	65535.00
508.50	65535.00
508.68	65535.00
508.85	65535.00
509.03	65535.00
509.20	65535.00
509.38	65535.00
509.55	65535.00
509.73	65535.00
509.90	65535.00
510.08	65535.00
510.25	65535.00
510.42	65535.00
510.60	65535.00
510.77	65535.00
510.95	65535.00
511.12	65535.00
511.30	65535.00
511.47	65535.00
511.64	65535.00
511.82	65535.00
511.99	65535.00
512.17	65535.00
512.34	65535.00
512.51	65535.00
512.69	65535.00
512.86	65535.00
513.04	65535.00
513.21	65535.00
513.38	65535.00
513.56	65535.00
513.73	65535.00
513.90	65535.00
514.08	65535.00
514.25	65535.00
514.43	65535.00
514.60	65535.00
514.77	65535.00
514.95	65535.00
515.12	65535.00
515.29	65535.00
515.47	65535.00
515.64	65535.00
515.81	65535.00
515.99	65535.00
516.16	65535.00
516.33	65535.00
516.51	65535.00
516.68	65535.00
516.85	65535.00
517.03	65535.00
517.20	65535.00
517.37	65535.00
517.54	65535.00
517.72	65535.00
517.89	65535.00
518.06	65535.00
518.24	65535.00
518.41	65535.00
518.58	65535.00
518.75	65535.00
518.93	65535.00
519.10	65535.00
519.27	65535.00
519.45	65535.00
519.62	65535.00
519.79	65535.00
519.96	65535.00
520.14	65535.00
520.31	65535.00
520.48	65535.00
520.65	65535.00
520.83	65535.00
521.00	65535.00
521.17	65535.00
521.34	65535.00
521.52	65535.00
521.69	65535.00
521.86	65535.00
522.03	65535.00
522.20	65535.00
522.38	65535.00
522.55	65535.00
522.72	65535.00
522.89	65535.00
523.07	65535.00
523.24	65535.00
523.41	65535.00
523.58	65535.00
523.75	65535.00
523.92	65535.00
524.10	65535.00
524.27	65535.00
524.44	65535.00
524.61	65535.00
524.78	65535.00
524.96	65535.00
525.13	65535.00
525.30	65535.00
525.47	65535.00
525.64	65535.00
525.81	65535.00
525.98	65535.00
526.16	65535.00
526.33	65535.00
526.50	65535.00
526.67	65535.00
526.84	65535.00
527.01	65535.00
527.18	65535.00
527.36	65535.00
527.53	65535.00
527.70	65535.00
527.87	65535.00
528.04	65535.00
528.21	65535.00
528.38	65535.00
528.55	65535.00
528.72	65535.00
528.89	65535.00
529.07	65535.00
529.24	65535.00
529.41	65535.00
529.58	65535.00
529.75	65535.00
529.92	65535.00
530.09	65535.00
530.26	65535.00
530.43	65535.00
530.60	65535.00
530.77	65535.00
530.94	65535.00
531.11	65535.00
531.28	65535.00
531.46	65535.00
531.63	65535.00
531.80	65535.00
531.97	65535.00
532.14	65535.00
532.31	65535.00
532.48	65535.00
532.65	65535.00
532.82	65535.00
532.99	65535.00
533.16	65535.00
533.33	65535.00
533.50	65535.00
533.67	65535.00
533.84	65535.00
534.01	65535.00
534.18	65535.00
534.35	65535.00
534.52	65535.00
534.69	65535.00
534.86	65535.00
535.03	65535.00
535.20	65535.00
535.37	65535.00
535.54	65535.00
535.71	65535.00
535.88	65535.00
536.05	65535.00
536.22	65535.00
536.38	65535.00
536.55	65535.00
536.72	65535.00
536.89	65535.00
537.06	65535.00
537.23	65535.00
537.40	65535.00
537.57	65535.00
537.74	65535.00
537.91	65535.00
538.08	65535.00
538.25	65535.00
538.42	65535.00
538.59	65535.00
538.75	65535.00
538.92	65535.00
539.09	65535.00
539.26	65535.00
539.43	65535.00
539.60	65535.00
539.77	65535.00
539.94	65535.00
540.11	65535.00
540.28	65535.00
540.44	65535.00
540.61	65535.00
540.78	65535.00
540.95	65535.00
541.12	65535.00
541.29	65535.00
541.46	65535.00
541.62	65535.00
541.79	65535.00
541.96	65535.00
542.13	65535.00
542.30	65535.00
542.47	65535.00
542.63	65535.00
542.80	65535.00
542.97	65535.00
543.14	65535.00
543.31	65535.00
543.48	65535.00
543.64	65535.00
543.81	65535.00
543.98	65535.00
544.15	65535.00
544.32	65535.00
544.48	65535.00
544.65	65535.00
544.82	65535.00
544.99	65535.00
545.16	65535.00
545.32	65535.00
545.49	65535.00
545.66	65535.00
545.83	65535.00
546.00	65535.00
546.16	65535.00
546.33	65535.00
546.50	65535.00
546.67	65535.00
546.83	65535.00
547.00	65535.00
547.17	65535.00
547.34	65535.00
547.50	65535.00
547.67	65535.00
547.84	65535.00
548.00	65535.00
548.17	65535.00
548.34	65535.00
548.51	65535.00
548.67	65535.00
548.84	65535.00
549.01	65535.00
549.18	65535.00
549.34	65535.00
549.51	65535.00
549.68	65535.00
549.84	65535.00
550.01	65535.00
550.18	65535.00
550.34	65535.00
550.51	65535.00
550.68	65535.00
550.84	65535.00
551.01	65535.00
551.18	65535.00
551.34	65535.00
551.51	65535.00
551.68	65535.00
551.84	65535.00
552.01	65535.00
552.18	65535.00
552.34	65535.00
552.51	65535.00
552.68	65535.00
552.84	65535.00
553.01	65535.00
553.18	65535.00
553.34	65535.00
553.51	65535.00
553.67	65535.00
553.84	65535.00
554.01	65535.00
554.17	65535.00
554.34	65535.00
554.51	65535.00
554.67	65535.00
554.84	65535.00
555.00	65535.00
555.17	65535.00
555.33	65535.00
555.50	65535.00
555.67	65535.00
555.83	65535.00
556.00	65535.00
556.16	65535.00
556.33	65535.00
556.50	65535.00
556.66	65535.00
556.83	65535.00
556.99	65535.00
557.16	65535.00
557.32	65535.00
557.49	65535.00
557.65	65535.00
557.82	65535.00
557.98	65535.00
558.15	65535.00
558.32	65535.00
558.48	65535.00
558.65	65535.00
558.81	65535.00
558.98	65535.00
559.14	65535.00
559.31	65535.00
559.47	65535.00
559.64	65535.00
559.80	65535.00
559.97	65535.00
560.13	65535.00
560.30	65535.00
560.46	65535.00
560.63	65535.00
560.79	65535.00
560.96	65535.00
561.12	65535.00
561.29	65535.00
561.45	65535.00
561.61	65535.00
561.78	65535.00
561.94	65535.00
562.11	65535.00
562.27	65535.00
562.44	65535.00
562.60	65535.00
562.77	65535.00
562.93	65535.00
563.10	65535.00
563.26	65535.00
563.42	65535.00
563.59	65535.00
563.75	65535.00
563.92	65535.00
564.08	65535.00
564.24	65535.00
564.41	65535.00
564.57	65535.00
564.74	65535.00
564.90	65535.00
565.07	65535.00
565.23	65535.00
565.39	65535.00
565.56	65535.00
565.72	65535.00
565.88	65535.00
566.05	65535.00
566.21	65535.00
566.38	65535.00
566.54	65535.00
566.70	65535.00
566.87	65535.00
567.03	65535.00
567.19	65535.00
567.36	65535.00
567.52	65535.00
567.68	65535.00
567.85	65535.00
568.01	65535.00
568.17	65535.00
568.34	65535.00
568.50	65535.00
568.66	65535.00
568.83	65535.00
568.99	65535.00
569.15	65535.00
569.32	65535.00
569.48	65535.00
569.64	65535.00
569.81	65535.00
569.97	65535.00
570.13	65535.00
570.30	65535.00
570.46	65535.00
570.62	65535.00
570.78	65535.00
570.95	65535.00
571.11	65535.00
571.27	65535.00
571.43	65535.00
571.60	65535.00
571.76	65535.00
571.92	65535.00
572.09	65535.00
572.25	65535.00
572.41	65535.00
572.57	65535.00
572.74	65535.00
572.90	65535.00
573.06	65535.00
573.22	65535.00
573.38	65535.00
573.55	65535.00
573.71	65535.00
573.87	65535.00
574.03	65535.00
574.20	65535.00
574.36	65535.00
574.52	65535.00
574.68	65535.00
574.84	65535.00
575.01	65535.00
575.17	65535.00
575.33	65535.00
575.49	65535.00
575.65	65535.00
575.82	65535.00
575.98	65535.00
576.14	65535.00
576.30	65535.00
576.46	65535.00
576.62	65535.00
576.79	65535.00
576.95	65535.00
577.11	65535.00
577.27	65535.00
577.43	65535.00
577.59	65535.00
577.75	65535.00
577.92	65535.00
578.08	65535.00
578.24	65535.00
578.40	65535.00
578.56	65535.00
578.72	65535.00
578.88	65535.00
579.04	65535.00
579.21	65535.00
579.37	65535.00
579.53	65535.00
579.69	65535.00
579.85	65535.00
580.01	65535.00
580.17	65535.00
580.33	65535.00
580.49	65535.00
580.65	65535.00
580.82	65535.00
580.98	65535.00
581.14	65535.00
581.30	65535.00
581.46	65535.00
581.62	65535.00
581.78	65535.00
581.94	65535.00
582.10	65535.00
582.26	65535.00
582.42	65535.00
582.58	65535.00
582.74	65535.00
582.90	65535.00
583.06	65535.00
583.22	65535.00
583.38	65535.00
583.54	65535.00
583.70	65535.00
583.86	65535.00
584.02	65535.00
584.18	65535.00
584.34	65535.00
584.50	65535.00
584.66	65535.00
584.82	65535.00
584.98	65535.00
