SpectraSuite Data File
++++++++++++++++++++++++++++++++++++
Date: Mon Oct 07 14:53:27 GMT-05:00 2013
User: price-jones
Dark Spectrum Present: No
Reference Spectrum Present: No
Number of Sampled Component Spectra: 1
Spectrometers: USB2+H05261
Integration Time (usec): 100000 (USB2+H05261)
Spectra Averaged: 1 (USB2+H05261)
Boxcar Smoothing: 0 (USB2+H05261)
Correct for Electrical Dark: No (USB2+H05261)
Strobe/Lamp Enabled: No (USB2+H05261)
Correct for Detector Non-linearity: No (USB2+H05261)
Correct for Stray Light: No (USB2+H05261)
Number of Pixels in Processed Spectrum: 2048
>>>>>Begin Processed Spectral Data<<<<<
365.73	0.00
365.92	0.00
366.12	0.00
366.32	0.00
366.52	0.00
366.72	0.00
366.91	0.00
367.11	0.00
367.31	0.00
367.51	0.00
367.70	0.00
367.90	0.00
368.10	0.00
368.30	0.00
368.49	0.00
368.69	0.00
368.89	0.00
369.09	0.00
369.28	0.00
369.48	0.00
369.68	0.00
369.87	0.00
370.07	0.00
370.27	0.00
370.47	629.60
370.66	3276.75
370.86	3801.03
371.06	4264.46
371.25	4255.09
371.45	3747.20
371.65	3393.78
371.84	3215.90
372.04	3311.86
372.24	3801.03
372.44	3967.21
372.63	3819.75
372.83	3730.81
373.03	3225.26
373.22	3002.91
373.42	3141.00
373.62	3576.34
373.81	3901.67
374.01	3908.69
374.21	3574.00
374.40	3241.64
374.60	3449.95
374.79	3833.80
374.99	4447.02
375.19	4877.68
375.38	5011.09
375.58	4461.06
375.78	4437.66
375.97	4648.30
376.17	4638.94
376.37	4711.50
376.56	4849.59
376.76	5064.92
376.95	5193.65
377.15	5841.98
377.35	5879.43
377.54	6225.82
377.74	6333.49
377.93	6492.65
378.13	6235.19
378.33	6080.71
378.52	5394.93
378.72	5308.34
378.91	5224.08
379.11	5076.62
379.31	4755.97
379.50	4903.42
379.70	5270.89
379.89	5865.38
380.09	6239.87
380.28	6359.24
380.48	6164.97
380.68	6134.54
380.87	5982.41
381.07	5621.97
381.26	5109.39
381.46	4861.29
381.65	4669.37
381.85	4578.09
382.04	4440.00
382.24	4091.26
382.43	3812.73
382.63	3679.32
382.83	3871.25
383.02	3859.54
383.22	3758.90
383.41	3782.31
383.61	4187.22
383.80	4711.50
384.00	5423.02
384.19	5916.87
384.39	6190.72
384.58	6146.25
384.78	6066.67
384.97	5963.68
385.17	5729.63
385.36	5399.62
385.56	5324.72
385.75	5408.98
385.95	5783.46
386.14	6492.65
386.34	6408.39
386.53	6211.78
386.72	5734.31
386.92	5764.74
387.11	6003.47
387.31	6532.44
387.50	6377.96
387.70	6015.18
387.89	6106.46
388.09	6024.54
388.28	6017.52
388.48	6237.53
388.67	6633.08
388.86	7478.01
389.06	7705.04
389.25	8449.33
389.45	8212.94
389.64	8269.11
389.84	8299.54
390.03	8084.21
390.22	8074.85
390.42	8362.73
390.61	8922.12
390.81	9535.34
391.00	9668.75
391.19	9451.08
391.39	9404.27
391.58	8784.03
391.78	8201.24
391.97	7894.63
392.16	7473.33
392.36	6841.39
392.55	5526.00
392.75	4362.76
392.94	3513.14
393.13	3529.53
393.33	4109.98
393.52	5245.14
393.71	6328.81
393.91	7405.46
394.10	7918.03
394.29	8865.95
394.49	9327.03
394.68	10204.74
394.88	10136.86
395.07	10675.18
395.26	10434.11
395.46	10031.54
395.65	9554.07
395.84	8421.25
396.04	6998.20
396.23	5769.42
396.42	4887.04
396.62	4821.50
396.81	5238.12
397.00	6855.43
397.19	8458.70
397.39	10232.82
397.58	11534.16
397.77	12191.85
397.97	12781.67
398.16	12744.22
398.35	13116.36
398.55	13664.05
398.74	14120.45
398.93	14492.60
399.12	14267.91
399.32	13710.86
399.51	13919.17
399.70	14932.62
399.90	14824.95
400.09	14883.47
400.28	14640.05
400.47	14850.70
400.67	15515.41
400.86	16051.39
401.05	15932.03
401.24	16016.29
401.44	16205.87
401.63	16102.89
401.82	16449.28
402.01	16231.62
402.21	16524.18
402.40	16688.02
402.59	16152.04
402.78	15382.00
402.97	14855.38
403.17	15365.62
403.36	16524.18
403.55	17128.04
403.74	17413.59
403.93	16636.53
404.13	15428.81
404.32	14803.89
404.51	15873.51
404.70	16954.84
404.89	17111.66
405.09	16769.94
405.28	16264.38
405.47	15976.50
405.66	16187.14
405.85	15604.35
406.05	15309.44
406.24	15800.96
406.43	16414.18
406.62	16727.81
406.81	16858.88
407.00	16400.13
407.20	15704.99
407.39	15854.79
407.58	16964.20
407.77	17453.37
407.96	17827.86
408.15	18317.03
408.34	18164.90
408.54	19049.62
408.73	19058.98
408.92	18827.27
409.11	18326.39
409.30	17455.72
409.49	16538.23
409.68	15407.75
409.87	14834.32
410.07	15770.53
410.26	16884.62
410.45	18129.79
410.64	18504.28
410.83	19152.60
411.02	19683.91
411.21	20327.55
411.40	20208.19
411.59	20613.10
411.78	20355.64
411.98	19836.04
412.17	20533.52
412.36	19723.69
412.55	20070.09
412.74	19620.71
412.93	18965.36
413.12	19250.91
413.31	20620.12
413.50	21078.86
413.69	21862.94
413.88	20809.70
414.07	20510.11
414.26	20343.94
414.45	21064.82
414.64	20931.41
414.83	21308.24
415.02	20819.07
415.22	20844.81
415.41	21741.24
415.60	21909.75
415.79	23026.19
415.98	23536.43
416.17	23510.68
416.36	22757.03
416.55	22373.18
416.74	21685.06
416.93	20898.64
417.12	21027.37
417.31	21259.09
417.50	21909.75
417.69	22445.74
417.88	22520.63
418.07	22089.98
418.26	21757.62
418.45	22185.94
418.64	22436.38
418.83	23550.47
419.02	23147.90
419.21	23016.83
419.39	22602.55
419.58	21118.65
419.77	21163.12
419.96	21809.11
420.15	23300.03
420.34	23960.06
420.53	24875.21
420.72	25010.96
420.91	25062.46
421.10	24229.23
421.29	24442.21
421.48	23433.44
421.67	24533.50
421.86	24271.36
422.05	22586.17
422.24	20437.56
422.43	19810.29
422.61	22150.83
422.80	23929.64
422.99	23929.64
423.18	22902.14
423.37	22635.32
423.56	22817.88
423.75	22637.66
423.94	23578.56
424.13	22375.52
424.32	22686.81
424.50	22478.50
424.69	22506.59
424.88	22611.92
425.07	22553.40
425.26	22342.75
425.45	22394.25
425.64	21553.99
425.83	21694.43
426.01	22991.08
426.20	23447.49
426.39	23239.18
426.58	21872.31
426.77	19791.57
426.96	19234.52
427.15	20067.75
427.33	21481.44
427.52	22764.05
427.71	22408.29
427.90	22562.76
428.09	21717.83
428.28	21919.12
428.46	20915.03
428.65	20760.55
428.84	20879.92
429.03	21652.30
429.22	20505.43
429.40	19262.61
429.59	17521.25
429.78	15412.43
429.97	15520.09
430.16	15981.18
430.34	15850.11
430.53	15845.43
430.72	16070.12
430.91	17729.56
431.10	20561.61
431.28	24805.00
431.47	26508.91
431.66	26824.88
431.85	24856.49
432.03	22778.09
432.22	21362.07
432.41	22768.73
432.60	24730.10
432.79	25947.18
432.97	26747.64
433.16	26590.83
433.35	23541.11
433.54	21163.12
433.72	20049.03
433.91	20919.71
434.10	23103.43
434.28	24842.45
434.47	25895.69
434.66	25764.62
434.85	25081.18
435.03	24702.01
435.22	25291.83
435.41	26967.65
435.59	26574.44
435.78	27080.00
435.97	28201.11
436.16	28048.98
436.34	27576.19
436.53	27447.46
436.72	27395.97
436.90	25937.82
437.09	25565.67
437.28	24816.70
437.46	26134.42
437.65	26150.81
437.84	24697.33
438.02	22209.34
438.21	22300.62
438.40	23599.62
438.58	25776.32
438.77	25907.39
438.96	26384.86
439.14	27594.92
439.33	28233.88
439.52	28739.44
439.70	27931.95
439.89	27246.18
440.08	26621.25
440.26	26728.92
440.45	27276.60
440.63	29277.76
440.82	30878.69
441.01	30443.35
441.19	30178.87
441.38	30890.39
441.57	31548.08
441.75	32046.62
441.94	32112.15
442.12	31976.40
442.31	32505.36
442.50	32210.45
442.68	32044.27
442.87	31718.94
443.05	31005.08
443.24	31892.14
443.43	32346.20
443.61	32872.82
443.80	33546.90
443.98	31536.38
444.17	31445.10
444.35	33291.78
444.54	33724.78
444.73	33450.94
444.91	31871.07
445.10	31157.21
445.28	29673.31
445.47	29146.69
445.65	29172.44
445.84	30490.16
446.02	31264.88
446.21	31489.57
446.39	31620.64
446.58	31943.63
446.77	32526.42
446.95	32800.27
447.14	33731.80
447.32	34242.04
447.51	33247.31
447.69	32697.28
447.88	32112.15
448.06	32615.37
448.25	33347.95
448.43	33436.89
448.62	32407.06
448.80	32378.97
448.99	33053.05
449.17	32919.63
449.36	32814.31
449.54	34230.33
449.73	34550.99
449.91	35178.25
450.10	36205.75
450.28	36622.36
450.46	36683.22
450.65	36577.89
450.83	35917.86
451.02	35445.07
451.20	35051.86
451.39	35363.15
451.57	34969.94
451.76	35276.55
451.94	34885.68
452.13	33895.64
452.31	32636.43
452.49	30946.56
452.68	31395.95
452.86	31861.71
453.05	32126.19
453.23	33003.89
453.42	33860.53
453.60	34630.57
453.78	34892.71
453.97	34391.83
454.15	35012.07
454.34	33406.47
454.52	33752.87
454.70	33130.28
454.89	33577.33
455.07	33514.13
455.26	34309.91
455.44	35494.22
455.62	36086.38
455.81	36116.81
455.99	36135.53
456.17	35693.17
456.36	35604.23
456.54	36776.84
456.73	36837.69
456.91	37195.79
457.09	37670.92
457.28	38188.18
457.46	36650.45
457.64	36325.11
457.83	35367.84
458.01	34735.89
458.19	35295.28
458.38	35414.65
458.56	36720.66
458.74	37081.11
458.93	35803.17
459.11	35922.54
459.29	35915.52
459.48	35716.58
459.66	36133.19
459.84	35962.33
460.03	36538.10
460.21	36687.90
460.39	37736.46
460.57	37361.97
460.76	37858.17
460.94	38209.25
461.12	37495.38
461.31	37237.92
461.49	37301.12
461.67	37443.89
461.85	38665.65
462.04	38462.02
462.22	38990.98
462.40	38347.34
462.59	38572.03
462.77	38141.37
462.95	38532.24
463.13	37799.65
463.32	37780.93
463.50	37418.14
463.68	37226.22
463.86	37462.61
464.05	36966.42
464.23	36458.52
464.41	36378.95
464.59	35461.46
464.78	37584.32
464.96	37144.30
465.14	36549.81
465.32	37874.55
465.50	38508.83
465.69	38595.43
465.87	38106.26
466.05	37296.44
466.23	35606.57
466.41	34675.04
466.60	35503.59
466.78	35971.69
466.96	36552.15
467.14	37287.07
467.32	37619.43
467.51	37357.29
467.69	35711.89
467.87	36290.01
468.05	37415.80
468.23	37581.98
468.41	37205.16
468.60	37427.51
468.78	37984.55
468.96	36755.77
469.14	37926.04
469.32	37862.85
469.50	36470.23
469.69	36715.98
469.87	36046.59
470.05	35838.28
470.23	36156.60
470.41	36072.34
470.59	36692.58
470.77	37127.92
470.95	37247.29
471.14	38103.92
471.32	38120.31
471.50	40172.96
471.68	40905.54
471.86	40821.28
472.04	40800.22
472.22	40926.61
472.40	38911.41
472.58	38583.73
472.77	38309.89
472.95	39115.03
473.13	40004.44
473.31	38974.60
473.49	39182.91
473.67	39754.00
473.85	39971.67
474.03	41209.81
474.21	40678.51
474.39	41284.71
474.57	41858.14
474.75	41654.51
474.93	41549.19
475.12	40751.07
475.30	40364.88
475.48	40683.19
475.66	41111.51
475.84	40849.37
476.02	40676.17
476.20	39901.45
476.38	40685.53
476.56	42139.00
476.74	42473.70
476.92	42501.79
477.10	43107.99
477.28	44172.93
477.46	44641.04
477.64	44893.82
477.82	44790.83
478.00	45029.57
478.18	44863.39
478.36	43831.21
478.54	44762.75
478.72	44577.84
478.90	45511.72
479.08	46653.90
479.26	46880.93
479.44	46960.51
479.62	46969.87
479.80	46834.12
479.98	46911.36
480.16	47789.06
480.34	46815.40
480.52	47545.64
480.70	47423.93
480.88	47241.37
481.06	48229.08
481.24	48423.34
481.41	49291.68
481.59	50251.30
481.77	49563.18
481.95	49169.97
482.13	48814.21
482.31	48903.15
482.49	49336.15
482.67	49380.62
482.85	49794.90
483.03	50003.20
483.21	50745.15
483.39	50457.27
483.57	50094.49
483.74	49591.27
483.92	50019.59
484.10	50068.74
484.28	50691.32
484.46	51206.24
484.64	51414.55
484.82	50836.44
485.00	50497.06
485.18	49932.99
485.35	48488.88
485.53	45455.54
485.71	41783.24
485.89	40779.15
486.07	43540.99
486.25	46476.02
486.43	48919.54
486.61	49511.69
486.78	49397.01
486.96	49633.40
487.14	51208.58
487.32	51952.87
487.50	52718.23
487.68	53389.96
487.85	53743.38
488.03	53883.81
488.21	53504.65
488.39	52919.51
488.57	52313.31
488.75	51983.30
488.92	52896.11
489.10	54677.25
489.28	56128.39
489.46	56526.28
489.64	56547.34
489.81	56837.57
489.99	56207.97
490.17	56186.90
490.35	56629.26
490.53	56067.53
490.70	55882.63
490.88	55835.82
491.06	56734.59
491.24	56727.56
491.41	55646.24
491.59	54267.66
491.77	53544.44
491.95	54630.44
492.13	55571.34
492.30	56474.79
492.48	57247.16
492.66	57949.32
492.84	57752.72
493.01	57659.10
493.19	57235.46
493.37	56938.21
493.54	56643.30
493.72	57572.50
493.90	58164.65
494.08	58777.87
494.25	59154.70
494.43	59192.15
494.61	59597.06
494.79	59580.68
494.96	59655.57
495.14	58843.41
495.32	58071.03
495.49	57502.28
495.67	58588.29
495.85	59622.81
496.02	60149.43
496.20	59781.96
496.38	59627.49
496.55	59423.86
496.73	59796.01
496.91	59817.07
497.09	60458.38
497.26	60563.70
497.44	59997.29
497.62	59592.38
497.79	58815.32
497.97	57813.57
498.14	57921.24
498.32	58897.24
498.50	59728.13
498.67	60273.48
498.85	60083.89
499.03	60111.98
499.20	60441.99
499.38	60582.43
499.56	60353.05
499.73	59796.01
499.91	59576.00
500.08	59234.28
500.26	58501.69
500.44	58908.94
500.61	59767.92
500.79	59517.48
500.97	59000.22
501.14	58822.34
501.32	58770.85
501.49	58796.60
501.67	59002.56
501.84	59643.87
502.02	59779.62
502.20	60004.31
502.37	60142.41
502.55	60065.17
502.72	60844.57
502.90	60931.17
503.07	60772.01
503.25	60399.86
503.43	59779.62
503.60	59189.81
503.78	58555.52
503.95	58855.11
504.13	60130.70
504.30	60954.57
504.48	60790.73
504.65	60484.12
504.83	60285.18
505.01	60982.66
505.18	61127.77
505.36	61797.16
505.53	61851.00
505.71	62232.50
505.88	62241.87
506.06	61647.37
506.23	61307.99
506.41	60928.83
506.58	61158.20
506.76	61305.65
506.93	61167.56
507.11	60935.85
507.28	61059.90
507.46	60647.96
507.63	60062.83
507.81	59861.54
507.98	59994.95
508.16	60566.04
508.33	61387.57
508.50	61647.37
508.68	61846.32
508.85	62241.87
509.03	62185.69
509.20	62071.01
509.38	61474.17
509.55	60772.01
509.73	60835.20
509.90	61422.68
510.08	61579.49
510.25	61640.35
510.42	61371.19
510.60	61216.71
510.77	61549.07
510.95	61972.70
511.12	62162.29
511.30	62508.69
511.47	62777.85
511.64	62452.51
511.82	62181.01
511.99	61708.22
512.17	61254.16
512.34	60818.82
512.51	60961.59
512.69	61102.03
512.86	61284.59
513.04	61572.47
513.21	61563.11
513.38	61254.16
513.56	60800.10
513.73	60278.16
513.90	60582.43
514.08	60535.62
514.25	61008.40
514.43	60956.91
514.60	61244.80
514.77	61315.01
514.95	61347.78
515.12	61111.39
515.29	61708.22
515.47	62089.73
515.64	62138.88
515.81	61902.49
515.99	61322.04
516.16	60018.36
516.33	57865.06
516.51	56666.71
516.68	55997.32
516.85	55470.70
517.03	55964.55
517.20	58162.31
517.37	60561.36
517.54	61410.98
517.72	60891.38
517.89	58773.19
518.06	56488.83
518.24	57062.26
518.41	58967.46
518.58	59915.37
518.75	60327.31
518.93	60280.50
519.10	60502.85
519.27	60629.24
519.45	60734.56
519.62	61572.47
519.79	62089.73
519.96	61813.55
520.14	61457.79
520.31	60502.85
520.48	60666.69
520.65	60692.43
520.83	61682.48
521.00	61904.83
521.17	61705.88
521.34	61375.87
521.52	61549.07
521.69	62281.66
521.86	62686.57
522.03	62272.29
522.20	61144.16
522.38	60203.26
522.55	60266.45
522.72	60853.93
522.89	61031.81
523.07	61256.50
523.24	61483.53
523.41	62206.76
523.58	62639.76
523.75	63091.48
523.92	62787.21
524.10	62686.57
524.27	62646.78
524.44	62314.42
524.61	62396.34
524.78	62099.09
524.96	62049.94
525.13	62096.75
525.30	62403.36
525.47	62932.32
525.64	62646.78
525.81	62101.43
525.98	60750.94
526.16	59529.19
526.33	58866.81
526.50	58632.76
526.67	58174.02
526.84	58679.57
527.01	59613.44
527.18	60533.28
527.36	61216.71
527.53	62169.31
527.70	62195.06
527.87	61675.46
528.04	61235.44
528.21	61834.61
528.38	62347.19
528.55	62911.26
528.72	63131.27
528.89	63262.34
529.07	63075.10
529.24	62457.20
529.41	61853.34
529.58	61338.42
529.75	61427.36
529.92	61750.35
530.09	62173.99
530.26	62735.72
530.43	63075.10
530.60	63037.65
530.77	63262.34
530.94	63285.75
531.11	62754.44
531.28	62379.96
531.46	62349.53
531.63	62330.81
531.80	62429.11
531.97	62073.35
532.14	61130.11
532.31	60444.33
532.48	59676.64
532.65	59751.54
532.82	60456.04
532.99	61528.00
533.16	61839.29
533.33	62401.02
533.50	62274.63
533.67	61497.58
533.84	61329.06
534.01	61413.32
534.18	61635.67
534.35	61726.95
534.52	61605.24
534.69	62047.60
534.86	62138.88
535.03	62305.06
535.20	62845.72
535.37	63159.36
535.54	63117.23
535.71	62906.58
535.88	62644.44
536.05	62045.26
536.22	61666.09
536.38	61333.74
536.55	60879.67
536.72	60629.24
536.89	60383.48
537.06	61076.28
537.23	61956.32
537.40	62188.03
537.57	62195.06
537.74	61759.72
537.91	61928.23
538.08	61895.47
538.25	61961.00
538.42	62073.35
538.59	61722.27
538.75	61528.00
538.92	61183.94
539.09	61034.15
539.26	60645.62
539.43	60612.85
539.60	60654.98
539.77	60879.67
539.94	60753.29
540.11	60126.02
540.28	59519.82
540.44	59756.22
540.61	60207.94
540.78	60238.37
540.95	60685.41
541.12	60903.08
541.29	61329.06
541.46	61546.73
541.62	61378.21
541.79	61415.66
541.96	60879.67
542.13	60753.29
542.30	61097.34
542.47	61319.70
542.63	60879.67
542.80	60891.38
542.97	60985.00
543.14	60701.79
543.31	60495.83
543.48	61333.74
543.64	61984.41
543.81	62309.74
543.98	62181.01
544.15	61392.25
544.32	60926.49
544.48	60914.78
544.65	61286.93
544.82	61797.16
544.99	61572.47
545.16	61193.31
545.32	60734.56
545.49	61595.88
545.66	62101.43
545.83	61509.28
546.00	61118.41
546.16	60886.70
546.33	61116.07
546.50	60980.32
546.67	61441.40
546.83	61034.15
547.00	61062.24
547.17	60598.81
547.34	60102.62
547.50	59908.35
547.67	60224.32
547.84	60418.59
548.00	60814.14
548.17	61172.24
548.34	60898.40
548.51	61099.68
548.67	61057.56
548.84	61172.24
549.01	61036.49
549.18	60910.10
549.34	60867.97
549.51	61071.60
549.68	60844.57
549.84	60460.72
550.01	60439.65
550.18	60484.12
550.34	60383.48
550.51	60610.51
550.68	60718.18
550.84	60301.56
551.01	60568.38
551.18	60175.17
551.34	60446.68
551.51	60736.90
551.68	60786.05
551.84	60959.25
552.01	60816.48
552.18	60779.03
552.34	60100.28
552.51	59737.49
552.68	59678.98
552.84	60257.09
553.01	60301.56
553.18	60477.10
553.34	60217.30
553.51	60552.00
553.67	60748.60
553.84	60755.63
554.01	60725.20
554.17	60587.11
554.34	60886.70
554.51	60596.47
554.67	60961.59
554.84	60830.52
555.00	60261.77
555.17	60292.20
555.33	60317.95
555.50	60271.14
555.67	60404.55
555.83	60238.37
556.00	59873.24
556.16	60076.87
556.33	59526.84
556.50	59465.99
556.66	59405.14
556.83	59199.17
556.99	59208.53
557.16	59372.37
557.32	59700.04
557.49	60006.65
557.65	59760.90
557.82	59683.66
557.98	59564.29
558.15	59260.02
558.32	58461.90
558.48	57752.72
558.65	57886.13
558.81	58251.25
558.98	58429.13
559.14	58885.54
559.31	58803.62
559.47	58812.98
559.64	58658.51
559.80	58265.30
559.97	58302.74
560.13	58735.74
560.30	59590.04
560.46	60060.49
560.63	60041.76
560.79	60196.24
560.96	59784.30
561.12	58946.39
561.29	57792.51
561.45	58066.35
561.61	58522.76
561.78	58939.37
561.94	58983.84
562.11	58597.65
562.27	58658.51
562.44	58878.52
562.60	59302.15
562.77	59491.74
562.93	59222.58
563.10	59187.47
563.26	58698.30
563.42	58674.89
563.59	58408.07
563.75	58499.35
563.92	58550.84
564.08	58497.01
564.24	58885.54
564.41	58646.80
564.57	58798.94
564.74	58798.94
564.90	58513.39
565.07	58384.66
565.23	57993.79
565.39	57366.53
565.56	57214.40
565.72	56935.87
565.88	57577.18
566.05	57661.44
566.21	57813.57
566.38	57785.49
566.54	57982.09
566.70	58394.03
566.87	58581.27
567.03	58532.12
567.19	58784.90
567.36	58391.68
567.52	58274.66
567.68	58040.60
567.85	57506.96
568.01	57230.78
568.17	57088.01
568.34	56926.51
568.50	56823.53
568.66	57109.07
568.83	57352.49
568.99	57226.10
569.15	57628.67
569.32	57385.25
569.48	57380.57
569.64	56956.94
569.81	56793.10
569.97	56633.94
570.13	56622.24
570.30	56287.54
570.46	55891.99
570.62	55449.63
570.78	55496.44
570.95	55700.07
571.11	56254.78
571.27	56231.37
571.43	56371.80
571.60	56896.08
571.76	56884.38
571.92	57148.86
572.09	57525.69
572.25	57345.47
572.41	57408.66
572.57	57099.71
572.74	57272.91
572.90	56844.59
573.06	56772.03
573.22	56912.47
573.38	56732.25
573.55	56804.80
573.71	57048.22
573.87	56804.80
574.03	56650.33
574.20	56743.95
574.36	56327.33
574.52	56397.55
574.68	56142.43
574.84	55952.85
575.01	55604.11
575.17	55508.14
575.33	55573.68
575.49	56083.92
575.65	56112.00
575.82	55941.14
575.98	55391.12
576.14	55749.22
576.30	56193.92
576.46	56217.33
576.62	55971.57
576.79	55992.64
576.95	55690.71
577.11	55781.99
577.27	55910.72
577.43	56030.08
577.59	55454.31
577.75	55224.94
577.92	54494.69
578.08	54279.36
578.24	54518.10
578.40	54616.40
578.56	55086.85
578.72	55124.30
578.88	55185.15
579.04	55426.23
579.21	55414.52
579.37	55463.67
579.53	55449.63
579.69	55458.99
579.85	55643.90
580.01	55622.83
580.17	55136.00
580.33	54915.99
580.49	55295.16
580.65	55260.05
580.82	55302.18
580.98	55590.06
581.14	55330.26
581.30	55327.92
581.46	55150.04
581.62	55620.49
581.78	55632.19
581.94	55742.20
582.10	55629.85
582.26	55697.73
582.42	55599.43
582.58	55716.45
582.74	55583.04
582.90	55503.46
583.06	55697.73
583.22	55313.88
583.38	55056.42
583.54	55229.62
583.70	55143.02
583.86	55250.69
584.02	55262.39
584.18	55131.32
584.34	55098.55
584.50	55093.87
584.66	54974.50
584.82	54485.33
584.98	54869.18
585.14	54251.28
