SpectraSuite Data File
++++++++++++++++++++++++++++++++++++
Date: Mon Oct 07 14:53:57 GMT-05:00 2013
User: price-jones
Dark Spectrum Present: No
Reference Spectrum Present: No
Number of Sampled Component Spectra: 1
Spectrometers: USB2+H05261
Integration Time (usec): 100000 (USB2+H05261)
Spectra Averaged: 1 (USB2+H05261)
Boxcar Smoothing: 0 (USB2+H05261)
Correct for Electrical Dark: No (USB2+H05261)
Strobe/Lamp Enabled: No (USB2+H05261)
Correct for Detector Non-linearity: No (USB2+H05261)
Correct for Stray Light: No (USB2+H05261)
Number of Pixels in Processed Spectrum: 2048
>>>>>Begin Processed Spectral Data<<<<<
365.73	0.00
365.92	0.00
366.12	0.00
366.32	0.00
366.52	0.00
366.72	0.00
366.91	0.00
367.11	0.00
367.31	0.00
367.51	0.00
367.70	0.00
367.90	0.00
368.10	0.00
368.30	0.00
368.49	0.00
368.69	0.00
368.89	0.00
369.09	0.00
369.28	0.00
369.48	0.00
369.68	0.00
369.87	0.00
370.07	0.00
370.27	0.00
370.47	1270.91
370.66	5607.92
370.86	6516.05
371.06	7037.99
371.25	6960.75
371.45	6349.87
371.65	5694.52
371.84	5392.59
372.04	5708.57
372.24	6188.38
372.44	6497.33
372.63	6410.73
372.83	5963.68
373.03	5348.12
373.22	4936.19
373.42	5207.69
373.62	5727.29
373.81	6246.89
374.01	6375.62
374.21	5645.37
374.40	5268.55
374.60	5626.65
374.79	6218.80
374.99	7342.26
375.19	7569.29
375.38	7693.34
375.58	7283.75
375.78	6995.86
375.97	7005.22
376.17	7358.64
376.37	7515.46
376.56	7655.89
376.76	8039.74
376.95	8692.75
377.15	9116.39
377.35	9413.63
377.54	9830.25
377.74	10146.22
377.93	10216.44
378.13	9682.80
378.33	9249.80
378.52	8458.70
378.72	8217.62
378.91	8194.22
379.11	7892.29
379.31	7463.97
379.50	7644.19
379.70	8149.75
379.89	9032.13
380.09	9504.92
380.28	9755.35
380.48	9710.88
380.68	9430.02
380.87	9172.56
381.07	8376.78
381.26	8009.31
381.46	7449.93
381.65	7192.47
381.85	7056.72
382.04	6637.76
382.24	6235.19
382.43	5849.00
382.63	5959.00
382.83	5806.87
383.02	5837.30
383.22	5949.64
383.41	5774.10
383.61	6422.43
383.80	7045.01
384.00	8280.82
384.19	9200.65
384.39	9373.85
384.58	9331.72
384.78	9114.05
384.97	9282.56
385.17	8571.04
385.36	8184.85
385.56	7946.12
385.75	8114.64
385.95	8812.12
386.14	9652.37
386.34	9434.70
386.53	9249.80
386.72	8617.85
386.92	8620.19
387.11	9165.54
387.31	9446.40
387.50	9432.36
387.70	9064.89
387.89	9018.08
388.09	9081.28
388.28	8952.55
388.48	9268.52
388.67	9916.85
388.86	10974.77
389.06	11555.22
389.25	12283.13
389.45	12271.43
389.64	12128.66
389.84	11880.56
390.03	11492.03
390.22	12037.38
390.42	12297.17
390.61	12894.01
390.81	14045.55
391.00	13982.36
391.19	13811.50
391.39	13675.75
391.58	12702.09
391.78	12016.31
391.97	11571.61
392.16	10846.04
392.36	9687.48
392.55	7801.01
392.75	6223.48
392.94	5156.20
393.13	5116.41
393.33	6129.86
393.52	7859.52
393.71	9366.82
393.91	10614.33
394.10	11396.07
394.29	12664.64
394.49	13813.84
394.68	14553.45
394.88	14759.42
395.07	15335.19
395.26	14867.08
395.46	14129.81
395.65	13390.20
395.84	11587.99
396.04	9916.85
396.23	7978.89
396.42	6871.81
396.62	6738.40
396.81	7878.24
397.00	9933.23
397.19	12798.05
397.39	14677.50
397.58	16339.28
397.77	17626.57
397.97	18190.64
398.16	18223.41
398.35	18829.61
398.55	19435.81
398.74	20051.37
398.93	20613.10
399.12	20140.31
399.32	19515.39
399.51	20147.33
399.70	20833.11
399.90	20886.94
400.09	21214.62
400.28	20889.28
400.47	20830.77
400.67	21837.20
400.86	22675.11
401.05	22490.21
401.24	22277.22
401.44	22799.16
401.63	22785.12
401.82	22876.40
402.01	23019.17
402.21	23218.11
402.40	23293.01
402.59	22703.20
402.78	21394.84
402.97	21050.78
403.17	21600.80
403.36	22958.31
403.55	23763.46
403.74	24308.80
403.93	22944.27
404.13	20982.90
404.32	21018.01
404.51	22054.87
404.70	23550.47
404.89	23480.25
405.09	22995.76
405.28	22600.21
405.47	22361.48
405.66	22396.59
405.85	21640.59
406.05	21221.64
406.24	21472.07
406.43	22387.22
406.62	23091.73
406.81	23168.96
407.00	22457.44
407.20	21923.80
407.39	22120.40
407.58	23269.61
407.77	24018.58
407.96	24732.44
408.15	24957.13
408.34	25256.72
408.54	26312.30
408.73	26171.87
408.92	25806.75
409.11	24933.73
409.30	23873.46
409.49	22324.03
409.68	21036.74
409.87	20306.49
410.07	21715.49
410.26	23468.55
410.45	24961.81
410.64	25266.08
410.83	26457.42
411.02	26630.62
411.21	27983.44
411.40	27321.07
411.59	27395.97
411.78	27498.95
411.98	27014.46
412.17	27426.40
412.36	26939.57
412.55	26969.99
412.74	26429.33
412.93	25785.68
413.12	26143.78
413.31	28371.97
413.50	28666.88
413.69	28809.65
413.88	28027.92
414.07	26855.31
414.26	27683.86
414.45	28882.21
414.64	29076.48
414.83	29397.13
415.02	28362.61
415.22	28013.87
415.41	28933.70
415.60	29673.31
415.79	31028.48
415.98	31393.61
416.17	31431.05
416.36	30452.71
416.55	30075.88
416.74	29319.89
416.93	28081.75
417.12	28341.55
417.31	28797.95
417.50	29111.58
417.69	30164.82
417.88	30178.87
418.07	29762.25
418.26	29067.11
418.45	29689.70
418.64	30822.51
418.83	31585.53
419.02	31417.01
419.21	30845.92
419.39	29514.16
419.58	28074.73
419.77	28386.02
419.96	30031.41
420.15	31026.14
420.34	32013.85
420.53	32896.23
420.72	33724.78
420.91	33301.14
421.10	32921.98
421.29	32629.41
421.48	31288.28
421.67	32666.86
421.86	32327.48
422.05	30064.18
422.24	27061.27
422.43	26895.10
422.61	29425.22
422.80	31608.93
422.99	31847.67
423.18	30721.87
423.37	30443.35
423.56	30199.93
423.75	30771.02
423.94	31536.38
424.13	29729.48
424.32	30134.40
424.50	29790.34
424.69	29319.89
424.88	29479.05
425.07	29483.73
425.26	29535.22
425.45	29235.63
425.64	28542.83
425.83	28629.43
426.01	30497.18
426.20	31035.50
426.39	31271.90
426.58	28514.75
426.77	26525.29
426.96	25713.13
427.15	26396.56
427.33	29076.48
427.52	29916.73
427.71	29656.93
427.90	29310.53
428.09	28709.01
428.28	28711.35
428.46	27749.39
428.65	27166.60
428.84	28009.19
429.03	28643.48
429.22	27166.60
429.40	25333.96
429.59	23154.92
429.78	19920.30
429.97	20507.77
430.16	20709.06
430.34	20645.87
430.53	20442.24
430.72	21429.94
430.91	23721.33
431.10	27599.60
431.28	32421.10
431.47	35072.93
431.66	34965.26
431.85	32402.38
432.03	29675.65
432.22	27894.50
432.41	29619.48
432.60	32573.24
432.79	34101.61
432.97	34857.60
433.16	33879.25
433.35	31133.81
433.54	28065.36
433.72	26150.81
433.91	27084.68
434.10	30216.32
434.28	32444.51
434.47	34026.71
434.66	33619.46
434.85	32460.89
435.03	32348.54
435.22	33338.59
435.41	35117.40
435.59	35147.82
435.78	35445.07
435.97	36657.47
436.16	36680.88
436.34	36147.23
436.53	35419.33
436.72	35215.70
436.90	32924.32
437.09	33589.03
437.28	32428.12
437.46	33965.85
437.65	33797.34
437.84	31732.98
438.02	29252.02
438.21	29249.67
438.40	30551.01
438.58	33085.81
438.77	33982.24
438.96	33937.77
439.14	35386.56
439.33	36084.04
439.52	36748.75
439.70	36058.29
439.89	35283.58
440.08	34684.40
440.26	34433.96
440.45	35255.49
440.63	37745.82
440.82	39725.91
441.01	38778.00
441.19	38565.01
441.38	39199.29
441.57	40502.97
441.75	41041.29
441.94	41621.75
442.12	41097.47
442.31	41930.70
442.50	41862.82
442.68	40914.90
442.87	40634.04
443.05	39814.85
443.24	40353.18
443.43	41820.69
443.61	42349.65
443.80	42728.82
443.98	40289.98
444.17	40545.10
444.35	42667.97
444.54	43337.36
444.73	42480.72
444.91	40680.85
445.10	39136.10
445.28	37645.18
445.47	37390.06
445.65	37780.93
445.84	38590.75
446.02	39660.38
446.21	40191.68
446.39	40472.54
446.58	41174.70
446.77	41837.08
446.95	41696.64
447.14	43065.86
447.32	43887.39
447.51	42443.27
447.69	40730.00
447.88	40825.96
448.06	40882.14
448.25	41722.39
448.43	42417.53
448.62	41525.78
448.80	40971.08
448.99	41254.28
449.17	41851.12
449.36	41516.42
449.54	43105.65
449.73	43854.62
449.91	44540.39
450.10	45235.53
450.28	46026.63
450.46	45713.00
450.65	45132.55
450.83	45254.26
451.02	44680.83
451.20	44329.75
451.39	44666.78
451.57	44282.94
451.76	44509.97
451.94	43945.90
452.13	43147.78
452.31	41439.18
452.49	39431.01
452.68	39793.79
452.86	39711.87
453.05	40465.52
453.23	42024.32
453.42	42445.62
453.60	43161.82
453.78	43634.61
453.97	43414.60
454.15	43700.14
454.34	42396.46
454.52	42770.95
454.70	41413.44
454.89	42230.29
455.07	42096.88
455.26	43325.66
455.44	44329.75
455.62	44788.49
455.81	45691.94
455.99	44793.17
456.17	44289.96
456.36	44467.84
456.54	45787.90
456.73	45869.82
456.91	46672.62
457.09	46836.46
457.28	47255.42
457.46	45764.49
457.64	45345.54
457.83	43761.00
458.01	43185.22
458.19	44196.34
458.38	44849.35
458.56	45993.87
458.74	45717.68
458.93	44875.09
459.11	44772.11
459.29	44514.65
459.48	44566.14
459.66	44222.08
459.84	45109.14
460.03	45244.90
460.21	45179.36
460.39	46258.35
460.57	46625.81
460.76	46705.39
460.94	46953.49
461.12	46277.07
461.31	46377.72
461.49	46073.45
461.67	46672.62
461.85	47826.51
462.04	47433.30
462.22	48034.81
462.40	47744.59
462.59	47234.35
462.77	47547.98
462.95	47150.09
463.13	46632.83
463.32	46024.29
463.50	46267.71
463.68	46239.62
463.86	46014.93
464.05	45731.73
464.23	45268.30
464.41	44563.80
464.59	43981.01
464.78	46246.65
464.96	45532.78
465.14	44940.63
465.32	46904.34
465.50	47543.30
465.69	47318.61
465.87	46553.26
466.05	45631.08
466.23	44083.99
466.41	43030.75
466.60	44203.36
466.78	44603.59
466.96	45092.76
467.14	45284.68
467.32	45769.18
467.51	46014.93
467.69	43522.26
467.87	45109.14
468.05	45617.04
468.23	45830.03
468.41	45638.11
468.60	45968.12
468.78	45925.99
468.96	45308.09
469.14	46281.75
469.32	46513.47
469.50	44849.35
469.69	45174.68
469.87	44498.26
470.05	44252.51
470.23	44360.17
470.41	45120.85
470.59	44919.56
470.77	45345.54
470.95	46366.01
471.14	46302.82
471.32	46295.80
471.50	48615.27
471.68	48371.85
471.86	48765.06
472.04	49291.68
472.22	49209.76
472.40	47278.82
472.58	46724.11
472.77	46321.54
472.95	47323.29
473.13	48409.30
473.31	47264.78
473.49	47145.41
473.67	47999.71
473.85	48512.28
474.03	49373.60
474.21	49556.16
474.39	49773.83
474.57	49720.00
474.75	49951.71
474.93	49710.64
475.12	48397.60
475.30	48308.66
475.48	48823.58
475.66	49287.00
475.84	48980.39
476.02	48303.98
476.20	47594.79
476.38	49015.50
476.56	49422.75
476.74	50042.99
476.92	50408.12
477.10	51107.94
477.28	52032.45
477.46	51657.96
477.64	52069.90
477.82	52121.39
478.00	52193.95
478.18	52060.54
478.36	51751.59
478.54	51859.25
478.72	52053.51
478.90	53048.24
479.08	53511.67
479.26	54206.81
479.44	53944.67
479.62	53712.95
479.80	53825.30
479.98	54042.97
480.16	53918.92
480.34	53698.91
480.52	53841.68
480.70	54391.71
480.88	54363.62
481.06	54901.95
481.24	55042.38
481.41	55613.47
481.59	56041.79
481.77	55821.78
481.95	55676.66
482.13	55309.20
482.31	55356.01
482.49	55629.85
482.67	55334.95
482.85	55824.12
483.03	56226.69
483.21	56299.25
483.39	56481.81
483.57	55828.80
483.74	55512.83
483.92	56128.39
484.10	55882.63
484.28	56952.26
484.46	57034.17
484.64	57118.43
484.82	56594.15
485.00	56350.74
485.18	55753.90
485.35	55014.29
485.53	52437.36
485.71	49448.50
485.89	48795.49
486.07	51147.73
486.25	53560.82
486.43	55234.30
486.61	55924.76
486.78	55632.19
486.96	55533.89
487.14	56818.84
487.32	57378.23
487.50	58209.12
487.68	58663.19
487.85	59068.10
488.03	58927.67
488.21	58714.68
488.39	58227.85
488.57	57483.56
488.75	57591.22
488.92	58335.51
489.10	59941.12
489.28	60949.89
489.46	61425.02
489.64	61277.57
489.81	61263.52
489.99	61237.78
490.17	61015.43
490.35	61502.26
490.53	61015.43
490.70	60694.77
490.88	60402.21
491.06	61268.20
491.24	61368.85
491.41	60495.83
491.59	59480.03
491.77	58972.14
491.95	59587.70
492.13	60528.59
492.30	61490.55
492.48	62379.96
492.66	62529.75
492.84	62389.32
493.01	62262.93
493.19	61996.11
493.37	61710.56
493.54	61364.17
493.72	62230.16
493.90	62784.87
494.08	63501.07
494.25	63458.94
494.43	63578.31
494.61	63889.60
494.79	63990.25
494.96	63887.26
495.14	63089.14
495.32	62656.14
495.49	62124.84
495.67	63047.01
495.85	64083.87
496.02	64456.01
496.20	64348.35
496.38	63894.28
496.55	63735.13
496.73	63999.61
496.91	64177.49
497.09	64828.16
497.26	64982.63
497.44	64406.86
497.62	64233.66
497.79	63463.63
497.97	62349.53
498.14	62539.11
498.32	63224.89
498.50	64032.38
498.67	64432.61
498.85	64346.01
499.03	64573.04
499.20	64701.77
499.38	64767.30
499.56	64486.44
499.73	64233.66
499.91	63781.94
500.08	63510.44
500.26	62993.18
500.44	63407.45
500.61	63781.94
500.79	63821.73
500.97	63320.85
501.14	63196.80
501.32	63105.52
501.49	63217.87
501.67	63503.42
501.84	63859.18
502.02	64100.25
502.20	64205.58
502.37	64203.24
502.55	64322.60
502.72	64774.33
502.90	65247.11
503.07	65090.30
503.25	64603.47
503.43	63950.46
503.60	63323.19
503.78	62873.81
503.95	63252.98
504.13	64570.70
504.30	65176.90
504.48	64821.14
504.65	64458.35
504.83	64498.14
505.01	65251.80
505.18	65420.31
505.36	65535.00
505.53	65535.00
505.71	65535.00
505.88	65535.00
506.06	65535.00
506.23	65350.10
506.41	64949.87
506.58	65298.61
506.76	65148.81
506.93	65076.26
507.11	64835.18
507.28	65090.30
507.46	64563.68
507.63	64161.11
507.81	63901.31
507.98	64170.47
508.16	64793.05
508.33	65436.70
508.50	65535.00
508.68	65535.00
508.85	65535.00
509.03	65535.00
509.20	65535.00
509.38	65535.00
509.55	64905.40
509.73	64987.31
509.90	65535.00
510.08	65535.00
510.25	65380.52
510.42	65312.65
510.60	65265.84
510.77	65509.25
510.95	65535.00
511.12	65535.00
511.30	65535.00
511.47	65535.00
511.64	65535.00
511.82	65535.00
511.99	65535.00
512.17	65242.43
512.34	64870.29
512.51	65027.10
512.69	65139.45
512.86	65148.81
513.04	65535.00
513.21	65535.00
513.38	65429.68
513.56	64722.83
513.73	64390.48
513.90	64367.07
514.08	64388.14
514.25	64673.68
514.43	64860.93
514.60	64692.41
514.77	65389.89
514.95	65190.94
515.12	65078.60
515.29	65387.55
515.47	65535.00
515.64	65535.00
515.81	65535.00
515.99	65148.81
516.16	63934.07
516.33	62028.88
516.51	60846.91
516.68	60189.22
516.85	59845.16
517.03	60168.15
517.20	62436.13
517.37	64397.50
517.54	65429.68
517.72	64729.86
517.89	62698.27
518.06	60732.22
518.24	61055.21
518.41	62913.60
518.58	63908.33
518.75	63976.20
518.93	64233.66
519.10	64221.96
519.27	64505.16
519.45	64638.57
519.62	65237.75
519.79	65535.00
519.96	65518.62
520.14	65050.51
520.31	64343.67
520.48	64399.84
520.65	64718.15
520.83	65535.00
521.00	65535.00
521.17	65535.00
521.34	65010.72
521.52	65518.62
521.69	65535.00
521.86	65535.00
522.03	65535.00
522.20	64945.18
522.38	64076.85
522.55	64100.25
522.72	64549.63
522.89	64706.45
523.07	64992.00
523.24	65099.66
523.41	65535.00
523.58	65535.00
523.75	65535.00
523.92	65535.00
524.10	65535.00
524.27	65535.00
524.44	65535.00
524.61	65535.00
524.78	65535.00
524.96	65535.00
525.13	65535.00
525.30	65535.00
525.47	65535.00
525.64	65535.00
525.81	65535.00
525.98	64320.26
526.16	63196.80
526.33	62475.92
526.50	62342.51
526.67	62232.50
526.84	62623.37
527.01	63245.96
527.18	63997.27
527.36	64910.08
527.53	65535.00
527.70	65535.00
527.87	65303.29
528.04	64928.80
528.21	65432.02
528.38	65535.00
528.55	65535.00
528.72	65535.00
528.89	65535.00
529.07	65535.00
529.24	65535.00
529.41	65520.96
529.58	64980.29
529.75	65099.66
529.92	65415.63
530.09	65535.00
530.26	65535.00
530.43	65535.00
530.60	65535.00
530.77	65535.00
530.94	65535.00
531.11	65535.00
531.28	65535.00
531.46	65535.00
531.63	65535.00
531.80	65535.00
531.97	65396.91
532.14	64788.37
532.31	63852.15
532.48	63571.29
532.65	63334.90
532.82	64161.11
532.99	65062.21
533.16	65403.93
533.33	65535.00
533.50	65488.19
533.67	65036.47
533.84	64746.24
534.01	64912.42
534.18	64982.63
534.35	65230.73
534.52	65069.23
534.69	65181.58
534.86	65535.00
535.03	65535.00
535.20	65535.00
535.37	65535.00
535.54	65535.00
535.71	65535.00
535.88	65535.00
536.05	65478.83
536.22	65120.73
536.38	64956.89
536.55	64425.59
536.72	64163.45
536.89	63685.98
537.06	64556.66
537.23	65535.00
537.40	65523.30
537.57	65504.57
537.74	65368.82
537.91	65148.81
538.08	65279.88
538.25	65310.31
538.42	65417.97
538.59	65326.69
538.75	64587.08
538.92	64315.58
539.09	64334.31
539.26	64165.79
539.43	64170.47
539.60	64118.98
539.77	64308.56
539.94	64158.76
540.11	63613.42
540.28	62932.32
540.44	63161.70
540.61	63281.06
540.78	63433.20
540.95	64001.95
541.12	64294.52
541.29	64409.20
541.46	64734.54
541.62	64647.94
541.79	64460.69
541.96	64032.38
542.13	64006.63
542.30	64346.01
542.47	64544.95
542.63	64207.92
542.80	63983.22
542.97	64264.09
543.14	64100.25
543.31	64072.17
543.48	64626.87
543.64	65382.87
543.81	65535.00
543.98	65453.08
544.15	64729.86
544.32	64278.13
544.48	64254.73
544.65	64830.50
544.82	64992.00
544.99	64657.30
545.16	64474.74
545.32	64226.64
545.49	64814.12
545.66	65048.17
545.83	64797.73
546.00	64390.48
546.16	64200.89
546.33	64404.52
546.50	64226.64
546.67	64769.64
546.83	64207.92
547.00	64257.07
547.17	63828.75
547.34	63252.98
547.50	63264.68
547.67	63655.55
547.84	63716.40
548.00	64257.07
548.17	64456.01
548.34	64140.04
548.51	64168.13
548.67	64200.89
548.84	64521.55
549.01	64336.65
549.18	64165.79
549.34	64210.26
549.51	64175.15
549.68	64233.66
549.84	63877.90
550.01	63964.50
550.18	63779.60
550.34	63917.69
550.51	63887.26
550.68	63894.28
550.84	63742.15
551.01	63863.86
551.18	63568.95
551.34	63749.17
551.51	64055.78
551.68	64245.36
551.84	64221.96
552.01	64090.89
552.18	63894.28
552.34	63309.15
552.51	63175.74
552.68	63217.87
552.84	63604.06
553.01	63756.19
553.18	63426.18
553.34	63650.87
553.51	63721.08
553.67	63964.50
553.84	64177.49
554.01	63824.07
554.17	63714.06
554.34	63817.05
554.51	63889.60
554.67	64423.25
554.84	64151.74
555.00	63845.13
555.17	63709.38
555.33	63398.09
555.50	63547.89
555.67	63545.54
555.83	63423.84
556.00	63175.74
556.16	63231.91
556.33	62948.71
556.50	62489.96
556.66	62707.63
556.83	62513.37
556.99	62532.09
557.16	62532.09
557.32	62667.84
557.49	63025.95
557.65	62897.22
557.82	62986.16
557.98	62876.15
558.15	62396.34
558.32	61748.01
558.48	61389.91
558.65	61371.19
558.81	61518.64
558.98	61820.57
559.14	61851.00
559.31	62166.97
559.47	61874.40
559.64	61820.57
559.80	61450.77
559.97	61638.01
560.13	62110.80
560.30	62700.61
560.46	63149.99
560.63	63299.79
560.79	63311.49
560.96	63007.22
561.12	61975.05
561.29	61425.02
561.45	61492.89
561.61	61872.06
561.78	62188.03
561.94	62028.88
562.11	61808.87
562.27	61708.22
562.44	61932.92
562.60	62300.38
562.77	62379.96
562.93	62274.63
563.10	62127.18
563.26	61993.77
563.42	61890.79
563.59	61574.81
563.75	61759.72
563.92	61858.02
564.08	61687.16
564.24	61951.64
564.41	62061.64
564.57	61923.55
564.74	61963.34
564.90	61769.08
565.07	61502.26
565.23	61254.16
565.39	60729.88
565.56	60643.28
565.72	60203.26
565.88	60640.94
566.05	60629.24
566.21	60863.29
566.38	61165.22
566.54	60954.57
566.70	61441.40
566.87	61794.82
567.03	61780.78
567.19	61834.61
567.36	61752.69
567.52	61635.67
567.68	61352.46
567.85	60760.31
568.01	60472.42
568.17	60243.05
568.34	60275.82
568.50	60032.40
568.66	60268.79
568.83	60221.98
568.99	60664.35
569.15	60931.17
569.32	60631.58
569.48	60135.38
569.64	60231.35
569.81	60032.40
569.97	59938.78
570.13	59917.71
570.30	59725.79
570.46	59545.57
570.62	58918.31
570.78	58794.26
570.95	58922.99
571.11	59545.57
571.27	59707.07
571.43	59875.58
571.60	60275.82
571.76	60446.68
571.92	60430.29
572.09	60701.79
572.25	60584.77
572.41	60402.21
572.57	60493.49
572.74	60514.55
572.90	60207.94
573.06	60142.41
573.22	60271.14
573.38	59994.95
573.55	60212.62
573.71	60205.60
573.87	60247.73
574.03	60156.45
574.20	59962.18
574.36	59723.45
574.52	59688.34
574.68	59388.75
574.84	59157.04
575.01	58904.26
575.17	58883.20
575.33	59100.87
575.49	59161.72
575.65	59159.38
575.82	58904.26
575.98	58719.36
576.14	59124.27
576.30	59346.62
576.46	59440.24
576.62	59236.62
576.79	59121.93
576.95	58880.86
577.11	59117.25
577.27	59131.29
577.43	58995.54
577.59	58995.54
577.75	58461.90
577.92	57890.81
578.08	57708.25
578.24	57851.02
578.40	58260.62
578.56	58157.63
578.72	58389.34
578.88	58372.96
579.04	58651.48
579.21	58571.91
579.37	58607.01
579.53	58960.44
579.69	58710.00
579.85	59068.10
580.01	58728.72
580.17	58349.56
580.33	58138.91
580.49	58328.49
580.65	58784.90
580.82	58808.30
580.98	58461.90
581.14	58740.42
581.30	58721.70
581.46	58581.27
581.62	58773.19
581.78	58705.32
581.94	58981.50
582.10	58578.93
582.26	58897.24
582.42	58873.84
582.58	58993.20
582.74	58644.46
582.90	58382.32
583.06	58504.03
583.22	58251.25
583.38	58447.86
583.54	58326.15
583.70	58328.49
583.86	58211.46
584.02	58403.39
584.18	58394.03
584.34	58356.58
584.50	58192.74
584.66	58113.16
584.82	57586.54
