SpectraSuite Data File
++++++++++++++++++++++++++++++++++++
Date: Mon Oct 07 14:53:30 GMT-05:00 2013
User: price-jones
Dark Spectrum Present: No
Reference Spectrum Present: No
Number of Sampled Component Spectra: 1
Spectrometers: USB2+H05261
Integration Time (usec): 100000 (USB2+H05261)
Spectra Averaged: 1 (USB2+H05261)
Boxcar Smoothing: 0 (USB2+H05261)
Correct for Electrical Dark: No (USB2+H05261)
Strobe/Lamp Enabled: No (USB2+H05261)
Correct for Detector Non-linearity: No (USB2+H05261)
Correct for Stray Light: No (USB2+H05261)
Number of Pixels in Processed Spectrum: 2048
>>>>>Begin Processed Spectral Data<<<<<
365.73	0.00
365.92	0.00
366.12	0.00
366.32	0.00
366.52	0.00
366.72	0.00
366.91	0.00
367.11	0.00
367.31	0.00
367.51	0.00
367.70	0.00
367.90	0.00
368.10	0.00
368.30	0.00
368.49	0.00
368.69	0.00
368.89	0.00
369.09	0.00
369.28	0.00
369.48	0.00
369.68	0.00
369.87	0.00
370.07	0.00
370.27	0.00
370.47	617.90
370.66	3227.60
370.86	3714.43
371.06	3817.41
371.25	4044.45
371.45	3522.51
371.65	3276.75
371.84	2904.60
372.04	3110.57
372.24	3552.93
372.44	3758.90
372.63	3681.66
372.83	3421.86
373.03	3049.72
373.22	2801.62
373.42	2930.35
373.62	3435.91
373.81	3679.32
374.01	3681.66
374.21	3361.01
374.40	3094.19
374.60	3248.66
374.79	3667.62
374.99	4112.32
375.19	4542.98
375.38	4599.15
375.58	4241.05
375.78	4308.93
375.97	4198.92
376.17	4430.63
376.37	4393.19
376.56	4599.15
376.76	4681.07
376.95	5048.54
377.15	5430.04
377.35	5664.10
377.54	5846.66
377.74	5996.45
377.93	6209.44
378.13	5816.23
378.33	5589.20
378.52	5233.44
378.72	4992.36
378.91	4961.94
379.11	4662.35
379.31	4552.34
379.50	4472.76
379.70	4751.29
379.89	5451.11
380.09	5881.77
380.28	5970.71
380.48	5827.93
380.68	5856.02
380.87	5664.10
381.07	5160.88
381.26	4903.42
381.46	4580.43
381.65	4341.69
381.85	4306.59
382.04	4140.41
382.24	3915.72
382.43	3662.94
382.63	3520.17
382.83	3655.92
383.02	3620.81
383.22	3602.08
383.41	3627.83
383.61	3894.65
383.80	4601.49
384.00	5034.49
384.19	5654.73
384.39	6057.31
384.58	5834.96
384.78	5626.65
384.97	5767.08
385.17	5530.69
385.36	5151.52
385.56	4994.70
385.75	5174.92
385.95	5509.62
386.14	5970.71
386.34	6228.17
386.53	5865.38
386.72	5397.28
386.92	5540.05
387.11	5816.23
387.31	6134.54
387.50	6033.90
387.70	5839.64
387.89	5727.29
388.09	5834.96
388.28	5944.96
388.48	5954.32
388.67	6300.72
388.86	6949.05
389.06	7375.03
389.25	7798.66
389.45	7866.54
389.64	7887.61
389.84	7714.41
390.03	7688.66
390.22	7634.83
390.42	7772.92
390.61	8524.23
390.81	8872.97
391.00	9191.28
391.19	9060.21
391.39	8697.43
391.58	8210.60
391.78	7798.66
391.97	7403.11
392.16	6986.50
392.36	6370.94
392.55	5282.59
392.75	4105.30
392.94	3382.07
393.13	3220.58
393.33	3817.41
393.52	4943.21
393.71	6179.01
393.91	6864.79
394.10	7487.37
394.29	8163.79
394.49	8982.98
394.68	9570.45
394.88	9729.61
395.07	9879.40
395.26	9795.14
395.46	9607.90
395.65	9249.80
395.84	7999.95
396.04	6862.45
396.23	5626.65
396.42	4587.45
396.62	4304.25
396.81	5067.26
397.00	6310.08
397.19	8170.81
397.39	9734.29
397.58	11084.78
397.77	11485.01
397.97	12070.14
398.16	12112.27
398.35	12711.45
398.55	12957.21
398.74	13280.20
398.93	13862.99
399.12	13451.06
399.32	13015.72
399.51	13373.82
399.70	14150.88
399.90	13968.32
400.09	14274.93
400.28	13755.33
400.47	14003.43
400.67	14707.93
400.86	15204.12
401.05	15187.74
401.24	15272.00
401.44	15723.72
401.63	15616.05
401.82	15538.82
402.01	15625.42
402.21	15566.90
402.40	15733.08
402.59	15269.66
402.78	14523.02
402.97	14031.51
403.17	14794.53
403.36	15527.11
403.55	16250.34
403.74	16730.15
403.93	15742.44
404.13	14621.33
404.32	14068.96
404.51	14803.89
404.70	16269.06
404.89	15936.71
405.09	16079.48
405.28	15396.04
405.47	15349.23
405.66	15407.75
405.85	15014.54
406.05	14403.66
406.24	14614.30
406.43	15169.01
406.62	15667.55
406.81	16095.86
407.00	15459.24
407.20	14817.93
407.39	15264.97
407.58	15838.41
407.77	16706.74
407.96	16959.52
408.15	17308.26
408.34	17259.11
408.54	18190.64
408.73	18143.83
408.92	18244.48
409.11	17774.03
409.30	16273.74
409.49	15578.61
409.68	14654.09
409.87	14097.05
410.07	14794.53
410.26	16135.65
410.45	17238.05
410.64	17874.67
410.83	18345.12
411.02	18869.40
411.21	19484.96
411.40	19058.98
411.59	19431.13
411.78	18937.27
411.98	18766.42
412.17	18974.72
412.36	19063.66
412.55	18757.05
412.74	18412.99
412.93	18087.66
413.12	18291.29
413.31	20231.59
413.50	19798.59
413.69	20556.93
413.88	19665.18
414.07	18864.72
414.26	19241.54
414.45	19866.47
414.64	19892.21
414.83	19896.89
415.02	19908.60
415.22	19784.55
415.41	20173.08
415.60	20943.11
415.79	21680.38
415.98	22218.71
416.17	22256.15
416.36	21385.47
416.55	21263.77
416.74	20713.74
416.93	19786.89
417.12	19983.49
417.31	20201.16
417.50	20561.61
417.69	21050.78
417.88	21345.69
418.07	21053.12
418.26	20280.74
418.45	21209.93
418.64	21614.85
418.83	22429.35
419.02	22061.89
419.21	22174.24
419.39	20912.69
419.58	20107.54
419.77	20025.62
419.96	20924.39
420.15	21998.70
420.34	22487.87
420.53	23613.66
420.72	23733.03
420.91	23707.29
421.10	23260.24
421.29	23414.72
421.48	22199.98
421.67	23562.17
421.86	22752.35
422.05	21397.18
422.24	19140.90
422.43	18766.42
422.61	20980.56
422.80	22682.13
422.99	22771.07
423.18	21722.51
423.37	21596.12
423.56	21497.82
423.75	21862.94
423.94	22380.20
424.13	21266.11
424.32	21120.99
424.50	21170.15
424.69	20926.73
424.88	21261.43
425.07	21001.63
425.26	21067.16
425.45	20692.68
425.64	20311.17
425.83	20306.49
426.01	21558.67
426.20	22527.66
426.39	22054.87
426.58	20620.12
426.77	19185.37
426.96	18078.30
427.15	19096.43
427.33	20505.43
427.52	21291.85
427.71	21362.07
427.90	21156.10
428.09	21219.30
428.28	20514.80
428.46	19990.52
428.65	19529.43
428.84	20081.80
429.03	20758.21
429.22	19300.06
429.40	18359.16
429.59	16580.36
429.78	14541.75
429.97	14574.52
430.16	15098.80
430.34	15030.92
430.53	15218.16
430.72	15286.04
430.91	16966.54
431.10	19859.45
431.28	23033.21
431.47	25156.08
431.66	25146.72
431.85	23346.84
432.03	21422.92
432.22	20173.08
432.41	21018.01
432.60	23747.08
432.79	24538.18
432.97	25130.33
433.16	24568.60
433.35	22422.33
433.54	19981.15
433.72	18925.57
433.91	19311.76
434.10	21839.54
434.28	23513.02
434.47	24936.07
434.66	24168.37
434.85	23749.42
435.03	23627.71
435.22	24135.60
435.41	25635.89
435.59	26012.71
435.78	25778.66
435.97	26504.23
436.16	27185.32
436.34	26349.75
436.53	25755.26
436.72	25965.90
436.90	24690.31
437.09	24474.98
437.28	23644.09
437.46	24774.57
437.65	24898.62
437.84	23271.95
438.02	21408.88
438.21	20837.79
438.40	22125.08
438.58	24428.17
438.77	24924.36
438.96	25242.68
439.14	26316.98
439.33	26434.01
439.52	26998.08
439.70	26539.33
439.89	25678.02
440.08	25406.52
440.26	24886.92
440.45	26101.65
440.63	27831.31
440.82	29556.28
441.01	28922.00
441.19	28669.22
441.38	28891.57
441.57	30335.68
441.75	30431.65
441.94	30878.69
442.12	30024.39
442.31	30920.82
442.50	31016.78
442.68	30445.69
442.87	30471.43
443.05	29476.71
443.24	30377.81
443.43	30909.11
443.61	30986.35
443.80	31707.24
443.98	30078.22
444.17	29879.28
444.35	31557.44
444.54	32294.71
444.73	31754.05
444.91	30665.70
445.10	29373.72
445.28	27899.19
445.47	27777.48
445.65	28079.41
445.84	28755.82
446.02	30005.67
446.21	30263.13
446.39	30160.14
446.58	30459.73
446.77	31417.01
446.95	31358.50
447.14	31962.36
447.32	32500.68
447.51	31732.98
447.69	30813.15
447.88	30284.19
448.06	30836.56
448.25	31278.92
448.43	31943.63
448.62	31175.94
448.80	30728.89
448.99	31218.07
449.17	31803.20
449.36	31407.65
449.54	32549.83
449.73	33198.16
449.91	33036.66
450.10	34609.50
450.28	34756.96
450.46	34522.90
450.65	34473.75
450.83	34366.09
451.02	33553.92
451.20	33387.74
451.39	33244.97
451.57	33113.90
451.76	33558.60
451.94	32826.01
452.13	32739.41
452.31	31257.85
452.49	29404.15
452.68	30017.37
452.86	30094.61
453.05	30410.58
453.23	31484.89
453.42	31910.86
453.60	32804.95
453.78	33273.06
453.97	32903.25
454.15	32519.40
454.34	31990.44
454.52	32271.31
454.70	31814.90
454.89	32041.93
455.07	31875.76
455.26	32362.59
455.44	33460.30
455.62	34445.66
455.81	34735.89
455.99	34197.57
456.17	34005.64
456.36	34150.76
456.54	34878.66
456.73	34869.30
456.91	35201.66
457.09	35679.13
457.28	36570.87
457.46	35061.22
457.64	34307.57
457.83	33905.00
458.01	33015.60
458.19	34033.73
458.38	33860.53
458.56	35445.07
458.74	35040.16
458.93	34202.25
459.11	34227.99
459.29	34192.89
459.48	33713.08
459.66	33937.77
459.84	34689.08
460.03	35103.35
460.21	34981.65
460.39	35416.99
460.57	35763.39
460.76	35995.10
460.94	36105.10
461.12	35391.24
461.31	35974.03
461.49	35772.75
461.67	35763.39
461.85	36943.02
462.04	36898.55
462.22	36985.15
462.40	36690.24
462.59	36425.76
462.77	36753.43
462.95	36596.62
463.13	36210.43
463.32	35728.28
463.50	35529.33
463.68	35236.77
463.86	35892.12
464.05	35372.52
464.23	34522.90
464.41	34352.04
464.59	33818.40
464.78	35562.10
464.96	35182.93
465.14	34948.88
465.32	35913.18
465.50	36627.04
465.69	37600.71
465.87	36451.50
466.05	35531.67
466.23	33809.04
466.41	32725.37
466.60	33640.52
466.78	34150.76
466.96	34389.49
467.14	35140.80
467.32	35880.41
467.51	35625.29
467.69	33727.12
467.87	34607.16
468.05	35482.52
468.23	35381.88
468.41	35412.31
468.60	35833.60
468.78	35709.55
468.96	35267.19
469.14	36004.46
469.32	35943.61
469.50	34986.33
469.69	34813.13
469.87	34590.78
470.05	34366.09
470.23	34415.24
470.41	34775.68
470.59	34838.87
470.77	34976.97
470.95	36301.71
471.14	35899.14
471.32	36254.90
471.50	38373.08
471.68	38234.99
471.86	38808.42
472.04	38810.76
472.22	38993.32
472.40	36954.72
472.58	36891.52
472.77	36250.22
472.95	37081.11
473.13	37963.49
473.31	36973.44
473.49	37027.28
473.67	37909.66
473.85	37958.81
474.03	39435.69
474.21	39283.55
474.39	39391.22
474.57	39592.50
474.75	39175.89
474.93	39241.42
475.12	38312.23
475.30	38522.88
475.48	38986.30
475.66	39290.57
475.84	39281.21
476.02	38555.64
476.20	37715.39
476.38	39161.84
476.56	40299.34
476.74	40411.69
476.92	40706.60
477.10	41181.73
477.28	42206.88
477.46	42295.82
477.64	43033.09
477.82	42630.52
478.00	43028.41
478.18	42504.13
478.36	42543.92
478.54	42162.41
478.72	42625.84
478.90	43168.84
479.08	44641.04
479.26	45139.57
479.44	44683.17
479.62	44671.46
479.80	44842.32
479.98	44886.79
480.16	45703.64
480.34	44816.58
480.52	45354.90
480.70	45485.97
480.88	45125.53
481.06	46209.20
481.24	46071.10
481.41	47482.45
481.59	48037.16
481.77	47587.77
481.95	47372.44
482.13	46923.06
482.31	47035.41
482.49	47646.29
482.67	47412.23
482.85	47810.12
483.03	48144.82
483.21	48659.74
483.39	48662.08
483.57	47955.24
483.74	47854.59
483.92	48311.00
484.10	48121.41
484.28	49492.97
484.46	49336.15
484.64	49745.75
484.82	48783.79
485.00	48720.59
485.18	47980.98
485.35	46763.90
485.53	43388.85
485.71	39782.09
485.89	39159.50
486.07	40828.30
486.25	44339.11
486.43	46864.55
486.61	47505.85
486.78	47735.23
486.96	47346.70
487.14	49020.18
487.32	49975.12
487.50	51051.76
487.68	51686.05
487.85	52381.19
488.03	52074.58
488.21	51990.32
488.39	51210.92
488.57	50768.56
488.75	50354.29
488.92	51161.77
489.10	53418.05
489.28	54597.68
489.46	55182.81
489.64	54878.54
489.81	55138.34
489.99	54925.35
490.17	54688.96
490.35	55175.79
490.53	55086.85
490.70	54363.62
490.88	54284.04
491.06	55276.43
491.24	55084.51
491.41	54319.15
491.59	52640.99
491.77	51845.21
491.95	52987.39
492.13	54255.96
492.30	55208.56
492.48	56065.19
492.66	56505.21
492.84	56442.02
493.01	56294.56
493.19	55592.40
493.37	55585.38
493.54	55302.18
493.72	55758.58
493.90	56647.99
494.08	57593.56
494.25	57701.23
494.43	57815.91
494.61	58183.38
494.79	58445.52
494.96	58129.54
495.14	57598.24
495.32	56664.37
495.49	56112.00
495.67	56903.10
495.85	58333.17
496.02	58745.11
496.20	58508.71
496.38	58141.25
496.55	57930.60
496.73	58543.82
496.91	58635.10
497.09	59199.17
497.26	59405.14
497.44	58782.55
497.62	58443.18
497.79	57638.03
497.97	56456.06
498.14	56655.01
498.32	57696.55
498.50	58562.54
498.67	58932.35
498.85	58934.69
499.03	59096.19
499.20	59231.94
499.38	59428.54
499.56	59175.76
499.73	58768.51
499.91	58454.88
500.08	57977.41
500.26	57097.37
500.44	57560.79
500.61	58328.49
500.79	58141.25
500.97	57642.71
501.14	57656.76
501.32	57518.67
501.49	57415.68
501.67	57605.26
501.84	58127.20
502.02	58288.70
502.20	58431.47
502.37	59114.91
502.55	58913.62
502.72	59398.12
502.90	59945.80
503.07	59650.89
503.25	59161.72
503.43	58454.88
503.60	57808.89
503.78	57118.43
503.95	57326.74
504.13	58810.64
504.30	59728.13
504.48	59433.22
504.65	59164.06
504.83	59063.42
505.01	59908.35
505.18	59746.86
505.36	60521.57
505.53	60608.17
505.71	60856.27
505.88	61015.43
506.06	60528.59
506.23	60058.15
506.41	59601.74
506.58	59866.22
506.76	59922.40
506.93	59749.20
507.11	59625.15
507.28	59611.10
507.46	59159.38
507.63	58822.34
507.81	58773.19
507.98	58986.18
508.16	59545.57
508.33	59987.93
508.50	60289.86
508.68	60654.98
508.85	60860.95
509.03	60828.18
509.20	61043.51
509.38	60058.15
509.55	59613.44
509.73	59723.45
509.90	60137.72
510.08	60320.29
510.25	60292.20
510.42	60053.47
510.60	59976.23
510.77	60327.31
510.95	60949.89
511.12	60837.54
511.30	61160.54
511.47	61460.13
511.64	61223.73
511.82	61020.11
511.99	60509.87
512.17	59924.74
512.34	59767.92
512.51	59765.58
512.69	59945.80
512.86	60025.38
513.04	60275.82
513.21	60540.30
513.38	60013.68
513.56	59505.78
513.73	58960.44
513.90	59290.45
514.08	59355.99
514.25	59496.42
514.43	59723.45
514.60	59777.28
514.77	60135.38
514.95	59999.63
515.12	60076.87
515.29	60397.52
515.47	60561.36
515.64	60898.40
515.81	60575.40
515.99	59945.80
516.16	58604.67
516.33	56446.70
516.51	55112.59
516.68	54248.94
516.85	54059.35
517.03	54330.86
517.20	56722.88
517.37	59159.38
517.54	59983.25
517.72	59704.73
517.89	57607.61
518.06	54981.52
518.24	55561.98
518.41	57457.81
518.58	58749.79
518.75	59126.61
518.93	59206.19
519.10	58969.80
519.27	59543.23
519.45	59707.07
519.62	60432.63
519.79	60615.19
519.96	60402.21
520.14	60037.08
520.31	59189.81
520.48	59152.36
520.65	59482.37
520.83	60451.36
521.00	60828.18
521.17	60514.55
521.34	60135.38
521.52	60343.69
521.69	61083.30
521.86	61462.47
522.03	61160.54
522.20	60072.19
522.38	59025.97
522.55	58979.16
522.72	59646.21
522.89	59707.07
523.07	59744.51
523.24	60088.57
523.41	60823.50
523.58	61209.69
523.75	61591.20
523.92	61607.58
524.10	61429.70
524.27	61345.44
524.44	61137.13
524.61	61059.90
524.78	60832.86
524.96	60853.93
525.13	60912.44
525.30	60874.99
525.47	61563.11
525.64	61429.70
525.81	60863.29
525.98	59524.50
526.16	57977.41
526.33	57560.79
526.50	57209.71
526.67	56875.02
526.84	57265.89
527.01	58356.58
527.18	59157.04
527.36	59831.11
527.53	60493.49
527.70	60952.23
527.87	60406.89
528.04	59882.61
528.21	60327.31
528.38	61017.77
528.55	61609.92
528.72	61961.00
528.89	62092.07
529.07	61731.63
529.24	61062.24
529.41	60594.13
529.58	60060.49
529.75	60018.36
529.92	60409.23
530.09	61066.92
530.26	61275.22
530.43	61616.94
530.60	61822.91
530.77	61829.93
530.94	61982.07
531.11	61462.47
531.28	61193.31
531.46	61066.92
531.63	61059.90
531.80	61013.08
531.97	60774.35
532.14	59910.69
532.31	58932.35
532.48	58642.12
532.65	58239.55
532.82	59208.53
532.99	60207.94
533.16	60491.15
533.33	61127.77
533.50	60807.12
533.67	60271.14
533.84	60065.17
534.01	60165.81
534.18	60282.84
534.35	60610.51
534.52	60432.63
534.69	60610.51
534.86	60945.21
535.03	60968.61
535.20	61455.45
535.37	61853.34
535.54	61942.28
535.71	61682.48
535.88	61354.80
536.05	60647.96
536.22	60308.58
536.38	60081.55
536.55	59702.38
536.72	59316.20
536.89	59250.66
537.06	59948.14
537.23	60619.88
537.40	60830.52
537.57	60994.36
537.74	60790.73
537.91	60626.90
538.08	60584.77
538.25	60844.57
538.42	60905.42
538.59	60622.22
538.75	60083.89
538.92	59777.28
539.09	59721.11
539.26	59430.88
539.43	59199.17
539.60	59274.07
539.77	59533.87
539.94	59604.08
540.11	58717.02
540.28	58234.87
540.44	58424.45
540.61	58578.93
540.78	58777.87
540.95	59363.01
541.12	59538.55
541.29	59786.64
541.46	60055.81
541.62	60238.37
541.79	60006.65
541.96	59590.04
542.13	59395.77
542.30	59721.11
542.47	59887.29
542.63	59559.61
542.80	59428.54
542.97	59611.10
543.14	59395.77
543.31	59281.09
543.48	59891.97
543.64	60896.06
543.81	60856.27
543.98	60748.60
544.15	60161.13
544.32	59599.40
544.48	59597.06
544.65	60264.11
544.82	60397.52
544.99	60041.76
545.16	59758.56
545.32	59409.82
545.49	60273.48
545.66	60664.35
545.83	60364.76
546.00	59938.78
546.16	59529.19
546.33	59667.28
546.50	59693.02
546.67	60104.96
546.83	59814.73
547.00	59828.77
547.17	59196.83
547.34	58513.39
547.50	58625.74
547.67	59051.72
547.84	59112.57
548.00	59283.43
548.17	60058.15
548.34	59718.77
548.51	59662.60
548.67	59948.14
548.84	59845.16
549.01	59880.27
549.18	59700.04
549.34	59599.40
549.51	59922.40
549.68	59583.02
549.84	59412.16
550.01	59245.98
550.18	59103.21
550.34	59346.62
550.51	59257.68
550.68	59353.65
550.84	58937.03
551.01	58920.65
551.18	59047.04
551.34	59264.70
551.51	59299.81
551.68	59709.41
551.84	59838.14
552.01	59545.57
552.18	59554.93
552.34	58705.32
552.51	58506.37
552.68	58518.07
552.84	58866.81
553.01	59093.85
553.18	58894.90
553.34	58974.48
553.51	59264.70
553.67	59316.20
553.84	59489.40
554.01	59360.67
554.17	59152.36
554.34	59264.70
554.51	59231.94
554.67	59737.49
554.84	59458.97
555.00	59210.87
555.17	58812.98
555.33	59056.40
555.50	58897.24
555.67	59016.61
555.83	59051.72
556.00	58457.22
556.16	58557.86
556.33	58113.16
556.50	58071.03
556.66	57982.09
556.83	57743.36
556.99	57731.65
557.16	58033.58
557.32	58152.95
557.49	58560.20
557.65	58328.49
557.82	58330.83
557.98	57991.45
558.15	57811.23
558.32	57209.71
558.48	56310.95
558.65	56624.58
558.81	56879.70
558.98	57228.44
559.14	57308.02
559.31	57394.62
559.47	57432.07
559.64	57029.49
559.80	57031.83
559.97	56821.19
560.13	57034.17
560.30	58122.52
560.46	58487.65
560.63	58803.62
560.79	58740.42
560.96	58480.63
561.12	57385.25
561.29	56439.68
561.45	56612.88
561.61	57008.43
561.78	57726.97
561.94	57343.12
562.11	57324.40
562.27	57099.71
562.44	57516.32
562.60	57649.74
562.77	57848.68
562.93	57769.10
563.10	57942.30
563.26	57340.78
563.42	57195.67
563.59	57073.96
563.75	57137.16
563.92	57277.59
564.08	57029.49
564.24	57396.96
564.41	57509.30
564.57	57340.78
564.74	57134.82
564.90	57195.67
565.07	56947.57
565.23	56547.34
565.39	56100.30
565.56	55622.83
565.72	55643.90
565.88	55973.91
566.05	55920.08
566.21	56135.41
566.38	56519.26
566.54	56676.07
566.70	56968.64
566.87	57298.65
567.03	57181.63
567.19	57268.23
567.36	57020.13
567.52	56839.91
567.68	56690.12
567.85	56086.26
568.01	55669.64
568.17	55110.25
568.34	55379.42
568.50	55154.72
568.66	55304.52
568.83	55826.46
568.99	55959.87
569.15	56072.21
569.32	56023.06
569.48	55756.24
569.64	55458.99
569.81	55536.23
569.97	55482.40
570.13	55154.72
570.30	54759.17
570.46	54209.15
570.62	53717.64
570.78	53773.81
570.95	53844.02
571.11	54901.95
571.27	54789.60
571.43	55161.75
571.60	55580.70
571.76	55246.00
571.92	55585.38
572.09	55868.59
572.25	55831.14
572.41	55863.91
572.57	55805.39
572.74	55723.47
572.90	55353.67
573.06	55409.84
573.22	55423.89
573.38	55370.05
573.55	55346.65
573.71	55538.57
573.87	55356.01
574.03	55178.13
574.20	55370.05
574.36	54824.71
574.52	54810.67
574.68	54583.63
574.84	54281.70
575.01	53860.41
575.17	53696.57
575.33	53984.46
575.49	54157.66
575.65	54482.99
575.82	54145.95
575.98	53895.52
576.14	54401.07
576.30	54850.45
576.46	54752.15
576.62	54522.78
576.79	54576.61
576.95	54365.96
577.11	53949.35
577.27	54274.68
577.43	54277.02
577.59	53808.92
577.75	53790.19
577.92	53066.97
578.08	52704.18
578.24	52779.08
578.40	52966.32
578.56	53546.78
578.72	53532.73
578.88	53652.10
579.04	53886.15
579.21	53808.92
579.37	53609.97
579.53	53907.22
579.69	54061.69
579.85	54389.37
580.01	54141.27
580.17	53673.16
580.33	53235.48
580.49	53551.46
580.65	53822.96
580.82	54082.76
580.98	54078.08
581.14	53872.11
581.30	53879.13
581.46	53820.62
581.62	53799.55
581.78	54152.97
581.94	54162.34
582.10	53923.60
582.26	54068.72
582.42	54040.63
582.58	54021.90
582.74	54087.44
582.90	53993.82
583.06	53935.30
583.22	53609.97
583.38	53584.22
583.54	53359.53
583.70	53483.58
583.86	53684.87
584.02	53525.71
584.18	53675.51
584.34	53588.91
584.50	53506.99
584.66	53301.02
584.82	52830.57
584.98	52725.25
585.14	52676.10
585.30	51814.78
