SpectraSuite Data File
++++++++++++++++++++++++++++++++++++
Date: Mon Oct 07 14:54:00 GMT-05:00 2013
User: price-jones
Dark Spectrum Present: No
Reference Spectrum Present: No
Number of Sampled Component Spectra: 1
Spectrometers: USB2+H05261
Integration Time (usec): 100000 (USB2+H05261)
Spectra Averaged: 1 (USB2+H05261)
Boxcar Smoothing: 0 (USB2+H05261)
Correct for Electrical Dark: No (USB2+H05261)
Strobe/Lamp Enabled: No (USB2+H05261)
Correct for Detector Non-linearity: No (USB2+H05261)
Correct for Stray Light: No (USB2+H05261)
Number of Pixels in Processed Spectrum: 2048
>>>>>Begin Processed Spectral Data<<<<<
365.73	0.00
365.92	0.00
366.12	0.00
366.32	0.00
366.52	0.00
366.72	0.00
366.91	0.00
367.11	0.00
367.31	0.00
367.51	0.00
367.70	0.00
367.90	0.00
368.10	0.00
368.30	0.00
368.49	0.00
368.69	0.00
368.89	0.00
369.09	0.00
369.28	0.00
369.48	0.00
369.68	0.00
369.87	0.00
370.07	0.00
370.27	0.00
370.47	692.80
370.66	3508.46
370.86	4112.32
371.06	4365.10
371.25	4514.89
371.45	3927.42
371.65	3630.17
371.84	3269.73
372.04	3541.23
372.24	4004.66
372.44	4170.83
372.63	4161.47
372.83	3691.02
373.03	3428.88
373.22	3030.99
373.42	3169.09
373.62	3602.08
373.81	4191.90
374.01	3948.48
374.21	3679.32
374.40	3236.96
374.60	3541.23
374.79	4042.11
374.99	4664.69
375.19	4894.06
375.38	4964.28
375.58	4706.82
375.78	4802.78
375.97	4664.69
376.17	4901.08
376.37	4856.61
376.56	4966.62
376.76	5345.78
376.95	5549.41
377.15	6033.90
377.35	6143.91
377.54	6434.13
377.74	6555.84
377.93	6607.33
378.13	6445.84
378.33	6244.55
378.52	5727.29
378.72	5451.11
378.91	5458.13
379.11	5324.72
379.31	5121.09
379.50	4966.62
379.70	5516.64
379.89	5975.39
380.09	6242.21
380.28	6502.01
380.48	6511.37
380.68	6516.05
380.87	6370.94
381.07	5799.85
381.26	5228.76
381.46	5062.58
381.65	4854.27
381.85	4720.86
382.04	4463.40
382.24	4269.14
382.43	3948.48
382.63	3852.52
382.83	3880.61
383.02	3873.59
383.22	3833.80
383.41	4018.70
383.61	4156.79
383.80	4807.46
384.00	5444.09
384.19	6328.81
384.39	6349.87
384.58	6359.24
384.78	6342.85
384.97	6263.27
385.17	5987.09
385.36	5671.12
385.56	5371.53
385.75	5444.09
385.95	6211.78
386.14	6523.07
386.34	6700.95
386.53	6335.83
386.72	5851.34
386.92	5977.73
387.11	6403.71
387.31	6546.48
387.50	6448.18
387.70	6303.06
387.89	6200.08
388.09	6282.00
388.28	6382.64
388.48	6483.28
388.67	6864.79
388.86	7463.97
389.06	7964.84
389.25	8521.89
389.45	8484.44
389.64	8393.16
389.84	8461.04
390.03	8318.26
390.22	8365.07
390.42	8505.51
390.61	9217.03
390.81	9762.37
391.00	9909.83
391.19	9867.70
391.39	9652.37
391.58	9097.66
391.78	8353.37
391.97	8208.26
392.16	7693.34
392.36	7066.08
392.55	5565.79
392.75	4479.79
392.94	3592.72
393.13	3604.42
393.33	4142.75
393.52	5535.37
393.71	6518.39
393.91	7716.75
394.10	8159.11
394.29	8849.57
394.49	9448.74
394.68	10429.43
394.88	10441.13
395.07	10537.09
395.26	10621.35
395.46	10361.55
395.65	9731.95
395.84	8559.34
396.04	7183.10
396.23	5886.45
396.42	4786.40
396.62	4760.65
396.81	5600.90
397.00	7012.24
397.19	8784.03
397.39	10396.66
397.58	11812.68
397.77	12369.73
397.97	12982.95
398.16	13036.78
398.35	13582.13
398.55	13785.76
398.74	14420.04
398.93	14696.22
399.12	14375.57
399.32	13984.70
399.51	14237.48
399.70	14906.87
399.90	15089.43
400.09	15295.40
400.28	15180.71
400.47	15187.74
400.67	16009.26
400.86	16196.51
401.05	15932.03
401.24	16025.65
401.44	16479.71
401.63	16681.00
401.82	16718.45
402.01	16594.40
402.21	16744.19
402.40	16922.07
402.59	16400.13
402.78	15693.29
402.97	15307.10
403.17	15913.30
403.36	16779.30
403.55	17551.68
403.74	17603.17
403.93	16690.36
404.13	15674.57
404.32	15159.65
404.51	16224.59
404.70	17221.66
404.89	17050.80
405.09	16723.13
405.28	16194.17
405.47	16367.37
405.66	16500.78
405.85	15779.89
406.05	15721.38
406.24	15775.21
406.43	16451.63
406.62	17008.67
406.81	17242.73
407.00	16292.47
407.20	16259.70
407.39	16400.13
407.58	16638.87
407.77	17528.27
407.96	18342.78
408.15	18602.58
408.34	18473.85
408.54	19580.92
408.73	19379.64
408.92	19033.24
409.11	18548.75
409.30	17675.73
409.49	16765.26
409.68	15541.16
409.87	14941.98
410.07	15829.04
410.26	17116.34
410.45	18679.82
410.64	18845.99
410.83	19396.02
411.02	19831.36
411.21	20746.51
411.40	20444.58
411.59	20732.47
411.78	20189.46
411.98	20011.58
412.17	20505.43
412.36	20418.83
412.55	20086.48
412.74	19683.91
412.93	19225.16
413.12	19269.63
413.31	21123.33
413.50	21135.04
413.69	21666.34
413.88	20926.73
414.07	20156.69
414.26	20360.32
414.45	21060.14
414.64	21561.02
414.83	21666.34
415.02	21270.79
415.22	20868.22
415.41	21291.85
415.60	22040.82
415.79	22757.03
415.98	23887.51
416.17	23566.85
416.36	22881.08
416.55	22712.56
416.74	21661.66
416.93	21020.35
417.12	21078.86
417.31	21294.19
417.50	21600.80
417.69	22562.76
417.88	22258.49
418.07	22274.88
418.26	21860.60
418.45	22134.45
418.64	22803.84
418.83	23552.81
419.02	23503.66
419.21	23353.87
419.39	22068.91
419.58	20947.79
419.77	21104.61
419.96	21888.69
420.15	23679.20
420.34	23985.81
420.53	24617.75
420.72	25364.39
420.91	25130.33
421.10	24430.51
421.29	24280.72
421.48	23651.11
421.67	25010.96
421.86	24261.99
422.05	22876.40
422.24	20198.82
422.43	19962.43
422.61	21741.24
422.80	23999.85
422.99	23943.68
423.18	23103.43
423.37	22567.45
423.56	22614.26
423.75	22623.62
423.94	23295.35
424.13	22043.17
424.32	22176.58
424.50	22352.12
424.69	21998.70
424.88	22256.15
425.07	22525.32
425.26	22335.73
425.45	21874.65
425.64	21958.91
425.83	21446.33
426.01	22712.56
426.20	23379.61
426.39	23290.67
426.58	21427.60
426.77	19906.26
426.96	19061.32
427.15	19606.67
427.33	21895.71
427.52	22335.73
427.71	22480.85
427.90	22190.62
428.09	22012.74
428.28	21818.47
428.46	20936.09
428.65	20425.86
428.84	20741.83
429.03	21685.06
429.22	20231.59
429.40	19173.67
429.59	17406.56
429.78	15154.97
429.97	15382.00
430.16	15463.92
430.34	15866.49
430.53	15740.10
430.72	15875.85
430.91	17642.96
431.10	20603.74
431.28	24547.54
431.47	26469.12
431.66	27002.76
431.85	24683.29
432.03	22136.79
432.22	21109.29
432.41	22061.89
432.60	24568.60
432.79	26001.01
432.97	26345.07
433.16	26019.74
433.35	23637.07
433.54	21158.44
433.72	19866.47
433.91	20285.42
434.10	22930.23
434.28	24758.19
434.47	25575.03
434.66	25404.17
434.85	24819.04
435.03	24650.52
435.22	24786.27
435.41	26747.64
435.59	26644.66
435.78	27180.64
435.97	27700.24
436.16	27623.00
436.34	27410.01
436.53	26930.20
436.72	26871.69
436.90	25577.37
437.09	25429.92
437.28	24912.66
437.46	26139.10
437.65	25888.67
437.84	24051.34
438.02	22424.67
438.21	22029.12
438.40	23126.83
438.58	25104.59
438.77	25986.97
438.96	26057.18
439.14	27089.36
439.33	28079.41
439.52	28456.23
439.70	27658.11
439.89	27278.94
440.08	26314.64
440.26	26249.11
440.45	26986.38
440.63	28599.01
440.82	30342.70
441.01	29848.85
441.19	29743.53
441.38	30031.41
441.57	30733.57
441.75	31438.08
441.94	31936.61
442.12	31180.62
442.31	32224.50
442.50	31931.93
442.68	31524.68
442.87	31145.51
443.05	30511.22
443.24	31314.03
443.43	32018.53
443.61	32561.53
443.80	33120.92
443.98	30932.52
444.17	30864.64
444.35	32943.04
444.54	33464.98
444.73	32748.78
444.91	31271.90
445.10	30677.40
445.28	29020.30
445.47	28458.57
445.65	28893.91
445.84	30047.80
446.02	30621.23
446.21	31597.23
446.39	31363.18
446.58	31648.72
446.77	32355.57
446.95	32032.57
447.14	33146.67
447.32	34197.57
447.51	33134.96
447.69	31761.07
447.88	31250.83
448.06	31487.23
448.25	32526.42
448.43	32786.22
448.62	32266.63
448.80	31655.75
448.99	32369.61
449.17	32570.90
449.36	32393.01
449.54	33551.58
449.73	34607.16
449.91	34440.98
450.10	35723.60
450.28	35756.36
450.46	35810.20
450.65	35861.69
450.83	35494.22
451.02	34883.34
451.20	34529.92
451.39	34534.60
451.57	33834.78
451.76	34134.37
451.94	33827.76
452.13	33530.51
452.31	31732.98
452.49	30277.17
452.68	30845.92
452.86	31185.30
453.05	31339.77
453.23	32697.28
453.42	32652.81
453.60	33687.33
453.78	34328.64
453.97	33778.61
454.15	33799.68
454.34	32582.60
454.52	32945.38
454.70	32409.40
454.89	33340.93
455.07	33022.62
455.26	33415.83
455.44	34817.81
455.62	35346.77
455.81	35147.82
455.99	35103.35
456.17	34574.39
456.36	34972.28
456.54	35693.17
456.73	35967.01
456.91	36301.71
457.09	36334.48
457.28	37368.99
457.46	35517.63
457.64	35391.24
457.83	34855.26
458.01	33926.07
458.19	34394.17
458.38	34955.90
458.56	35819.56
458.74	35857.01
458.93	34895.05
459.11	35077.61
459.29	34850.58
459.48	34927.81
459.66	34763.98
459.84	35192.30
460.03	35931.90
460.21	35267.19
460.39	36575.55
460.57	36554.49
460.76	36643.43
460.94	37013.23
461.12	36428.10
461.31	36601.30
461.49	36580.23
461.67	36161.28
461.85	37804.33
462.04	37532.83
462.22	37858.17
462.40	37284.73
462.59	37385.38
462.77	37125.58
462.95	37151.32
463.13	36615.34
463.32	36533.42
463.50	36140.21
463.68	36294.69
463.86	36706.62
464.05	36037.23
464.23	35182.93
464.41	34941.86
464.59	34462.05
464.78	36126.17
464.96	36135.53
465.14	35981.06
465.32	36605.98
465.50	37322.18
465.69	37993.92
465.87	36889.18
466.05	36116.81
466.23	34361.40
466.41	34005.64
466.60	34408.22
466.78	34728.87
466.96	35349.11
467.14	35747.00
467.32	36369.58
467.51	36465.55
467.69	34293.53
467.87	35201.66
468.05	35819.56
468.23	36091.06
468.41	35861.69
468.60	36102.76
468.78	36467.89
468.96	35962.33
469.14	36154.26
469.32	36907.91
469.50	35173.57
469.69	35587.85
469.87	35225.06
470.05	34480.77
470.23	34766.32
470.41	35122.08
470.59	35510.61
470.77	35587.85
470.95	36437.46
471.14	36683.22
471.32	37078.77
471.50	38593.09
471.68	38803.74
471.86	39129.08
472.04	39351.43
472.22	39529.31
472.40	37769.22
472.58	37163.03
472.77	36889.18
472.95	37675.60
473.13	38464.36
473.31	37230.90
473.49	37816.04
473.67	38658.63
473.85	38682.03
474.03	39473.13
474.21	39962.31
474.39	40020.82
474.57	39894.43
474.75	39950.60
474.93	39721.23
475.12	39274.19
475.30	38976.94
475.48	39075.24
475.66	39966.99
475.84	39206.31
476.02	39049.50
476.20	37848.80
476.38	39129.08
476.56	40289.98
476.74	40809.58
476.92	40975.76
477.10	41759.84
477.28	43000.32
477.46	42738.18
477.64	43398.21
477.82	42745.20
478.00	43896.75
478.18	42623.50
478.36	42656.26
478.54	42405.83
478.72	43028.41
478.90	43934.20
479.08	44933.60
479.26	45366.60
479.44	45214.47
479.62	44889.13
479.80	45095.10
479.98	45240.21
480.16	45303.41
480.34	45123.19
480.52	45464.91
480.70	45600.66
480.88	45837.05
481.06	46335.59
481.24	46525.17
481.41	47786.72
481.59	48121.41
481.77	47845.23
481.95	47510.53
482.13	47054.13
482.31	47276.48
482.49	48032.47
482.67	47810.12
482.85	47807.78
483.03	48505.26
483.21	49003.80
483.39	49282.32
483.57	48048.86
483.74	48086.31
483.92	48067.58
484.10	48336.74
484.28	49256.57
484.46	49413.39
484.64	49832.35
484.82	49088.06
485.00	48907.83
485.18	48151.84
485.35	46555.60
485.53	44177.61
485.71	39805.49
485.89	39342.06
486.07	41432.16
486.25	44631.68
486.43	47035.41
486.61	47793.74
486.78	47622.88
486.96	47861.61
487.14	49148.91
487.32	50068.74
487.50	51239.01
487.68	51821.80
487.85	52715.89
488.03	52240.76
488.21	51819.46
488.39	51461.36
488.57	50761.54
488.75	50836.44
488.92	51098.58
489.10	53584.22
489.28	54635.13
489.46	55241.32
489.64	55213.24
489.81	55302.18
489.99	55128.98
490.17	54997.91
490.35	55264.73
490.53	54899.61
490.70	54574.27
490.88	54328.52
491.06	55309.20
491.24	55295.16
491.41	54417.46
491.59	52680.78
491.77	51863.93
491.95	53076.33
492.13	54405.75
492.30	55281.11
492.48	56339.04
492.66	56608.20
492.84	56685.43
493.01	56432.66
493.19	55934.12
493.37	55737.52
493.54	55189.83
493.72	55807.73
493.90	56718.20
494.08	57474.20
494.25	57787.83
494.43	57879.11
494.61	58265.30
494.79	58300.40
494.96	58110.82
495.14	57483.56
495.32	56636.28
495.49	56147.11
495.67	57095.03
495.85	58412.75
496.02	58768.51
496.20	58571.91
496.38	58056.99
496.55	57963.37
496.73	58394.03
496.91	58560.20
497.09	59117.25
497.26	59281.09
497.44	58731.06
497.62	58321.47
497.79	57609.95
497.97	56282.86
498.14	56561.39
498.32	57588.88
498.50	58450.20
498.67	58920.65
498.85	58899.58
499.03	58986.18
499.20	59196.83
499.38	59264.70
499.56	59107.89
499.73	58679.57
499.91	58159.97
500.08	57986.77
500.26	57066.94
500.44	57717.61
500.61	58138.91
500.79	58099.12
500.97	57684.84
501.14	57528.03
501.32	57483.56
501.49	57361.85
501.67	57670.80
501.84	58038.26
502.02	58157.63
502.20	58560.20
502.37	58752.13
502.55	58747.45
502.72	59234.28
502.90	59545.57
503.07	59353.65
503.25	58869.15
503.43	58281.68
503.60	57757.40
503.78	56706.50
503.95	57602.92
504.13	58752.13
504.30	59643.87
504.48	59461.31
504.65	58955.75
504.83	59264.70
505.01	59629.83
505.18	59891.97
505.36	60374.12
505.53	60397.52
505.71	60664.35
505.88	60954.57
506.06	60259.43
506.23	59751.54
506.41	59428.54
506.58	59573.66
506.76	59678.98
506.93	59629.83
507.11	59267.05
507.28	59568.97
507.46	59100.87
507.63	58583.61
507.81	58497.01
507.98	58520.41
508.16	59203.85
508.33	59681.32
508.50	60004.31
508.68	60453.70
508.85	60776.69
509.03	60903.08
509.20	60786.05
509.38	60055.81
509.55	59121.93
509.73	59440.24
509.90	60001.97
510.08	60004.31
510.25	59985.59
510.42	59767.92
510.60	59622.81
510.77	60198.58
510.95	60657.32
511.12	60725.20
511.30	60966.27
511.47	61141.81
511.64	61102.03
511.82	60839.89
511.99	60048.78
512.17	59732.81
512.34	59458.97
512.51	59215.55
512.69	59454.29
512.86	59599.40
513.04	60182.19
513.21	60259.43
513.38	59739.83
513.56	59215.55
513.73	58637.44
513.90	58901.92
514.08	58822.34
514.25	59208.53
514.43	59433.22
514.60	59456.63
514.77	59732.81
514.95	59861.54
515.12	59950.48
515.29	59950.48
515.47	60329.65
515.64	60563.70
515.81	60046.44
515.99	59709.41
516.16	58244.23
516.33	56287.54
516.51	54473.63
516.68	54071.06
516.85	53457.84
517.03	54099.14
517.20	56453.72
517.37	58801.28
517.54	59831.11
517.72	59290.45
517.89	57043.54
518.06	54813.01
518.24	55000.25
518.41	57242.48
518.58	58515.73
518.75	58536.80
518.93	58768.51
519.10	58614.04
519.27	59133.63
519.45	59283.43
519.62	59805.37
519.79	60182.19
519.96	59971.55
520.14	59831.11
520.31	58862.13
520.48	58899.58
520.65	59227.26
520.83	59901.33
521.00	60528.59
521.17	59973.89
521.34	59796.01
521.52	59901.33
521.69	60343.69
521.86	60942.87
522.03	60526.25
522.20	59292.79
522.38	58424.45
522.55	58424.45
522.72	58993.20
522.89	59065.76
523.07	59224.92
523.24	59728.13
523.41	60523.91
523.58	60743.92
523.75	61190.97
523.92	61024.79
524.10	60996.70
524.27	61038.83
524.44	60963.93
524.61	60741.58
524.78	60439.65
524.96	60306.24
525.13	60329.65
525.30	60631.58
525.47	60879.67
525.64	60781.37
525.81	60154.11
525.98	58930.01
526.16	57698.89
526.33	56732.25
526.50	56594.15
526.67	56151.79
526.84	56872.68
527.01	57879.11
527.18	58534.46
527.36	59512.80
527.53	60130.70
527.70	60313.26
527.87	59929.42
528.04	59501.10
528.21	59913.03
528.38	60746.26
528.55	61179.26
528.72	61230.75
528.89	61366.51
529.07	61221.39
529.24	60680.73
529.41	60004.31
529.58	59494.08
529.75	59561.95
529.92	59915.37
530.09	60594.13
530.26	60832.86
530.43	61034.15
530.60	61153.52
530.77	61359.48
530.94	61380.55
531.11	60940.53
531.28	60694.77
531.46	60507.53
531.63	60544.98
531.80	60491.15
531.97	60126.02
532.14	59458.97
532.31	58291.04
532.48	57701.23
532.65	57832.30
532.82	58466.58
532.99	59568.97
533.16	60154.11
533.33	60378.80
533.50	60137.72
533.67	59849.84
533.84	59199.17
534.01	59430.88
534.18	59760.90
534.35	59779.62
534.52	59671.96
534.69	60236.03
534.86	60409.23
535.03	60472.42
535.20	61024.79
535.37	61254.16
535.54	61298.63
535.71	61043.51
535.88	60779.03
536.05	60104.96
536.22	59742.17
536.38	59320.88
536.55	58890.22
536.72	58525.10
536.89	58394.03
537.06	59147.68
537.23	59908.35
537.40	60076.87
537.57	60217.30
537.74	59959.84
537.91	60072.19
538.08	59791.33
538.25	59877.93
538.42	59964.52
538.59	59833.46
538.75	59238.96
538.92	59168.74
539.09	58990.86
539.26	58817.66
539.43	58658.51
539.60	58635.10
539.77	58934.69
539.94	58738.08
540.11	58124.86
540.28	57485.90
540.44	57787.83
540.61	57907.19
540.78	57956.35
540.95	58375.30
541.12	59044.69
541.29	59009.59
541.46	59412.16
541.62	59325.56
541.79	59449.61
541.96	58536.80
542.13	58728.72
542.30	59143.00
542.47	59054.06
542.63	58775.53
542.80	58712.34
542.97	58815.32
543.14	58543.82
543.31	58848.09
543.48	59103.21
543.64	59845.16
543.81	60186.88
543.98	59957.50
544.15	59367.69
544.32	58803.62
544.48	58768.51
544.65	59133.63
544.82	59716.43
544.99	59320.88
545.16	58915.96
545.32	58639.78
545.49	59767.92
545.66	59955.16
545.83	59465.99
546.00	59009.59
546.16	58777.87
546.33	58974.48
546.50	58864.47
546.67	59318.54
546.83	58834.05
547.00	58890.22
547.17	58401.05
547.34	57808.89
547.50	57752.72
547.67	58274.66
547.84	58188.06
548.00	58866.81
548.17	58969.80
548.34	58986.18
548.51	58775.53
548.67	58890.22
548.84	58941.71
549.01	59014.27
549.18	58894.90
549.34	58787.24
549.51	58829.37
549.68	58637.44
549.84	58599.99
550.01	58431.47
550.18	58370.62
550.34	58284.02
550.51	58398.71
550.68	58466.58
550.84	57939.96
551.01	58272.32
551.18	58164.65
551.34	58384.66
551.51	58707.66
551.68	58749.79
551.84	58894.90
552.01	58583.61
552.18	58525.10
552.34	57928.26
552.51	57291.63
552.68	57216.74
552.84	57909.53
553.01	58078.05
553.18	57851.02
553.34	58113.16
553.51	58122.52
553.67	58525.10
553.84	58522.76
554.01	58443.18
554.17	58351.90
554.34	58272.32
554.51	58354.24
554.67	58660.85
554.84	58546.16
555.00	58178.70
555.17	58010.18
555.33	58049.97
555.50	57858.04
555.67	58099.12
555.83	57668.46
556.00	57293.97
556.16	57808.89
556.33	57120.77
556.50	56863.32
556.66	57113.75
556.83	56671.39
556.99	57010.77
557.16	57153.54
557.32	57247.16
557.49	57733.99
557.65	57415.68
557.82	57509.30
557.98	57336.10
558.15	56612.88
558.32	56058.17
558.48	55047.06
558.65	55578.36
558.81	55618.15
558.98	56030.08
559.14	56250.09
559.31	56285.20
559.47	56395.21
559.64	56039.45
559.80	55697.73
559.97	55863.91
560.13	55999.66
560.30	57137.16
560.46	57539.73
560.63	57818.25
560.79	57750.38
560.96	57425.04
561.12	56191.58
561.29	55484.74
561.45	55519.85
561.61	55985.61
561.78	56435.00
561.94	56509.89
562.11	56243.07
562.27	55962.21
562.44	56432.66
562.60	56626.92
562.77	56757.99
562.93	56680.75
563.10	56542.66
563.26	56137.75
563.42	56076.90
563.59	55875.61
563.75	55814.76
563.92	55927.10
564.08	56011.36
564.24	56200.94
564.41	56367.12
564.57	55917.74
564.74	56002.00
564.90	55833.48
565.07	55908.38
565.23	55348.99
565.39	54887.90
565.56	54782.58
565.72	54693.64
565.88	54667.89
566.05	55004.93
566.21	55082.17
566.38	55133.66
566.54	55295.16
566.70	55454.31
566.87	56093.28
567.03	55807.73
567.19	56037.11
567.36	55718.79
567.52	55566.66
567.68	55503.46
567.85	54614.06
568.01	54415.11
568.17	54145.95
568.34	54052.33
568.50	54174.04
568.66	54040.63
568.83	54459.58
568.99	54419.80
569.15	54754.49
569.32	54618.74
569.48	54600.02
569.64	54239.57
569.81	53958.71
569.97	53839.34
570.13	53907.22
570.30	53469.54
570.46	53221.44
570.62	52521.62
570.78	52367.15
570.95	52659.71
571.11	53352.51
571.27	53291.66
571.43	53375.92
571.60	54040.63
571.76	54244.26
571.92	54443.20
572.09	54724.07
572.25	54604.70
572.41	54328.52
572.57	54426.82
572.74	54344.90
572.90	53820.62
573.06	53958.71
573.22	54237.23
573.38	54052.33
573.55	53937.65
573.71	54115.53
573.87	54192.76
574.03	53794.87
574.20	53670.82
574.36	53396.98
574.52	53127.82
574.68	53069.31
574.84	52853.98
575.01	52292.25
575.17	52128.41
575.33	52643.33
575.49	52652.69
575.65	53048.24
575.82	52502.90
575.98	52179.90
576.14	52760.36
576.30	52893.77
576.46	53396.98
576.62	53092.71
576.79	52961.64
576.95	52631.63
577.11	52409.28
577.27	52825.89
577.43	52619.92
577.59	52144.80
577.75	51789.03
577.92	51192.20
578.08	51107.94
578.24	51173.47
578.40	51632.22
578.56	51573.70
578.72	51800.74
578.88	52034.79
579.04	51964.57
579.21	52165.86
579.37	52360.12
579.53	52350.76
579.69	52168.20
579.85	52322.68
580.01	52231.40
580.17	51702.43
580.33	51770.31
580.49	51770.31
580.65	51936.49
580.82	52362.46
580.98	52193.95
581.14	52229.05
581.30	52165.86
581.46	52048.83
581.62	52409.28
581.78	52278.21
581.94	52341.40
582.10	52215.01
582.26	52236.08
582.42	52329.70
582.58	52725.25
582.74	52460.77
582.90	52200.97
583.06	52343.74
583.22	51992.66
583.38	52151.82
583.54	52065.22
583.70	51875.63
583.86	52189.27
584.02	51931.81
584.18	52027.77
584.34	51606.47
584.50	51854.57
584.66	51604.13
584.82	51182.84
584.98	50955.80
585.14	50906.65
