SpectraSuite Data File
++++++++++++++++++++++++++++++++++++
Date: Mon Oct 07 14:53:33 GMT-05:00 2013
User: price-jones
Dark Spectrum Present: No
Reference Spectrum Present: No
Number of Sampled Component Spectra: 1
Spectrometers: USB2+H05261
Integration Time (usec): 100000 (USB2+H05261)
Spectra Averaged: 1 (USB2+H05261)
Boxcar Smoothing: 0 (USB2+H05261)
Correct for Electrical Dark: No (USB2+H05261)
Strobe/Lamp Enabled: No (USB2+H05261)
Correct for Detector Non-linearity: No (USB2+H05261)
Correct for Stray Light: No (USB2+H05261)
Number of Pixels in Processed Spectrum: 2048
>>>>>Begin Processed Spectral Data<<<<<
365.73	0.00
365.92	0.00
366.12	0.00
366.32	0.00
366.52	0.00
366.72	0.00
366.91	0.00
367.11	0.00
367.31	0.00
367.51	0.00
367.70	0.00
367.90	0.00
368.10	0.00
368.30	0.00
368.49	0.00
368.69	0.00
368.89	0.00
369.09	0.00
369.28	0.00
369.48	0.00
369.68	0.00
369.87	0.00
370.07	0.00
370.27	0.00
370.47	608.54
370.66	2743.11
370.86	3452.29
371.06	3887.63
371.25	3817.41
371.45	3433.57
371.65	3042.70
371.84	2829.71
372.04	2916.31
372.24	3368.03
372.44	3604.42
372.63	3365.69
372.83	3274.41
373.03	2836.73
373.22	2661.19
373.42	2736.09
373.62	3197.17
373.81	3559.95
374.01	3384.41
374.21	3077.80
374.40	2951.42
374.60	2988.86
374.79	3377.39
374.99	4109.98
375.19	4107.64
375.38	4313.61
375.58	3985.93
375.78	3967.21
375.97	4035.08
376.17	4112.32
376.37	4098.28
376.56	4376.80
376.76	4641.28
376.95	4861.29
377.15	5195.99
377.35	5287.27
377.54	5626.65
377.74	5664.10
377.93	5647.71
378.13	5643.03
378.33	5366.85
378.52	4805.12
378.72	4762.99
378.91	4697.46
379.11	4608.51
379.31	4299.56
379.50	4369.78
379.70	4767.67
379.89	5163.22
380.09	5273.23
380.28	5713.25
380.48	5605.58
380.68	5619.63
380.87	5406.64
381.07	5050.88
381.26	4697.46
381.46	4337.01
381.65	4241.05
381.85	4135.73
382.04	3948.48
382.24	3618.47
382.43	3529.53
382.63	3456.97
382.83	3358.67
383.02	3396.12
383.22	3438.25
383.41	3375.05
383.61	3688.68
383.80	4234.03
384.00	4699.80
384.19	5107.05
384.39	5668.78
384.58	5467.49
384.78	5380.89
384.97	5504.94
385.17	5221.74
385.36	4858.95
385.56	4748.95
385.75	4889.38
385.95	5287.27
386.14	5804.53
386.34	5675.80
386.53	5657.07
386.72	5210.03
386.92	5233.44
387.11	5507.28
387.31	5785.80
387.50	5652.39
387.70	5511.96
387.89	5357.49
388.09	5561.11
388.28	5406.64
388.48	5551.75
388.67	5977.73
388.86	6656.48
389.06	7126.93
389.25	7494.40
389.45	7545.89
389.64	7585.68
389.84	7349.28
390.03	7155.02
390.22	7288.43
390.42	7644.19
390.61	8025.70
390.81	8545.30
391.00	8739.56
391.19	8755.94
391.39	8365.07
391.58	7801.01
391.78	7531.84
391.97	7211.19
392.16	6593.29
392.36	6356.90
392.55	4957.25
392.75	3936.78
392.94	3173.77
393.13	3122.27
393.33	3698.05
393.52	4718.52
393.71	5902.83
393.91	6569.88
394.10	7255.66
394.29	8124.00
394.49	8367.42
394.68	9046.17
394.88	9226.39
395.07	9708.54
395.26	9537.68
395.46	9226.39
395.65	8641.26
395.84	7578.65
396.04	6284.34
396.23	5181.95
396.42	4341.69
396.62	4140.41
396.81	4833.21
397.00	6164.97
397.19	7782.28
397.39	9207.67
397.58	10480.92
397.77	10906.90
397.97	11501.39
398.16	11609.06
398.35	12098.23
398.55	12025.67
398.74	12952.52
398.93	12936.14
399.12	12816.77
399.32	12257.39
399.51	12744.22
399.70	13521.27
399.90	13102.32
400.09	13301.26
400.28	13535.32
400.47	13488.51
400.67	14036.19
400.86	14218.75
401.05	14551.11
401.24	14544.09
401.44	14934.96
401.63	14724.31
401.82	14836.66
402.01	14824.95
402.21	14906.87
402.40	15094.11
402.59	14759.42
402.78	14005.77
402.97	13451.06
403.17	13998.74
403.36	14644.73
403.55	15412.43
403.74	15910.96
403.93	14963.04
404.13	13767.03
404.32	13460.42
404.51	14328.76
404.70	15384.34
404.89	15372.64
405.09	15260.29
405.28	14661.12
405.47	14558.13
405.66	14717.29
405.85	14321.74
406.05	14092.37
406.24	14022.15
406.43	14920.92
406.62	15147.95
406.81	15508.39
407.00	14523.02
407.20	14684.52
407.39	14508.98
407.58	14899.85
407.77	15587.97
407.96	16168.42
408.15	16388.43
408.34	16381.41
408.54	17366.78
408.73	17500.19
408.92	17490.82
409.11	16809.73
409.30	15838.41
409.49	15014.54
409.68	13928.53
409.87	13429.99
410.07	14422.38
410.26	15646.48
410.45	16823.77
410.64	16709.08
410.83	17446.35
411.02	17858.29
411.21	18464.49
411.40	18349.80
411.59	18384.91
411.78	18412.99
411.98	18015.10
412.17	18427.04
412.36	18141.49
412.55	17928.50
412.74	17729.56
412.93	17015.69
413.12	17181.87
413.31	19019.19
413.50	19171.33
413.69	19662.84
413.88	18897.49
414.07	18288.95
414.26	18249.16
414.45	19173.67
414.64	19276.65
414.83	18911.53
415.02	19009.83
415.22	18705.56
415.41	19414.74
415.60	19913.28
415.79	20463.30
415.98	21216.96
416.17	21359.73
416.36	20594.37
416.55	20503.09
416.74	20049.03
416.93	19007.49
417.12	18970.04
417.31	19702.63
417.50	19405.38
417.69	20561.61
417.88	20247.97
418.07	20229.25
418.26	19721.35
418.45	19948.39
418.64	20758.21
418.83	21329.30
419.02	20725.44
419.21	20938.43
419.39	20163.72
419.58	19070.68
419.77	19239.20
419.96	19814.98
420.15	21102.27
420.34	21792.73
420.53	22286.58
420.72	22871.72
420.91	22579.15
421.10	22244.45
421.29	22190.62
421.48	21429.94
421.67	22558.08
421.86	21848.90
422.05	20655.23
422.24	18391.93
422.43	17970.63
422.61	19946.05
422.80	21385.47
422.99	22001.04
423.18	21235.68
423.37	20517.14
423.56	20601.40
423.75	20779.28
423.94	21446.33
424.13	20027.96
424.32	20517.14
424.50	20498.41
424.69	20034.99
424.88	20493.73
425.07	20416.49
425.26	20084.14
425.45	19917.96
425.64	19583.26
425.83	19660.50
426.01	21025.03
426.20	21350.37
426.39	20776.94
426.58	19761.14
426.77	18230.43
426.96	17626.57
427.15	17994.04
427.33	19557.52
427.52	20264.36
427.71	20566.29
427.90	20435.22
428.09	20079.46
428.28	19814.98
428.46	18874.08
428.65	18771.10
428.84	19288.35
429.03	19676.88
429.22	18377.89
429.40	17767.01
429.59	15955.43
429.78	13994.06
429.97	14244.50
430.16	14267.91
430.34	14567.49
430.53	14239.82
430.72	14651.75
430.91	16044.37
431.10	18799.18
431.28	22160.19
431.47	24184.76
431.66	24353.27
431.85	22721.92
432.03	21015.67
432.22	19435.81
432.41	20762.89
432.60	22466.80
432.79	23697.92
432.97	24004.53
433.16	23578.56
433.35	21703.79
433.54	19456.87
433.72	18134.47
433.91	18621.30
434.10	21027.37
434.28	22551.06
434.47	23410.04
434.66	23300.03
434.85	22848.31
435.03	22817.88
435.22	23590.26
435.41	24737.12
435.59	24613.07
435.78	25158.42
435.97	25549.29
436.16	25848.88
436.34	25455.67
436.53	24945.43
436.72	24713.72
436.90	23777.50
437.09	23360.89
437.28	22768.73
437.46	24133.26
437.65	23625.37
437.84	22279.56
438.02	20533.52
438.21	20168.40
438.40	21282.49
438.58	23096.41
438.77	24121.56
438.96	24067.73
439.14	24882.24
439.33	25551.63
439.52	26171.87
439.70	25544.61
439.89	25191.19
440.08	24273.70
440.26	24168.37
440.45	25085.86
440.63	26548.70
440.82	28268.99
441.01	27838.33
441.19	27433.42
441.38	27845.35
441.57	28528.79
441.75	29247.33
441.94	29254.36
442.12	29013.28
442.31	29670.97
442.50	30022.05
442.68	29256.70
442.87	29172.44
443.05	28491.34
443.24	28549.85
443.43	29336.27
443.61	30225.68
443.80	30401.22
443.98	28563.90
444.17	28622.41
444.35	30665.70
444.54	31023.80
444.73	30433.99
444.91	29291.80
445.10	28245.58
445.28	26951.27
445.47	26375.50
445.65	26771.05
445.84	27541.08
446.02	28367.29
446.21	28945.41
446.39	29177.12
446.58	29453.30
446.77	29565.65
446.95	29846.51
447.14	30764.00
447.32	31241.47
447.51	30735.92
447.69	29879.28
447.88	29048.39
448.06	29591.39
448.25	30073.54
448.43	30480.80
448.62	29844.17
448.80	29788.00
448.99	30176.53
449.17	30258.45
449.36	30068.86
449.54	31426.37
449.73	31943.63
449.91	32268.97
450.10	33078.79
450.28	33612.43
450.46	33385.40
450.65	33277.74
450.83	33233.27
451.02	32430.46
451.20	32243.22
451.39	32215.13
451.57	31866.39
451.76	32135.56
451.94	31702.56
452.13	31281.26
452.31	29638.20
452.49	28603.69
452.68	28709.01
452.86	28907.96
453.05	29134.99
453.23	29890.98
453.42	30693.79
453.60	31548.08
453.78	31824.26
453.97	31112.74
454.15	31775.11
454.34	31112.74
454.52	30932.52
454.70	30387.18
454.89	30913.80
455.07	30902.09
455.26	31447.44
455.44	32617.71
455.62	33078.79
455.81	33177.09
455.99	32968.79
456.17	33125.60
456.36	32493.66
456.54	33436.89
456.73	33663.93
456.91	34251.40
457.09	34368.43
457.28	35117.40
457.46	33837.12
457.64	33656.90
457.83	32746.44
458.01	31550.42
458.19	32393.01
458.38	32393.01
458.56	33832.44
458.74	33741.16
458.93	33205.18
459.11	33029.64
459.29	32816.65
459.48	32631.75
459.66	32830.69
459.84	32531.11
460.03	33666.27
460.21	33446.26
460.39	34361.40
460.57	33804.36
460.76	34962.92
460.94	34771.00
461.12	34307.57
461.31	34501.84
461.49	34316.93
461.67	34326.30
461.85	35604.23
462.04	35182.93
462.22	35857.01
462.40	35311.66
462.59	35138.46
462.77	35072.93
462.95	35531.67
463.13	34733.55
463.32	34326.30
463.50	34115.65
463.68	34019.69
463.86	34618.86
464.05	34178.84
464.23	33273.06
464.41	33050.70
464.59	32236.20
464.78	34225.65
464.96	33912.02
465.14	33731.80
465.32	34225.65
465.50	35466.14
465.69	35793.81
465.87	35683.81
466.05	34157.78
466.23	32219.81
466.41	31793.84
466.60	32921.98
466.78	32924.32
466.96	33605.41
467.14	33549.24
467.32	34740.57
467.51	34089.90
467.69	32531.11
467.87	33741.16
468.05	34389.49
468.23	34211.61
468.41	34309.91
468.60	34312.25
468.78	34291.19
468.96	33783.29
469.14	34895.05
469.32	34731.21
469.50	33544.56
469.69	33876.91
469.87	33310.50
470.05	33394.76
470.23	33083.47
470.41	33254.33
470.59	33460.30
470.77	33708.40
470.95	34541.63
471.14	35075.27
471.32	35105.70
471.50	36758.11
471.68	37244.94
471.86	37516.45
472.04	37500.06
472.22	37584.32
472.40	36128.51
472.58	35463.80
472.77	34855.26
472.95	35669.76
473.13	36479.59
473.31	35798.49
473.49	35903.82
473.67	36718.32
473.85	37193.45
474.03	37926.04
474.21	37998.60
474.39	38719.48
474.57	38660.97
474.75	38740.55
474.93	37858.17
475.12	37055.36
475.30	37060.04
475.48	37710.71
475.66	38234.99
475.84	37514.11
476.02	37078.77
476.20	36540.44
476.38	37390.06
476.56	38621.18
476.74	39208.65
476.92	38925.45
477.10	40114.44
477.28	40975.76
477.46	41242.58
477.64	41127.89
477.82	41167.68
478.00	41373.65
478.18	41081.08
478.36	40755.75
478.54	40704.26
478.72	40973.42
478.90	42059.43
479.08	42857.55
479.26	43531.62
479.44	43892.07
479.62	42885.64
479.80	43515.24
479.98	43510.56
480.16	43409.92
480.34	42939.47
480.52	43817.17
480.70	43782.06
480.88	44067.61
481.06	44994.46
481.24	45453.20
481.41	45883.86
481.59	46773.27
481.77	46438.57
481.95	45848.75
482.13	45516.40
482.31	45792.58
482.49	45888.54
482.67	46398.78
482.85	46574.32
483.03	46923.06
483.21	47475.43
483.39	47201.58
483.57	46586.02
483.74	46595.38
483.92	46227.92
484.10	46492.40
484.28	47693.10
484.46	48046.52
484.64	48376.53
484.82	47409.89
485.00	47428.62
485.18	46520.49
485.35	45209.79
485.53	41780.90
485.71	38455.00
485.89	38124.99
486.07	39964.65
486.25	42843.51
486.43	45287.03
486.61	46124.94
486.78	45848.75
486.96	45949.40
487.14	47819.49
487.32	48631.65
487.50	49841.71
487.68	50646.85
487.85	51288.16
488.03	51147.73
488.21	50492.38
488.39	50103.85
488.57	49556.16
488.75	49017.84
488.92	50092.15
489.10	52287.57
489.28	53535.07
489.46	54176.38
489.64	54028.93
489.81	54223.19
489.99	53815.94
490.17	53862.75
490.35	54066.38
490.53	53609.97
490.70	53418.05
490.88	53230.80
491.06	54181.06
491.24	54225.53
491.41	53499.97
491.59	51576.04
491.77	50883.25
491.95	52072.24
492.13	53010.79
492.30	54380.01
492.48	55327.92
492.66	55697.73
492.84	55655.60
493.01	55395.80
493.19	54663.21
493.37	54585.97
493.54	54213.83
493.72	54892.58
493.90	55917.74
494.08	56500.53
494.25	57020.13
494.43	56919.49
494.61	57350.15
494.79	57326.74
494.96	57034.17
495.14	56619.90
495.32	56013.70
495.49	55234.30
495.67	56140.09
495.85	57144.18
496.02	57778.46
496.20	57832.30
496.38	57443.77
496.55	57120.77
496.73	57705.91
496.91	57771.44
497.09	58412.75
497.26	58611.70
497.44	57708.25
497.62	57584.20
497.79	56853.95
497.97	55508.14
498.14	55669.64
498.32	56528.62
498.50	57326.74
498.67	58365.94
498.85	57968.05
499.03	58227.85
499.20	58504.03
499.38	58394.03
499.56	58349.56
499.73	57586.54
499.91	57687.18
500.08	56935.87
500.26	56411.59
500.44	56755.65
500.61	57366.53
500.79	57251.84
500.97	56690.12
501.14	56678.41
501.32	56584.79
501.49	56610.54
501.67	56715.86
501.84	57420.36
502.02	57544.41
502.20	57712.93
502.37	58162.31
502.55	58017.20
502.72	58426.79
502.90	59224.92
503.07	58805.96
503.25	58394.03
503.43	57542.07
503.60	56809.48
503.78	56301.59
503.95	56519.26
504.13	57808.89
504.30	58810.64
504.48	58656.17
504.65	58279.34
504.83	58277.00
505.01	58822.34
505.18	59334.92
505.36	59870.90
505.53	59987.93
505.71	60119.00
505.88	60133.04
506.06	59517.48
506.23	59355.99
506.41	58904.26
506.58	59124.27
506.76	59217.89
506.93	59281.09
507.11	58705.32
507.28	59018.95
507.46	58426.79
507.63	57930.60
507.81	57925.92
507.98	58005.50
508.16	58550.84
508.33	59075.12
508.50	59779.62
508.68	59875.58
508.85	60233.69
509.03	60214.96
509.20	60114.32
509.38	59547.91
509.55	58829.37
509.73	58695.95
509.90	59250.66
510.08	59566.63
510.25	59496.42
510.42	59334.92
510.60	59182.79
510.77	59480.03
510.95	60032.40
511.12	60264.11
511.30	60388.16
511.47	60697.11
511.64	60762.65
511.82	60243.05
511.99	59489.40
512.17	59121.93
512.34	58883.20
512.51	59079.80
512.69	58981.50
512.86	59227.26
513.04	59505.78
513.21	59566.63
513.38	59248.32
513.56	58808.30
513.73	58150.61
513.90	58583.61
514.08	58656.17
514.25	58993.20
514.43	58817.66
514.60	59168.74
514.77	59100.87
514.95	59206.19
515.12	59091.51
515.29	59243.64
515.47	59826.43
515.64	60214.96
515.81	59758.56
515.99	59105.55
516.16	57914.22
516.33	55573.68
516.51	54356.60
516.68	53359.53
516.85	53073.99
517.03	53598.27
517.20	56025.40
517.37	58279.34
517.54	59210.87
517.72	58742.77
517.89	56619.90
518.06	54244.26
518.24	54377.67
518.41	56591.81
518.58	57839.32
518.75	58365.94
518.93	58354.24
519.10	58061.67
519.27	58789.58
519.45	58855.11
519.62	59571.32
519.79	59882.61
519.96	59774.94
520.14	59522.16
520.31	58309.77
520.48	58487.65
520.65	58707.66
520.83	59465.99
521.00	59927.08
521.17	59812.39
521.34	59353.65
521.52	59643.87
521.69	60140.07
521.86	60411.57
522.03	60275.82
522.20	59196.83
522.38	58033.58
522.55	57946.98
522.72	58646.80
522.89	58850.43
523.07	58958.09
523.24	59299.81
523.41	60048.78
523.58	60285.18
523.75	60715.84
523.92	60718.18
524.10	60781.37
524.27	60657.32
524.44	60479.44
524.61	60282.84
524.78	60182.19
524.96	59887.29
525.13	60334.33
525.30	60324.97
525.47	60704.13
525.64	60582.43
525.81	59929.42
525.98	58688.93
526.16	57415.68
526.33	56348.40
526.50	56278.18
526.67	55861.57
526.84	56706.50
527.01	57593.56
527.18	58262.96
527.36	59231.94
527.53	59873.24
527.70	60156.45
527.87	59854.52
528.04	59278.75
528.21	59590.04
528.38	60360.08
528.55	61036.49
528.72	61057.56
528.89	61270.54
529.07	60980.32
529.24	60444.33
529.41	60030.06
529.58	59309.18
529.75	59276.41
529.92	59913.03
530.09	60044.10
530.26	60755.63
530.43	60757.97
530.60	60837.54
530.77	61045.85
530.94	61261.18
531.11	60821.16
531.28	60530.93
531.46	60341.35
531.63	60502.85
531.80	60357.74
531.97	60051.12
532.14	59253.00
532.31	58391.68
532.48	57586.54
532.65	57834.64
532.82	58330.83
532.99	59463.65
533.16	59901.33
533.33	60294.54
533.50	60268.79
533.67	59622.81
533.84	59168.74
534.01	59213.21
534.18	59587.70
534.35	59950.48
534.52	59550.25
534.69	59868.56
534.86	60027.72
535.03	60226.66
535.20	60559.02
535.37	61275.22
535.54	61235.44
535.71	60942.87
535.88	60741.58
536.05	59959.84
536.22	59742.17
536.38	59344.28
536.55	59007.25
536.72	58478.28
536.89	58398.71
537.06	59124.27
537.23	59849.84
537.40	60100.28
537.57	60294.54
537.74	60079.21
537.91	60006.65
538.08	59805.37
538.25	59955.16
538.42	60114.32
538.59	59625.15
538.75	59056.40
538.92	59040.01
539.09	58787.24
539.26	58602.33
539.43	58468.92
539.60	58614.04
539.77	58930.01
539.94	58653.82
540.11	58227.85
540.28	57691.86
540.44	57518.67
540.61	57946.98
540.78	58092.10
540.95	58578.93
541.12	58953.41
541.29	59114.91
541.46	59372.37
541.62	59302.15
541.79	59178.10
541.96	58588.29
542.13	58508.71
542.30	58859.79
542.47	59105.55
542.63	59014.27
542.80	58567.23
542.97	58901.92
543.14	58649.14
543.31	58845.75
543.48	59213.21
543.64	60210.28
543.81	60224.32
543.98	59873.24
544.15	59606.42
544.32	58691.27
544.48	58944.05
544.65	59409.82
544.82	59767.92
544.99	59545.57
545.16	59070.44
545.32	58738.08
545.49	59531.53
545.66	59756.22
545.83	59686.00
546.00	59302.15
546.16	58773.19
546.33	58817.66
546.50	59079.80
546.67	59229.60
546.83	58958.09
547.00	59049.38
547.17	58384.66
547.34	58028.90
547.50	57785.49
547.67	58326.15
547.84	58330.83
548.00	58422.11
548.17	59112.57
548.34	59035.33
548.51	58869.15
548.67	58934.69
548.84	59161.72
549.01	59143.00
549.18	58831.71
549.34	58780.21
549.51	58955.75
549.68	58953.41
549.84	58658.51
550.01	58525.10
550.18	58443.18
550.34	58721.70
550.51	58611.70
550.68	58595.31
550.84	58113.16
551.01	58099.12
551.18	58166.99
551.34	58314.45
551.51	58906.60
551.68	58883.20
551.84	58969.80
552.01	58939.37
552.18	58848.09
552.34	57946.98
552.51	57642.71
552.68	57755.06
552.84	57993.79
553.01	58314.45
553.18	58251.25
553.34	58279.34
553.51	58323.81
553.67	58590.63
553.84	58735.74
554.01	58855.11
554.17	58494.67
554.34	58562.54
554.51	58653.82
554.67	58953.41
554.84	58782.55
555.00	58628.08
555.17	58035.92
555.33	58014.86
555.50	58012.52
555.67	58368.28
555.83	58169.33
556.00	57642.71
556.16	57783.15
556.33	57270.57
556.50	57249.50
556.66	57226.10
556.83	56879.70
556.99	57092.69
557.16	57153.54
557.32	57563.14
557.49	57851.02
557.65	57638.03
557.82	57836.98
557.98	57509.30
558.15	56994.39
558.32	56212.65
558.48	55491.76
558.65	55529.21
558.81	56191.58
558.98	56348.40
559.14	56580.11
559.31	56563.73
559.47	56680.75
559.64	56334.35
559.80	55838.16
559.97	55931.78
560.13	56420.95
560.30	57347.81
560.46	57811.23
560.63	57986.77
560.79	58152.95
560.96	57689.52
561.12	56566.07
561.29	55690.71
561.45	55934.12
561.61	56268.82
561.78	56659.69
561.94	56769.69
562.11	56809.48
562.27	56301.59
562.44	56809.48
562.60	57221.42
562.77	57242.48
562.93	57144.18
563.10	56891.40
563.26	56076.90
563.42	56399.89
563.59	56250.09
563.75	56313.29
563.92	56353.08
564.08	56472.45
564.24	56458.40
564.41	56736.93
564.57	56626.92
564.74	56313.29
564.90	56222.01
565.07	56214.99
565.23	55737.52
565.39	55187.49
565.56	54892.58
565.72	54733.43
565.88	55231.96
566.05	55196.85
566.21	55601.77
566.38	55718.79
566.54	55615.81
566.70	55852.20
566.87	56168.18
567.03	56282.86
567.19	56512.23
567.36	56067.53
567.52	55966.89
567.68	55980.93
567.85	55264.73
568.01	55157.06
568.17	54756.83
568.34	54635.13
568.50	54335.54
568.66	54630.44
568.83	55201.53
568.99	55091.53
569.15	55318.56
569.32	55175.79
569.48	54848.11
569.64	54883.22
569.81	54546.18
569.97	54274.68
570.13	54389.37
570.30	53921.26
570.46	53736.36
570.62	52978.03
570.78	52835.25
570.95	53228.46
571.11	53890.83
571.27	53949.35
571.43	54195.10
571.60	54660.87
571.76	54777.90
571.92	54857.48
572.09	55140.68
572.25	54906.63
572.41	54990.89
572.57	54934.71
572.74	54908.97
572.90	54429.16
573.06	54291.07
573.22	54515.76
573.38	54415.11
573.55	54618.74
573.71	54761.51
573.87	54597.68
574.03	54403.41
574.20	54372.99
574.36	54073.40
574.52	54181.06
574.68	54017.22
574.84	53413.37
575.01	53013.13
575.17	52676.10
575.33	53017.82
575.49	53258.89
575.65	53652.10
575.82	53359.53
575.98	53034.20
576.14	53434.43
576.30	53963.39
576.46	54071.06
576.62	53799.55
576.79	53635.72
576.95	53181.65
577.11	53413.37
577.27	53394.64
577.43	53422.73
577.59	53043.56
577.75	52701.84
577.92	52023.09
578.08	51840.53
578.24	51803.08
578.40	52060.54
578.56	52271.18
578.72	52528.64
578.88	52608.22
579.04	52732.27
579.21	52982.71
579.37	53160.59
579.53	53191.01
579.69	53066.97
579.85	53282.30
580.01	52921.85
580.17	52526.30
580.33	52404.59
580.49	52762.70
580.65	52781.42
580.82	53022.50
580.98	53118.46
581.14	52940.58
581.30	52886.74
581.46	53106.76
581.62	53015.47
581.78	53137.18
581.94	53270.59
582.10	52879.72
582.26	53436.77
582.42	53139.52
582.58	53097.39
582.74	53132.50
582.90	53141.86
583.06	53216.76
583.22	53125.48
583.38	52891.43
583.54	52734.61
583.70	52732.27
583.86	52626.95
584.02	52507.58
584.18	52861.00
584.34	52596.52
584.50	52332.04
584.66	52519.28
584.82	52289.91
584.98	51880.31
585.14	51718.82
585.30	51086.87
