SpectraSuite Data File
++++++++++++++++++++++++++++++++++++
Date: Mon Oct 07 14:53:39 GMT-05:00 2013
User: price-jones
Dark Spectrum Present: No
Reference Spectrum Present: No
Number of Sampled Component Spectra: 1
Spectrometers: USB2+H05261
Integration Time (usec): 100000 (USB2+H05261)
Spectra Averaged: 1 (USB2+H05261)
Boxcar Smoothing: 0 (USB2+H05261)
Correct for Electrical Dark: No (USB2+H05261)
Strobe/Lamp Enabled: No (USB2+H05261)
Correct for Detector Non-linearity: No (USB2+H05261)
Correct for Stray Light: No (USB2+H05261)
Number of Pixels in Processed Spectrum: 2048
>>>>>Begin Processed Spectral Data<<<<<
365.73	0.00
365.92	0.00
366.12	0.00
366.32	0.00
366.52	0.00
366.72	0.00
366.91	0.00
367.11	0.00
367.31	0.00
367.51	0.00
367.70	0.00
367.90	0.00
368.10	0.00
368.30	0.00
368.49	0.00
368.69	0.00
368.89	0.00
369.09	0.00
369.28	0.00
369.48	0.00
369.68	0.00
369.87	0.00
370.07	0.00
370.27	0.00
370.47	135.75
370.66	1430.07
370.86	1687.53
371.06	1895.83
371.25	1914.56
371.45	1748.38
371.65	1526.03
371.84	1357.51
372.04	1504.96
372.24	1633.69
372.44	1724.97
372.63	1729.66
372.83	1572.84
373.03	1392.62
373.22	1355.17
373.42	1409.00
373.62	1537.73
373.81	1743.70
374.01	1820.94
374.21	1526.03
374.40	1565.82
374.60	1577.52
374.79	1713.27
374.99	1996.48
375.19	2083.08
375.38	2242.23
375.58	1973.07
375.78	2069.03
375.97	1994.14
376.17	2150.95
376.37	2193.08
376.56	2146.27
376.76	2282.02
376.95	2490.33
377.15	2628.42
377.35	2778.22
377.54	2899.92
377.74	3035.67
377.93	2995.89
378.13	2928.01
378.33	2640.12
378.52	2562.89
378.72	2366.28
378.91	2352.24
379.11	2303.09
379.31	2272.66
379.50	2284.36
379.70	2567.57
379.89	2705.66
380.09	2715.02
380.28	2871.84
380.48	2827.37
380.68	2867.16
380.87	2740.77
381.07	2731.41
381.26	2382.67
381.46	2073.71
381.65	2085.42
381.85	2125.21
382.04	2064.35
382.24	1813.92
382.43	1795.19
382.63	1755.40
382.83	1769.44
383.02	1769.44
383.22	1696.89
383.41	1647.74
383.61	1902.86
383.80	2200.10
384.00	2361.60
384.19	2708.00
384.39	2885.88
384.58	2899.92
384.78	2708.00
384.97	2736.09
385.17	2588.63
385.36	2553.52
385.56	2396.71
385.75	2413.09
385.95	2787.58
386.14	2986.52
386.34	2972.48
386.53	2801.62
386.72	2502.03
386.92	2682.25
387.11	2834.39
387.31	3054.40
387.50	2773.53
387.70	2729.06
387.89	2860.13
388.09	2813.32
388.28	2843.75
388.48	2848.43
388.67	3038.02
388.86	3370.37
389.06	3676.98
389.25	3896.99
389.45	3691.02
389.64	3782.31
389.84	3904.01
390.03	3665.28
390.22	3730.81
390.42	3906.35
390.61	4058.49
390.81	4358.08
391.00	4472.76
391.19	4409.57
391.39	4212.96
391.58	4035.08
391.78	3702.73
391.97	3754.22
392.16	3396.12
392.36	3103.55
392.55	2434.16
392.75	1942.64
392.94	1593.90
393.13	1469.86
393.33	1900.52
393.52	2525.44
393.71	3054.40
393.91	3482.72
394.10	3730.81
394.29	4037.42
394.49	4259.78
394.68	4753.63
394.88	4657.67
395.07	4847.25
395.26	4858.95
395.46	4678.73
395.65	4308.93
395.84	3948.48
396.04	3255.69
396.23	2693.96
396.42	2202.44
396.62	2076.06
396.81	2422.45
397.00	3339.94
397.19	4135.73
397.39	4858.95
397.58	5334.08
397.77	5643.03
397.97	5877.09
398.16	5872.40
398.35	6179.01
398.55	6193.06
398.74	6677.55
398.93	6712.66
399.12	6583.93
399.32	6424.77
399.51	6621.38
399.70	7012.24
399.90	6981.82
400.09	6972.46
400.28	6850.75
400.47	6904.58
400.67	7272.04
400.86	7545.89
401.05	7517.80
401.24	7566.95
401.44	7583.34
401.63	7349.28
401.82	7707.38
402.01	7571.63
402.21	7723.77
402.40	7829.09
402.59	7569.29
402.78	7236.94
402.97	6949.05
403.17	7400.77
403.36	7676.96
403.55	8039.74
403.74	8203.58
403.93	7749.51
404.13	7190.13
404.32	7183.10
404.51	7389.07
404.70	8044.42
404.89	8159.11
405.09	7911.01
405.28	7611.42
405.47	7613.76
405.66	7672.28
405.85	7379.71
406.05	7103.53
406.24	7124.59
406.43	7669.94
406.62	8049.10
406.81	8177.83
407.00	7702.70
407.20	7522.48
407.39	7679.30
407.58	7906.33
407.77	8255.07
407.96	8299.54
408.15	8411.89
408.34	9025.11
408.54	9128.09
408.73	9015.74
408.92	9006.38
409.11	8730.20
409.30	8273.79
409.49	7786.96
409.68	7288.43
409.87	7145.66
410.07	7461.63
410.26	8128.68
410.45	8779.35
410.64	8870.63
410.83	9160.86
411.02	9371.50
411.21	9678.12
411.40	9507.26
411.59	9577.47
411.78	9509.60
411.98	9254.48
412.17	9404.27
412.36	9233.41
412.55	9476.83
412.74	9224.05
412.93	9132.77
413.12	9137.45
413.31	10085.37
413.50	9963.66
413.69	10469.22
413.88	9877.06
414.07	9537.68
414.26	9650.03
414.45	9839.61
414.64	10038.56
414.83	10312.40
415.02	9970.68
415.22	9893.44
415.41	10076.01
415.60	10366.23
415.79	10778.17
415.98	11122.23
416.17	11105.84
416.36	10686.89
416.55	10581.56
416.74	10555.82
416.93	9848.97
417.12	9872.38
417.31	10239.84
417.50	10218.78
417.69	10555.82
417.88	10642.42
418.07	10436.45
418.26	10326.44
418.45	10394.32
418.64	10724.33
418.83	11293.08
419.02	11122.23
419.21	10998.18
419.39	10583.90
419.58	10085.37
419.77	10043.24
419.96	10478.58
420.15	11009.88
420.34	11489.69
420.53	11768.21
420.72	12023.33
420.91	11901.62
421.10	11674.59
421.29	11630.12
421.48	11145.63
421.67	11690.98
421.86	11421.81
422.05	10466.88
422.24	9605.56
422.43	9554.07
422.61	10511.35
422.80	11440.54
422.99	11461.60
423.18	10939.66
423.37	10738.38
423.56	10792.21
423.75	10841.36
423.94	11190.10
424.13	10729.02
424.32	10717.31
424.50	10682.20
424.69	10483.26
424.88	10614.33
425.07	10614.33
425.26	10780.51
425.45	10572.20
425.64	10216.44
425.83	10218.78
426.01	10733.70
426.20	11213.51
426.39	10956.05
426.58	10284.31
426.77	9537.68
426.96	9055.53
427.15	9741.31
427.33	10368.57
427.52	10750.08
427.71	10773.49
427.90	10651.78
428.09	10700.93
428.28	10242.18
428.46	9893.44
428.65	9891.10
428.84	10047.92
429.03	10211.76
429.22	9551.73
429.40	9100.00
429.59	8559.34
429.78	7442.90
429.97	7363.33
430.16	7475.67
430.34	7618.44
430.53	7456.95
430.72	7702.70
430.91	8547.64
431.10	9942.60
431.28	11716.72
431.47	12727.83
431.66	12957.21
431.85	11707.36
432.03	10696.25
432.22	10331.12
432.41	10700.93
432.60	12072.48
432.79	12278.45
432.97	12737.20
433.16	12334.62
433.35	11265.00
433.54	10026.86
433.72	9867.70
433.91	10001.11
434.10	10815.62
434.28	11824.39
434.47	12432.93
434.66	12292.49
434.85	12107.59
435.03	11871.20
435.22	12367.39
435.41	13158.49
435.59	12924.44
435.78	13289.56
435.97	13518.93
436.16	13844.27
436.34	13476.80
436.53	12849.54
436.72	13163.17
436.90	12453.99
437.09	12423.56
437.28	12086.53
437.46	12365.05
437.65	12732.51
437.84	11599.70
438.02	10712.63
438.21	10698.59
438.40	11169.04
438.58	12346.33
438.77	12383.77
438.96	12786.35
439.14	13289.56
439.33	13518.93
439.52	13579.79
439.70	13507.23
439.89	13224.03
440.08	13104.66
440.26	12870.61
440.45	13387.86
440.63	14305.35
440.82	14778.14
441.01	14530.05
441.19	14473.87
441.38	14745.38
441.57	15204.12
441.75	15428.81
441.94	15695.63
442.12	15222.84
442.31	15709.68
442.50	15499.03
442.68	15557.54
442.87	15206.46
443.05	14960.70
443.24	15627.76
443.43	15805.64
443.61	15917.98
443.80	16175.44
443.98	14991.13
444.17	15255.61
444.35	15969.48
444.54	16489.07
444.73	16091.18
444.91	15391.36
445.10	14862.40
445.28	14295.99
445.47	14029.17
445.65	14303.01
445.84	14560.47
446.02	15044.96
446.21	15173.69
446.39	15363.28
446.58	15492.01
446.77	15653.50
446.95	15859.47
447.14	16524.18
447.32	16776.96
447.51	16374.39
447.69	15592.65
447.88	15508.39
448.06	15782.23
448.25	16285.45
448.43	16233.96
448.62	15941.39
448.80	15892.24
448.99	16037.35
449.17	16205.87
449.36	15999.90
449.54	16500.78
449.73	16856.54
449.91	17448.69
450.10	17877.01
450.28	17928.50
450.46	17731.90
450.65	17921.48
450.83	17532.95
451.02	16725.47
451.20	16989.95
451.39	17022.72
451.57	16856.54
451.76	16978.25
451.94	16964.20
452.13	16758.24
452.31	15967.13
452.49	15096.46
452.68	15290.72
452.86	15054.33
453.05	15616.05
453.23	15936.71
453.42	16582.70
453.60	16608.44
453.78	16655.25
453.97	17008.67
454.15	16704.40
454.34	16596.74
454.52	16470.35
454.70	16477.37
454.89	16482.05
455.07	16306.51
455.26	16718.45
455.44	17205.28
455.62	17605.51
455.81	17694.45
455.99	17469.76
456.17	17495.50
456.36	17172.51
456.54	17965.95
456.73	18038.51
456.91	17872.33
457.09	18462.15
457.28	18569.81
457.46	18022.12
457.64	17872.33
457.83	17212.30
458.01	16776.96
458.19	17448.69
458.38	17301.24
458.56	18097.02
458.74	17769.35
458.93	17579.76
459.11	17532.95
459.29	17280.18
459.48	17530.61
459.66	17352.73
459.84	17628.92
460.03	17619.55
460.21	17797.43
460.39	18408.31
460.57	18082.98
460.76	18466.83
460.94	18445.76
461.12	18347.46
461.31	18307.67
461.49	18574.49
461.67	18506.62
461.85	18909.19
462.04	18927.91
462.22	19548.15
462.40	18616.62
462.59	18714.92
462.77	18848.33
462.95	18738.33
463.13	18693.86
463.32	18586.19
463.50	18097.02
463.68	18394.27
463.86	18080.64
464.05	17935.53
464.23	17891.06
464.41	17561.04
464.59	17275.49
464.78	18324.05
464.96	17816.16
465.14	18097.02
465.32	18249.16
465.50	19267.29
465.69	19037.92
465.87	18590.88
466.05	18108.72
466.23	17343.37
466.41	16748.87
466.60	17371.46
466.78	17404.22
466.96	17734.24
467.14	18050.21
467.32	18668.11
467.51	18441.08
467.69	17427.63
467.87	18094.68
468.05	18572.15
468.23	18298.31
468.41	18104.04
468.60	18349.80
468.78	18462.15
468.96	17965.95
469.14	18867.06
469.32	18506.62
469.50	17972.97
469.69	18010.42
469.87	17661.68
470.05	17881.69
470.23	17771.69
470.41	17937.87
470.59	18167.24
470.77	18022.12
470.95	18143.83
471.14	18843.65
471.32	18679.82
471.50	19833.70
471.68	19545.81
471.86	20070.09
472.04	20107.54
472.22	20032.65
472.40	18888.12
472.58	19037.92
472.77	18593.22
472.95	19293.04
473.13	19857.10
473.31	19047.28
473.49	18897.49
473.67	19669.86
473.85	19726.04
474.03	20231.59
474.21	19985.83
474.39	20376.70
474.57	20587.35
474.75	20575.65
474.93	20269.04
475.12	19822.00
475.30	19822.00
475.48	20088.82
475.66	20423.51
475.84	20116.90
476.02	19864.13
476.20	19749.44
476.38	19899.23
476.56	20994.61
476.74	20828.43
476.92	21050.78
477.10	21261.43
477.28	22099.34
477.46	21937.84
477.64	22356.80
477.82	22244.45
478.00	22363.82
478.18	22015.08
478.36	22167.21
478.54	22031.46
478.72	22305.31
478.90	22373.18
479.08	23335.14
479.26	23417.06
479.44	23108.11
479.62	23690.90
479.80	23363.23
479.98	23278.97
480.16	23733.03
480.34	23410.04
480.52	23782.18
480.70	23761.12
480.88	24044.32
481.06	24687.97
481.24	24547.54
481.41	24926.71
481.59	25280.13
481.77	25458.01
481.95	24844.79
482.13	24968.84
482.31	24393.06
482.49	25364.39
482.67	25010.96
482.85	25123.31
483.03	25680.36
483.21	26073.57
483.39	25844.20
483.57	25256.72
483.74	25427.58
483.92	25783.34
484.10	25628.87
484.28	26565.08
484.46	26178.89
484.64	27248.52
484.82	25937.82
485.00	25663.97
485.18	25259.06
485.35	24797.98
485.53	22750.01
485.71	20561.61
485.89	20524.16
486.07	21589.10
486.25	23601.96
486.43	24514.77
486.61	25252.04
486.78	25104.59
486.96	25099.90
487.14	26457.42
487.32	26939.57
487.50	27513.00
487.68	28238.56
487.85	28540.49
488.03	28837.74
488.21	28788.59
488.39	28383.68
488.57	27091.70
488.75	26969.99
488.92	28203.46
489.10	29790.34
489.28	31042.53
489.46	31770.43
489.64	31653.40
489.81	31924.91
489.99	31391.26
490.17	31316.37
490.35	31842.99
490.53	31545.74
490.70	31042.53
490.88	30941.88
491.06	31960.02
491.24	31672.13
491.41	30480.80
491.59	29048.39
491.77	28919.66
491.95	29617.14
492.13	30644.63
492.30	31852.35
492.48	32837.72
492.66	33247.31
492.84	32996.87
493.01	33116.24
493.19	32596.64
493.37	32357.91
493.54	31992.78
493.72	32577.92
493.90	33844.15
494.08	34836.53
494.25	35199.32
494.43	35519.97
494.61	35791.47
494.79	35318.68
494.96	35264.85
495.14	34579.07
495.32	33563.28
495.49	32858.78
495.67	34265.44
495.85	36224.47
496.02	36261.92
496.20	35690.83
496.38	35311.66
496.55	35428.69
496.73	36046.59
496.91	36032.55
497.09	37008.55
497.26	37022.59
497.44	36304.05
497.62	35857.01
497.79	34560.35
497.97	33282.42
498.14	33380.72
498.32	34822.49
498.50	36301.71
498.67	36870.46
498.85	36425.76
499.03	36549.81
499.20	36877.48
499.38	36992.17
499.56	36699.60
499.73	36201.07
499.91	35842.96
500.08	35086.97
500.26	34260.76
500.44	34705.46
500.61	35913.18
500.79	35665.08
500.97	34906.75
501.14	34859.94
501.32	34625.89
501.49	34838.87
501.67	34930.16
501.84	35407.62
502.02	36030.21
502.20	36664.49
502.37	36591.94
502.55	36538.10
502.72	37504.74
502.90	37916.68
503.07	37500.06
503.25	36996.85
503.43	35770.41
503.60	35152.51
503.78	34391.83
503.95	34869.30
504.13	36849.39
504.30	37874.55
504.48	37691.99
504.65	36912.59
504.83	37235.58
505.01	37635.81
505.18	38635.22
505.36	39100.99
505.53	39299.94
505.71	39665.06
505.88	39812.51
506.06	38719.48
506.23	38550.96
506.41	37584.32
506.58	37778.59
506.76	38061.79
506.93	38054.77
507.11	37460.27
507.28	37596.03
507.46	37340.91
507.63	36552.15
507.81	36346.18
507.98	36402.35
508.16	37804.33
508.33	38649.27
508.50	38841.19
508.68	39522.29
508.85	40020.82
509.03	39899.11
509.20	39391.22
509.38	37989.24
509.55	37387.72
509.73	37853.48
509.90	38440.96
510.08	38794.38
510.25	38490.11
510.42	38330.95
510.60	38733.53
510.77	38939.49
510.95	39770.38
511.12	39321.00
511.30	40011.46
511.47	40488.93
511.64	40706.60
511.82	40072.31
511.99	38897.36
512.17	37809.01
512.34	37649.86
512.51	38005.62
512.69	38305.21
512.86	38031.36
513.04	39182.91
513.21	39126.74
513.38	38738.21
513.56	37687.31
513.73	36861.10
513.90	37446.23
514.08	37457.93
514.25	37919.02
514.43	37968.17
514.60	38284.14
514.77	38410.53
514.95	38586.07
515.12	38670.33
515.29	38649.27
515.47	39505.90
515.64	39704.85
515.81	39335.04
515.99	38012.64
516.16	36219.79
516.33	33893.30
516.51	31906.18
516.68	31344.45
516.85	31023.80
517.03	31264.88
517.20	34527.58
517.37	37420.48
517.54	38721.82
517.72	37928.38
517.89	34522.90
518.06	31711.92
518.24	32371.95
518.41	34850.58
518.58	36559.17
518.75	36903.23
518.93	36692.58
519.10	36809.61
519.27	37399.42
519.45	38019.66
519.62	38672.67
519.79	39440.37
519.96	39072.90
520.14	38672.67
520.31	36971.10
520.48	37450.91
520.65	37731.78
520.83	39140.78
521.00	39367.81
521.17	39311.64
521.34	38773.31
521.52	39400.58
521.69	39653.36
521.86	40121.46
522.03	39672.08
522.20	38206.90
522.38	36816.63
522.55	36795.56
522.72	37647.52
522.89	37902.64
523.07	38370.74
523.24	38677.35
523.41	39938.90
523.58	40158.91
523.75	40959.38
523.92	41205.13
524.10	40381.26
524.27	40751.07
524.44	40381.26
524.61	40332.11
524.78	39475.48
524.96	39115.03
525.13	39775.06
525.30	40367.22
525.47	41221.52
525.64	40650.42
525.81	39508.24
525.98	37408.78
526.16	35875.73
526.33	35065.91
526.50	34689.08
526.67	34029.05
526.84	34691.42
527.01	35915.52
527.18	36971.10
527.36	38419.89
527.53	39805.49
527.70	39718.89
527.87	38883.32
528.04	38672.67
528.21	39423.98
528.38	40315.73
528.55	41258.96
528.72	41832.39
528.89	41694.30
529.07	41020.23
529.24	40385.94
529.41	39461.43
529.58	38831.83
529.75	38724.16
529.92	39318.66
530.09	39833.58
530.26	41237.90
530.43	40751.07
530.60	41336.20
530.77	41518.76
530.94	41792.61
531.11	40781.49
531.28	40275.94
531.46	39889.75
531.63	40383.60
531.80	40121.46
531.97	39379.51
532.14	38328.61
532.31	37113.87
532.48	36313.41
532.65	36257.24
532.82	37439.21
532.99	38981.62
533.16	39466.11
533.33	40301.68
533.50	39927.20
533.67	38829.49
533.84	38316.91
534.01	38658.63
534.18	39028.43
534.35	39725.91
534.52	38623.52
534.69	39522.29
534.86	40006.78
535.03	40304.02
535.20	41074.06
535.37	41677.92
535.54	41633.45
535.71	41158.32
535.88	40868.09
536.05	39466.11
536.22	39351.43
536.38	38469.04
536.55	38122.65
536.72	37163.03
536.89	37256.65
537.06	38265.42
537.23	39477.82
537.40	40107.42
537.57	40034.86
537.74	39459.09
537.91	39929.54
538.08	39445.05
538.25	39548.03
538.42	39983.37
538.59	39412.28
538.75	38370.74
538.92	38267.76
539.09	38057.11
539.26	37715.39
539.43	37816.04
539.60	37935.40
539.77	38003.28
539.94	37865.19
540.11	36535.76
540.28	36552.15
540.44	36470.23
540.61	36914.93
540.78	37338.57
540.95	37919.02
541.12	38036.05
541.29	38527.56
541.46	38976.94
541.62	39084.61
541.79	38873.96
541.96	37977.53
542.13	37912.00
542.30	38532.24
542.47	38574.37
542.63	38265.42
542.80	38216.27
542.97	38223.29
543.14	38033.71
543.31	38059.45
543.48	38532.24
543.64	40053.59
543.81	40786.18
543.98	39992.73
544.15	38904.38
544.32	38410.53
544.48	37977.53
544.65	39072.90
544.82	39342.06
544.99	39285.89
545.16	38600.12
545.32	38000.94
545.49	39239.08
545.66	40364.88
545.83	39426.32
546.00	39019.07
546.16	38225.63
546.33	38679.69
546.50	38651.61
546.67	38831.83
546.83	38653.95
547.00	38649.27
547.17	37577.30
547.34	36835.35
547.50	36617.68
547.67	37193.45
547.84	37724.75
548.00	38040.73
548.17	38220.95
548.34	37940.08
548.51	38412.87
548.67	38494.79
548.84	38478.41
549.01	38567.35
549.18	38227.97
549.34	38279.46
549.51	38307.55
549.68	38000.94
549.84	37886.25
550.01	37806.67
550.18	37493.04
550.34	37549.21
550.51	37684.97
550.68	37979.87
550.84	37125.58
551.01	37074.09
551.18	37003.87
551.34	37439.21
551.51	38330.95
551.68	38469.04
551.84	38637.56
552.01	38036.05
552.18	37907.32
552.34	36861.10
552.51	36493.63
552.68	35997.44
552.84	36760.45
553.01	37022.59
553.18	37031.96
553.34	37443.89
553.51	37647.52
553.67	38361.38
553.84	38230.31
554.01	38000.94
554.17	37635.81
554.34	37785.61
554.51	37888.59
554.67	38190.52
554.84	38403.51
555.00	37345.59
555.17	36966.42
555.33	37572.62
555.50	37287.07
555.67	37144.30
555.83	37179.41
556.00	36105.10
556.16	37067.06
556.33	35929.56
556.50	35861.69
556.66	36378.95
556.83	35566.78
556.99	35765.73
557.16	35665.08
557.32	36519.38
557.49	36512.36
557.65	36598.96
557.82	36156.60
557.98	35882.75
558.15	35159.53
558.32	34302.89
558.48	33743.50
558.65	33820.74
558.81	34628.23
558.98	34815.47
559.14	34693.76
559.31	34923.13
559.47	35269.53
559.64	34794.40
559.80	34164.80
559.97	34506.52
560.13	35110.38
560.30	36184.68
560.46	36652.79
560.63	36701.94
560.79	37156.00
560.96	36329.80
561.12	35229.74
561.29	33912.02
561.45	34206.93
561.61	34974.63
561.78	34794.40
561.94	35470.82
562.11	35232.08
562.27	34712.49
562.44	35255.49
562.60	35578.48
562.77	35875.73
562.93	35405.28
563.10	35225.06
563.26	35042.50
563.42	34932.50
563.59	34649.29
563.75	34565.03
563.92	34387.15
564.08	34513.54
564.24	34808.45
564.41	35360.81
564.57	35213.36
564.74	34808.45
564.90	35356.13
565.07	34272.46
565.23	34005.64
565.39	33305.82
565.56	33357.32
565.72	32861.12
565.88	32980.49
566.05	33462.64
566.21	33799.68
566.38	33502.43
566.54	34153.10
566.70	34642.27
566.87	34651.63
567.03	34497.16
567.19	34895.05
567.36	34738.23
567.52	34440.98
567.68	33937.77
567.85	33394.76
568.01	32959.42
568.17	32442.17
568.34	32804.95
568.50	32669.20
568.66	32648.13
568.83	33156.03
568.99	32959.42
569.15	33275.40
569.32	33420.51
569.48	32746.44
569.64	32720.69
569.81	32582.60
569.97	32655.15
570.13	32023.21
570.30	31864.05
570.46	31625.32
570.62	31466.16
570.78	30710.17
570.95	30911.46
571.11	32224.50
571.27	32521.74
571.43	32105.13
571.60	32957.08
571.76	32936.02
571.92	33273.06
572.09	32730.05
572.25	33198.16
572.41	33305.82
572.57	32716.01
572.74	33057.73
572.90	32524.08
573.06	32500.68
573.22	32896.23
573.38	33022.62
573.55	32421.10
573.71	32924.32
573.87	32666.86
574.03	32123.85
574.20	32252.58
574.36	32070.02
574.52	32119.17
574.68	31543.40
574.84	31353.82
575.01	31044.87
575.17	31005.08
575.33	31047.21
575.49	31597.23
575.65	31213.38
575.82	31494.25
575.98	31133.81
576.14	31461.48
576.30	31672.13
576.46	32030.23
576.62	32088.74
576.79	32144.92
576.95	30848.26
577.11	31309.35
577.27	31805.54
577.43	31882.78
577.59	31166.57
577.75	30700.81
577.92	29963.54
578.08	30239.72
578.24	29837.15
578.40	30258.45
578.56	30394.20
578.72	30824.86
578.88	31122.10
579.04	30932.52
579.21	30981.67
579.37	31173.60
579.53	31431.05
579.69	30913.80
579.85	31344.45
580.01	30976.99
580.17	30689.10
580.33	30712.51
580.49	30565.06
580.65	30976.99
580.82	31133.81
580.98	31082.31
581.14	31267.22
581.30	31026.14
581.46	30611.87
581.62	31197.00
581.78	31318.71
581.94	31463.82
582.10	31274.24
582.26	31159.55
582.42	31299.98
582.58	31395.95
582.74	31145.51
582.90	31639.36
583.06	31452.12
583.22	31424.03
583.38	31021.46
583.54	30916.14
583.70	31168.91
583.86	31136.15
584.02	30728.89
584.18	31178.28
584.34	30955.93
584.50	30850.60
584.66	30335.68
584.82	29542.24
584.98	30029.07
585.14	29834.81
585.30	29088.18
585.46	29167.76
585.62	29184.14
585.78	29228.61
585.94	29170.10
586.10	29762.25
586.26	29415.85
