SpectraSuite Data File
++++++++++++++++++++++++++++++++++++
Date: Mon Oct 07 14:55:02 GMT-05:00 2013
User: price-jones
Dark Spectrum Present: No
Reference Spectrum Present: No
Number of Sampled Component Spectra: 1
Spectrometers: USB2+H05261
Integration Time (usec): 10000 (USB2+H05261)
Spectra Averaged: 1 (USB2+H05261)
Boxcar Smoothing: 0 (USB2+H05261)
Correct for Electrical Dark: No (USB2+H05261)
Strobe/Lamp Enabled: No (USB2+H05261)
Correct for Detector Non-linearity: No (USB2+H05261)
Correct for Stray Light: No (USB2+H05261)
Number of Pixels in Processed Spectrum: 2048
>>>>>Begin Processed Spectral Data<<<<<
365.73	0.00
365.92	0.00
366.12	0.00
366.32	0.00
366.52	0.00
366.72	0.00
366.91	0.00
367.11	0.00
367.31	0.00
367.51	0.00
367.70	0.00
367.90	0.00
368.10	0.00
368.30	0.00
368.49	0.00
368.69	0.00
368.89	0.00
369.09	0.00
369.28	0.00
369.48	0.00
369.68	0.00
369.87	0.00
370.07	0.00
370.27	0.00
370.47	470.45
370.66	2820.35
370.86	3157.38
371.06	3534.21
371.25	3330.58
371.45	3016.95
371.65	2796.94
371.84	2677.57
372.04	2946.73
372.24	3162.06
372.44	3258.03
372.63	3215.90
372.83	2750.13
373.03	2511.39
373.22	2321.81
373.42	2602.68
373.62	3084.83
373.81	3260.37
374.01	3112.91
374.21	2785.24
374.40	2607.36
374.60	2846.09
374.79	3269.73
374.99	3770.60
375.19	3948.48
375.38	3929.76
375.58	3798.69
375.78	3590.38
375.97	3758.90
376.17	3826.78
376.37	3852.52
376.56	4091.26
376.76	4152.11
376.95	4498.51
377.15	4784.06
377.35	4873.00
377.54	5184.29
377.74	5296.63
377.93	5329.40
378.13	5088.32
378.33	4648.30
378.52	4440.00
378.72	4362.76
378.91	4344.03
379.11	4201.26
379.31	3829.12
379.50	4063.17
379.70	4472.76
379.89	4844.91
380.09	5034.49
380.28	5364.51
380.48	5050.88
380.68	5076.62
380.87	4858.95
381.07	4491.49
381.26	4037.42
381.46	3943.80
381.65	3812.73
381.85	3794.01
382.04	3506.12
382.24	3241.64
382.43	3215.90
382.63	2993.55
382.83	3194.83
383.02	2972.48
383.22	3204.19
383.41	3204.19
383.61	3309.52
383.80	3955.51
384.00	4470.42
384.19	5170.24
384.39	5336.42
384.58	5186.63
384.78	4964.28
384.97	4898.74
385.17	4727.88
385.36	4318.29
385.56	4250.41
385.75	4779.37
385.95	5163.22
386.14	5387.91
386.34	5387.91
386.53	4910.44
386.72	4655.33
386.92	4884.70
387.11	5364.51
387.31	5291.95
387.50	5423.02
387.70	5146.84
387.89	5107.05
388.09	5247.48
388.28	5228.76
388.48	5416.00
388.67	5776.44
388.86	6429.45
389.06	6820.32
389.25	7126.93
389.45	7260.34
389.64	6993.52
389.84	6834.36
390.03	6787.55
390.22	6930.33
390.42	7243.96
390.61	7819.73
390.81	8093.57
391.00	8166.13
391.19	8149.75
391.39	7782.28
391.58	7482.69
391.78	6862.45
391.97	6733.72
392.16	6171.99
392.36	5535.37
392.55	4250.41
392.75	3405.48
392.94	2939.71
393.13	3066.10
393.33	3873.59
393.52	4692.77
393.71	5746.02
393.91	6221.14
394.10	7000.54
394.29	7817.39
394.49	8215.28
394.68	8929.14
394.88	8842.54
395.07	8903.40
395.26	8772.33
395.46	8524.23
395.65	7908.67
395.84	6839.05
396.04	5619.63
396.23	4517.23
396.42	3953.16
396.62	4046.79
396.81	4997.04
397.00	6303.06
397.19	7955.48
397.39	9238.09
397.58	10445.81
397.77	10593.26
397.97	11185.42
398.16	11157.33
398.35	11726.08
398.55	11648.85
398.74	12418.88
398.93	12503.14
399.12	12304.20
399.32	11751.83
399.51	12264.41
399.70	13315.31
399.90	12451.65
400.09	12690.38
400.28	12776.98
400.47	13057.85
400.67	13486.17
400.86	14085.34
401.05	14003.43
401.24	13778.73
401.44	13888.74
401.63	14319.40
401.82	14141.52
402.01	14377.91
402.21	14221.10
402.40	14703.25
402.59	13991.72
402.78	13287.22
402.97	13057.85
403.17	14118.11
403.36	14462.17
403.55	15016.88
403.74	14906.87
403.93	14099.39
404.13	13200.62
404.32	13348.08
404.51	13963.64
404.70	15012.20
404.89	14743.03
405.09	14361.53
405.28	14047.90
405.47	14178.97
405.66	14225.78
405.85	13738.94
406.05	13453.40
406.24	13916.83
406.43	14394.29
406.62	14724.31
406.81	14930.28
407.00	14539.41
407.20	13858.31
407.39	14457.49
407.58	15161.99
407.77	15431.15
407.96	15964.79
408.15	16388.43
408.34	16655.25
408.54	16875.26
408.73	16634.19
408.92	16671.64
409.11	15983.52
409.30	15101.14
409.49	14040.87
409.68	13542.34
409.87	13359.78
410.07	14340.46
410.26	15215.82
410.45	16248.00
410.64	16580.36
410.83	17324.65
411.02	17493.16
411.21	18288.95
411.40	17982.34
411.59	18178.94
411.78	17905.10
411.98	18066.60
412.17	18052.55
412.36	17708.49
412.55	17701.47
412.74	17291.88
412.93	17235.70
413.12	17497.84
413.31	19494.32
413.50	19229.84
413.69	19506.02
413.88	18071.28
414.07	18249.16
414.26	18785.14
414.45	19377.30
414.64	19133.88
414.83	19058.98
415.02	18537.04
415.22	18656.41
415.41	19278.99
415.60	20011.58
415.79	20470.33
415.98	20980.56
416.17	20645.87
416.36	20116.90
416.55	19807.95
416.74	19311.76
416.93	18911.53
417.12	18953.66
417.31	19147.92
417.50	19609.01
417.69	20060.73
417.88	19667.52
418.07	20072.43
418.26	19620.71
418.45	20004.56
418.64	21277.81
418.83	21811.45
419.02	21015.67
419.21	20271.38
419.39	19829.02
419.58	18918.55
419.77	19087.07
419.96	20765.23
420.15	21434.63
420.34	22167.21
420.53	22504.25
420.72	22721.92
420.91	22553.40
421.10	22286.58
421.29	22232.75
421.48	21483.78
421.67	22335.73
421.86	21277.81
422.05	19613.69
422.24	18005.74
422.43	18813.23
422.61	20966.52
422.80	21914.44
422.99	21132.70
423.18	20931.41
423.37	20655.23
423.56	21177.17
423.75	21350.37
423.94	21900.39
424.13	20416.49
424.32	20423.51
424.50	20170.74
424.69	20760.55
424.88	20774.60
425.07	20886.94
425.26	20889.28
425.45	19840.72
425.64	19990.52
425.83	19992.86
426.01	21006.31
426.20	21486.12
426.39	21385.47
426.58	19644.12
426.77	18258.52
426.96	18001.06
427.15	19030.90
427.33	20486.71
427.52	20767.57
427.71	21081.21
427.90	20692.68
428.09	20196.48
428.28	20002.22
428.46	18981.74
428.65	18860.04
428.84	19814.98
429.03	19517.73
429.22	18487.89
429.40	17174.85
429.59	15875.85
429.78	13975.34
429.97	14410.68
430.16	14572.18
430.34	14459.83
430.53	14862.40
430.72	15779.89
430.91	17422.95
431.10	20437.56
431.28	23438.12
431.47	24830.74
431.66	24566.26
431.85	21731.87
432.03	20460.96
432.22	20212.87
432.41	22054.87
432.60	23318.76
432.79	24126.24
432.97	24538.18
433.16	23587.92
433.35	21149.08
433.54	19255.59
433.72	18740.67
433.91	19873.49
434.10	22253.81
434.28	23379.61
434.47	24348.59
434.66	23718.99
434.85	22953.63
435.03	23679.20
435.22	23653.45
435.41	25151.40
435.59	25465.03
435.78	25776.32
435.97	26436.35
436.16	26022.08
436.34	25778.66
436.53	25387.79
436.72	25371.41
436.90	24170.71
437.09	23924.96
437.28	23559.83
437.46	24996.92
437.65	24100.50
437.84	22111.04
438.02	21116.31
438.21	21179.51
438.40	21886.35
438.58	23634.73
438.77	24549.88
438.96	25003.94
439.14	26096.97
439.33	26473.80
439.52	26548.70
439.70	26139.10
439.89	25254.38
440.08	24826.06
440.26	25289.49
440.45	26190.59
440.63	27908.55
440.82	28514.75
441.01	28280.69
441.19	27868.76
441.38	29317.55
441.57	30148.44
441.75	29764.59
441.94	30380.15
442.12	29905.02
442.31	31220.41
442.50	30192.91
442.68	29685.01
442.87	29886.30
443.05	29104.56
443.24	30228.02
443.43	30731.23
443.61	31168.91
443.80	31475.52
443.98	30614.21
444.17	29832.47
444.35	31468.50
444.54	32032.57
444.73	31239.13
444.91	29565.65
445.10	28566.24
445.28	27761.09
445.47	27232.13
445.65	27384.27
445.84	28748.80
446.02	29331.59
446.21	30251.42
446.39	30429.30
446.58	30497.18
446.77	31480.21
446.95	31758.73
447.14	32547.49
447.32	32673.88
447.51	31964.70
447.69	30555.69
447.88	30618.89
448.06	30813.15
448.25	31257.85
448.43	31222.75
448.62	31302.32
448.80	30574.42
448.99	31014.44
449.17	31454.46
449.36	32175.34
449.54	32804.95
449.73	33088.15
449.91	33783.29
450.10	34820.15
450.28	35236.77
450.46	34983.99
450.65	34838.87
450.83	34113.31
451.02	34017.35
451.20	33455.62
451.39	33935.43
451.57	34012.66
451.76	33436.89
451.94	33141.99
452.13	32009.17
452.31	30387.18
452.49	29785.66
452.68	30312.28
452.86	30773.36
453.05	31014.44
453.23	32411.74
453.42	32257.26
453.60	33078.79
453.78	32978.15
453.97	32732.39
454.15	32823.67
454.34	31461.48
454.52	32011.51
454.70	31625.32
454.89	32428.12
455.07	32491.32
455.26	33235.61
455.44	34328.64
455.62	34536.94
455.81	34398.85
455.99	34284.17
456.17	34403.53
456.36	35634.66
456.54	35613.59
456.73	34686.74
456.91	35449.75
457.09	35124.42
457.28	36608.32
457.46	34342.68
457.64	34433.96
457.83	33905.00
458.01	33291.78
458.19	34869.30
458.38	35498.91
458.56	35704.87
458.74	35356.13
458.93	34590.78
459.11	33956.49
459.29	33993.94
459.48	34731.21
459.66	34202.25
459.84	34504.18
460.03	34733.55
460.21	35349.11
460.39	36158.94
460.57	35512.95
460.76	35695.51
460.94	36374.27
461.12	36514.70
461.31	36437.46
461.49	36814.29
461.67	36423.42
461.85	36914.93
462.04	36704.28
462.22	37394.74
462.40	37102.17
462.59	36484.27
462.77	36683.22
462.95	36591.94
463.13	36119.15
463.32	35791.47
463.50	35269.53
463.68	35660.40
463.86	36140.21
464.05	35030.80
464.23	34604.82
464.41	34848.24
464.59	34445.66
464.78	35571.46
464.96	35845.30
465.14	34836.53
465.32	36591.94
465.50	37633.47
465.69	38124.99
465.87	36641.09
466.05	35688.49
466.23	34007.98
466.41	33362.00
466.60	34733.55
466.78	34649.29
466.96	34817.81
467.14	36231.49
467.32	35796.15
467.51	35901.48
467.69	34366.09
467.87	35274.21
468.05	36030.21
468.23	35498.91
468.41	36072.34
468.60	36519.38
468.78	36854.08
468.96	36364.90
469.14	36498.31
469.32	37031.96
469.50	35016.75
469.69	35402.94
469.87	34876.32
470.05	34569.71
470.23	34881.00
470.41	35365.49
470.59	35541.03
470.77	35637.00
470.95	36711.30
471.14	37244.94
471.32	37457.93
471.50	39255.46
471.68	38885.66
471.86	39931.88
472.04	39325.68
472.22	39337.38
472.40	37560.92
472.58	37823.06
472.77	37256.65
472.95	37827.74
473.13	38897.36
473.31	37268.35
473.49	37340.91
473.67	38838.85
473.85	39264.83
474.03	41123.21
474.21	40741.71
474.39	41397.06
474.57	40449.14
474.75	41333.86
474.93	40591.91
475.12	39026.09
475.30	39751.66
475.48	39438.03
475.66	39646.33
475.84	39117.37
476.02	39386.54
476.20	39353.77
476.38	39828.90
476.56	41298.75
476.74	41635.79
476.92	41979.85
477.10	41839.42
477.28	43044.79
477.46	43416.94
477.64	44044.20
477.82	43945.90
478.00	44128.46
478.18	43311.61
478.36	42454.98
478.54	42766.27
478.72	43833.55
478.90	45427.46
479.08	46887.95
479.26	46497.08
479.44	46681.98
479.62	46033.66
479.80	46878.59
479.98	46312.18
480.16	46953.49
480.34	46136.64
480.52	47182.86
480.70	47295.21
480.88	46681.98
481.06	47440.32
481.24	47814.80
481.41	48781.45
481.59	50000.86
481.77	48292.27
481.95	48053.54
482.13	47896.72
482.31	48706.55
482.49	49226.15
482.67	48662.08
482.85	48954.64
483.03	49186.36
483.21	50066.40
483.39	49661.49
483.57	49418.07
483.74	49272.96
483.92	49785.54
484.10	49397.01
484.28	49813.62
484.46	49748.09
484.64	51421.57
484.82	50248.96
485.00	49373.60
485.18	49052.95
485.35	46656.24
485.53	41921.34
485.71	39353.77
485.89	40079.33
486.07	43482.47
486.25	45717.68
486.43	48114.39
486.61	48474.84
486.78	47779.70
486.96	49399.35
487.14	50192.79
487.32	51164.11
487.50	52027.77
487.68	53301.02
487.85	54000.84
488.03	52720.57
488.21	52814.19
488.39	52603.54
488.57	51173.47
488.75	50824.73
488.92	52666.73
489.10	54387.03
489.28	54944.08
489.46	56214.99
489.64	55976.25
489.81	56165.84
489.99	55334.95
490.17	55683.69
490.35	55817.10
490.53	55643.90
490.70	55196.85
490.88	55110.25
491.06	56175.20
491.24	56472.45
491.41	55484.74
491.59	54040.63
491.77	53584.22
491.95	54920.67
492.13	56154.13
492.30	56472.45
492.48	57286.95
492.66	57544.41
492.84	57382.91
493.01	56900.76
493.19	56928.85
493.37	56315.63
493.54	56371.80
493.72	57631.01
493.90	57928.26
494.08	58211.46
494.25	58239.55
494.43	58899.58
494.61	59571.32
494.79	59025.97
494.96	59615.79
495.14	59185.13
495.32	57748.04
495.49	58195.08
495.67	59040.01
495.85	59657.91
496.02	60189.22
496.20	59510.46
496.38	59161.72
496.55	59533.87
496.73	60067.51
496.91	60041.76
497.09	60158.79
497.26	60521.57
497.44	59835.80
497.62	59374.71
497.79	58457.22
497.97	57656.76
498.14	58321.47
498.32	59690.68
498.50	59505.78
498.67	59421.52
498.85	59590.04
499.03	60168.15
499.20	60570.72
499.38	59770.26
499.56	59377.05
499.73	59451.95
499.91	59070.44
500.08	58478.28
500.26	58068.69
500.44	58831.71
500.61	59353.65
500.79	58969.80
500.97	58997.88
501.14	58258.27
501.32	57975.07
501.49	58405.73
501.67	58864.47
501.84	58740.42
502.02	59470.67
502.20	60102.62
502.37	59985.59
502.55	60074.53
502.72	60736.90
502.90	61083.30
503.07	60985.00
503.25	59854.52
503.43	59269.39
503.60	58693.61
503.78	58550.84
503.95	58773.19
504.13	60261.77
504.30	60465.40
504.48	59840.48
504.65	60151.77
504.83	60053.47
505.01	61085.64
505.18	61251.82
505.36	61591.20
505.53	61429.70
505.71	61579.49
505.88	61893.13
506.06	61291.61
506.23	61247.14
506.41	60975.64
506.58	61181.60
506.76	61008.40
506.93	60362.42
507.11	60505.19
507.28	60542.64
507.46	60016.02
507.63	60079.21
507.81	59643.87
507.98	60086.23
508.16	61385.23
508.33	61024.79
508.50	61415.66
508.68	61722.27
508.85	62082.71
509.03	62209.10
509.20	61464.81
509.38	60715.84
509.55	60839.89
509.73	60989.68
509.90	61254.16
510.08	61446.08
510.25	60811.80
510.42	60846.91
510.60	61118.41
510.77	61305.65
510.95	61623.96
511.12	61942.28
511.30	62553.16
511.47	62845.72
511.64	62644.44
511.82	62569.54
511.99	61450.77
512.17	61413.32
512.34	60924.14
512.51	61251.82
512.69	61593.54
512.86	61237.78
513.04	61387.57
513.21	60945.21
513.38	60280.50
513.56	59667.28
513.73	59742.17
513.90	60612.85
514.08	60547.32
514.25	60467.74
514.43	60823.50
514.60	60905.42
514.77	61436.72
514.95	61457.79
515.12	61151.18
515.29	61535.02
515.47	62113.14
515.64	62129.52
515.81	61654.39
515.99	60907.76
516.16	59077.46
516.33	57022.47
516.51	56851.61
516.68	55547.93
516.85	54862.16
517.03	56427.98
517.20	59025.97
517.37	60505.19
517.54	61310.33
517.72	60107.30
517.89	57214.40
518.06	56060.51
518.24	57324.40
518.41	59187.47
518.58	60317.95
518.75	60175.17
518.93	60165.81
519.10	59779.62
519.27	60715.84
519.45	61057.56
519.62	61785.46
519.79	61783.12
519.96	61118.41
520.14	60907.76
520.31	59744.51
520.48	59971.55
520.65	60994.36
520.83	61731.63
521.00	61942.28
521.17	61303.31
521.34	61375.87
521.52	61872.06
521.69	61949.30
521.86	62255.91
522.03	62073.35
522.20	60598.81
522.38	60016.02
522.55	60699.45
522.72	61024.79
522.89	60418.59
523.07	61258.84
523.24	61745.67
523.41	62480.60
523.58	62485.28
523.75	62805.94
523.92	62590.61
524.10	62386.98
524.27	62071.01
524.44	61811.21
524.61	61595.88
524.78	62026.54
524.96	61895.47
525.13	61848.66
525.30	62487.62
525.47	62712.31
525.64	62480.60
525.81	61925.89
525.98	59985.59
526.16	58908.94
526.33	58880.86
526.50	58401.05
526.67	58281.68
526.84	59093.85
527.01	60074.53
527.18	60355.39
527.36	61261.18
527.53	62344.85
527.70	61682.48
527.87	60432.63
528.04	61410.98
528.21	61733.97
528.38	62422.09
528.55	63238.93
528.72	62906.58
528.89	62471.24
529.07	62433.79
529.24	61392.25
529.41	61244.80
529.58	61106.71
529.75	61916.53
529.92	62206.76
530.09	62293.36
530.26	62822.32
530.43	63559.59
530.60	62471.24
530.77	63018.92
530.94	63171.06
531.11	62129.52
531.28	62326.13
531.46	62361.23
531.63	62251.23
531.80	62033.56
531.97	61502.26
532.14	61441.40
532.31	60130.70
532.48	59468.33
532.65	60163.47
532.82	60226.66
532.99	62003.13
533.16	62209.10
533.33	61975.05
533.50	62244.21
533.67	61977.39
533.84	61450.77
534.01	61811.21
534.18	61841.63
534.35	61385.23
534.52	61029.47
534.69	61605.24
534.86	62171.65
535.03	62457.20
535.20	62286.34
535.37	63105.52
535.54	63091.48
535.71	62944.03
535.88	62925.30
536.05	61689.50
536.22	61226.07
536.38	61106.71
536.55	60498.17
536.72	60308.58
536.89	60924.14
537.06	60802.44
537.23	61556.09
537.40	61471.83
537.57	61001.38
537.74	61694.18
537.91	61883.76
538.08	61616.94
538.25	61560.77
538.42	62496.98
538.59	61792.48
538.75	60963.93
538.92	60432.63
539.09	60795.42
539.26	60580.09
539.43	60523.91
539.60	60362.42
539.77	61265.86
539.94	60692.43
540.11	60107.30
540.28	59873.24
540.44	59423.86
540.61	59568.97
540.78	60051.12
540.95	60907.76
541.12	60856.27
541.29	61167.56
541.46	61432.04
541.62	61752.69
541.79	61006.06
541.96	60566.04
542.13	60477.10
542.30	60252.41
542.47	60713.50
542.63	60828.18
542.80	60746.26
542.97	60357.74
543.14	60016.02
543.31	60509.87
543.48	61483.53
543.64	61577.15
543.81	62482.94
543.98	62145.90
544.15	60882.02
544.32	61469.49
544.48	60945.21
544.65	60849.25
544.82	61373.53
544.99	60390.50
545.16	59969.21
545.32	60402.21
545.49	60949.89
545.66	60879.67
545.83	60605.83
546.00	61146.50
546.16	61008.40
546.33	60858.61
546.50	60842.23
546.67	61553.75
546.83	60729.88
547.00	61286.93
547.17	59891.97
547.34	59152.36
547.50	59182.79
547.67	60198.58
547.84	60977.98
548.00	61069.26
548.17	60776.69
548.34	61078.62
548.51	61113.73
548.67	61315.01
548.84	60996.70
549.01	61186.28
549.18	60652.64
549.34	60828.18
549.51	61085.64
549.68	61123.09
549.84	60486.46
550.01	60214.96
550.18	60027.72
550.34	60168.15
550.51	60346.03
550.68	60807.12
550.84	60647.96
551.01	60016.02
551.18	60067.51
551.34	59700.04
551.51	60760.31
551.68	60874.99
551.84	61013.08
552.01	60629.24
552.18	60285.18
552.34	59732.81
552.51	59470.67
552.68	59412.16
552.84	59505.78
553.01	59681.32
553.18	60268.79
553.34	60231.35
553.51	60385.82
553.67	60420.93
553.84	60320.29
554.01	60699.45
554.17	59831.11
554.34	60247.73
554.51	60336.67
554.67	59695.36
554.84	59824.09
555.00	59428.54
555.17	59526.84
555.33	59505.78
555.50	58857.45
555.67	59826.43
555.83	60004.31
556.00	59461.31
556.16	59627.49
556.33	58801.28
556.50	59573.66
556.66	59234.28
556.83	58979.16
556.99	58754.47
557.16	59147.68
557.32	58843.41
557.49	59374.71
557.65	59192.15
557.82	59274.07
557.98	59852.18
558.15	58553.18
558.32	58026.56
558.48	57712.93
558.65	57556.11
558.81	58143.59
558.98	58866.81
559.14	59009.59
559.31	58824.68
559.47	58473.60
559.64	58136.57
559.80	57696.55
559.97	58447.86
560.13	58913.62
560.30	60034.74
560.46	60537.96
560.63	60516.89
560.79	60128.36
560.96	59540.89
561.12	58536.80
561.29	58197.42
561.45	58244.23
561.61	59278.75
561.78	58656.17
561.94	58981.50
562.11	58845.75
562.27	58267.64
562.44	59128.95
562.60	59487.06
562.77	59501.10
562.93	58698.30
563.10	58604.67
563.26	58717.02
563.42	59070.44
563.59	58623.40
563.75	58337.85
563.92	58134.23
564.08	57806.55
564.24	58791.92
564.41	58138.91
564.57	59117.25
564.74	58759.15
564.90	57963.37
565.07	57848.68
565.23	56898.42
565.39	56905.44
565.56	57193.33
565.72	57682.50
565.88	56399.89
566.05	58155.29
566.21	58412.75
566.38	57834.64
566.54	58422.11
566.70	58812.98
566.87	58475.94
567.03	57876.77
567.19	59119.59
567.36	59451.95
567.52	58059.33
567.68	57563.14
567.85	56996.73
568.01	57155.88
568.17	57357.17
568.34	57563.14
568.50	57183.97
568.66	56858.63
568.83	56671.39
568.99	56444.36
569.15	56989.70
569.32	57055.24
569.48	56935.87
569.64	56680.75
569.81	56788.42
569.97	56381.16
570.13	56163.50
570.30	55461.33
570.46	55084.51
570.62	54206.81
570.78	54712.36
570.95	55278.77
571.11	55777.31
571.27	55505.80
571.43	55793.69
571.60	55384.10
571.76	56720.54
571.92	56919.49
572.09	57219.08
572.25	56736.93
572.41	57205.03
572.57	56814.16
572.74	57167.58
572.90	58450.20
573.06	57513.98
573.22	57511.64
573.38	57258.87
573.55	58286.36
573.71	56935.87
573.87	57003.75
574.03	57073.96
574.20	56563.73
574.36	56676.07
574.52	56027.74
574.68	55657.94
574.84	55283.45
575.01	55477.72
575.17	55557.30
575.33	55742.20
575.49	55786.67
575.65	54813.01
575.82	55402.82
575.98	55395.80
576.14	56322.65
576.30	56807.14
576.46	55550.27
576.62	55796.03
576.79	55622.83
576.95	55721.13
577.11	56257.12
577.27	55817.10
577.43	56362.44
577.59	55650.92
577.75	54541.50
577.92	54642.15
578.08	55058.76
578.24	55262.39
578.40	55295.16
578.56	54436.18
578.72	54710.02
578.88	54101.48
579.04	54918.33
579.21	54513.42
579.37	54719.38
579.53	55274.09
579.69	54735.77
579.85	54810.67
580.01	54761.51
580.17	54415.11
580.33	55056.42
580.49	55217.92
580.65	53776.15
580.82	54892.58
580.98	55426.23
581.14	55620.49
581.30	55278.77
581.46	54468.95
581.62	54995.57
581.78	55821.78
581.94	55653.26
582.10	55660.28
582.26	55693.05
582.42	55660.28
582.58	54754.49
582.74	54745.13
582.90	55049.40
583.06	55304.52
583.22	55121.96
583.38	55309.20
583.54	55487.08
583.70	55664.96
583.86	55433.25
584.02	54585.97
584.18	54665.55
584.34	54295.75
584.50	53963.39
584.66	54035.95
584.82	54492.35
584.98	54436.18
585.14	53780.83
585.30	53675.51
