SpectraSuite Data File
++++++++++++++++++++++++++++++++++++
Date: Mon Oct 07 14:54:54 GMT-05:00 2013
User: price-jones
Dark Spectrum Present: No
Reference Spectrum Present: No
Number of Sampled Component Spectra: 1
Spectrometers: USB2+H05261
Integration Time (usec): 10000 (USB2+H05261)
Spectra Averaged: 1 (USB2+H05261)
Boxcar Smoothing: 0 (USB2+H05261)
Correct for Electrical Dark: No (USB2+H05261)
Strobe/Lamp Enabled: No (USB2+H05261)
Correct for Detector Non-linearity: No (USB2+H05261)
Correct for Stray Light: No (USB2+H05261)
Number of Pixels in Processed Spectrum: 2048
>>>>>Begin Processed Spectral Data<<<<<
365.73	0.00
365.92	0.00
366.12	0.00
366.32	0.00
366.52	0.00
366.72	0.00
366.91	0.00
367.11	0.00
367.31	0.00
367.51	0.00
367.70	0.00
367.90	0.00
368.10	0.00
368.30	0.00
368.49	0.00
368.69	0.00
368.89	0.00
369.09	0.00
369.28	0.00
369.48	0.00
369.68	0.00
369.87	0.00
370.07	0.00
370.27	0.00
370.47	0.00
370.66	0.00
370.86	0.00
371.06	0.00
371.25	0.00
371.45	0.00
371.65	0.00
371.84	0.00
372.04	0.00
372.24	58.51
372.44	44.47
372.63	2.34
372.83	0.00
373.03	0.00
373.22	0.00
373.42	0.00
373.62	14.04
373.81	133.41
374.01	32.77
374.21	0.00
374.40	4.68
374.60	14.04
374.79	4.68
374.99	0.00
375.19	84.26
375.38	84.26
375.58	79.58
375.78	173.20
375.97	0.00
376.17	81.92
376.37	133.41
376.56	107.66
376.76	163.84
376.95	163.84
377.15	173.20
377.35	234.05
377.54	201.29
377.74	238.73
377.93	266.82
378.13	170.86
378.33	177.88
378.52	126.39
378.72	145.11
378.91	67.88
379.11	74.90
379.31	114.69
379.50	77.24
379.70	142.77
379.89	166.18
380.09	110.01
380.28	191.92
380.48	117.03
380.68	177.88
380.87	117.03
381.07	168.52
381.26	46.81
381.46	72.56
381.65	58.51
381.85	30.43
382.04	42.13
382.24	91.28
382.43	0.00
382.63	0.00
382.83	11.70
383.02	4.68
383.22	0.00
383.41	0.00
383.61	105.32
383.80	152.13
384.00	63.19
384.19	170.86
384.39	117.03
384.58	234.05
384.78	154.48
384.97	189.58
385.17	159.16
385.36	154.48
385.56	203.63
385.75	88.94
385.95	124.05
386.14	140.43
386.34	217.67
386.53	194.26
386.72	138.09
386.92	203.63
387.11	128.73
387.31	203.63
387.50	196.60
387.70	147.45
387.89	173.20
388.09	215.33
388.28	126.39
388.48	212.99
388.67	245.76
388.86	234.05
389.06	292.57
389.25	386.19
389.45	355.76
389.64	407.25
389.84	339.38
390.03	290.23
390.22	278.52
390.42	285.55
390.61	386.19
390.81	372.15
391.00	353.42
391.19	379.17
391.39	360.44
391.58	337.04
391.78	301.93
391.97	248.10
392.16	259.80
392.36	166.18
392.55	149.79
392.75	44.47
392.94	9.36
393.13	23.41
393.33	16.38
393.52	131.07
393.71	187.24
393.91	224.69
394.10	250.44
394.29	346.40
394.49	400.23
394.68	472.79
394.88	458.74
395.07	458.74
395.26	470.45
395.46	468.11
395.65	355.76
395.84	273.84
396.04	229.37
396.23	156.82
396.42	131.07
396.62	28.09
396.81	140.43
397.00	241.08
397.19	379.17
397.39	482.15
397.58	524.28
397.77	484.49
397.97	629.60
398.16	571.09
398.35	596.84
398.55	610.88
398.74	627.26
398.93	770.04
399.12	578.11
399.32	650.67
399.51	667.05
399.70	716.20
399.90	718.54
400.09	760.67
400.28	744.29
400.47	758.33
400.67	833.23
400.86	908.13
401.05	765.36
401.24	802.80
401.44	744.29
401.63	833.23
401.82	873.02
402.01	802.80
402.21	809.83
402.40	875.36
402.59	800.46
402.78	774.72
402.97	704.50
403.17	809.83
403.36	800.46
403.55	837.91
403.74	837.91
403.93	763.01
404.13	716.20
404.32	840.25
404.51	807.48
404.70	901.11
404.89	915.15
405.09	908.13
405.28	840.25
405.47	830.89
405.66	823.87
405.85	795.78
406.05	816.85
406.24	840.25
406.43	828.55
406.62	856.64
406.81	891.74
407.00	823.87
407.20	844.93
407.39	837.91
407.58	840.25
407.77	854.30
407.96	936.21
408.15	959.62
408.34	999.41
408.54	978.34
408.73	985.37
408.92	1064.94
409.11	1001.75
409.30	866.00
409.49	910.47
409.68	830.89
409.87	767.70
410.07	842.59
410.26	833.23
410.45	973.66
410.64	1046.22
410.83	983.02
411.02	1025.15
411.21	1022.81
411.40	1083.67
411.59	1057.92
411.78	1090.69
411.98	1018.13
412.17	1067.28
412.36	1095.37
412.55	1013.45
412.74	1029.84
412.93	987.71
413.12	950.26
413.31	1144.52
413.50	1071.97
413.69	1132.82
413.88	1074.31
414.07	1111.75
414.26	966.64
414.45	1086.01
414.64	1060.26
414.83	1076.65
415.02	1074.31
415.22	1111.75
415.41	1114.10
415.60	1165.59
415.79	1200.69
415.98	1263.89
416.17	1217.08
416.36	1165.59
416.55	1198.35
416.74	1123.46
416.93	1083.67
417.12	1188.99
417.31	1053.24
417.50	1107.07
417.69	1177.29
417.88	1181.97
418.07	1130.48
418.26	1015.79
418.45	1088.35
418.64	1158.57
418.83	1259.21
419.02	1203.04
419.21	1139.84
419.39	1181.97
419.58	1043.88
419.77	1013.45
419.96	1160.91
420.15	1221.76
420.34	1296.66
420.53	1331.76
420.72	1343.47
420.91	1324.74
421.10	1306.02
421.29	1291.98
421.48	1259.21
421.67	1277.93
421.86	1221.76
422.05	1167.93
422.24	1015.79
422.43	1011.11
422.61	1252.19
422.80	1277.93
422.99	1249.85
423.18	1245.16
423.37	1205.38
423.56	1191.33
423.75	1128.14
423.94	1193.67
424.13	1093.03
424.32	1165.59
424.50	1247.51
424.69	1193.67
424.88	1170.27
425.07	1203.04
425.26	1100.05
425.45	1128.14
425.64	1050.90
425.83	1102.39
426.01	1088.35
426.20	1242.82
426.39	1240.48
426.58	1067.28
426.77	1064.94
426.96	1055.58
427.15	950.26
427.33	1081.33
427.52	1158.57
427.71	1123.46
427.90	1083.67
428.09	1074.31
428.28	1200.69
428.46	1062.60
428.65	1069.62
428.84	1095.37
429.03	1095.37
429.22	1048.56
429.40	966.64
429.59	866.00
429.78	730.25
429.97	681.10
430.16	758.33
430.34	681.10
430.53	746.63
430.72	751.31
430.91	870.68
431.10	1102.39
431.28	1273.25
431.47	1439.43
431.66	1322.40
431.85	1327.08
432.03	1214.74
432.22	1107.07
432.41	1116.44
432.60	1184.31
432.79	1280.27
432.97	1390.28
433.16	1306.02
433.35	1341.13
433.54	1057.92
433.72	971.32
433.91	968.98
434.10	1144.52
434.28	1205.38
434.47	1373.89
434.66	1329.42
434.85	1160.91
435.03	1259.21
435.22	1299.00
435.41	1359.85
435.59	1430.07
435.78	1423.05
435.97	1472.20
436.16	1495.60
436.34	1413.68
436.53	1458.15
436.72	1533.05
436.90	1343.47
437.09	1277.93
437.28	1369.21
437.46	1369.21
437.65	1371.55
437.84	1170.27
438.02	1160.91
438.21	1090.69
438.40	1081.33
438.58	1261.55
438.77	1310.70
438.96	1418.36
439.14	1483.90
439.33	1472.20
439.52	1488.58
439.70	1493.26
439.89	1364.53
440.08	1240.48
440.26	1341.13
440.45	1516.67
440.63	1458.15
440.82	1664.12
441.01	1682.85
441.19	1659.44
441.38	1526.03
441.57	1661.78
441.75	1624.33
441.94	1692.21
442.12	1680.50
442.31	1610.29
442.50	1673.48
442.68	1741.36
442.87	1591.56
443.05	1699.23
443.24	1638.38
443.43	1713.27
443.61	1668.80
443.80	1739.02
443.98	1533.05
444.17	1586.88
444.35	1687.53
444.54	1561.14
444.73	1692.21
444.91	1624.33
445.10	1568.16
445.28	1572.84
445.47	1507.30
445.65	1416.02
445.84	1511.99
446.02	1621.99
446.21	1661.78
446.39	1584.54
446.58	1614.97
446.77	1636.03
446.95	1703.91
447.14	1713.27
447.32	1762.42
447.51	1797.53
447.69	1643.06
447.88	1540.07
448.06	1612.63
448.25	1727.32
448.43	1834.98
448.62	1717.95
448.80	1661.78
448.99	1565.82
449.17	1617.31
449.36	1675.82
449.54	1858.39
449.73	1799.87
449.91	1774.13
450.10	1806.89
450.28	1961.37
450.46	1846.68
450.65	1909.88
450.83	1891.15
451.02	1959.03
451.20	1818.60
451.39	1792.85
451.57	1795.19
451.76	1853.70
451.94	1870.09
452.13	1732.00
452.31	1661.78
452.49	1544.75
452.68	1626.67
452.86	1598.59
453.05	1638.38
453.23	1593.90
453.42	1692.21
453.60	1776.47
453.78	1846.68
453.97	1743.70
454.15	1743.70
454.34	1650.08
454.52	1682.85
454.70	1654.76
454.89	1750.72
455.07	1680.50
455.26	1685.19
455.44	1785.83
455.62	1888.81
455.81	1937.96
455.99	1893.49
456.17	1774.13
456.36	1916.90
456.54	1933.28
456.73	1860.73
456.91	1968.39
457.09	1893.49
457.28	1872.43
457.46	1895.83
457.64	1956.69
457.83	1799.87
458.01	1734.34
458.19	1713.27
458.38	1823.28
458.56	1856.04
458.74	1933.28
458.93	1837.32
459.11	1797.53
459.29	1839.66
459.48	1729.66
459.66	1788.17
459.84	1952.01
460.03	1692.21
460.21	1860.73
460.39	1937.96
460.57	1893.49
460.76	1874.77
460.94	1982.43
461.12	1937.96
461.31	1802.21
461.49	1982.43
461.67	1919.24
461.85	1954.35
462.04	1966.05
462.22	1907.54
462.40	1987.11
462.59	2043.29
462.77	1867.75
462.95	1902.86
463.13	2003.50
463.32	1933.28
463.50	1799.87
463.68	1912.22
463.86	1804.55
464.05	1886.47
464.23	1823.28
464.41	1823.28
464.59	1750.72
464.78	1898.17
464.96	1792.85
465.14	1785.83
465.32	1909.88
465.50	1921.58
465.69	1870.09
465.87	1905.20
466.05	1823.28
466.23	1729.66
466.41	1792.85
466.60	1778.81
466.78	1933.28
466.96	1886.47
467.14	1802.21
467.32	1806.89
467.51	1858.39
467.69	1856.04
467.87	1881.79
468.05	1844.34
468.23	1947.33
468.41	1839.66
468.60	1842.00
468.78	1909.88
468.96	1839.66
469.14	1905.20
469.32	1774.13
469.50	1827.96
469.69	1839.66
469.87	1795.19
470.05	1968.39
470.23	1877.11
470.41	1790.51
470.59	1825.62
470.77	1743.70
470.95	1863.07
471.14	1942.64
471.32	1870.09
471.50	2031.58
471.68	2064.35
471.86	1952.01
472.04	2090.10
472.22	1923.92
472.40	1863.07
472.58	1956.69
472.77	1849.02
472.95	1949.67
473.13	1919.24
473.31	1937.96
473.49	1884.13
473.67	2038.61
473.85	2019.88
474.03	2073.71
474.21	2094.78
474.39	2148.61
474.57	2101.80
474.75	2073.71
474.93	1959.03
475.12	2024.56
475.30	1980.09
475.48	1963.71
475.66	2064.35
475.84	2083.08
476.02	2008.18
476.20	2106.48
476.38	1956.69
476.56	2143.93
476.74	2076.06
476.92	2174.36
477.10	2176.70
477.28	2263.30
477.46	2143.93
477.64	2155.63
477.82	2200.10
478.00	2064.35
478.18	2263.30
478.36	2279.68
478.54	2289.04
478.72	2340.54
478.90	2279.68
479.08	2417.77
479.26	2349.90
479.44	2513.74
479.62	2403.73
479.80	2368.62
479.98	2370.96
480.16	2424.80
480.34	2427.14
480.52	2455.22
480.70	2403.73
480.88	2396.71
481.06	2466.92
481.24	2473.95
481.41	2548.84
481.59	2588.63
481.77	2665.87
481.95	2389.69
482.13	2443.52
482.31	2445.86
482.49	2567.57
482.67	2373.30
482.85	2504.37
483.03	2590.97
483.21	2628.42
483.39	2733.75
483.57	2630.76
483.74	2614.38
483.92	2513.74
484.10	2607.36
484.28	2665.87
484.46	2637.78
484.64	2698.64
484.82	2736.09
485.00	2586.29
485.18	2630.76
485.35	2406.07
485.53	2356.92
485.71	2005.84
485.89	1994.14
486.07	2120.53
486.25	2394.37
486.43	2487.99
486.61	2495.01
486.78	2385.01
486.96	2431.82
487.14	2619.06
487.32	2672.89
487.50	2899.92
487.68	2789.92
487.85	2871.84
488.03	2988.86
488.21	2829.71
488.39	2785.24
488.57	2665.87
488.75	2775.88
488.92	2778.22
489.10	2991.20
489.28	3159.72
489.46	3162.06
489.64	3171.43
489.81	3077.80
489.99	3176.11
490.17	3215.90
490.35	3138.66
490.53	3059.08
490.70	3145.68
490.88	3197.17
491.06	3258.03
491.24	3297.81
491.41	3066.10
491.59	2747.79
491.77	3021.63
491.95	2951.42
492.13	3117.59
492.30	3265.05
492.48	3269.73
492.66	3403.14
492.84	3346.97
493.01	3124.62
493.19	3155.04
493.37	3183.13
493.54	3260.37
493.72	3346.97
493.90	3393.78
494.08	3555.27
494.25	3489.74
494.43	3574.00
494.61	3541.23
494.79	3698.05
494.96	3517.83
495.14	3412.50
495.32	3323.56
495.49	3295.47
495.67	3428.88
495.85	3412.50
496.02	3700.39
496.20	3510.80
496.38	3585.70
496.55	3499.10
496.73	3688.68
496.91	3583.36
497.09	3606.77
497.26	3641.87
497.44	3747.20
497.62	3613.79
497.79	3475.70
497.97	3272.07
498.14	3323.56
498.32	3522.51
498.50	3698.05
498.67	3782.31
498.85	3667.62
499.03	3681.66
499.20	3562.30
499.38	3754.22
499.56	3595.06
499.73	3527.19
499.91	3478.04
500.08	3449.95
500.26	3356.33
500.44	3403.14
500.61	3595.06
500.79	3597.40
500.97	3454.63
501.14	3349.31
501.32	3311.86
501.49	3494.42
501.67	3520.17
501.84	3405.48
502.02	3571.66
502.20	3574.00
502.37	3686.34
502.55	3733.15
502.72	3822.09
502.90	3775.28
503.07	3744.86
503.25	3545.91
503.43	3714.43
503.60	3531.87
503.78	3328.24
503.95	3398.46
504.13	3541.23
504.30	3660.60
504.48	3684.00
504.65	3801.03
504.83	3763.58
505.01	3758.90
505.18	3723.79
505.36	4042.11
505.53	3847.84
505.71	3824.44
505.88	3932.10
506.06	3892.31
506.23	3819.75
506.41	3478.04
506.58	3688.68
506.76	3749.54
506.93	3756.56
507.11	3733.15
507.28	3758.90
507.46	3653.58
507.63	3632.51
507.81	3786.99
507.98	3679.32
508.16	3611.45
508.33	3808.05
508.50	3740.18
508.68	3803.37
508.85	3932.10
509.03	3751.88
509.20	3880.61
509.38	3754.22
509.55	3520.17
509.73	3637.19
509.90	3819.75
510.08	3901.67
510.25	3805.71
510.42	3651.24
510.60	3669.96
510.77	3768.26
510.95	3871.25
511.12	3974.23
511.30	3955.51
511.47	3836.14
511.64	3948.48
511.82	3943.80
511.99	3620.81
512.17	3632.51
512.34	3758.90
512.51	3665.28
512.69	3676.98
512.86	3880.61
513.04	3889.97
513.21	3756.56
513.38	3871.25
513.56	3550.59
513.73	3513.14
513.90	3590.38
514.08	3562.30
514.25	3545.91
514.43	3751.88
514.60	3712.09
514.77	3784.65
514.95	3847.84
515.12	3665.28
515.29	3808.05
515.47	3850.18
515.64	3765.92
515.81	3861.88
515.99	3625.49
516.16	3552.93
516.33	3251.00
516.51	3073.12
516.68	2928.01
516.85	3014.61
517.03	2967.80
517.20	3148.02
517.37	3602.08
517.54	3702.73
517.72	3536.55
517.89	3258.03
518.06	3131.64
518.24	3101.21
518.41	3384.41
518.58	3569.32
518.75	3585.70
518.93	3590.38
519.10	3590.38
519.27	3559.95
519.45	3620.81
519.62	3775.28
519.79	3782.31
519.96	3709.75
520.14	3672.30
520.31	3482.72
520.48	3534.21
520.65	3669.96
520.83	3716.77
521.00	3756.56
521.17	3742.52
521.34	3639.53
521.52	3662.94
521.69	3819.75
521.86	3894.65
522.03	3833.80
522.20	3672.30
522.38	3449.95
522.55	3559.95
522.72	3665.28
522.89	3555.27
523.07	3658.26
523.24	3737.84
523.41	3857.20
523.58	3744.86
523.75	3922.74
523.92	4030.40
524.10	4007.00
524.27	3929.76
524.44	3927.42
524.61	4025.72
524.78	3873.59
524.96	3716.77
525.13	3833.80
525.30	3777.62
525.47	3978.91
525.64	3794.01
525.81	3702.73
525.98	3494.42
526.16	3295.47
526.33	3248.66
526.50	3269.73
526.67	3260.37
526.84	3248.66
527.01	3459.31
527.18	3440.59
527.36	3765.92
527.53	3805.71
527.70	3826.78
527.87	3726.13
528.04	3513.14
528.21	3627.83
528.38	3784.65
528.55	3871.25
528.72	4063.17
528.89	4042.11
529.07	3990.61
529.24	3782.31
529.41	3749.54
529.58	3557.61
529.75	3655.92
529.92	3756.56
530.09	3808.05
530.26	3712.09
530.43	3840.82
530.60	3861.88
530.77	3904.01
530.94	3892.31
531.11	3824.44
531.28	3796.35
531.46	3777.62
531.63	3716.77
531.80	3934.44
531.97	3698.05
532.14	3618.47
532.31	3438.25
532.48	3309.52
532.65	3337.60
532.82	3471.01
532.99	3604.42
533.16	3674.64
533.33	3885.29
533.50	3737.84
533.67	3700.39
533.84	3679.32
534.01	3674.64
534.18	3653.58
534.35	3648.90
534.52	3646.55
534.69	3768.26
534.86	3730.81
535.03	3698.05
535.20	3847.84
535.37	3831.46
535.54	3918.06
535.71	3861.88
535.88	3817.41
536.05	3733.15
536.22	3684.00
536.38	3534.21
536.55	3545.91
536.72	3400.80
536.89	3478.04
537.06	3604.42
537.23	3726.13
537.40	3648.90
537.57	3719.11
537.74	3716.77
537.91	3634.85
538.08	3632.51
538.25	3735.50
538.42	3669.96
538.59	3719.11
538.75	3508.46
538.92	3531.87
539.09	3461.65
539.26	3494.42
539.43	3541.23
539.60	3485.06
539.77	3456.97
539.94	3623.15
540.11	3522.51
540.28	3293.13
540.44	3293.13
540.61	3377.39
540.78	3297.81
540.95	3534.21
541.12	3501.44
541.29	3522.51
541.46	3501.44
541.62	3557.61
541.79	3501.44
541.96	3384.41
542.13	3405.48
542.30	3536.55
542.47	3599.74
542.63	3485.06
542.80	3370.37
542.97	3412.50
543.14	3524.85
543.31	3475.70
543.48	3496.76
543.64	3676.98
543.81	3620.81
543.98	3630.17
544.15	3646.55
544.32	3515.48
544.48	3452.29
544.65	3503.78
544.82	3562.30
544.99	3609.11
545.16	3440.59
545.32	3391.44
545.49	3618.47
545.66	3751.88
545.83	3585.70
546.00	3492.08
546.16	3412.50
546.33	3576.34
546.50	3531.87
546.67	3522.51
546.83	3531.87
547.00	3510.80
547.17	3489.74
547.34	3421.86
547.50	3412.50
547.67	3335.26
547.84	3447.61
548.00	3332.92
548.17	3412.50
548.34	3543.57
548.51	3541.23
548.67	3459.31
548.84	3456.97
549.01	3489.74
549.18	3389.10
549.34	3522.51
549.51	3445.27
549.68	3478.04
549.84	3557.61
550.01	3342.28
550.18	3311.86
550.34	3412.50
550.51	3316.54
550.68	3335.26
550.84	3314.20
551.01	3438.25
551.18	3199.51
551.34	3396.12
551.51	3389.10
551.68	3538.89
551.84	3513.14
552.01	3405.48
552.18	3426.54
552.34	3346.97
552.51	3232.28
552.68	3267.39
552.84	3290.79
553.01	3421.86
553.18	3337.60
553.34	3279.09
553.51	3368.03
553.67	3489.74
553.84	3545.91
554.01	3428.88
554.17	3262.71
554.34	3463.99
554.51	3405.48
554.67	3403.14
554.84	3456.97
555.00	3269.73
555.17	3286.11
555.33	3302.50
555.50	3358.67
555.67	3529.53
555.83	3311.86
556.00	3173.77
556.16	3288.45
556.33	3241.64
556.50	3126.96
556.66	3239.30
556.83	3185.47
556.99	3162.06
557.16	3241.64
557.32	3206.53
557.49	3206.53
557.65	3412.50
557.82	3295.47
557.98	3208.87
558.15	3241.64
558.32	3063.76
558.48	2906.95
558.65	3110.57
558.81	3108.23
558.98	3068.44
559.14	3141.00
559.31	3028.65
559.47	2967.80
559.64	2984.18
559.80	3173.77
559.97	3164.40
560.13	3129.30
560.30	3110.57
560.46	3267.39
560.63	3236.96
560.79	3290.79
560.96	3316.54
561.12	3145.68
561.29	3014.61
561.45	2986.52
561.61	3108.23
561.78	3077.80
561.94	3014.61
562.11	3199.51
562.27	3112.91
562.44	3122.27
562.60	3124.62
562.77	3087.17
562.93	3213.56
563.10	3171.43
563.26	3098.87
563.42	3126.96
563.59	3035.67
563.75	3089.51
563.92	3023.97
564.08	3014.61
564.24	3157.38
564.41	3192.49
564.57	3087.17
564.74	3052.06
564.90	3108.23
565.07	2925.67
565.23	2930.35
565.39	2953.76
565.56	2977.16
565.72	2834.39
565.88	2935.03
566.05	2855.45
566.21	2874.18
566.38	2862.48
566.54	2981.84
566.70	2998.23
566.87	3042.70
567.03	3096.53
567.19	3180.79
567.36	3084.83
567.52	3035.67
567.68	2944.39
567.85	2918.65
568.01	2853.11
568.17	2787.58
568.34	2822.69
568.50	2808.64
568.66	2850.77
568.83	2757.15
568.99	2841.41
569.15	2773.53
569.32	2827.37
569.48	2963.12
569.64	2806.30
569.81	3012.27
569.97	2796.94
570.13	2782.90
570.30	2782.90
570.46	2778.22
570.62	2785.24
570.78	2684.59
570.95	2672.89
571.11	2834.39
571.27	2902.26
571.43	2722.04
571.60	2792.26
571.76	2885.88
571.92	2899.92
572.09	2916.31
572.25	2958.44
572.41	2944.39
572.57	3045.04
572.74	2771.19
572.90	2754.81
573.06	2834.39
573.22	2775.88
573.38	2806.30
573.55	2759.49
573.71	2846.09
573.87	2818.00
574.03	2818.00
574.20	2925.67
574.36	2782.90
574.52	2745.45
574.68	2698.64
574.84	2675.23
575.01	2597.99
575.17	2733.75
575.33	2621.40
575.49	2857.79
575.65	2717.36
575.82	2663.53
575.98	2665.87
576.14	2661.19
576.30	2719.70
576.46	2789.92
576.62	2614.38
576.79	2729.06
576.95	2677.57
577.11	2724.38
577.27	2722.04
577.43	2780.56
577.59	2693.96
577.75	2541.82
577.92	2546.50
578.08	2595.65
578.24	2595.65
578.40	2506.71
578.56	2621.40
578.72	2677.57
578.88	2658.85
579.04	2595.65
579.21	2717.36
579.37	2700.98
579.53	2644.81
579.69	2583.95
579.85	2724.38
580.01	2506.71
580.17	2719.70
580.33	2436.50
580.49	2682.25
580.65	2565.23
580.82	2642.46
580.98	2609.70
581.14	2635.44
581.30	2740.77
581.46	2684.59
581.62	2586.29
581.78	2565.23
581.94	2427.14
582.10	2677.57
582.26	2775.88
582.42	2647.15
582.58	2785.24
582.74	2656.51
582.90	2572.25
583.06	2679.91
583.22	2583.95
583.38	2651.83
583.54	2583.95
583.70	2541.82
583.86	2630.76
584.02	2602.68
584.18	2649.49
584.34	2530.12
584.50	2640.12
584.66	2619.06
584.82	2583.95
584.98	2464.58
585.14	2483.31
585.30	2506.71
585.46	2509.05
585.62	2436.50
585.78	2567.57
585.94	2368.62
586.10	2483.31
586.26	2403.73
586.42	2527.78
586.58	2586.29
586.74	2553.52
586.90	2455.22
587.06	2544.16
587.22	2527.78
587.38	2415.43
587.54	2487.99
587.70	2485.65
587.86	2480.97
588.02	2424.80
588.18	2462.24
588.34	2267.98
588.49	2165.00
588.65	1914.56
588.81	1952.01
588.97	2083.08
589.13	1947.33
589.29	2052.65
589.45	2038.61
589.61	2211.81
589.77	2190.74
589.93	2303.09
590.08	2389.69
590.24	2307.77
590.40	2214.15
590.56	2349.90
590.72	2382.67
590.88	2275.00
591.04	2408.41
591.20	2181.38
591.35	2310.11
591.51	2263.30
591.67	2235.21
591.83	2291.38
591.99	2279.68
592.15	2326.49
592.31	2354.58
592.46	2399.05
592.62	2228.19
592.78	2150.95
592.94	2312.45
593.10	2314.79
593.26	2415.43
593.41	2361.60
593.57	2260.96
593.73	2298.41
593.89	2214.15
594.05	2193.08
594.20	2129.89
594.36	2174.36
594.52	2244.57
594.68	2277.34
594.84	2157.97
594.99	2251.60
595.15	2157.97
595.31	2221.17
595.47	2270.32
595.62	2260.96
595.78	2258.62
595.94	2450.54
596.10	2387.35
596.25	2183.72
596.41	2106.48
596.57	2193.08
596.73	2314.79
596.88	2270.32
597.04	2279.68
597.20	2214.15
597.36	2113.50
597.51	2188.40
597.67	2115.84
597.83	2207.13
597.99	2190.74
598.14	2197.76
598.30	2193.08
598.46	2195.42
598.61	2134.57
598.77	2190.74
598.93	2195.42
599.09	2253.94
599.24	2202.44
599.40	2251.60
599.56	2080.74
