SpectraSuite Data File
++++++++++++++++++++++++++++++++++++
Date: Mon Oct 07 14:53:56 GMT-05:00 2013
User: price-jones
Dark Spectrum Present: No
Reference Spectrum Present: No
Number of Sampled Component Spectra: 1
Spectrometers: USB2+H05261
Integration Time (usec): 100000 (USB2+H05261)
Spectra Averaged: 1 (USB2+H05261)
Boxcar Smoothing: 0 (USB2+H05261)
Correct for Electrical Dark: No (USB2+H05261)
Strobe/Lamp Enabled: No (USB2+H05261)
Correct for Detector Non-linearity: No (USB2+H05261)
Correct for Stray Light: No (USB2+H05261)
Number of Pixels in Processed Spectrum: 2048
>>>>>Begin Processed Spectral Data<<<<<
365.73	0.00
365.92	0.00
366.12	0.00
366.32	0.00
366.52	0.00
366.72	0.00
366.91	0.00
367.11	0.00
367.31	0.00
367.51	0.00
367.70	0.00
367.90	0.00
368.10	0.00
368.30	0.00
368.49	0.00
368.69	0.00
368.89	0.00
369.09	0.00
369.28	0.00
369.48	0.00
369.68	0.00
369.87	0.00
370.07	0.00
370.27	0.00
370.47	730.25
370.66	3382.07
370.86	4058.49
371.06	4369.78
371.25	4484.47
371.45	4051.47
371.65	3702.73
371.84	3372.71
372.04	3541.23
372.24	3922.74
372.44	4131.05
372.63	4088.92
372.83	3768.26
373.03	3297.81
373.22	3054.40
373.42	3145.68
373.62	3761.24
373.81	4091.26
374.01	3882.95
374.21	3590.38
374.40	3433.57
374.60	3487.40
374.79	3995.29
374.99	4681.07
375.19	5055.56
375.38	5027.47
375.58	4751.29
375.78	4627.24
375.97	4652.98
376.17	4837.89
376.37	4702.14
376.56	4994.70
376.76	5259.18
376.95	5444.09
377.15	5825.59
377.35	6087.73
377.54	6504.35
377.74	6612.01
377.93	6616.69
378.13	6527.75
378.33	6092.41
378.52	5774.10
378.72	5420.68
378.91	5315.36
379.11	5121.09
379.31	4959.60
379.50	5078.96
379.70	5577.50
379.89	5954.32
380.09	6445.84
380.28	6483.28
380.48	6438.81
380.68	6380.30
380.87	6183.70
381.07	5905.17
381.26	5195.99
381.46	4985.34
381.65	4674.05
381.85	4802.78
382.04	4421.27
382.24	4077.21
382.43	3911.04
382.63	3871.25
382.83	3843.16
383.02	3957.85
383.22	3918.06
383.41	3983.59
383.61	4269.14
383.80	4847.25
384.00	5593.88
384.19	6078.37
384.39	6448.18
384.58	6356.90
384.78	6333.49
384.97	6380.30
385.17	5928.58
385.36	5547.07
385.56	5359.83
385.75	5497.92
385.95	6071.35
386.14	6619.04
386.34	6698.61
386.53	6338.17
386.72	5834.96
386.92	5940.28
387.11	6354.55
387.31	6588.61
387.50	6530.09
387.70	6092.41
387.89	6251.57
388.09	6167.31
388.28	6321.79
388.48	6270.30
388.67	6857.77
388.86	7384.39
389.06	8112.30
389.25	8634.24
389.45	8503.17
389.64	8461.04
389.84	8369.76
390.03	8241.03
390.22	8344.01
390.42	8746.58
390.61	9249.80
390.81	9867.70
391.00	9923.87
391.19	9987.07
391.39	9537.68
391.58	9104.68
391.78	8458.70
391.97	8147.40
392.16	7569.29
392.36	6909.26
392.55	5490.90
392.75	4379.14
392.94	3555.27
393.13	3620.81
393.33	4231.69
393.52	5245.14
393.71	6567.54
393.91	7438.22
394.10	8276.13
394.29	8814.46
394.49	9685.14
394.68	10406.02
394.88	10445.81
395.07	10857.75
395.26	10516.03
395.46	10431.77
395.65	9858.34
395.84	8479.76
396.04	7131.61
396.23	5823.25
396.42	4898.74
396.62	4683.41
396.81	5589.20
397.00	7124.59
397.19	8769.99
397.39	10487.94
397.58	11627.78
397.77	12601.44
397.97	12931.46
398.16	13114.02
398.35	13509.57
398.55	13860.65
398.74	14410.68
398.93	14768.78
399.12	14614.30
399.32	14001.08
399.51	14473.87
399.70	15131.56
399.90	15213.48
400.09	15108.16
400.28	15019.22
400.47	15190.08
400.67	15440.51
400.86	16126.29
401.05	16084.16
401.24	16196.51
401.44	16683.34
401.63	16477.37
401.82	16772.28
402.01	16798.02
402.21	16812.07
402.40	17018.04
402.59	16442.26
402.78	15660.52
402.97	15393.70
403.17	16065.44
403.36	17074.21
403.55	17404.22
403.74	17631.26
403.93	16882.28
404.13	15630.10
404.32	15246.25
404.51	16233.96
404.70	17097.61
404.89	16947.82
405.09	16931.44
405.28	16313.53
405.47	16170.76
405.66	16278.43
405.85	16084.16
406.05	15438.17
406.24	15807.98
406.43	16325.24
406.62	17006.33
406.81	17228.68
407.00	16453.97
407.20	16046.71
407.39	15985.86
407.58	17039.10
407.77	17322.30
407.96	18445.76
408.15	18256.18
408.34	18595.56
408.54	19517.73
408.73	19594.96
408.92	19138.56
409.11	18590.88
409.30	17582.10
409.49	16732.49
409.68	15538.82
409.87	15023.90
410.07	16093.52
410.26	17249.75
410.45	18497.25
410.64	18967.70
410.83	19550.49
411.02	19623.05
411.21	20706.72
411.40	19866.47
411.59	20528.84
411.78	20475.01
411.98	19838.38
412.17	20201.16
412.36	20013.92
412.55	20133.29
412.74	19948.39
412.93	19236.86
413.12	19463.90
413.31	21170.15
413.50	21348.03
413.69	21561.02
413.88	21078.86
414.07	20187.12
414.26	20365.00
414.45	21336.32
414.64	21350.37
414.83	21284.83
415.02	21036.74
415.22	21235.68
415.41	21568.04
415.60	21926.14
415.79	22824.90
415.98	23566.85
416.17	23566.85
416.36	22663.41
416.55	22712.56
416.74	21781.03
416.93	20896.30
417.12	21144.40
417.31	21369.09
417.50	21848.90
417.69	22623.62
417.88	22513.61
418.07	21900.39
418.26	21750.60
418.45	22075.93
418.64	22719.58
418.83	23850.06
419.02	23073.00
419.21	22981.72
419.39	22204.66
419.58	21104.61
419.77	21179.51
419.96	22153.17
420.15	23229.82
420.34	23899.21
420.53	24748.82
420.72	25270.76
420.91	24929.05
421.10	24547.54
421.29	24669.25
421.48	23187.69
421.67	24996.92
421.86	24608.39
422.05	22469.14
422.24	20280.74
422.43	19981.15
422.61	22036.14
422.80	23669.84
422.99	23894.53
423.18	23171.30
423.37	22389.56
423.56	22597.87
423.75	23035.55
423.94	23417.06
424.13	22253.81
424.32	22537.02
424.50	22394.25
424.69	22214.02
424.88	22141.47
425.07	22277.22
425.26	22242.11
425.45	22031.46
425.64	21514.20
425.83	21682.72
426.01	22817.88
426.20	23405.36
426.39	23152.58
426.58	21532.93
426.77	20116.90
426.96	19236.86
427.15	19573.90
427.33	21694.43
427.52	22429.35
427.71	22317.01
427.90	22199.98
428.09	22263.18
428.28	21937.84
428.46	21039.08
428.65	20304.15
428.84	21060.14
429.03	21329.30
429.22	20212.87
429.40	19627.73
429.59	17458.06
429.78	15527.11
429.97	15438.17
430.16	15712.02
430.34	15854.79
430.53	15618.39
430.72	15688.61
430.91	17579.76
431.10	20765.23
431.28	24477.32
431.47	26441.03
431.66	26733.60
431.85	24634.14
432.03	22314.67
432.22	21626.55
432.41	22160.19
432.60	24765.21
432.79	25795.04
432.97	26658.70
433.16	25907.39
433.35	23344.50
433.54	20947.79
433.72	19578.58
433.91	20517.14
434.10	22742.99
434.28	24484.34
434.47	25837.17
434.66	25050.75
434.85	25020.33
435.03	24524.13
435.22	25137.35
435.41	26677.43
435.59	26410.60
435.78	26895.10
435.97	28109.83
436.16	28137.92
436.34	27672.15
436.53	26885.73
436.72	26951.27
436.90	25663.97
437.09	25708.44
437.28	24929.05
437.46	25942.50
437.65	25783.34
437.84	24404.77
438.02	22328.71
438.21	21991.67
438.40	23482.59
438.58	24879.89
438.77	25785.68
438.96	26331.03
439.14	27304.69
439.33	27805.56
439.52	28011.53
439.70	27515.34
439.89	27000.42
440.08	26352.09
440.26	26520.61
440.45	27356.18
440.63	28875.19
440.82	30635.27
441.01	29940.13
441.19	29448.62
441.38	30221.00
441.57	31058.91
441.75	31786.82
441.94	31850.01
442.12	31262.54
442.31	32060.66
442.50	31948.31
442.68	31850.01
442.87	31157.21
443.05	30925.50
443.24	31384.24
443.43	31807.88
443.61	32666.86
443.80	33006.23
443.98	31227.43
444.17	31131.47
444.35	33064.75
444.54	33263.69
444.73	32685.58
444.91	31702.56
445.10	30300.58
445.28	29027.32
445.47	28683.27
445.65	29165.42
445.84	29778.64
446.02	30689.10
446.21	31079.97
446.39	31307.01
446.58	31758.73
446.77	31875.76
446.95	32514.72
447.14	33493.07
447.32	33404.13
447.51	33280.08
447.69	31880.44
447.88	31274.24
448.06	31758.73
448.25	32563.87
448.43	33001.55
448.62	32268.97
448.80	32355.57
448.99	32156.62
449.17	32804.95
449.36	32905.59
449.54	33600.73
449.73	34457.37
449.91	34873.98
450.10	35548.06
450.28	36016.16
450.46	36254.90
450.65	35267.19
450.83	35189.95
451.02	34700.78
451.20	34483.11
451.39	34885.68
451.57	34373.11
451.76	34345.02
451.94	34356.72
452.13	33710.74
452.31	31819.58
452.49	30569.74
452.68	30787.41
452.86	30813.15
453.05	31358.50
453.23	32336.84
453.42	32912.61
453.60	33701.37
453.78	34218.63
453.97	33881.60
454.15	33879.25
454.34	32921.98
454.52	32987.51
454.70	32503.02
454.89	33130.28
455.07	32950.06
455.26	33844.15
455.44	35040.16
455.62	35304.64
455.81	35707.21
455.99	35098.67
456.17	34665.67
456.36	35042.50
456.54	36388.31
456.73	36018.50
456.91	36575.55
457.09	36360.22
457.28	36807.26
457.46	36027.87
457.64	35496.56
457.83	34349.70
458.01	33858.19
458.19	34611.84
458.38	34806.11
458.56	36158.94
458.74	35941.27
458.93	34866.96
459.11	35260.17
459.29	34909.09
459.48	35454.44
459.66	34916.11
459.84	35220.38
460.03	36116.81
460.21	36121.49
460.39	36481.93
460.57	36453.84
460.76	37305.80
460.94	36737.05
461.12	36250.22
461.31	36659.81
461.49	36634.06
461.67	37038.98
461.85	37645.18
462.04	37624.11
462.22	38082.86
462.40	37345.59
462.59	37572.62
462.77	37502.40
462.95	37467.30
463.13	37443.89
463.32	36650.45
463.50	36449.16
463.68	36477.25
463.86	36568.53
464.05	36067.66
464.23	35171.23
464.41	35204.00
464.59	34724.19
464.78	36404.69
464.96	35859.35
465.14	35732.96
465.32	36615.34
465.50	37427.51
465.69	38251.38
465.87	36533.42
466.05	36165.96
466.23	34618.86
466.41	33628.82
466.60	34810.79
466.78	34443.32
466.96	35370.18
467.14	35950.63
467.32	36313.41
467.51	36383.63
467.69	35047.18
467.87	35592.53
468.05	36346.18
468.23	36456.18
468.41	36121.49
468.60	36313.41
468.78	36540.44
468.96	36264.26
469.14	36973.44
469.32	36882.16
469.50	35384.22
469.69	35569.12
469.87	35005.05
470.05	35150.17
470.23	34717.17
470.41	35295.28
470.59	35959.99
470.77	35887.43
470.95	36456.18
471.14	36723.01
471.32	36769.82
471.50	39229.72
471.68	39255.46
471.86	39208.65
472.04	39639.31
472.22	39639.31
472.40	37752.84
472.58	37546.87
472.77	37191.11
472.95	37867.53
473.13	39105.67
473.31	37614.75
473.49	37907.32
473.67	38848.21
473.85	39021.41
474.03	39782.09
474.21	39981.03
474.39	40151.89
474.57	40435.10
474.75	40594.25
474.93	40236.15
475.12	39161.84
475.30	39536.33
475.48	39889.75
475.66	40308.71
475.84	39739.96
476.02	39171.21
476.20	38806.08
476.38	39789.11
476.56	40627.02
476.74	41333.86
476.92	41415.78
477.10	41720.05
477.28	43147.78
477.46	43126.71
477.64	43395.87
477.82	43288.21
478.00	43875.68
478.18	42801.38
478.36	43082.24
478.54	42918.40
478.72	42794.36
478.90	44357.83
479.08	44982.76
479.26	45509.38
479.44	45713.00
479.62	45315.11
479.80	45528.10
479.98	45525.76
480.16	45766.84
480.34	45111.49
480.52	45790.24
480.70	46401.12
480.88	45951.74
481.06	46597.73
481.24	47140.73
481.41	48030.13
481.59	48470.15
481.77	48362.49
481.95	47276.48
482.13	47316.27
482.31	47445.00
482.49	48514.62
482.67	47875.66
482.85	48301.64
483.03	48919.54
483.21	49214.44
483.39	49373.60
483.57	48336.74
483.74	48032.47
483.92	48526.33
484.10	48367.17
484.28	49808.94
484.46	50047.68
484.64	50618.77
484.82	49141.89
485.00	49066.99
485.18	48388.24
485.35	47232.01
485.53	44390.60
485.71	40105.08
485.89	39452.07
486.07	41497.70
486.25	45343.20
486.43	47402.87
486.61	48058.22
486.78	47590.11
486.96	48088.65
487.14	49799.58
487.32	50335.56
487.50	51351.35
487.68	52041.81
487.85	52631.63
488.03	52350.76
488.21	52107.35
488.39	51526.89
488.57	50937.08
488.75	50351.94
488.92	51824.14
489.10	53544.44
489.28	55014.29
489.46	55327.92
489.64	55454.31
489.81	55503.46
489.99	55063.44
490.17	55215.58
490.35	55517.51
490.53	54955.78
490.70	54803.64
490.88	54534.48
491.06	55447.29
491.24	55573.68
491.41	54569.59
491.59	52797.80
491.77	52074.58
491.95	53422.73
492.13	54223.19
492.30	55529.21
492.48	56367.12
492.66	56830.55
492.84	56954.60
493.01	56643.30
493.19	56020.72
493.37	55793.69
493.54	55276.43
493.72	56114.34
493.90	56952.26
494.08	57677.82
494.25	57909.53
494.43	58127.20
494.61	58389.34
494.79	58562.54
494.96	58377.64
495.14	57834.64
495.32	56814.16
495.49	56207.97
495.67	57270.57
495.85	58702.98
496.02	58986.18
496.20	58740.42
496.38	58513.39
496.55	58230.19
496.73	58894.90
496.91	58621.06
497.09	59377.05
497.26	59484.72
497.44	58986.18
497.62	58513.39
497.79	57855.70
497.97	56545.00
498.14	56762.67
498.32	57710.59
498.50	58719.36
498.67	59126.61
498.85	59157.04
499.03	59032.99
499.20	59351.30
499.38	59508.12
499.56	59302.15
499.73	58911.28
499.91	58667.87
500.08	58099.12
500.26	57247.16
500.44	57640.37
500.61	58555.52
500.79	58363.60
500.97	58012.52
501.14	57623.99
501.32	57467.17
501.49	57677.82
501.67	57785.49
501.84	58384.66
502.02	58614.04
502.20	58894.90
502.37	59051.72
502.55	58967.46
502.72	59573.66
502.90	60011.34
503.07	59573.66
503.25	59199.17
503.43	58550.84
503.60	57825.28
503.78	57284.61
503.95	57696.55
504.13	59023.63
504.30	59821.75
504.48	59714.09
504.65	59334.92
504.83	59241.30
505.01	59955.16
505.18	60233.69
505.36	60711.16
505.53	60727.54
505.71	60987.34
505.88	60814.14
506.06	60446.68
506.23	60151.77
506.41	59681.32
506.58	59941.12
506.76	59936.44
506.93	59824.09
507.11	59676.64
507.28	59917.71
507.46	59367.69
507.63	58822.34
507.81	58429.13
507.98	58836.39
508.16	59554.93
508.33	59859.20
508.50	60533.28
508.68	60554.34
508.85	61329.06
509.03	60938.19
509.20	60985.00
509.38	60231.35
509.55	59559.61
509.73	59355.99
509.90	60210.28
510.08	60437.31
510.25	60198.58
510.42	60140.07
510.60	59875.58
510.77	60156.45
510.95	60549.66
511.12	60589.45
511.30	61242.46
511.47	61418.00
511.64	61303.31
511.82	61169.90
511.99	60353.05
512.17	59807.71
512.34	59700.04
512.51	59791.33
512.69	59870.90
512.86	59978.57
513.04	60350.71
513.21	60439.65
513.38	59828.77
513.56	59568.97
513.73	59002.56
513.90	59157.04
514.08	59222.58
514.25	59501.10
514.43	59831.11
514.60	59702.38
514.77	59934.10
514.95	59945.80
515.12	60044.10
515.29	60210.28
515.47	60554.34
515.64	60757.97
515.81	60523.91
515.99	59866.22
516.16	58590.63
516.33	56367.12
516.51	54953.44
516.68	54368.30
516.85	53888.49
517.03	54302.77
517.20	56872.68
517.37	59042.35
517.54	59985.59
517.72	59702.38
517.89	57256.53
518.06	55004.93
518.24	55208.56
518.41	57169.93
518.58	58518.07
518.75	59040.01
518.93	58951.07
519.10	58726.38
519.27	59489.40
519.45	59671.96
519.62	60147.09
519.79	60364.76
519.96	60404.55
520.14	59870.90
520.31	58983.84
520.48	59201.51
520.65	59302.15
520.83	60406.89
521.00	60851.59
521.17	60437.31
521.34	59922.40
521.52	60243.05
521.69	60732.22
521.86	60935.85
522.03	60945.21
522.20	59756.22
522.38	58766.17
522.55	58698.30
522.72	59098.53
522.89	59604.08
523.07	59749.20
523.24	60121.34
523.41	60736.90
523.58	61006.06
523.75	61378.21
523.92	61155.86
524.10	61226.07
524.27	61144.16
524.44	61010.74
524.61	60926.49
524.78	60718.18
524.96	60552.00
525.13	60519.23
525.30	61013.08
525.47	61134.79
525.64	61244.80
525.81	60439.65
525.98	59049.38
526.16	57883.79
526.33	57235.46
526.50	56924.17
526.67	56507.55
526.84	57176.95
527.01	58096.78
527.18	58719.36
527.36	59578.34
527.53	60474.76
527.70	60547.32
527.87	60210.28
528.04	59756.22
528.21	60067.51
528.38	60928.83
528.55	61467.15
528.72	61551.41
528.89	61769.08
529.07	61511.62
529.24	60980.32
529.41	60416.25
529.58	59674.30
529.75	59950.48
529.92	60317.95
530.09	60605.83
530.26	61277.57
530.43	61389.91
530.60	61396.93
530.77	61584.18
530.94	61661.41
531.11	61216.71
531.28	60942.87
531.46	60559.02
531.63	60872.65
531.80	60683.07
531.97	60168.15
532.14	59686.00
532.31	58787.24
532.48	57989.11
532.65	57979.75
532.82	59143.00
532.99	59849.84
533.16	60320.29
533.33	60814.14
533.50	60563.70
533.67	60030.06
533.84	59412.16
534.01	59906.01
534.18	59838.14
534.35	60233.69
534.52	60011.34
534.69	60254.75
534.86	60608.17
535.03	60652.64
535.20	61265.86
535.37	61602.90
535.54	61600.56
535.71	61387.57
535.88	61092.66
536.05	60299.22
536.22	59950.48
536.38	59777.28
536.55	59264.70
536.72	58695.95
536.89	58759.15
537.06	59536.21
537.23	60362.42
537.40	60516.89
537.57	60559.02
537.74	60327.31
537.91	60175.17
538.08	60133.04
538.25	60301.56
538.42	60399.86
538.59	60079.21
538.75	59599.40
538.92	59487.06
539.09	59365.35
539.26	59353.65
539.43	59009.59
539.60	59234.28
539.77	59238.96
539.94	59187.47
540.11	58321.47
540.28	57598.24
540.44	57900.17
540.61	58075.71
540.78	58340.19
540.95	58932.35
541.12	59245.98
541.29	59454.29
541.46	59566.63
541.62	59601.74
541.79	59597.06
541.96	58993.20
542.13	59025.97
542.30	59133.63
542.47	59522.16
542.63	59248.32
542.80	59107.89
542.97	59143.00
543.14	59068.10
543.31	58983.84
543.48	59552.59
543.64	60399.86
543.81	60502.85
543.98	60409.23
544.15	59606.42
544.32	59166.40
544.48	59128.95
544.65	59662.60
544.82	60079.21
544.99	59693.02
545.16	59105.55
545.32	59004.91
545.49	59650.89
545.66	60268.79
545.83	59646.21
546.00	59561.95
546.16	59121.93
546.33	59082.14
546.50	59360.67
546.67	59803.03
546.83	59152.36
547.00	59203.85
547.17	58590.63
547.34	58047.63
547.50	57989.11
547.67	58408.07
547.84	58473.60
548.00	59138.32
548.17	59447.27
548.34	59128.95
548.51	59042.35
548.67	59086.82
548.84	59119.59
549.01	59201.51
549.18	59044.69
549.34	59138.32
549.51	59164.06
549.68	58930.01
549.84	58958.09
550.01	58635.10
550.18	58677.23
550.34	58670.21
550.51	58880.86
550.68	58930.01
550.84	58206.78
551.01	58389.34
551.18	58302.74
551.34	58466.58
551.51	58845.75
551.68	59000.22
551.84	59262.36
552.01	58897.24
552.18	58873.84
552.34	58152.95
552.51	57855.70
552.68	57464.83
552.84	58277.00
553.01	58379.98
553.18	58195.08
553.34	58337.85
553.51	58658.51
553.67	58630.42
553.84	58981.50
554.01	58780.21
554.17	58670.21
554.34	58731.06
554.51	58721.70
554.67	59189.81
554.84	58789.58
555.00	58487.65
555.17	58525.10
555.33	58302.74
555.50	58110.82
555.67	58211.46
555.83	58010.18
556.00	57928.26
556.16	57890.81
556.33	57567.82
556.50	57354.83
556.66	57338.44
556.83	56999.07
556.99	57237.80
557.16	57450.79
557.32	57874.43
557.49	57719.95
557.65	57801.87
557.82	57832.30
557.98	57558.45
558.15	57158.22
558.32	56306.27
558.48	55599.43
558.65	55508.14
558.81	56100.30
558.98	56364.78
559.14	56783.74
559.31	56762.67
559.47	56690.12
559.64	56521.60
559.80	56184.56
559.97	56282.86
560.13	56350.74
560.30	57310.36
560.46	58152.95
560.63	58284.02
560.79	57946.98
560.96	57778.46
561.12	56769.69
561.29	55737.52
561.45	55814.76
561.61	56289.88
561.78	56928.85
561.94	56760.33
562.11	56437.34
562.27	56659.69
562.44	56699.48
562.60	57013.11
562.77	57235.46
562.93	57174.61
563.10	56853.95
563.26	56444.36
563.42	56563.73
563.59	56280.52
563.75	56257.12
563.92	56411.59
564.08	56172.86
564.24	56498.19
564.41	56683.09
564.57	56502.87
564.74	56362.44
564.90	56439.68
565.07	56123.71
565.23	55763.26
565.39	55327.92
565.56	55096.21
565.72	54740.45
565.88	55065.78
566.05	55257.71
566.21	55454.31
566.38	55517.51
566.54	55826.46
566.70	55987.95
566.87	56350.74
567.03	56097.96
567.19	56568.41
567.36	56348.40
567.52	56128.39
567.68	55814.76
567.85	55243.66
568.01	54904.29
568.17	54309.79
568.34	54567.25
568.50	54471.29
568.66	54471.29
568.83	55079.83
568.99	54864.50
569.15	55119.62
569.32	55206.22
569.48	54913.65
569.64	54679.60
569.81	54387.03
569.97	54265.32
570.13	54438.52
570.30	53897.86
570.46	53528.05
570.62	53116.12
570.78	52872.70
570.95	53062.29
571.11	53785.51
571.27	54047.65
571.43	54005.52
571.60	54321.49
571.76	54625.76
571.92	54923.01
572.09	54892.58
572.25	54710.02
572.41	54990.89
572.57	54749.81
572.74	54635.13
572.90	54450.22
573.06	54443.20
573.22	54625.76
573.38	54511.08
573.55	54260.64
573.71	54564.91
573.87	54513.42
574.03	54365.96
574.20	54251.28
574.36	54068.72
574.52	53825.30
574.68	53961.05
574.84	53546.78
575.01	52996.75
575.17	52816.53
575.33	52966.32
575.49	53296.34
575.65	53432.09
575.82	53191.01
575.98	52849.30
576.14	53059.94
576.30	53705.93
576.46	53595.93
576.62	53455.50
576.79	53371.24
576.95	53230.80
577.11	53059.94
577.27	53298.68
577.43	53113.78
577.59	52996.75
577.75	52729.93
577.92	51725.84
578.08	51423.91
578.24	51730.52
578.40	51910.74
578.56	52128.41
578.72	52416.30
578.88	52404.59
579.04	52530.98
579.21	52762.70
579.37	52669.08
579.53	52858.66
579.69	53059.94
579.85	52959.30
580.01	52830.57
580.17	52210.33
580.33	52048.83
580.49	52381.19
580.65	52533.32
580.82	52971.00
580.98	52949.94
581.14	52317.99
581.30	52889.09
581.46	52322.68
581.62	52928.87
581.78	53015.47
581.94	52912.49
582.10	52622.26
582.26	52989.73
582.42	52767.38
582.58	52772.06
582.74	52680.78
582.90	52924.19
583.06	52931.22
583.22	52800.15
583.38	52217.35
583.54	52385.87
583.70	52491.19
583.86	52341.40
584.02	52442.04
584.18	52472.47
584.34	52521.62
584.50	52332.04
584.66	51948.19
584.82	51559.66
584.98	51536.26
585.14	51147.73
