SpectraSuite Data File
++++++++++++++++++++++++++++++++++++
Date: Mon Oct 07 14:53:58 GMT-05:00 2013
User: price-jones
Dark Spectrum Present: No
Reference Spectrum Present: No
Number of Sampled Component Spectra: 1
Spectrometers: USB2+H05261
Integration Time (usec): 100000 (USB2+H05261)
Spectra Averaged: 1 (USB2+H05261)
Boxcar Smoothing: 0 (USB2+H05261)
Correct for Electrical Dark: No (USB2+H05261)
Strobe/Lamp Enabled: No (USB2+H05261)
Correct for Detector Non-linearity: No (USB2+H05261)
Correct for Stray Light: No (USB2+H05261)
Number of Pixels in Processed Spectrum: 2048
>>>>>Begin Processed Spectral Data<<<<<
365.73	0.00
365.92	0.00
366.12	0.00
366.32	0.00
366.52	0.00
366.72	0.00
366.91	0.00
367.11	0.00
367.31	0.00
367.51	0.00
367.70	0.00
367.90	0.00
368.10	0.00
368.30	0.00
368.49	0.00
368.69	0.00
368.89	0.00
369.09	0.00
369.28	0.00
369.48	0.00
369.68	0.00
369.87	0.00
370.07	0.00
370.27	0.00
370.47	716.20
370.66	3503.78
370.86	4156.79
371.06	4472.76
371.25	4477.44
371.45	3974.23
371.65	3611.45
371.84	3452.29
372.04	3623.15
372.24	3992.95
372.44	4128.70
372.63	4227.01
372.83	3918.06
373.03	3552.93
373.22	3150.36
373.42	3342.28
373.62	3779.97
373.81	3992.95
374.01	4070.19
374.21	3693.37
374.40	3379.73
374.60	3541.23
374.79	4002.32
374.99	4603.83
375.19	5008.75
375.38	5020.45
375.58	4812.14
375.78	4779.37
375.97	4660.01
376.17	5001.72
376.37	4903.42
376.56	5163.22
376.76	5373.87
376.95	5724.95
377.15	6179.01
377.35	6249.23
377.54	6597.97
377.74	6689.25
377.93	6668.19
378.13	6511.37
378.33	6270.30
378.52	5671.12
378.72	5448.77
378.91	5467.49
379.11	5291.95
379.31	5109.39
379.50	5114.07
379.70	5516.64
379.89	5977.73
380.09	6338.17
380.28	6766.49
380.48	6586.27
380.68	6417.75
380.87	6277.32
381.07	5928.58
381.26	5455.79
381.46	5144.50
381.65	4877.68
381.85	4933.85
382.04	4617.88
382.24	4250.41
382.43	4095.94
382.63	4051.47
382.83	4060.83
383.02	4091.26
383.22	3983.59
383.41	3911.04
383.61	4142.75
383.80	4971.30
384.00	5561.11
384.19	6195.40
384.39	6469.24
384.58	6684.57
384.78	6251.57
384.97	6253.91
385.17	6092.41
385.36	5650.05
385.56	5561.11
385.75	5645.37
385.95	6228.17
386.14	6717.34
386.34	6654.14
386.53	6317.11
386.72	6207.10
386.92	6097.10
387.11	6413.07
387.31	6740.74
387.50	6562.86
387.70	6347.53
387.89	6228.17
388.09	6354.55
388.28	6368.60
388.48	6494.99
388.67	6935.01
388.86	7599.72
389.06	8107.62
389.25	8610.83
389.45	8791.05
389.64	8655.30
389.84	8409.54
390.03	8365.07
390.22	8393.16
390.42	8524.23
390.61	9210.01
390.81	9902.81
391.00	10125.16
391.19	9865.36
391.39	9626.62
391.58	9104.68
391.78	8472.74
391.97	8381.46
392.16	7791.64
392.36	6939.69
392.55	5724.95
392.75	4594.47
392.94	3669.96
393.13	3709.75
393.33	4234.03
393.52	5607.92
393.71	6682.23
393.91	7613.76
394.10	8182.51
394.29	9137.45
394.49	9575.13
394.68	10455.17
394.88	10406.02
395.07	10906.90
395.26	10614.33
395.46	10576.88
395.65	9743.65
395.84	8613.17
396.04	7405.46
396.23	6069.01
396.42	5015.77
396.62	4629.58
396.81	5511.96
397.00	7030.97
397.19	8957.23
397.39	10387.30
397.58	11695.66
397.77	12498.46
397.97	13085.94
398.16	13273.18
398.35	13818.52
398.55	14185.99
398.74	14586.22
398.93	14902.19
399.12	14923.26
399.32	13994.06
399.51	14317.06
399.70	15576.27
399.90	15108.16
400.09	15531.80
400.28	15030.92
400.47	15021.56
400.67	16166.08
400.86	16762.92
401.05	16437.58
401.24	16428.22
401.44	17118.68
401.63	16805.05
401.82	16982.93
402.01	16791.00
402.21	16798.02
402.40	17338.69
402.59	16814.41
402.78	15990.54
402.97	15482.64
403.17	15957.77
403.36	16926.75
403.55	17619.55
403.74	17781.05
403.93	17003.99
404.13	15805.64
404.32	15555.20
404.51	16313.53
404.70	17390.18
404.89	17280.18
405.09	17268.47
405.28	16681.00
405.47	16556.95
405.66	16519.50
405.85	16379.07
406.05	15646.48
406.24	15878.19
406.43	16608.44
406.62	17170.17
406.81	17233.36
407.00	16629.51
407.20	16561.63
407.39	16425.88
407.58	17219.32
407.77	17961.27
407.96	18651.73
408.15	18473.85
408.34	18492.57
408.54	19611.35
408.73	19754.12
408.92	19447.51
409.11	18771.10
409.30	18073.62
409.49	16762.92
409.68	15644.14
409.87	15087.09
410.07	16236.30
410.26	17528.27
410.45	18434.06
410.64	19314.10
410.83	19328.14
411.02	20013.92
411.21	20664.59
411.40	20744.17
411.59	20608.42
411.78	20367.34
411.98	20093.50
412.17	20582.67
412.36	20540.54
412.55	20365.00
412.74	19852.42
412.93	19419.42
413.12	19740.08
413.31	21158.44
413.50	21624.21
413.69	22082.95
413.88	21156.10
414.07	20156.69
414.26	20999.29
414.45	21532.93
414.64	21467.39
414.83	21617.19
415.02	21151.42
415.22	21156.10
415.41	21757.62
415.60	22534.68
415.79	23571.54
415.98	23686.22
416.17	23873.46
416.36	23021.51
416.55	22700.86
416.74	22309.99
416.93	21521.23
417.12	21146.74
417.31	21902.73
417.50	22286.58
417.69	22726.60
417.88	22651.70
418.07	22309.99
418.26	22132.11
418.45	22295.94
418.64	23229.82
418.83	23765.80
419.02	23330.46
419.21	23447.49
419.39	22478.50
419.58	21158.44
419.77	21553.99
419.96	22356.80
420.15	23517.70
420.34	24250.29
420.53	25230.98
420.72	25521.20
420.91	25221.61
421.10	24783.93
421.29	24657.54
421.48	23866.44
421.67	25338.64
421.86	24606.05
422.05	22946.61
422.24	20444.58
422.43	20287.76
422.61	22202.32
422.80	24299.44
422.99	24290.08
423.18	23391.31
423.37	23096.41
423.56	22684.47
423.75	23136.20
423.94	23854.74
424.13	22471.48
424.32	22693.83
424.50	22686.81
424.69	22389.56
424.88	22714.90
425.07	22244.45
425.26	22427.01
425.45	22225.73
425.64	21788.05
425.83	21633.57
426.01	23098.75
426.20	23798.57
426.39	23812.61
426.58	22115.72
426.77	20208.19
426.96	19578.58
427.15	20339.26
427.33	22047.85
427.52	22567.45
427.71	22799.16
427.90	22586.17
428.09	22443.40
428.28	21818.47
428.46	21266.11
428.65	20692.68
428.84	21128.02
429.03	21511.86
429.22	20357.98
429.40	19337.51
429.59	17525.93
429.78	15594.99
429.97	15761.17
430.16	15824.36
430.34	15967.13
430.53	15807.98
430.72	16161.40
430.91	18005.74
431.10	21266.11
431.28	24767.55
431.47	27033.19
431.66	26995.74
431.85	24570.94
432.03	22735.96
432.22	21511.86
432.41	22707.88
432.60	24849.47
432.79	26089.95
432.97	26462.10
433.16	26274.85
433.35	24044.32
433.54	21324.62
433.72	20428.20
433.91	20655.23
434.10	23278.97
434.28	24563.92
434.47	25982.29
434.66	25673.34
434.85	25008.62
435.03	24683.29
435.22	25834.83
435.41	27395.97
435.59	27218.09
435.78	27257.88
435.97	28666.88
436.16	28168.35
436.34	27477.89
436.53	27349.16
436.72	27620.66
436.90	25977.61
437.09	25968.24
437.28	25486.09
437.46	26649.34
437.65	26031.44
437.84	24725.42
438.02	22377.86
438.21	22256.15
438.40	23454.51
438.58	25413.54
438.77	25961.22
438.96	26583.80
439.14	27679.18
439.33	28292.40
439.52	28678.58
439.70	28154.30
439.89	27302.35
440.08	26532.31
440.26	26611.89
440.45	27080.00
440.63	29186.48
440.82	30686.76
441.01	30321.64
441.19	30054.82
441.38	30352.07
441.57	31239.13
441.75	32290.03
441.94	32224.50
442.12	31936.61
442.31	32774.52
442.50	32460.89
442.68	31845.33
442.87	31878.10
443.05	30946.56
443.24	31456.80
443.43	32371.95
443.61	32938.36
443.80	33174.75
443.98	31440.42
444.17	31517.65
444.35	33205.18
444.54	33787.97
444.73	33652.22
444.91	32271.31
445.10	30897.41
445.28	29490.75
445.47	28809.65
445.65	29020.30
445.84	29802.04
446.02	30632.93
446.21	31604.25
446.39	31732.98
446.58	32144.92
446.77	32385.99
446.95	32809.63
447.14	33778.61
447.32	34316.93
447.51	33539.88
447.69	32154.28
447.88	31510.63
448.06	31955.33
448.25	32643.45
448.43	33123.26
448.62	32243.22
448.80	31943.63
448.99	32587.28
449.17	32563.87
449.36	32723.03
449.54	33879.25
449.73	34132.03
449.91	34787.38
450.10	36233.83
450.28	36070.00
450.46	36322.77
450.65	35995.10
450.83	35704.87
451.02	35110.38
451.20	34829.51
451.39	34314.59
451.57	34593.12
451.76	34335.66
451.94	34417.58
452.13	33701.37
452.31	32514.72
452.49	30843.58
452.68	31487.23
452.86	31599.57
453.05	31452.12
453.23	32716.01
453.42	32919.63
453.60	34394.17
453.78	34604.82
453.97	34089.90
454.15	33944.79
454.34	33530.51
454.52	33888.62
454.70	32830.69
454.89	33151.35
455.07	33825.42
455.26	33832.44
455.44	35112.72
455.62	35985.74
455.81	35990.42
455.99	35637.00
456.17	35093.99
456.36	35199.32
456.54	36428.10
456.73	36140.21
456.91	37205.16
457.09	37233.24
457.28	37708.37
457.46	35955.31
457.64	35770.41
457.83	34742.91
458.01	34319.28
458.19	35250.81
458.38	35199.32
458.56	36238.51
458.74	36549.81
458.93	35290.60
459.11	35468.48
459.29	35515.29
459.48	35306.98
459.66	35058.88
459.84	35629.98
460.03	35835.94
460.21	35821.90
460.39	36713.64
460.57	36685.56
460.76	37460.27
460.94	37521.13
461.12	36989.83
461.31	36917.27
461.49	36947.70
461.67	36964.08
461.85	38052.43
462.04	37691.99
462.22	38401.17
462.40	38113.28
462.59	37860.51
462.77	37951.79
462.95	37703.69
463.13	37242.60
463.32	37003.87
463.50	37158.34
463.68	37170.05
463.86	36772.16
464.05	36472.57
464.23	35690.83
464.41	35461.46
464.59	34745.25
464.78	36769.82
464.96	36514.70
465.14	35716.58
465.32	37095.15
465.50	37780.93
465.69	38155.41
465.87	37420.48
466.05	36212.77
466.23	34733.55
466.41	33926.07
466.60	35093.99
466.78	34752.27
466.96	35798.49
467.14	36130.85
467.32	36570.87
467.51	36933.65
467.69	35236.77
467.87	36119.15
468.05	36168.30
468.23	36552.15
468.41	36645.77
468.60	36615.34
468.78	36975.78
468.96	36503.00
469.14	37350.27
469.32	37469.64
469.50	35852.33
469.69	35917.86
469.87	35501.25
470.05	35229.74
470.23	35353.79
470.41	35218.04
470.59	36231.49
470.77	36385.97
470.95	36809.61
471.14	37289.42
471.32	36943.02
471.50	39365.47
471.68	39936.56
471.86	39765.70
472.04	39732.93
472.22	39854.64
472.40	38206.90
472.58	37783.27
472.77	37266.01
472.95	38094.56
473.13	38988.64
473.31	38132.01
473.49	38234.99
473.67	38930.13
473.85	39129.08
474.03	40109.76
474.21	40161.25
474.39	40561.48
474.57	40758.09
474.75	41003.85
474.93	40645.74
475.12	39608.89
475.30	39784.43
475.48	40041.88
475.66	40484.25
475.84	39718.89
476.02	39330.36
476.20	38745.23
476.38	39805.49
476.56	40818.94
476.74	41624.09
476.92	41354.93
477.10	42330.93
477.28	43550.35
477.46	42841.17
477.64	43550.35
477.82	43665.03
478.00	44051.22
478.18	43564.39
478.36	43049.47
478.54	43100.97
478.72	43168.84
478.90	44477.20
479.08	45195.74
479.26	45633.42
479.44	45542.14
479.62	45865.14
479.80	45453.20
479.98	45710.66
480.16	46115.58
480.34	45766.84
480.52	45886.20
480.70	46256.01
480.88	46080.47
481.06	46815.40
481.24	47189.88
481.41	48406.96
481.59	48598.88
481.77	48519.31
481.95	47709.48
482.13	47875.66
482.31	47983.32
482.49	48516.96
482.67	48147.16
482.85	48589.52
483.03	49207.42
483.21	49312.75
483.39	49476.58
483.57	48622.29
483.74	48170.57
483.92	48786.13
484.10	49191.04
484.28	49752.77
484.46	50370.67
484.64	50260.66
484.82	49701.28
485.00	49345.51
485.18	48481.86
485.35	47622.88
485.53	44140.16
485.71	40346.15
485.89	39915.50
486.07	41897.93
486.25	45237.87
486.43	47487.13
486.61	48512.28
486.78	48402.28
486.96	48423.34
487.14	49755.11
487.32	50841.12
487.50	51601.79
487.68	52369.49
487.85	52947.60
488.03	52952.28
488.21	52357.78
488.39	51777.33
488.57	51334.97
488.75	50995.59
488.92	51676.69
489.10	53736.36
489.28	55051.74
489.46	55770.28
489.64	55566.66
489.81	55896.67
489.99	55283.45
490.17	55173.45
490.35	55599.43
490.53	55253.03
490.70	54852.80
490.88	54803.64
491.06	55732.84
491.24	55690.71
491.41	54775.56
491.59	53139.52
491.77	52594.18
491.95	53436.77
492.13	54567.25
492.30	55423.89
492.48	56619.90
492.66	57179.29
492.84	56830.55
493.01	56732.25
493.19	56104.98
493.37	55955.19
493.54	55618.15
493.72	56303.93
493.90	56985.02
494.08	57897.83
494.25	58117.84
494.43	58113.16
494.61	58546.16
494.79	58770.85
494.96	58511.05
495.14	57815.91
495.32	57013.11
495.49	56552.02
495.67	57668.46
495.85	58607.01
496.02	59065.76
496.20	58824.68
496.38	58489.99
496.55	58412.75
496.73	58897.24
496.91	59002.56
497.09	59559.61
497.26	59522.16
497.44	59133.63
497.62	58616.38
497.79	58019.54
497.97	56491.17
498.14	56825.87
498.32	57750.38
498.50	58546.16
498.67	59470.67
498.85	59210.87
499.03	59337.26
499.20	59639.19
499.38	59587.70
499.56	59306.83
499.73	58944.05
499.91	58422.11
500.08	58047.63
500.26	57401.64
500.44	57968.05
500.61	58466.58
500.79	58342.53
500.97	57790.17
501.14	57869.75
501.32	57808.89
501.49	57701.23
501.67	57968.05
501.84	58534.46
502.02	58616.38
502.20	59077.46
502.37	59047.04
502.55	59049.38
502.72	59688.34
502.90	59814.73
503.07	59983.25
503.25	59526.84
503.43	58569.57
503.60	57975.07
503.78	57411.00
503.95	57663.78
504.13	59119.59
504.30	59788.98
504.48	59571.32
504.65	59133.63
504.83	59381.73
505.01	60006.65
505.18	60261.77
505.36	60692.43
505.53	60872.65
505.71	61134.79
505.88	61041.17
506.06	60369.44
506.23	60172.83
506.41	59620.47
506.58	59973.89
506.76	60189.22
506.93	59959.84
507.11	59971.55
507.28	59927.08
507.46	59384.07
507.63	58810.64
507.81	58658.51
507.98	59025.97
508.16	59576.00
508.33	60011.34
508.50	60486.46
508.68	60872.65
508.85	61132.45
509.03	61106.71
509.20	60940.53
509.38	60364.76
509.55	59494.08
509.73	59636.85
509.90	60205.60
510.08	60327.31
510.25	60362.42
510.42	60196.24
510.60	60149.43
510.77	60423.27
510.95	60802.44
511.12	60933.51
511.30	61263.52
511.47	61429.70
511.64	61291.61
511.82	61118.41
511.99	60467.74
512.17	60023.04
512.34	59482.37
512.51	59877.93
512.69	59824.09
512.86	60191.56
513.04	60350.71
513.21	60516.89
513.38	60081.55
513.56	59718.77
513.73	59185.13
513.90	59283.43
514.08	59161.72
514.25	59721.11
514.43	59854.52
514.60	59891.97
514.77	60336.67
514.95	60107.30
515.12	59936.44
515.29	60273.48
515.47	60715.84
515.64	60830.52
515.81	60633.92
515.99	60086.23
516.16	58646.80
516.33	56626.92
516.51	55084.51
516.68	54585.97
516.85	54080.42
517.03	54094.46
517.20	56987.36
517.37	59072.78
517.54	60095.60
517.72	59690.68
517.89	57268.23
518.06	54927.69
518.24	55388.78
518.41	57551.43
518.58	58901.92
518.75	58993.20
518.93	59096.19
519.10	58845.75
519.27	59388.75
519.45	59643.87
519.62	60299.22
519.79	60530.93
519.96	60446.68
520.14	59999.63
520.31	59238.96
520.48	59079.80
520.65	59545.57
520.83	60353.05
521.00	60933.51
521.17	60610.51
521.34	60088.57
521.52	60381.14
521.69	60942.87
521.86	61361.82
522.03	60926.49
522.20	59861.54
522.38	58656.17
522.55	58749.79
522.72	59465.99
522.89	59545.57
523.07	59859.20
523.24	59882.61
523.41	60865.63
523.58	61041.17
523.75	61471.83
523.92	61293.95
524.10	61336.08
524.27	61254.16
524.44	61038.83
524.61	60863.29
524.78	60886.70
524.96	60743.92
525.13	60647.96
525.30	60769.67
525.47	61357.14
525.64	61258.84
525.81	60664.35
525.98	59213.21
526.16	57949.32
526.33	57076.30
526.50	57083.33
526.67	56535.64
526.84	57293.97
527.01	58061.67
527.18	58536.80
527.36	59608.76
527.53	60470.08
527.70	60727.54
527.87	60444.33
528.04	59917.71
528.21	60289.86
528.38	61022.45
528.55	61492.89
528.72	61649.71
528.89	61574.81
529.07	61584.18
529.24	60949.89
529.41	60516.89
529.58	59807.71
529.75	59884.95
529.92	60364.76
530.09	60708.82
530.26	61172.24
530.43	61233.10
530.60	61415.66
530.77	61719.93
530.94	61652.05
531.11	61153.52
531.28	60949.89
531.46	60851.59
531.63	61141.81
531.80	60846.91
531.97	60374.12
532.14	59590.04
532.31	58688.93
532.48	58166.99
532.65	58227.85
532.82	58827.02
532.99	60065.17
533.16	60392.84
533.33	60889.04
533.50	60736.90
533.67	60186.88
533.84	59559.61
534.01	60126.02
534.18	60214.96
534.35	60130.70
534.52	60252.41
534.69	60301.56
534.86	60596.47
535.03	60720.52
535.20	61244.80
535.37	61621.62
535.54	61689.50
535.71	61275.22
535.88	60903.08
536.05	60383.48
536.22	60133.04
536.38	59767.92
536.55	59288.11
536.72	58761.49
536.89	58763.83
537.06	59524.50
537.23	60250.07
537.40	60516.89
537.57	60416.25
537.74	60289.86
537.91	60329.65
538.08	60151.77
538.25	60317.95
538.42	60566.04
538.59	60231.35
538.75	59805.37
538.92	59468.33
539.09	59414.50
539.26	59168.74
539.43	58960.44
539.60	59086.82
539.77	59276.41
539.94	59084.48
540.11	58443.18
540.28	57928.26
540.44	57881.45
540.61	58302.74
540.78	58468.92
540.95	58972.14
541.12	59138.32
541.29	59487.06
541.46	59704.73
541.62	59849.84
541.79	59707.07
541.96	59075.12
542.13	58960.44
542.30	59440.24
542.47	59480.03
542.63	59070.44
542.80	59072.78
542.97	59042.35
543.14	58983.84
543.31	59042.35
543.48	59601.74
543.64	60233.69
543.81	60521.57
543.98	60505.19
544.15	59781.96
544.32	59143.00
544.48	59386.41
544.65	59739.83
544.82	60020.70
544.99	59627.49
545.16	59440.24
545.32	59023.63
545.49	59791.33
545.66	60140.07
545.83	59793.67
546.00	59332.58
546.16	59143.00
546.33	59444.93
546.50	59089.16
546.67	59746.86
546.83	59339.60
547.00	59311.52
547.17	58623.40
547.34	58141.25
547.50	58206.78
547.67	58520.41
547.84	58546.16
548.00	58927.67
548.17	59229.60
548.34	59168.74
548.51	59154.70
548.67	59260.02
548.84	59238.96
549.01	59306.83
549.18	59175.76
549.34	59093.85
549.51	59040.01
549.68	59105.55
549.84	58965.12
550.01	58642.12
550.18	58585.95
550.34	58621.06
550.51	58756.81
550.68	58784.90
550.84	58412.75
551.01	58431.47
551.18	58422.11
551.34	58574.25
551.51	58981.50
551.68	59306.83
551.84	59121.93
552.01	58974.48
552.18	59004.91
552.34	58239.55
552.51	57820.59
552.68	57818.25
552.84	58178.70
553.01	58501.69
553.18	58471.26
553.34	58328.49
553.51	58394.03
553.67	58759.15
553.84	58976.82
554.01	58894.90
554.17	58562.54
554.34	58616.38
554.51	58679.57
554.67	59135.98
554.84	58747.45
555.00	58679.57
555.17	58426.79
555.33	58450.20
555.50	58209.12
555.67	58265.30
555.83	58204.44
556.00	57946.98
556.16	58038.26
556.33	57434.41
556.50	57326.74
556.66	57432.07
556.83	57265.89
556.99	57382.91
557.16	57389.94
557.32	57766.76
557.49	57855.70
557.65	58007.84
557.82	57911.88
557.98	57471.85
558.15	57333.76
558.32	56339.04
558.48	55807.73
558.65	55700.07
558.81	55990.30
558.98	56718.20
559.14	56643.30
559.31	56755.65
559.47	56603.52
559.64	56364.78
559.80	56170.52
559.97	56271.16
560.13	56554.36
560.30	57401.64
560.46	58040.60
560.63	57921.24
560.79	57991.45
560.96	57867.40
561.12	56680.75
561.29	55966.89
561.45	55842.84
561.61	56477.13
561.78	56825.87
561.94	56722.88
562.11	56575.43
562.27	56388.19
562.44	56849.27
562.60	57137.16
562.77	57148.86
562.93	57020.13
563.10	57045.88
563.26	56727.56
563.42	56526.28
563.59	56264.14
563.75	56317.97
563.92	56381.16
564.08	56399.89
564.24	56680.75
564.41	56427.98
564.57	56566.07
564.74	56189.24
564.90	56317.97
565.07	56179.88
565.23	55639.22
565.39	55210.90
565.56	55143.02
565.72	54672.57
565.88	55292.82
566.05	55271.75
566.21	55648.58
566.38	55674.32
566.54	55966.89
566.70	56039.45
566.87	56402.23
567.03	56296.91
567.19	56465.42
567.36	56301.59
567.52	56161.15
567.68	55831.14
567.85	55391.12
568.01	54855.14
568.17	54473.63
568.34	54883.22
568.50	54347.24
568.66	54660.87
568.83	55086.85
568.99	54824.71
569.15	55121.96
569.32	55213.24
569.48	54649.17
569.64	54742.79
569.81	54218.51
569.97	54443.20
570.13	54328.52
570.30	53757.42
570.46	53518.69
570.62	52839.93
570.78	52636.31
570.95	53165.27
571.11	53729.34
571.27	54202.13
571.43	54150.63
571.60	54756.83
571.76	54740.45
571.92	54841.09
572.09	54948.76
572.25	55051.74
572.41	54894.92
572.57	54927.69
572.74	54600.02
572.90	54590.66
573.06	54342.56
573.22	54415.11
573.38	54415.11
573.55	54461.93
573.71	54560.23
573.87	54394.05
574.03	54216.17
574.20	54246.60
574.36	54085.10
574.52	53881.47
574.68	53511.67
574.84	53242.51
575.01	52851.64
575.17	53109.10
575.33	52786.10
575.49	53174.63
575.65	53687.21
575.82	53120.80
575.98	52821.21
576.14	53279.96
576.30	53572.52
576.46	53556.14
576.62	53560.82
576.79	53525.71
576.95	53308.04
577.11	52711.20
577.27	53041.22
577.43	53230.80
577.59	52928.87
577.75	52446.72
577.92	51821.80
578.08	51732.86
578.24	51498.81
578.40	52097.98
578.56	52392.89
578.72	52282.89
578.88	52491.19
579.04	52678.44
579.21	52619.92
579.37	52718.23
579.53	52846.96
579.69	52912.49
579.85	53083.35
580.01	52800.15
580.17	52266.50
580.33	52030.11
580.49	52378.85
580.65	52729.93
580.82	53001.43
580.98	52758.02
581.14	52638.65
581.30	52935.90
581.46	52626.95
581.62	52561.41
581.78	52704.18
581.94	52956.96
582.10	52886.74
582.26	52940.58
582.42	52650.35
582.58	52711.20
582.74	52788.44
582.90	52839.93
583.06	52727.59
583.22	52694.82
583.38	52488.85
583.54	52130.75
583.70	52303.95
583.86	52371.83
584.02	52360.12
584.18	52381.19
584.34	52236.08
584.50	51976.28
584.66	51962.23
584.82	51571.36
584.98	51728.18
585.14	51255.39
